##NAMES=Fluorapatite
##RRUFFID=R050122
##IDEAL CHEMISTRY=Ca_5_(PO_4_)_3_F
##LOCALITY=Cruziero mine, San Jose, Minas Gerais, Brazil
##OWNER=RRUFF
##SOURCE=Carlos and Paulo Vasconcelos
##DESCRIPTION=Green fragment
##STATUS=The identification of this mineral has been confirmed by X-ray diffraction and chemical analysis
##URL=rruff.info/R050122
##MEASURED CHEMISTRY=(Ca_4.99_Mn_0.01_)_Î£=5_(P_1.00_O_4_)_3_F_1.00_; trace amounts of Fe
##PIN_ID=L00505
##ORIENTATION=Laser parallel to -a* (-1 0 0). Fiducial mark perpendicular to laser is parallel to -c [0 0 -1]
116.256, 0.000
117.653, 76.591
119.050, 1.990
120.447, 77.941
121.843, 41.451
123.240, 184.892
124.636, 53.823
126.031, 96.941
127.427, 130.029
128.822, 99.923
130.217, 142.497
131.612, 130.650
133.006, 127.305
134.400, 120.402
135.794, 153.892
137.188, 130.732
138.581, 162.885
139.975, 143.314
141.368, 131.990
142.760, 160.886
144.153, 166.982
145.545, 115.264
146.937, 119.719
148.329, 82.341
149.720, 137.117
151.112, 96.036
152.503, 224.097
153.893, 174.292
155.284, 252.608
156.674, 265.031
158.064, 231.552
159.454, 253.158
160.843, 174.839
162.233, 191.586
163.622, 123.393
165.011, 143.255
166.399, 177.167
167.787, 118.126
169.175, 170.129
170.563, 189.199
171.951, 105.333
173.338, 109.533
174.725, 129.775
176.112, 96.101
177.499, 96.504
178.885, 122.008
180.271, 141.551
181.657, 108.115
183.043, 132.702
184.428, 175.341
185.813, 159.078
187.198, 78.962
188.583, 171.861
189.967, 69.774
191.351, 168.701
192.735, 147.644
194.119, 179.586
195.502, 194.521
196.885, 208.512
198.268, 270.366
199.651, 264.273
201.033, 281.153
202.415, 329.007
203.797, 490.847
205.179, 634.674
206.561, 729.492
207.942, 884.304
209.323, 1030.110
210.703, 1039.912
212.084, 976.711
213.464, 864.508
214.844, 848.305
216.224, 605.103
217.603, 473.899
218.983, 422.701
220.362, 342.521
221.741, 247.359
223.119, 186.089
224.497, 200.945
225.875, 198.789
227.253, 175.618
228.631, 203.476
230.008, 228.759
231.385, 243.765
232.762, 167.805
234.139, 270.857
235.515, 201.697
236.891, 257.760
238.267, 182.800
239.643, 252.345
241.018, 177.552
242.393, 137.675
243.768, 136.705
245.143, 97.531
246.517, 86.740
247.891, 85.859
249.265, 68.097
250.639, 91.636
252.012, 51.531
253.386, 80.898
254.759, 0.848
256.131, 28.899
257.504, 67.675
258.876, 13.628
260.248, 22.883
261.620, 65.207
262.991, 29.224
264.363, 20.746
265.734, 9.862
267.104, 88.309
268.475, 80.438
269.845, 102.339
271.215, 48.061
272.585, 121.772
273.955, 4.472
275.324, 50.161
276.693, 10.839
278.062, 57.505
279.431, 87.160
280.799, 73.804
282.167, 110.310
283.535, 100.449
284.903, 128.222
286.270, 128.525
287.638, 183.888
289.005, 138.302
290.371, 195.760
291.738, 174.256
293.104, 268.785
294.470, 225.344
295.836, 255.928
297.201, 213.536
298.567, 330.164
299.932, 333.811
301.296, 319.474
302.661, 401.152
304.025, 364.844
305.389, 360.549
306.753, 360.263
308.117, 363.988
309.480, 320.721
310.843, 340.462
312.206, 337.380
313.569, 298.134
314.931, 261.900
316.293, 241.665
317.655, 227.434
319.017, 195.533
320.378, 146.381
321.740, 136.158
323.101, 113.615
324.461, 69.394
325.822, 79.173
327.182, 19.908
328.542, 42.942
329.902, 59.777
331.261, 11.665
332.621, 65.603
333.980, 27.376
335.339, 63.208
336.697, 33.781
338.056, 37.009
339.414, 22.624
340.772, 6.235
342.129, 8.841
343.487, 2.993
344.844, 48.892
346.201, 3.837
347.557, 25.586
348.914, 2.952
350.270, 29.184
351.626, 55.100
352.982, 47.620
354.337, 60.310
355.693, 1.027
357.048, 55.894
358.402, 13.016
359.757, 1.558
361.111, 33.903
362.465, 17.847
363.819, 4.105
365.173, 21.830
366.526, 25.357
367.879, 41.204
369.232, 44.166
370.585, 51.291
371.937, 39.666
373.290, 60.258
374.642, 61.305
375.993, 63.818
377.345, 29.882
378.696, 42.826
380.047, 26.780
381.398, 2.717
382.748, 10.769
384.099, 59.671
385.449, 22.525
386.799, 83.204
388.148, 1.097
389.497, 26.335
390.847, 33.880
392.196, 50.667
393.544, 51.966
394.893, 3.327
396.241, 8.470
397.589, 95.971
398.936, 48.775
400.284, 22.404
401.631, 40.881
402.978, 3.431
404.325, 45.848
405.672, 47.533
407.018, 34.049
408.364, 27.345
409.710, 13.631
411.055, 10.004
412.401, 84.497
413.746, 80.744
415.091, 1.029
416.435, 189.182
417.780, 4.359
419.124, 75.507
420.468, 65.639
421.812, 150.760
423.155, 136.869
424.498, 129.963
425.842, 316.046
427.184, 204.117
428.527, 318.174
429.869, 411.221
431.211, 371.252
432.553, 376.273
433.895, 363.281
435.236, 425.278
436.577, 378.267
437.918, 303.242
439.259, 440.206
440.599, 391.159
441.940, 399.100
443.280, 442.034
444.619, 471.957
445.959, 547.871
447.298, 724.777
448.637, 743.671
449.976, 849.556
451.315, 884.431
452.653, 885.292
453.991, 860.481
455.329, 796.979
456.667, 724.805
458.004, 647.617
459.341, 582.416
460.678, 466.201
462.015, 337.133
463.352, 380.900
464.688, 278.739
466.024, 245.496
467.360, 283.244
468.695, 249.111
470.031, 154.808
471.366, 202.558
472.701, 79.226
474.035, 137.928
475.370, 120.030
476.704, 159.659
478.038, 185.715
479.372, 28.334
480.705, 158.913
482.038, 199.662
483.371, 23.791
484.704, 192.862
486.037, 128.480
487.369, 95.208
488.701, 111.212
490.033, 2.688
491.365, 103.137
492.696, 92.068
494.027, 222.482
495.358, 12.626
496.689, 75.741
498.019, 125.875
499.350, 9.587
500.680, 42.098
502.009, 57.441
503.339, 38.645
504.668, 99.243
505.997, 1.465
507.326, 133.564
508.655, 16.090
509.983, 23.266
511.311, 330.729
512.639, 132.085
513.967, 287.375
515.295, 27.940
516.622, 93.944
517.949, 18.411
519.276, 11.723
520.602, 195.553
521.929, 41.427
523.255, 63.545
524.581, 116.619
525.906, 26.285
527.232, 0.466
528.557, 65.111
529.882, 84.633
531.207, 3.694
532.531, 140.661
533.855, 57.913
535.179, 72.905
536.503, 81.902
537.827, 51.785
539.150, 47.776
540.473, 50.245
541.796, 25.972
543.119, 54.785
544.441, 77.039
545.764, 89.184
547.086, 95.033
548.407, 85.731
549.729, 153.567
551.050, 6.818
552.371, 114.594
553.692, 81.283
555.013, 58.154
556.333, 126.671
557.653, 58.722
558.973, 98.204
560.293, 132.342
561.612, 109.743
562.932, 138.132
564.251, 71.743
565.569, 110.492
566.888, 203.424
568.206, 182.898
569.524, 137.121
570.842, 106.576
572.160, 173.616
573.477, 169.188
574.795, 282.831
576.112, 238.354
577.428, 296.055
578.745, 299.272
580.061, 445.535
581.377, 488.939
582.693, 556.028
584.009, 764.463
585.324, 1102.888
586.639, 1472.805
587.954, 2337.852
589.269, 3057.607
590.583, 3673.642
591.897, 3789.580
593.212, 2895.604
594.525, 2050.328
595.839, 1387.985
597.152, 937.906
598.465, 836.890
599.778, 639.588
601.091, 636.560
602.403, 631.624
603.716, 821.222
605.028, 1304.207
606.339, 1508.653
607.651, 1863.700
608.962, 1361.637
610.273, 956.004
611.584, 672.747
612.895, 434.297
614.205, 392.987
615.515, 229.292
616.825, 262.798
618.135, 348.215
619.444, 138.760
620.754, 228.069
622.063, 158.496
623.372, 174.590
624.680, 174.267
625.989, 142.616
627.297, 200.139
628.605, 164.504
629.912, 189.667
631.220, 169.043
632.527, 69.940
633.834, 212.654
635.141, 77.015
636.447, 177.819
637.754, 223.585
639.060, 138.332
640.366, 196.782
641.671, 147.208
642.977, 151.988
644.282, 128.503
645.587, 159.034
646.892, 371.582
648.196, 219.421
649.501, 68.299
650.805, 284.301
652.109, 72.138
653.412, 190.610
654.716, 164.016
656.019, 139.396
657.322, 95.588
658.625, 119.502
659.927, 233.287
661.230, 84.407
662.532, 197.460
663.834, 191.130
665.135, 104.583
666.437, 159.464
667.738, 110.736
669.039, 148.938
670.340, 162.559
671.640, 45.833
672.940, 214.169
674.241, 39.439
675.540, 122.287
676.840, 166.045
678.139, 28.284
679.439, 175.124
680.738, 103.071
682.036, 110.039
683.335, 180.374
684.633, 35.811
685.931, 172.110
687.229, 97.894
688.527, 99.419
689.824, 47.111
691.121, 103.723
692.418, 97.362
693.715, 91.130
695.012, 71.532
696.308, 176.152
697.604, 83.233
698.900, 180.202
700.195, 123.827
701.491, 127.219
702.786, 92.308
704.081, 48.362
705.376, 114.525
706.670, 31.879
707.964, 60.475
709.259, 77.523
710.552, 8.902
711.846, 61.606
713.139, 66.528
714.433, 101.955
715.726, 92.455
717.018, 99.857
718.311, 58.643
719.603, 41.726
720.895, 20.707
722.187, 178.199
723.479, 49.308
724.770, 89.360
726.061, 29.947
727.352, 199.571
728.643, 58.497
729.934, 138.162
731.224, 66.637
732.514, 173.435
733.804, 121.473
735.094, 94.091
736.383, 78.638
737.672, 147.946
738.961, 59.227
740.250, 55.896
741.539, 171.104
742.827, 11.843
744.115, 198.979
745.403, 125.404
746.691, 142.511
747.978, 115.552
749.265, 15.979
750.552, 191.249
751.839, 122.187
753.126, 106.183
754.412, 168.055
755.698, 7.896
756.984, 69.918
758.270, 175.103
759.555, 75.968
760.840, 251.666
762.125, 48.337
763.410, 68.205
764.695, 216.807
765.979, 101.378
767.263, 140.914
768.547, 100.420
769.831, 185.894
771.114, 131.336
772.398, 145.747
773.681, 108.127
774.964, 6.686
776.246, 122.613
777.529, 197.795
778.811, 49.014
780.093, 120.197
781.375, 71.215
782.656, 102.567
783.937, 143.608
785.219, 44.685
786.499, 245.679
787.780, 3.772
789.060, 67.198
790.341, 197.691
791.621, 98.579
792.901, 259.456
794.180, 20.117
795.459, 90.933
796.739, 161.584
798.017, 37.775
799.296, 172.691
800.575, 56.742
801.853, 103.863
803.131, 74.444
804.409, 24.486
805.686, 95.004
806.964, 4.997
808.241, 125.455
809.518, 175.778
810.795, 15.973
812.071, 225.962
813.347, 23.975
814.623, 116.355
815.899, 226.213
817.175, 16.491
818.450, 106.742
819.726, 86.605
821.001, 16.675
822.275, 146.511
823.550, 36.478
824.824, 116.471
826.098, 85.945
827.372, 56.014
828.646, 86.100
829.920, 25.166
831.193, 85.086
832.466, 74.352
833.739, 64.254
835.011, 103.827
836.284, 53.402
837.556, 46.736
838.828, 232.679
840.100, 82.457
841.371, 211.900
842.642, 18.324
843.914, 70.838
845.184, 70.211
846.455, 9.604
847.726, 89.649
848.996, 11.138
850.266, 148.404
851.536, 137.536
852.805, 8.042
854.075, 77.291
855.344, 156.945
856.613, 96.016
857.881, 270.823
859.150, 59.941
860.418, 145.743
861.686, 134.600
862.954, 13.729
864.222, 141.956
865.489, 38.878
866.756, 214.601
868.023, 203.492
869.290, 22.565
870.557, 111.402
871.823, 60.047
873.089, 8.596
874.355, 226.961
875.621, 113.961
876.886, 54.467
878.152, 133.052
879.417, 48.661
880.682, 60.290
881.946, 31.353
883.211, 30.178
884.475, 65.621
885.739, 55.624
887.003, 92.850
888.266, 101.191
889.530, 259.449
890.793, 147.978
892.056, 46.130
893.318, 164.245
894.581, 12.827
895.843, 160.234
897.105, 68.889
898.367, 137.224
899.629, 275.614
900.890, 43.876
902.152, 71.400
903.413, 319.945
904.673, 51.815
905.934, 246.303
907.194, 154.663
908.454, 18.269
909.714, 39.659
910.974, 108.009
912.234, 165.928
913.493, 178.831
914.752, 82.111
916.011, 189.947
917.270, 188.309
918.528, 196.255
919.786, 264.350
921.044, 210.549
922.302, 280.514
923.560, 158.525
924.817, 146.583
926.074, 164.469
927.331, 160.547
928.588, 198.468
929.844, 236.677
931.101, 134.262
932.357, 582.133
933.613, 79.787
934.868, 337.557
936.124, 415.484
937.379, 182.985
938.634, 541.094
939.889, 527.334
941.144, 414.893
942.398, 672.965
943.652, 520.635
944.906, 978.846
946.160, 906.148
947.414, 1193.752
948.667, 1301.641
949.920, 1255.752
951.173, 1673.664
952.426, 1906.592
953.678, 1954.199
954.931, 3051.863
956.183, 3809.119
957.435, 6106.670
958.686, 9643.481
959.938, 16901.135
961.189, 30819.457
962.440, 39966.629
963.691, 39054.637
964.941, 29085.957
966.192, 16563.527
967.442, 10041.880
968.692, 6219.017
969.942, 3646.522
971.191, 2775.152
972.441, 1652.268
973.690, 1359.917
974.939, 1147.097
976.187, 814.605
977.436, 872.265
978.684, 529.506
979.932, 446.867
981.180, 477.525
982.428, 354.876
983.675, 472.532
984.922, 250.363
986.169, 277.771
987.416, 225.154
988.663, 58.877
989.909, 136.570
991.155, 264.353
992.401, 32.033
993.647, 197.562
994.893, 145.282
996.138, 17.481
997.383, 298.853
998.628, 96.150
999.873, 262.174
1001.117, 120.113
1002.362, 22.406
1003.606, 364.514
1004.850, 12.136
1006.093, 209.674
1007.337, 207.571
1008.580, 125.177
1009.823, 112.339
1011.066, 220.422
1012.308, 57.915
1013.551, 334.895
1014.793, 23.646
1016.035, 318.248
1017.277, 266.993
1018.518, 194.596
1019.760, 361.635
1021.001, 219.639
1022.242, 346.826
1023.483, 444.303
1024.723, 212.028
1025.964, 542.192
1027.204, 262.473
1028.444, 349.972
1029.683, 594.572
1030.923, 372.502
1032.162, 587.910
1033.401, 436.292
1034.640, 323.617
1035.879, 777.543
1037.117, 496.261
1038.355, 1003.597
1039.593, 1161.218
1040.831, 1081.680
1042.069, 1428.785
1043.306, 1427.115
1044.544, 1874.353
1045.781, 2871.875
1047.017, 4070.767
1048.254, 7078.237
1049.490, 8036.512
1050.726, 6495.346
1051.962, 5322.530
1053.198, 3180.263
1054.434, 2394.749
1055.669, 1792.214
1056.904, 1135.793
1058.139, 1172.023
1059.374, 929.370
1060.608, 717.269
1061.843, 934.707
1063.077, 622.354
1064.311, 629.781
1065.544, 747.251
1066.778, 555.235
1068.011, 832.691
1069.244, 560.141
1070.477, 708.251
1071.710, 965.682
1072.942, 1321.106
1074.174, 1750.968
1075.406, 2598.431
1076.638, 3406.737
1077.870, 3072.038
1079.101, 3091.683
1080.332, 2189.990
1081.563, 1687.442
1082.794, 884.912
1084.025, 1062.381
1085.255, 729.839
1086.485, 677.357
1087.715, 794.863
1088.945, 272.366
1090.175, 620.511
1091.404, 547.997
1092.633, 95.472
1093.862, 473.658
1095.091, 351.111
1096.319, 168.995
1097.548, 516.425
1098.776, 193.858
1100.004, 241.989
1101.231, 389.446
1102.459, 97.083
1103.686, 404.611
1104.913, 142.037
1106.140, 180.913
1107.367, 268.320
1108.593, 35.714
1109.819, 214.073
1111.046, 121.440
1112.271, 121.207
1113.497, 316.615
1114.722, 33.903
1115.948, 181.378
1117.173, 268.638
1118.398, 24.117
1119.622, 424.194
1120.847, 301.406
1122.071, 248.604
1123.295, 316.668
1124.519, 93.839
1125.742, 231.597
1126.966, 329.122
1128.189, 73.746
1129.412, 256.039
1130.635, 83.119
1131.857, 30.183
1133.080, 237.800
1134.302, 124.828
1135.524, 263.204
1136.746, 350.399
1137.967, 57.397
1139.188, 325.845
1140.410, 222.466
1141.631, 59.502
1142.851, 612.401
1144.072, 128.458
1145.292, 216.651
1146.512, 394.352
1147.732, 91.236
1148.952, 468.661
1150.172, 254.516
1151.391, 91.346
1152.610, 501.201
1153.829, 48.008
1155.048, 324.791
1156.266, 225.627
1157.484, 72.373
1158.702, 500.857
1159.920, 227.561
1161.138, 15.582
1162.356, 501.830
1163.573, 11.535
1164.790, 325.068
1166.007, 263.600
1167.224, 70.162
1168.440, 317.859
1169.656, 94.678
1170.872, 181.166
1172.088, 386.014
1173.304, 47.514
1174.519, 348.908
1175.735, 156.742
1176.950, 53.127
1178.165, 480.490
1179.379, 37.428
1180.594, 203.732
1181.808, 431.768
1183.022, 11.961
1184.236, 444.271
1185.449, 224.596
1186.663, 39.223
1187.876, 366.904
1189.089, 54.215
1190.302, 180.283
1191.515, 246.887
1192.727, 15.736
1193.939, 440.232
1195.151, 68.191
1196.363, 15.906
1197.575, 319.953
1198.786, 197.258
1199.997, 233.057
1201.208, 429.264
1202.419, 84.312
1203.630, 321.355
1204.840, 189.584
1206.051, 125.279
1207.261, 570.852
1208.470, 240.393
1209.680, 235.895
1210.889, 471.877
1212.099, 159.123
1213.308, 764.521
1214.516, 370.881
1215.725, 126.854
1216.933, 692.152
1218.142, 222.484
1219.350, 457.709
1220.557, 632.900
1221.765, 115.209
1222.972, 610.320
1224.180, 555.396
1225.387, 111.748
1226.593, 736.742
1227.800, 266.932
1229.006, 565.730
1230.213, 530.645
1231.419, 372.322
1232.624, 637.191
1233.830, 642.039
1235.035, 188.652
1236.241, 813.455
1237.446, 368.387
1238.650, 173.459
1239.855, 698.178
1241.059, 243.102
1242.264, 537.768
1243.468, 452.410
1244.671, 193.662
1245.875, 768.254
1247.078, 312.812
1248.282, 338.211
1249.485, 782.717
1250.687, 67.184
1251.890, 641.875
1253.092, 756.281
1254.295, 130.570
1255.497, 774.914
1256.699, 479.102
1257.900, 238.336
1259.102, 592.555
1260.303, 316.242
1261.504, 450.920
1262.705, 515.033
1263.905, 117.900
1265.106, 592.420
1266.306, 596.412
1267.506, 160.365
1268.706, 704.291
1269.905, 227.893
1271.105, 282.787
1272.304, 776.553
1273.503, 16.730
1274.702, 402.318
1275.900, 605.609
1277.099, 238.889
1278.297, 682.465
1279.495, 95.787
1280.693, 279.832
1281.891, 693.273
1283.088, 86.184
1284.285, 420.725
1285.482, 364.039
1286.679, 33.180
1287.876, 640.066
1289.072, 113.006
1290.268, 176.043
1291.464, 749.270
1292.660, 251.814
1293.856, 465.186
1295.051, 567.945
1296.247, 10.250
1297.442, 807.342
1298.637, 489.295
1299.831, 1.793
1301.026, 564.504
1302.220, 76.184
1303.414, 338.346
1304.608, 350.467
1305.802, 141.303
1306.995, 513.332
1308.188, 534.117
1309.381, 65.994
1310.574, 519.227
1311.767, 140.391
1312.960, 322.100
1314.152, 723.979
1315.344, 64.574
1316.536, 606.934
1317.728, 495.287
1318.919, 106.691
1320.110, 617.734
1321.301, 158.273
1322.492, 249.498
1323.683, 680.461
1324.874, 81.422
1326.064, 452.439
1327.254, 562.576
1328.444, 3.463
1329.634, 504.199
1330.823, 402.582
1332.013, 133.271
1333.202, 653.270
1334.391, 253.475
1335.580, 113.893
1336.768, 692.887
1337.956, 63.189
1339.145, 532.654
1340.333, 501.074
1341.520, 101.174
1342.708, 620.949
1343.895, 281.227
1345.083, 221.129
1346.270, 834.852
1347.456, 34.619
1348.643, 354.006
1349.829, 673.045
1351.016, 157.410
1352.202, 731.850
1353.387, 251.031
1354.573, 70.326
1355.759, 619.035
1356.944, 149.498
1358.129, 218.594
1359.314, 826.967
1360.498, 174.049
1361.683, 414.496
1362.867, 673.352
1364.051, 47.984
1365.235, 639.773
1366.419, 368.635
1367.602, 107.062
1368.785, 654.459
1369.968, 17.455
1371.151, 4.934
1372.334, 677.416
1373.517, 200.217
1374.699, 531.422
1375.881, 622.918
1377.063, 74.652
1378.245, 906.799
1379.426, 328.109
1380.608, 249.787
1381.789, 810.121
1382.970, 311.982
1384.150, 502.709
1385.331, 773.906
1386.511, 34.570
1387.691, 747.133
1388.871, 707.541
1390.051, 148.123
1391.231, 1108.959
1392.410, 389.990
1393.589, 308.213
1394.768, 948.893
1395.947, 278.545
1397.126, 449.291
1398.304, 678.658
1399.483, 122.160
1400.661, 991.529
1401.838, 501.342
1403.016, 241.492
1404.194, 917.750
1405.371, 508.441
1406.548, 243.592
1407.725, 921.420
1408.901, 440.088
1410.078, 620.535
1411.254, 1018.178
1412.430, 146.422
1413.606, 854.561
1414.782, 644.676
1415.958, 72.641
1417.133, 900.279
1418.308, 287.607
1419.483, 477.547
1420.658, 1091.035
1421.832, 208.965
1423.007, 527.863
1424.181, 745.420
1425.355, 121.840
1426.529, 1019.094
1427.702, 748.047
1428.876, 336.586
1430.049, 941.633
1431.222, 336.510
1432.395, 264.893
1433.567, 910.877
1434.740, 207.080
1435.912, 697.896
1437.084, 856.627
1438.256, 18.543
1439.428, 1087.375
1440.599, 515.344
1441.770, 195.643
1442.942, 1058.678
1444.112, 442.045
1445.283, 368.619
1446.454, 1034.295
1447.624, 260.332
1448.794, 551.584
1449.964, 847.453
1451.134, 10.627
1452.303, 905.441
1453.473, 609.730
1454.642, 54.730
1455.811, 826.422
1456.980, 529.697
1458.148, 424.143
1459.317, 1107.113
1460.485, 311.174
1461.653, 561.984
1462.821, 905.758
1463.989, 43.527
1465.156, 865.859
1466.323, 816.992
1467.490, 39.582
1468.657, 1197.918
1469.824, 519.686
1470.991, 31.590
1472.157, 1172.645
1473.323, 92.877
1474.489, 527.539
1475.655, 889.193
1476.820, 30.213
1477.986, 632.850
1479.151, 765.221
1480.316, 137.887
1481.481, 963.480
1482.645, 441.820
1483.810, 3.592
1484.974, 1105.158
1486.138, 406.562
1487.302, 284.049
1488.465, 955.238
1489.629, 82.389
1490.792, 669.254
1491.955, 758.451
1493.118, 120.033
1494.281, 838.547
1495.443, 449.627
1496.606, 18.816
1497.768, 968.027
1498.930, 389.281
1500.091, 330.891
1501.253, 843.449
1502.414, 46.520
1503.575, 502.246
1504.736, 741.367
1505.897, 1.654
1507.058, 863.857
1508.218, 605.018
1509.379, 0.000
##END=



