##NAMES=Fluorophlogopite
##RRUFFID=R040039
##IDEAL CHEMISTRY=KMg_3_(Si_3_Al)O_10_F_2_
##LOCALITY=Franklin, Sussex County, New Jersey, USA
##OWNER=RRUFF
##SOURCE=University of Arizona Mineral Museum
##DESCRIPTION=Brown hexagonal sheets
##STATUS=The identification of this mineral has been confirmed by X-ray diffraction and chemical analysis
##URL=rruff.info/R040039
##MEASURED CHEMISTRY=(K_0.92_Na_0.06_[box]_0.02_)_Σ=1_(Mg_2.94_Fe_0.04_Ti_0.02_)_Σ=3_(Si_2.98_Al_1.02_)O_10_(F_1.24_(OH)_0.76_)_Σ=2_; OH estimated by charge balance
##PIN_ID=M00363
##ORIENTATION=Laser parallel to c* (0 0 1). Fiducial mark perpendicular to laser is parallel to b [0 1 0]
72.445, 0.000
73.842, 15.073
75.239, 117.054
76.635, 0.385
78.031, 117.814
79.427, 234.299
80.823, 937.925
82.218, 1575.444
83.614, 2450.812
85.009, 2809.537
86.404, 3548.976
87.798, 4190.980
89.193, 4988.830
90.587, 6041.133
91.981, 6648.775
93.375, 7357.867
94.768, 7865.922
96.161, 8309.665
97.554, 9033.409
98.947, 9578.504
100.340, 9795.425
101.732, 9543.729
103.124, 9133.065
104.516, 8607.132
105.908, 8421.678
107.300, 7944.500
108.691, 7468.409
110.082, 7275.244
111.473, 6643.876
112.864, 6123.215
114.254, 6184.506
115.644, 6462.770
117.034, 6302.724
118.424, 5748.582
119.813, 5096.413
121.203, 4957.746
122.592, 4447.571
123.981, 3713.889
125.369, 3491.686
126.758, 3137.957
128.146, 2935.699
129.534, 2592.902
130.922, 2633.562
132.309, 2250.666
133.696, 2144.216
135.083, 1831.229
136.470, 1890.721
137.857, 1820.693
139.243, 1795.133
140.630, 1634.021
142.016, 1401.346
143.401, 1158.088
144.787, 1078.237
146.172, 1004.779
147.557, 944.699
148.942, 776.987
150.327, 741.049
151.711, 611.551
153.096, 572.874
154.480, 582.202
155.863, 446.324
157.247, 372.436
158.630, 427.276
160.013, 551.607
161.396, 639.260
162.779, 651.193
164.161, 663.289
165.544, 774.608
166.926, 789.952
168.308, 778.734
169.689, 890.814
171.070, 845.158
172.452, 982.770
173.833, 1097.650
175.213, 1246.805
176.594, 1313.231
177.974, 1614.929
179.354, 2010.895
180.734, 2252.122
182.114, 2858.609
183.493, 3571.350
184.872, 4657.342
186.251, 5853.576
187.630, 7722.055
189.008, 9811.768
190.387, 12707.714
191.765, 15932.888
193.143, 19126.336
194.520, 22502.277
195.898, 23618.748
197.275, 23523.738
198.652, 21215.271
200.029, 17983.211
201.405, 14117.427
202.782, 10986.809
204.158, 8250.323
205.534, 6600.968
206.909, 5189.743
208.285, 3879.646
209.660, 3147.674
211.035, 2449.824
212.410, 1750.098
213.784, 1444.488
215.159, 1207.997
216.533, 977.619
217.907, 770.355
219.281, 552.201
220.654, 459.155
222.027, 204.215
223.400, 347.378
224.773, 87.688
226.146, 81.151
227.518, 4.283
228.891, 80.409
230.263, 6.768
231.634, 28.165
233.006, 44.240
234.377, 63.590
235.748, 35.333
237.119, 68.013
238.490, 152.533
239.860, 173.169
241.231, 275.732
242.601, 262.188
243.970, 268.354
245.340, 298.454
246.709, 359.645
248.079, 422.052
249.448, 370.426
250.816, 339.509
252.185, 265.567
253.553, 160.101
254.921, 114.462
256.289, 122.133
257.657, 138.305
259.024, 229.810
260.391, 426.190
261.758, 842.235
263.125, 1039.771
264.492, 1473.772
265.858, 1919.170
267.224, 2542.750
268.590, 3450.586
269.956, 4337.673
271.321, 5733.993
272.687, 7468.542
274.052, 9475.299
275.416, 11291.267
276.781, 13333.432
278.146, 13993.773
279.510, 13209.300
280.874, 11505.972
282.237, 9507.768
283.601, 7513.677
284.964, 5643.695
286.327, 4246.814
287.690, 3509.039
289.053, 2634.358
290.416, 2064.775
291.778, 1901.285
293.140, 1469.887
294.502, 1439.578
295.863, 1230.355
297.225, 1304.219
298.586, 1348.164
299.947, 1394.188
301.308, 1648.291
302.668, 1864.470
304.029, 2117.721
305.389, 2774.041
306.749, 3301.433
308.108, 3923.889
309.468, 4744.412
310.827, 5459.271
312.186, 6322.480
313.545, 6902.111
314.903, 7905.611
316.262, 8636.708
317.620, 9257.914
318.978, 10147.596
320.336, 10624.886
321.693, 11091.391
323.051, 10980.384
324.408, 10766.504
325.765, 9926.798
327.121, 9567.695
328.478, 8282.887
329.834, 7505.994
331.190, 6480.383
332.546, 5712.825
333.902, 4955.320
335.257, 4448.862
336.612, 3841.945
337.967, 3364.095
339.322, 2943.779
340.677, 2650.509
342.031, 2400.281
343.385, 2036.095
344.739, 1931.950
346.093, 1745.842
347.446, 1643.773
348.799, 1560.741
350.153, 1427.743
351.505, 1505.778
352.858, 1390.847
354.210, 1392.945
355.563, 1442.074
356.915, 1596.230
358.267, 1478.414
359.618, 1548.622
360.969, 1569.850
362.321, 1573.097
363.672, 1719.359
365.022, 1862.636
366.373, 2187.929
367.723, 2118.233
369.073, 2465.551
370.423, 2528.911
371.773, 2393.252
373.122, 2225.583
374.471, 2074.420
375.821, 1918.467
377.169, 1538.953
378.518, 1612.336
379.866, 1334.016
381.215, 1434.935
382.563, 1014.435
383.910, 1028.338
385.258, 935.322
386.605, 838.979
387.952, 863.149
389.299, 671.382
390.646, 774.142
391.992, 672.744
393.339, 584.953
394.685, 640.324
396.031, 490.988
397.376, 786.448
398.722, 473.346
400.067, 548.098
401.412, 468.436
402.757, 329.367
404.101, 403.489
405.446, 326.205
406.790, 218.637
408.134, 182.934
409.478, 270.763
410.821, 152.036
412.165, 101.437
413.508, 87.185
414.851, 17.688
416.193, 22.548
417.536, 46.079
418.878, 41.428
420.220, 53.399
421.562, 40.505
422.904, 66.062
424.245, 28.190
425.586, 155.904
426.927, 109.820
428.268, 301.861
429.609, 222.188
430.949, 215.900
432.289, 298.852
433.629, 307.277
434.969, 373.566
436.309, 462.515
437.648, 473.511
438.987, 588.432
440.326, 566.212
441.665, 649.554
443.003, 635.385
444.342, 715.141
445.680, 932.994
447.018, 868.480
448.355, 1014.950
449.693, 915.404
451.030, 988.841
452.367, 943.259
453.704, 1128.658
455.041, 832.039
456.377, 890.400
457.713, 840.742
459.049, 703.062
460.385, 726.360
461.721, 809.638
463.056, 848.892
464.391, 780.123
465.726, 683.331
467.061, 600.193
468.395, 378.673
469.730, 315.808
471.064, 157.915
472.398, 33.007
473.731, 38.024
475.065, 303.141
476.398, 110.490
477.731, 9.023
479.064, 185.542
480.397, 195.280
481.729, 165.200
483.062, 157.285
484.394, 41.532
485.725, 80.884
487.057, 29.640
488.389, 71.095
489.720, 150.495
491.051, 260.859
492.382, 390.197
493.712, 419.507
495.043, 469.788
496.373, 560.040
497.703, 606.264
499.032, 697.088
500.362, 774.731
501.691, 826.757
503.020, 939.860
504.349, 1009.475
505.678, 1090.286
507.007, 1184.988
508.335, 1272.968
509.663, 1368.917
510.991, 1505.833
512.319, 1542.716
513.646, 1381.567
514.973, 1277.385
516.300, 1065.171
517.627, 1077.923
518.954, 861.640
520.280, 676.324
521.607, 709.974
522.933, 603.590
524.259, 472.170
525.584, 272.717
526.910, 256.228
528.235, 276.708
529.560, 244.153
530.885, 262.562
532.209, 174.937
533.534, 10.737
534.858, 143.489
536.182, 239.665
537.506, 305.803
538.829, 146.929
540.152, 172.004
541.476, 91.046
542.799, 157.022
544.121, 110.948
545.444, 234.816
546.766, 146.644
548.088, 43.416
549.410, 158.116
550.732, 176.766
552.053, 264.368
553.375, 191.937
554.696, 242.480
556.017, 219.985
557.337, 239.457
558.658, 375.894
559.978, 329.309
561.298, 252.705
562.618, 408.094
563.938, 273.484
565.257, 320.872
566.576, 304.275
567.895, 202.683
569.214, 322.095
570.533, 390.532
571.851, 202.587
573.170, 203.555
574.488, 308.496
575.805, 215.716
577.123, 168.653
578.440, 57.874
579.758, 36.646
581.075, 264.244
582.391, 18.772
583.708, 65.053
585.024, 14.110
586.341, 38.021
587.657, 29.854
588.972, 0.667
590.288, 14.362
591.603, 10.986
592.918, 39.522
594.233, 1.979
595.548, 13.343
596.863, 75.088
598.177, 2.177
599.491, 192.932
600.805, 240.993
602.119, 249.011
603.432, 235.993
604.746, 319.934
606.059, 459.834
607.372, 439.694
608.685, 559.514
609.997, 869.296
611.309, 507.041
612.621, 709.746
613.933, 720.412
615.245, 1133.037
616.557, 1035.623
617.868, 1213.170
619.179, 1469.677
620.490, 1567.145
621.801, 1828.161
623.111, 2058.959
624.421, 2256.309
625.731, 2501.616
627.041, 2652.887
628.351, 3227.117
629.660, 3261.032
630.970, 3513.620
632.279, 4118.807
633.588, 4318.141
634.896, 4702.887
636.205, 4629.539
637.513, 5130.711
638.821, 4932.227
640.129, 5220.428
641.437, 5148.021
642.744, 5152.328
644.051, 5056.264
645.358, 5263.463
646.665, 5409.332
647.972, 5451.277
649.278, 5525.969
650.584, 5533.633
651.890, 5817.268
653.196, 5942.912
654.502, 6184.449
655.807, 6434.000
657.113, 6690.520
658.418, 7047.008
659.722, 7599.475
661.027, 7949.910
662.331, 8434.316
663.636, 9098.699
664.940, 9878.051
666.244, 10420.379
667.547, 11854.678
668.851, 12609.945
670.154, 14396.188
671.457, 16065.406
672.760, 17693.598
674.062, 20826.758
675.365, 23941.896
676.667, 27187.006
677.969, 29301.090
679.271, 32197.148
680.572, 33950.188
681.874, 34827.277
683.175, 35800.246
684.476, 35328.082
685.777, 33643.027
687.077, 31656.910
688.378, 29408.789
689.678, 27031.662
690.978, 24348.473
692.278, 21795.105
693.577, 19307.277
694.877, 16998.906
696.176, 14379.342
697.475, 12681.000
698.774, 10503.584
700.072, 9579.949
701.371, 8169.270
702.669, 7004.641
703.967, 6020.479
705.265, 5558.998
706.562, 5182.008
707.860, 4360.887
709.157, 3784.352
710.454, 3827.412
711.751, 3208.809
713.047, 3204.359
714.344, 2865.609
715.640, 2862.723
716.936, 2463.164
718.232, 2385.971
719.527, 2537.639
720.823, 2249.268
722.118, 2216.656
723.413, 2150.367
724.708, 1972.156
726.002, 2128.418
727.297, 2089.207
728.591, 1940.473
729.885, 2015.932
731.179, 1965.658
732.472, 1890.010
733.766, 1969.543
735.059, 1926.090
736.352, 1874.283
737.645, 1942.086
738.937, 1887.527
740.230, 2068.553
741.522, 1786.150
742.814, 1886.641
744.106, 1813.354
745.397, 1937.562
746.689, 1851.916
747.980, 1710.943
749.271, 1579.945
750.562, 1670.232
751.853, 1528.076
753.143, 1245.824
754.433, 1411.664
755.723, 1367.139
757.013, 1197.879
758.303, 1281.332
759.592, 1035.160
760.881, 1192.164
762.170, 892.422
763.459, 1415.402
764.748, 1184.027
766.036, 1006.225
767.325, 1066.170
768.613, 1012.105
769.901, 1003.100
771.188, 1100.012
772.476, 1026.053
773.763, 1177.945
775.050, 1007.826
776.337, 1288.699
777.624, 1075.562
778.910, 1414.412
780.196, 1325.256
781.482, 1454.088
782.768, 1243.910
784.054, 1480.725
785.339, 1542.730
786.625, 1649.562
787.910, 1618.656
789.195, 1746.611
790.479, 1632.609
791.764, 1660.627
793.048, 1644.707
794.332, 1551.857
795.616, 1608.066
796.900, 1707.338
798.183, 1587.635
799.467, 1270.977
800.750, 1327.328
802.033, 1142.691
803.316, 1008.049
804.598, 1211.396
805.880, 705.738
807.163, 1020.072
808.445, 846.400
809.726, 719.723
811.008, 670.037
812.289, 647.344
813.570, 508.645
814.851, 615.938
816.132, 780.227
817.413, 506.506
818.693, 382.783
819.973, 584.051
821.253, 368.312
822.533, 315.570
823.813, 413.820
825.092, 383.064
826.371, 204.305
827.650, 285.537
828.929, 154.764
830.208, 324.988
831.486, 240.209
832.764, 132.424
834.042, 180.633
835.320, 55.836
836.598, 207.037
837.875, 22.768
839.152, 70.420
840.429, 91.609
841.706, 137.809
842.983, 80.010
844.259, 6.787
845.536, 9.035
846.812, 103.725
848.088, 106.014
849.363, 0.199
850.639, 69.672
851.914, 144.615
853.189, 33.832
854.464, 20.094
855.739, 98.371
857.013, 95.648
858.288, 44.049
859.562, 100.322
860.836, 8.281
862.110, 174.121
863.383, 107.479
864.656, 42.922
865.930, 12.676
867.203, 52.738
868.475, 40.850
869.748, 78.596
871.020, 59.959
872.292, 16.463
873.564, 6.881
874.836, 82.697
876.108, 0.729
877.379, 0.164
878.650, 191.641
879.922, 56.857
881.192, 112.357
882.463, 25.902
883.733, 67.549
885.004, 24.998
886.274, 91.555
887.544, 6.145
888.813, 39.748
890.083, 57.271
891.352, 2.148
892.621, 49.273
893.890, 36.211
895.159, 57.555
896.427, 25.117
897.695, 22.219
898.964, 2.109
900.232, 16.270
901.499, 36.762
902.767, 77.268
904.034, 71.793
905.301, 108.338
906.568, 218.889
907.835, 63.463
909.102, 151.035
910.368, 32.396
911.634, 81.150
912.900, 207.695
914.166, 58.230
915.432, 490.760
916.697, 82.283
917.962, 5.201
919.227, 273.303
920.492, 150.801
921.757, 112.295
923.021, 262.781
924.285, 98.262
925.550, 337.734
926.813, 198.201
928.077, 221.662
929.341, 198.115
930.604, 297.561
931.867, 313.000
933.130, 283.430
934.393, 189.854
935.655, 408.268
936.918, 96.672
938.180, 453.070
939.442, 90.459
940.703, 217.836
941.965, 297.207
943.226, 352.568
944.488, 430.018
945.749, 412.020
947.009, 482.592
948.270, 362.912
949.530, 263.221
950.791, 243.520
952.051, 422.809
953.311, 288.086
954.570, 462.350
955.830, 509.605
957.089, 526.854
958.348, 362.090
959.607, 495.314
960.866, 464.527
962.124, 480.729
963.383, 459.922
964.641, 595.107
965.899, 500.283
967.156, 655.449
968.414, 503.611
969.671, 629.764
970.928, 784.908
972.185, 540.039
973.442, 842.160
974.699, 850.270
975.955, 912.367
977.211, 832.453
978.468, 681.523
979.723, 1007.584
980.979, 988.471
982.234, 804.514
983.490, 1194.541
984.745, 707.580
986.000, 891.604
987.254, 1136.279
988.509, 915.334
989.763, 1216.158
991.017, 888.557
992.271, 1209.506
993.525, 1141.010
994.779, 1079.705
996.032, 1287.658
997.285, 1349.963
998.538, 1376.695
999.791, 1060.551
1001.044, 1769.305
1002.296, 1325.791
1003.548, 1710.258
1004.800, 1480.469
1006.052, 1421.766
1007.304, 1599.994
1008.555, 1579.375
1009.807, 1705.971
1011.058, 1562.984
1012.309, 1576.193
1013.559, 1571.408
1014.810, 1327.412
1016.060, 1370.521
1017.310, 1465.455
1018.560, 1385.436
1019.810, 1074.344
1021.060, 1248.623
1022.309, 1323.111
1023.558, 1245.912
1024.807, 1484.881
1026.056, 1416.076
1027.305, 1593.133
1028.553, 1740.150
1029.801, 2120.881
1031.049, 2517.900
1032.297, 2615.080
1033.545, 2860.469
1034.793, 3179.932
1036.040, 3239.973
1037.287, 3020.977
1038.534, 2829.490
1039.781, 2725.980
1041.027, 2663.396
1042.274, 2483.488
1043.520, 2219.168
1044.766, 2177.295
1046.012, 1939.902
1047.257, 1752.203
1048.503, 1608.844
1049.748, 1875.072
1050.993, 1651.742
1052.238, 1833.189
1053.483, 1922.773
1054.727, 1698.457
1055.971, 1707.094
1057.216, 2066.541
1058.459, 1842.910
1059.703, 1869.465
1060.947, 2064.316
1062.190, 1890.516
1063.433, 2170.227
1064.676, 2099.625
1065.919, 2178.033
1067.162, 1937.680
1068.404, 2330.012
1069.646, 2226.275
1070.888, 2244.619
1072.130, 2734.736
1073.372, 2508.180
1074.613, 2682.498
1075.855, 2972.805
1077.096, 2850.293
1078.337, 2805.467
1079.578, 3423.723
1080.818, 3203.643
1082.059, 3467.836
1083.299, 3629.680
1084.539, 3790.482
1085.779, 4019.309
1087.018, 4151.434
1088.258, 4209.115
1089.497, 4367.564
1090.736, 4484.850
1091.975, 4634.602
1093.213, 4604.420
1094.452, 5010.312
1095.690, 5302.750
1096.928, 4895.148
1098.166, 4680.432
1099.404, 4646.227
1100.642, 4872.717
1101.879, 4414.541
1103.116, 4691.457
1104.353, 4277.305
1105.590, 4402.766
1106.827, 3804.656
1108.063, 3781.078
1109.299, 3249.521
1110.536, 3259.193
1111.771, 3094.645
1113.007, 2824.055
1114.243, 2345.678
1115.478, 2200.984
1116.713, 1808.648
1117.948, 1670.307
1119.183, 1667.312
1120.418, 1217.119
1121.652, 1536.516
1122.886, 1744.936
1124.120, 1533.246
1125.354, 1306.600
1126.588, 831.713
1127.821, 835.414
1129.055, 193.141
1130.288, 450.932
1131.521, 406.387
1132.753, 669.219
1133.986, 420.387
1135.218, 223.125
1136.450, 389.580
1137.682, 69.566
1138.914, 295.840
1140.146, 4.814
1141.377, 90.826
1142.609, 223.047
1143.840, 12.438
1145.071, 16.045
1146.301, 209.416
1147.532, 120.174
1148.762, 131.854
1149.992, 73.213
1151.222, 85.869
1152.452, 105.982
1153.682, 76.623
1154.911, 113.420
1156.140, 10.836
1157.369, 186.160
1158.598, 21.594
1159.827, 53.193
1161.055, 284.637
1162.284, 126.736
1163.512, 254.594
1164.740, 16.887
1165.967, 281.332
1167.195, 129.500
1168.422, 221.580
1169.650, 90.682
1170.877, 259.662
1172.103, 19.596
1173.330, 94.525
1174.557, 2.688
1175.783, 98.354
1177.009, 55.668
1178.235, 37.709
1179.461, 64.807
1180.686, 125.293
1181.912, 120.846
1183.137, 372.109
1184.362, 95.443
1185.587, 176.738
1186.811, 139.979
1188.036, 407.160
1189.260, 126.295
1190.484, 377.371
1191.708, 207.391
1192.932, 316.344
1194.155, 256.227
1195.378, 191.043
1196.602, 185.797
1197.825, 349.486
1199.047, 477.104
1200.270, 579.645
1201.492, 373.064
1202.715, 617.422
1203.937, 213.711
1205.159, 469.918
1206.380, 443.053
1207.602, 521.084
1208.823, 199.057
1210.044, 344.965
1211.265, 346.760
1212.486, 398.949
1213.707, 290.631
1214.927, 226.252
1216.147, 419.869
1217.367, 145.381
1218.587, 418.832
1219.807, 333.227
1221.027, 319.566
1222.246, 346.033
1223.465, 292.256
1224.684, 357.420
1225.903, 327.922
1227.121, 412.564
1228.340, 322.547
1229.558, 480.467
1230.776, 519.328
1231.994, 379.127
1233.212, 249.869
1234.429, 401.547
1235.646, 381.611
1236.864, 227.180
1238.081, 344.688
1239.297, 317.369
1240.514, 289.775
1241.730, 524.119
1242.947, 420.414
1244.163, 162.836
1245.378, 269.029
1246.594, 331.451
1247.810, 239.543
1249.025, 207.672
1250.240, 211.240
1251.455, 99.623
1252.670, 179.627
1253.885, 280.473
1255.099, 264.271
1256.313, 198.031
1257.527, 71.748
1258.741, 71.057
1259.955, 176.021
1261.168, 71.648
1262.382, 6.029
1263.595, 138.531
1264.808, 92.684
1266.021, 110.977
1267.233, 165.588
1268.446, 145.539
1269.658, 166.066
1270.870, 149.838
1272.082, 200.051
1273.294, 98.355
1274.505, 92.541
1275.716, 80.809
1276.928, 116.535
1278.139, 51.467
1279.349, 429.658
1280.560, 214.244
1281.770, 270.939
1282.981, 137.646
1284.191, 83.135
1285.401, 64.410
1286.610, 112.506
1287.820, 194.242
1289.029, 98.240
1290.239, 29.859
1291.448, 369.156
1292.656, 26.520
1293.865, 181.082
1295.073, 216.508
1296.282, 83.127
1297.490, 67.615
1298.698, 79.633
1299.906, 669.459
1301.113, 407.879
1302.320, 874.887
1303.528, 544.072
1304.735, 181.729
1305.942, 265.775
1307.148, 193.381
1308.355, 297.689
1309.561, 188.000
1310.767, 442.389
1311.973, 308.074
1313.179, 350.893
1314.384, 222.246
1315.590, 383.666
1316.795, 272.223
1318.000, 447.270
1319.205, 226.148
1320.410, 478.455
1321.614, 304.664
1322.819, 277.193
1324.023, 378.785
1325.227, 382.074
1326.431, 392.668
1327.634, 483.303
1328.838, 423.232
1330.041, 500.010
1331.244, 342.668
1332.447, 502.953
1333.650, 465.914
1334.852, 277.088
1336.055, 407.865
1337.257, 329.826
1338.459, 322.518
1339.661, 305.510
1340.862, 294.893
1342.064, 354.014
1343.265, 329.225
1344.466, 361.307
1345.667, 406.385
1346.868, 444.510
1348.068, 542.832
1349.269, 405.777
1350.469, 187.875
1351.669, 428.777
1352.869, 382.855
1354.069, 492.963
1355.268, 363.414
1356.468, 28.273
1357.667, 331.900
1358.866, 277.633
1360.065, 120.355
1361.263, 459.828
1362.462, 221.783
1363.660, 193.350
1364.858, 368.971
1366.056, 78.295
1367.254, 298.512
1368.451, 402.498
1369.649, 202.281
1370.846, 149.842
1372.043, 364.205
1373.240, 137.459
1374.436, 176.611
1375.633, 243.844
1376.829, 237.170
1378.025, 240.676
1379.221, 1.768
1380.417, 174.240
1381.613, 125.504
1382.808, 43.275
1384.003, 209.408
1385.199, 317.447
1386.393, 206.545
1387.588, 53.951
1388.783, 389.402
1389.977, 28.729
1391.171, 287.336
1392.365, 76.152
1393.559, 126.258
1394.753, 327.711
1395.946, 72.635
1397.140, 195.561
1398.333, 248.447
1399.526, 229.951
1400.719, 160.615
1401.911, 334.828
1403.104, 236.537
1404.296, 111.854
1405.488, 1.648
1406.680, 323.076
1407.872, 4.732
1409.063, 207.777
1410.255, 367.094
1411.446, 0.000
##END=



