##NAMES=Fluorapatite
##RRUFFID=R050274
##IDEAL CHEMISTRY=Ca_5_(PO_4_)_3_F
##LOCALITY=Minas Gerais, Brazil
##OWNER=RRUFF
##SOURCE=Marcus Origlieri
##DESCRIPTION=Aggregate of blue crystal fragments separated by veins of quartz
##STATUS=The identification of this mineral has been confirmed by X-ray diffraction and chemical analysis
##URL=rruff.info/R050274
##MEASURED CHEMISTRY=Ca_5.00_((P_0.97_Si_0.02_S_0.01_)O_4_)_3_(F_0.90_Cl_0.10_)
##PIN_ID=L01565
##ORIENTATION=Laser parallel to -a* (-1 0 0). Fiducial mark perpendicular to laser is parallel to -c [0 0 -1]
118.1340, 0.0000000E+00
119.3650, 0.5161130
120.5960, 49.00732
121.8270, 6.554688
123.0580, 12.14941
124.2880, 114.5835
125.5190, 54.21191
126.7490, 54.04004
127.9790, 110.6641
129.2090, 91.78516
130.4390, 213.1709
131.6680, 171.6348
132.8980, 343.0312
134.1270, 306.2471
135.3560, 230.1875
136.5850, 270.7803
137.8140, 317.9619
139.0430, 281.6689
140.2710, 323.5605
141.5000, 355.4473
142.7280, 342.4238
143.9560, 296.7383
145.1840, 288.3730
146.4120, 346.3115
147.6390, 335.5312
148.8670, 410.0117
150.0940, 256.7402
151.3210, 269.7061
152.5490, 386.9082
153.7750, 425.3398
155.0020, 266.9824
156.2290, 344.8105
157.4550, 285.8018
158.6810, 450.9355
159.9080, 342.1924
161.1340, 277.5625
162.3590, 343.0303
163.5850, 329.5889
164.8110, 362.2256
166.0360, 448.9326
167.2610, 386.5791
168.4860, 309.5342
169.7110, 318.5176
170.9360, 373.6387
172.1610, 368.8506
173.3850, 419.2275
174.6100, 410.6738
175.8340, 457.1943
177.0580, 353.7939
178.2820, 435.4531
179.5050, 442.2031
180.7290, 293.0693
181.9520, 443.0400
183.1760, 318.1064
184.3990, 399.3242
185.6220, 303.7002
186.8450, 348.2920
188.0670, 244.9258
189.2900, 361.5781
190.5120, 431.2686
191.7340, 385.9336
192.9560, 381.5430
194.1780, 436.0986
195.4000, 386.5986
196.6220, 555.0498
197.8430, 523.4600
199.0640, 597.8311
200.2860, 627.6670
201.5070, 693.4697
202.7270, 645.7432
203.9480, 559.9873
205.1690, 556.2012
206.3890, 599.3896
207.6090, 571.5508
208.8290, 613.6865
210.0490, 464.7959
211.2690, 515.8789
212.4890, 411.9355
213.7080, 434.9658
214.9280, 478.9697
216.1470, 405.9541
217.3660, 390.9180
218.5850, 397.0410
219.8030, 359.4102
221.0220, 299.6426
222.2400, 337.6855
223.4590, 365.7646
224.6770, 352.6533
225.8950, 273.9365
227.1120, 429.8311
228.3300, 334.9473
229.5480, 342.6201
230.7650, 398.8994
231.9820, 326.4570
233.1990, 344.9775
234.4160, 247.6064
235.6330, 299.8105
236.8490, 315.9932
238.0660, 279.6318
239.2820, 280.0098
240.4980, 290.5977
241.7140, 344.5264
242.9300, 327.9736
244.1460, 290.7217
245.3610, 343.6016
246.5770, 311.4922
247.7920, 232.7256
249.0070, 286.4521
250.2220, 246.4648
251.4370, 197.6641
252.6510, 240.0010
253.8660, 204.7441
255.0800, 261.9941
256.2940, 205.0215
257.5080, 296.4336
258.7220, 350.9893
259.9360, 297.9834
261.1490, 247.9590
262.3630, 327.3877
263.5760, 196.6865
264.7890, 441.5400
266.0020, 310.7129
267.2150, 383.9492
268.4270, 302.0830
269.6400, 348.9062
270.8520, 376.8066
272.0640, 329.7725
273.2760, 341.7910
274.4880, 311.8564
275.7000, 297.9609
276.9120, 297.0986
278.1230, 466.2656
279.3340, 375.4561
280.5450, 378.6611
281.7560, 400.8809
282.9670, 336.1123
284.1780, 404.3506
285.3880, 302.5908
286.5980, 366.8320
287.8090, 370.0732
289.0190, 329.3086
290.2290, 352.5371
291.4380, 371.7578
292.6480, 347.9678
293.8570, 369.3682
295.0670, 344.3535
296.2760, 385.5254
297.4850, 347.6797
298.6930, 367.8174
299.9020, 382.9365
301.1110, 326.0352
302.3190, 283.1133
303.5270, 306.1680
304.7350, 286.2012
305.9430, 375.2090
307.1510, 278.1914
308.3580, 364.1484
309.5660, 308.1387
310.7730, 186.9834
311.9800, 229.3818
313.1870, 232.4912
314.3940, 220.3105
315.6010, 214.6924
316.8070, 73.98242
318.0130, 144.3721
319.2200, 59.21289
320.4260, 110.3828
321.6310, 9.145508
322.8370, 90.48828
324.0430, 156.0947
325.2480, 83.77246
326.4540, 168.4160
327.6590, 80.77637
328.8640, 25.69531
330.0680, 62.83594
331.2730, 148.3184
332.4780, 47.43652
333.6820, 60.11328
334.8860, 5.784180
336.0900, 61.12793
337.2940, 9.354492
338.4980, 40.86426
339.7010, 119.0527
340.9050, 6.964844
342.1080, 94.41602
343.3110, 44.39844
344.5140, 146.2549
345.7170, 25.08984
346.9200, 125.7559
348.1220, 54.33984
349.3240, 73.28711
350.5270, 59.35352
351.7290, 40.34180
352.9310, 34.80469
354.1320, 111.3262
355.3340, 164.3516
356.5350, 134.5830
357.7370, 86.29688
358.9380, 84.42285
360.1390, 74.41895
361.3400, 24.23730
362.5400, 74.51855
363.7410, 117.9404
364.9410, 70.54980
366.1410, 11.30566
367.3410, 116.6562
368.5410, 196.9307
369.7410, 95.13477
370.9400, 29.97070
372.1400, 42.48828
373.3390, 74.20703
374.5380, 34.86914
375.7370, 150.7539
376.9360, 46.11133
378.1350, 10.91992
379.3330, 29.89844
380.5310, 56.69043
381.7300, 10.37305
382.9280, 51.22168
384.1260, 158.7217
385.3230, 58.91211
386.5210, 41.27637
387.7180, 83.25098
388.9160, 152.5537
390.1130, 51.13184
391.3100, 32.76953
392.5060, 28.25000
393.7030, 90.88086
394.9000, 45.37500
396.0960, 82.01660
397.2920, 230.1221
398.4880, 14.01660
399.6840, 171.2500
400.8800, 11.94043
402.0750, 188.1533
403.2710, 143.9502
404.4660, 167.5459
405.6610, 176.1133
406.8560, 152.2656
408.0510, 274.1113
409.2450, 126.1025
410.4400, 188.6084
411.6340, 207.7549
412.8280, 452.6865
414.0220, 391.1465
415.2160, 345.6289
416.4100, 612.9551
417.6030, 669.3984
418.7970, 791.9551
419.9900, 937.4043
421.1830, 1003.630
422.3760, 1157.834
423.5690, 1244.618
424.7610, 1268.967
425.9540, 1351.834
427.1460, 1388.660
428.3380, 1411.247
429.5300, 1375.028
430.7220, 1349.822
431.9140, 1245.277
433.1050, 1186.318
434.2970, 1125.298
435.4880, 942.2129
436.6790, 1048.063
437.8700, 745.8506
439.0610, 753.5723
440.2510, 725.2305
441.4420, 772.8242
442.6320, 642.3545
443.8220, 671.8193
445.0120, 687.2207
446.2020, 557.5557
447.3910, 609.8252
448.5810, 476.0312
449.7700, 626.1719
450.9600, 495.2461
452.1490, 507.2559
453.3370, 391.2012
454.5260, 260.0801
455.7150, 323.8877
456.9030, 411.6279
458.0910, 246.3018
459.2800, 261.9072
460.4670, 231.3203
461.6550, 116.7832
462.8430, 269.9688
464.0300, 190.2871
465.2180, 137.8955
466.4050, 139.4355
467.5920, 108.5312
468.7790, 109.2607
469.9650, 168.3428
471.1520, 120.0293
472.3380, 108.5850
473.5250, 111.0254
474.7110, 34.88965
475.8970, 100.1670
477.0820, 62.42773
478.2680, 24.79199
479.4540, 22.08887
480.6390, 66.65625
481.8240, 0.2685550
483.0090, 145.0977
484.1940, 66.17969
485.3780, 123.7354
486.5630, 142.9971
487.7470, 11.39551
488.9320, 122.5469
490.1160, 174.8672
491.3000, 51.19434
492.4830, 64.67773
493.6670, 68.50195
494.8500, 141.7920
496.0340, 20.52734
497.2170, 104.9248
498.4000, 77.34375
499.5820, 71.94531
500.7650, 14.04980
501.9480, 71.24707
503.1300, 9.803711
504.3120, 60.22559
505.4940, 72.26758
506.6760, 239.8555
507.8580, 91.16992
509.0390, 118.8340
510.2210, 4.179688
511.4020, 43.88672
512.5830, 94.13867
513.7640, 17.05273
514.9450, 6.687500
516.1250, 96.36719
517.3060, 52.76953
518.4860, 140.0820
519.6660, 27.40625
520.8460, 34.88672
522.0260, 76.90820
523.2060, 135.3164
524.3850, 170.7715
525.5650, 237.7266
526.7440, 40.05664
527.9230, 102.0430
529.1020, 28.51562
530.2810, 22.66406
531.4590, 20.80664
532.6380, 76.46875
533.8160, 97.51367
534.9940, 10.59570
536.1720, 10.33594
537.3500, 24.55078
538.5270, 87.39062
539.7050, 130.1465
540.8820, 38.83203
542.0590, 141.9746
543.2360, 21.38867
544.4130, 80.45703
545.5900, 110.2695
546.7660, 99.11328
547.9430, 181.9258
549.1190, 20.56836
550.2950, 189.6484
551.4710, 51.11133
552.6470, 121.6973
553.8220, 158.2930
554.9980, 256.3867
556.1730, 236.7363
557.3480, 259.0586
558.5230, 216.3340
559.6980, 174.2031
560.8730, 185.0156
562.0470, 7.771484
563.2220, 213.4648
564.3960, 298.1016
565.5700, 147.7441
566.7440, 247.3008
567.9170, 241.7754
569.0910, 283.1992
570.2640, 414.5742
571.4380, 225.8984
572.6110, 604.1738
573.7840, 494.3965
574.9570, 611.5703
576.1290, 464.6973
577.3020, 632.7812
578.4740, 977.8145
579.6460, 1119.801
580.8180, 1008.740
581.9900, 1094.633
583.1620, 1204.713
584.3330, 1463.514
585.5040, 1542.271
586.6760, 1570.984
587.8470, 1641.654
589.0180, 1543.932
590.1880, 1249.002
591.3590, 1315.537
592.5290, 1106.029
593.7000, 987.4746
594.8700, 892.8770
596.0400, 765.7109
597.2090, 676.2910
598.3790, 623.0273
599.5490, 522.7793
600.7180, 476.4238
601.8870, 470.8906
603.0560, 660.2168
604.2250, 675.7559
605.3940, 683.9160
606.5620, 585.8203
607.7300, 627.7227
608.8990, 539.5176
610.0670, 369.2422
611.2350, 454.1660
612.4020, 386.8516
613.5700, 489.4629
614.7370, 359.1934
615.9050, 249.0801
617.0720, 458.5508
618.2390, 494.1133
619.4060, 316.0156
620.5720, 326.5234
621.7390, 562.6641
622.9050, 471.1738
624.0710, 476.7266
625.2370, 369.8281
626.4030, 374.2441
627.5690, 415.9590
628.7340, 482.5430
629.9000, 401.8574
631.0650, 358.4258
632.2300, 415.4746
633.3950, 269.3203
634.5600, 257.1699
635.7240, 366.4590
636.8890, 344.6074
638.0530, 402.2051
639.2170, 352.5156
640.3810, 363.2637
641.5450, 162.5566
642.7080, 214.5059
643.8720, 228.8027
645.0350, 357.4648
646.1980, 379.1387
647.3610, 344.9082
648.5240, 462.8906
649.6870, 391.7891
650.8490, 166.3164
652.0120, 580.8203
653.1740, 250.5586
654.3360, 527.6309
655.4980, 372.0039
656.6600, 364.2285
657.8210, 129.9219
658.9830, 425.7598
660.1440, 306.9004
661.3050, 296.3730
662.4660, 338.8926
663.6270, 263.3730
664.7870, 533.7461
665.9480, 343.3320
667.1080, 240.1172
668.2680, 463.7305
669.4280, 356.9395
670.5880, 291.8633
671.7480, 229.6426
672.9070, 335.0684
674.0670, 301.8086
675.2260, 336.0137
676.3850, 318.2754
677.5440, 395.7578
678.7030, 393.2461
679.8610, 446.3711
681.0200, 427.4473
682.1780, 450.9648
683.3360, 443.8672
684.4940, 405.5371
685.6520, 406.5430
686.8090, 304.7969
687.9670, 347.7422
689.1240, 272.5938
690.2810, 199.1602
691.4380, 329.1211
692.5950, 257.3574
693.7520, 467.7988
694.9080, 483.9902
696.0650, 540.0000
697.2210, 375.9434
698.3770, 321.4160
699.5330, 421.8633
700.6880, 367.7871
701.8440, 291.9141
702.9990, 249.8125
704.1550, 200.3594
705.3100, 206.7832
706.4650, 216.6738
707.6190, 260.8809
708.7740, 269.4922
709.9290, 320.1367
711.0830, 307.3848
712.2370, 351.7344
713.3910, 515.1445
714.5450, 655.0020
715.6980, 236.7383
716.8520, 405.9062
718.0050, 334.6426
719.1580, 557.1562
720.3110, 264.5664
721.4640, 158.1719
722.6170, 470.9766
723.7700, 347.6523
724.9220, 329.5156
726.0740, 390.3945
727.2260, 180.0352
728.3780, 340.4297
729.5300, 368.8555
730.6810, 232.2812
731.8330, 474.6406
732.9840, 377.7949
734.1350, 317.8379
735.2860, 275.8223
736.4370, 351.7754
737.5880, 185.6426
738.7380, 241.5117
739.8880, 343.3008
741.0390, 123.7441
742.1890, 434.6719
743.3380, 336.4688
744.4880, 299.1211
745.6380, 444.8555
746.7870, 206.8301
747.9360, 319.0586
749.0850, 386.8242
750.2340, 467.7500
751.3830, 436.9746
752.5310, 189.8555
753.6800, 366.0723
754.8280, 289.5547
755.9760, 322.7773
757.1240, 357.1484
758.2720, 358.9395
759.4190, 248.5449
760.5670, 215.7227
761.7140, 386.5137
762.8610, 274.2930
764.0080, 415.2637
765.1550, 203.5449
766.3020, 288.2773
767.4480, 391.6699
768.5950, 248.4336
769.7410, 339.2520
770.8870, 425.3574
772.0330, 316.5176
773.1780, 324.0410
774.3240, 339.6074
775.4690, 352.8477
776.6140, 405.7891
777.7590, 319.9922
778.9040, 332.8711
780.0490, 230.1055
781.1940, 353.6152
782.3380, 352.7344
783.4820, 536.2891
784.6260, 203.1660
785.7700, 239.5820
786.9140, 317.8105
788.0580, 374.2051
789.2010, 396.1348
790.3450, 341.7578
791.4880, 308.4590
792.6310, 152.3984
793.7730, 181.3730
794.9160, 239.5762
796.0590, 550.2852
797.2010, 420.7598
798.3430, 248.6523
799.4850, 372.8027
800.6270, 147.7383
801.7690, 204.1230
802.9100, 214.5137
804.0520, 175.2109
805.1930, 236.7031
806.3340, 241.5605
807.4750, 209.3945
808.6160, 272.1992
809.7560, 427.9766
810.8970, 320.7188
812.0370, 268.4277
813.1770, 320.1074
814.3170, 208.7578
815.4570, 160.3691
816.5960, 468.9688
817.7360, 543.5293
818.8750, 340.0566
820.0140, 455.5469
821.1530, 252.0039
822.2920, 168.4219
823.4310, 295.7949
824.5690, 242.1309
825.7070, 316.4277
826.8460, 433.6875
827.9840, 363.8418
829.1220, 418.0273
830.2590, 314.1758
831.3970, 228.2852
832.5340, 246.3516
833.6710, 279.3750
834.8080, 104.3555
835.9450, 302.2871
837.0820, 194.1797
838.2190, 178.0293
839.3550, 217.8359
840.4910, 142.5957
841.6270, 188.2578
842.7630, 103.9004
843.8990, 113.6426
845.0350, 91.09766
846.1700, 146.6211
847.3060, 110.1348
848.4410, 205.8867
849.5760, 186.7539
850.7100, 73.30273
851.8450, 103.5156
852.9800, 241.4258
854.1140, 99.12500
855.2480, 151.8848
856.3820, 175.7207
857.5160, 125.1738
858.6500, 77.80664
859.7830, 103.6250
860.9170, 56.58203
862.0500, 52.57422
863.1830, 96.63086
864.3160, 150.8516
865.4480, 137.4648
866.5810, 131.8398
867.7130, 141.6934
868.8460, 184.3809
869.9780, 206.3203
871.1100, 214.2207
872.2410, 216.3789
873.3730, 230.8359
874.5050, 223.9375
875.6360, 238.1113
876.7670, 315.9277
877.8980, 14.61523
879.0290, 27.63281
880.1590, 42.67383
881.2900, 30.56836
882.4200, 30.13672
883.5500, 65.96094
884.6800, 201.9492
885.8100, 13.01172
886.9400, 27.96875
888.0690, 54.63672
889.1990, 81.10156
890.3280, 172.2051
891.4570, 192.5410
892.5860, 55.54492
893.7140, 162.5723
894.8430, 26.54297
895.9710, 298.4512
897.1000, 168.8203
898.2280, 73.11914
899.3560, 92.47656
900.4830, 51.01172
901.6110, 135.2305
902.7380, 33.65234
903.8660, 118.0059
904.9930, 97.23438
906.1200, 266.4746
907.2460, 39.66602
908.3730, 118.7930
909.5000, 147.8652
910.6260, 96.11914
911.7520, 75.77148
912.8780, 229.6094
914.0040, 121.6387
915.1290, 351.0078
916.2550, 7.628906
917.3800, 196.8633
918.5050, 121.2715
919.6300, 68.61719
920.7550, 3.455078
921.8800, 80.46680
923.0040, 67.42969
924.1290, 147.6797
925.2530, 9.660156
926.3770, 69.58398
927.5010, 210.4551
928.6250, 194.6328
929.7480, 18.12109
930.8720, 127.2949
931.9950, 9.972656
933.1180, 180.5820
934.2410, 109.8691
935.3640, 153.3789
936.4860, 275.1367
937.6090, 264.0840
938.7310, 269.0215
939.8530, 553.7461
940.9750, 575.6758
942.0970, 570.5742
943.2180, 590.2891
944.3400, 635.2188
945.4610, 853.8535
946.5820, 1237.334
947.7030, 1504.094
948.8240, 1954.020
949.9450, 2568.371
951.0650, 3621.449
952.1860, 4425.137
953.3060, 5718.738
954.4260, 7480.273
955.5460, 9979.758
956.6650, 12226.87
957.7850, 14274.57
958.9040, 16130.76
960.0230, 17269.66
961.1420, 17223.81
962.2610, 16077.14
963.3800, 14728.25
964.4990, 12828.30
965.6170, 10886.22
966.7350, 8714.727
967.8530, 6767.242
968.9710, 5296.852
970.0890, 3924.668
971.2070, 2771.480
972.3240, 2391.594
973.4410, 1711.566
974.5580, 1156.652
975.6750, 916.1953
976.7920, 834.0586
977.9090, 581.6758
979.0250, 500.1250
980.1410, 566.4258
981.2580, 333.9141
982.3740, 263.1953
983.4890, 224.0664
984.6050, 287.5703
985.7200, 11.44922
986.8360, 23.41016
987.9510, 211.4297
989.0660, 10.31250
990.1810, 8.644531
991.2950, 55.41797
992.4100, 10.78125
993.5240, 114.7500
994.6390, 30.33203
995.7530, 228.6562
996.8660, 252.8906
997.9800, 166.2852
999.0940, 142.8672
1000.207, 341.3359
1001.320, 245.7461
1002.433, 271.2070
1003.546, 197.6875
1004.659, 267.3555
1005.772, 243.9258
1006.884, 364.4648
1007.996, 475.0234
1009.108, 427.0820
1010.220, 148.0156
1011.332, 373.7891
1012.444, 326.0117
1013.555, 288.3086
1014.666, 357.6797
1015.777, 196.9102
1016.888, 188.8359
1017.999, 235.4453
1019.110, 191.3867
1020.220, 185.2617
1021.331, 245.5312
1022.441, 335.4336
1023.551, 380.7656
1024.661, 464.4844
1025.770, 472.6719
1026.880, 472.6758
1027.989, 472.2227
1029.098, 559.9023
1030.207, 595.9609
1031.316, 595.9297
1032.425, 750.7109
1033.533, 646.7617
1034.642, 672.3984
1035.750, 771.5195
1036.858, 895.9336
1037.966, 1063.906
1039.073, 1209.805
1040.181, 1124.328
1041.288, 1233.645
1042.396, 1495.492
1043.503, 1758.445
1044.610, 1811.035
1045.716, 1980.078
1046.823, 1913.684
1047.929, 2009.215
1049.036, 1932.164
1050.142, 1662.191
1051.248, 1566.000
1052.353, 1446.129
1053.459, 1128.566
1054.564, 1149.012
1055.670, 958.3477
1056.775, 992.8125
1057.880, 613.4648
1058.985, 375.5195
1060.089, 507.9844
1061.194, 483.3828
1062.298, 343.7070
1063.402, 496.9570
1064.506, 170.1445
1065.610, 471.2578
1066.713, 286.3008
1067.817, 399.2812
1068.920, 341.1953
1070.023, 499.0391
1071.126, 651.8125
1072.229, 826.5156
1073.332, 552.1562
1074.435, 720.7344
1075.537, 556.2500
1076.639, 509.7031
1077.741, 715.1016
1078.843, 682.4453
1079.945, 556.2383
1081.046, 385.4922
1082.148, 417.6055
1083.249, 205.1094
1084.350, 203.5352
1085.451, 195.3086
1086.551, 318.5469
1087.652, 303.5938
1088.752, 360.8750
1089.853, 218.4258
1090.953, 276.5820
1092.053, 131.2930
1093.152, 234.4180
1094.252, 65.35938
1095.351, 272.2148
1096.451, 246.4102
1097.550, 176.1484
1098.649, 142.5859
1099.748, 166.1211
1100.846, 228.0312
1101.945, 170.0859
1103.043, 35.09766
1104.141, 80.15625
1105.239, 315.3594
1106.337, 107.5391
1107.434, 13.30469
1108.532, 264.8086
1109.629, 36.90234
1110.726, 169.0234
1111.823, 389.2344
1112.920, 223.5078
1114.017, 95.98047
1115.113, 9.511719
1116.210, 250.1016
1117.306, 359.6875
1118.402, 190.2188
1119.498, 3.332031
1120.593, 345.0039
1121.689, 440.2930
1122.784, 347.5078
1123.879, 182.6484
1124.974, 389.7070
1126.069, 259.6992
1127.164, 376.6133
1128.259, 288.4570
1129.353, 277.4102
1130.447, 299.2383
1131.541, 345.1875
1132.635, 260.8086
1133.729, 302.4844
1134.822, 221.2031
1135.916, 19.56641
1137.009, 72.27344
1138.102, 113.2305
1139.195, 197.2383
1140.288, 271.4141
1141.380, 299.4922
1142.473, 271.4141
1143.565, 246.3672
1144.657, 177.9219
1145.749, 170.0391
1146.841, 177.1602
1147.932, 266.8438
1149.024, 184.6172
1150.115, 20.17969
1151.206, 96.45703
1152.297, 18.15625
1153.388, 8.656250
1154.479, 38.91797
1155.569, 19.95312
1156.659, 58.53125
1157.750, 45.23828
1158.839, 117.6484
1159.929, 67.32812
1161.019, 73.48438
1162.108, 132.3789
1163.198, 84.04688
1164.287, 236.6289
1165.376, 173.1680
1166.465, 249.8242
1167.553, 47.48047
1168.642, 134.3711
1169.730, 2.042969
1170.818, 91.92188
1171.906, 269.0078
1172.994, 129.1094
1174.082, 116.6758
1175.170, 0.0000000E+00
##END=



