##NAMES=Fluorapatite
##RRUFFID=R050369
##IDEAL CHEMISTRY=Ca_5_(PO_4_)_3_F
##LOCALITY=Russia
##OWNER=RRUFF
##SOURCE=Eugene Schlepp
##DESCRIPTION=Blueish-green hexagonal prismatic crystal
##STATUS=The identification of this mineral has been confirmed by X-ray diffraction and chemical analysis
##URL=rruff.info/R050369
##MEASURED CHEMISTRY=(Ca_0.99_Na_0.01_)_5_((P_0.98_S_0.02_)O_4_)_3_F_1.00_
##PIN_ID=L01224
##ORIENTATION=Laser parallel to a* (1 0 0). Fiducial mark perpendicular to laser is parallel to c [0 0 1]
53.91000, 0.0000000E+00
55.14900, 8.039307
56.38700, 28.17398
57.62600, 32.65512
58.86400, 35.20953
60.10300, 74.22699
61.34100, 21.48563
62.57900, 13.93454
63.81700, 7.452423
65.05400, 14.03760
66.29200, 13.61731
67.52900, 4.364624
68.76700, 4.649658
70.00400, 25.36237
71.24100, 48.71802
72.47700, 60.66772
73.71400, 104.1671
74.95100, 142.1739
76.18700, 198.6494
77.42300, 223.1702
78.65900, 207.8755
79.89500, 277.5699
81.13100, 300.6194
82.36700, 325.0027
83.60200, 421.7014
84.83700, 418.6984
86.07200, 503.9787
87.30800, 533.5283
88.54200, 525.3348
89.77700, 618.3871
91.01200, 601.6741
92.24600, 636.1804
93.48000, 686.8876
94.71400, 662.7816
95.94800, 760.8531
97.18200, 715.0953
98.41600, 759.5012
99.64900, 757.0642
100.8830, 743.7800
102.1160, 767.6431
103.3490, 782.6477
104.5820, 826.7893
105.8150, 825.0636
107.0470, 892.4662
108.2800, 857.1255
109.5120, 925.6427
110.7440, 826.4102
111.9760, 887.2935
113.2080, 939.2891
114.4400, 936.3950
115.6710, 994.6093
116.9030, 966.9287
118.1340, 970.4846
119.3650, 936.8757
120.5960, 949.4988
121.8270, 922.2189
123.0580, 929.0344
124.2880, 954.9431
125.5190, 972.3503
126.7490, 1016.034
127.9790, 1067.196
129.2090, 1121.895
130.4390, 1214.569
131.6680, 1270.784
132.8980, 1379.009
134.1270, 1514.268
135.3560, 1501.574
136.5850, 1447.942
137.8140, 1544.391
139.0430, 1472.881
140.2710, 1378.442
141.5000, 1265.049
142.7280, 1171.713
143.9560, 1129.428
145.1840, 1070.216
146.4120, 1020.491
147.6390, 983.9705
148.8670, 959.9237
150.0940, 991.9238
151.3210, 1008.972
152.5490, 1034.381
153.7750, 1065.213
155.0020, 1110.406
156.2290, 1160.649
157.4550, 1200.941
158.6810, 1196.282
159.9080, 1129.672
161.1340, 1120.111
162.3590, 1096.599
163.5850, 1098.136
164.8110, 1082.721
166.0360, 1155.354
167.2610, 1093.035
168.4860, 1035.762
169.7110, 1081.538
170.9360, 1151.360
172.1610, 1131.228
173.3850, 1226.141
174.6100, 1227.101
175.8340, 1210.106
177.0580, 1256.155
178.2820, 1233.249
179.5050, 1282.387
180.7290, 1253.568
181.9520, 1272.792
183.1760, 1229.059
184.3990, 1214.369
185.6220, 1084.720
186.8450, 986.1129
188.0670, 956.5468
189.2900, 964.0206
190.5120, 891.5352
191.7340, 847.0891
192.9560, 901.6821
194.1780, 850.3145
195.4000, 862.9845
196.6220, 844.6926
197.8430, 904.4382
199.0640, 882.2209
200.2860, 920.0400
201.5070, 972.1971
202.7270, 1089.281
203.9480, 1118.311
205.1690, 1147.243
206.3890, 1247.182
207.6090, 1153.760
208.8290, 1299.389
210.0490, 1214.271
211.2690, 1345.331
212.4890, 1270.661
213.7080, 1144.400
214.9280, 1179.409
216.1470, 1082.911
217.3660, 1059.257
218.5850, 924.1721
219.8030, 1026.873
221.0220, 953.6543
222.2400, 921.5068
223.4590, 979.9932
224.6770, 1107.620
225.8950, 1066.280
227.1120, 1081.432
228.3300, 1165.606
229.5480, 1126.890
230.7650, 1185.186
231.9820, 1144.546
233.1990, 1183.120
234.4160, 1038.631
235.6330, 990.7771
236.8490, 958.3335
238.0660, 911.4688
239.2820, 865.1399
240.4980, 795.7966
241.7140, 679.7083
242.9300, 657.5217
244.1460, 574.3850
245.3610, 536.2935
246.5770, 532.2534
247.7920, 430.2495
249.0070, 456.2808
250.2220, 473.3469
251.4370, 515.4512
252.6510, 518.5947
253.8660, 515.7744
255.0800, 582.9866
256.2940, 615.2319
257.5080, 648.5142
258.7220, 733.8394
259.9360, 762.1973
261.1490, 747.5864
262.3630, 859.0107
263.5760, 906.4634
264.7890, 892.9451
266.0020, 903.4553
267.2150, 925.9934
268.4270, 964.5588
269.6400, 890.1504
270.8520, 939.7759
272.0640, 981.4263
273.2760, 911.1045
274.4880, 922.8074
275.7000, 975.5352
276.9120, 955.2881
278.1230, 1020.065
279.3340, 1087.867
280.5450, 1072.694
281.7560, 1085.545
282.9670, 1214.420
284.1780, 1186.318
285.3880, 1220.241
286.5980, 1142.186
287.8090, 1102.154
289.0190, 1038.145
290.2290, 1093.158
291.4380, 1070.194
292.6480, 962.2515
293.8570, 859.3306
295.0670, 919.4312
296.2760, 858.5527
297.4850, 934.6956
298.6930, 811.8589
299.9020, 864.0430
301.1110, 788.2473
302.3190, 761.4714
303.5270, 805.7158
304.7350, 790.9795
305.9430, 759.2622
307.1510, 742.5645
308.3580, 665.8857
309.5660, 690.2253
310.7730, 599.5835
311.9800, 573.9597
313.1870, 526.3542
314.3940, 479.7664
315.6010, 473.1960
316.8070, 420.6433
318.0130, 334.1072
319.2200, 374.5886
320.4260, 257.0862
321.6310, 323.6003
322.8370, 219.1306
324.0430, 264.6770
325.2480, 146.2393
326.4540, 194.8171
327.6590, 204.4102
328.8640, 158.0183
330.0680, 176.6414
331.2730, 145.2793
332.4780, 92.93188
333.6820, 110.5984
334.8860, 84.27930
336.0900, 76.97388
337.2940, 72.68262
338.4980, 28.40454
339.7010, 30.13965
340.9050, 37.88794
342.1080, 22.08716
343.3110, 50.42310
344.5140, 37.20972
345.7170, 12.00879
346.9200, 51.82861
348.1220, 15.66895
349.3240, 100.1155
350.5270, 18.99854
351.7290, 34.09692
352.9310, 50.93433
354.1320, 3.124023
355.3340, 66.49878
356.5350, 71.51807
357.7370, 25.47095
358.9380, 60.51831
360.1390, 41.49658
361.3400, 62.46973
362.5400, 15.43457
363.7410, 91.25781
364.9410, 5.798340
366.1410, 3.624023
367.3410, 25.20483
368.5410, 55.37988
369.7410, 25.92578
370.9400, 1.828613
372.1400, 13.52393
373.3390, 38.40454
374.5380, 45.14380
375.7370, 30.71777
376.9360, 39.12891
378.1350, 35.97290
379.3330, 23.23901
380.5310, 9.416260
381.7300, 44.32544
382.9280, 46.86353
384.1260, 56.25098
385.3230, 1.269287
386.5210, 77.49316
387.7180, 45.35303
388.9160, 85.24487
390.1130, 40.86841
391.3100, 91.11084
392.5060, 105.3618
393.7030, 55.62109
394.9000, 92.71436
396.0960, 44.33057
397.2920, 115.2427
398.4880, 86.53442
399.6840, 175.1926
400.8800, 138.6243
402.0750, 176.7717
403.2710, 215.6426
404.4660, 241.1377
405.6610, 291.8337
406.8560, 397.1753
408.0510, 352.5366
409.2450, 311.1670
410.4400, 527.5259
411.6340, 580.9556
412.8280, 727.3525
414.0220, 892.2981
415.2160, 994.6792
416.4100, 1295.520
417.6030, 1514.927
418.7970, 1730.324
419.9900, 2133.725
421.1830, 2648.135
422.3760, 3043.548
423.5690, 3502.964
424.7610, 4170.384
425.9540, 4700.807
427.1460, 5266.234
428.3380, 5597.663
429.5300, 5560.096
430.7220, 5568.531
431.9140, 4919.972
433.1050, 4499.415
434.2970, 3976.862
435.4880, 3341.311
436.6790, 3030.766
437.8700, 2673.228
439.0610, 2429.692
440.2510, 2403.157
441.4420, 2084.623
442.6320, 2144.090
443.8220, 2080.558
445.0120, 2091.028
446.2020, 2014.498
447.3910, 1939.973
448.5810, 1829.447
449.7700, 1752.076
450.9600, 1659.398
452.1490, 1568.873
453.3370, 1375.347
454.5260, 1269.822
455.7150, 1237.298
456.9030, 1134.775
458.0910, 876.2524
459.2800, 936.7295
460.4670, 729.2129
461.6550, 657.6960
462.8430, 605.1772
464.0300, 484.6587
465.2180, 428.1379
466.4050, 453.6152
467.5920, 430.0901
468.7790, 384.5635
469.9650, 386.4189
471.1520, 328.8994
472.3380, 328.9709
473.5250, 251.4360
474.7110, 177.8989
475.8970, 180.3596
477.0820, 87.81934
478.2680, 177.2756
479.4540, 123.7290
480.6390, 65.17944
481.8240, 34.62598
483.0090, 100.0720
484.1940, 100.5159
485.3780, 125.9556
486.5630, 129.4470
487.7470, 127.8704
488.9320, 86.30298
490.1160, 88.73071
491.3000, 12.15381
492.4830, 63.63330
493.6670, 70.04224
494.8500, 1.740723
496.0340, 102.1338
497.2170, 6.518799
498.4000, 116.8501
499.5820, 74.24243
500.7650, 78.60278
501.9480, 100.3979
503.1300, 88.74854
504.3120, 64.32300
505.4940, 26.39429
506.6760, 30.74365
507.8580, 9.929199
509.0390, 30.62427
510.2210, 24.91284
511.4020, 15.69751
512.5830, 32.51611
513.7640, 17.29858
514.9450, 3.899658
516.1250, 35.97046
517.3060, 35.74243
518.4860, 49.36548
519.6660, 35.42188
520.8460, 22.48901
522.0260, 12.94116
523.2060, 94.00488
524.3850, 31.47534
525.5650, 32.54565
526.7440, 19.39868
527.9230, 5.743652
529.1020, 22.74463
530.2810, 6.864014
531.4590, 34.00562
532.6380, 66.83374
533.8160, 60.64600
534.9940, 62.44946
536.1720, 9.246094
537.3500, 3.2226998E-02
538.5270, 14.80762
539.7050, 42.71948
540.8820, 23.64307
542.0590, 4.850830
543.2360, 22.43433
544.4130, 19.24194
545.5900, 33.04370
546.7660, 1.697754
547.9430, 81.40991
549.1190, 45.03491
550.2950, 30.79712
551.4710, 53.50977
552.6470, 42.10205
553.8220, 47.03174
554.9980, 0.1274410
556.1730, 61.55371
557.3480, 27.16357
558.5230, 53.70557
559.6980, 134.8750
560.8730, 158.6685
562.0470, 107.0630
563.2220, 198.5674
564.3960, 216.1636
565.5700, 252.6450
566.7440, 327.1660
567.9170, 412.7646
569.0910, 387.2344
570.2640, 550.8809
571.4380, 638.5576
572.6110, 782.4116
573.7840, 953.2563
574.9570, 1188.808
576.1290, 1451.357
577.3020, 1708.742
578.4740, 1950.322
579.6460, 2178.605
580.8180, 2457.220
581.9900, 2609.559
583.1620, 2761.885
584.3330, 2967.394
585.5040, 3376.732
586.6760, 3893.114
587.8470, 4503.434
589.0180, 5021.684
590.1880, 5041.920
591.3590, 4595.420
592.5290, 3820.626
593.7000, 3021.814
594.8700, 2347.284
596.0400, 1771.700
597.2090, 1552.401
598.3790, 1305.185
599.5490, 1385.295
600.7180, 1535.261
601.8870, 1678.681
603.0560, 1840.766
604.2250, 2162.227
605.3940, 2288.280
606.5620, 2271.379
607.7300, 1872.404
608.8990, 1538.612
610.0670, 1179.609
611.2350, 956.9907
612.4020, 910.0640
613.5700, 865.1987
614.7370, 722.4448
615.9050, 623.5542
617.0720, 487.0117
618.2390, 526.0073
619.4060, 375.9907
620.5720, 366.0908
621.7390, 276.9824
622.9050, 326.6855
624.0710, 200.9053
625.2370, 258.7466
626.4030, 222.3442
627.5690, 108.8369
628.7340, 191.6226
629.9000, 185.4829
631.0650, 226.2456
632.2300, 104.7715
633.3950, 150.5952
634.5600, 166.2871
635.7240, 178.3320
636.8890, 178.4883
638.0530, 138.7554
639.2170, 100.8955
640.3810, 184.8228
641.5450, 96.59521
642.7080, 167.7554
643.8720, 187.5977
645.0350, 169.3594
646.1980, 257.5977
647.3610, 194.2178
648.5240, 202.2739
649.6870, 154.6934
650.8490, 136.8457
652.0120, 76.13916
653.1740, 126.2881
654.3360, 133.6719
655.4980, 165.3262
656.6600, 98.37939
657.8210, 140.8027
658.9830, 87.56104
660.1440, 104.9600
661.3050, 130.5894
662.4660, 126.8101
663.6270, 113.2988
664.7870, 121.1265
665.9480, 120.6284
667.1080, 115.7832
668.2680, 85.99951
669.4280, 197.9297
670.5880, 220.0415
671.7480, 97.28320
672.9070, 115.5298
674.0670, 235.9292
675.2260, 104.6768
676.3850, 147.6499
677.5440, 100.5977
678.7030, 64.32129
679.8610, 59.59570
681.0200, 25.63770
682.1780, 102.3784
683.3360, 122.8691
684.4940, 69.57520
685.6520, 155.6064
686.8090, 82.89453
687.9670, 126.3120
689.1240, 67.88379
690.2810, 76.63574
691.4380, 104.7598
692.5950, 22.59863
693.7520, 73.04736
694.9080, 74.52148
696.0650, 91.78857
697.2210, 121.1655
698.3770, 17.43799
699.5330, 47.52490
700.6880, 6.618652
701.8440, 112.6362
702.9990, 85.46289
704.1550, 119.4404
705.3100, 98.13818
706.4650, 76.81689
707.6190, 106.4121
708.7740, 61.27393
709.9290, 52.14209
711.0830, 30.61914
712.2370, 30.91309
713.3910, 81.09570
714.5450, 78.69580
715.6980, 4.445313
716.8520, 0.3950200
718.0050, 72.00049
719.1580, 134.5474
720.3110, 133.5195
721.4640, 157.5591
722.6170, 72.14209
723.7700, 109.3271
724.9220, 95.48975
726.0740, 3.630371
727.2260, 145.7397
728.3780, 167.8271
729.5300, 53.01953
730.6810, 128.0610
731.8330, 139.0796
732.9840, 51.07715
734.1350, 58.05029
735.2860, 25.22021
736.4370, 19.14258
737.5880, 135.1909
738.7380, 11.93701
739.8880, 45.63818
741.0390, 145.3936
742.1890, 43.20801
743.3380, 167.2168
744.4880, 108.9556
745.6380, 126.9385
746.7870, 78.50928
747.9360, 138.5244
749.0850, 42.91113
750.2340, 103.9814
751.3830, 94.72461
752.5310, 67.18359
753.6800, 96.04102
754.8280, 42.85449
755.9760, 122.5923
757.1240, 121.1436
758.2720, 88.73584
759.4190, 176.1763
760.5670, 21.80371
761.7140, 56.67383
762.8610, 177.2373
764.0080, 23.73291
765.1550, 28.15527
766.3020, 142.3789
767.4480, 115.4043
768.5950, 151.0449
769.7410, 56.23779
770.8870, 112.7261
772.0330, 14.87109
773.1780, 43.98486
774.3240, 42.16113
775.4690, 77.64062
776.6140, 44.87012
777.7590, 69.79932
778.9040, 101.7930
780.0490, 38.64795
781.1940, 76.64648
782.3380, 92.56250
783.4820, 23.14600
784.6260, 117.0078
785.7700, 66.84521
786.9140, 164.6655
788.0580, 97.27539
789.2010, 50.07812
790.3450, 27.99561
791.4880, 92.74072
792.6310, 93.58350
793.7730, 120.2935
794.9160, 41.91211
796.0590, 50.60205
797.2010, 30.14502
798.3430, 62.72998
799.4850, 49.21191
800.6270, 68.95020
801.7690, 32.55420
802.9100, 42.51953
804.0520, 86.69434
805.1930, 32.23535
806.3340, 49.66992
807.4750, 28.17725
808.6160, 37.66455
809.7560, 107.1230
810.8970, 65.57617
812.0370, 24.00439
813.1770, 4.595215
814.3170, 76.77197
815.4570, 56.11084
816.5960, 69.27686
817.7360, 42.39697
818.8750, 11.19727
820.0140, 45.44971
821.1530, 0.6938480
822.2920, 59.77148
823.4310, 14.96143
824.5690, 26.05127
825.7070, 15.19287
826.8460, 78.16162
827.9840, 50.14502
829.1220, 97.21387
830.2590, 14.77197
831.3970, 16.33740
832.5340, 4.477539
833.6710, 13.98145
834.8080, 5.865234
835.9450, 30.57715
837.0820, 27.16504
838.2190, 31.11719
839.3550, 59.92383
840.4910, 29.60938
841.6270, 79.37402
842.7630, 78.06592
843.8990, 0.6459960
845.0350, 156.3208
846.1700, 6.786133
847.3060, 102.1846
848.4410, 3.371582
849.5760, 43.46680
850.7100, 52.93848
851.8450, 23.31104
852.9800, 13.18604
854.1140, 78.07959
855.2480, 35.33984
856.3820, 12.22852
857.5160, 55.16943
858.6500, 104.5464
859.7830, 121.7061
860.9170, 118.0029
862.0500, 98.22314
863.1830, 127.4722
864.3160, 174.7578
865.4480, 62.02588
866.5810, 153.9917
867.7130, 105.2227
868.8460, 105.4355
869.9780, 121.3350
871.1100, 35.25391
872.2410, 93.85352
873.3730, 49.33643
874.5050, 158.4600
875.6360, 1.304199
876.7670, 68.55908
877.8980, 74.46533
879.0290, 21.08252
880.1590, 135.0718
881.2900, 11.01660
882.4200, 5.070801
883.5500, 4.655762
884.6800, 3.442383
885.8100, 30.96143
886.9400, 74.21582
888.0690, 22.58691
889.1990, 3.889160
890.3280, 61.53125
891.4570, 11.64795
892.5860, 49.25537
893.7140, 32.84229
894.8430, 10.72119
895.9710, 10.70508
897.1000, 3.208496
898.2280, 9.859375
899.3560, 19.41504
900.4830, 28.18066
901.6110, 64.02002
902.7380, 25.46777
903.8660, 20.06982
904.9930, 64.38672
906.1200, 3.536621
907.2460, 156.7930
908.3730, 61.22266
909.5000, 29.15869
910.6260, 69.93652
911.7520, 3.146484
912.8780, 129.9839
914.0040, 146.0117
915.1290, 109.1631
916.2550, 27.90234
917.3800, 92.92822
918.5050, 12.98828
919.6300, 42.45850
920.7550, 52.61621
921.8800, 59.55420
923.0040, 16.23096
924.1290, 31.80664
925.2530, 6.410645
926.3770, 57.08691
927.5010, 2.076172
928.6250, 110.0601
929.7480, 96.14746
930.8720, 133.8218
931.9950, 241.5659
933.1180, 260.0771
934.2410, 241.8926
935.3640, 259.6074
936.4860, 302.6357
937.6090, 334.9648
938.7310, 419.6074
939.8530, 510.4863
940.9750, 602.0029
942.0970, 724.6890
943.2180, 805.1426
944.3400, 986.7163
945.4610, 1108.647
946.5820, 1341.398
947.7030, 1675.772
948.8240, 1915.069
949.9450, 2223.849
951.0650, 2769.536
952.1860, 3642.273
953.3060, 4368.856
954.4260, 6168.948
955.5460, 8609.555
956.6650, 12377.20
957.7850, 17507.88
958.9040, 23442.08
960.0230, 30402.49
961.1420, 38738.70
962.2610, 47489.43
963.3800, 52498.05
964.4990, 50855.87
965.6170, 43340.08
966.7350, 33205.70
967.8530, 23499.07
968.9710, 15982.85
970.0890, 10881.15
971.2070, 7434.629
972.3240, 5260.069
973.4410, 3572.558
974.5580, 2758.076
975.6750, 1975.555
976.7920, 1470.290
977.9090, 1091.018
979.0250, 917.7690
980.1410, 655.6558
981.2580, 502.8130
982.3740, 402.6914
983.4890, 592.1680
984.6050, 404.2900
985.7200, 406.9688
986.8360, 287.4756
987.9510, 328.5420
989.0660, 288.3477
990.1810, 212.9766
991.2950, 166.1582
992.4100, 173.8740
993.5240, 125.7734
994.6390, 131.6719
995.7530, 211.5703
996.8660, 152.4814
997.9800, 194.3965
999.0940, 101.3115
1000.207, 208.0986
1001.320, 364.0146
1002.433, 305.9297
1003.546, 519.8457
1004.659, 574.7617
1005.772, 552.4580
1006.884, 784.3799
1007.996, 937.1660
1009.108, 973.1064
1010.220, 953.5547
1011.332, 905.5625
1012.444, 906.4902
1013.555, 803.2012
1014.666, 743.1611
1015.777, 948.8564
1016.888, 1019.944
1017.999, 819.5645
1019.110, 732.7949
1020.220, 647.3223
1021.331, 553.1562
1022.441, 534.2617
1023.551, 551.9492
1024.661, 582.6592
1025.770, 648.4238
1026.880, 759.3545
1027.989, 771.2266
1029.098, 1148.229
1030.207, 1294.025
1031.316, 1493.570
1032.425, 1533.401
1033.533, 1744.282
1034.642, 1812.228
1035.750, 2036.312
1036.858, 2326.615
1037.966, 2543.294
1039.073, 2817.413
1040.181, 2951.414
1041.288, 3268.285
1042.396, 3098.431
1043.503, 2876.500
1044.610, 2718.246
1045.716, 2843.231
1046.823, 2979.408
1047.929, 3389.592
1049.036, 4029.781
1050.142, 4561.922
1051.248, 4816.131
1052.353, 4989.652
1053.459, 4598.875
1054.564, 3944.107
1055.670, 3291.346
1056.775, 2513.794
1057.880, 2339.043
1058.985, 1920.130
1060.089, 1701.403
1061.194, 1404.572
1062.298, 1235.861
1063.402, 970.1582
1064.506, 843.4648
1065.610, 757.7803
1066.713, 744.1055
1067.817, 693.4395
1068.920, 690.7852
1070.023, 777.1387
1071.126, 770.5508
1072.229, 991.9248
1073.332, 1002.307
1074.435, 1287.699
1075.537, 1578.101
1076.639, 2033.514
1077.741, 2209.938
1078.843, 2437.369
1079.945, 2397.810
1081.046, 2136.264
1082.148, 1851.732
1083.249, 1388.209
1084.350, 1132.698
1085.451, 936.1953
1086.551, 646.7041
1087.652, 642.2246
1088.752, 505.7559
1089.853, 610.3018
1090.953, 372.8584
1092.053, 377.4268
1093.152, 289.0059
1094.252, 128.5977
1095.351, 296.2002
1096.451, 194.8115
1097.550, 176.4336
1098.649, 183.6318
1099.748, 135.9473
1100.846, 145.4873
1101.945, 92.78906
1103.043, 151.4932
1104.141, 105.2139
1105.239, 125.9453
1106.337, 42.31250
1107.434, 15.44531
1108.532, 41.21484
1109.629, 165.9951
1110.726, 43.12598
1111.823, 108.5605
1112.920, 1.083984
1114.017, 225.0664
1115.113, 25.09180
1116.210, 151.7607
1117.306, 78.63672
1118.402, 162.5234
1119.498, 172.4219
1120.593, 123.6191
1121.689, 289.5430
1122.784, 292.4785
1123.879, 173.5352
1124.974, 395.4971
1126.069, 240.4775
1127.164, 297.4678
1128.259, 261.5547
1129.353, 383.5625
1130.447, 195.5791
1131.541, 265.6064
1132.635, 213.6426
1133.729, 222.6875
1134.822, 152.7422
1135.916, 164.8047
1137.009, 101.8770
1138.102, 77.95996
1139.195, 83.72168
1140.288, 134.8223
1141.380, 14.66406
1142.473, 201.4561
1143.565, 64.60645
1144.657, 106.7656
1145.749, 250.9395
1146.841, 78.12207
1147.932, 166.3203
1149.024, 111.5938
1150.115, 178.8154
1151.206, 183.5586
1152.297, 55.81055
1153.388, 172.9883
1154.479, 159.2900
1155.569, 88.60059
1156.659, 351.9385
1157.750, 281.3037
1158.839, 239.6641
1159.929, 165.0342
1161.019, 179.4170
1162.108, 303.8105
1163.198, 355.2139
1164.287, 38.62695
1165.376, 210.3770
1166.465, 198.8066
1167.553, 252.2451
1168.642, 270.5996
1169.730, 191.4365
1170.818, 227.5215
1171.906, 209.3965
1172.994, 217.8535
1174.082, 214.8652
1175.170, 154.8652
1176.257, 182.4014
1177.344, 148.9463
1178.431, 102.4990
1179.518, 153.0576
1180.605, 127.6240
1181.691, 114.4287
1182.778, 76.77930
1183.864, 65.37012
1184.950, 85.98633
1186.036, 32.59277
1187.122, 56.20508
1188.207, 47.82910
1189.292, 6.540039
1190.378, 241.0967
1191.463, 199.7412
1192.548, 215.3936
1193.632, 92.05176
1194.717, 159.7168
1195.801, 82.38867
1196.886, 16.06738
1197.970, 126.7520
1199.054, 204.4434
1200.137, 98.14160
1201.221, 1.153320
1202.305, 24.55762
1203.388, 61.27539
1204.471, 125.9980
1205.554, 118.7285
1206.637, 49.46387
1207.719, 122.2051
1208.802, 12.95410
1209.884, 86.70801
1210.966, 245.4678
1212.048, 120.2334
1213.130, 9.004883
1214.212, 196.8223
1215.293, 22.60547
1216.374, 94.39453
1217.456, 93.18848
1218.536, 166.9893
1219.617, 101.7959
1220.698, 55.60645
1221.778, 160.4219
1222.859, 221.2432
1223.939, 68.07031
1225.019, 119.9004
1226.099, 148.7373
1227.178, 128.6250
1228.258, 12.52832
1229.337, 165.3164
1230.417, 1.833008
1231.496, 195.0195
1232.574, 180.8760
1233.653, 260.4951
1234.732, 203.3613
1235.810, 153.2314
1236.888, 151.2734
1237.966, 109.1660
1239.044, 75.04785
1240.122, 89.06641
