##NAMES=Fluor-uvite
##RRUFFID=R050172
##IDEAL CHEMISTRY=CaMg_3_(Al_5_Mg)(Si_6_O_18_)(BO_3_)_3_(OH)_3_F
##LOCALITY=Pierrepont, New York, USA
##OWNER=RRUFF
##SOURCE=Marcus Origlieri
##DESCRIPTION=Black prismatic crystal
##STATUS=The identification of this mineral has been confirmed by X-ray diffraction and chemical analysis
##URL=rruff.info/R050172
##MEASURED CHEMISTRY=(Ca_0.64_Na_0.36_)(Mg_0.56_Fe^2+^_0.34_Al_0.08_Ti_0.02_)_3_(Mg_1.00_Al_5.00_)(BO_3_)_3_Si_6.00_O_18_((OH)_3.45_F_0.55_)
##PIN_ID=L00240
##ORIENTATION=Laser parallel to -a* (-1 0 0). Fiducial mark perpendicular to laser is parallel to c [0 0 1]
168.010, 0.000
169.391, 22.494
170.771, 51.013
172.151, 49.806
173.531, 83.967
174.911, 7.946
176.290, 28.399
177.669, 16.924
179.049, 74.272
180.427, 40.134
181.806, 63.388
183.184, 88.143
184.562, 102.798
185.940, 128.218
187.318, 173.875
188.696, 227.351
190.073, 229.480
191.450, 246.592
192.827, 242.800
194.204, 347.998
195.580, 365.305
196.956, 481.451
198.332, 529.335
199.708, 652.159
201.084, 767.620
202.459, 851.766
203.834, 930.546
205.209, 1138.743
206.584, 1164.447
207.958, 1272.810
209.333, 1317.873
210.707, 1397.704
212.081, 1260.953
213.454, 1196.768
214.828, 1146.404
216.201, 1029.475
217.574, 937.251
218.947, 844.146
220.320, 774.595
221.692, 583.245
223.064, 616.162
224.436, 647.302
225.808, 628.568
227.179, 834.867
228.551, 797.042
229.922, 964.745
231.293, 1103.266
232.663, 1306.260
234.034, 1557.840
235.404, 1726.002
236.774, 1985.481
238.144, 2088.632
239.514, 2172.921
240.883, 2021.275
242.252, 1948.378
243.621, 1823.389
244.990, 1558.120
246.359, 1371.542
247.727, 1156.766
249.095, 960.102
250.463, 807.759
251.831, 617.729
253.198, 528.474
254.566, 413.319
255.933, 293.261
257.299, 323.291
258.666, 255.400
260.033, 249.579
261.399, 177.818
262.765, 216.110
264.131, 176.447
265.496, 196.821
266.862, 155.223
268.227, 170.646
269.592, 164.083
270.957, 129.528
272.321, 144.976
273.685, 116.421
275.050, 93.859
276.413, 105.283
277.777, 69.691
279.141, 32.076
280.504, 19.429
281.867, 14.258
283.230, 3.010
284.592, 19.666
285.955, 28.119
287.317, 44.499
288.679, 40.438
290.041, 64.425
291.403, 57.117
292.764, 45.773
294.125, 53.517
295.486, 0.487
296.847, 40.056
298.207, 47.417
299.568, 13.432
300.928, 42.958
302.288, 42.675
303.647, 19.473
305.007, 89.971
306.366, 93.901
307.725, 100.725
309.084, 206.533
310.443, 174.680
311.801, 201.302
313.159, 254.290
314.517, 314.072
315.875, 257.645
317.233, 315.500
318.590, 246.757
319.947, 224.542
321.304, 229.090
322.661, 218.757
324.018, 239.259
325.374, 289.744
326.730, 278.208
328.086, 320.653
329.442, 247.082
330.797, 328.497
332.153, 348.317
333.508, 326.062
334.863, 398.698
336.217, 405.177
337.572, 471.586
338.926, 465.447
340.280, 552.710
341.634, 497.841
342.988, 634.936
344.341, 689.942
345.694, 647.857
347.047, 824.678
348.400, 812.402
349.753, 943.023
351.105, 1079.542
352.457, 1161.958
353.809, 1336.273
355.161, 1463.487
356.512, 1626.599
357.864, 1873.609
359.215, 2114.517
360.566, 2354.319
361.916, 2646.006
363.267, 2716.572
364.617, 2802.012
365.967, 2940.329
367.317, 2898.528
368.667, 2763.615
370.016, 2662.598
371.366, 2529.480
372.715, 2229.269
374.064, 2009.969
375.412, 1836.570
376.761, 1663.070
378.109, 1497.460
379.457, 1395.744
380.805, 1215.923
382.152, 1084.000
383.500, 1051.973
384.847, 901.837
386.194, 824.590
387.541, 788.202
388.887, 678.641
390.233, 637.890
391.580, 634.934
392.926, 588.757
394.271, 547.409
395.617, 577.891
396.962, 502.239
398.307, 505.469
399.652, 527.633
400.997, 406.750
402.341, 439.834
403.686, 410.900
405.030, 437.934
406.374, 428.950
407.717, 331.980
409.061, 378.951
410.404, 379.897
411.747, 297.827
413.090, 280.739
414.433, 319.644
415.775, 236.528
417.117, 269.177
418.459, 282.329
419.801, 183.576
421.143, 202.531
422.484, 149.452
423.825, 135.789
425.166, 144.445
426.507, 72.766
427.848, 64.254
429.188, 82.396
430.528, 100.716
431.868, 61.024
433.208, 67.016
434.547, 59.144
435.887, 48.956
437.226, 32.893
438.565, 81.573
439.904, 25.831
441.242, 58.949
442.580, 98.586
443.918, 70.453
445.256, 54.209
446.594, 75.578
447.932, 7.646
449.269, 12.368
450.606, 16.790
451.943, 13.526
453.280, 36.732
454.616, 5.648
455.952, 10.109
457.288, 32.927
458.624, 8.711
459.960, 31.785
461.295, 45.140
462.631, 41.109
463.966, 47.705
465.300, 78.953
466.635, 112.156
467.969, 129.437
469.304, 146.943
470.638, 158.235
471.972, 173.371
473.305, 122.624
474.639, 220.094
475.972, 195.814
477.305, 237.281
478.638, 308.994
479.970, 288.704
481.303, 351.872
482.635, 394.781
483.967, 418.466
485.298, 365.583
486.630, 410.569
487.961, 428.183
489.293, 386.983
490.624, 425.484
491.954, 418.335
493.285, 460.240
494.615, 358.023
495.945, 428.952
497.275, 396.854
498.605, 376.731
499.935, 414.585
501.264, 301.414
502.593, 288.218
503.922, 278.999
505.251, 243.757
506.579, 244.679
507.908, 225.045
509.236, 225.898
510.564, 209.568
511.891, 185.219
513.219, 198.854
514.546, 165.472
515.873, 127.072
517.200, 193.666
518.527, 119.248
519.853, 240.812
521.180, 202.370
522.506, 159.926
523.832, 181.466
525.157, 179.005
526.483, 190.594
527.808, 200.128
529.133, 234.611
530.458, 219.135
531.783, 234.645
533.107, 250.140
534.431, 192.624
535.756, 225.098
537.079, 147.571
538.403, 229.045
539.727, 169.519
541.050, 190.997
542.373, 130.471
543.696, 145.944
545.018, 153.408
546.341, 184.868
547.663, 131.339
548.985, 166.805
550.307, 116.272
551.629, 111.739
552.950, 64.199
554.271, 77.655
555.592, 84.107
556.913, 106.556
558.234, 100.001
559.554, 83.444
560.875, 97.885
562.195, 59.772
563.514, 62.222
564.834, 58.943
566.154, 48.625
567.473, 56.057
568.792, 56.487
570.111, 54.913
571.429, 58.817
572.748, 52.264
574.066, 59.913
575.384, 48.995
576.702, 45.220
578.019, 61.509
579.337, 56.392
580.654, 57.363
581.971, 74.122
583.288, 54.835
584.605, 58.051
585.921, 78.066
587.237, 42.513
588.553, 29.048
589.869, 16.671
591.185, 3.415
592.500, 16.645
593.815, 6.129
595.130, 25.429
596.445, 2.895
597.760, 11.594
599.074, 5.823
600.389, 9.389
601.703, 5.849
603.016, 36.840
604.330, 59.498
605.644, 4.707
606.957, 5.789
608.270, 53.995
609.583, 60.712
610.895, 10.090
612.208, 46.998
613.520, 51.403
614.832, 68.836
616.144, 75.914
617.455, 109.778
618.767, 69.132
620.078, 109.041
621.389, 130.353
622.700, 175.713
624.011, 200.117
625.321, 191.899
626.631, 244.656
627.941, 289.500
629.251, 292.399
630.561, 281.303
631.870, 326.072
633.180, 295.978
634.489, 327.885
635.798, 345.792
637.106, 331.699
638.415, 406.606
639.723, 458.515
641.031, 388.425
642.339, 521.334
643.647, 606.246
644.954, 601.156
646.261, 607.067
647.568, 565.976
648.875, 631.885
650.182, 649.792
651.488, 621.698
652.795, 631.603
654.101, 643.505
655.407, 667.406
656.712, 655.529
658.018, 723.466
659.323, 726.613
660.628, 845.804
661.933, 831.016
663.238, 953.320
664.542, 952.608
665.847, 886.946
667.151, 920.249
668.455, 935.700
669.758, 835.912
671.062, 805.832
672.365, 726.272
673.668, 668.734
674.971, 607.397
676.274, 560.908
677.577, 524.682
678.879, 531.485
680.181, 521.000
681.483, 485.794
682.785, 552.934
684.086, 472.340
685.388, 550.593
686.689, 575.132
687.990, 568.416
689.290, 571.611
690.591, 657.132
691.891, 711.122
693.192, 779.845
694.491, 854.175
695.791, 927.044
697.091, 1105.836
698.390, 1161.791
699.689, 1125.981
700.988, 1268.267
702.287, 1177.739
703.586, 1116.713
704.884, 1028.483
706.182, 926.803
707.480, 854.110
708.778, 727.239
710.076, 655.575
711.373, 566.750
712.670, 482.162
713.968, 388.183
715.264, 378.527
716.561, 368.729
717.857, 389.641
719.154, 346.771
720.450, 373.925
721.746, 390.058
723.041, 344.425
724.337, 380.470
725.632, 383.490
726.927, 342.460
728.222, 394.379
729.517, 410.276
730.811, 353.153
732.105, 395.271
733.400, 378.177
734.693, 394.068
735.987, 358.144
737.281, 405.094
738.574, 391.935
739.867, 378.820
741.160, 483.689
742.453, 392.481
743.745, 435.180
745.038, 411.794
746.330, 488.445
747.622, 496.918
748.913, 524.470
750.205, 511.954
751.496, 538.998
752.788, 538.469
754.079, 560.780
755.369, 536.264
756.660, 545.762
757.950, 567.198
759.241, 530.799
760.531, 501.417
761.820, 516.812
763.110, 542.286
764.399, 516.872
765.689, 480.452
766.978, 520.943
768.267, 500.515
769.555, 504.372
770.844, 443.640
772.132, 495.193
773.420, 516.740
774.708, 484.284
775.996, 416.826
777.283, 455.360
778.570, 405.886
779.857, 501.404
781.144, 334.911
782.431, 435.408
783.718, 383.896
785.004, 426.371
786.290, 392.837
787.576, 350.292
788.862, 321.735
790.147, 316.168
791.433, 322.590
792.718, 316.000
794.003, 295.400
795.288, 262.788
796.572, 293.165
797.857, 254.530
799.141, 249.884
800.425, 221.226
801.709, 221.556
802.992, 147.875
804.276, 171.182
805.559, 149.478
806.842, 170.761
808.125, 133.033
809.407, 131.323
810.690, 64.540
811.972, 108.774
813.254, 58.995
814.536, 48.202
815.818, 43.395
817.099, 21.573
818.381, 25.509
819.662, 13.736
820.943, 22.010
822.223, 5.124
823.504, 8.780
824.784, 3.709
826.065, 6.340
827.345, 43.629
828.624, 14.643
829.904, 5.315
831.183, 31.745
832.462, 47.844
833.741, 6.009
835.020, 47.156
836.299, 68.368
837.577, 8.639
838.856, 21.936
840.134, 26.268
841.412, 24.364
842.689, 44.979
843.967, 7.578
845.244, 0.843
846.521, 28.287
847.798, 37.770
849.075, 30.296
850.351, 44.862
851.628, 15.475
852.904, 19.120
854.180, 17.201
855.455, 7.495
856.731, 63.220
858.006, 3.998
859.281, 20.806
860.556, 4.645
861.831, 47.490
863.106, 13.608
864.380, 33.709
865.655, 11.795
866.929, 67.863
868.202, 13.924
869.476, 21.967
870.750, 89.993
872.023, 34.004
873.296, 2.001
874.569, 31.971
875.842, 11.927
877.114, 48.863
878.386, 54.782
879.658, 64.688
880.930, 76.581
882.202, 78.459
883.474, 83.499
884.745, 22.170
886.016, 68.002
887.287, 75.817
888.558, 30.624
889.829, 59.413
891.099, 84.193
892.369, 72.957
893.639, 75.707
894.909, 93.449
896.179, 113.178
897.448, 119.886
898.718, 98.599
899.987, 141.294
901.256, 121.987
902.524, 128.677
903.793, 132.095
905.061, 141.449
906.329, 126.686
907.597, 152.333
908.865, 160.968
910.133, 115.590
911.400, 192.198
912.667, 121.793
913.934, 158.375
915.201, 186.945
916.468, 154.501
917.734, 160.043
919.001, 142.573
920.267, 174.089
921.532, 190.591
922.798, 166.080
924.064, 196.555
925.329, 181.017
926.594, 190.464
927.859, 253.899
929.124, 222.320
930.388, 240.727
931.653, 227.120
932.917, 271.500
934.181, 250.867
935.445, 300.220
936.708, 305.290
937.972, 304.138
939.235, 319.198
940.498, 323.497
941.761, 305.783
943.024, 358.056
944.286, 300.315
945.548, 336.561
946.811, 375.794
948.072, 426.014
949.334, 404.220
950.596, 403.413
951.857, 405.594
953.118, 451.761
954.379, 436.915
955.640, 492.056
956.901, 472.184
958.161, 510.346
959.421, 556.401
960.681, 561.491
961.941, 536.567
963.201, 531.408
964.460, 508.419
965.720, 546.206
966.979, 530.934
968.238, 579.627
969.496, 565.214
970.755, 517.803
972.013, 564.329
973.272, 569.875
974.529, 586.259
975.787, 611.868
977.045, 539.756
978.302, 548.110
979.560, 566.428
980.817, 476.532
982.073, 587.775
983.330, 532.742
984.587, 572.666
985.843, 569.865
987.099, 519.772
988.355, 519.320
989.611, 526.589
990.866, 499.997
992.122, 516.108
993.377, 496.461
994.632, 494.707
995.887, 462.082
997.141, 483.691
998.396, 470.553
999.650, 457.797
1000.904, 514.549
1002.158, 563.452
1003.412, 501.033
1004.665, 601.367
1005.918, 507.694
1007.172, 610.771
1008.425, 611.422
1009.677, 630.192
1010.930, 641.487
1012.182, 670.765
1013.434, 713.188
1014.687, 721.367
1015.938, 727.193
1017.190, 797.319
1018.441, 851.844
1019.693, 868.017
1020.944, 919.187
1022.195, 950.694
1023.445, 973.997
1024.696, 1022.983
1025.946, 1049.231
1027.197, 1008.166
1028.446, 1063.423
1029.696, 1060.116
1030.946, 1147.982
1032.195, 1158.462
1033.445, 1149.810
1034.694, 1116.278
1035.942, 1125.376
1037.191, 1158.665
1038.440, 1194.334
1039.688, 1167.456
1040.936, 1184.055
1042.184, 1150.437
1043.432, 1109.798
1044.679, 1141.919
1045.927, 1106.407
1047.174, 1090.949
1048.421, 1053.537
1049.668, 1024.479
1050.914, 1026.547
1052.161, 1028.233
1053.407, 1008.740
1054.653, 999.765
1055.899, 972.171
1057.145, 969.626
1058.391, 923.079
1059.636, 920.526
1060.881, 905.920
1062.126, 910.485
1063.371, 895.214
1064.615, 847.419
1065.860, 864.841
1067.104, 865.258
1068.348, 838.930
1069.592, 769.077
1070.836, 796.479
1072.079, 746.876
1073.323, 746.269
1074.566, 691.657
1075.809, 729.041
1077.052, 692.420
1078.294, 613.794
1079.537, 622.164
1080.779, 583.530
1082.021, 591.891
1083.263, 590.247
1084.504, 508.600
1085.746, 553.949
1086.987, 455.293
1088.228, 473.633
1089.469, 467.969
1090.710, 451.302
1091.951, 432.630
1093.191, 394.954
1094.431, 393.275
1095.671, 397.592
1096.911, 400.904
1098.151, 363.214
1099.390, 395.520
1100.630, 344.822
1101.869, 337.120
1103.108, 311.416
1104.346, 264.708
1105.585, 268.268
1106.823, 248.282
1108.062, 281.565
1109.300, 242.845
1110.537, 303.122
1111.775, 261.396
1113.013, 260.668
1114.250, 171.938
1115.487, 229.206
1116.724, 203.472
1117.961, 191.737
1119.197, 183.001
1120.434, 197.264
1121.670, 178.526
1122.906, 126.791
1124.142, 151.056
1125.377, 175.325
1126.613, 113.596
1127.848, 84.868
1129.083, 168.154
1130.318, 133.445
1131.553, 109.742
1132.787, 154.048
1134.022, 85.369
1135.256, 83.691
1136.490, 49.028
1137.724, 95.386
1138.957, 113.753
1140.191, 65.129
1141.424, 51.515
1142.657, 56.902
1143.890, 12.287
1145.123, 67.674
1146.355, 56.065
1147.588, 74.466
1148.820, 21.882
1150.052, 1.308
1151.284, 56.749
1152.516, 73.240
1153.747, 11.702
1154.978, 24.164
1156.209, 2.631
1157.440, 20.119
1158.671, 0.609
1159.902, 3.402
1161.132, 8.663
1162.362, 9.199
1163.592, 9.288
1164.822, 3.219
1166.052, 35.192
1167.281, 2.301
1168.511, 45.968
1169.740, 22.461
1170.969, 13.954
1172.197, 12.554
1173.426, 21.961
1174.654, 28.451
1175.883, 33.944
1177.111, 5.563
1178.338, 8.074
1179.566, 4.409
1180.794, 48.892
1182.021, 11.375
1183.248, 50.864
1184.475, 44.347
1185.702, 21.165
1186.928, 52.312
1188.155, 21.216
1189.381, 25.474
1190.607, 17.935
1191.833, 28.499
1193.059, 5.947
1194.284, 11.392
1195.509, 17.165
1196.735, 7.732
1197.960, 40.305
1199.184, 34.677
1200.409, 8.481
1201.633, 20.138
1202.858, 13.230
1204.082, 44.597
1205.306, 38.963
1206.529, 40.328
1207.753, 69.746
1208.976, 5.125
1210.199, 24.486
1211.422, 23.845
1212.645, 45.202
1213.868, 78.558
1215.090, 73.245
1216.313, 80.267
1217.535, 78.619
1218.757, 85.970
1219.978, 87.320
1221.200, 62.669
1222.421, 109.016
1223.643, 120.362
1224.864, 116.706
1226.084, 104.049
1227.305, 111.390
1228.526, 131.742
1229.746, 110.105
1230.966, 127.706
1232.186, 129.793
1233.406, 142.126
1234.625, 139.458
1235.845, 151.012
1237.064, 178.118
1238.283, 129.446
1239.502, 102.772
1240.721, 73.097
1241.939, 163.422
1243.157, 116.748
1244.376, 150.073
1245.594, 70.399
1246.811, 123.724
1248.029, 100.050
1249.247, 94.376
1250.464, 110.701
1251.681, 62.085
1252.898, 106.466
1254.115, 80.866
1255.331, 77.270
1256.548, 78.615
1257.764, 70.984
1258.980, 108.357
1260.196, 94.683
1261.411, 117.051
1262.627, 137.376
1263.842, 92.702
1265.057, 81.028
1266.272, 103.353
1267.487, 51.678
1268.702, 136.751
1269.916, 104.076
1271.130, 130.477
1272.344, 107.802
1273.558, 65.125
1274.772, 76.500
1275.986, 99.823
1277.199, 35.849
1278.412, 133.191
1279.625, 100.505
1280.838, 96.955
1282.051, 128.306
1283.263, 63.691
1284.475, 70.934
1285.687, 96.243
1286.899, 81.552
1288.111, 68.990
1289.323, 74.295
1290.534, 65.515
1291.745, 120.925
1292.957, 91.228
1294.167, 91.545
1295.378, 92.872
1296.589, 76.026
1297.799, 28.781
1299.009, 82.464
1300.219, 55.787
1301.429, 80.117
1302.639, 116.332
1303.848, 40.563
1305.057, 98.048
1306.267, 30.222
1307.476, 35.414
1308.684, 87.596
1309.893, 54.302
1311.101, 21.458
1312.310, 69.436
1313.518, 13.413
1314.725, 43.871
1315.933, 48.097
1317.141, 41.290
1318.348, 33.924
1319.555, 54.144
1320.762, 62.434
1321.969, 75.713
1323.176, 62.564
1324.382, 58.324
1325.589, 57.549
1326.795, 69.817
1328.001, 37.993
1329.206, 51.946
1330.412, 38.825
1331.617, 37.423
1332.823, 45.807
1334.028, 0.699
1335.233, 56.367
1336.437, 13.551
1337.642, 46.388
1338.846, 57.499
1340.051, 63.658
1341.255, 68.753
1342.458, 70.399
1343.662, 47.019
1344.866, 67.044
1346.069, 51.097
1347.272, 51.943
1348.475, 51.184
1349.678, 34.329
1350.880, 51.469
1352.083, 18.604
1353.285, 27.732
1354.487, 60.727
1355.689, 33.796
1356.891, 76.856
1358.093, 33.960
1359.294, 72.055
1360.495, 89.130
1361.696, 61.186
1362.897, 61.284
1364.098, 89.321
1365.298, 61.307
1366.499, 78.533
1367.699, 84.771
1368.899, 80.600
1370.099, 34.880
1371.298, 42.796
1372.498, 29.199
1373.697, 26.239
1374.896, 28.181
1376.095, 65.116
1377.294, 78.042
1378.493, 38.033
1379.691, 63.946
1380.889, 55.008
1382.087, 33.943
1383.285, 69.591
1384.483, 58.877
1385.681, 39.162
1386.878, 124.444
1388.075, 105.725
1389.272, 71.004
1390.469, 82.280
1391.666, 55.553
1392.862, 38.823
1394.059, 41.091
1395.255, 19.355
1396.451, 20.439
1397.647, 15.938
1398.842, 15.128
1400.038, 29.374
1401.233, 23.618
1402.428, 22.881
1403.623, 46.082
1404.818, 24.308
1406.013, 42.524
1407.207, 69.733
1408.401, 35.938
1409.595, 36.139
1410.789, 56.336
1411.983, 8.470
1413.177, 64.661
1414.370, 16.838
1415.563, 42.011
1416.756, 78.113
1417.949, 23.224
1419.142, 65.261
1420.335, 8.167
1421.527, 27.969
1422.719, 40.072
1423.911, 4.208
1425.103, 25.342
1426.295, 17.482
1427.486, 11.394
1428.677, 39.729
1429.869, 48.862
1431.060, 5.668
1432.250, 44.661
1433.441, 30.818
1434.632, 9.992
1435.822, 36.219
1437.012, 32.470
1438.202, 15.731
1439.392, 68.903
1440.581, 2.861
1441.771, 1.594
1442.960, 8.677
1444.149, 17.950
1445.338, 24.228
1446.527, 62.511
1447.715, 16.199
1448.904, 35.098
1450.092, 10.666
1451.280, 82.616
1452.468, 75.938
1453.656, 62.270
1454.843, 7.387
1456.031, 51.961
1457.218, 66.309
1458.405, 85.657
1459.592, 40.005
1460.778, 10.225
1461.965, 66.283
1463.151, 31.404
1464.337, 39.531
1465.523, 83.767
1466.709, 31.103
1467.895, 23.440
1469.080, 54.900
1470.266, 39.006
1471.451, 46.310
1472.636, 68.481
1473.821, 47.800
1475.005, 14.724
1476.190, 41.705
1477.374, 0.744
1478.558, 35.101
1479.742, 0.282
1480.926, 40.181
1482.109, 34.076
1483.293, 50.756
1484.476, 64.149
1485.659, 49.754
1486.842, 20.887
1488.025, 52.887
1489.207, 68.614
1490.390, 1.887
1491.572, 41.394
1492.754, 56.817
1493.936, 51.485
1495.118, 73.508
1496.299, 66.563
1497.481, 47.143
1498.662, 65.096
1499.843, 45.050
1501.024, 56.151
1502.205, 55.935
1503.385, 31.646
1504.565, 11.681
1505.746, 84.870
1506.926, 21.741
1508.106, 54.625
1509.285, 73.896
1510.465, 51.046
1511.644, 77.051
1512.823, 24.872
1514.002, 35.700
1515.181, 58.146
1516.360, 29.171
1517.538, 25.421
1518.717, 19.674
1519.895, 3.053
1521.073, 70.754
1522.251, 0.268
1523.428, 7.427
1524.606, 0.000
##END=



