##NAMES=Fluorophlogopite
##RRUFFID=R040039
##IDEAL CHEMISTRY=KMg_3_(Si_3_Al)O_10_F_2_
##LOCALITY=Franklin, Sussex County, New Jersey, USA
##OWNER=RRUFF
##SOURCE=University of Arizona Mineral Museum
##DESCRIPTION=Brown hexagonal sheets
##STATUS=The identification of this mineral has been confirmed by X-ray diffraction and chemical analysis
##URL=rruff.info/R040039
##MEASURED CHEMISTRY=(K_0.92_Na_0.06_[box]_0.02_)_Σ=1_(Mg_2.94_Fe_0.04_Ti_0.02_)_Σ=3_(Si_2.98_Al_1.02_)O_10_(F_1.24_(OH)_0.76_)_Σ=2_; OH estimated by charge balance
##PIN_ID=M00025
##ORIENTATION=Laser parallel to b* (0 1 0). Fiducial mark perpendicular to laser is parallel to c [0 0 1]
76.040, 0.000
77.438, 3.554
78.835, 39.813
80.232, 20.624
81.628, 47.473
83.025, 621.069
84.421, 955.144
85.817, 1551.090
87.213, 1847.396
88.608, 2531.895
90.003, 3162.427
91.398, 3747.368
92.793, 4625.521
94.188, 5285.999
95.582, 6150.594
96.976, 6752.491
98.370, 7676.979
99.764, 9022.474
101.157, 10458.595
102.550, 11964.915
103.943, 13011.151
105.336, 13867.098
106.729, 13022.617
108.121, 11737.620
109.513, 9822.043
110.905, 7955.854
112.297, 6879.029
113.688, 5756.506
115.079, 5228.592
116.470, 4702.232
117.861, 4316.020
119.251, 3710.411
120.642, 3213.889
122.032, 3056.863
123.422, 2459.443
124.811, 2420.461
126.201, 2059.815
127.590, 1657.657
128.979, 1604.117
130.367, 1319.308
131.756, 1241.325
133.144, 1135.258
134.532, 957.182
135.920, 808.161
137.307, 699.262
138.695, 676.545
140.082, 661.065
141.469, 610.869
142.856, 349.992
144.242, 328.465
145.628, 90.318
147.014, 183.576
148.400, 56.264
149.786, 37.479
151.171, 64.966
152.556, 70.588
153.941, 54.950
155.325, 60.978
156.710, 126.671
158.094, 56.282
159.478, 33.208
160.862, 151.059
162.245, 175.825
163.629, 386.149
165.012, 483.944
166.395, 634.086
167.777, 707.467
169.160, 736.492
170.542, 1006.990
171.924, 951.229
173.306, 1146.930
174.687, 1138.801
176.068, 1501.828
177.449, 1623.991
178.830, 1739.278
180.211, 2112.664
181.591, 2266.123
182.972, 2971.641
184.351, 3673.199
185.731, 4534.782
187.111, 5916.380
188.490, 7597.969
189.869, 10209.543
191.248, 13131.094
192.626, 16692.615
194.005, 20864.102
195.383, 24275.570
196.761, 26567.021
198.139, 26058.514
199.516, 24620.096
200.893, 20751.664
202.271, 16833.295
203.647, 12874.903
205.024, 9806.424
206.400, 7497.853
207.777, 5659.166
209.152, 4490.356
210.528, 3651.419
211.904, 3016.354
213.279, 2380.161
214.654, 1881.842
216.029, 1666.399
217.403, 1278.832
218.778, 1133.141
220.152, 852.330
221.526, 651.397
222.900, 455.345
224.273, 394.176
225.646, 300.892
227.019, 195.500
228.392, 120.000
229.765, 97.396
231.137, 176.688
232.509, 67.866
233.881, 68.905
235.253, 83.764
236.625, 15.584
237.996, 3.842
239.367, 78.986
240.738, 31.949
242.108, 123.038
243.479, 219.954
244.849, 115.188
246.219, 141.280
247.589, 141.536
248.958, 164.513
250.328, 230.807
251.697, 110.819
253.065, 185.483
254.434, 139.624
255.803, 103.417
257.171, 13.333
258.539, 14.177
259.906, 118.524
261.274, 162.858
262.641, 175.773
264.008, 433.892
265.375, 526.452
266.742, 744.939
268.108, 1062.715
269.475, 1321.431
270.840, 1898.906
272.206, 2508.112
273.572, 3446.681
274.937, 4382.482
276.302, 5538.138
277.667, 6763.910
279.032, 7199.373
280.396, 7434.741
281.760, 6719.568
283.125, 5993.771
284.488, 4917.936
285.852, 4041.634
287.215, 3435.328
288.578, 2962.436
289.941, 2797.553
291.304, 2371.994
292.666, 2477.496
294.029, 2388.742
295.391, 2256.655
296.753, 2440.435
298.114, 2435.464
299.476, 2701.370
300.837, 2920.120
302.198, 3200.737
303.558, 3692.223
304.919, 4216.580
306.279, 5026.812
307.639, 5676.923
308.999, 6676.913
310.359, 7506.785
311.718, 8166.745
313.077, 9117.838
314.436, 9398.761
315.795, 9789.391
317.154, 9794.629
318.512, 9876.078
319.870, 10057.658
321.228, 9513.996
322.586, 9646.044
323.943, 8951.058
325.300, 8711.937
326.657, 7990.003
328.014, 7257.929
329.371, 6696.333
330.727, 5723.420
332.083, 5270.084
333.439, 4457.504
334.795, 3923.466
336.150, 3604.841
337.506, 3013.108
338.861, 2849.544
340.215, 2432.854
341.570, 2235.708
342.924, 1997.499
344.279, 1888.226
345.633, 1717.888
346.986, 1581.485
348.340, 1529.018
349.693, 1478.485
351.046, 1428.887
352.399, 1432.223
353.752, 1392.493
355.104, 1472.697
356.457, 1352.835
357.809, 1493.907
359.160, 1463.913
360.512, 1540.853
361.863, 1748.727
363.214, 1621.533
364.565, 1990.272
365.916, 2092.944
367.267, 2370.549
368.617, 2763.087
369.967, 2861.929
371.317, 3055.371
372.666, 3125.274
374.016, 3060.868
375.365, 2846.555
376.714, 2414.410
378.063, 2309.681
379.411, 1804.860
380.760, 1768.961
382.108, 1545.500
383.456, 1427.191
384.803, 1423.929
386.151, 1281.064
387.498, 1346.274
388.845, 1131.102
390.192, 1183.946
391.539, 1184.774
392.885, 1044.287
394.231, 1188.567
395.577, 1011.825
396.923, 1074.443
398.269, 962.641
399.614, 978.750
400.959, 963.908
402.304, 790.347
403.649, 973.204
404.993, 816.239
406.337, 759.624
407.681, 750.874
409.025, 659.342
410.369, 609.624
411.712, 441.286
413.055, 585.602
414.398, 477.267
415.741, 308.062
417.084, 418.544
418.426, 190.116
419.768, 259.296
421.110, 258.845
422.452, 226.218
423.793, 284.415
425.134, 79.098
426.475, 285.938
427.816, 103.284
429.157, 167.686
430.497, 154.209
431.837, 167.062
433.177, 185.275
434.517, 116.202
435.857, 208.139
437.196, 205.812
438.535, 152.671
439.874, 161.305
441.213, 135.712
442.551, 152.851
443.889, 215.615
445.227, 175.769
446.565, 239.841
447.903, 192.834
449.240, 285.748
450.577, 237.588
451.914, 355.352
453.251, 298.044
454.588, 317.664
455.924, 357.213
457.260, 349.693
458.596, 502.105
459.932, 483.456
461.267, 622.744
462.602, 763.969
463.938, 754.134
465.272, 805.182
466.607, 838.284
467.941, 713.270
469.276, 647.196
470.610, 467.064
471.943, 407.875
473.277, 106.626
474.610, 102.308
475.944, 40.079
477.276, 125.548
478.609, 59.141
479.942, 236.824
481.274, 74.687
482.606, 117.621
483.938, 168.662
485.270, 45.835
486.601, 173.094
487.932, 5.500
489.263, 20.964
490.594, 67.505
491.925, 104.922
493.255, 10.710
494.585, 201.600
495.915, 81.864
497.245, 328.081
498.575, 269.258
499.904, 280.394
501.233, 461.490
502.562, 370.550
503.891, 620.574
505.219, 714.561
506.548, 848.513
507.876, 1173.429
509.203, 1136.311
510.531, 1422.157
511.859, 1443.969
513.186, 1435.746
514.513, 1433.491
515.840, 1181.202
517.166, 1144.891
518.493, 841.546
519.819, 762.168
521.145, 667.760
522.470, 435.319
523.796, 520.849
525.121, 384.357
526.446, 344.835
527.771, 293.311
529.096, 196.761
530.421, 334.180
531.745, 133.576
533.069, 196.938
534.393, 155.292
535.716, 95.614
537.040, 215.903
538.363, 3.803
539.686, 218.453
541.009, 94.724
542.331, 39.964
543.654, 183.184
544.976, 111.397
546.298, 271.585
547.620, 120.795
548.941, 203.992
550.263, 201.183
551.584, 72.412
552.905, 193.643
554.225, 60.891
555.546, 210.180
556.866, 247.478
558.186, 170.812
559.506, 249.189
560.826, 75.611
562.145, 259.923
563.465, 298.454
564.784, 53.061
566.103, 265.658
567.421, 204.373
568.740, 236.865
570.058, 245.295
571.376, 221.201
572.694, 236.524
574.011, 180.287
575.329, 192.147
576.646, 224.620
577.963, 128.153
579.279, 243.182
580.596, 75.284
581.912, 203.285
583.228, 77.558
584.544, 119.468
585.860, 90.774
587.175, 25.986
588.491, 52.741
589.806, 111.613
591.121, 36.910
592.435, 123.893
593.750, 33.829
595.064, 195.050
596.378, 69.918
597.692, 100.513
599.006, 175.190
600.319, 46.665
601.632, 302.291
602.945, 172.193
604.258, 200.930
605.571, 329.937
606.883, 149.748
608.195, 486.952
609.507, 343.956
610.819, 393.457
612.131, 522.722
613.442, 503.072
614.753, 801.593
616.064, 700.088
617.375, 897.180
618.685, 929.244
619.995, 1091.318
621.306, 1179.383
622.615, 1250.443
623.925, 1526.494
625.235, 1797.537
626.544, 1938.573
627.853, 2307.602
629.162, 2365.624
630.471, 2895.435
631.779, 3034.994
633.087, 3212.543
634.395, 3625.954
635.703, 3662.073
637.011, 4062.435
638.318, 4271.721
639.625, 4211.264
640.932, 4358.192
642.239, 4132.003
643.546, 4413.605
644.852, 4407.308
646.158, 4251.367
647.464, 4514.676
648.770, 4449.241
650.076, 4773.977
651.381, 5007.806
652.686, 4902.983
653.991, 5087.678
655.296, 5063.422
656.600, 5508.937
657.905, 5684.518
659.209, 5810.495
660.513, 6426.471
661.817, 6552.452
663.120, 7288.433
664.423, 7694.416
665.726, 8400.401
667.029, 9436.390
668.332, 9732.380
669.635, 11398.372
670.937, 12134.607
672.239, 13640.604
673.541, 16098.807
674.842, 17524.812
676.144, 20840.818
677.445, 23007.209
678.746, 25713.227
680.047, 28559.516
681.348, 29578.072
682.648, 31594.154
683.948, 31656.545
685.248, 30743.658
686.548, 30679.734
687.848, 27637.221
689.147, 26463.010
690.447, 23773.824
691.746, 21509.791
693.044, 19605.627
694.343, 16609.484
695.641, 15004.738
696.940, 12780.641
698.238, 11016.578
699.535, 9694.777
700.833, 8045.426
702.130, 7361.201
703.427, 6137.250
704.724, 5484.275
706.021, 4851.010
707.318, 4315.973
708.614, 4032.063
709.910, 3513.906
711.206, 3104.731
712.502, 3059.966
713.798, 2501.078
715.093, 2460.958
716.388, 2328.905
717.683, 2151.686
718.978, 2144.134
720.272, 1824.265
721.567, 1882.138
722.861, 1804.008
724.155, 1709.771
725.448, 1871.061
726.742, 1582.508
728.035, 1729.614
729.328, 1594.024
730.621, 1467.181
731.914, 1686.345
733.206, 1491.867
734.499, 1706.104
735.791, 1474.138
737.083, 1495.234
738.374, 1610.265
739.666, 1442.127
740.957, 1607.361
742.248, 1522.137
743.539, 1553.971
744.830, 1632.606
746.120, 1480.818
747.410, 1609.720
748.701, 1587.675
749.990, 1492.527
751.280, 1538.846
752.570, 1403.306
753.859, 1473.260
755.148, 1304.285
756.437, 1214.962
757.725, 1349.988
759.014, 1133.013
760.302, 1129.036
761.590, 1218.057
762.878, 1021.077
764.166, 1144.226
765.453, 985.240
766.740, 969.266
768.027, 995.273
769.314, 896.277
770.601, 1179.451
771.887, 840.445
773.174, 1022.433
774.460, 1117.412
775.745, 942.385
777.031, 1273.707
778.316, 1063.666
779.602, 1104.659
780.887, 1246.604
782.172, 1013.540
783.456, 1214.543
784.741, 1207.466
786.025, 1210.382
787.309, 1219.297
788.593, 1118.210
789.876, 1322.138
791.160, 1154.103
792.443, 1260.093
793.726, 1345.141
795.009, 1154.210
796.291, 1260.787
797.574, 1345.459
798.856, 1118.620
800.138, 1267.826
801.420, 904.034
802.702, 978.247
803.983, 903.458
805.264, 770.666
806.545, 789.876
807.826, 547.082
809.107, 525.284
810.387, 591.479
811.667, 406.668
812.947, 576.850
814.227, 291.024
815.507, 389.189
816.786, 390.346
818.065, 243.945
819.344, 324.634
820.623, 128.764
821.902, 128.886
823.180, 197.000
824.459, 66.104
825.737, 260.197
827.014, 29.719
828.292, 157.335
829.569, 207.379
830.847, 34.414
832.124, 174.436
833.401, 63.449
834.677, 32.550
835.954, 116.417
837.230, 94.626
838.506, 3.735
839.782, 34.134
841.057, 10.008
842.333, 49.825
843.608, 71.354
844.883, 39.416
846.158, 17.173
847.433, 116.082
848.707, 51.584
849.981, 146.757
851.255, 14.805
852.529, 33.645
853.803, 63.130
855.076, 83.333
856.350, 144.215
857.623, 3.860
858.895, 9.475
860.168, 127.209
861.441, 14.019
862.713, 76.748
863.985, 116.577
865.257, 106.526
866.528, 94.383
867.800, 28.364
869.071, 59.376
870.342, 96.443
871.613, 56.421
872.884, 45.728
874.154, 58.075
875.425, 73.134
876.695, 39.406
877.965, 91.278
879.234, 66.005
880.504, 134.651
881.773, 61.298
883.042, 29.067
884.311, 119.527
885.580, 33.126
886.848, 66.708
888.117, 174.279
889.385, 50.855
890.653, 244.420
891.920, 111.975
893.188, 68.521
894.455, 296.053
895.722, 74.597
896.989, 255.129
898.256, 226.653
899.523, 117.200
900.789, 373.741
902.055, 190.279
903.321, 260.814
904.587, 310.337
905.852, 135.858
907.118, 329.367
908.383, 257.863
909.648, 206.358
910.913, 327.840
912.177, 166.322
913.442, 434.794
914.706, 220.254
915.970, 121.713
917.233, 409.160
918.497, 149.594
919.760, 290.020
921.024, 255.434
922.287, 111.836
923.550, 313.227
924.812, 167.605
926.075, 229.973
927.337, 238.330
928.599, 69.674
929.861, 417.008
931.122, 145.330
932.384, 339.640
933.645, 342.938
934.906, 138.223
936.167, 435.497
937.428, 179.760
938.688, 273.011
939.948, 380.252
941.208, 225.480
942.468, 317.697
943.728, 154.902
944.987, 185.494
946.247, 229.644
947.506, 236.440
948.765, 254.593
950.023, 343.746
951.282, 168.697
952.540, 271.349
953.798, 196.124
955.056, 224.223
956.314, 457.310
957.572, 220.383
958.829, 358.442
960.086, 256.490
961.343, 318.523
962.600, 346.543
963.856, 246.551
965.113, 364.544
966.369, 421.525
967.625, 360.492
968.881, 621.445
970.136, 341.396
971.392, 571.334
972.647, 695.258
973.902, 484.169
975.157, 776.066
976.411, 647.710
977.666, 614.580
978.920, 854.234
980.174, 642.077
981.428, 810.905
982.682, 928.331
983.935, 695.133
985.188, 1092.645
986.441, 836.885
987.694, 961.584
988.947, 956.964
990.199, 864.615
991.452, 1193.923
992.704, 942.183
993.956, 966.533
995.207, 1229.445
996.459, 1031.729
997.710, 1141.905
998.961, 1199.568
1000.212, 1186.896
1001.463, 1488.927
1002.714, 1253.027
1003.964, 1535.641
1005.214, 1528.808
1006.464, 1430.159
1007.714, 1618.763
1008.964, 1644.587
1010.213, 1592.388
1011.462, 1737.027
1012.711, 1448.868
1013.960, 1606.544
1015.209, 1612.664
1016.457, 1388.029
1017.705, 1581.840
1018.954, 1253.729
1020.201, 1075.371
1021.449, 1348.661
1022.697, 1045.781
1023.944, 1361.211
1025.191, 1222.323
1026.438, 1178.989
1027.685, 1609.271
1028.931, 1630.876
1030.177, 1949.933
1031.423, 2283.892
1032.669, 2447.437
1033.915, 2947.754
1035.161, 2824.815
1036.406, 3027.746
1037.651, 3001.008
1038.896, 2588.387
1040.141, 2551.634
1041.386, 2235.507
1042.630, 2009.338
1043.874, 1852.393
1045.118, 1633.785
1046.362, 1543.926
1047.606, 1709.642
1048.849, 1411.835
1050.092, 1608.295
1051.336, 1453.535
1052.578, 1448.350
1053.821, 1609.693
1055.064, 1409.654
1056.306, 1488.919
1057.548, 1472.243
1058.790, 1306.153
1060.032, 1600.455
1061.273, 1501.155
1062.515, 1413.883
1063.756, 1632.172
1064.997, 1411.859
1066.237, 1742.154
1067.478, 1611.453
1068.718, 1641.394
1069.959, 1812.637
1071.199, 1696.056
1072.438, 1929.425
1073.678, 2092.637
1074.918, 2026.309
1076.157, 2309.502
1077.396, 2292.685
1078.635, 2346.488
1079.873, 2679.650
1081.112, 2512.765
1082.350, 2935.969
1083.588, 3039.119
1084.826, 3042.521
1086.064, 3475.777
1087.301, 3408.924
1088.539, 3472.547
1089.776, 3975.672
1091.013, 3668.785
1092.250, 4132.020
1093.486, 3965.104
1094.723, 3898.225
1095.959, 4241.296
1097.195, 3914.354
1098.431, 4280.345
1099.666, 4183.385
1100.902, 3886.445
1102.137, 4239.664
1103.372, 3812.675
1104.607, 3926.238
1105.842, 3899.229
1107.076, 3302.205
1108.311, 3325.818
1109.545, 3108.776
1110.779, 2671.725
1112.012, 2645.050
1113.246, 2137.975
1114.479, 1971.395
1115.712, 1984.297
1116.945, 1487.188
1118.178, 1553.030
1119.411, 1225.899
1120.643, 973.758
1121.875, 1283.038
1123.108, 1001.873
1124.339, 921.695
1125.571, 903.881
1126.802, 390.684
1128.034, 586.750
1129.265, 446.539
1130.496, 307.535
1131.727, 452.437
1132.957, 132.190
1134.187, 422.215
1135.418, 406.107
1136.648, 125.837
1137.877, 286.434
1139.107, 262.173
1140.336, 218.936
1141.566, 414.086
1142.795, 53.799
1144.023, 228.777
1145.252, 200.139
1146.480, 154.836
1147.709, 122.152
1148.937, 39.872
1150.165, 139.677
1151.392, 156.689
1152.620, 38.430
1153.847, 219.175
1155.074, 140.305
1156.301, 3.934
1157.528, 290.565
1158.755, 118.304
1159.981, 76.935
1161.207, 192.652
1162.433, 44.627
1163.659, 191.438
1164.885, 69.149
1166.110, 16.135
1167.336, 241.147
1168.561, 10.039
1169.786, 549.674
1171.010, 877.021
1172.235, 484.723
1173.459, 159.411
1174.683, 26.562
1175.907, 158.743
1177.131, 179.848
1178.355, 15.705
1179.578, 40.283
1180.801, 245.193
1182.024, 52.062
1183.247, 235.446
1184.470, 108.763
1185.692, 54.760
1186.915, 93.667
1188.137, 51.845
1189.359, 22.233
1190.580, 233.194
1191.802, 67.897
1193.023, 146.392
1194.244, 83.191
1195.465, 48.558
1196.686, 107.643
1197.907, 15.309
1199.127, 61.836
1200.347, 188.959
1201.567, 10.535
1202.787, 241.536
1204.007, 173.871
1205.226, 9.601
1206.446, 267.400
1207.665, 22.111
1208.884, 70.831
1210.102, 173.750
1211.321, 20.214
1212.539, 144.646
1213.758, 172.860
1214.976, 17.709
1216.193, 236.507
1217.411, 139.951
1218.628, 107.707
1219.846, 299.443
1221.063, 73.952
1222.280, 188.815
1223.496, 334.504
1224.713, 4.433
1225.929, 286.468
1227.145, 289.948
1228.361, 182.524
1229.577, 282.689
1230.793, 125.309
1232.008, 175.238
1233.223, 276.762
1234.438, 83.791
1235.653, 383.261
1236.868, 270.178
1238.082, 170.833
1239.297, 365.262
1240.511, 193.884
1241.725, 284.270
1242.938, 263.643
1244.152, 20.135
1245.365, 345.191
1246.578, 197.505
1247.791, 160.595
1249.004, 389.875
1250.217, 73.297
1251.429, 283.706
1252.642, 267.923
1253.854, 56.270
1255.066, 368.557
1256.277, 278.721
1257.489, 118.447
1258.700, 289.576
1259.911, 91.686
1261.122, 416.290
1262.333, 499.354
1263.544, 17.417
1264.754, 307.121
1265.964, 223.104
1267.174, 111.495
1268.384, 328.439
1269.594, 243.361
1270.803, 128.091
1272.013, 310.962
1273.222, 153.790
1274.431, 260.870
1275.640, 165.659
1276.848, 186.674
1278.057, 328.421
1279.265, 152.149
1280.473, 184.087
1281.681, 378.775
1282.888, 38.442
1284.096, 247.875
1285.303, 214.465
1286.510, 5.968
1287.717, 297.776
1288.924, 3.016
1290.131, 67.441
1291.337, 372.867
1292.543, 81.275
1293.749, 222.270
1294.955, 208.248
1296.161, 156.562
1297.366, 328.459
1298.571, 278.328
1299.777, 133.570
1300.981, 338.872
1302.186, 59.398
1303.391, 248.568
1304.595, 278.602
1305.799, 12.296
1307.003, 373.703
1308.207, 140.705
1309.411, 31.349
1310.614, 300.524
1311.818, 85.103
1313.021, 198.957
1314.224, 317.772
1315.426, 69.562
1316.629, 227.326
1317.831, 447.054
1319.033, 116.752
1320.235, 355.909
1321.437, 305.173
1322.639, 154.784
1323.840, 503.796
1325.042, 132.883
1326.243, 172.406
1327.444, 318.139
1328.644, 37.606
1329.845, 306.850
1331.045, 212.284
1332.245, 66.605
1333.445, 300.259
1334.645, 68.968
1335.845, 78.240
1337.044, 432.472
1338.244, 81.604
1339.443, 260.388
1340.642, 215.680
1341.840, 55.493
1343.039, 371.658
1344.237, 230.271
1345.435, 0.752
1346.633, 386.573
1347.831, 135.496
1349.029, 84.389
1350.226, 211.663
1351.424, 80.513
1352.621, 376.934
1353.818, 215.542
1355.014, 45.694
1356.211, 270.640
1357.407, 109.299
1358.604, 7.957
1359.800, 425.930
1360.995, 44.590
1362.191, 203.045
1363.387, 301.350
1364.582, 29.964
1365.777, 158.097
1366.972, 199.017
1368.167, 137.588
1369.361, 105.160
1370.556, 24.289
1371.750, 47.159
1372.944, 231.334
1374.138, 80.089
1375.331, 107.710
1376.525, 306.604
1377.718, 74.325
1378.911, 310.279
1380.104, 90.256
1381.297, 150.068
1382.490, 379.944
1383.682, 146.783
1384.874, 216.570
1386.066, 306.145
1387.258, 25.290
1388.450, 284.306
1389.641, 253.969
1390.833, 6.828
1392.024, 392.206
1393.215, 158.468
1394.406, 157.954
1395.596, 506.914
1396.787, 5.901
1397.977, 174.964
1399.167, 354.042
1400.357, 63.183
1401.547, 351.932
1402.736, 260.138
1403.925, 79.277
1405.115, 395.448
1406.304, 150.929
1407.492, 69.198
1408.681, 398.070
1409.870, 96.625
1411.058, 284.979
1412.246, 422.836
1413.434, 31.632
1414.622, 306.612
1415.809, 219.510
1416.997, 127.416
1418.184, 235.948
1419.371, 133.697
1420.558, 211.672
1421.744, 420.323
1422.931, 138.641
1424.117, 226.527
1425.303, 353.993
1426.489, 32.673
1427.675, 362.580
1428.861, 219.372
1430.046, 137.143
1431.231, 435.740
1432.416, 216.559
1433.601, 222.807
1434.786, 550.849
1435.970, 38.518
1437.155, 286.159
1438.339, 387.551
1439.523, 44.678
1440.707, 511.908
1441.890, 419.086
1443.074, 155.990
1444.257, 633.972
1445.440, 261.006
1446.623, 319.450
1447.806, 535.188
1448.989, 252.270
1450.171, 339.048
1451.353, 555.449
1452.535, 92.695
1453.717, 570.343
1454.899, 436.062
1456.080, 349.610
1457.262, 606.593
1458.443, 743.507
1459.624, 377.830
1460.805, 623.562
1461.985, 400.562
1463.166, 536.250
1464.346, 481.335
1465.526, 337.065
1466.706, 403.798
1467.886, 478.277
1469.065, 154.263
1470.245, 530.209
1471.424, 306.759
1472.603, 282.541
1473.782, 546.524
1474.960, 272.952
1476.139, 338.637
1477.317, 575.092
1478.495, 269.299
1479.673, 385.638
1480.851, 499.136
1482.029, 134.742
1483.206, 370.542
1484.383, 396.732
