##NAMES=Fluorophlogopite
##RRUFFID=R040039
##IDEAL CHEMISTRY=KMg_3_(Si_3_Al)O_10_F_2_
##LOCALITY=Franklin, Sussex County, New Jersey, USA
##OWNER=RRUFF
##SOURCE=University of Arizona Mineral Museum
##DESCRIPTION=Brown hexagonal sheets
##STATUS=The identification of this mineral has been confirmed by X-ray diffraction and chemical analysis
##URL=rruff.info/R040039
##MEASURED CHEMISTRY=(K_0.92_Na_0.06_[box]_0.02_)_Σ=1_(Mg_2.94_Fe_0.04_Ti_0.02_)_Σ=3_(Si_2.98_Al_1.02_)O_10_(F_1.24_(OH)_0.76_)_Σ=2_; OH estimated by charge balance
##PIN_ID=M00049
##ORIENTATION=Laser parallel to a [1 0 0]. Fiducial mark perpendicular to laser is parallel to b* (0 1 0)
76.040, 0.000
77.438, 44.266
78.835, 12.542
80.232, 19.014
81.628, 16.723
83.025, 74.498
84.421, 135.748
85.817, 265.663
87.213, 357.256
88.608, 463.781
90.003, 678.657
91.398, 803.423
92.793, 1091.708
94.188, 1243.215
95.582, 1554.698
96.976, 1818.955
98.370, 2280.811
99.764, 2524.108
101.157, 2972.711
102.550, 3170.498
103.943, 3232.367
105.336, 3048.228
106.729, 2522.004
108.121, 2084.632
109.513, 1596.056
110.905, 1418.225
112.297, 1759.099
113.688, 1057.636
115.079, 791.801
116.470, 727.559
117.861, 664.878
119.251, 484.712
120.642, 445.013
122.032, 430.743
123.422, 358.874
124.811, 299.381
126.201, 282.242
127.590, 287.442
128.979, 260.966
130.367, 264.798
131.756, 226.926
133.144, 173.340
134.532, 182.030
135.920, 162.990
137.307, 134.216
138.695, 157.709
140.082, 142.470
141.469, 134.494
142.856, 78.776
144.242, 96.310
145.628, 99.089
147.014, 185.104
148.400, 119.347
149.786, 200.811
151.171, 205.489
152.556, 345.372
153.941, 393.454
155.325, 513.729
156.710, 576.188
158.094, 573.824
159.478, 582.579
160.862, 635.295
162.245, 574.992
163.629, 740.700
165.012, 794.438
166.395, 937.221
167.777, 1056.060
169.160, 1232.961
170.542, 1441.933
171.924, 1604.981
173.306, 1885.111
174.687, 2133.328
176.068, 2583.629
177.449, 2988.033
178.830, 3487.530
180.211, 4254.121
181.591, 5032.802
182.972, 6269.570
184.351, 7703.426
185.731, 9768.371
187.111, 12363.405
188.490, 16018.540
189.869, 21123.777
191.248, 27059.133
192.626, 34514.605
194.005, 42680.180
195.383, 49045.891
196.761, 53871.777
198.139, 51637.852
199.516, 47924.125
200.893, 38780.582
202.271, 30647.244
203.647, 22714.025
205.024, 17060.930
206.400, 12847.957
207.777, 9595.092
209.152, 7702.347
210.528, 6175.713
211.904, 5105.185
213.279, 4174.732
214.654, 3475.347
216.029, 3054.006
217.403, 2539.715
218.778, 2250.503
220.152, 1867.348
221.526, 1600.244
222.900, 1340.219
224.273, 1133.242
225.646, 1049.318
227.019, 895.449
228.392, 933.623
229.765, 799.845
231.137, 766.105
232.509, 704.405
233.881, 670.744
235.253, 624.115
236.625, 491.516
237.996, 497.956
239.367, 430.422
240.738, 405.915
242.108, 407.794
243.479, 320.751
244.849, 353.727
246.219, 275.426
247.589, 277.101
248.958, 280.455
250.328, 324.082
251.697, 324.955
253.065, 301.051
254.434, 377.353
255.803, 421.844
257.171, 507.521
258.539, 649.351
259.906, 678.334
261.274, 806.461
262.641, 896.723
264.008, 1119.113
265.375, 1270.623
266.742, 1565.328
268.108, 1911.062
269.475, 2444.113
270.840, 3207.109
272.206, 3948.167
273.572, 5277.288
274.937, 6794.498
276.302, 8632.734
277.667, 10410.104
279.032, 10677.554
280.396, 10875.905
281.760, 9483.499
283.125, 8071.160
284.488, 6358.886
285.852, 5067.675
287.215, 4047.525
288.578, 3164.436
289.941, 2756.402
291.304, 2211.425
292.666, 2019.502
294.029, 1831.633
295.391, 1639.813
296.753, 1611.080
298.114, 1530.359
299.476, 1557.634
300.837, 1669.005
302.198, 1829.421
303.558, 2079.517
304.919, 2334.016
306.279, 2746.683
307.639, 3136.261
308.999, 3872.878
310.359, 4301.142
311.718, 4947.717
313.077, 5601.600
314.436, 5782.610
315.795, 6238.358
317.154, 6226.930
318.512, 6484.531
319.870, 6534.348
321.228, 6532.495
322.586, 6639.052
323.943, 6170.761
325.300, 5915.826
326.657, 5382.536
328.014, 4830.228
329.371, 4332.272
330.727, 3631.345
332.083, 3232.578
333.439, 2686.730
334.795, 2377.702
336.150, 2052.183
337.506, 1719.002
338.861, 1529.006
340.215, 1282.736
341.570, 1135.259
342.924, 967.395
344.279, 895.160
345.633, 802.950
346.986, 697.032
348.340, 672.421
349.693, 597.783
351.046, 589.140
352.399, 500.511
353.752, 442.896
355.104, 473.294
356.457, 428.970
357.809, 484.463
359.160, 423.229
360.512, 403.673
361.863, 448.127
363.214, 370.437
364.565, 521.906
365.916, 521.604
367.267, 562.125
368.617, 637.179
369.967, 654.070
371.317, 806.184
372.666, 673.428
374.016, 679.231
375.365, 582.272
376.714, 500.775
378.063, 486.578
379.411, 384.312
380.760, 385.091
382.108, 287.740
383.456, 222.656
384.803, 228.159
386.151, 211.420
387.498, 188.920
388.845, 207.653
390.192, 221.149
391.539, 168.920
392.885, 173.604
394.231, 176.092
395.577, 168.890
396.923, 179.372
398.269, 164.866
399.614, 167.340
400.959, 84.810
402.304, 97.541
403.649, 135.002
404.993, 94.485
406.337, 94.990
407.681, 108.515
409.025, 48.059
410.369, 106.621
411.712, 52.197
413.055, 97.787
414.398, 64.389
415.741, 30.002
417.084, 47.625
418.426, 1.256
419.768, 19.896
421.110, 19.542
422.452, 73.195
423.793, 14.853
425.134, 421.515
426.475, 252.183
427.816, 5.147
429.157, 19.525
430.497, 11.801
431.837, 3.128
433.177, 0.455
434.517, 20.218
435.857, 41.890
437.196, 32.437
438.535, 13.224
439.874, 50.885
441.213, 27.458
442.551, 76.190
443.889, 7.834
445.227, 29.476
446.565, 26.113
447.903, 20.747
449.240, 23.376
450.577, 51.001
451.914, 66.621
453.251, 11.235
454.588, 9.843
455.924, 14.445
457.260, 2.041
458.596, 70.628
459.932, 36.792
461.267, 43.763
462.602, 35.310
463.938, 45.152
465.272, 41.354
466.607, 51.149
467.941, 43.311
469.276, 9.762
470.610, 21.798
471.943, 25.383
473.277, 45.996
474.610, 79.648
475.944, 23.357
477.276, 101.095
478.609, 51.904
479.942, 101.757
481.274, 57.682
482.606, 78.657
483.938, 63.693
485.270, 99.784
486.601, 44.948
487.932, 7.842
489.263, 79.388
490.594, 3.317
491.925, 32.001
493.255, 45.362
494.585, 9.229
495.915, 32.202
497.245, 3.677
498.575, 38.182
499.904, 16.734
501.233, 12.323
502.562, 36.948
503.891, 2.378
505.219, 29.325
506.548, 18.927
507.876, 47.156
509.203, 3.631
510.531, 93.548
511.859, 75.713
513.186, 109.862
514.513, 94.996
515.840, 13.115
517.166, 18.207
518.493, 19.727
519.819, 114.293
521.145, 69.298
522.470, 27.287
523.796, 110.259
525.121, 30.785
526.446, 68.117
527.771, 40.003
529.096, 47.867
530.421, 39.719
531.745, 12.547
533.069, 55.344
534.393, 18.140
535.716, 92.904
537.040, 58.651
538.363, 27.393
539.686, 62.107
541.009, 71.821
542.331, 56.517
543.654, 98.202
544.976, 18.880
546.298, 97.526
547.620, 70.182
548.941, 111.824
550.263, 69.449
551.584, 76.058
552.905, 120.648
554.225, 34.227
555.546, 150.777
556.866, 97.311
558.186, 133.841
559.506, 183.354
560.826, 76.859
562.145, 127.356
563.465, 152.836
564.784, 126.307
566.103, 170.760
567.421, 150.202
568.740, 202.627
570.058, 135.034
571.376, 148.434
572.694, 201.817
574.011, 162.182
575.329, 159.529
576.646, 190.858
577.963, 220.159
579.279, 250.452
580.596, 139.727
581.912, 236.983
583.228, 185.221
584.544, 244.442
585.860, 266.644
587.175, 182.746
588.491, 275.911
589.806, 251.844
591.121, 306.912
592.435, 282.995
593.750, 288.086
595.064, 381.158
596.378, 338.267
597.692, 399.302
599.006, 359.319
600.319, 424.485
601.632, 568.465
602.945, 517.427
604.258, 551.370
605.571, 631.295
606.883, 705.201
608.195, 791.089
609.507, 850.958
610.819, 880.809
612.131, 1033.642
613.442, 1088.456
614.753, 1256.251
616.064, 1337.993
617.375, 1510.751
618.685, 1608.543
619.995, 1833.266
621.306, 2027.970
622.615, 2243.018
623.925, 2573.688
625.235, 2825.210
626.544, 3137.844
627.853, 3537.459
629.162, 3734.446
630.471, 4305.138
631.779, 4621.541
633.087, 4942.831
634.395, 5284.397
635.703, 5564.155
637.011, 5879.894
638.318, 5935.433
639.625, 5935.652
640.932, 5974.470
642.239, 5632.146
643.546, 5745.478
644.852, 5544.174
646.158, 5457.903
647.464, 5460.287
648.770, 5313.652
650.076, 5535.870
651.381, 5296.177
652.686, 5315.674
653.991, 5516.672
655.296, 5533.341
656.600, 5702.833
657.905, 5579.607
659.209, 5751.598
660.513, 6238.982
661.817, 6309.745
663.120, 6752.490
664.423, 6907.946
665.726, 7394.105
667.029, 7978.297
668.332, 8524.497
669.635, 9510.688
670.937, 9986.873
672.239, 11313.044
673.541, 12828.016
674.842, 13983.099
676.144, 16325.912
677.445, 17882.045
678.746, 19678.174
680.047, 21794.895
681.348, 22151.006
682.648, 23282.887
683.948, 22668.943
685.248, 21624.467
686.548, 21091.613
687.848, 18617.064
689.147, 17721.617
690.447, 15521.227
691.746, 13675.732
693.044, 12311.773
694.343, 10200.549
695.641, 9035.343
696.940, 7515.595
698.238, 6511.460
699.535, 5382.134
700.833, 4609.319
702.130, 4109.548
703.427, 3386.821
704.724, 3028.563
706.021, 2568.528
707.318, 2226.750
708.614, 2096.508
709.910, 1801.695
711.206, 1722.319
712.502, 1669.248
713.798, 1485.349
715.093, 1391.265
716.388, 1199.888
717.683, 1128.973
718.978, 1070.973
720.272, 922.395
721.567, 894.277
722.861, 818.271
724.155, 765.141
725.448, 806.004
726.742, 600.302
728.035, 746.153
729.328, 615.998
730.621, 581.835
731.914, 569.668
733.206, 466.494
734.499, 624.315
735.791, 503.130
737.083, 495.940
738.374, 465.745
739.666, 413.544
740.957, 472.338
742.248, 380.128
743.539, 416.913
744.830, 320.693
746.120, 350.470
747.410, 393.243
748.701, 392.012
749.990, 353.777
751.280, 309.537
752.570, 386.299
753.859, 442.056
755.148, 293.810
756.437, 296.564
757.725, 288.314
759.014, 212.062
760.302, 245.806
761.590, 265.546
762.878, 245.284
764.166, 259.019
765.453, 210.751
766.740, 304.480
768.027, 206.206
769.314, 208.930
770.601, 264.651
771.887, 192.371
773.174, 274.088
774.460, 210.812
775.745, 150.535
777.031, 185.256
778.316, 148.988
779.602, 167.717
780.887, 233.460
782.172, 189.200
783.456, 225.941
784.741, 188.688
786.025, 270.443
787.309, 222.211
788.593, 285.001
789.876, 251.801
791.160, 186.629
792.443, 341.473
793.726, 282.348
795.009, 304.240
796.291, 399.158
797.574, 293.097
798.856, 318.066
800.138, 353.052
801.420, 295.042
802.702, 297.059
803.983, 262.080
805.264, 206.117
806.545, 185.172
807.826, 137.231
809.107, 220.307
810.387, 152.391
811.667, 60.493
812.947, 104.607
814.227, 118.732
815.507, 153.876
816.786, 122.028
818.065, 189.198
819.344, 108.372
820.623, 34.547
821.902, 137.734
823.180, 111.922
824.459, 51.111
825.737, 159.302
827.014, 0.506
828.292, 117.692
829.569, 191.896
830.847, 33.119
832.124, 41.342
833.401, 24.432
834.677, 50.785
835.954, 55.005
837.230, 2.245
838.506, 40.489
839.782, 25.263
841.057, 54.976
842.333, 4.779
843.608, 63.529
844.883, 15.704
846.158, 25.946
847.433, 50.810
848.707, 77.411
849.981, 74.359
851.255, 37.849
852.529, 35.939
853.803, 37.741
855.076, 37.439
856.350, 103.368
857.623, 19.228
858.895, 42.907
860.168, 11.955
861.441, 56.182
862.713, 23.677
863.985, 33.456
865.257, 7.613
866.528, 55.226
867.800, 36.910
869.071, 31.950
870.342, 43.822
871.613, 2.701
872.884, 29.579
874.154, 76.534
875.425, 23.340
876.695, 32.779
877.965, 59.909
879.234, 44.940
880.504, 66.193
881.773, 58.331
883.042, 53.473
884.311, 47.620
885.580, 55.771
886.848, 81.926
888.117, 72.085
889.385, 31.253
890.653, 185.426
891.920, 148.624
893.188, 149.828
894.455, 162.036
895.722, 102.250
896.989, 207.468
898.256, 167.694
899.523, 118.924
900.789, 198.160
902.055, 135.405
903.321, 165.655
904.587, 108.910
905.852, 190.179
907.118, 204.452
908.383, 131.730
909.648, 133.015
910.913, 183.305
912.177, 131.601
913.442, 252.903
914.706, 103.209
915.970, 162.521
917.233, 272.839
918.497, 172.162
919.760, 285.491
921.024, 155.825
922.287, 185.164
923.550, 224.509
924.812, 169.859
926.075, 204.214
927.337, 232.574
928.599, 155.939
929.861, 291.310
931.122, 159.685
932.384, 280.066
933.645, 296.453
934.906, 187.843
936.167, 230.240
937.428, 165.643
938.688, 235.049
939.948, 251.462
941.208, 241.880
942.468, 334.303
943.728, 264.731
944.987, 259.164
946.247, 294.601
947.506, 306.043
948.765, 251.489
950.023, 279.940
951.282, 285.394
952.540, 358.853
953.798, 344.315
955.056, 369.782
956.314, 381.253
957.572, 280.728
958.829, 407.207
960.086, 369.689
961.343, 417.176
962.600, 407.666
963.856, 369.161
965.113, 395.659
966.369, 448.161
967.625, 420.666
968.881, 553.174
970.136, 402.687
971.392, 494.203
972.647, 540.721
973.902, 436.243
975.157, 594.769
976.411, 529.296
977.666, 559.827
978.920, 711.289
980.174, 570.825
981.428, 660.437
982.682, 633.979
983.935, 655.525
985.188, 815.651
986.441, 677.202
987.694, 777.755
988.947, 832.697
990.199, 729.258
991.452, 871.346
992.704, 783.913
993.956, 887.247
995.207, 956.622
996.459, 860.199
997.710, 993.779
998.961, 989.317
1000.212, 1011.903
1001.463, 1177.111
1002.714, 1159.946
1003.964, 1284.458
1005.214, 1319.006
1006.464, 1327.614
1007.714, 1512.035
1008.964, 1520.720
1010.213, 1702.368
1011.462, 1790.499
1012.711, 1691.359
1013.960, 1979.779
1015.209, 2010.991
1016.457, 2154.660
1017.705, 2356.276
1018.954, 2467.998
1020.201, 2716.970
1021.449, 3079.738
1022.697, 3344.326
1023.944, 4019.507
1025.191, 4496.669
1026.438, 5656.319
1027.685, 6684.263
1028.931, 8015.322
1030.177, 9479.595
1031.423, 10986.383
1032.669, 12323.340
1033.915, 13800.070
1035.161, 13616.915
1036.406, 13573.651
1037.651, 12840.413
1038.896, 11048.043
1040.141, 9984.795
1041.386, 8476.585
1042.630, 7323.564
1043.874, 6310.377
1045.118, 5377.331
1046.362, 4722.097
1047.606, 4309.534
1048.849, 3743.423
1050.092, 3408.217
1051.336, 3012.005
1052.578, 2852.814
1053.821, 2547.625
1055.064, 2341.437
1056.306, 2216.250
1057.548, 1933.167
1058.790, 1841.279
1060.032, 1763.094
1061.273, 1630.326
1062.515, 1540.248
1063.756, 1403.121
1064.997, 1280.038
1066.237, 1334.857
1067.478, 1138.856
1068.718, 1049.844
1069.959, 1070.664
1071.199, 930.592
1072.438, 880.438
1073.678, 781.257
1074.918, 766.131
1076.157, 785.950
1077.396, 616.770
1078.635, 674.756
1079.873, 654.575
1081.112, 609.402
1082.350, 787.229
1083.588, 1028.056
1084.826, 1519.065
1086.064, 2495.955
1087.301, 3018.807
1088.539, 2934.732
1089.776, 1895.764
1091.013, 946.616
1092.250, 768.468
1093.486, 554.317
1094.723, 459.277
1095.959, 510.124
1097.195, 344.969
1098.431, 493.814
1099.666, 315.659
1100.902, 372.501
1102.137, 451.342
1103.372, 359.181
1104.607, 478.159
1105.842, 415.995
1107.076, 225.924
1108.311, 393.825
1109.545, 348.655
1110.779, 313.483
1112.012, 318.523
1113.246, 212.347
1114.479, 245.328
1115.712, 244.147
1116.945, 168.965
1118.178, 253.147
1119.411, 205.959
1120.643, 190.767
1121.875, 212.574
1123.108, 196.377
1124.339, 210.177
1125.571, 120.976
1126.802, 78.771
1128.034, 115.563
1129.265, 4.352
1130.496, 83.312
1131.727, 102.093
1132.957, 16.871
1134.187, 138.651
1135.418, 86.428
1136.648, 9.801
1137.877, 132.425
1139.107, 100.186
1140.336, 49.949
1141.566, 108.023
1142.795, 48.221
1144.023, 70.949
1145.252, 54.816
1146.480, 87.551
1147.709, 100.538
1148.937, 54.548
1150.165, 3.678
1151.392, 56.467
1152.620, 2.216
1153.847, 119.284
1155.074, 21.777
1156.301, 30.051
1157.528, 124.740
1158.755, 40.809
1159.981, 0.742
1161.207, 61.267
1162.433, 56.015
1163.659, 150.666
1164.885, 17.219
1166.110, 40.143
1167.336, 93.531
1168.561, 38.468
1169.786, 97.187
1171.010, 50.744
1172.235, 36.606
1173.459, 40.012
1174.683, 16.479
1175.907, 65.854
1177.131, 118.763
1178.355, 42.538
1179.578, 6.083
1180.801, 74.446
1182.024, 36.293
1183.247, 85.810
1184.470, 63.219
1185.692, 7.282
1186.915, 217.200
1188.137, 73.021
1189.359, 16.400
1190.580, 57.099
1191.802, 24.833
1193.023, 72.223
1194.244, 0.036
1195.465, 53.329
1196.686, 76.682
1197.907, 3.424
1199.127, 111.920
1200.347, 117.337
1201.567, 19.083
1202.787, 111.195
1204.007, 58.672
1205.226, 20.931
1206.446, 108.178
1207.665, 10.130
1208.884, 61.353
1210.102, 73.563
1211.321, 63.960
1212.539, 90.150
1213.758, 45.575
1214.976, 48.820
1216.193, 156.978
1217.411, 64.356
1218.628, 84.495
1219.846, 139.627
1221.063, 78.940
1222.280, 139.201
1223.496, 173.566
1224.713, 53.672
1225.929, 198.846
1227.145, 151.212
1228.361, 147.369
1229.577, 148.469
1230.793, 65.769
1232.008, 95.043
1233.223, 193.302
1234.438, 87.985
1235.653, 63.021
1236.868, 142.258
1238.082, 137.429
1239.297, 168.439
1240.511, 81.440
1241.725, 144.431
1242.938, 136.414
1244.152, 142.906
1245.365, 201.872
1246.578, 154.830
1247.791, 120.779
1249.004, 288.719
1250.217, 78.684
1251.429, 220.749
1252.642, 90.658
1253.854, 97.782
1255.066, 182.669
1256.277, 143.545
1257.489, 64.447
1258.700, 237.292
1259.911, 78.097
1261.122, 150.148
1262.333, 223.912
1263.544, 42.665
1264.754, 173.560
1265.964, 146.279
1267.174, 119.133
1268.384, 201.825
1269.594, 149.502
1270.803, 123.542
1272.013, 131.185
1273.222, 179.833
1274.431, 189.433
1275.640, 79.949
1276.848, 139.709
1278.057, 192.272
1279.265, 137.757
1280.473, 210.325
1281.681, 235.789
1282.888, 37.850
1284.096, 128.538
1285.303, 167.958
1286.510, 55.367
1287.717, 186.762
1288.924, 40.480
1290.131, 92.894
1291.337, 201.249
1292.543, 65.589
1293.749, 81.915
1294.955, 87.077
1296.161, 39.112
1297.366, 115.344
1298.571, 4.385
1299.777, 50.458
1300.981, 30.581
1302.186, 5.367
1303.391, 50.707
1304.595, 73.745
1305.799, 17.581
1307.003, 157.598
1308.207, 147.050
1309.411, 13.032
1310.614, 61.855
1311.818, 18.751
1313.021, 49.669
1314.224, 167.041
1315.426, 10.920
1316.629, 117.759
1317.831, 134.134
1319.033, 9.888
1320.235, 108.450
1321.437, 95.880
1322.639, 58.640
1323.840, 115.311
1325.042, 9.202
1326.243, 42.494
1327.444, 157.063
1328.644, 26.276
1329.845, 142.344
1331.045, 142.084
1332.245, 43.686
1333.445, 108.243
1334.645, 41.596
1335.845, 36.101
1337.044, 123.453
1338.244, 68.020
1339.443, 108.826
1340.642, 114.209
1341.840, 39.323
1343.039, 100.139
1344.237, 80.740
1345.435, 42.163
1346.633, 125.576
1347.831, 52.981
1349.029, 102.275
1350.226, 102.614
1351.424, 6.003
1352.621, 110.973
1353.818, 107.360
1355.014, 55.674
1356.211, 138.917
1357.407, 44.909
1358.604, 85.034
1359.800, 214.948
1360.995, 46.775
1362.191, 115.007
1363.387, 126.303
1364.582, 58.634
1365.777, 69.776
1366.972, 45.053
1368.167, 104.118
1369.361, 86.261
1370.556, 18.851
1371.750, 87.284
1372.944, 99.279
1374.138, 81.625
1375.331, 54.450
1376.525, 56.504
1377.718, 12.380
1378.911, 171.286
1380.104, 56.199
1381.297, 69.920
1382.490, 208.680
1383.682, 113.606
1384.874, 143.069
1386.066, 185.949
1387.258, 20.810
1388.450, 227.648
1389.641, 196.467
1390.833, 108.046
1392.024, 175.825
1393.215, 99.586
1394.406, 72.729
1395.596, 175.034
1396.787, 53.182
1397.977, 150.718
1399.167, 203.833
1400.357, 98.750
1401.547, 227.518
1402.736, 108.659
1403.925, 38.931
1405.115, 143.961
1406.304, 112.447
1407.492, 59.273
1408.681, 165.166
1409.870, 60.246
1411.058, 234.691
1412.246, 202.713
1413.434, 24.761
1414.622, 209.316
1415.809, 89.237
1416.997, 118.885
1418.184, 166.741
1419.371, 45.679
1420.558, 124.521
1421.744, 105.578
1422.931, 54.567
1424.117, 142.538
1425.303, 94.226
1426.489, 22.022
1427.675, 145.844
1428.861, 80.992
1430.046, 106.751
1431.231, 138.240
1432.416, 63.877
1433.601, 192.941
1434.786, 213.276
1435.970, 136.703
1437.155, 242.545
1438.339, 239.099
1439.523, 50.414
1440.707, 353.878
1441.890, 168.675
1443.074, 120.525
1444.257, 236.664
1445.440, 107.457
1446.623, 160.418
1447.806, 232.299
1448.989, 107.629
1450.171, 184.740
1451.353, 214.370
1452.535, 63.842
1453.717, 294.778
1454.899, 210.468
1456.080, 140.641
1457.262, 238.777
1458.443, 196.116
1459.624, 97.542
1460.805, 271.067
1461.985, 163.866
1463.166, 280.224
1464.346, 264.914
1465.526, 147.588
1466.706, 325.110
1467.886, 140.364
1469.065, 157.698
1470.245, 265.034
1471.424, 73.498
1472.603, 117.392
1473.782, 222.275
1474.960, 163.190
1476.139, 205.111
1477.317, 141.080
1478.495, 96.099
1479.673, 198.171
1480.851, 264.353
1482.029, 80.636
1483.206, 215.043
1484.383, 126.569
1485.560, 0.749
1486.737, 231.112
1487.914, 99.158
1489.091, 163.369
1490.267, 228.785
1491.443, 1.555
1492.619, 230.393
1493.795, 176.675
1494.971, 17.225
1496.146, 213.789
1497.322, 113.190
1498.497, 1.546
1499.672, 280.719
1500.846, 24.449
1502.021, 0.000
##END=



