##NAMES=Fluoro-richterite
##RRUFFID=R040019
##IDEAL CHEMISTRY=Na(NaCa)Mg_5_Si_8_O_22_F_2_
##LOCALITY=Wilberforce, Ontario, Canada
##OWNER=RRUFF
##SOURCE=University of Arizona Mineral Museum
##DESCRIPTION=Brown prismatic crystals
##STATUS=The identification of this mineral has been confirmed by X-ray diffraction and chemical analysis
##URL=rruff.info/R040019
##MEASURED CHEMISTRY=(Na_0.59_K_0.27_[box]_0.14_)_Σ=1_(Ca_1.30_Na_0.70_)_Σ=2_(Mg_4.67_Fe_0.17_Fe^3+^_0.10_Ti_0.03_Mn_0.02_Al_0.01_)_Σ=5_(Si_7.67_Al_0.33_)_Σ=8_(F_1.12_(OH)_0.88_)_Σ=2_; OH estimated by charge balance
##PIN_ID=L00205
##ORIENTATION=Laser parallel to c [0 0 1]. Fiducial mark perpendicular to laser is parallel to -b* (0 -1 0)
150.3270, 0.0000000E+00
151.7110, 27.58765
153.0960, 204.6094
154.4800, 911.1694
155.8630, 1724.550
157.2470, 2557.295
158.6300, 3372.782
160.0130, 3865.710
161.3960, 3958.663
162.7790, 3820.695
164.1610, 3619.390
165.5440, 3439.044
166.9260, 3307.229
168.3080, 3308.048
169.6890, 3512.232
171.0700, 3518.435
172.4520, 3896.017
173.8330, 4132.817
175.2130, 4334.004
176.5940, 4495.978
177.9740, 4435.762
179.3540, 4578.051
180.7340, 4503.911
182.1140, 4346.853
183.4930, 4072.572
184.8720, 3982.869
186.2510, 3684.397
187.6300, 3472.600
189.0080, 3277.917
190.3870, 3212.100
191.7650, 3357.186
193.1430, 3258.613
194.5200, 3489.191
195.8980, 3682.125
197.2750, 3908.594
198.6520, 4263.756
200.0290, 4681.745
201.4050, 5023.678
202.7820, 5410.656
204.1580, 5744.766
205.5340, 6252.827
206.9090, 6830.753
208.2850, 7042.995
209.6600, 7875.395
211.0350, 8653.635
212.4100, 9191.587
213.7840, 10163.61
215.1590, 10977.82
216.5330, 11807.63
217.9070, 12767.25
219.2810, 13352.91
220.6540, 13897.99
222.0270, 14142.71
223.4000, 14313.04
224.7730, 14053.97
226.1460, 13637.43
227.5180, 13038.30
228.8910, 12335.42
230.2630, 11604.59
231.6340, 10752.76
233.0060, 9854.891
234.3770, 8862.028
235.7480, 7810.333
237.1190, 6803.897
238.4900, 5705.763
239.8600, 4891.948
241.2310, 4088.439
242.6010, 3309.215
243.9700, 2776.258
245.3400, 2328.552
246.7090, 1937.079
248.0790, 1562.851
249.4480, 1283.767
250.8160, 977.8887
252.1850, 761.1699
253.5530, 576.5942
254.9210, 427.1472
256.2890, 307.8157
257.6570, 200.5881
259.0240, 82.54150
260.3910, 9.597900
261.7580, 106.5874
263.1250, 175.5496
264.4920, 229.5215
265.8580, 273.5322
267.2240, 357.5969
268.5900, 387.7153
269.9560, 408.8862
271.3210, 384.1096
272.6870, 371.3850
274.0520, 414.7117
275.4160, 405.0903
276.7810, 342.5200
278.1460, 343.0012
279.5100, 311.5339
280.8740, 240.1179
282.2370, 186.7544
283.6010, 106.1802
284.9640, 16.05298
286.3270, 78.55273
287.6900, 205.7217
289.0530, 313.7668
290.4160, 470.0386
291.7780, 670.7532
293.1400, 789.3667
294.5020, 994.9480
295.8630, 1193.987
297.2250, 1372.183
298.5860, 1609.947
299.9470, 1813.735
301.3080, 2116.565
302.6680, 2396.872
304.0290, 2745.057
305.3890, 3247.611
306.7490, 3546.823
308.1080, 3908.853
309.4680, 4275.432
310.8270, 4582.419
312.1860, 4673.063
313.5450, 4703.867
314.9030, 4576.613
316.2620, 4399.047
317.6200, 4087.077
318.9780, 3763.895
320.3360, 3394.391
321.6930, 3112.016
323.0510, 2783.094
324.4080, 2516.154
325.7650, 2259.899
327.1210, 1996.553
328.4780, 1811.905
329.8340, 1620.389
331.1900, 1468.110
332.5460, 1355.539
333.9020, 1215.008
335.2570, 1183.373
336.6120, 1129.559
337.9670, 1116.650
339.3220, 1017.586
340.6770, 1054.369
342.0310, 994.0957
343.3850, 944.7290
344.7390, 967.2119
346.0930, 960.4949
347.4460, 878.5469
348.7990, 939.3677
350.1530, 925.9731
351.5050, 945.3774
352.8580, 912.5930
354.2100, 897.6294
355.5630, 922.4973
356.9150, 983.2051
358.2670, 969.7598
359.6180, 1056.169
360.9690, 1085.438
362.3210, 1242.572
363.6720, 1293.577
365.0220, 1300.456
366.3730, 1346.212
367.7230, 1371.850
369.0730, 1464.292
370.4230, 1515.307
371.7730, 1583.745
373.1220, 1574.454
374.4710, 1674.426
375.8210, 1810.695
377.1690, 1785.311
378.5180, 1968.357
379.8660, 1932.001
381.2150, 1982.445
382.5630, 2046.861
383.9100, 2041.262
385.2580, 2045.644
386.6050, 2025.002
387.9520, 2101.337
389.2990, 1997.644
390.6460, 2125.921
391.9920, 2085.166
393.3390, 2085.380
394.6850, 2063.561
396.0310, 2076.710
397.3760, 2037.145
398.7220, 1964.911
400.0670, 1951.960
401.4120, 1854.973
402.7570, 1779.949
404.1010, 1691.886
405.4460, 1532.783
406.7900, 1424.638
408.1340, 1293.395
409.4780, 1139.216
410.8210, 1019.938
412.1650, 902.6124
413.5080, 749.2393
414.8510, 682.8177
416.1930, 525.3464
417.5360, 478.8234
418.8780, 479.2472
420.2200, 353.6169
421.5620, 363.4613
422.9040, 354.5160
424.2450, 316.0405
425.5860, 310.3247
426.9270, 253.0869
428.2680, 212.9487
429.6090, 162.3950
430.9490, 129.1777
432.2890, 113.7507
433.6290, 82.10596
434.9690, 78.17236
436.3090, 71.81152
437.6480, 4.094238
438.9870, 14.29980
440.3260, 1.061035
441.6650, 23.71558
443.0030, 26.29810
444.3420, 30.89062
445.6800, 21.60547
447.0180, 28.08398
448.3550, 24.84277
449.6930, 58.92505
451.0300, 9.050293
452.3670, 24.85962
453.7040, 1.235107
455.0410, 35.96704
456.3770, 24.44678
457.7130, 0.2580570
459.0490, 34.77612
460.3850, 53.71167
461.7210, 78.56396
463.0560, 142.3252
464.3910, 125.0178
465.7260, 125.6401
467.0610, 169.2129
468.3950, 158.7407
469.7300, 209.2388
471.0640, 197.7136
472.3980, 165.1804
473.7310, 201.6279
475.0650, 148.0449
476.3980, 111.4436
477.7310, 148.8093
479.0640, 129.1274
480.3970, 85.39111
481.7290, 71.58716
483.0620, 89.71558
484.3940, 61.76978
485.7250, 55.74292
487.0570, 63.63477
488.3890, 48.44116
489.7200, 128.1572
491.0510, 116.7917
492.3820, 169.3435
493.7120, 170.8145
495.0430, 199.2070
496.3730, 240.5198
497.7030, 257.7251
499.0320, 285.9304
500.3620, 330.0242
501.6910, 354.0493
503.0200, 418.0032
504.3490, 415.8840
505.6780, 420.6970
507.0070, 433.4431
508.3350, 526.1245
509.6630, 493.7390
510.9910, 533.2847
512.3190, 512.7622
513.6460, 500.1692
514.9730, 580.5061
516.3000, 556.7737
517.6270, 623.9729
518.9540, 703.1094
520.2800, 650.1772
521.6070, 762.1770
522.9330, 795.1096
524.2590, 854.9761
525.5840, 888.7756
526.9100, 971.5103
528.2350, 1052.179
529.5600, 1126.783
530.8850, 1130.325
532.2090, 1177.807
533.5340, 1170.231
534.8580, 1122.603
536.1820, 1144.923
537.5060, 1086.196
538.8290, 1071.423
540.1520, 1013.609
541.4760, 909.7520
542.7990, 884.8523
544.1210, 878.9097
545.4440, 915.9236
546.7660, 836.8945
548.0880, 826.8220
549.4100, 829.7075
550.7320, 860.5505
552.0530, 809.3528
553.3750, 872.1165
554.6960, 878.8438
556.0170, 761.5371
557.3370, 804.1975
558.6580, 775.8357
559.9780, 741.4463
561.2980, 686.0312
562.6180, 690.5916
563.9380, 598.1167
565.2570, 534.6101
566.5760, 530.0806
567.8950, 471.5166
569.2140, 433.9189
570.5330, 469.2798
571.8510, 356.5999
573.1700, 348.8782
574.4880, 402.1147
575.8050, 388.0754
577.1230, 455.7891
578.4400, 383.4514
579.7580, 465.7014
581.0750, 482.0659
582.3910, 457.3093
583.7080, 524.0413
585.0240, 525.8960
586.3410, 502.8975
587.6570, 456.3345
588.9720, 439.9578
590.2880, 398.2229
591.6030, 323.7432
592.9180, 204.8831
594.2330, 97.62915
595.5480, 51.96753
596.8630, 23.03271
598.1770, 17.48291
599.4910, 40.15967
600.8050, 53.57666
602.1190, 67.65137
603.4320, 68.65112
604.7460, 33.87280
606.0590, 22.41333
607.3720, 19.78979
608.6850, 24.36304
609.9970, 12.13306
611.3090, 4.666016
612.6210, 45.73730
613.9330, 106.5159
615.2450, 107.6902
616.5570, 159.7876
617.8680, 233.3433
619.1790, 272.3059
620.4900, 330.4014
621.8010, 346.1006
623.1110, 463.3647
624.4210, 441.4441
625.7310, 553.7771
627.0410, 570.3870
628.3510, 700.8569
629.6600, 711.3518
630.9700, 775.8240
632.2790, 855.0195
633.5880, 943.3372
634.8960, 967.3872
636.2050, 1045.179
637.5130, 1192.097
638.8210, 1191.094
640.1290, 1382.350
641.4370, 1435.493
642.7440, 1620.267
644.0510, 1738.484
645.3580, 1904.138
646.6650, 2143.330
647.9720, 2281.709
649.2780, 2582.992
650.5840, 2746.339
651.8900, 3044.338
653.1960, 3419.945
654.5020, 3810.974
655.8070, 4324.641
657.1130, 4837.827
658.4180, 5307.236
659.7220, 6098.102
661.0270, 6755.588
662.3310, 7608.090
663.6360, 8722.617
664.9400, 10168.33
666.2440, 11626.53
667.5470, 13817.83
668.8510, 16107.26
670.1540, 19699.99
671.4570, 23412.78
672.7600, 28083.51
674.0620, 34230.27
675.3650, 40311.98
676.6670, 47518.44
677.9690, 52457.84
679.2710, 57543.32
680.5720, 58863.91
681.8740, 57013.23
683.1750, 53515.86
684.4760, 47542.16
685.7770, 39993.54
687.0770, 33148.02
688.3780, 26862.32
689.6780, 22192.66
690.9780, 17954.13
692.2780, 14736.40
693.5770, 11753.79
694.8770, 9988.118
696.1760, 8410.729
697.4750, 7115.062
698.7740, 6089.314
700.0720, 5293.481
701.3710, 4629.595
702.6690, 4037.695
703.9670, 3495.839
705.2650, 3161.112
706.5620, 2908.378
707.8600, 2633.770
709.1570, 2384.631
710.4540, 2224.039
711.7510, 1993.875
713.0470, 1957.148
714.3440, 1792.581
715.6400, 1717.899
716.9360, 1570.527
718.2320, 1491.539
719.5270, 1497.969
720.8230, 1372.113
722.1180, 1304.217
723.4130, 1256.729
724.7080, 1102.307
726.0020, 1118.249
727.2970, 1089.214
728.5910, 984.9807
729.8850, 1005.648
731.1790, 947.2998
732.4720, 937.9385
733.7660, 890.5649
735.0590, 811.1787
736.3520, 836.7871
737.6450, 781.3889
738.9370, 773.9854
740.2300, 705.5786
741.5220, 665.1680
742.8140, 642.7573
744.1060, 607.3491
745.3970, 572.7222
746.6890, 570.5527
747.9800, 495.1653
749.2710, 503.7312
750.5620, 451.8718
751.8530, 423.8403
753.1430, 389.6809
754.4330, 391.9265
755.7230, 340.3103
757.0130, 306.9744
758.3030, 311.8684
759.5920, 253.8132
760.8810, 225.8362
762.1700, 169.3103
763.4590, 173.8960
764.7480, 133.4397
766.0360, 97.57275
767.3250, 140.6958
768.6130, 95.01025
769.9010, 79.61133
771.1880, 63.22095
772.4760, 42.98462
773.7630, 15.25781
775.0500, 9.518555
776.3370, 26.79736
777.6240, 22.10522
778.9100, 36.43896
780.1960, 2.194092
781.4820, 25.18970
782.7680, 36.60181
784.0540, 86.04907
785.3390, 40.55688
786.6250, 14.89917
787.9100, 4.659180
789.1950, 6.235596
790.4790, 28.17065
791.7640, 1.435059
793.0480, 48.94385
794.3320, 22.68555
795.6160, 11.66284
796.9000, 3.001953
798.1830, 9.668213
799.4670, 13.64722
800.7500, 50.95557
802.0330, 17.25903
803.3160, 10.55225
804.5980, 78.83496
805.8800, 3.891602
807.1630, 33.36523
808.4450, 19.38940
809.7260, 30.16797
811.0080, 8.023438
812.2890, 25.79883
813.5700, 12.64917
814.8510, 5.521729
816.1320, 25.41333
817.4130, 26.33276
818.6930, 30.27979
819.9730, 21.25684
821.2530, 4.206299
822.5330, 7.279785
823.8130, 38.68115
825.0920, 18.63037
826.3710, 27.56714
827.6500, 15.49219
828.9290, 15.59497
830.2080, 77.29565
831.4860, 81.17676
832.7640, 63.04858
834.0420, 26.91016
835.3200, 88.76050
836.5980, 8.601807
837.8750, 84.43140
839.1520, 57.25195
840.4290, 33.06250
841.7060, 68.86279
842.9830, 55.65430
844.2590, 16.43579
845.5360, 63.20630
846.8120, 26.96777
848.0880, 39.71875
849.3630, 0.4602050
850.6390, 28.18799
851.9140, 43.90601
853.1890, 59.61426
854.4640, 68.11084
855.7390, 67.00488
857.0130, 52.68750
858.2880, 17.36108
859.5620, 14.88501
860.8360, 1.678467
862.1100, 9.680176
863.3830, 21.05566
864.6560, 29.45288
865.9300, 37.87524
867.2030, 74.32593
868.4750, 56.82324
869.7480, 62.35669
871.0200, 68.92920
872.2920, 24.54272
873.5640, 38.17627
874.8360, 71.83496
876.1080, 27.53101
877.3790, 29.23828
878.6500, 31.03345
879.9220, 21.30005
881.1920, 64.56470
882.4630, 108.8257
883.7330, 166.0864
885.0040, 156.3486
886.2740, 225.6096
887.5440, 260.8738
888.8130, 321.1370
890.0830, 359.4138
891.3520, 426.6973
892.6210, 508.9937
893.8900, 535.2949
895.1590, 598.3674
896.4270, 654.9043
897.6950, 682.2065
898.9640, 729.5122
900.2320, 758.8384
901.4990, 816.1685
902.7670, 911.5098
904.0340, 971.8604
905.3010, 1048.215
906.5680, 1158.571
907.8350, 1240.932
909.1020, 1372.301
910.3680, 1449.684
911.6340, 1554.087
912.9000, 1723.525
914.1660, 1885.989
915.4320, 2092.458
916.6970, 2281.942
917.9620, 2350.449
919.2270, 2719.893
920.4920, 2901.403
921.7570, 3274.847
923.0210, 3510.224
924.2850, 3884.537
925.5500, 4162.761
926.8130, 4504.991
928.0770, 4658.512
929.3410, 4870.101
930.6040, 5085.951
931.8670, 5107.955
933.1300, 4911.979
934.3930, 4815.646
935.6550, 4743.634
936.9180, 4422.515
938.1800, 4406.246
939.4420, 4296.370
940.7030, 4114.089
941.9650, 4092.745
943.2260, 4006.936
944.4880, 3915.801
945.7490, 4019.077
947.0090, 4001.853
948.2700, 3935.973
949.5300, 3898.006
950.7910, 3820.952
952.0510, 3835.591
953.3110, 3631.873
954.5700, 3478.011
955.8300, 3332.119
957.0890, 3059.510
958.3480, 2839.229
959.6070, 2539.427
960.8660, 2344.350
962.1240, 2059.676
963.3830, 1912.762
964.6410, 1773.129
965.8990, 1638.596
967.1560, 1608.218
968.4140, 1587.799
969.6710, 1585.330
970.9280, 1512.645
972.1850, 1402.449
973.4420, 1495.122
974.6990, 1443.648
975.9550, 1409.842
977.2110, 1458.952
978.4680, 1346.095
979.7230, 1356.186
980.9790, 1357.292
982.2340, 1311.637
983.4900, 1373.996
984.7450, 1236.275
986.0000, 1331.399
987.2540, 1254.779
988.5090, 1242.819
989.7630, 1332.173
991.0170, 1204.408
992.2710, 1228.539
993.5250, 1290.815
994.7790, 1208.031
996.0320, 1285.078
997.2850, 1216.316
998.5380, 1254.398
999.7910, 1244.527
1001.044, 1273.350
1002.296, 1292.420
1003.548, 1312.549
1004.800, 1345.737
1006.052, 1335.954
1007.304, 1359.159
1008.555, 1447.298
1009.807, 1433.285
1011.058, 1492.255
1012.309, 1544.078
1013.559, 1515.405
1014.810, 1598.164
1016.060, 1608.469
1017.310, 1667.520
1018.560, 1734.455
1019.810, 1728.709
1021.060, 1819.604
1022.309, 1883.363
1023.558, 1949.543
1024.807, 2057.217
1026.056, 2068.713
1027.305, 2236.702
1028.553, 2262.826
1029.801, 2504.589
1031.049, 2598.881
1032.297, 2697.792
1033.545, 2839.193
1034.793, 3064.958
1036.040, 3222.249
1037.287, 3414.445
1038.534, 3631.693
1039.781, 3805.350
1041.027, 4178.203
1042.274, 4270.726
1043.520, 4621.219
1044.766, 4927.511
1046.012, 5088.709
1047.257, 5449.873
1048.503, 5689.917
1049.748, 6291.224
1050.993, 6443.447
1052.238, 7126.451
1053.483, 7562.457
1054.727, 8017.289
1055.971, 8774.242
1057.216, 9547.258
1058.459, 10265.22
1059.703, 11274.75
1060.947, 12288.74
1062.190, 13433.35
1063.433, 14389.94
1064.676, 15703.47
1065.919, 16691.04
1067.162, 17692.62
1068.404, 18687.07
1069.646, 19289.22
1070.888, 19458.77
1072.130, 19817.73
1073.372, 19383.58
1074.613, 18841.54
1075.855, 18353.32
1077.096, 17124.01
1078.337, 16181.18
1079.578, 15283.38
1080.818, 13805.15
1082.059, 12715.22
1083.299, 11333.95
1084.539, 10450.18
1085.779, 9241.006
1087.018, 8288.787
1088.258, 7456.363
1089.497, 6636.466
1090.736, 5876.815
1091.975, 5257.483
1093.213, 4709.914
1094.452, 4342.689
1095.690, 3962.332
1096.928, 3576.074
1098.166, 3339.757
1099.404, 3037.512
1100.642, 2925.703
1101.879, 2642.541
1103.116, 2635.809
1104.353, 2350.893
1105.590, 2252.024
1106.827, 2077.589
1108.063, 2093.851
1109.299, 1875.261
1110.536, 1860.227
1111.771, 1765.278
1113.007, 1691.110
1114.243, 1621.653
1115.478, 1610.680
1116.713, 1587.019
1117.948, 1459.924
1119.183, 1500.884
1120.418, 1450.493
1121.652, 1425.156
1122.886, 1451.849
1124.120, 1427.575
1125.354, 1383.780
1126.588, 1265.209
1127.821, 1260.006
1129.055, 1169.380
1130.288, 1177.372
1131.521, 1211.687
1132.753, 1123.258
1133.986, 1078.441
1135.218, 1067.717
1136.450, 1060.921
1137.682, 979.0981
1138.914, 1000.255
1140.146, 886.4785
1141.377, 853.5681
1142.609, 878.5657
1143.840, 796.6140
1145.071, 796.5054
1146.301, 764.3552
1147.532, 731.1699
1148.762, 725.9995
1149.992, 609.6812
1151.222, 600.1997
1152.452, 622.5386
1153.682, 602.8315
1154.911, 492.3330
1156.140, 525.0459
1157.369, 464.7402
1158.598, 402.4983
1159.827, 463.8167
1161.055, 379.3352
1162.284, 266.5464
1163.512, 282.7219
1164.740, 194.7332
1165.967, 179.6416
1167.195, 125.6140
1168.422, 133.5359
1169.650, 69.90479
1170.877, 103.9263
1172.103, 49.89331
1173.330, 12.36377
1174.557, 26.63062
1175.783, 64.02441
1177.009, 58.82495
1178.235, 6.186035
1179.461, 56.26758
1180.686, 1.989990
1181.912, 8.767334
1183.137, 2.668701
1184.362, 14.99048
1185.587, 8.134521
1186.811, 53.45264
1188.036, 24.43042
1189.260, 50.79810
1190.484, 18.24268
1191.708, 14.79370
1192.932, 11.64185
1194.155, 15.19189
1195.378, 10.24854
1196.602, 77.96387
1197.825, 12.73364
1199.047, 40.96216
1200.270, 24.86060
1201.492, 6.083984
1202.715, 35.00928
1203.937, 26.10913
1205.159, 31.44727
1206.380, 0.7766110
1207.602, 8.226318
1208.823, 65.72534
1210.044, 65.17847
1211.265, 0.7727050
1212.486, 33.16895
1213.707, 65.09033
1214.927, 0.6542970
1216.147, 6.378174
1217.367, 17.00806
1218.587, 15.80884
1219.807, 5.959473
1221.027, 13.67529
1222.246, 4.968506
1223.465, 19.47876
1224.684, 11.14136
1225.903, 11.75464
1227.121, 28.23706
1228.340, 25.44360
1229.558, 29.01221
1230.776, 3.980957
1231.994, 19.20825
1233.212, 23.40552
1234.429, 45.30933
1235.646, 8.543945
1236.864, 28.76489
1238.081, 30.99390
1239.297, 56.44800
1240.514, 19.84497
1241.730, 27.97266
1242.947, 19.73462
1244.163, 22.82959
1245.378, 17.69653
1246.594, 72.63135
1247.810, 13.12573
1249.025, 56.27441
1250.240, 80.27441
1251.455, 66.65381
1252.670, 21.64014
1253.885, 45.05615
1255.099, 29.00635
1256.313, 76.41113
1257.527, 62.68115
1258.741, 95.65430
1259.955, 17.64941
1261.168, 56.66016
1262.382, 25.49854
1263.595, 65.16455
1264.808, 55.88525
1266.021, 115.5894
1267.233, 96.20264
1268.446, 84.44092
1269.658, 75.89258
1270.870, 27.16846
1272.082, 123.4673
1273.294, 55.63770
1274.505, 119.5967
1275.716, 33.28369
1276.928, 118.0244
1278.139, 67.20410
1279.349, 131.7510
1280.560, 100.2651
1281.770, 107.8599
1282.981, 105.2671
1284.191, 100.4458
1285.401, 81.98730
1286.610, 96.82373
1287.820, 108.9600
1289.029, 90.58545
1290.239, 117.7607
1291.448, 117.4814
1292.656, 115.6343
1293.865, 101.3809
1295.073, 126.5454
1296.282, 154.6885
1297.490, 187.0249
1298.698, 187.1636
1299.906, 126.2251
1301.113, 80.14600
1302.320, 76.90967
1303.528, 63.90381
1304.735, 125.3833
1305.942, 81.82471
1307.148, 129.1992
1308.355, 127.4751
1309.561, 30.61914
1310.767, 171.4712
1311.973, 148.2656
1313.179, 150.6450
1314.384, 67.22070
1315.590, 108.3281
1316.795, 109.3330
1318.000, 151.0156
1319.205, 140.7979
1320.410, 141.5688
1321.614, 97.02686
1322.819, 67.37109
1324.023, 146.2305
1325.227, 81.33008
1326.431, 170.0381
1327.634, 101.3857
1328.838, 107.8804
1330.041, 28.36377
1331.244, 77.94824
1332.447, 121.7661
1333.650, 193.2832
1334.852, 185.2056
1336.055, 189.8018
1337.257, 172.5439
1338.459, 128.2803
1339.661, 108.9478
1340.862, 154.6499
1342.064, 134.9688
1343.265, 40.55225
1344.466, 118.9614
1345.667, 173.3774
1346.868, 80.75635
1348.068, 140.9619
1349.269, 140.9438
1350.469, 100.8970
1351.669, 135.1646
1352.869, 125.8516
1354.069, 82.82031
1355.268, 84.71143
1356.468, 46.54883
1357.667, 116.2324
1358.866, 163.8643
1360.065, 148.4663
1361.263, 155.3691
1362.462, 88.86133
1363.660, 209.6235
1364.858, 91.40234
1366.056, 7.958984
1367.254, 84.59912
1368.451, 96.66846
1369.649, 64.72900
1370.846, 4.654785
1372.043, 50.71094
1373.240, 23.33252
1374.436, 71.44727
1375.633, 27.57324
1376.829, 23.08057
1378.025, 44.28369
1379.221, 27.54541
1380.417, 47.86914
1381.613, 27.11719
1382.808, 54.92334
1384.003, 53.29248
1385.199, 90.34326
1386.393, 160.5488
1387.588, 2.813477
1388.783, 101.1836
1389.977, 66.92090
1391.171, 7.092285
1392.365, 24.60059
1393.559, 30.83496
1394.753, 129.3408
1395.946, 20.23535
1397.140, 85.67139
1398.333, 12.54688
1399.526, 57.62500
1400.719, 65.22314
1401.911, 118.1226
1403.104, 95.00342
1404.296, 72.71240
1405.488, 95.09033
1406.680, 117.4292
1407.872, 85.77783
1409.063, 18.12598
1410.255, 74.15576
1411.446, 13.21826
1412.637, 75.27393
1413.828, 97.04883
1415.018, 71.21289
1416.209, 82.57617
1417.399, 111.8398
1418.589, 7.130371
1419.779, 123.3799
1420.969, 30.15820
1422.159, 129.9692
1423.348, 116.7471
1424.537, 76.86523
1425.726, 91.24512
1426.915, 85.89209
1428.104, 83.48877
1429.293, 174.3604
1430.481, 83.12256
1431.669, 12.01172
1432.857, 46.17871
1434.045, 120.1548
1435.233, 116.1011
1436.420, 246.1680
1437.608, 196.8281
1438.795, 177.2954
1439.982, 110.0977
1441.169, 138.2368
1442.355, 137.5669
1443.542, 151.7627
1444.728, 166.5850
1445.914, 168.6719
1447.100, 113.2617
1448.286, 178.0825
1449.472, 172.2520
