##NAMES=Fluorapophyllite-(K)
##RRUFFID=R050084
##IDEAL CHEMISTRY=KCa_4_Si_8_O_20_F&#183;8H_2_O
##LOCALITY=near Ahmednagar, Maharashtra, India
##OWNER=RRUFF
##SOURCE=Rock Currier
##DESCRIPTION=Greenish-white prismatic single crystal associated with scolecite
##STATUS=The identification of this mineral has been confirmed by X-ray diffraction and chemical analysis
##URL=rruff.info/R050084
##MEASURED CHEMISTRY=(K_0.98_Na_0.02_)Ca_4.00_Si_8.00_O_20_F_1.00_Â·8H_2_O
##PIN_ID=L00295
##ORIENTATION=Laser parallel to -a* (-1 0 0). Fiducial mark perpendicular to laser is parallel to -c [0 0 -1]
90.128, 0.000
91.527, 56.740
92.926, 291.016
94.324, 310.420
95.723, 215.451
97.121, 71.619
98.519, 21.239
99.917, 0.187
101.314, 177.574
102.712, 418.969
104.109, 790.036
105.505, 2016.361
106.902, 4475.572
108.298, 6626.363
109.694, 6871.584
111.090, 3823.898
112.486, 1842.119
113.881, 948.703
115.277, 468.912
116.672, 385.444
118.066, 399.048
119.461, 600.540
120.855, 223.795
122.249, 249.727
123.643, 359.274
125.036, 663.402
126.430, 854.101
127.823, 669.492
129.216, 765.288
130.608, 655.610
132.001, 867.690
133.393, 932.555
134.785, 909.711
136.176, 1141.936
137.568, 1502.708
138.959, 2994.526
140.350, 4424.479
141.741, 5252.362
143.131, 4069.135
144.521, 2524.884
145.911, 1806.686
147.301, 1211.610
148.691, 1112.722
150.080, 684.075
151.469, 622.721
152.858, 680.706
154.247, 709.066
155.635, 751.838
157.024, 649.053
158.411, 799.760
159.799, 837.076
161.187, 1343.068
162.574, 1921.722
163.961, 2285.067
165.348, 2715.647
166.734, 2633.299
168.121, 2999.008
169.507, 2374.634
170.893, 1822.119
172.278, 1293.168
173.664, 871.576
175.049, 795.703
176.434, 581.074
177.819, 727.390
179.203, 576.268
180.587, 634.183
181.971, 661.195
183.355, 842.882
184.739, 1344.891
186.122, 1636.576
187.505, 1985.808
188.888, 1664.833
190.271, 1370.779
191.653, 979.122
193.035, 833.523
194.417, 842.601
195.799, 738.718
197.180, 918.864
198.562, 1011.034
199.943, 1109.221
201.324, 1450.419
202.704, 1713.625
204.084, 2267.835
205.465, 2282.044
206.844, 2725.250
208.224, 2950.449
209.603, 3331.640
210.983, 3861.820
212.362, 3710.984
213.740, 3739.118
215.119, 2775.203
216.497, 2481.224
217.875, 2072.174
219.253, 1706.052
220.631, 1649.868
222.008, 1284.626
223.385, 1313.396
224.762, 1152.174
226.139, 1278.437
227.515, 1373.890
228.891, 1426.879
230.267, 1590.671
231.643, 1450.666
233.018, 1489.177
234.394, 1078.317
235.769, 895.465
237.144, 641.271
238.518, 402.653
239.893, 244.232
241.267, 106.255
242.641, 55.843
244.014, 66.190
245.388, 105.651
246.761, 145.150
248.134, 180.704
249.507, 209.363
250.879, 300.250
252.252, 221.458
253.624, 256.062
254.996, 267.074
256.367, 164.355
257.739, 165.851
259.110, 65.610
260.481, 49.741
261.852, 44.076
263.222, 119.884
264.592, 216.981
265.962, 412.531
267.332, 503.272
268.702, 677.978
270.071, 690.641
271.440, 762.255
272.809, 675.816
274.178, 512.322
275.546, 451.767
276.915, 325.146
278.283, 240.449
279.650, 181.665
281.018, 175.790
282.385, 140.907
283.752, 132.760
285.119, 164.601
286.486, 154.349
287.852, 232.004
289.218, 282.572
290.584, 308.054
291.950, 521.454
293.316, 530.776
294.681, 818.014
296.046, 914.149
297.411, 1194.162
298.775, 1385.030
300.140, 1347.758
301.504, 1558.353
302.868, 1289.834
304.231, 1284.205
305.595, 1241.470
306.958, 1175.633
308.321, 1376.698
309.684, 1313.671
311.047, 1611.554
312.409, 1508.352
313.771, 1674.068
315.133, 1760.705
316.495, 1685.267
317.856, 1900.755
319.217, 1812.173
320.578, 2171.522
321.939, 2097.806
323.299, 2298.026
324.660, 2403.183
326.020, 2131.280
327.380, 2273.318
328.739, 1899.297
330.099, 1906.192
331.458, 1776.944
332.817, 1605.404
334.176, 1679.501
335.534, 1559.150
336.892, 1801.387
338.251, 1773.255
339.608, 1845.866
340.966, 1972.594
342.323, 1800.886
343.681, 1823.541
345.037, 1427.440
346.394, 1314.456
347.751, 1015.804
349.107, 804.117
350.463, 764.383
351.819, 597.595
353.174, 613.759
354.530, 482.888
355.885, 491.993
357.240, 464.082
358.594, 311.156
359.949, 327.212
361.303, 190.251
362.657, 180.271
364.011, 178.270
365.365, 103.249
366.718, 117.206
368.071, 49.140
369.424, 139.050
370.777, 81.940
372.129, 103.807
373.481, 144.652
374.833, 112.477
376.185, 162.281
377.537, 65.065
378.888, 65.828
380.239, 88.569
381.590, 53.293
382.941, 126.995
384.291, 39.680
385.642, 95.344
386.992, 150.997
388.341, 142.643
389.691, 174.267
391.040, 241.888
392.389, 361.490
393.738, 317.072
395.087, 508.642
396.435, 564.191
397.784, 631.733
399.132, 834.254
400.479, 756.752
401.827, 868.289
403.174, 788.725
404.521, 738.159
405.868, 811.296
407.215, 681.708
408.561, 704.759
409.908, 562.427
411.254, 548.984
412.599, 535.846
413.945, 391.109
415.290, 500.431
416.636, 406.700
417.980, 469.421
419.325, 497.621
420.670, 620.747
422.014, 766.213
423.358, 847.701
424.702, 1270.400
426.045, 1550.734
427.389, 2049.228
428.732, 2770.895
430.075, 3567.919
431.417, 4943.296
432.760, 5684.662
434.102, 5579.448
435.444, 5987.347
436.786, 4591.348
438.127, 3611.084
439.469, 2379.276
440.810, 1985.880
442.151, 1372.983
443.492, 1078.017
444.832, 916.613
446.172, 569.096
447.512, 571.969
448.852, 387.703
450.192, 335.149
451.531, 312.004
452.870, 191.956
454.209, 270.785
455.548, 197.636
456.887, 263.697
458.225, 268.740
459.563, 296.767
460.901, 490.778
462.238, 427.773
463.576, 603.753
464.913, 571.719
466.250, 486.670
467.587, 553.609
468.923, 336.534
470.259, 416.446
471.596, 370.346
472.931, 343.234
474.267, 378.111
475.603, 383.975
476.938, 597.829
478.273, 672.673
479.608, 953.505
480.942, 1226.327
482.276, 1646.140
483.611, 2432.942
484.944, 2929.736
486.278, 3770.521
487.612, 3898.295
488.945, 3642.063
490.278, 3341.822
491.611, 2384.572
492.943, 2197.317
494.276, 1547.055
495.608, 1270.790
496.940, 1148.521
498.271, 826.253
499.603, 974.987
500.934, 900.724
502.265, 951.466
503.596, 949.211
504.927, 793.963
506.257, 881.720
507.587, 690.481
508.917, 767.245
510.247, 637.012
511.577, 528.782
512.906, 618.555
514.235, 459.332
515.564, 478.056
516.892, 432.834
518.221, 406.514
519.549, 507.576
520.877, 415.723
522.205, 551.313
523.533, 520.881
524.860, 639.457
526.187, 690.509
527.514, 734.709
528.841, 934.367
530.167, 900.811
531.493, 1148.808
532.820, 1352.018
534.145, 1424.580
535.471, 1802.966
536.796, 1784.638
538.122, 2166.764
539.447, 2186.877
540.771, 2149.708
542.096, 2377.781
543.420, 2054.548
544.744, 2285.713
546.068, 2095.570
547.392, 1973.026
548.715, 1972.010
550.039, 1636.911
551.362, 1783.270
552.684, 1594.448
554.007, 1582.420
555.329, 1602.223
556.652, 1424.586
557.973, 1568.624
559.295, 1528.414
560.617, 1542.166
561.938, 1751.649
563.259, 1540.124
564.580, 1915.340
565.901, 1767.634
567.221, 1998.233
568.541, 2102.644
569.861, 2134.178
571.181, 2593.085
572.501, 2572.342
573.820, 3083.125
575.139, 3402.940
576.458, 3610.860
577.777, 4491.316
579.095, 4639.014
580.414, 5622.560
581.732, 6247.781
583.049, 6664.856
584.367, 7853.560
585.685, 7443.827
587.002, 8248.645
588.319, 7509.377
589.636, 6937.147
590.952, 6564.174
592.268, 5202.501
593.585, 4821.062
594.900, 3884.545
596.216, 3241.123
597.532, 3005.947
598.847, 2257.331
600.162, 2150.196
601.477, 1791.434
602.792, 1515.097
604.106, 1505.497
605.420, 1102.702
606.734, 1101.942
608.048, 922.171
609.361, 883.408
610.675, 780.650
611.988, 672.899
613.301, 685.149
614.614, 524.406
615.926, 540.664
617.238, 510.923
618.550, 392.183
619.862, 486.529
621.174, 326.790
622.485, 406.053
623.797, 409.363
625.108, 354.638
626.418, 366.060
627.729, 316.336
629.039, 387.614
630.349, 368.903
631.659, 299.182
632.969, 438.462
634.279, 365.742
635.588, 412.023
636.897, 440.305
638.206, 414.588
639.515, 557.870
640.823, 378.161
642.131, 460.453
643.439, 488.744
644.747, 398.036
646.055, 578.329
647.362, 430.622
648.669, 564.915
649.976, 609.480
651.283, 574.773
652.589, 756.245
653.896, 631.644
655.202, 790.937
656.508, 840.784
657.814, 865.104
659.119, 1006.522
660.424, 963.954
661.729, 1173.437
663.034, 1218.729
664.339, 1156.019
665.643, 1355.318
666.947, 1116.760
668.251, 1180.048
669.555, 1177.430
670.859, 947.715
672.162, 1067.999
673.465, 727.360
674.768, 728.640
676.071, 638.777
677.373, 470.059
678.676, 548.341
679.978, 321.626
681.280, 351.915
682.581, 330.207
683.883, 179.504
685.184, 285.806
686.485, 130.145
687.786, 142.457
689.087, 164.818
690.387, 60.140
691.687, 39.464
692.987, 51.791
694.287, 23.120
695.586, 36.453
696.886, 13.210
698.185, 37.124
699.484, 19.568
700.783, 4.907
702.081, 31.752
703.379, 55.422
704.677, 4.884
705.975, 107.317
707.273, 43.065
708.570, 47.833
709.868, 63.514
711.165, 15.343
712.462, 62.140
713.758, 19.018
715.055, 12.910
716.351, 49.118
717.647, 4.054
718.943, 3.001
720.238, 17.060
721.533, 6.095
722.829, 72.792
724.124, 9.190
725.418, 83.837
726.713, 21.917
728.007, 7.004
729.301, 14.229
730.595, 28.913
731.889, 46.235
733.182, 84.191
734.476, 21.431
735.769, 113.668
737.061, 33.985
738.354, 87.374
739.647, 3.204
740.939, 44.764
742.231, 64.688
743.523, 4.808
744.814, 46.713
746.106, 34.279
747.397, 38.119
748.688, 73.496
749.978, 14.830
751.269, 24.859
752.559, 11.582
753.849, 3.332
755.139, 11.091
756.429, 72.337
757.719, 22.476
759.008, 41.694
760.297, 119.833
761.586, 85.960
762.875, 134.168
764.163, 126.271
765.451, 191.361
766.739, 284.440
768.027, 150.506
769.315, 267.530
770.602, 210.571
771.890, 115.600
773.177, 208.616
774.463, 74.620
775.750, 110.610
777.036, 159.588
778.323, 84.553
779.609, 166.141
780.894, 64.080
782.180, 134.005
783.465, 127.917
784.750, 96.816
786.035, 204.702
787.320, 153.576
788.605, 254.438
789.889, 275.285
791.173, 326.118
792.457, 386.939
793.741, 338.747
795.024, 460.233
796.307, 411.014
797.591, 262.782
798.873, 337.536
800.156, 206.277
801.439, 189.005
802.721, 180.719
804.003, 45.420
805.285, 151.104
806.566, 60.775
807.848, 78.432
809.129, 129.073
810.410, 35.701
811.691, 97.311
812.971, 73.906
814.252, 70.487
815.532, 58.053
816.812, 105.604
818.092, 112.142
819.371, 101.665
820.651, 67.175
821.930, 124.670
823.209, 81.152
824.488, 118.618
825.766, 118.071
827.045, 85.511
828.323, 167.936
829.601, 31.347
830.878, 175.737
832.156, 168.113
833.433, 151.476
834.710, 220.824
835.987, 148.159
837.264, 193.480
838.540, 206.788
839.817, 96.081
841.093, 227.361
842.369, 92.626
843.644, 233.877
844.920, 242.115
846.195, 112.296
847.470, 217.506
848.745, 163.583
850.020, 110.698
851.294, 208.301
852.568, 76.382
853.842, 123.371
855.116, 162.281
856.390, 119.980
857.663, 192.394
858.936, 42.249
860.209, 175.321
861.482, 142.224
862.755, 60.812
864.027, 169.425
865.299, 73.559
866.571, 122.125
867.843, 143.024
869.115, 23.163
870.386, 100.330
871.657, 117.761
872.928, 71.203
874.199, 104.912
875.470, 54.560
876.740, 138.947
878.010, 87.577
879.280, 83.149
880.550, 60.421
881.820, 9.432
883.089, 25.545
884.358, 87.650
885.627, 25.271
886.896, 52.449
888.164, 43.452
889.433, 62.674
890.701, 78.958
891.969, 77.177
893.236, 83.875
894.504, 88.804
895.771, 69.868
897.038, 62.009
898.305, 41.523
899.572, 84.965
900.838, 27.505
902.105, 40.807
903.371, 84.179
904.637, 21.454
905.902, 41.479
907.168, 11.942
908.433, 19.072
909.698, 42.538
910.963, 16.273
912.228, 37.181
913.492, 55.835
914.757, 1.460
916.021, 102.102
917.285, 44.737
918.548, 39.367
919.812, 17.992
921.075, 16.389
922.338, 19.269
923.601, 16.391
924.864, 49.407
926.126, 71.996
927.388, 10.492
928.650, 53.071
929.912, 54.644
931.174, 46.834
932.435, 95.706
933.697, 12.097
934.958, 46.627
936.218, 32.154
937.479, 8.664
938.739, 35.182
940.000, 1.695
941.260, 63.203
942.520, 108.707
943.779, 3.207
945.039, 71.703
946.298, 32.805
947.557, 43.668
948.816, 50.137
950.074, 12.603
951.333, 110.065
952.591, 97.525
953.849, 29.981
955.107, 92.433
956.365, 63.610
957.622, 79.056
958.879, 136.321
960.136, 14.655
961.393, 93.092
962.650, 84.973
963.906, 8.377
965.162, 113.681
966.418, 18.967
967.674, 121.199
968.930, 76.620
970.185, 91.040
971.441, 189.447
972.696, 80.708
973.950, 244.121
975.205, 151.437
976.459, 25.846
977.714, 140.253
978.968, 39.581
980.222, 78.985
981.475, 74.531
982.729, 41.931
983.982, 86.330
985.235, 107.728
986.488, 49.124
987.740, 196.519
988.993, 54.914
990.245, 146.309
991.497, 141.671
992.749, 83.068
994.000, 90.420
995.252, 48.815
996.503, 170.210
997.754, 173.605
999.005, 114.000
1000.256, 208.395
1001.506, 191.790
1002.756, 241.190
1004.006, 368.484
1005.256, 325.885
1006.506, 523.287
1007.755, 516.695
1009.005, 486.116
1010.254, 714.048
1011.502, 580.500
1012.751, 539.962
1014.000, 507.322
1015.248, 324.812
1016.496, 403.265
1017.744, 301.461
1018.991, 223.979
1020.239, 333.808
1021.486, 289.349
1022.733, 261.894
1023.980, 316.425
1025.227, 238.976
1026.473, 331.459
1027.719, 243.077
1028.965, 265.669
1030.211, 294.291
1031.457, 284.552
1032.702, 390.297
1033.948, 353.669
1035.193, 316.324
1036.438, 447.771
1037.682, 433.478
1038.927, 562.157
1040.171, 567.947
1041.415, 611.907
1042.659, 729.697
1043.903, 1042.624
1045.146, 953.423
1046.390, 1168.245
1047.633, 1164.746
1048.876, 1523.591
1050.118, 1704.462
1051.361, 2056.656
1052.603, 2705.555
1053.845, 3011.458
1055.087, 4124.374
1056.329, 5124.299
1057.571, 6208.271
1058.812, 8708.987
1060.053, 10106.930
1061.294, 12013.872
1062.535, 13221.836
1063.775, 11669.938
1065.016, 11327.812
1066.256, 8935.779
1067.496, 6843.749
1068.736, 6210.720
1069.975, 4441.695
1071.214, 3810.718
1072.454, 3315.696
1073.693, 2574.677
1074.931, 2469.658
1076.170, 1896.643
1077.408, 1637.810
1078.647, 1619.798
1079.885, 1307.789
1081.122, 1294.145
1082.360, 1230.184
1083.597, 999.182
1084.835, 1115.182
1086.072, 957.185
1087.308, 964.281
1088.545, 1146.312
1089.781, 988.344
1091.018, 1176.442
1092.254, 976.492
1093.490, 918.545
1094.725, 884.641
1095.961, 693.005
1097.196, 592.253
1098.431, 585.314
1099.666, 369.377
1100.900, 534.636
1102.135, 358.705
1103.369, 311.848
1104.603, 386.923
1105.837, 199.000
1107.071, 361.176
1108.304, 336.259
1109.538, 226.344
1110.771, 278.573
1112.004, 231.688
1113.236, 266.796
1114.469, 325.937
1115.701, 227.055
1116.933, 306.338
1118.165, 292.465
1119.397, 193.593
1120.629, 273.812
1121.860, 164.946
1123.091, 166.197
1124.322, 204.370
1125.553, 63.511
1126.783, 158.654
1128.014, 131.802
1129.244, 37.951
1130.474, 200.107
1131.704, 45.266
1132.933, 77.464
1134.163, 145.627
1135.392, 55.792
1136.621, 161.337
1137.850, 45.507
1139.079, 6.677
1140.307, 160.876
1141.535, 34.051
1142.763, 65.227
1143.991, 169.629
1145.219, 42.807
1146.446, 122.140
1147.674, 55.398
1148.901, 37.580
1150.128, 151.344
1151.354, 8.538
1152.581, 76.733
1153.807, 120.930
1155.033, 5.128
1156.259, 106.352
1157.485, 34.312
1158.710, 74.515
1159.936, 78.797
1161.161, 26.001
1162.386, 10.393
1163.611, 139.747
1164.835, 72.048
1166.060, 78.124
1167.284, 20.385
1168.508, 27.561
1169.732, 103.962
1170.955, 7.162
1172.179, 87.516
1173.402, 90.343
1174.625, 4.625
1175.848, 120.795
1177.070, 40.148
1178.293, 35.618
1179.515, 119.062
1180.737, 16.812
1181.959, 29.965
1183.181, 115.772
1184.402, 17.083
1185.624, 106.256
1186.845, 15.127
1188.066, 4.732
1189.286, 69.551
1190.507, 39.801
1191.727, 83.405
1192.947, 153.853
1194.167, 31.996
1195.387, 139.185
1196.607, 54.057
1197.826, 6.866
1199.045, 80.325
1200.264, 47.761
1201.483, 70.821
1202.702, 123.074
1203.920, 20.291
1205.138, 135.337
1206.356, 42.619
1207.574, 52.743
1208.792, 93.861
1210.009, 2.054
1211.227, 40.156
1212.444, 91.259
1213.661, 39.501
1214.877, 123.515
1216.094, 51.772
1217.310, 34.962
1218.526, 120.964
1219.742, 57.273
1220.958, 68.263
1222.173, 131.322
1223.389, 0.448
1224.604, 89.419
1225.819, 68.421
1227.034, 48.524
1228.248, 33.490
1229.463, 49.673
1230.677, 145.785
1231.891, 92.731
1233.105, 35.521
1234.318, 147.546
1235.532, 152.867
1236.745, 43.678
1237.958, 133.602
1239.171, 60.715
1240.384, 47.714
1241.596, 148.629
1242.809, 13.727
1244.021, 148.644
1245.233, 90.557
1246.444, 14.972
1247.656, 147.878
1248.867, 44.956
1250.079, 78.023
1251.290, 129.919
1252.500, 40.888
1253.711, 66.522
1254.921, 93.678
1256.132, 37.944
1257.342, 66.822
1258.552, 87.694
1259.761, 64.583
1260.971, 117.443
1262.180, 33.890
1263.389, 170.040
1264.598, 101.885
1265.807, 52.805
1267.015, 168.967
1268.223, 47.795
1269.432, 67.775
1270.640, 133.601
1271.847, 85.452
1273.055, 125.817
1274.262, 140.609
1275.470, 103.183
1276.677, 138.934
1277.883, 71.531
1279.090, 105.499
1280.296, 143.219
1281.503, 12.923
1282.709, 161.939
1283.915, 120.612
1285.120, 1.726
1286.326, 150.252
1287.531, 161.894
1288.736, 31.535
1289.941, 166.159
1291.146, 49.759
1292.350, 68.496
1293.555, 197.178
1294.759, 8.753
1295.963, 147.548
1297.167, 131.105
1298.370, 110.652
1299.574, 206.495
1300.777, 86.027
1301.980, 6.550
1303.183, 129.083
1304.386, 74.587
1305.588, 116.284
1306.790, 49.723
1307.993, 59.125
1309.195, 150.629
1310.396, 100.327
1311.598, 0.300
1312.799, 186.216
1314.000, 39.559
1315.201, 87.891
1316.402, 51.213
1317.603, 40.510
1318.803, 68.741
1320.003, 114.943
1321.203, 0.849
1322.403, 80.345
1323.603, 13.874
1324.802, 7.968
1326.002, 129.163
1327.201, 8.720
1328.400, 57.370
1329.599, 90.437
1330.797, 25.506
1331.995, 152.497
1333.194, 62.312
1334.392, 16.313
1335.589, 73.166
1336.787, 26.134
1337.985, 85.052
1339.182, 72.275
1340.379, 27.844
1341.576, 172.008
1342.772, 66.520
1343.969, 23.334
1345.165, 110.131
1346.361, 48.909
1347.557, 56.669
1348.753, 151.360
1349.949, 40.087
1351.144, 76.799
1352.339, 78.713
1353.534, 59.391
1354.729, 79.912
1355.924, 78.642
1357.118, 44.270
1358.312, 144.882
1359.506, 38.542
1360.700, 53.125
1361.894, 143.688
1363.088, 31.243
1364.281, 135.786
1365.474, 80.517
1366.667, 63.025
1367.860, 150.337
1369.052, 90.270
1370.245, 64.733
1371.437, 129.185
1372.629, 45.705
1373.821, 61.042
1375.013, 111.335
1376.204, 75.128
1377.395, 76.535
1378.586, 26.078
1379.777, 27.464
1380.968, 122.992
1382.159, 55.285
1383.349, 82.762
1384.539, 158.025
1385.729, 60.400
1386.919, 180.737
1388.109, 130.166
1389.298, 22.405
1390.487, 168.748
1391.676, 63.923
1392.865, 66.258
1394.054, 128.479
1395.242, 88.617
1396.431, 103.910
1397.619, 176.186
1398.807, 32.553
1399.995, 149.649
1401.182, 161.429
1402.370, 6.644
1403.557, 158.589
1404.744, 21.488
1405.931, 45.460
1407.118, 158.514
1408.304, 90.896
1409.490, 42.990
1410.676, 222.036
1411.862, 73.099
1413.048, 109.036
1414.234, 101.611
1415.419, 25.647
1416.604, 268.190
1417.789, 61.858
1418.974, 32.443
1420.159, 170.220
1421.343, 53.332
1422.528, 151.129
1423.712, 136.541
1424.896, 39.089
1426.079, 110.759
1427.263, 159.503
1428.446, 35.594
1429.629, 156.137
1430.812, 93.434
1431.995, 95.348
1433.178, 148.722
1434.360, 65.137
1435.543, 76.280
1436.725, 125.552
1437.907, 17.043
1439.088, 142.224
1440.270, 132.096
1441.451, 38.167
1442.632, 154.663
1443.813, 133.017
1444.994, 97.300
1446.175, 264.486
1447.355, 54.790
1448.535, 160.472
1449.715, 142.176
1450.895, 61.020
1452.075, 233.044
1453.255, 184.808
1454.434, 48.795
1455.613, 161.431
1456.792, 104.019
1457.971, 94.713
1459.149, 213.556
1460.328, 147.188
1461.506, 153.257
1462.684, 187.491
1463.862, 75.647
1465.040, 196.077
1466.217, 182.833
1467.395, 78.298
1468.572, 221.744
1469.749, 144.621
1470.925, 95.977
1472.102, 220.035
1473.278, 126.070
1474.455, 159.995
1475.631, 197.840
1476.807, 149.251
1477.982, 186.708
1479.158, 135.451
1480.333, 97.696
1481.508, 171.896
1482.683, 197.872
1483.858, 71.156
1485.033, 147.044
1486.207, 92.268
1487.381, 72.673
1488.555, 219.656
1489.729, 75.818
1490.903, 127.014
1492.076, 213.162
1493.250, 5.300
1494.423, 195.440
1495.596, 164.569
1496.769, 28.647
1497.941, 204.666
1499.114, 52.858
1500.286, 32.346
1501.458, 206.906
1502.630, 44.560
1503.802, 67.340
1504.973, 148.211
1506.145, 4.686
1507.316, 117.548
1508.487, 168.367
1509.657, 3.621
1510.828, 174.119
1511.999, 126.974
1513.169, 18.637
1514.339, 131.169
1515.509, 118.313
1516.678, 0.073
1517.848, 0.000
##END=



