##NAMES=Fluorapatite
##RRUFFID=R050274
##IDEAL CHEMISTRY=Ca_5_(PO_4_)_3_F
##LOCALITY=Minas Gerais, Brazil
##OWNER=RRUFF
##SOURCE=Marcus Origlieri
##DESCRIPTION=Aggregate of blue crystal fragments separated by veins of quartz
##STATUS=The identification of this mineral has been confirmed by X-ray diffraction and chemical analysis
##URL=rruff.info/R050274
##MEASURED CHEMISTRY=Ca_5.00_((P_0.97_Si_0.02_S_0.01_)O_4_)_3_(F_0.90_Cl_0.10_)
##PIN_ID=L01565
##ORIENTATION=Laser parallel to -a* (-1 0 0). Fiducial mark perpendicular to laser is parallel to -c [0 0 -1]
108.2800, 0.0000000E+00
109.5120, 34.45654
110.7440, 85.42676
111.9760, 6.416504
113.2080, 129.2466
114.4400, 117.5669
115.6710, 102.9604
116.9030, 184.0127
118.1340, 148.4268
119.3650, 185.9819
120.5960, 27.50488
121.8270, 111.8550
123.0580, 237.9199
124.2880, 110.6094
125.5190, 216.8560
126.7490, 230.6069
127.9790, 346.8140
129.2090, 457.4321
130.4390, 458.4189
131.6680, 566.7349
132.8980, 645.3447
134.1270, 501.2168
135.3560, 610.3281
136.5850, 604.6641
137.8140, 616.2100
139.0430, 593.9531
140.2710, 614.8965
141.5000, 602.0332
142.7280, 579.3564
143.9560, 561.8687
145.1840, 538.5376
146.4120, 525.7275
147.6390, 499.3682
148.8670, 504.4600
150.0940, 509.6558
151.3210, 509.2935
152.5490, 546.3027
153.7750, 489.7285
155.0020, 492.2178
156.2290, 456.7622
157.4550, 376.3413
158.6810, 405.9668
159.9080, 404.6392
161.1340, 346.3628
162.3590, 310.1709
163.5850, 208.0884
164.8110, 280.0625
166.0360, 274.1064
167.2610, 183.2231
168.4860, 232.4043
169.7110, 125.6724
170.9360, 207.2207
172.1610, 115.8540
173.3850, 254.5283
174.6100, 189.2993
175.8340, 238.1621
177.0580, 15.12109
178.2820, 129.3286
179.5050, 135.5435
180.7290, 76.74854
181.9520, 138.9375
183.1760, 55.09131
184.3990, 83.18262
185.6220, 156.2339
186.8450, 149.2510
188.0670, 175.1304
189.2900, 48.21729
190.5120, 189.1416
191.7340, 105.0234
192.9560, 111.8496
194.1780, 183.6187
195.4000, 167.3325
196.6220, 213.9922
197.8430, 237.1035
199.0640, 84.15039
200.2860, 236.8413
201.5070, 223.5698
202.7270, 125.2373
203.9480, 186.5679
205.1690, 169.8472
206.3890, 194.0728
207.6090, 195.0820
208.8290, 66.35107
210.0490, 182.9653
211.2690, 119.6836
212.4890, 116.7812
213.7080, 205.0757
214.9280, 177.2061
216.1470, 83.06982
217.3660, 181.5127
218.5850, 189.6279
219.8030, 74.31152
221.0220, 170.7485
222.2400, 229.3916
223.4590, 230.2261
224.6770, 272.0469
225.8950, 278.5566
227.1120, 258.3945
228.3300, 262.2227
229.5480, 247.1724
230.7650, 190.7671
231.9820, 284.7656
233.1990, 302.1719
234.4160, 224.8140
235.6330, 221.6206
236.8490, 209.2012
238.0660, 228.0132
239.2820, 235.1865
240.4980, 277.0718
241.7140, 235.4565
242.9300, 224.9458
244.1460, 140.7446
245.3610, 192.2534
246.5770, 150.3555
247.7920, 239.9971
249.0070, 236.5547
250.2220, 168.2568
251.4370, 386.2295
252.6510, 240.1719
253.8660, 264.8086
255.0800, 265.5840
256.2940, 382.6128
257.5080, 381.7788
258.7220, 455.4351
259.9360, 566.2700
261.1490, 397.1924
262.3630, 433.1289
263.5760, 520.0996
264.7890, 568.2666
266.0020, 567.1665
267.2150, 421.4517
268.4270, 516.3931
269.6400, 440.7173
270.8520, 343.3545
272.0640, 360.0645
273.2760, 351.4375
274.4880, 344.7695
275.7000, 188.6289
276.9120, 285.4746
278.1230, 343.3013
279.3340, 195.1084
280.5450, 278.8926
281.7560, 260.6533
282.9670, 263.3867
284.1780, 220.0898
285.3880, 223.7612
286.5980, 258.4004
287.8090, 240.0054
289.0190, 240.5747
290.2290, 159.1074
291.4380, 221.6025
292.6480, 149.0581
293.8570, 196.4731
295.0670, 153.8477
296.2760, 223.1792
297.4850, 388.4688
298.6930, 218.7148
299.9020, 297.9170
301.1110, 354.0747
302.3190, 288.1870
303.5270, 218.2529
304.7350, 125.2729
305.9430, 250.2432
307.1510, 181.1670
308.3580, 189.0410
309.5660, 211.8647
310.7730, 146.6382
311.9800, 256.3599
313.1870, 109.0298
314.3940, 39.64551
315.6010, 231.2515
316.8070, 210.0859
318.0130, 195.5342
319.2200, 34.26660
320.4260, 49.11328
321.6310, 86.92676
322.8370, 35.87402
324.0430, 186.6108
325.2480, 20.85498
326.4540, 29.25684
327.6590, 35.30420
328.8640, 229.6934
330.0680, 90.49561
331.2730, 100.9033
332.4780, 76.81250
333.6820, 80.13916
334.8860, 55.57275
336.0900, 50.86182
337.2940, 43.67871
338.4980, 46.80566
339.7010, 44.66016
340.9050, 62.09863
342.1080, 49.80029
343.3110, 65.34717
344.5140, 40.55859
345.7170, 23.90430
346.9200, 48.77100
348.1220, 19.46875
349.3240, 27.05225
350.5270, 23.77344
351.7290, 17.34863
352.9310, 9.802734
354.1320, 128.1050
355.3340, 36.32324
356.5350, 82.51758
357.7370, 2.053711
358.9380, 19.95410
360.1390, 16.10254
361.3400, 22.89795
362.5400, 32.83984
363.7410, 31.27295
364.9410, 26.40625
366.1410, 10.53174
367.3410, 5.531738
368.5410, 6.281738
369.7410, 9.037109
370.9400, 36.43750
372.1400, 30.42773
373.3390, 50.09473
374.5380, 118.8589
375.7370, 44.68164
376.9360, 4.581543
378.1350, 106.0728
379.3330, 49.61328
380.5310, 19.43994
381.7300, 65.63428
382.9280, 57.70605
384.1260, 66.34473
385.3230, 27.37305
386.5210, 90.17578
387.7180, 106.8213
388.9160, 112.6338
390.1130, 75.63574
391.3100, 52.95508
392.5060, 101.9150
393.7030, 113.2227
394.9000, 41.27637
396.0960, 61.61816
397.2920, 163.6875
398.4880, 58.87891
399.6840, 147.9746
400.8800, 68.16992
402.0750, 167.7041
403.2710, 172.1211
404.4660, 164.4102
405.6610, 171.3506
406.8560, 171.0273
408.0510, 130.5098
409.2450, 67.28223
410.4400, 58.81250
411.6340, 196.3906
412.8280, 350.4424
414.0220, 276.8193
415.2160, 260.6787
416.4100, 340.7920
417.6030, 350.4600
418.7970, 562.2344
419.9900, 534.3018
421.1830, 626.3594
422.3760, 560.6250
423.5690, 619.8525
424.7610, 651.3809
425.9540, 689.7051
427.1460, 825.5820
428.3380, 861.3711
429.5300, 1018.070
430.7220, 1043.682
431.9140, 1022.204
433.1050, 1111.635
434.2970, 1133.596
435.4880, 1131.108
436.6790, 1258.090
437.8700, 1316.166
439.0610, 1418.971
440.2510, 1343.865
441.4420, 1346.668
442.6320, 1459.379
443.8220, 1363.000
445.0120, 1450.526
446.2020, 1276.965
447.3910, 1207.312
448.5810, 1010.188
449.7700, 953.3496
450.9600, 855.2529
452.1490, 808.0869
453.3370, 783.9141
454.5260, 799.3662
455.7150, 628.0615
456.9030, 613.1504
458.0910, 490.8467
459.2800, 424.2432
460.4670, 523.4453
461.6550, 423.4795
462.8430, 382.7363
464.0300, 376.9463
465.2180, 331.2051
466.4050, 367.1396
467.5920, 162.5977
468.7790, 247.4307
469.9650, 248.0039
471.1520, 151.4902
472.3380, 277.6738
473.5250, 357.1650
474.7110, 222.5947
475.8970, 107.8135
477.0820, 86.93164
478.2680, 206.0234
479.4540, 85.82227
480.6390, 100.9814
481.8240, 169.0527
483.0090, 153.4365
484.1940, 204.1816
485.3780, 173.7695
486.5630, 53.28320
487.7470, 191.5664
488.9320, 1.378906
490.1160, 91.82715
491.3000, 20.80859
492.4830, 6.608398
493.6670, 164.4648
494.8500, 42.36328
496.0340, 49.11035
497.2170, 61.98438
498.4000, 12.18652
499.5820, 44.96289
500.7650, 22.34277
501.9480, 69.39941
503.1300, 91.16211
504.3120, 108.3828
505.4940, 31.21191
506.6760, 12.75098
507.8580, 47.28418
509.0390, 0.5761720
510.2210, 114.0938
511.4020, 8.118164
512.5830, 46.24902
513.7640, 13.24609
514.9450, 151.5762
516.1250, 107.8584
517.3060, 158.1660
518.4860, 28.94922
519.6660, 75.97852
520.8460, 111.1553
522.0260, 55.63672
523.2060, 7.410156
524.3850, 41.15137
525.5650, 12.98242
526.7440, 29.18164
527.9230, 14.22070
529.1020, 97.26758
530.2810, 53.83105
531.4590, 90.69141
532.6380, 50.29980
533.8160, 142.8584
534.9940, 54.98242
536.1720, 77.46973
537.3500, 121.6270
538.5270, 49.77734
539.7050, 24.11426
540.8820, 24.40625
542.0590, 174.0303
543.2360, 21.96973
544.4130, 5.790039
545.5900, 89.52246
546.7660, 151.0449
547.9430, 193.0195
549.1190, 217.2725
550.2950, 125.5557
551.4710, 160.8398
552.6470, 125.8711
553.8220, 30.42773
554.9980, 130.6299
556.1730, 27.37793
557.3480, 149.5127
558.5230, 27.97070
559.6980, 3.897461
560.8730, 96.27930
562.0470, 317.1709
563.2220, 246.4795
564.3960, 292.7285
565.5700, 322.2939
566.7440, 408.1777
567.9170, 570.1641
569.0910, 648.8164
570.2640, 707.1201
571.4380, 1102.886
572.6110, 1425.376
573.7840, 1539.233
574.9570, 1563.789
576.1290, 1609.185
577.3020, 1605.276
578.4740, 1432.874
579.6460, 1416.087
580.8180, 1321.445
581.9900, 1104.131
583.1620, 1153.759
584.3330, 1082.182
585.5040, 933.1875
586.6760, 893.3174
587.8470, 820.4570
589.0180, 835.6768
590.1880, 736.7695
591.3590, 693.3486
592.5290, 685.1172
593.7000, 565.0244
594.8700, 694.4385
596.0400, 752.1553
597.2090, 707.3281
598.3790, 829.4775
599.5490, 950.6211
600.7180, 1047.238
601.8870, 1032.113
603.0560, 1202.323
604.2250, 1122.685
605.3940, 1192.190
606.5620, 1049.010
607.7300, 1021.492
608.8990, 1100.500
610.0670, 1010.939
611.2350, 921.7227
612.4020, 762.6855
613.5700, 560.6963
614.7370, 634.5527
615.9050, 633.3066
617.0720, 644.6729
618.2390, 424.8604
619.4060, 463.1855
620.5720, 341.0312
621.7390, 336.0908
622.9050, 507.1758
624.0710, 133.6074
625.2370, 370.2363
626.4030, 375.4160
627.5690, 136.6729
628.7340, 386.4424
629.9000, 99.39551
631.0650, 334.3770
632.2300, 353.1562
633.3950, 213.9600
634.5600, 256.4658
635.7240, 362.2500
636.8890, 215.0869
638.0530, 353.3975
639.2170, 239.7754
640.3810, 316.3779
641.5450, 270.5244
642.7080, 297.8965
643.8720, 412.2246
645.0350, 252.0176
646.1980, 410.3682
647.3610, 365.7031
648.5240, 414.3262
649.6870, 570.8701
650.8490, 173.5850
652.0120, 186.1758
653.1740, 308.5254
654.3360, 348.5635
655.4980, 358.9238
656.6600, 394.7422
657.8210, 345.3887
658.9830, 367.5723
660.1440, 317.0352
661.3050, 259.8945
662.4660, 344.5039
663.6270, 298.1895
664.7870, 320.4062
665.9480, 336.4883
667.1080, 289.6543
668.2680, 356.3301
669.4280, 204.1621
670.5880, 237.9707
671.7480, 89.48828
672.9070, 298.5254
674.0670, 351.7207
675.2260, 248.5137
676.3850, 255.0020
677.5440, 109.7676
678.7030, 222.4199
679.8610, 75.54102
681.0200, 83.28516
682.1780, 109.0820
683.3360, 148.8828
684.4940, 91.56250
685.6520, 245.9922
686.8090, 119.6992
687.9670, 218.3125
689.1240, 241.5137
690.2810, 80.81641
691.4380, 98.66211
692.5950, 321.6797
693.7520, 115.7949
694.9080, 328.9590
696.0650, 194.2246
697.2210, 186.6914
698.3770, 296.4160
699.5330, 273.0020
700.6880, 127.9902
701.8440, 244.1426
702.9990, 235.6973
704.1550, 138.0234
705.3100, 278.5664
706.4650, 232.9160
707.6190, 292.1719
708.7740, 354.2949
709.9290, 223.4258
711.0830, 268.6035
712.2370, 411.3652
713.3910, 210.8926
714.5450, 228.4727
715.6980, 280.5117
716.8520, 139.2578
718.0050, 211.2090
719.1580, 394.1797
720.3110, 296.3828
721.4640, 289.0820
722.6170, 317.4434
723.7700, 511.6621
724.9220, 108.7402
726.0740, 224.6211
727.2260, 385.8262
728.3780, 295.6973
729.5300, 399.1641
730.6810, 336.3203
731.8330, 281.9531
732.9840, 380.0000
734.1350, 287.3613
735.2860, 157.9707
736.4370, 390.0625
737.5880, 120.6699
738.7380, 398.0371
739.8880, 395.4355
741.0390, 213.1523
742.1890, 355.6035
743.3380, 308.9609
744.4880, 568.3242
745.6380, 273.6660
746.7870, 431.9355
747.9360, 146.1816
749.0850, 284.1992
750.2340, 363.7539
751.3830, 219.8359
752.5310, 77.61719
753.6800, 187.4434
754.8280, 146.0215
755.9760, 369.3789
757.1240, 216.4473
758.2720, 170.3887
759.4190, 367.6738
760.5670, 421.3438
761.7140, 315.3691
762.8610, 331.7871
764.0080, 408.1055
765.1550, 434.7734
766.3020, 244.5664
767.4480, 279.4629
768.5950, 275.9160
769.7410, 315.1641
770.8870, 371.3555
772.0330, 418.2305
773.1780, 141.4082
774.3240, 367.0918
775.4690, 286.6445
776.6140, 290.0312
777.7590, 394.0039
778.9040, 305.7812
780.0490, 475.5332
781.1940, 258.3223
782.3380, 152.5938
783.4820, 88.62305
784.6260, 328.8652
785.7700, 264.6582
786.9140, 220.1738
788.0580, 115.7559
789.2010, 307.5352
790.3450, 287.7344
791.4880, 501.7871
792.6310, 297.8691
793.7730, 172.2148
794.9160, 245.4277
796.0590, 218.7207
797.2010, 218.8965
798.3430, 163.3086
799.4850, 245.6328
800.6270, 409.0566
801.7690, 453.2246
802.9100, 371.4180
804.0520, 368.6016
805.1930, 381.5137
806.3340, 277.6445
807.4750, 201.1152
808.6160, 180.6777
809.7560, 168.5879
810.8970, 173.3418
812.0370, 385.1934
813.1770, 240.5586
814.3170, 302.8691
815.4570, 354.5625
816.5960, 172.6504
817.7360, 244.0449
818.8750, 406.3945
820.0140, 283.7734
821.1530, 302.2559
822.2920, 351.4277
823.4310, 90.17969
824.5690, 373.3203
825.7070, 238.7930
826.8460, 344.2832
827.9840, 230.0254
829.1220, 135.7578
830.2590, 437.3496
831.3970, 307.0215
832.5340, 127.5098
833.6710, 105.6504
834.8080, 220.9824
835.9450, 187.9961
837.0820, 34.83203
838.2190, 382.9727
839.3550, 196.5215
840.4910, 63.95117
841.6270, 235.8828
842.7630, 109.3223
843.8990, 198.4805
845.0350, 210.7988
846.1700, 190.3828
847.3060, 159.2402
848.4410, 239.1992
849.5760, 276.6152
850.7100, 244.1641
851.8450, 114.7031
852.9800, 165.6777
854.1140, 95.97461
855.2480, 311.7578
856.3820, 47.30664
857.5160, 339.2617
858.6500, 163.1797
859.7830, 22.77539
860.9170, 193.3340
862.0500, 220.4180
863.1830, 123.0840
864.3160, 184.3379
865.4480, 262.8086
866.5810, 11.05469
867.7130, 423.7109
868.8460, 84.17188
869.9780, 211.9551
871.1100, 133.2676
872.2410, 31.04883
873.3730, 333.4805
874.5050, 130.8008
875.6360, 105.1992
876.7670, 248.5059
877.8980, 79.97070
879.0290, 89.05859
880.1590, 71.98633
881.2900, 42.99219
882.4200, 138.4238
883.5500, 59.20508
884.6800, 76.59766
885.8100, 136.4805
886.9400, 50.61133
888.0690, 76.82031
889.1990, 60.80859
890.3280, 80.93750
891.4570, 12.80664
892.5860, 99.51367
893.7140, 137.5039
894.8430, 154.2188
895.9710, 23.32227
897.1000, 68.78320
898.2280, 257.9395
899.3560, 130.2539
900.4830, 58.59180
901.6110, 39.46875
902.7380, 163.6035
903.8660, 205.9824
904.9930, 231.4746
906.1200, 246.5059
907.2460, 167.6914
908.3730, 118.9961
909.5000, 323.0332
910.6260, 12.10938
911.7520, 110.3086
912.8780, 67.33789
914.0040, 181.3203
915.1290, 128.5332
916.2550, 128.3379
917.3800, 109.2148
918.5050, 223.5801
919.6300, 90.61133
920.7550, 119.5781
921.8800, 73.79688
923.0040, 121.4785
924.1290, 110.2539
925.2530, 245.7227
926.3770, 25.04297
927.5010, 399.0840
928.6250, 98.31055
929.7480, 133.9434
930.8720, 76.81055
931.9950, 313.4941
933.1180, 197.1133
934.2410, 378.4355
935.3640, 549.0391
936.4860, 463.2637
937.6090, 523.6094
938.7310, 731.5527
939.8530, 690.4199
940.9750, 859.2793
942.0970, 966.6406
943.2180, 1279.617
944.3400, 1287.436
945.4610, 1794.141
946.5820, 1974.797
947.7030, 2799.277
948.8240, 2957.084
949.9450, 4144.094
951.0650, 5232.258
952.1860, 6885.602
953.3060, 8745.188
954.4260, 11801.39
955.5460, 14947.02
956.6650, 18661.67
957.7850, 21311.51
958.9040, 23406.62
960.0230, 24018.53
961.1420, 23344.02
962.2610, 22063.55
963.3800, 19689.55
964.4990, 17107.50
965.6170, 14065.26
966.7350, 11305.42
967.8530, 8787.777
968.9710, 6603.461
970.0890, 5220.107
971.2070, 3557.566
972.3240, 2769.117
973.4410, 2225.297
974.5580, 1929.648
975.6750, 1392.295
976.7920, 871.7207
977.9090, 605.5664
979.0250, 727.7402
980.1410, 343.9199
981.2580, 376.9648
982.3740, 456.8379
983.4890, 399.0000
984.6050, 393.9102
985.7200, 389.2539
986.8360, 282.8750
987.9510, 288.1016
989.0660, 220.4492
990.1810, 199.7891
991.2950, 219.5117
992.4100, 200.7461
993.5240, 284.2031
994.6390, 352.7930
995.7530, 151.1016
996.8660, 369.6367
997.9800, 374.7031
999.0940, 178.9844
1000.207, 499.5625
1001.320, 464.3320
1002.433, 378.5078
1003.546, 491.1562
1004.659, 763.3867
1005.772, 395.2500
1006.884, 524.5195
1007.996, 524.1641
1009.108, 372.8398
1010.220, 451.9961
1011.332, 545.0938
1012.444, 477.3438
1013.555, 205.5859
1014.666, 286.7109
1015.777, 222.7539
1016.888, 377.7656
1017.999, 351.7031
1019.110, 391.7578
1020.220, 372.0781
1021.331, 608.7773
1022.441, 820.6758
1023.551, 757.4180
1024.661, 971.3008
1025.770, 970.3203
1026.880, 853.0430
1027.989, 741.3203
1029.098, 1258.008
1030.207, 971.0078
1031.316, 936.7891
1032.425, 830.6680
1033.533, 667.1641
1034.642, 774.0469
1035.750, 313.9844
1036.858, 542.6367
1037.966, 248.4688
1039.073, 395.1250
1040.181, 693.3320
1041.288, 417.7188
1042.396, 475.4062
1043.503, 443.4648
1044.610, 679.7148
1045.716, 636.4453
1046.823, 558.6172
1047.929, 371.3047
1049.036, 435.3750
1050.142, 750.6172
1051.248, 566.7812
1052.353, 807.8711
1053.459, 685.8984
1054.564, 684.8750
1055.670, 880.7773
1056.775, 593.6172
1057.880, 587.3906
1058.985, 505.1016
1060.089, 586.7266
1061.194, 566.2773
1062.298, 469.7539
1063.402, 406.1680
1064.506, 358.5000
1065.610, 414.8281
1066.713, 337.1523
1067.817, 449.4258
1068.920, 520.6484
1070.023, 401.8203
1071.126, 429.8047
1072.229, 396.8789
1073.332, 386.8984
1074.435, 619.3906
1075.537, 580.9297
1076.639, 662.3281
1077.741, 430.1328
1078.843, 625.4883
1079.945, 576.0859
1081.046, 282.5078
1082.148, 421.0234
1083.249, 345.4766
1084.350, 337.9141
1085.451, 327.3203
1086.551, 360.6602
1087.652, 143.2266
1088.752, 207.8281
1089.853, 39.61328
1090.953, 0.1757810
1092.053, 75.44531
1093.152, 23.94922
1094.252, 169.4414
1095.351, 182.9062
1096.451, 29.24609
1097.550, 202.8555
1098.649, 147.9414
1099.748, 97.13281
1100.846, 335.4102
1101.945, 249.7969
1103.043, 283.5234
1104.141, 235.3125
1105.239, 166.1406
1106.337, 216.9531
1107.434, 163.7422
1108.532, 194.5234
1109.629, 260.2930
1110.726, 329.0547
1111.823, 90.82422
1112.920, 134.6016
1114.017, 373.3906
1115.113, 140.1992
1116.210, 459.0312
1117.306, 493.8906
1118.402, 203.8242
1119.498, 60.10547
1120.593, 424.0859
1121.689, 773.3906
1122.784, 318.7891
1123.879, 578.2969
1124.974, 665.9570
1126.069, 130.2148
1127.164, 446.0000
1128.259, 276.6914
1129.353, 219.6719
1130.447, 477.3672
1131.541, 472.1484
1132.635, 286.0000
1133.729, 343.9141
1134.822, 293.8906
1135.916, 301.9453
1137.009, 294.0898
1138.102, 152.3320
1139.195, 308.6836
1140.288, 160.1797
1141.380, 27.58203
1142.473, 445.5859
1143.565, 298.9648
1144.657, 394.7188
1145.749, 207.8711
1146.841, 255.0000
1147.932, 337.0703
1149.024, 106.0234
1150.115, 141.7812
1151.206, 163.2305
1152.297, 507.1367
1153.388, 198.8438
1154.479, 311.0586
1155.569, 247.4922
1156.659, 142.6562
1157.750, 1.417969
1158.839, 470.1562
1159.929, 0.0000000E+00
##END=



