##NAMES=Fluorapatite
##RRUFFID=R060421
##IDEAL CHEMISTRY=Ca_5_(PO_4_)_3_F
##LOCALITY=Levant mine, St. Just, Cornwall, England
##OWNER=RRUFF
##SOURCE=Michael Scott
##DESCRIPTION=Brown hexagonal prisms
##STATUS=The identification of this mineral has been confirmed by X-ray diffraction and chemical analysis
##URL=rruff.info/R060421
##MEASURED CHEMISTRY=(Ca_4.93_[box]_0.07_)_Σ=5_((PO_4_)_2.86_(CO_3_)_0.14_)_Σ=3_F_1.00_ ; C not measured but estimated by difference and charge balance
##PIN_ID=M00175
##ORIENTATION=Laser parallel to c* (0 0 1). Fiducial mark perpendicular to laser is parallel to a [1 0 0]
124.2880, 0.0000000E+00
125.5190, 8.0570001E-03
126.7490, 16.01758
127.9790, 6.816162
129.2090, 71.30371
130.4390, 73.84253
131.6680, 151.5837
132.8980, 215.0378
134.1270, 264.2627
135.3560, 327.9768
136.5850, 377.2500
137.8140, 429.0830
139.0430, 425.0354
140.2710, 399.4917
141.5000, 331.3745
142.7280, 230.2913
143.9560, 205.2405
145.1840, 200.9470
146.4120, 124.4028
147.6390, 10.29028
148.8670, 80.80420
150.0940, 105.6750
151.3210, 47.36230
152.5490, 205.2478
153.7750, 121.6035
155.0020, 225.2920
156.2290, 187.8103
157.4550, 254.1726
158.6810, 185.3684
159.9080, 186.5039
161.1340, 280.8550
162.3590, 259.1035
163.5850, 227.1943
164.8110, 263.1836
166.0360, 262.7061
167.2610, 217.3350
168.4860, 262.5049
169.7110, 214.3076
170.9360, 195.9102
172.1610, 145.9365
173.3850, 99.24854
174.6100, 134.5977
175.8340, 89.76660
177.0580, 93.73193
178.2820, 127.2402
179.5050, 35.78418
180.7290, 65.34961
181.9520, 97.37451
183.1760, 68.94043
184.3990, 3.674316
185.6220, 75.55615
186.8450, 27.83350
188.0670, 79.41602
189.2900, 50.39014
190.5120, 4.202148
191.7340, 28.70752
192.9560, 64.16113
194.1780, 109.5596
195.4000, 82.89014
196.6220, 35.86621
197.8430, 19.31494
199.0640, 47.46436
200.2860, 128.7598
201.5070, 21.33594
202.7270, 62.84473
203.9480, 132.8438
205.1690, 4.821289
206.3890, 76.76416
207.6090, 55.21289
208.8290, 166.2681
210.0490, 125.1187
211.2690, 4.316406
212.4890, 28.10742
213.7080, 154.4404
214.9280, 12.62549
216.1470, 99.87598
217.3660, 33.90527
218.5850, 117.8564
219.8030, 60.11133
221.0220, 66.27148
222.2400, 88.84717
223.4590, 114.8696
224.6770, 133.0522
225.8950, 132.1973
227.1120, 62.89502
228.3300, 127.3418
229.5480, 99.16797
230.7650, 166.4409
231.9820, 197.2388
233.1990, 258.0742
234.4160, 206.9204
235.6330, 184.3433
236.8490, 156.0342
238.0660, 168.7856
239.2820, 127.5205
240.4980, 192.8403
241.7140, 80.74512
242.9300, 90.98096
244.1460, 160.4751
245.3610, 42.60840
246.5770, 97.24121
247.7920, 106.6245
249.0070, 56.01611
250.2220, 145.0859
251.4370, 57.75439
252.6510, 171.1562
253.8660, 146.0850
255.0800, 154.4912
256.2940, 123.6240
257.5080, 242.5405
258.7220, 268.7896
259.9360, 314.1655
261.1490, 352.5781
262.3630, 364.8066
263.5760, 423.6562
264.7890, 434.2100
266.0020, 462.2026
267.2150, 472.8950
268.4270, 446.7178
269.6400, 472.8691
270.8520, 417.5342
272.0640, 435.6382
273.2760, 303.0283
274.4880, 205.5298
275.7000, 320.8926
276.9120, 306.7959
278.1230, 170.7837
279.3340, 212.5312
280.5450, 199.2148
281.7560, 209.7671
282.9670, 137.8564
284.1780, 201.9009
285.3880, 144.6958
286.5980, 104.3730
287.8090, 106.9795
289.0190, 106.6045
290.2290, 163.0610
291.4380, 113.4429
292.6480, 64.01660
293.8570, 202.9580
295.0670, 132.1157
296.2760, 151.1992
297.4850, 127.2100
298.6930, 247.1455
299.9020, 226.0093
301.1110, 261.7949
302.3190, 294.4697
303.5270, 276.8564
304.7350, 313.4673
305.9430, 258.8623
307.1510, 310.1416
308.3580, 295.3516
309.5660, 330.4893
310.7730, 303.5547
311.9800, 323.5527
313.1870, 322.4854
314.3940, 233.6436
315.6010, 341.8755
316.8070, 240.1758
318.0130, 159.5200
319.2200, 143.7651
320.4260, 142.1152
321.6310, 78.50049
322.8370, 144.8779
324.0430, 42.44971
325.2480, 9.180176
326.4540, 15.38965
327.6590, 45.05225
328.8640, 36.50977
330.0680, 28.66016
331.2730, 85.96484
332.4780, 25.96436
333.6820, 42.44385
334.8860, 13.14404
336.0900, 88.56738
337.2940, 99.88965
338.4980, 11.69775
339.7010, 90.75732
340.9050, 38.45068
342.1080, 40.10107
343.3110, 64.15137
344.5140, 9.534668
345.7170, 28.79688
346.9200, 84.12500
348.1220, 32.97363
349.3240, 23.17188
350.5270, 10.18896
351.7290, 44.87891
352.9310, 59.93896
354.1320, 61.94971
355.3340, 97.05615
356.5350, 13.15869
357.7370, 43.76367
358.9380, 18.75684
360.1390, 23.33350
361.3400, 0.4946290
362.5400, 16.78027
363.7410, 72.47754
364.9410, 82.76367
366.1410, 170.0176
367.3410, 73.67676
368.5410, 158.7881
369.7410, 147.6743
370.9400, 40.24951
372.1400, 90.16357
373.3390, 24.35205
374.5380, 38.60059
375.7370, 107.7192
376.9360, 26.00635
378.1350, 42.76562
379.3330, 113.1919
380.5310, 81.04736
381.7300, 118.1182
382.9280, 103.1245
384.1260, 170.3555
385.3230, 18.55811
386.5210, 74.15234
387.7180, 232.1021
388.9160, 98.64746
390.1130, 89.66016
391.3100, 157.6411
392.5060, 113.1646
393.7030, 86.48145
394.9000, 194.9995
396.0960, 179.9536
397.2920, 39.35303
398.4880, 189.9624
399.6840, 79.38672
400.8800, 169.4004
402.0750, 120.6455
403.2710, 152.3145
404.4660, 215.4131
405.6610, 162.2188
406.8560, 193.5137
408.0510, 229.3364
409.2450, 255.5044
410.4400, 114.5063
411.6340, 83.25586
412.8280, 199.0674
414.0220, 104.4683
415.2160, 254.6338
416.4100, 190.2173
417.6030, 161.6299
418.7970, 190.0806
419.9900, 292.3340
421.1830, 264.0908
422.3760, 311.1396
423.5690, 315.1782
424.7610, 334.3286
425.9540, 428.8184
427.1460, 426.3896
428.3380, 473.4292
429.5300, 515.7075
430.7220, 538.4580
431.9140, 466.8086
433.1050, 502.4863
434.2970, 495.2861
435.4880, 427.7666
436.6790, 680.9248
437.8700, 634.5571
439.0610, 769.7808
440.2510, 786.9697
441.4420, 846.9468
442.6320, 857.3120
443.8220, 813.4761
445.0120, 883.6768
446.2020, 881.0537
447.3910, 965.0928
448.5810, 820.1611
449.7700, 896.0088
450.9600, 693.7852
452.1490, 703.7441
453.3370, 652.4717
454.5260, 537.7158
455.7150, 513.8477
456.9030, 433.0186
458.0910, 398.7627
459.2800, 366.0635
460.4670, 338.7119
461.6550, 344.9053
462.8430, 302.9150
464.0300, 276.7637
465.2180, 260.7295
466.4050, 196.9570
467.5920, 209.0439
468.7790, 158.5645
469.9650, 117.1768
471.1520, 146.9102
472.3380, 170.4453
473.5250, 102.7920
474.7110, 166.3799
475.8970, 84.16895
477.0820, 107.4561
478.2680, 192.5000
479.4540, 42.86816
480.6390, 39.56934
481.8240, 28.53418
483.0090, 4.606445
484.1940, 32.47949
485.3780, 16.72852
486.5630, 105.5029
487.7470, 151.9971
488.9320, 71.69141
490.1160, 27.59961
491.3000, 27.52441
492.4830, 102.2783
493.6670, 79.91992
494.8500, 59.77246
496.0340, 4.625977
497.2170, 54.29199
498.4000, 28.84961
499.5820, 178.3740
500.7650, 125.3340
501.9480, 121.7891
503.1300, 16.26074
504.3120, 30.50098
505.4940, 23.01172
506.6760, 32.42480
507.8580, 27.90918
509.0390, 40.74512
510.2210, 96.11328
511.4020, 63.99609
512.5830, 92.68945
513.7640, 87.25781
514.9450, 129.1045
516.1250, 79.11621
517.3060, 92.42285
518.4860, 13.92773
519.6660, 107.0254
520.8460, 13.84668
522.0260, 12.20703
523.2060, 30.92090
524.3850, 23.48633
525.5650, 9.001953
526.7440, 112.1074
527.9230, 142.3926
529.1020, 54.40625
530.2810, 2.731445
531.4590, 1.753906
532.6380, 26.40234
533.8160, 57.45996
534.9940, 42.76562
536.1720, 48.14941
537.3500, 57.51074
538.5270, 46.64746
539.7050, 1.679688
540.8820, 7.425781
542.0590, 25.28613
543.2360, 27.15723
544.4130, 85.82422
545.5900, 12.72656
546.7660, 35.25391
547.9430, 99.36230
549.1190, 7.112305
550.2950, 16.79785
551.4710, 94.41699
552.6470, 130.0703
553.8220, 90.22363
554.9980, 2.194336
556.1730, 8.523438
557.3480, 66.06445
558.5230, 80.55273
559.6980, 43.12402
560.8730, 64.74609
562.0470, 7.300781
563.2220, 136.5400
564.3960, 126.3506
565.5700, 184.4609
566.7440, 85.16309
567.9170, 205.5430
569.0910, 121.5811
570.2640, 235.8682
571.4380, 285.8008
572.6110, 356.6416
573.7840, 513.2988
574.9570, 527.9668
576.1290, 987.6182
577.3020, 918.8525
578.4740, 1294.938
579.6460, 1357.412
580.8180, 1207.661
581.9900, 1005.825
583.1620, 741.9053
584.3330, 715.9014
585.5040, 552.8242
586.6760, 427.6592
587.8470, 483.5342
589.0180, 451.2021
590.1880, 456.7832
591.3590, 470.7178
592.5290, 401.3896
593.7000, 431.7676
594.8700, 283.7773
596.0400, 285.4268
597.2090, 250.5107
598.3790, 302.2090
599.5490, 370.8779
600.7180, 531.9287
601.8870, 614.4531
603.0560, 689.4639
604.2250, 752.4150
605.3940, 893.2520
606.5620, 813.6846
607.7300, 728.7764
608.8990, 747.8457
610.0670, 589.9951
611.2350, 603.7510
612.4020, 695.4590
613.5700, 582.2266
614.7370, 464.2227
615.9050, 555.1787
617.0720, 431.2695
618.2390, 409.7891
619.4060, 411.2637
620.5720, 311.8193
621.7390, 281.3047
622.9050, 389.6602
624.0710, 342.6328
625.2370, 231.2861
626.4030, 343.4824
627.5690, 284.9121
628.7340, 251.2422
629.9000, 291.1572
631.0650, 336.2266
632.2300, 223.0322
633.3950, 333.2383
634.5600, 36.55469
635.7240, 336.3984
636.8890, 229.4277
638.0530, 81.20410
639.2170, 294.7207
640.3810, 256.2510
641.5450, 178.2334
642.7080, 354.2373
643.8720, 224.5479
645.0350, 446.6729
646.1980, 319.0273
647.3610, 282.6377
648.5240, 374.0420
649.6870, 408.6475
650.8490, 327.2969
652.0120, 386.5215
653.1740, 365.9316
654.3360, 329.6660
655.4980, 310.1016
656.6600, 314.7090
657.8210, 189.2803
658.9830, 364.2158
660.1440, 372.3516
661.3050, 211.3096
662.4660, 326.6172
663.6270, 247.1035
664.7870, 216.1016
665.9480, 348.9668
667.1080, 414.7900
668.2680, 198.6533
669.4280, 279.0283
670.5880, 311.6748
671.7480, 304.0254
672.9070, 227.6006
674.0670, 289.5029
675.2260, 433.8369
676.3850, 330.6182
677.5440, 316.4160
678.7030, 196.5391
679.8610, 278.9287
681.0200, 436.8184
682.1780, 333.8105
683.3360, 391.6699
684.4940, 439.1953
685.6520, 301.9180
686.8090, 321.9336
687.9670, 413.5527
689.1240, 340.0449
690.2810, 309.2656
691.4380, 277.4434
692.5950, 322.5371
693.7520, 329.3672
694.9080, 413.6582
696.0650, 339.8945
697.2210, 262.0918
698.3770, 187.8125
699.5330, 484.5254
700.6880, 424.7305
701.8440, 390.6523
702.9990, 582.4473
704.1550, 327.3438
705.3100, 468.7773
706.4650, 327.0469
707.6190, 382.5078
708.7740, 345.7305
709.9290, 522.3184
711.0830, 487.6445
712.2370, 564.6738
713.3910, 514.3223
714.5450, 405.7168
715.6980, 467.0273
716.8520, 262.2285
718.0050, 387.2754
719.1580, 607.3203
720.3110, 493.3574
721.4640, 517.0742
722.6170, 540.1816
723.7700, 457.9141
724.9220, 611.0996
726.0740, 394.1172
727.2260, 455.2480
728.3780, 521.6270
729.5300, 320.2695
730.6810, 352.6973
731.8330, 605.5156
732.9840, 244.9414
734.1350, 312.5273
735.2860, 505.7578
736.4370, 474.7754
737.5880, 456.1797
738.7380, 479.6797
739.8880, 321.6934
741.0390, 444.5547
742.1890, 330.4512
743.3380, 438.8125
744.4880, 528.2578
745.6380, 451.7344
746.7870, 702.4785
747.9360, 362.9551
749.0850, 402.1426
750.2340, 429.3516
751.3830, 428.0703
752.5310, 297.9062
753.6800, 360.9473
754.8280, 224.5234
755.9760, 385.2344
757.1240, 463.9434
758.2720, 487.0195
759.4190, 521.9902
760.5670, 570.3301
761.7140, 537.9043
762.8610, 392.1914
764.0080, 456.1602
765.1550, 311.9180
766.3020, 367.1094
767.4480, 360.6973
768.5950, 450.7363
769.7410, 502.2500
770.8870, 498.2129
772.0330, 677.6895
773.1780, 692.2617
774.3240, 654.3613
775.4690, 614.0742
776.6140, 517.1504
777.7590, 476.2695
778.9040, 390.6816
780.0490, 516.8320
781.1940, 531.5332
782.3380, 375.7695
783.4820, 506.5254
784.6260, 449.8242
785.7700, 235.6758
786.9140, 690.1777
788.0580, 431.0293
789.2010, 578.0410
790.3450, 624.6621
791.4880, 541.3516
792.6310, 599.4688
793.7730, 447.3555
794.9160, 497.4160
796.0590, 570.2500
797.2010, 381.2070
798.3430, 476.4199
799.4850, 490.6406
800.6270, 651.5586
801.7690, 453.6445
802.9100, 594.8320
804.0520, 362.5039
805.1930, 368.4648
806.3340, 643.0059
807.4750, 221.7930
808.6160, 449.8711
809.7560, 413.8164
810.8970, 409.3477
812.0370, 498.0371
813.1770, 385.1504
814.3170, 381.8066
815.4570, 503.2930
816.5960, 318.1816
817.7360, 444.3066
818.8750, 438.9082
820.0140, 445.0605
821.1530, 380.3633
822.2920, 425.6562
823.4310, 382.3730
824.5690, 315.5391
825.7070, 415.0391
826.8460, 195.5977
827.9840, 198.9180
829.1220, 216.9863
830.2590, 402.1270
831.3970, 345.1914
832.5340, 369.5039
833.6710, 472.4023
834.8080, 341.8711
835.9450, 271.9219
837.0820, 55.82422
838.2190, 300.5977
839.3550, 543.1445
840.4910, 262.7090
841.6270, 398.7754
842.7630, 319.1230
843.8990, 372.9707
845.0350, 325.9414
846.1700, 331.4590
847.3060, 424.5586
848.4410, 306.3594
849.5760, 272.0488
850.7100, 172.6211
851.8450, 310.0938
852.9800, 318.7598
854.1140, 357.2969
855.2480, 336.2559
856.3820, 332.0176
857.5160, 390.2598
858.6500, 295.0391
859.7830, 110.9629
860.9170, 383.0664
862.0500, 291.5762
863.1830, 303.3730
864.3160, 425.0312
865.4480, 370.0586
866.5810, 271.5293
867.7130, 484.5410
868.8460, 261.4570
869.9780, 194.2441
871.1100, 213.9512
872.2410, 221.7383
873.3730, 284.8848
874.5050, 223.8887
875.6360, 296.5684
876.7670, 168.0488
877.8980, 218.6445
879.0290, 251.0195
880.1590, 329.2207
881.2900, 247.1426
882.4200, 296.2891
883.5500, 132.2188
884.6800, 191.7695
885.8100, 197.2637
886.9400, 125.6641
888.0690, 82.88477
889.1990, 105.3730
890.3280, 204.9453
891.4570, 140.7969
892.5860, 295.1543
893.7140, 114.7090
894.8430, 14.88281
895.9710, 52.32031
897.1000, 156.3516
898.2280, 202.2344
899.3560, 144.5801
900.4830, 218.0371
901.6110, 204.7500
902.7380, 2.447266
903.8660, 40.10547
904.9930, 259.8379
906.1200, 6.339844
907.2460, 148.2383
908.3730, 129.7422
909.5000, 132.4551
910.6260, 166.6797
911.7520, 183.7656
912.8780, 128.6934
914.0040, 331.2969
915.1290, 73.07031
916.2550, 73.43750
917.3800, 42.84180
918.5050, 142.2852
919.6300, 175.1309
920.7550, 181.6055
921.8800, 210.0488
923.0040, 6.310547
924.1290, 162.6133
925.2530, 104.0625
926.3770, 222.0273
927.5010, 127.8750
928.6250, 55.71484
929.7480, 19.85938
930.8720, 113.0293
931.9950, 2.363281
933.1180, 3.292969
934.2410, 120.2520
935.3640, 106.7207
936.4860, 34.50195
937.6090, 300.5117
938.7310, 253.0137
939.8530, 225.4434
940.9750, 137.7969
942.0970, 177.0000
943.2180, 248.3242
944.3400, 453.7012
945.4610, 680.8320
946.5820, 845.8516
947.7030, 452.1465
948.8240, 876.8789
949.9450, 796.5020
951.0650, 1136.543
952.1860, 1281.719
953.3060, 1670.336
954.4260, 2225.840
955.5460, 3136.279
956.6650, 4113.359
957.7850, 5596.541
958.9040, 7522.455
960.0230, 10511.00
961.1420, 13578.88
962.2610, 16949.43
963.3800, 19931.91
964.4990, 20352.46
965.6170, 17647.96
966.7350, 13595.14
967.8530, 9887.340
968.9710, 7191.893
970.0890, 4901.822
971.2070, 3051.365
972.3240, 2009.430
973.4410, 1621.957
974.5580, 1015.428
975.6750, 947.5898
976.7920, 559.3066
977.9090, 755.6191
979.0250, 158.0840
980.1410, 465.2832
981.2580, 273.4355
982.3740, 196.9102
983.4890, 291.8203
984.6050, 182.5156
985.7200, 99.31055
986.8360, 43.03711
987.9510, 156.2852
989.0660, 135.3398
990.1810, 87.18359
991.2950, 36.11133
992.4100, 94.42969
993.5240, 136.5430
994.6390, 89.56055
995.7530, 206.0527
996.8660, 56.90234
997.9800, 165.8008
999.0940, 176.2773
1000.207, 68.19141
1001.320, 4.007813
1002.433, 186.6562
1003.546, 74.01953
1004.659, 6.773438
1005.772, 105.2656
1006.884, 40.40625
1007.996, 117.8750
1009.108, 59.32031
1010.220, 28.98828
1011.332, 92.34375
1012.444, 15.49219
1013.555, 106.9414
1014.666, 143.6367
1015.777, 44.46484
1016.888, 87.17578
1017.999, 58.98047
1019.110, 176.9922
1020.220, 60.80469
1021.331, 105.9648
1022.441, 145.8828
1023.551, 243.3672
1024.661, 280.3633
1025.770, 259.8594
1026.880, 241.1484
1027.989, 103.9570
1029.098, 112.3359
1030.207, 225.1055
1031.316, 628.9844
1032.425, 366.8438
1033.533, 785.4414
1034.642, 825.6094
1035.750, 380.5625
1036.858, 615.7031
1037.966, 564.0273
1039.073, 271.9766
1040.181, 308.9102
1041.288, 141.7422
1042.396, 0.1406250
1043.503, 258.6250
1044.610, 101.9922
1045.716, 119.7539
1046.823, 194.2539
1047.929, 12.79297
1049.036, 325.0430
1050.142, 104.9648
1051.248, 147.7148
1052.353, 311.7891
1053.459, 96.69531
1054.564, 286.7969
1055.670, 396.5234
1056.775, 589.9766
1057.880, 563.8789
1058.985, 324.3242
1060.089, 410.5195
1061.194, 637.7656
1062.298, 120.7070
1063.402, 420.1172
1064.506, 358.1797
1065.610, 356.7773
1066.713, 346.1094
1067.817, 352.6680
1068.920, 466.9297
1070.023, 553.6055
1071.126, 563.9648
1072.229, 593.3125
1073.332, 475.5586
1074.435, 514.2344
1075.537, 474.9141
1076.639, 615.3477
1077.741, 374.8086
1078.843, 534.2930
1079.945, 754.7930
1081.046, 339.3164
1082.148, 300.8672
1083.249, 150.4336
1084.350, 306.0391
1085.451, 331.6680
1086.551, 375.3281
1087.652, 391.0117
1088.752, 157.7305
1089.853, 24.48047
1090.953, 396.2617
1092.053, 163.0781
1093.152, 347.9258
1094.252, 362.8164
1095.351, 417.7422
1096.451, 238.7109
1097.550, 381.7266
1098.649, 418.7734
1099.748, 350.8672
1100.846, 510.0078
1101.945, 156.1836
1103.043, 429.4062
1104.141, 511.6719
1105.239, 293.0039
1106.337, 419.3789
1107.434, 86.79688
1108.532, 522.2695
1109.629, 372.7852
1110.726, 645.3633
1111.823, 545.9883
1112.920, 354.6719
1114.017, 359.4141
1115.113, 581.1992
1116.210, 579.0508
1117.306, 612.9570
1118.402, 328.8398
1119.498, 541.5312
1120.593, 560.6406
1121.689, 973.7930
1122.784, 708.2344
1123.879, 805.1484
1124.974, 817.4805
1126.069, 506.6055
1127.164, 752.5039
1128.259, 668.9492
1129.353, 848.9336
1130.447, 821.1328
1131.541, 853.9375
1132.635, 766.8164
1133.729, 591.2422
1134.822, 758.0312
1135.916, 650.1445
1137.009, 753.5703
1138.102, 889.3594
1139.195, 841.7500
1140.288, 617.2461
1141.380, 642.0312
1142.473, 749.5039
1143.565, 896.2891
1144.657, 561.8086
1145.749, 759.9141
1146.841, 504.2617
1147.932, 815.3594
1149.024, 906.6406
1150.115, 874.9141
1151.206, 766.3750
1152.297, 1139.992
1153.388, 1123.738
1154.479, 1022.613
1155.569, 1240.609
1156.659, 1119.715
1157.750, 952.9414
1158.839, 1053.281
1159.929, 1183.742
1161.019, 1086.352
1162.108, 799.0938
1163.198, 1197.969
1164.287, 1276.949
1165.376, 1036.062
1166.465, 1246.293
1167.553, 1355.645
1168.642, 1134.145
1169.730, 1041.793
1170.818, 1449.559
1171.906, 1246.477
1172.994, 1316.527
1174.082, 1121.363
1175.170, 1594.676
1176.257, 1084.117
1177.344, 1338.688
1178.431, 994.3945
1179.518, 1218.582
1180.605, 1501.551
1181.691, 1264.699
1182.778, 1274.996
1183.864, 1469.426
1184.950, 1322.363
1186.036, 1386.562
1187.122, 1295.520
1188.207, 1368.512
1189.292, 1375.641
1190.378, 1403.961
1191.463, 1471.719
1192.548, 1145.000
1193.632, 1572.742
1194.717, 1335.645
1195.801, 1314.688
1196.886, 1553.898
1197.970, 1314.273
1199.054, 1425.480
1200.137, 1392.453
1201.221, 1505.273
1202.305, 1318.227
1203.388, 1493.316
1204.471, 1154.543
1205.554, 1426.914
1206.637, 1344.426
1207.719, 1298.070
1208.802, 1444.852
1209.884, 1319.770
1210.966, 1120.824
1212.048, 1168.016
1213.130, 1523.344
1214.212, 1745.547
1215.293, 1444.164
1216.374, 1183.305
1217.456, 1405.199
1218.536, 1274.234
1219.617, 1232.414
1220.698, 1264.734
1221.778, 1315.195
1222.859, 1072.801
1223.939, 1468.555
1225.019, 1201.445
1226.099, 1399.480
1227.178, 1309.660
1228.258, 1368.984
1229.337, 1258.457
1230.417, 1147.070
1231.496, 1161.836
1232.574, 1127.125
1233.653, 1039.801
1234.732, 1130.008
1235.810, 1324.359
1236.888, 1254.859
1237.966, 1251.512
1239.044, 1060.312
1240.122, 1110.965
1241.199, 1028.367
1242.277, 1203.270
1243.354, 1171.676
1244.431, 1367.242
1245.508, 1220.953
1246.585, 1181.816
1247.661, 1162.836
1248.738, 1095.004
1249.814, 1091.336
1250.890, 711.8750
1251.966, 644.5664
1253.042, 754.3945
1254.117, 538.4336
1255.193, 597.6641
1256.268, 682.1133
1257.343, 607.7539
1258.418, 874.6055
1259.493, 854.6445
1260.567, 892.5312
1261.642, 1079.988
1262.716, 971.6250
1263.790, 878.4375
1264.864, 807.5938
1265.938, 834.7695
1267.011, 741.4922
1268.085, 868.6523
1269.158, 589.3672
1270.231, 724.2734
1271.304, 562.3672
1272.377, 522.6289
1273.450, 488.0508
1274.522, 778.6523
1275.594, 596.4492
1276.666, 650.6836
1277.738, 705.8516
1278.810, 579.3750
1279.882, 839.6602
1280.953, 324.3633
1282.025, 888.1250
1283.096, 877.1406
1284.167, 412.3164
1285.238, 340.6562
1286.308, 434.1562
1287.379, 321.8164
1288.449, 378.6445
1289.519, 549.6406
1290.589, 418.8047
1291.659, 340.1328
1292.729, 486.6250
1293.798, 531.2773
1294.868, 409.0898
1295.937, 480.7461
1297.006, 531.8789
