##NAMES=Fluor-uvite
##RRUFFID=R050172
##IDEAL CHEMISTRY=CaMg_3_(Al_5_Mg)(Si_6_O_18_)(BO_3_)_3_(OH)_3_F
##LOCALITY=Pierrepont, New York, USA
##OWNER=RRUFF
##SOURCE=Marcus Origlieri
##DESCRIPTION=Black prismatic crystal
##STATUS=The identification of this mineral has been confirmed by X-ray diffraction and chemical analysis
##URL=rruff.info/R050172
##MEASURED CHEMISTRY=(Ca_0.64_Na_0.36_)(Mg_0.56_Fe^2+^_0.34_Al_0.08_Ti_0.02_)_3_(Mg_1.00_Al_5.00_)(BO_3_)_3_Si_6.00_O_18_((OH)_3.45_F_0.55_)
##PIN_ID=M00231
##ORIENTATION=Laser parallel to c* (0 0 1). Fiducial mark perpendicular to laser is parallel to -a [-1 0 0]
163.7180, 0.0000000E+00
164.9490, 91.74023
166.1800, 125.2812
167.4110, 112.2012
168.6410, 163.1484
169.8720, 133.0371
171.1020, 149.3027
172.3320, 182.1973
173.5620, 16.77734
174.7910, 63.28516
176.0210, 3.599609
177.2500, 10.25781
178.4790, 123.4199
179.7080, 118.5312
180.9370, 146.6055
182.1650, 302.9609
183.3940, 389.9336
184.6220, 629.2656
185.8500, 553.5742
187.0780, 792.8164
188.3050, 865.4922
189.5330, 879.4316
190.7600, 804.0566
191.9870, 1134.547
193.2140, 1175.285
194.4410, 1328.463
195.6680, 1315.426
196.8940, 1744.252
198.1200, 1573.295
199.3470, 2001.996
200.5720, 2369.178
201.7980, 2720.105
203.0240, 2758.408
204.2490, 2673.818
205.4740, 2509.529
206.6990, 2385.318
207.9240, 2383.953
209.1490, 2547.238
210.3740, 2492.230
211.5980, 2723.953
212.8220, 2733.562
214.0460, 2583.277
215.2700, 2485.625
216.4930, 2440.141
217.7170, 2287.082
218.9400, 2052.252
220.1630, 2014.756
221.3860, 2155.689
222.6090, 1858.658
223.8320, 1779.820
225.0540, 1947.755
226.2760, 1835.714
227.4980, 1884.701
228.7200, 1830.012
229.9420, 1757.146
231.1630, 1968.703
232.3850, 1984.846
233.6060, 2055.492
234.8270, 1944.112
236.0480, 1866.703
237.2690, 1893.028
238.4890, 1883.577
239.7090, 1798.809
240.9290, 1811.822
242.1490, 1611.342
243.3690, 1456.959
244.5890, 1323.694
245.8080, 1068.276
247.0270, 986.4307
248.2470, 1073.932
249.4650, 649.7285
250.6840, 693.7783
251.9030, 782.0410
253.1210, 597.4785
254.3390, 491.0508
255.5570, 536.7217
256.7750, 616.4570
257.9930, 761.2256
259.2100, 804.2266
260.4280, 737.9434
261.6450, 914.4219
262.8620, 576.0332
264.0790, 516.5498
265.2950, 559.9521
266.5120, 430.2178
267.7280, 480.3232
268.9440, 375.2432
270.1600, 235.9307
271.3760, 343.3613
272.5920, 219.5186
273.8070, 100.3867
275.0220, 118.9629
276.2370, 275.2490
277.4520, 174.2236
278.6670, 192.8613
279.8820, 135.1445
281.0960, 19.69434
282.3100, 63.55078
283.5240, 161.3379
284.7380, 68.56445
285.9520, 11.10547
287.1650, 60.98145
288.3780, 18.79004
289.5920, 208.7920
290.8050, 289.7666
292.0170, 192.1592
293.2300, 223.9902
294.4430, 163.2012
295.6550, 289.8359
296.8670, 149.9873
298.0790, 84.70703
299.2910, 238.9189
300.5020, 65.90723
301.7140, 146.9717
302.9250, 30.12402
304.1360, 74.49219
305.3470, 26.45996
306.5580, 149.7178
307.7680, 65.89062
308.9780, 118.7061
310.1890, 436.3389
311.3990, 405.5342
312.6090, 473.1885
313.8180, 698.5664
315.0280, 554.0127
316.2370, 710.8135
317.4460, 921.9883
318.6550, 1109.562
319.8640, 991.2725
321.0730, 1169.526
322.2810, 1204.816
323.4890, 1439.517
324.6980, 1477.022
325.9060, 1631.834
327.1130, 1611.073
328.3210, 1840.264
329.5280, 1865.029
330.7360, 1982.242
331.9430, 1880.900
333.1500, 2006.998
334.3560, 2100.541
335.5630, 2090.538
336.7690, 2210.992
337.9760, 2150.903
339.1820, 2322.277
340.3870, 2307.104
341.5930, 2380.375
342.7990, 2451.030
344.0040, 2515.082
345.2090, 2603.699
346.4140, 2683.229
347.6190, 2788.656
348.8240, 2896.379
350.0280, 3011.539
351.2330, 3198.109
352.4370, 3096.080
353.6410, 3202.463
354.8440, 3376.234
356.0480, 3350.458
357.2520, 3476.209
358.4550, 3733.523
359.6580, 4023.353
360.8610, 4154.699
362.0640, 4560.576
363.2660, 4538.943
364.4690, 4513.743
365.6710, 4816.033
366.8730, 4936.852
368.0750, 5031.122
369.2770, 5095.732
370.4780, 5249.734
371.6800, 5127.176
372.8810, 5310.537
374.0820, 5238.548
375.2830, 5040.145
376.4830, 4959.818
377.6840, 4829.726
378.8840, 4416.276
380.0840, 4382.973
381.2840, 4198.105
382.4840, 3964.195
383.6840, 3861.148
384.8830, 3728.683
386.0830, 3549.219
387.2820, 3509.879
388.4810, 3216.860
389.6800, 3237.270
390.8780, 3158.256
392.0770, 2875.595
393.2750, 2824.702
394.4730, 2647.951
395.6710, 2738.824
396.8690, 2404.585
398.0660, 2456.382
399.2640, 2271.790
400.4610, 2198.953
401.6580, 2080.180
402.8550, 1992.854
404.0520, 2003.013
405.2490, 1886.594
406.4450, 1791.680
407.6410, 1805.711
408.8370, 1778.060
410.0330, 1777.018
411.2290, 1760.339
412.4240, 1645.428
413.6200, 1594.021
414.8150, 1571.797
416.0100, 1393.058
417.2050, 1484.709
418.4000, 1414.441
419.5940, 1326.135
420.7880, 1387.555
421.9830, 1137.566
423.1770, 1095.303
424.3700, 1045.404
425.5640, 932.4902
426.7580, 917.0752
427.9510, 789.3262
429.1440, 829.6338
430.3370, 757.7900
431.5300, 675.6777
432.7220, 634.5215
433.9150, 530.0039
435.1070, 423.6553
436.2990, 411.6836
437.4910, 261.9727
438.6830, 132.3330
439.8750, 276.0088
441.0660, 405.7334
442.2570, 279.8379
443.4480, 214.5557
444.6390, 105.4297
445.8300, 178.5215
447.0210, 136.2666
448.2110, 202.9639
449.4010, 203.5195
450.5910, 208.3623
451.7810, 210.3535
452.9710, 206.6094
454.1610, 186.5322
455.3500, 152.1064
456.5390, 55.15820
457.7280, 267.5820
458.9170, 171.1396
460.1060, 254.4238
461.2940, 340.5010
462.4830, 245.2764
463.6710, 263.4746
464.8590, 386.3398
466.0470, 382.2793
467.2350, 443.1309
468.4220, 446.0703
469.6090, 358.5928
470.7970, 478.9678
471.9840, 490.7773
473.1700, 611.0381
474.3570, 628.4756
475.5440, 728.8506
476.7300, 791.1650
477.9160, 638.4229
479.1020, 747.6270
480.2880, 709.7783
481.4740, 685.8818
482.6590, 679.9385
483.8440, 756.9492
485.0300, 980.9199
486.2140, 851.8516
487.3990, 950.7490
488.5840, 801.6133
489.7680, 921.4463
490.9530, 778.2529
492.1370, 1187.577
493.3210, 887.3838
494.5040, 1162.203
495.6880, 1020.562
496.8720, 1037.609
498.0550, 979.3477
499.2380, 956.4414
500.4210, 932.8320
501.6040, 1050.875
502.7860, 1035.371
503.9690, 1056.275
505.1510, 1061.131
506.3330, 757.8135
507.5150, 761.0596
508.6970, 847.0078
509.8780, 719.7207
511.0600, 891.4473
512.2410, 877.4404
513.4220, 1016.955
514.6030, 921.7432
515.7840, 1033.558
516.9640, 982.4072
518.1440, 1184.296
519.3250, 1108.225
520.5050, 1101.197
521.6850, 1184.215
522.8640, 1260.281
524.0440, 1270.399
525.2230, 1432.570
526.4020, 1516.795
527.5820, 1493.074
528.7600, 1579.408
529.9390, 1600.801
531.1180, 1389.257
532.2960, 1714.776
533.4740, 1607.367
534.6520, 1459.034
535.8300, 1673.769
537.0080, 1742.593
538.1850, 1565.500
539.3630, 1714.490
540.5400, 1729.571
541.7170, 1775.748
542.8940, 1883.017
544.0700, 1696.375
545.2470, 1734.815
546.4230, 1708.338
547.5990, 1693.943
548.7750, 1907.628
549.9510, 1545.404
551.1270, 1513.275
552.3020, 1736.242
553.4780, 1690.321
554.6530, 1695.519
555.8280, 1427.854
557.0030, 1767.360
558.1770, 1508.038
559.3520, 1431.950
560.5260, 1467.053
561.7000, 1470.310
562.8740, 1448.688
564.0480, 1443.283
565.2220, 1411.380
566.3950, 1522.007
567.5680, 1345.187
568.7420, 1327.522
569.9150, 1306.143
571.0870, 1585.967
572.2600, 1528.971
573.4320, 1441.148
574.6050, 1376.490
575.7770, 1320.801
576.9490, 1198.057
578.1210, 1198.599
579.2920, 1113.664
580.4640, 1113.040
581.6350, 1065.271
582.8060, 1093.293
583.9770, 1216.203
585.1480, 1130.206
586.3190, 1219.035
587.4890, 1201.521
588.6590, 1140.633
589.8290, 1079.170
590.9990, 992.5312
592.1690, 946.1221
593.3390, 879.6494
594.5080, 838.6738
595.6770, 792.2490
596.8470, 741.2246
598.0160, 663.9961
599.1840, 687.1738
600.3530, 613.4365
601.5210, 673.7842
602.6900, 714.2207
603.8580, 732.7383
605.0260, 680.3369
606.1930, 666.0283
607.3610, 689.7959
608.5280, 597.6348
609.6960, 658.5459
610.8630, 792.5254
612.0300, 666.5752
613.1970, 751.6934
614.3630, 707.8848
615.5300, 551.1484
616.6960, 682.4795
617.8620, 713.8760
619.0280, 622.3389
620.1940, 537.8672
621.3590, 514.4609
622.5250, 398.1201
623.6900, 482.8457
624.8550, 311.6348
626.0200, 174.4893
627.1850, 344.4102
628.3490, 130.3955
629.5140, 61.44434
630.6780, 46.56055
631.8420, 50.25977
633.0060, 1.020508
634.1700, 6.717773
635.3330, 56.35254
636.4970, 96.92871
637.6600, 247.4551
638.8230, 146.9609
639.9860, 198.4258
641.1490, 96.86230
642.3110, 65.91602
643.4740, 137.5762
644.6360, 17.86328
645.7980, 26.90918
646.9600, 49.25391
648.1220, 137.3613
649.2840, 97.57227
650.4450, 150.5693
651.6060, 367.6279
652.7670, 350.7480
653.9280, 592.9297
655.0890, 396.1729
656.2500, 517.4766
657.4100, 742.8418
658.5700, 764.2656
659.7300, 830.3096
660.8900, 643.2930
662.0500, 786.8955
663.2100, 688.5566
664.3690, 543.2754
665.5280, 471.0527
666.6880, 524.8857
667.8460, 443.7764
669.0050, 380.7227
670.1640, 431.7236
671.3220, 411.7812
672.4810, 474.8936
673.6390, 440.0586
674.7970, 370.2783
675.9540, 501.5518
677.1120, 440.8770
678.2690, 579.2529
679.4270, 570.6807
680.5840, 688.1592
681.7410, 698.6875
682.8980, 706.2646
684.0540, 808.8906
685.2110, 822.5645
686.3670, 792.2861
687.5230, 863.3789
688.6790, 1089.212
689.8350, 961.6279
690.9900, 1084.240
692.1460, 1360.107
693.3010, 1376.457
694.4560, 1535.606
695.6110, 1536.743
696.7660, 1738.949
697.9210, 1838.866
699.0750, 1930.602
700.2290, 2133.075
701.3840, 2196.395
702.5370, 2292.853
703.6910, 2582.146
704.8450, 2787.833
705.9980, 3023.396
707.1520, 3191.838
708.3050, 3394.641
709.4580, 3829.508
710.6110, 4199.171
711.7630, 4632.850
712.9160, 4975.521
714.0680, 5315.661
715.2200, 5754.381
716.3720, 6040.846
717.5240, 6638.484
718.6760, 7260.993
719.8270, 7728.300
720.9780, 8567.929
722.1300, 8712.002
723.2810, 9022.832
724.4310, 9104.608
725.5820, 9624.046
726.7330, 9522.072
727.8830, 9558.720
729.0330, 9518.247
730.1830, 9390.820
731.3330, 9399.944
732.4830, 9374.585
733.6320, 9546.643
734.7810, 9356.004
735.9310, 9552.773
737.0800, 9471.539
738.2290, 9522.902
739.3770, 9400.391
740.5260, 9371.200
741.6740, 9223.886
742.8220, 9031.072
743.9700, 9319.718
745.1180, 9329.269
746.2660, 9472.320
747.4130, 9296.071
748.5610, 9655.575
749.7080, 9585.500
750.8550, 9604.938
752.0020, 9773.804
753.1490, 9763.725
754.2950, 9935.729
755.4420, 9881.263
756.5880, 9919.780
757.7340, 9927.048
758.8800, 9969.186
760.0250, 9992.392
761.1710, 9903.460
762.3160, 9958.539
763.4620, 10135.55
764.6070, 10272.54
765.7520, 10451.49
766.8960, 10524.41
768.0410, 10589.30
769.1850, 10652.16
770.3300, 10516.44
771.4740, 10483.79
772.6180, 10397.86
773.7610, 10140.95
774.9050, 10000.31
776.0480, 9597.920
777.1920, 9217.134
778.3350, 8955.010
779.4780, 8474.192
780.6200, 7954.884
781.7630, 7708.131
782.9060, 7184.389
784.0480, 7216.786
785.1900, 6907.590
786.3320, 6660.662
787.4740, 6386.944
788.6150, 6340.185
789.7570, 6167.386
790.8980, 6051.546
792.0390, 5794.244
793.1800, 5552.740
794.3210, 5237.775
795.4620, 4965.769
796.6020, 4734.716
797.7420, 4490.451
798.8830, 4576.482
800.0230, 4054.300
801.1620, 3783.070
802.3020, 3530.798
803.4420, 3027.477
804.5810, 2805.109
805.7200, 2551.697
806.8590, 2295.236
807.9980, 2056.727
809.1370, 1868.199
810.2750, 2003.562
811.4140, 1627.906
812.5520, 1364.201
813.6900, 1468.445
814.8280, 1192.638
815.9650, 1018.780
817.1030, 897.8701
818.2400, 825.9072
819.3780, 839.8926
820.5150, 690.8232
821.6520, 434.7012
822.7880, 527.5244
823.9250, 268.2939
825.0610, 346.0029
826.1980, 222.6582
827.3340, 191.2520
828.4700, 36.78125
829.6050, 12.22656
830.7410, 45.42969
831.8760, 123.2178
833.0120, 153.1787
834.1470, 353.2412
835.2820, 125.0127
836.4160, 8.899414
837.5510, 53.66113
838.6860, 257.4785
839.8200, 109.4297
840.9540, 145.6865
842.0880, 189.6777
843.2220, 22.44043
844.3550, 237.9102
845.4890, 30.20801
846.6220, 9.584961
847.7550, 96.46973
848.8880, 17.16992
850.0210, 5.016602
851.1540, 157.9795
852.2860, 218.2900
853.4190, 112.6816
854.5510, 61.63965
855.6830, 168.7588
856.8150, 141.0967
857.9460, 67.63965
859.0780, 36.65137
860.2090, 19.24902
861.3410, 87.11426
862.4720, 0.2373050
863.6020, 41.49121
864.7330, 86.90137
865.8640, 132.5088
866.9940, 35.83496
868.1240, 34.04492
869.2540, 247.1367
870.3840, 34.84570
871.5140, 45.01953
872.6440, 96.77051
873.7730, 263.4268
874.9020, 230.4287
876.0320, 96.51660
877.1600, 182.9277
878.2890, 155.2617
879.4180, 73.51172
880.5460, 197.6582
881.6750, 312.7275
882.8030, 176.7266
883.9310, 286.6455
885.0590, 238.4922
886.1860, 202.2656
887.3140, 152.9629
888.4410, 181.5762
889.5680, 303.1113
890.6950, 396.5742
891.8220, 392.9678
892.9490, 447.2949
894.0750, 471.5547
895.2020, 448.7480
896.3280, 484.4053
897.4540, 465.5088
898.5800, 514.9365
899.7050, 472.8682
900.8310, 507.7354
901.9560, 584.5381
903.0820, 547.2793
904.2070, 653.9580
905.3320, 539.5723
906.4560, 670.1230
907.5810, 617.6123
908.7050, 815.0400
909.8300, 694.4150
910.9540, 640.7314
912.0780, 833.0166
913.2010, 998.2500
914.3250, 946.1768
915.4480, 919.5752
916.5720, 937.6562
917.6950, 941.6865
918.8180, 967.6562
919.9410, 982.5635
921.0630, 805.4277
922.1860, 980.2461
923.3080, 906.0215
924.4300, 976.7559
925.5520, 1083.440
926.6740, 1117.078
927.7960, 1157.669
928.9170, 1241.213
930.0390, 1102.719
931.1600, 1251.196
932.2810, 1267.639
933.4020, 1214.023
934.5230, 1465.350
935.6430, 1405.627
936.7640, 1484.846
937.8840, 1337.024
939.0040, 1450.145
940.1240, 1592.214
941.2440, 1600.226
942.3630, 1504.198
943.4830, 1625.114
944.6020, 1721.971
945.7210, 1633.769
946.8400, 1876.510
947.9590, 1944.192
949.0770, 2003.818
950.1960, 1952.386
951.3140, 2213.896
952.4320, 2215.351
953.5500, 2127.747
954.6680, 2236.089
955.7860, 2400.372
956.9030, 2241.603
958.0210, 2504.775
959.1380, 2428.570
960.2550, 2553.613
961.3720, 2629.065
962.4890, 2637.311
963.6050, 2568.292
964.7220, 2629.780
965.8380, 2699.486
966.9540, 2732.135
968.0700, 2805.732
969.1860, 2682.607
970.3010, 2709.648
971.4170, 2837.939
972.5320, 2650.371
973.6470, 2608.649
974.7620, 2618.081
975.8770, 2913.100
976.9910, 2831.227
978.1060, 2680.459
979.2200, 2775.312
980.3340, 2621.088
981.4480, 2641.045
982.5620, 2586.971
983.6760, 2642.352
984.7890, 2519.274
985.9030, 2549.435
987.0160, 2557.584
988.1290, 2511.048
989.2420, 2490.291
990.3550, 2465.183
991.4670, 2374.994
992.5800, 2307.336
993.6920, 2234.787
994.8040, 2293.486
995.9160, 2180.389
997.0280, 2140.680
998.1390, 2320.316
999.2510, 2024.046
1000.362, 2210.698
1001.473, 2136.772
1002.584, 1909.705
1003.695, 1973.373
1004.805, 2019.115
1005.916, 2058.414
1007.026, 1941.686
1008.136, 2052.329
1009.246, 1749.213
1010.356, 1986.504
1011.466, 2131.755
1012.576, 2187.421
1013.685, 1884.754
1014.794, 2044.606
1015.903, 2020.782
1017.012, 1988.685
1018.121, 2213.520
1019.229, 1965.747
1020.338, 2186.128
1021.446, 2076.492
1022.554, 2195.413
1023.662, 2132.988
1024.770, 2027.940
1025.878, 2275.867
1026.985, 2270.010
1028.092, 2267.245
1029.200, 2276.375
1030.307, 2169.604
1031.413, 2335.786
1032.520, 2291.999
1033.627, 2168.196
1034.733, 2579.393
1035.839, 2369.172
1036.945, 2505.354
1038.051, 2553.528
1039.157, 2370.696
1040.262, 2436.859
1041.368, 2424.522
1042.473, 2587.686
1043.578, 2469.833
1044.683, 2478.585
1045.788, 2491.851
1046.893, 2531.983
1047.997, 2523.776
1049.101, 2598.900
1050.205, 2556.426
1051.309, 2568.544
1052.413, 2526.658
1053.517, 2447.136
1054.621, 2464.133
1055.724, 2561.859
1056.827, 2444.307
1057.930, 2471.029
1059.033, 2447.311
1060.136, 2577.552
1061.238, 2537.645
1062.341, 2619.712
1063.443, 2699.952
1064.545, 2564.031
1065.647, 2480.754
1066.749, 2554.844
1067.850, 2496.602
1068.952, 2616.689
1070.053, 2464.438
1071.154, 2502.523
1072.255, 2373.454
1073.356, 2403.540
1074.457, 2374.570
1075.557, 2229.657
1076.658, 2207.745
1077.758, 2097.833
1078.858, 2097.923
1079.958, 1945.015
1081.057, 2105.109
1082.157, 2063.205
1083.256, 1928.305
1084.356, 1900.406
1085.455, 1873.512
1086.554, 1913.620
1087.653, 1850.724
1088.751, 1817.851
1089.850, 1709.973
1090.948, 1853.101
1092.046, 1678.234
1093.144, 1560.373
1094.242, 1736.521
1095.340, 1559.680
1096.437, 1597.857
1097.534, 1739.065
1098.632, 1394.317
1099.729, 1389.635
1100.826, 1379.024
1101.922, 1286.612
1103.019, 1250.417
1104.115, 1287.747
1105.212, 1158.391
1106.308, 1117.139
1107.404, 1183.953
1108.499, 1123.845
1109.595, 999.8301
1110.691, 835.8506
1111.786, 891.9717
1112.881, 921.1426
1113.976, 715.3574
1115.071, 782.5938
1116.166, 651.8672
1117.260, 656.2969
1118.355, 682.5215
1119.449, 703.8721
1120.543, 690.2969
1121.637, 699.5811
1122.731, 682.9453
1123.824, 685.0137
1124.918, 641.7344
1126.011, 628.9814
1127.104, 607.1211
1128.197, 663.1582
1129.290, 433.0752
1130.382, 432.0488
1131.475, 277.0928
1132.567, 361.1611
1133.659, 320.2686
1134.751, 270.3262
1135.843, 275.5811
1136.935, 223.8037
1138.027, 247.0664
1139.118, 272.3574
1140.209, 280.6660
1141.300, 373.9951
1142.391, 326.3525
1143.482, 193.7324
1144.573, 261.1338
1145.663, 249.5713
1146.754, 201.0293
1147.844, 219.5049
1148.934, 158.0020
1150.024, 126.5176
1151.113, 125.0898
1152.203, 6.682617
1153.292, 207.3105
1154.381, 128.9961
1155.470, 311.7002
1156.559, 253.8438
1157.648, 181.1943
1158.737, 156.9795
1159.825, 51.79980
1160.913, 12.63574
1162.001, 193.5068
1163.089, 110.2080
1164.177, 78.93359
1165.265, 171.2559
1166.352, 26.78320
1167.440, 54.19629
1168.527, 142.1904
1169.614, 88.20215
1170.701, 33.22949
1171.788, 20.72559
1172.874, 36.26074
1173.961, 65.38770
1175.047, 46.53613
1176.133, 6.459961
1177.219, 15.62988
1178.305, 46.26270
1179.390, 16.84473
1180.476, 17.03223
1181.561, 39.10254
1182.646, 8.523438
1183.731, 76.57812
1184.816, 40.42285
1185.901, 87.26855
1186.985, 93.13184
1188.070, 61.01855
1189.154, 70.90234
1190.238, 69.79883
1191.322, 66.70605
1192.406, 102.6250
1193.489, 140.5713
1194.573, 120.5654
1195.656, 18.59375
1196.739, 107.3857
1197.822, 58.61719
1198.905, 110.3730
1199.988, 94.62109
1201.070, 49.36133
1202.153, 41.63965
1203.235, 108.3594
1204.317, 98.62500
1205.399, 98.36328
1206.481, 178.3701
1207.562, 125.3955
1208.644, 165.4355
1209.725, 289.4951
1210.806, 284.5713
1211.887, 265.6670
1212.968, 180.7783
1214.049, 176.9082
1215.129, 254.0566
1216.209, 303.2207
1217.290, 349.4043
1218.370, 405.6045
1219.450, 310.8223
1220.529, 340.0586
1221.609, 433.3115
1222.688, 369.5820
1223.768, 518.8691
1224.847, 488.1729
1225.926, 707.4941
1227.005, 664.8311
1228.083, 441.1836
1229.162, 589.5527
1230.240, 480.9355
1231.318, 733.3350
1232.396, 561.7490
1233.474, 590.1768
1234.552, 493.6191
1235.629, 611.0762
1236.707, 666.5459
1237.784, 766.0303
1238.861, 693.4424
1239.938, 794.9512
1241.015, 810.4727
1242.092, 597.0049
1243.168, 749.5488
1244.244, 767.1035
1245.321, 604.6689
1246.397, 552.2461
1247.473, 634.8340
1248.548, 613.4336
1249.624, 627.0430
1250.699, 659.6631
1251.775, 688.1729
1252.850, 542.9316
1253.925, 712.5801
1254.999, 696.2393
1256.074, 544.9062
1257.148, 671.5820
1258.223, 620.2676
1259.297, 559.9590
1260.371, 472.6582
1261.445, 471.3652
1262.519, 428.5088
1263.592, 486.7988
1264.666, 434.5264
1265.739, 455.4619
1266.812, 536.0020
1267.885, 474.7490
1268.958, 505.5029
1270.030, 577.2617
1271.103, 484.0283
1272.175, 457.8008
1273.247, 436.5791
1274.319, 419.4844
1275.391, 431.4648
1276.463, 434.0684
1277.535, 460.8691
1278.606, 420.6777
1279.677, 419.1289
1280.748, 446.6572
1281.819, 427.2744
1282.890, 469.1387
1283.961, 408.9727
1285.031, 329.4453
1286.102, 313.5146
1287.172, 284.4062
1288.242, 452.3115
1289.312, 253.1709
1290.381, 405.3193
1291.451, 360.9766
1292.520, 431.3682
1293.590, 344.7559
1294.659, 399.2705
1295.728, 440.3262
1296.797, 549.2158
1297.865, 465.1104
1298.934, 433.0088
1300.002, 416.9111
1301.070, 372.3721
1302.138, 424.2109
1303.206, 190.1260
1304.274, 404.4355
1305.341, 234.2305
1306.409, 311.1602
1307.476, 471.4297
1308.543, 308.3701
1309.610, 204.9141
1310.677, 377.8662
1311.744, 414.8252
1312.810, 403.4971
1313.877, 333.9619
1314.943, 187.9414
1316.009, 237.5840
1317.075, 342.5557
1318.140, 271.3750
1319.206, 350.2363
1320.272, 224.2510
1321.337, 337.2979
1322.402, 79.17676
1323.467, 317.2227
1324.532, 368.6299
1325.596, 244.6758
1326.661, 246.0615
1327.725, 327.1250
1328.790, 199.5264
1329.854, 146.5977
1330.918, 126.8330
