##NAMES=Fluor-uvite
##RRUFFID=R050172
##IDEAL CHEMISTRY=CaMg_3_(Al_5_Mg)(Si_6_O_18_)(BO_3_)_3_(OH)_3_F
##LOCALITY=Pierrepont, New York, USA
##OWNER=RRUFF
##SOURCE=Marcus Origlieri
##DESCRIPTION=Black prismatic crystal
##STATUS=The identification of this mineral has been confirmed by X-ray diffraction and chemical analysis
##URL=rruff.info/R050172
##MEASURED CHEMISTRY=(Ca_0.64_Na_0.36_)(Mg_0.56_Fe^2+^_0.34_Al_0.08_Ti_0.02_)_3_(Mg_1.00_Al_5.00_)(BO_3_)_3_Si_6.00_O_18_((OH)_3.45_F_0.55_)
##PIN_ID=M00231
##ORIENTATION=Laser parallel to c* (0 0 1). Fiducial mark perpendicular to laser is parallel to -a [-1 0 0]
166.1800, 0.0000000E+00
167.4110, 11.76172
168.6410, 5.332031
169.8720, 106.0137
171.1020, 217.8477
172.3320, 98.99414
173.5620, 146.1660
174.7910, 159.3418
176.0210, 86.75781
177.2500, 159.9766
178.4790, 229.5781
179.7080, 242.3438
180.9370, 371.5703
182.1650, 424.3691
183.3940, 238.9688
184.6220, 438.7363
185.8500, 453.1895
187.0780, 463.3984
188.3050, 619.3848
189.5330, 737.2266
190.7600, 940.3066
191.9870, 1062.023
193.2140, 1057.885
194.4410, 1012.574
195.6680, 1243.066
196.8940, 1556.242
198.1200, 1649.295
199.3470, 2000.869
200.5720, 2142.936
201.7980, 2516.299
203.0240, 2604.443
204.2490, 2268.254
205.4740, 2196.646
206.6990, 1977.129
207.9240, 2077.109
209.1490, 2034.010
210.3740, 2059.086
211.5980, 2154.027
212.8220, 2236.820
214.0460, 2215.979
215.2700, 2065.307
216.4930, 1979.594
217.7170, 1986.973
218.9400, 1961.350
220.1630, 1761.246
221.3860, 1874.524
222.6090, 1673.132
223.8320, 1518.390
225.0540, 1502.221
226.2760, 1581.342
227.4980, 1605.527
228.7200, 1607.877
229.9420, 1737.612
231.1630, 1626.402
232.3850, 1744.866
233.6060, 1853.657
234.8270, 1766.054
236.0480, 1792.652
237.2690, 1586.132
238.4890, 1602.012
239.7090, 1674.280
240.9290, 1558.745
242.1490, 1353.886
243.3690, 1362.326
244.5890, 1225.560
245.8080, 930.3135
247.0270, 952.9248
248.2470, 916.1133
249.4650, 670.6611
250.6840, 710.5264
251.9030, 535.6699
253.1210, 710.0488
254.3390, 581.6279
255.5570, 480.3701
256.7750, 496.2393
257.9930, 593.2041
259.2100, 638.4209
260.4280, 630.4795
261.6450, 629.3330
262.8620, 569.3936
264.0790, 544.3936
265.2950, 439.3301
266.5120, 398.1855
267.7280, 340.9385
268.9440, 233.5674
270.1600, 310.0469
271.3760, 205.3477
272.5920, 171.4355
273.8070, 227.2939
275.0220, 16.90430
276.2370, 158.2568
277.4520, 195.3477
278.6670, 73.16602
279.8820, 50.68750
281.0960, 10.90234
282.3100, 89.21582
283.5240, 34.66211
284.7380, 36.44531
285.9520, 14.54004
287.1650, 41.92578
288.3780, 48.59961
289.5920, 185.5752
290.8050, 205.8828
292.0170, 187.5283
293.2300, 129.5293
294.4430, 195.9307
295.6550, 329.6777
296.8670, 182.8271
298.0790, 165.4648
299.2910, 70.54785
300.5020, 167.0000
301.7140, 105.7607
302.9250, 0.3281250
304.1360, 27.78809
305.3470, 84.68359
306.5580, 0.5468750
307.7680, 55.33496
308.9780, 81.26172
310.1890, 108.7744
311.3990, 182.7627
312.6090, 262.7969
313.8180, 384.4150
315.0280, 484.4844
316.2370, 577.8281
317.4460, 623.7236
318.6550, 939.9121
319.8640, 999.7695
321.0730, 975.1104
322.2810, 1152.595
323.4890, 1116.817
324.6980, 1367.751
325.9060, 1452.152
327.1130, 1355.262
328.3210, 1619.891
329.5280, 1501.469
330.7360, 1632.109
331.9430, 1780.248
333.1500, 1796.861
334.3560, 1805.987
335.5630, 1801.604
336.7690, 1865.872
337.9760, 1882.342
339.1820, 2028.471
340.3870, 2030.105
341.5930, 2181.242
342.7990, 2171.869
344.0040, 2388.968
345.2090, 2428.504
346.4140, 2463.491
347.6190, 2562.926
348.8240, 2597.824
350.0280, 2524.016
351.2330, 2815.128
352.4370, 3027.510
353.6410, 3165.947
354.8440, 2981.435
356.0480, 3234.949
357.2520, 3325.814
358.4550, 3418.762
359.6580, 3760.178
360.8610, 3670.083
362.0640, 4026.232
363.2660, 4131.953
364.4690, 4323.547
365.6710, 4512.692
366.8730, 4648.318
368.0750, 4748.296
369.2770, 4977.164
370.4780, 4844.950
371.6800, 4893.316
372.8810, 4856.033
374.0820, 4524.704
375.2830, 4600.000
376.4830, 4493.734
377.6840, 4475.119
378.8840, 4048.285
380.0840, 3871.594
381.2840, 3820.762
382.4840, 3669.799
383.6840, 3626.740
384.8830, 3428.880
386.0830, 3097.481
387.2820, 3044.785
388.4810, 3002.907
389.6800, 2800.045
390.8780, 2786.611
392.0770, 2728.416
393.2750, 2540.961
394.4730, 2484.370
395.6710, 2355.417
396.8690, 2175.568
398.0660, 2206.562
399.2640, 1914.441
400.4610, 1890.122
401.6580, 1946.073
402.8550, 1744.239
404.0520, 1790.818
405.2490, 1785.366
406.4450, 1872.940
407.6410, 1727.047
408.8370, 1568.980
410.0330, 1533.702
411.2290, 1557.977
412.4240, 1504.481
413.6200, 1521.076
414.8150, 1353.262
416.0100, 1293.438
417.2050, 1303.870
418.4000, 1247.832
419.5940, 1272.436
420.7880, 1143.973
421.9830, 955.6416
423.1770, 950.5898
424.3700, 763.7520
425.5640, 829.0566
426.7580, 827.3193
427.9510, 690.2266
429.1440, 597.2441
430.3370, 556.8643
431.5300, 517.9922
432.7220, 536.9316
433.9150, 470.5049
435.1070, 387.0410
436.2990, 448.9639
437.4910, 379.9189
438.6830, 315.6504
439.8750, 299.3867
441.0660, 252.5908
442.2570, 164.1445
443.4480, 261.9219
444.6390, 240.9170
445.8300, 141.0381
447.0210, 157.6504
448.2110, 73.98047
449.4010, 79.27441
450.5910, 43.29883
451.7810, 32.26367
452.9710, 54.24414
454.1610, 236.9629
455.3500, 140.8711
456.5390, 143.4844
457.7280, 257.0527
458.9170, 46.33105
460.1060, 167.9180
461.2940, 86.62109
462.4830, 198.5742
463.6710, 233.7051
464.8590, 398.6660
466.0470, 218.3047
467.2350, 375.7314
468.4220, 334.1494
469.6090, 318.8623
470.7970, 337.1143
471.9840, 368.7305
473.1700, 439.2871
474.3570, 435.2666
475.5440, 459.2305
476.7300, 458.6211
477.9160, 475.8105
479.1020, 494.3535
480.2880, 523.5000
481.4740, 577.7041
482.6590, 697.8652
483.8440, 721.9873
485.0300, 784.0742
486.2140, 689.1270
487.3990, 751.1465
488.5840, 746.1387
489.7680, 777.1035
490.9530, 815.0449
492.1370, 794.9658
493.3210, 845.9268
494.5040, 894.7529
495.6880, 898.9912
496.8720, 932.5137
498.0550, 925.2549
499.2380, 890.2471
500.4210, 881.1650
501.6040, 849.8047
502.7860, 832.9033
503.9690, 845.9229
505.1510, 802.0352
506.3330, 771.2207
507.5150, 774.3311
508.6970, 780.4053
509.8780, 787.3408
511.0600, 829.2432
512.2410, 820.4102
513.4220, 830.5586
514.6030, 894.0283
515.7840, 925.0039
516.9640, 996.0098
518.1440, 1062.048
519.3250, 1096.125
520.5050, 988.2422
521.6850, 1233.401
522.8640, 1162.607
524.0440, 1381.857
525.2230, 1387.160
526.4020, 1465.516
527.5820, 1391.921
528.7600, 1547.383
529.9390, 1436.900
531.1180, 1618.477
532.2960, 1562.113
533.4740, 1409.818
534.6520, 1550.589
535.8300, 1647.428
537.0080, 1802.343
538.1850, 1594.333
539.3630, 1644.407
540.5400, 1761.556
541.7170, 1655.785
542.8940, 1673.099
544.0700, 1572.498
545.2470, 1612.245
546.4230, 1714.531
547.5990, 1683.165
548.7750, 1707.880
549.9510, 1722.676
551.1270, 1694.243
552.3020, 1632.521
553.4780, 1627.584
554.6530, 1561.744
555.8280, 1311.393
557.0030, 1494.691
558.1770, 1590.335
559.3520, 1603.032
560.5260, 1283.883
561.7000, 1393.671
562.8740, 1331.794
564.0480, 1263.025
565.2220, 1433.664
566.3950, 1163.770
567.5680, 1331.066
568.7420, 1139.186
569.9150, 1334.662
571.0870, 1442.523
572.2600, 1467.446
573.4320, 1160.486
574.6050, 1282.488
575.7770, 1232.854
576.9490, 1176.213
578.1210, 1359.245
579.2920, 1101.646
580.4640, 1281.101
581.6350, 1327.784
582.8060, 1391.417
583.9770, 1286.012
585.1480, 1223.187
586.3190, 1229.551
587.4890, 1201.863
588.6590, 1054.469
589.8290, 1191.906
590.9990, 1039.533
592.1690, 1007.204
593.3390, 814.9951
594.5080, 846.0371
595.6770, 812.3828
596.8470, 643.8164
598.0160, 783.3320
599.1840, 827.9277
600.3530, 806.6055
601.5210, 748.6064
602.6900, 808.6826
603.8580, 833.7422
605.0260, 825.6094
606.1930, 684.7783
607.3610, 715.4717
608.5280, 677.5293
609.6960, 636.8076
610.8630, 691.8447
612.0300, 570.6348
613.1970, 624.2822
614.3630, 608.2295
615.5300, 624.1484
616.6960, 571.0078
617.8620, 539.2773
619.0280, 576.7842
620.1940, 576.0508
621.3590, 417.0459
622.5250, 346.9795
623.6900, 337.9717
624.8550, 353.0215
626.0200, 317.1279
627.1850, 240.2930
628.3490, 138.5176
629.5140, 84.79883
630.6780, 102.1387
631.8420, 132.5352
633.0060, 90.98926
634.1700, 31.50098
635.3330, 178.9307
636.4970, 54.33398
637.6600, 231.6895
638.8230, 82.03223
639.9860, 78.32910
641.1490, 112.5801
642.3110, 177.7920
643.4740, 162.9805
644.6360, 25.14062
645.7980, 89.24707
646.9600, 141.3125
648.1220, 33.65625
649.2840, 401.6787
650.4450, 6.754883
651.6060, 273.8848
652.7670, 514.0713
653.9280, 473.3105
655.0890, 437.6045
656.2500, 683.9512
657.4100, 842.3516
658.5700, 676.8037
659.7300, 741.3086
660.8900, 630.8662
662.0500, 616.4746
663.2100, 507.1348
664.3690, 569.8457
665.5280, 515.6074
666.6880, 415.4180
667.8460, 380.2793
669.0050, 246.1885
670.1640, 469.1465
671.3220, 333.1523
672.4810, 449.2070
673.6390, 614.3076
674.7970, 225.4551
675.9540, 426.6475
677.1120, 420.8867
678.2690, 518.1699
679.4270, 572.4980
680.5840, 503.8701
681.7410, 665.2842
682.8980, 542.7402
684.0540, 595.2393
685.2110, 867.7793
686.3670, 976.3613
687.5230, 924.3613
688.6790, 997.4609
689.8350, 1081.302
690.9900, 973.8066
692.1460, 1127.904
693.3010, 1264.800
694.4560, 1253.481
695.6110, 1463.967
696.7660, 1413.762
697.9210, 1559.814
699.0750, 1682.388
700.2290, 1748.772
701.3840, 2002.016
702.5370, 2125.260
703.6910, 2235.996
704.8450, 2454.343
705.9980, 2625.476
707.1520, 2826.525
708.3050, 3085.022
709.4580, 3473.154
710.6110, 3741.063
711.7630, 4090.732
712.9160, 4437.696
714.0680, 4823.070
715.2200, 5330.936
716.3720, 5660.371
717.5240, 6159.398
718.6760, 6551.537
719.8270, 7107.918
720.9780, 7565.496
722.1300, 8035.363
723.2810, 8356.061
724.4310, 8470.210
725.5820, 8671.771
726.7330, 8560.228
727.8830, 8672.963
729.0330, 8795.977
730.1830, 8750.061
731.3330, 8885.253
732.4830, 8973.694
733.6320, 9015.649
734.7810, 8912.597
735.9310, 8968.673
737.0800, 8944.774
738.2290, 8911.729
739.3770, 8961.404
740.5260, 8818.888
741.6740, 8842.674
742.8220, 8781.446
743.9700, 8741.467
745.1180, 8580.835
746.2660, 8886.075
747.4130, 8669.683
748.5610, 8870.982
749.7080, 8872.545
750.8550, 8911.004
752.0020, 8797.131
753.1490, 8948.799
754.2950, 8921.158
755.4420, 8945.600
756.5880, 9166.426
757.7340, 9060.263
758.8800, 8785.271
760.0250, 9000.092
761.1710, 8960.703
762.3160, 8991.289
763.4620, 9091.842
764.6070, 9358.555
765.7520, 9348.045
766.8960, 9379.502
768.0410, 9563.926
769.1850, 9473.317
770.3300, 9432.675
771.4740, 9683.996
772.6180, 9433.284
773.7610, 9264.169
774.9050, 8915.723
776.0480, 8571.013
777.1920, 8264.008
778.3350, 7865.036
779.4780, 7456.305
780.6200, 7320.935
781.7630, 7069.887
782.9060, 6692.570
784.0480, 6465.152
785.1900, 6254.504
786.3320, 5951.346
787.4740, 5886.146
788.6150, 5599.893
789.7570, 5600.611
790.8980, 5366.291
792.0390, 5186.568
793.1800, 5022.523
794.3210, 4786.076
795.4620, 4414.587
796.6020, 4172.055
797.7420, 4053.479
798.8830, 3748.859
800.0230, 3710.194
801.1620, 3231.486
802.3020, 2912.732
803.4420, 3005.933
804.5810, 2615.086
805.7200, 2199.192
806.8590, 2069.252
807.9980, 1902.264
809.1370, 1722.229
810.2750, 1587.143
811.4140, 1338.010
812.5520, 1282.828
813.6900, 1209.594
814.8280, 1215.310
815.9650, 1061.975
817.1030, 868.5898
818.2400, 798.1533
819.3780, 692.6631
820.5150, 570.1211
821.6520, 447.5264
822.7880, 532.8779
823.9250, 286.1758
825.0610, 276.4160
826.1980, 351.5986
827.3340, 206.7227
828.4700, 95.78613
829.6050, 139.7803
830.7410, 2.291992
831.8760, 76.47559
833.0120, 95.07031
834.1470, 144.7598
835.2820, 134.9980
836.4160, 145.8730
837.5510, 77.94141
838.6860, 60.16699
839.8200, 225.5439
840.9540, 329.1582
842.0880, 117.0664
843.2220, 146.1572
844.3550, 24.44727
845.4890, 128.8740
846.6220, 28.49219
847.7550, 87.24902
848.8880, 11.17676
850.0210, 2.763672
851.1540, 186.4219
852.2860, 33.83301
853.4190, 22.38867
854.5510, 23.91504
855.6830, 203.8975
856.8150, 94.94531
857.9460, 67.17383
859.0780, 35.43359
860.2090, 26.92578
861.3410, 62.30273
862.4720, 11.42285
863.6020, 116.7129
864.7330, 78.05371
865.8640, 85.36523
866.9940, 107.5693
868.1240, 104.3340
869.2540, 164.0088
870.3840, 229.6045
871.5140, 375.1279
872.6440, 260.5850
873.7730, 23.97070
874.9020, 51.23633
876.0320, 253.3926
877.1600, 75.47656
878.2890, 333.4609
879.4180, 165.3770
880.5460, 385.2139
881.6750, 413.9834
882.8030, 320.6885
883.9310, 388.3252
885.0590, 319.8945
886.1860, 338.3965
887.3140, 411.8291
888.4410, 277.1973
889.5680, 343.4961
890.6950, 317.7266
891.8220, 456.8887
892.9490, 449.0059
894.0750, 400.0576
895.2020, 438.0459
896.3280, 699.9707
897.4540, 506.8320
898.5800, 625.6318
899.7050, 432.3691
900.8310, 645.0449
901.9560, 627.6660
903.0820, 692.2412
904.2070, 598.7568
905.3320, 610.2109
906.4560, 595.6045
907.5810, 777.9355
908.7050, 849.2080
909.8300, 844.4346
910.9540, 817.6035
912.0780, 857.7344
913.2010, 799.8213
914.3250, 863.8613
915.4480, 863.8613
916.5720, 763.8174
917.6950, 997.7275
918.8180, 935.5928
919.9410, 920.4287
921.0630, 1041.219
922.1860, 1082.987
923.3080, 1031.716
924.4300, 1078.386
925.5520, 1144.045
926.6740, 1016.663
927.7960, 1156.230
928.9170, 1032.741
930.0390, 1233.215
931.1600, 1176.640
932.2810, 1256.016
933.4020, 1293.348
934.5230, 1191.622
935.6430, 1337.855
936.7640, 1444.030
937.8840, 1391.149
939.0040, 1568.212
940.1240, 1605.219
941.2440, 1631.169
942.3630, 1682.063
943.4830, 1734.902
944.6020, 1809.686
945.7210, 1809.416
946.8400, 1966.088
947.9590, 2068.707
949.0770, 1965.272
950.1960, 1909.783
951.3140, 2094.239
952.4320, 2076.642
953.5500, 2150.990
954.6680, 2223.287
955.7860, 2176.531
956.9030, 2240.722
958.0210, 2238.859
959.1380, 2181.566
960.2550, 2377.162
961.3720, 2586.002
962.4890, 2615.165
963.6050, 2665.723
964.7220, 2518.469
965.8380, 2697.414
966.9540, 2494.542
968.0700, 2642.344
969.1860, 2670.872
970.3010, 2693.865
971.4170, 2561.031
972.5320, 2729.320
973.6470, 2638.591
974.7620, 2619.352
975.8770, 2670.484
976.9910, 2665.632
978.1060, 2676.163
979.2200, 2733.127
980.3340, 2633.396
981.4480, 2571.867
982.5620, 2416.555
983.6760, 2550.929
984.7890, 2387.090
985.9030, 2313.293
987.0160, 2442.995
988.1290, 2400.339
989.2420, 2331.420
990.3550, 2454.230
991.4670, 2399.818
992.5800, 2253.090
993.6920, 2240.504
994.8040, 2168.438
995.9160, 2182.931
997.0280, 1950.496
998.1390, 1949.756
999.2510, 2012.706
1000.362, 1800.877
1001.473, 1922.728
1002.584, 2121.439
1003.695, 1953.606
1004.805, 1982.229
1005.916, 1981.438
1007.026, 1878.148
1008.136, 1906.439
1009.246, 1919.970
1010.356, 1829.597
1011.466, 1932.023
1012.576, 1924.954
1013.685, 1936.838
1014.794, 2004.957
1015.903, 1994.643
1017.012, 1956.004
1018.121, 2022.097
1019.229, 1917.891
1020.338, 1922.750
1021.446, 2136.906
1022.554, 2012.489
1023.662, 2033.338
1024.770, 1911.070
1025.878, 2048.017
1026.985, 2014.280
1028.092, 2236.331
1029.200, 2105.533
1030.307, 2168.906
1031.413, 2292.268
1032.520, 2235.623
1033.627, 2134.776
1034.733, 2278.696
1035.839, 2336.227
1036.945, 2287.834
1038.051, 2350.156
1039.157, 2271.473
1040.262, 2453.783
1041.368, 2395.089
1042.473, 2369.391
1043.578, 2240.686
1044.683, 2484.978
1045.788, 2383.297
1046.893, 2344.977
1047.997, 2421.824
1049.101, 2338.102
1050.205, 2241.379
1051.309, 2247.963
1052.413, 2256.025
1053.517, 2317.289
1054.621, 2291.959
1055.724, 2397.436
1056.827, 2319.721
1057.930, 2411.486
1059.033, 2322.229
1060.136, 2543.545
1061.238, 2215.799
1062.341, 2363.097
1063.443, 2331.955
1064.545, 2546.131
1065.647, 2441.877
1066.749, 2369.114
1067.850, 2326.584
1068.952, 2324.818
1070.053, 2288.055
1071.154, 2275.588
1072.255, 2148.521
1073.356, 2279.756
1074.457, 2070.989
1075.557, 2117.225
1076.658, 2001.461
1077.758, 1942.699
1078.858, 1949.938
1079.958, 1910.181
1081.057, 1903.425
1082.157, 1839.362
1083.256, 1747.922
1084.356, 1741.174
1085.455, 1745.434
1086.554, 1794.699
1087.653, 1761.967
1088.751, 1760.311
1089.850, 1599.518
1090.948, 1664.801
1092.046, 1596.090
1093.144, 1440.389
1094.242, 1537.692
1095.340, 1437.007
1096.437, 1404.334
1097.534, 1518.674
1098.632, 1431.047
1099.729, 1385.476
1100.826, 1302.965
1101.922, 1246.528
1103.019, 1178.164
1104.115, 1105.874
1105.212, 1084.645
1106.308, 976.4697
1107.404, 1028.393
1108.499, 999.4424
1109.595, 889.5645
1110.691, 928.7646
1111.786, 811.0137
1112.881, 711.3379
1113.976, 737.7129
1115.071, 638.2832
1116.166, 694.6406
1117.260, 595.1699
1118.355, 575.7930
1119.449, 664.4697
1120.543, 686.1973
1121.637, 618.9629
1122.731, 593.8281
1123.824, 540.7637
1124.918, 543.7627
1126.011, 511.8008
1127.104, 428.8789
1128.197, 290.9883
1129.290, 482.1484
1130.382, 366.3340
1131.475, 217.5498
1132.567, 370.7959
1133.659, 432.0684
1134.751, 297.3730
1135.843, 200.6973
1136.935, 215.0391
1138.027, 213.3965
1139.118, 342.7725
1140.209, 341.1992
1141.300, 267.6631
1142.391, 180.1533
1143.482, 132.6816
1144.573, 121.4463
1145.663, 97.79395
1146.754, 127.3818
1147.844, 202.9834
1148.934, 187.6045
1150.024, 179.2412
1151.113, 171.9033
1152.203, 108.5820
1153.292, 76.28027
1154.381, 32.01758
1155.470, 107.7734
1156.559, 87.44043
1157.648, 118.3350
1158.737, 8.125977
1159.825, 105.9658
1160.913, 45.82324
1162.001, 80.69434
1163.089, 17.58301
1164.177, 29.48535
1165.265, 44.59473
1166.352, 75.67480
1167.440, 13.76562
1168.527, 27.18750
1169.614, 48.15527
1170.701, 53.14160
1171.788, 104.1436
1172.874, 45.16211
1173.961, 96.19727
1175.047, 104.2461
1176.133, 49.68750
1177.219, 36.62598
1178.305, 59.56152
1179.390, 59.49316
1180.476, 4.564453
1181.561, 53.34863
1182.646, 117.2666
1183.731, 53.77832
1184.816, 161.1582
1185.901, 87.15332
1186.985, 1.829102
1188.070, 193.7031
1189.154, 91.25000
1190.238, 25.99121
1191.322, 4.021484
1192.406, 100.7881
1193.489, 36.16797
1194.573, 42.27637
1195.656, 53.24609
1196.739, 29.44531
1197.822, 66.17480
1198.905, 10.96973
1199.988, 16.33301
1201.070, 51.63379
1202.153, 15.78027
1203.235, 46.52441
1204.317, 46.49609
1205.399, 152.2021
1206.481, 158.2080
1207.562, 265.5098
1208.644, 265.5488
1209.725, 128.6045
1210.806, 246.6777
1211.887, 296.7686
1212.968, 463.8770
1214.049, 333.0029
1215.129, 341.9043
1216.209, 392.0645
1217.290, 398.2412
1218.370, 310.4346
1219.450, 282.6475
1220.529, 342.8760
1221.609, 287.1221
1222.688, 483.3857
1223.768, 444.6670
1224.847, 465.9648
1225.926, 563.2793
1227.005, 554.6104
1228.083, 604.7891
1229.162, 637.7842
1230.240, 661.7051
1231.318, 680.1016
1232.396, 699.5146
1233.474, 704.9414
1234.552, 752.3838
1235.629, 704.4502
1236.707, 591.3105
1237.784, 654.7939
1238.861, 683.2920
1239.938, 745.8027
1241.015, 611.3252
1242.092, 708.8613
1243.168, 787.4082
1244.244, 856.9668
1245.321, 666.5371
1246.397, 671.1191
1247.473, 556.7119
1248.548, 611.3154
1249.624, 647.9297
1250.699, 471.5537
1251.775, 630.1885
1252.850, 593.8330
1253.925, 695.4873
1254.999, 628.1504
1256.074, 625.8232
1257.148, 543.5039
1258.223, 541.0137
1259.297, 609.8916
1260.371, 534.5986
1261.445, 476.3125
1262.519, 500.0342
1263.592, 380.3467
1264.666, 393.0859
1265.739, 468.8320
1266.812, 432.3057
1267.885, 478.1572
1268.958, 452.9463
1270.030, 498.7236
1271.103, 445.3047
1272.175, 397.0098
1273.247, 545.8086
1274.319, 379.6133
1275.391, 367.0381
1276.463, 417.8555
1277.535, 491.6807
1278.606, 482.5107
1279.677, 308.9473
1280.748, 422.7930
1281.819, 411.8477
1282.890, 307.8711
1283.961, 478.7354
1285.031, 224.6182
1286.102, 376.3203
1287.172, 324.2041
1288.242, 413.5938
1289.312, 336.4902
1290.381, 260.3926
1291.451, 287.3008
1292.520, 226.6357
1293.590, 259.1680
1294.659, 192.4893
1295.728, 291.4160
1296.797, 309.1875
1297.865, 251.1367
1298.934, 261.4766
1300.002, 398.4365
1301.070, 309.4023
1302.138, 271.3721
1303.206, 376.3496
1304.274, 188.3301
1305.341, 363.2861
1306.409, 406.8838
1307.476, 416.3145
1308.543, 313.3193
1309.610, 161.3271
1310.677, 225.0342
1311.744, 271.2646
1312.810, 207.2998
1313.877, 223.9346
1314.943, 122.7686
1316.009, 316.7988
1317.075, 263.3535
1318.140, 402.9365
1319.206, 223.9521
1320.272, 233.0371
1321.337, 325.0801
1322.402, 262.5693
1323.467, 282.7490
1324.532, 131.3643
1325.596, 131.4961
1326.661, 263.4014
1327.725, 207.5518
1328.790, 259.7100
1329.854, 122.8779
1330.918, 277.0537
1331.981, 140.2402
