##NAMES=Fluorapatite
##RRUFFID=R050617
##IDEAL CHEMISTRY=Ca_5_(PO_4_)_3_F
##LOCALITY=Santa Cruz, Sonora, Mexico
##OWNER=RRUFF
##SOURCE=University of Arizona Mineral Museum
##DESCRIPTION=Tan colored hexagonal prism
##STATUS=The identification of this mineral is confirmed by single-crystal X-ray diffraction and chemical analysis.
##URL=rruff.info/R050617
##MEASURED CHEMISTRY=Ca_5.00_(P_1.00_O_4_)_3_(F_0.99_Cl_0.01_)
##PIN_ID=L00921
##ORIENTATION=Laser parallel to -a* (-1 0 0). Fiducial mark perpendicular to laser is parallel to c [0 0 1]
97.18200, 0.0000000E+00
98.41600, 1.452881
99.64900, 23.02490
100.8830, 25.87354
102.1160, 10.94873
103.3490, 23.94043
104.5820, 74.33789
105.8150, 428.7900
107.0470, 661.2969
108.2800, 872.1338
109.5120, 636.7505
110.7440, 567.7153
111.9760, 656.6870
113.2080, 687.3984
114.4400, 763.6479
115.6710, 666.2681
116.9030, 652.1084
118.1340, 653.1870
119.3650, 619.1279
120.5960, 650.7119
121.8270, 612.2593
123.0580, 662.5078
124.2880, 663.3906
125.5190, 771.8481
126.7490, 945.8394
127.9790, 1132.352
129.2090, 1518.382
130.4390, 1873.918
131.6680, 2418.925
132.8980, 3165.355
134.1270, 4054.167
135.3560, 5131.313
136.5850, 6459.759
137.8140, 7715.524
139.0430, 8350.527
140.2710, 8325.748
141.5000, 7316.170
142.7280, 5958.779
143.9560, 4839.561
145.1840, 3862.507
146.4120, 3077.604
147.6390, 2410.845
148.8670, 1872.221
150.0940, 1652.724
151.3210, 1418.346
152.5490, 1083.082
153.7750, 852.9243
155.0020, 829.9785
156.2290, 683.1934
157.4550, 682.8506
158.6810, 609.8022
159.9080, 419.0581
161.1340, 430.7993
162.3590, 379.6582
163.5850, 387.6743
164.8110, 289.7656
166.0360, 271.8789
167.2610, 97.97607
168.4860, 151.0615
169.7110, 185.1299
170.9360, 255.1553
172.1610, 185.0820
173.3850, 186.9575
174.6100, 295.7646
175.8340, 106.5381
177.0580, 149.7041
178.2820, 167.4395
179.5050, 112.1509
180.7290, 131.8623
181.9520, 126.5708
183.1760, 107.3013
184.3990, 132.0381
185.6220, 153.7866
186.8450, 150.5469
188.0670, 168.3950
189.2900, 166.1113
190.5120, 184.9170
191.7340, 196.5698
192.9560, 239.5728
194.1780, 227.4243
195.4000, 248.2910
196.6220, 268.1714
197.8430, 281.0083
199.0640, 293.9756
200.2860, 332.8984
201.5070, 360.8335
202.7270, 402.1533
203.9480, 422.6094
205.1690, 457.7061
206.3890, 444.6826
207.6090, 462.6675
208.8290, 431.6592
210.0490, 545.6577
211.2690, 450.4380
212.4890, 422.3999
213.7080, 565.3721
214.9280, 421.5791
216.1470, 245.0532
217.3660, 337.9058
218.5850, 201.4443
219.8030, 312.0889
221.0220, 220.6680
222.2400, 176.9429
223.4590, 94.01367
224.6770, 193.3320
225.8950, 168.8862
227.1120, 284.3853
228.3300, 191.6509
229.5480, 289.9717
230.7650, 121.2466
231.9820, 145.8223
233.1990, 138.1108
234.4160, 107.5088
235.6330, 152.8965
236.8490, 119.4502
238.0660, 229.0732
239.2820, 118.4229
240.4980, 84.76514
241.7140, 176.1001
242.9300, 147.4351
244.1460, 97.17334
245.3610, 48.32910
246.5770, 72.86475
247.7920, 18.73193
249.0070, 0.6831050
250.2220, 42.02051
251.4370, 64.54199
252.6510, 86.22363
253.8660, 24.05078
255.0800, 10.99707
256.2940, 27.90869
257.5080, 3.276855
258.7220, 0.5268550
259.9360, 21.06885
261.1490, 64.37207
262.3630, 38.90137
263.5760, 105.4946
264.7890, 59.14209
266.0020, 191.8398
267.2150, 122.5854
268.4270, 101.7920
269.6400, 138.6255
270.8520, 105.5029
272.0640, 174.4160
273.2760, 312.3682
274.4880, 206.3481
275.7000, 260.3550
276.9120, 332.3862
278.1230, 243.4380
279.3340, 420.5117
280.5450, 378.6040
281.7560, 347.7109
282.9670, 368.8335
284.1780, 259.9678
285.3880, 212.1138
286.5980, 303.2715
287.8090, 249.4360
289.0190, 181.6055
290.2290, 182.7803
291.4380, 255.9585
292.6480, 215.1387
293.8570, 253.3218
295.0670, 213.5049
296.2760, 243.6890
297.4850, 161.8730
298.6930, 294.0562
299.9020, 261.2378
301.1110, 261.4160
302.3190, 329.5913
303.5270, 225.7607
304.7350, 198.9229
305.9430, 297.0762
307.1510, 298.2188
308.3580, 202.3496
309.5660, 122.4668
310.7730, 98.08740
311.9800, 110.6641
313.1870, 50.74170
314.3940, 71.80664
315.6010, 130.8574
316.8070, 132.8950
318.0130, 125.8701
319.2200, 110.0947
320.4260, 75.92773
321.6310, 26.91357
322.8370, 5.122070
324.0430, 51.17480
325.2480, 23.86328
326.4540, 93.25977
327.6590, 17.21484
328.8640, 17.70410
330.0680, 39.24365
331.2730, 32.40381
332.4780, 32.85986
333.6820, 117.8979
334.8860, 13.41602
336.0900, 87.34619
337.2940, 84.74316
338.4980, 39.61963
339.7010, 41.79590
340.9050, 13.50732
342.1080, 17.74951
343.3110, 19.62842
344.5140, 66.71436
345.7170, 32.47510
346.9200, 80.29834
348.1220, 70.17480
349.3240, 51.27246
350.5270, 46.48047
351.7290, 47.40234
352.9310, 101.3018
354.1320, 6.012207
355.3340, 100.8594
356.5350, 43.25488
357.7370, 44.44385
358.9380, 21.66113
360.1390, 1.665527
361.3400, 0.6796880
362.5400, 53.62646
363.7410, 54.53711
364.9410, 71.40088
366.1410, 90.58545
367.3410, 0.9829100
368.5410, 106.8228
369.7410, 129.4355
370.9400, 130.0288
372.1400, 221.5938
373.3390, 190.1187
374.5380, 57.60254
375.7370, 88.06104
376.9360, 54.50000
378.1350, 224.9307
379.3330, 190.7930
380.5310, 167.4526
381.7300, 289.1294
382.9280, 180.4639
384.1260, 199.0029
385.3230, 337.1748
386.5210, 369.6562
387.7180, 374.7510
388.9160, 338.6079
390.1130, 453.1133
391.3100, 428.6831
392.5060, 486.4448
393.7030, 516.2344
394.9000, 458.1318
396.0960, 371.0518
397.2920, 388.9634
398.4880, 282.9663
399.6840, 315.6182
400.8800, 315.0469
402.0750, 359.1475
403.2710, 317.4644
404.4660, 229.4360
405.6610, 270.0088
406.8560, 172.9854
408.0510, 194.2266
409.2450, 373.5176
410.4400, 223.0586
411.6340, 79.10498
412.8280, 281.2163
414.0220, 331.1582
415.2160, 238.2104
416.4100, 324.0630
417.6030, 321.4688
418.7970, 466.8887
419.9900, 562.3140
421.1830, 661.6821
422.3760, 685.4126
423.5690, 882.0337
424.7610, 887.2002
425.9540, 917.6265
427.1460, 1064.606
428.3380, 983.0415
429.5300, 1170.503
430.7220, 1156.086
431.9140, 970.5801
433.1050, 925.0449
434.2970, 739.4805
435.4880, 814.8862
436.6790, 752.2637
437.8700, 694.6104
439.0610, 638.9268
440.2510, 642.2158
441.4420, 666.4756
442.6320, 636.7065
443.8220, 647.0088
445.0120, 693.0776
446.2020, 618.2217
447.3910, 661.3345
448.5810, 608.4180
449.7700, 696.4707
450.9600, 640.4902
452.1490, 549.4805
453.3370, 574.4404
454.5260, 513.3789
455.7150, 489.2852
456.9030, 436.1611
458.0910, 382.0068
459.2800, 334.8213
460.4670, 446.6045
461.6550, 312.3545
462.8430, 418.0713
464.0300, 360.3760
465.2180, 327.4150
466.4050, 259.4326
467.5920, 227.8896
468.7790, 140.4453
469.9650, 243.9629
471.1520, 114.4502
472.3380, 69.92480
473.5250, 271.6699
474.7110, 23.73730
475.8970, 155.0801
477.0820, 12.62598
478.2680, 173.4785
479.4540, 154.7236
480.6390, 66.91699
481.8240, 206.9912
483.0090, 86.84180
484.1940, 2.691406
485.3780, 33.38965
486.5630, 9.265625
487.7470, 71.07910
488.9320, 72.95215
490.1160, 10.73438
491.3000, 167.0410
492.4830, 3.552734
493.6670, 12.02539
494.8500, 82.67773
496.0340, 130.3291
497.2170, 79.20801
498.4000, 66.78613
499.5820, 100.1592
500.7650, 51.57617
501.9480, 169.1387
503.1300, 250.0898
504.3120, 252.9062
505.4940, 247.1768
506.6760, 318.4102
507.8580, 404.6699
509.0390, 489.9346
510.2210, 191.4248
511.4020, 364.6514
512.5830, 409.8135
513.7640, 331.9434
514.9450, 460.0430
516.1250, 303.2715
517.3060, 335.7754
518.4860, 287.9551
519.6660, 233.9180
520.8460, 127.0430
522.0260, 172.0537
523.2060, 164.1016
524.3850, 283.1455
525.5650, 18.40039
526.7440, 42.50293
527.9230, 196.7695
529.1020, 16.97363
530.2810, 103.1582
531.4590, 17.07910
532.6380, 41.04785
533.8160, 121.3115
534.9940, 110.3984
536.1720, 84.77539
537.3500, 76.72363
538.5270, 9.6680000E-02
539.7050, 50.97070
540.8820, 78.89160
542.0590, 42.05371
543.2360, 33.93945
544.4130, 106.0557
545.5900, 76.86621
546.7660, 5.095703
547.9430, 40.05762
549.1190, 202.8633
550.2950, 186.6045
551.4710, 122.2451
552.6470, 25.81055
553.8220, 19.91699
554.9980, 6.802734
556.1730, 20.40234
557.3480, 6.430664
558.5230, 122.8594
559.6980, 114.4795
560.8730, 107.5303
562.0470, 115.3447
563.2220, 34.52539
564.3960, 44.75391
565.5700, 146.6006
566.7440, 78.37207
567.9170, 179.0713
569.0910, 63.52637
570.2640, 50.87109
571.4380, 254.3076
572.6110, 303.2871
573.7840, 304.0156
574.9570, 427.4492
576.1290, 399.6602
577.3020, 459.2275
578.4740, 550.5469
579.6460, 645.8672
580.8180, 742.5840
581.9900, 1016.117
583.1620, 1276.533
584.3330, 1444.645
585.5040, 1644.305
586.6760, 1997.159
587.8470, 2153.289
589.0180, 2176.590
590.1880, 2193.642
591.3590, 2115.410
592.5290, 1774.594
593.7000, 1552.695
594.8700, 1177.881
596.0400, 943.7920
597.2090, 800.6729
598.3790, 671.8350
599.5490, 530.6953
600.7180, 759.4668
601.8870, 788.9502
603.0560, 854.3408
604.2250, 835.7178
605.3940, 1003.909
606.5620, 980.5029
607.7300, 887.0283
608.8990, 744.0146
610.0670, 769.7998
611.2350, 518.4463
612.4020, 463.2129
613.5700, 547.4355
614.7370, 353.9570
615.9050, 357.2793
617.0720, 462.3574
618.2390, 483.0000
619.4060, 446.0938
620.5720, 474.3750
621.7390, 396.1973
622.9050, 458.9795
624.0710, 508.5039
625.2370, 546.4385
626.4030, 663.6064
627.5690, 785.2900
628.7340, 800.6738
629.9000, 777.6201
631.0650, 930.2080
632.2300, 860.1357
633.3950, 937.3730
634.5600, 903.4844
635.7240, 896.4922
636.8890, 1038.668
638.0530, 853.7344
639.2170, 797.9941
640.3810, 927.7100
641.5450, 753.2725
642.7080, 659.5059
643.8720, 623.1816
645.0350, 601.0986
646.1980, 555.7451
647.3610, 699.9727
648.5240, 489.1260
649.6870, 549.4688
650.8490, 299.0752
652.0120, 360.6055
653.1740, 413.8174
654.3360, 349.0752
655.4980, 270.0547
656.6600, 155.8135
657.8210, 254.2939
658.9830, 263.1182
660.1440, 264.3887
661.3050, 283.6621
662.4660, 266.8516
663.6270, 259.1904
664.7870, 201.3057
665.9480, 227.2354
667.1080, 178.3135
668.2680, 171.9678
669.4280, 185.7822
670.5880, 226.7041
671.7480, 226.9434
672.9070, 90.02441
674.0670, 145.9746
675.2260, 66.87891
676.3850, 159.6816
677.5440, 94.39941
678.7030, 108.2354
679.8610, 81.79004
681.0200, 100.8174
682.1780, 104.9062
683.3360, 39.20215
684.4940, 38.57422
685.6520, 39.51953
686.8090, 27.12402
687.9670, 53.58301
689.1240, 59.69434
690.2810, 86.83887
691.4380, 95.09961
692.5950, 95.89355
693.7520, 99.06152
694.9080, 195.4639
696.0650, 153.3027
697.2210, 110.0771
698.3770, 21.84961
699.5330, 147.2471
700.6880, 193.4990
701.8440, 100.8604
702.9990, 78.68945
704.1550, 158.9463
705.3100, 166.3682
706.4650, 172.4287
707.6190, 220.4717
708.7740, 235.9316
709.9290, 203.1309
711.0830, 302.9492
712.2370, 123.3145
713.3910, 182.9043
714.5450, 225.7998
715.6980, 130.5820
716.8520, 180.0371
718.0050, 169.6631
719.1580, 65.22559
720.3110, 98.82324
721.4640, 116.5820
722.6170, 179.1572
723.7700, 38.00781
724.9220, 3.685547
726.0740, 144.3926
727.2260, 93.06348
728.3780, 142.1387
729.5300, 200.0186
730.6810, 90.32715
731.8330, 100.1426
732.9840, 27.39453
734.1350, 124.8633
735.2860, 122.3828
736.4370, 47.16016
737.5880, 110.1406
738.7380, 121.5332
739.8880, 179.6768
741.0390, 191.7559
742.1890, 2.902344
743.3380, 217.6387
744.4880, 110.3877
745.6380, 117.5049
746.7870, 211.2393
747.9360, 159.3613
749.0850, 44.41797
750.2340, 86.88477
751.3830, 98.62598
752.5310, 64.39258
753.6800, 235.7695
754.8280, 46.20996
755.9760, 78.52344
757.1240, 27.21289
758.2720, 9.080078
759.4190, 65.70020
760.5670, 145.2637
761.7140, 80.27832
762.8610, 98.30762
764.0080, 189.0146
765.1550, 100.1641
766.3020, 78.25293
767.4480, 182.6035
768.5950, 206.9717
769.7410, 280.4307
770.8870, 158.5400
772.0330, 154.0850
773.1780, 65.01855
774.3240, 1.655273
775.4690, 358.3574
776.6140, 48.40234
777.7590, 207.2979
778.9040, 181.1201
780.0490, 133.7080
781.1940, 75.83301
782.3380, 246.8350
783.4820, 60.89160
784.6260, 148.6191
785.7700, 154.4941
786.9140, 97.51562
788.0580, 223.4189
789.2010, 269.3350
790.3450, 94.15527
791.4880, 70.98730
792.6310, 125.5420
793.7730, 165.9219
794.9160, 218.9307
796.0590, 123.9414
797.2010, 239.1035
798.3430, 118.0791
799.4850, 169.0840
800.6270, 171.7363
801.7690, 168.8359
802.9100, 205.0771
804.0520, 239.1719
805.1930, 246.9951
806.3340, 282.0928
807.4750, 296.8447
808.6160, 288.3594
809.7560, 293.4961
810.8970, 260.3945
812.0370, 243.4307
813.1770, 225.2197
814.3170, 221.2012
815.4570, 174.8213
816.5960, 200.4199
817.7360, 112.8213
818.8750, 261.2578
820.0140, 177.6279
821.1530, 230.6348
822.2920, 103.5537
823.4310, 166.4326
824.5690, 322.1777
825.7070, 171.9551
826.8460, 95.33008
827.9840, 169.3301
829.1220, 3.058594
830.2590, 19.46289
831.3970, 30.08984
832.5340, 24.34570
833.6710, 100.1133
834.8080, 184.3125
835.9450, 18.05469
837.0820, 23.23926
838.2190, 29.47266
839.3550, 14.32227
840.4910, 140.9160
841.6270, 186.7734
842.7630, 187.5791
843.8990, 275.3291
845.0350, 43.20020
846.1700, 76.05078
847.3060, 114.7861
848.4410, 61.74805
849.5760, 393.3564
850.7100, 300.5859
851.8450, 310.9092
852.9800, 132.7520
854.1140, 313.7119
855.2480, 73.14746
856.3820, 286.8721
857.5160, 230.9297
858.6500, 258.7539
859.7830, 176.5039
860.9170, 200.4590
862.0500, 175.3594
863.1830, 167.4141
864.3160, 292.4648
865.4480, 83.51172
866.5810, 204.2539
867.7130, 66.22852
868.8460, 135.1855
869.9780, 160.6270
871.1100, 81.51367
872.2410, 13.87500
873.3730, 1.898438
874.5050, 58.86133
875.6360, 100.9609
876.7670, 118.2285
877.8980, 242.0371
879.0290, 194.0605
880.1590, 127.8184
881.2900, 22.69336
882.4200, 96.91602
883.5500, 231.9512
884.6800, 230.9180
885.8100, 21.05273
886.9400, 84.75195
888.0690, 26.82422
889.1990, 96.27344
890.3280, 66.86914
891.4570, 78.15625
892.5860, 74.00781
893.7140, 42.12891
894.8430, 39.79492
895.9710, 69.82422
897.1000, 277.5176
898.2280, 26.91406
899.3560, 70.74414
900.4830, 192.5078
901.6110, 189.3555
902.7380, 106.9648
903.8660, 83.91602
904.9930, 44.88477
906.1200, 110.0645
907.2460, 13.35352
908.3730, 125.1016
909.5000, 218.4844
910.6260, 40.75977
911.7520, 17.79688
912.8780, 30.44531
914.0040, 28.66406
915.1290, 65.18164
916.2550, 155.4102
917.3800, 163.8340
918.5050, 130.8848
919.6300, 188.0723
920.7550, 132.5430
921.8800, 76.94727
923.0040, 83.57422
924.1290, 53.82422
925.2530, 64.17773
926.3770, 39.99805
927.5010, 84.62891
928.6250, 67.24609
929.7480, 20.33008
930.8720, 97.48828
931.9950, 48.67188
933.1180, 73.93750
934.2410, 64.43945
935.3640, 111.2715
936.4860, 215.0664
937.6090, 264.4570
938.7310, 219.7559
939.8530, 378.1133
940.9750, 285.4199
942.0970, 365.7949
943.2180, 310.1484
944.3400, 472.3867
945.4610, 427.5723
946.5820, 468.5449
947.7030, 832.3730
948.8240, 1042.049
949.9450, 1149.627
951.0650, 1267.943
952.1860, 1486.289
953.3060, 1818.199
954.4260, 2749.648
955.5460, 4185.674
956.6650, 5949.848
957.7850, 9191.414
958.9040, 12204.97
960.0230, 15427.72
961.1420, 18850.14
962.2610, 20891.94
963.3800, 21298.00
964.4990, 20156.80
965.6170, 17529.42
966.7350, 14539.01
967.8530, 10665.26
968.9710, 7449.734
970.0890, 5139.393
971.2070, 3706.213
972.3240, 2659.766
973.4410, 1988.010
974.5580, 1550.352
975.6750, 1119.758
976.7920, 617.7578
977.9090, 408.8398
979.0250, 478.5273
980.1410, 572.7227
981.2580, 378.6680
982.3740, 282.8223
983.4890, 151.0938
984.6050, 501.5273
985.7200, 499.8398
986.8360, 468.4922
987.9510, 570.2129
989.0660, 259.4863
990.1810, 63.74609
991.2950, 236.5293
992.4100, 50.56055
993.5240, 109.3086
994.6390, 137.8730
995.7530, 73.58984
996.8660, 189.4258
997.9800, 117.7715
999.0940, 148.3848
1000.207, 17.31445
1001.320, 76.73828
1002.433, 16.12891
1003.546, 141.0723
1004.659, 68.51562
1005.772, 110.9102
1006.884, 161.3438
1007.996, 253.5527
1009.108, 162.9004
1010.220, 158.9727
1011.332, 20.24219
1012.444, 181.0566
1013.555, 17.66797
1014.666, 102.0254
1015.777, 4.357422
1016.888, 46.22656
1017.999, 74.60938
1019.110, 121.1523
1020.220, 21.10156
1021.331, 122.2285
1022.441, 248.2344
1023.551, 124.6934
1024.661, 225.9238
1025.770, 341.1934
1026.880, 230.8281
1027.989, 254.2812
1029.098, 348.6426
1030.207, 358.2031
1031.316, 302.5508
1032.425, 385.5801
1033.533, 580.7930
1034.642, 402.9707
1035.750, 724.6426
1036.858, 925.1543
1037.966, 944.5469
1039.073, 1228.686
1040.181, 1266.684
1041.288, 1364.041
1042.396, 1399.529
1043.503, 1867.301
1044.610, 1875.941
1045.716, 2158.742
1046.823, 2945.887
1047.929, 3389.221
1049.036, 3894.674
1050.142, 3750.621
1051.248, 3819.877
1052.353, 3556.184
1053.459, 2851.504
1054.564, 2339.232
1055.670, 1777.057
1056.775, 1151.658
1057.880, 1022.592
1058.985, 617.5645
1060.089, 564.8184
1061.194, 660.3242
1062.298, 413.0938
1063.402, 392.1094
1064.506, 367.1992
1065.610, 465.6543
1066.713, 507.6504
1067.817, 334.6328
1068.920, 325.2754
1070.023, 398.8730
1071.126, 496.4902
1072.229, 842.4668
1073.332, 901.1660
1074.435, 1291.143
1075.537, 1537.012
1076.639, 1624.424
1077.741, 2039.246
1078.843, 1792.297
1079.945, 2000.461
1081.046, 1952.029
1082.148, 1777.320
1083.249, 1783.213
1084.350, 1630.477
1085.451, 1455.205
1086.551, 1295.031
1087.652, 1061.859
1088.752, 705.8203
1089.853, 500.0215
1090.953, 252.6484
1092.053, 345.3301
1093.152, 255.4629
1094.252, 165.5586
1095.351, 64.81641
1096.451, 76.82227
1097.550, 215.4707
1098.649, 168.2227
1099.748, 76.38281
1100.846, 287.6777
1101.945, 70.31836
1103.043, 77.57422
1104.141, 133.0820
1105.239, 154.1504
1106.337, 129.6875
1107.434, 11.84961
1108.532, 122.2988
1109.629, 85.52148
1110.726, 19.25586
1111.823, 117.3535
1112.920, 192.0469
1114.017, 163.0117
1115.113, 223.0488
1116.210, 95.13477
1117.306, 255.6055
1118.402, 166.6855
1119.498, 194.0566
1120.593, 224.4785
1121.689, 207.3828
1122.784, 276.8359
1123.879, 380.8086
1124.974, 503.3027
1126.069, 160.2988
1127.164, 127.4434
1128.259, 70.32227
1129.353, 358.8359
1130.447, 257.5547
1131.541, 383.3750
1132.635, 34.02148
1133.729, 277.2480
1134.822, 66.48047
1135.916, 257.0137
1137.009, 168.2598
1138.102, 62.02930
1139.195, 38.10742
1140.288, 101.7383
1141.380, 192.1172
1142.473, 32.63477
1143.565, 234.8516
1144.657, 333.6680
1145.749, 69.09375
1146.841, 430.3164
1147.932, 225.7070
1149.024, 69.89062
1150.115, 372.5488
1151.206, 163.8262
1152.297, 75.36719
1153.388, 269.1465
1154.479, 86.98047
1155.569, 91.70117
1156.659, 75.13867
1157.750, 443.9277
1158.839, 200.9531
1159.929, 10.15234
1161.019, 412.9746
1162.108, 175.2246
1163.198, 211.2812
1164.287, 210.2266
1165.376, 317.3496
1166.465, 179.7715
1167.553, 357.6895
1168.642, 105.2031
1169.730, 109.1797
1170.818, 188.0605
1171.906, 202.8477
1172.994, 290.2754
1174.082, 68.23242
1175.170, 383.3965
1176.257, 63.02734
1177.344, 455.2754
1178.431, 150.7480
1179.518, 140.8594
1180.605, 61.23242
1181.691, 39.89062
1182.778, 188.2812
1183.864, 26.58789
1184.950, 291.5664
1186.036, 195.1094
1187.122, 236.5742
1188.207, 75.08594
1189.292, 91.32812
1190.378, 220.7539
1191.463, 187.9785
1192.548, 327.8457
1193.632, 203.1445
1194.717, 244.6562
1195.801, 89.38672
1196.886, 206.4395
1197.970, 420.6172
1199.054, 289.4004
1200.137, 384.4180
1201.221, 350.7168
1202.305, 321.2031
1203.388, 466.6699
1204.471, 289.3867
1205.554, 376.6641
1206.637, 171.8340
1207.719, 154.9746
1208.802, 81.61523
1209.884, 274.8906
1210.966, 159.6172
1212.048, 445.7754
1213.130, 61.94336
1214.212, 198.2656
1215.293, 128.3301
1216.374, 380.5000
1217.456, 223.9727
1218.536, 175.5195
1219.617, 337.9473
1220.698, 217.7598
1221.778, 184.7480
1222.859, 294.9004
1223.939, 282.9395
1225.019, 231.1289
1226.099, 511.1504
1227.178, 94.21094
1228.258, 292.4570
1229.337, 176.8242
1230.417, 362.8008
1231.496, 261.5312
1232.574, 330.9102
1233.653, 488.2188
1234.732, 332.8789
1235.810, 441.1953
1236.888, 589.5195
1237.966, 179.9648
1239.044, 475.3164
1240.122, 283.4219
1241.199, 197.9414
1242.277, 272.6406
1243.354, 160.3242
1244.431, 176.9961
1245.508, 196.6602
1246.585, 244.4258
1247.661, 316.9570
1248.738, 224.1367
1249.814, 453.0469
1250.890, 124.2539
1251.966, 276.2734
1253.042, 303.7070
1254.117, 211.1953
1255.193, 130.2891
1256.268, 339.3281
1257.343, 122.5586
1258.418, 4.421875
1259.493, 106.2695
1260.567, 328.8633
1261.642, 42.28125
1262.716, 332.9102
1263.790, 313.0000
1264.864, 301.3281
1265.938, 571.2266
1267.011, 30.53906
1268.085, 144.7422
1269.158, 94.06250
1270.231, 67.23438
1271.304, 208.1602
1272.377, 118.4570
1273.450, 111.9648
1274.522, 63.39844
1275.594, 24.71094
1276.666, 40.16797
