##NAMES=Fluorapatite
##RRUFFID=R050340
##IDEAL CHEMISTRY=Ca_5_(PO_4_)_3_F
##LOCALITY=Buckingham, Quebec, Canada
##OWNER=RRUFF
##SOURCE=California Institute of Technology
##DESCRIPTION=Blue fragment
##STATUS=The identification of this mineral has been confirmed by X-ray diffraction and chemical analysis
##URL=rruff.info/R050340
##MEASURED CHEMISTRY=Ca_5.00_((P_0.98_Si_0.02_)O_4_)_3_F_1.00_
##PIN_ID=L00565
##ORIENTATION=Laser parallel to -a* (-1 0 0). Fiducial mark perpendicular to laser is parallel to -c [0 0 -1]
108.2800, 0.0000000E+00
109.5120, 97.76929
110.7440, 40.08521
111.9760, 38.70239
113.2080, 9.427246
114.4400, 43.81494
115.6710, 88.76074
116.9030, 8.912842
118.1340, 11.90063
119.3650, 78.44214
120.5960, 128.3142
121.8270, 103.3359
123.0580, 158.3599
124.2880, 160.2656
125.5190, 215.9568
126.7490, 308.3577
127.9790, 397.3103
129.2090, 526.0276
130.4390, 651.1782
131.6680, 775.8047
132.8980, 912.8643
134.1270, 1100.319
135.3560, 1315.135
136.5850, 1547.284
137.8140, 1676.743
139.0430, 1705.486
140.2710, 1696.503
141.5000, 1771.791
142.7280, 1536.341
143.9560, 1457.147
145.1840, 1265.192
146.4120, 1233.452
147.6390, 1054.904
148.8670, 1000.529
150.0940, 839.3145
151.3210, 823.2471
152.5490, 853.3179
153.7750, 769.5176
155.0020, 874.8389
156.2290, 861.2754
157.4550, 974.8208
158.6810, 864.4697
159.9080, 882.2178
161.1340, 796.0601
162.3590, 809.9932
163.5850, 735.0127
164.8110, 748.1147
166.0360, 670.2969
167.2610, 624.5552
168.4860, 619.8872
169.7110, 618.3081
170.9360, 555.8652
172.1610, 559.6484
173.3850, 589.5483
174.6100, 398.5581
175.8340, 429.7168
177.0580, 354.0767
178.2820, 371.5234
179.5050, 340.0322
180.7290, 341.5835
181.9520, 287.1426
183.1760, 266.6685
184.3990, 239.1602
185.6220, 217.6318
186.8450, 234.0957
188.0670, 242.5591
189.2900, 253.0269
190.5120, 240.5024
191.7340, 165.9888
192.9560, 193.4883
194.1780, 259.0039
195.4000, 186.5366
196.6220, 237.0879
197.8430, 237.6587
199.0640, 273.2505
200.2860, 297.8628
201.5070, 365.4976
202.7270, 214.1538
203.9480, 365.8330
205.1690, 330.5337
206.3890, 208.2578
207.6090, 283.0039
208.8290, 299.7725
210.0490, 247.5635
211.2690, 358.3770
212.4890, 376.2119
213.7080, 296.0693
214.9280, 223.9478
216.1470, 307.8477
217.3660, 298.7686
218.5850, 314.7095
219.8030, 275.6714
221.0220, 297.6523
222.2400, 277.6523
223.4590, 351.6724
224.6770, 382.7109
225.8950, 342.7676
227.1120, 385.8423
228.3300, 487.9355
229.5480, 472.4302
230.7650, 552.7080
231.9820, 536.3062
233.1990, 603.1602
234.4160, 660.6543
235.6330, 556.8223
236.8490, 440.8828
238.0660, 479.3584
239.2820, 473.5410
240.4980, 361.6729
241.7140, 361.9478
242.9300, 307.9990
244.1460, 346.3242
245.3610, 350.8179
246.5770, 313.9014
247.7920, 204.9189
249.0070, 315.0464
250.2220, 258.3579
251.4370, 430.4902
252.6510, 366.6445
253.8660, 428.8291
255.0800, 481.6025
256.2940, 541.3408
257.5080, 561.0244
258.7220, 647.3765
259.9360, 869.2046
261.1490, 800.3394
262.3630, 985.5898
263.5760, 1068.950
264.7890, 1151.395
266.0020, 1192.918
267.2150, 1203.513
268.4270, 1103.173
269.6400, 1020.895
270.8520, 883.6729
272.0640, 841.5034
273.2760, 754.4580
274.4880, 614.3115
275.7000, 627.2827
276.9120, 558.2949
278.1230, 495.3457
279.3340, 426.4331
280.5450, 508.5557
281.7560, 432.7114
282.9670, 419.8984
284.1780, 432.1157
285.3880, 378.3613
286.5980, 342.6338
287.8090, 329.9331
289.0190, 386.2568
290.2290, 391.6040
291.4380, 469.9736
292.6480, 479.1548
293.8570, 489.5376
295.0670, 503.2075
296.2760, 502.6572
297.4850, 480.1250
298.6930, 510.6108
299.9020, 474.1128
301.1110, 512.6313
302.3190, 579.1655
303.5270, 568.7144
304.7350, 592.2773
305.9430, 620.8555
307.1510, 701.4473
308.3580, 696.0513
309.5660, 714.6689
310.7730, 622.2983
311.9800, 651.9399
313.1870, 563.5933
314.3940, 536.2578
315.6010, 516.9326
316.8070, 374.6182
318.0130, 389.3135
319.2200, 359.0166
320.4260, 386.7275
321.6310, 248.4463
322.8370, 274.1714
324.0430, 155.9028
325.2480, 213.6392
326.4540, 125.3813
327.6590, 233.1289
328.8640, 127.8828
330.0680, 198.6421
331.2730, 143.4067
332.4780, 183.1772
333.6820, 133.9541
334.8860, 83.73633
336.0900, 23.52441
337.2940, 59.31787
338.4980, 69.11719
339.7010, 59.92139
340.9050, 82.19336
342.1080, 88.99902
343.3110, 82.36768
344.5140, 106.1934
345.7170, 73.02344
346.9200, 53.85889
348.1220, 103.6987
349.3240, 64.54297
350.5270, 179.3911
351.7290, 34.72021
352.9310, 20.86914
354.1320, 17.01807
355.3340, 64.83350
356.5350, 37.31055
357.7370, 14.54150
358.9380, 122.6025
360.1390, 1.771484
361.3400, 9.110840
362.5400, 93.94727
363.7410, 40.21338
364.9410, 47.00635
366.1410, 7.828613
367.3410, 41.34180
368.5410, 60.52588
369.7410, 42.35156
370.9400, 17.39209
372.1400, 22.22119
373.3390, 38.94824
374.5380, 113.0435
375.7370, 12.86914
376.9360, 57.34717
378.1350, 10.41650
379.3330, 69.85059
380.5310, 5.133301
381.7300, 17.92334
382.9280, 39.62207
384.1260, 59.31152
385.3230, 33.99609
386.5210, 53.42578
387.7180, 106.4673
388.9160, 36.89844
390.1130, 52.78076
391.3100, 37.38721
392.5060, 54.00537
393.7030, 55.60596
394.9000, 51.46777
396.0960, 38.45068
397.2920, 34.04395
398.4880, 90.76221
399.6840, 69.36914
400.8800, 47.09229
402.0750, 123.8091
403.2710, 53.12305
404.4660, 89.38086
405.6610, 121.6587
406.8560, 48.82324
408.0510, 83.47949
409.2450, 145.2812
410.4400, 91.94385
411.6340, 95.60791
412.8280, 228.2739
414.0220, 220.9438
415.2160, 236.6299
416.4100, 354.3188
417.6030, 346.2480
418.7970, 369.6997
419.9900, 430.3916
421.1830, 435.0850
422.3760, 507.7788
423.5690, 579.4722
424.7610, 710.1670
425.9540, 834.8604
427.1460, 939.5542
428.3380, 1045.247
429.5300, 1149.938
430.7220, 1012.628
431.9140, 1163.316
433.1050, 1196.003
434.2970, 1294.688
435.4880, 1422.372
436.6790, 1442.056
437.8700, 1633.739
439.0610, 1768.420
440.2510, 1728.100
441.4420, 2107.776
442.6320, 2169.450
443.8220, 2017.121
445.0120, 2145.791
446.2020, 2127.456
447.3910, 2014.120
448.5810, 1914.780
449.7700, 1863.438
450.9600, 1708.096
452.1490, 1416.749
453.3370, 1322.401
454.5260, 1184.051
455.7150, 1076.696
456.9030, 881.3516
458.0910, 773.0112
459.2800, 717.6670
460.4670, 619.3188
461.6550, 594.9663
462.8430, 553.6123
464.0300, 500.2534
465.2180, 379.9053
466.4050, 263.5625
467.5920, 238.2158
468.7790, 332.8643
469.9650, 259.5088
471.1520, 246.1514
472.3380, 187.7886
473.5250, 162.1021
474.7110, 84.05420
475.8970, 136.6812
477.0820, 165.3037
478.2680, 204.9248
479.4540, 169.5410
480.6390, 118.1523
481.8240, 187.7578
483.0090, 94.35791
484.1940, 57.95166
485.3780, 93.54004
486.5630, 111.1230
487.7470, 153.7007
488.9320, 95.27246
490.1160, 138.8389
491.3000, 102.3994
492.4830, 97.95557
493.6670, 46.50830
494.8500, 116.7642
496.0340, 145.6108
497.2170, 131.7422
498.4000, 148.8965
499.5820, 132.1665
500.7650, 103.6816
501.9480, 93.81396
503.1300, 40.23730
504.3120, 108.7388
505.4940, 88.23340
506.6760, 2.987793
507.8580, 8.351563
509.0390, 123.8071
510.2210, 41.39404
511.4020, 87.83789
512.5830, 59.72559
513.7640, 69.65967
514.9450, 93.04004
516.1250, 35.48682
517.3060, 27.48877
518.4860, 139.8472
519.6660, 132.2100
520.8460, 91.56250
522.0260, 156.1406
523.2060, 14.11914
524.3850, 87.63135
525.5650, 109.9634
526.7440, 80.46338
527.9230, 43.89160
529.1020, 12.49023
530.2810, 88.82129
531.4590, 30.00586
532.6380, 92.26318
533.8160, 44.54346
534.9940, 59.93066
536.1720, 31.60840
537.3500, 4.607422
538.5270, 108.0132
539.7050, 24.48340
540.8820, 59.64502
542.0590, 28.91455
543.2360, 33.25391
544.4130, 58.27441
545.5900, 73.04883
546.7660, 25.35986
547.9430, 39.34326
549.1190, 78.03223
550.2950, 27.07568
551.4710, 156.1099
552.6470, 192.1362
553.8220, 86.15430
554.9980, 89.33691
556.1730, 104.9897
557.3480, 161.3096
558.5230, 87.29785
559.6980, 153.3545
560.8730, 227.4048
562.0470, 199.7944
563.2220, 182.7666
564.3960, 214.7324
565.5700, 271.9751
566.7440, 281.9263
567.9170, 393.0039
569.0910, 474.9395
570.2640, 511.8691
571.4380, 783.7847
572.6110, 1072.708
573.7840, 1286.605
574.9570, 1467.495
576.1290, 1892.396
577.3020, 2376.010
578.4740, 2597.102
579.6460, 2796.103
580.8180, 2810.940
581.9900, 2329.769
583.1620, 1887.585
584.3330, 1633.632
585.5040, 1282.602
586.6760, 1279.386
587.8470, 1075.290
589.0180, 1128.153
590.1880, 1009.225
591.3590, 1013.441
592.5290, 900.2568
593.7000, 785.7402
594.8700, 765.5420
596.0400, 782.2402
597.2090, 874.1719
598.3790, 902.8262
599.5490, 1042.689
600.7180, 1122.347
601.8870, 1377.123
603.0560, 1646.361
604.2250, 1859.979
605.3940, 2034.142
606.5620, 2098.225
607.7300, 1739.886
608.8990, 1429.659
610.0670, 1371.570
611.2350, 1150.695
612.4020, 1108.447
613.5700, 985.0566
614.7370, 926.7490
615.9050, 880.3691
617.0720, 745.9570
618.2390, 681.3594
619.4060, 615.0557
620.5720, 441.7822
621.7390, 317.2490
622.9050, 286.7764
624.0710, 205.2998
625.2370, 460.7676
626.4030, 142.4678
627.5690, 388.0049
628.7340, 329.5166
629.9000, 215.1885
631.0650, 333.7852
632.2300, 284.5576
633.3950, 338.5928
634.5600, 274.4932
635.7240, 252.9834
636.8890, 344.3408
638.0530, 373.6895
639.2170, 312.0225
640.3810, 253.3486
641.5450, 299.8281
642.7080, 177.2100
643.8720, 408.9404
645.0350, 315.2402
646.1980, 405.2217
647.3610, 403.1523
648.5240, 413.6289
649.6870, 350.4717
650.8490, 381.8115
652.0120, 340.9307
653.1740, 346.9893
654.3360, 299.9268
655.4980, 173.1250
656.6600, 266.4805
657.8210, 254.6816
658.9830, 132.4424
660.1440, 108.6973
661.3050, 168.2080
662.4660, 166.6357
663.6270, 71.39160
664.7870, 209.5420
665.9480, 71.71289
667.1080, 73.96680
668.2680, 86.35742
669.4280, 96.39648
670.5880, 102.1396
671.7480, 180.9219
672.9070, 109.5449
674.0670, 82.57129
675.2260, 63.60059
676.3850, 126.0049
677.5440, 80.03125
678.7030, 63.16504
679.8610, 10.11133
681.0200, 108.1533
682.1780, 94.72266
683.3360, 61.85156
684.4940, 105.0576
685.6520, 19.79102
686.8090, 49.24316
687.9670, 117.0908
689.1240, 171.3633
690.2810, 171.9033
691.4380, 136.0137
692.5950, 127.8389
693.7520, 70.75195
694.9080, 41.23242
696.0650, 38.76367
697.2210, 175.9062
698.3770, 95.16504
699.5330, 97.53125
700.6880, 30.02930
701.8440, 131.8711
702.9990, 115.9033
704.1550, 47.53711
705.3100, 131.9834
706.4650, 85.19043
707.6190, 220.7246
708.7740, 116.2441
709.9290, 180.7471
711.0830, 113.6436
712.2370, 143.1162
713.3910, 139.5723
714.5450, 112.0127
715.6980, 9.437500
716.8520, 61.83984
718.0050, 81.22363
719.1580, 161.5908
720.3110, 124.9414
721.4640, 148.2773
722.6170, 60.59766
723.7700, 76.89844
724.9220, 141.1836
726.0740, 87.45215
727.2260, 94.70508
728.3780, 42.94043
729.5300, 25.14746
730.6810, 98.35645
731.8330, 7.537109
732.9840, 96.69629
734.1350, 155.8379
735.2860, 35.03613
736.4370, 14.95312
737.5880, 71.09570
738.7380, 117.1270
739.8880, 86.14355
741.0390, 14.32617
742.1890, 185.4463
743.3380, 40.52246
744.4880, 23.60645
745.6380, 99.27246
746.7870, 69.13477
747.9360, 36.98047
749.0850, 14.80762
750.2340, 64.68066
751.3830, 96.47070
752.5310, 3.554688
753.6800, 87.35449
754.8280, 92.29297
755.9760, 0.1806640
757.1240, 60.03223
758.2720, 49.92285
759.4190, 108.5762
760.5670, 104.3838
761.7140, 102.0371
762.8610, 124.3320
764.0080, 78.46387
765.1550, 114.0352
766.3020, 116.7393
767.4480, 75.27734
768.5950, 89.79688
769.7410, 48.29688
770.8870, 22.77930
772.0330, 28.23926
773.1780, 102.6787
774.3240, 173.1016
775.4690, 135.5068
776.6140, 149.8975
777.7590, 141.2715
778.9040, 90.62891
780.0490, 116.9697
781.1940, 1.706055
782.3380, 146.5889
783.4820, 16.86719
784.6260, 123.1230
785.7700, 78.37012
786.9140, 22.60352
788.0580, 154.8164
789.2010, 125.0127
790.3450, 116.3564
791.4880, 13.64062
792.6310, 136.8037
793.7730, 67.95312
794.9160, 98.08691
796.0590, 21.20215
797.2010, 110.2969
798.3430, 1.629883
799.4850, 65.42090
800.6270, 11.54590
801.7690, 166.2832
802.9100, 115.2705
804.0520, 91.06543
805.1930, 116.8525
806.3340, 41.70410
807.4750, 73.58203
808.6160, 64.46484
809.7560, 22.63086
810.8970, 128.2188
812.0370, 143.9375
813.1770, 38.56152
814.3170, 121.6074
815.4570, 82.97168
816.5960, 93.46387
817.7360, 93.24121
818.8750, 27.11230
820.0140, 41.42969
821.1530, 144.8164
822.2920, 19.40430
823.4310, 60.48145
824.5690, 14.86523
825.7070, 7.488281
826.8460, 67.13086
827.9840, 134.7344
829.1220, 101.3252
830.2590, 75.91016
831.3970, 47.31348
832.5340, 37.22266
833.6710, 13.62109
834.8080, 4.493164
835.9450, 14.58984
837.0820, 1.171875
838.2190, 7.120117
839.3550, 14.32031
840.4910, 92.74316
841.6270, 2.133789
842.7630, 1.253906
843.8990, 104.4893
845.0350, 112.8428
846.1700, 132.1816
847.3060, 13.50977
848.4410, 265.8066
849.5760, 158.1074
850.7100, 102.3945
851.8450, 167.6445
852.9800, 133.1631
854.1140, 126.1777
855.2480, 176.2617
856.3820, 165.7959
857.5160, 235.7002
858.6500, 182.9014
859.7830, 201.8496
860.9170, 164.8535
862.0500, 166.0195
863.1830, 207.0479
864.3160, 223.0957
865.4480, 336.9131
866.5810, 249.5615
867.7130, 296.5898
868.8460, 277.9277
869.9780, 225.9258
871.1100, 228.0117
872.2410, 270.8408
873.3730, 197.9258
874.5050, 119.7812
875.6360, 140.8184
876.7670, 37.72656
877.8980, 47.14941
879.0290, 64.17773
880.1590, 119.6387
881.2900, 107.1582
882.4200, 155.0791
883.5500, 102.8643
884.6800, 113.4902
885.8100, 55.88184
886.9400, 86.62207
888.0690, 22.49121
889.1990, 30.86328
890.3280, 19.06543
891.4570, 26.88867
892.5860, 28.87305
893.7140, 14.54395
894.8430, 116.1602
895.9710, 114.9834
897.1000, 57.75879
898.2280, 104.5156
899.3560, 108.7832
900.4830, 65.66699
901.6110, 26.25781
902.7380, 87.85352
903.8660, 97.26855
904.9930, 102.7383
906.1200, 142.1094
907.2460, 76.99805
908.3730, 167.0645
909.5000, 232.5625
910.6260, 199.1758
911.7520, 83.78125
912.8780, 205.3799
914.0040, 104.9736
915.1290, 111.3926
916.2550, 75.91602
917.3800, 81.02344
918.5050, 145.5898
919.6300, 82.45215
920.7550, 153.9824
921.8800, 103.3203
923.0040, 73.28027
924.1290, 184.8174
925.2530, 6.336914
926.3770, 21.84766
927.5010, 71.68164
928.6250, 102.2344
929.7480, 80.53809
930.8720, 313.9629
931.9950, 229.9307
933.1180, 369.4102
934.2410, 231.6143
935.3640, 237.8994
936.4860, 405.4883
937.6090, 464.0117
938.7310, 556.4980
939.8530, 649.3301
940.9750, 614.3682
942.0970, 817.5371
943.2180, 848.8408
944.3400, 978.1025
945.4610, 1297.038
946.5820, 1586.532
947.7030, 1740.022
948.8240, 2019.165
949.9450, 2579.915
951.0650, 2836.245
952.1860, 3602.619
953.3060, 4919.998
954.4260, 6573.727
955.5460, 9106.887
956.6650, 12832.36
957.7850, 17922.36
958.9040, 23885.60
960.0230, 29920.55
961.1420, 36536.57
962.2610, 43163.85
963.3800, 46892.68
964.4990, 45382.80
965.6170, 39147.55
966.7350, 30880.75
967.8530, 23479.92
968.9710, 17044.09
970.0890, 11967.96
971.2070, 8554.590
972.3240, 5974.194
973.4410, 4284.439
974.5580, 3086.477
975.6750, 2187.894
976.7920, 1517.480
977.9090, 1334.291
979.0250, 974.7568
980.1410, 874.2207
981.2580, 603.6846
982.3740, 550.7373
983.4890, 367.2080
984.6050, 321.6787
985.7200, 209.1484
986.8360, 188.6572
987.9510, 186.0898
989.0660, 184.5625
990.1810, 247.0352
991.2950, 224.5078
992.4100, 369.0029
993.5240, 214.4980
994.6390, 143.9941
995.7530, 185.5771
996.8660, 269.7637
997.9800, 101.2646
999.0940, 152.7656
1000.207, 212.2676
1001.320, 212.7715
1002.433, 343.2773
1003.546, 591.7881
1004.659, 765.7227
1005.772, 862.2383
1006.884, 1133.769
1007.996, 1154.309
1009.108, 1253.850
1010.220, 1101.720
1011.332, 989.1260
1012.444, 784.1182
1013.555, 512.6475
1014.666, 500.2617
1015.777, 320.8867
1016.888, 247.5127
1017.999, 341.1406
1019.110, 262.7695
1020.220, 279.3350
1021.331, 426.8594
1022.441, 273.2949
1023.551, 385.7793
1024.661, 505.2178
1025.770, 740.6914
1026.880, 852.1846
1027.989, 760.6230
1029.098, 1250.281
1030.207, 1469.773
1031.316, 1530.414
1032.425, 1457.599
1033.533, 1658.531
1034.642, 1525.211
1035.750, 1349.741
1036.858, 1250.426
1037.966, 1102.114
1039.073, 1064.806
1040.181, 962.5020
1041.288, 978.2041
1042.396, 880.9102
1043.503, 754.6211
1044.610, 851.3340
1045.716, 705.0508
1046.823, 514.7695
1047.929, 667.4912
1049.036, 668.2158
1050.142, 471.9453
1051.248, 683.6846
1052.353, 854.4258
1053.459, 826.1729
1054.564, 925.9248
1055.670, 943.6797
1056.775, 995.3701
1057.880, 1038.647
1058.985, 1097.526
1060.089, 1062.837
1061.194, 1056.623
1062.298, 957.4121
1063.402, 778.2041
1064.506, 626.0010
1065.610, 625.3398
1066.713, 671.1436
1067.817, 700.9570
1068.920, 700.7734
1070.023, 860.6016
1071.126, 763.4336
1072.229, 986.2676
1073.332, 855.1055
1074.435, 949.9473
1075.537, 772.7930
1076.639, 946.6406
1077.741, 868.4941
1078.843, 862.3604
1079.945, 678.2305
1081.046, 740.2061
1082.148, 572.0830
1083.249, 563.0000
1084.350, 397.9199
1085.451, 521.8438
1086.551, 446.7695
1087.652, 320.7109
1088.752, 257.6562
1089.853, 233.6699
1090.953, 268.6230
1092.053, 133.5801
1093.152, 111.5420
1094.252, 48.52637
1095.351, 15.69824
1096.451, 43.52441
1097.550, 38.56445
1098.649, 53.38672
1099.748, 206.3418
1100.846, 32.70020
1101.945, 90.25293
1103.043, 26.78906
1104.141, 14.17090
1105.239, 83.35059
1106.337, 2.326172
1107.434, 71.30566
1108.532, 70.28809
1109.629, 93.34766
1110.726, 56.34277
1111.823, 52.84082
1112.920, 112.3408
1114.017, 36.34375
1115.113, 34.30664
1116.210, 82.31641
1117.306, 73.22266
1118.402, 53.41699
1119.498, 157.4346
1120.593, 176.5039
1121.689, 254.5264
1122.784, 212.5498
1123.879, 354.7715
1124.974, 303.7998
1126.069, 213.8301
1127.164, 3.137695
1128.259, 18.10449
1129.353, 102.5215
1130.447, 88.56934
1131.541, 130.6221
1132.635, 187.6797
1133.729, 101.7344
1134.822, 209.9443
1135.916, 30.99707
1137.009, 67.99316
1138.102, 63.04297
1139.195, 121.0947
1140.288, 65.14746
1141.380, 41.97852
1142.473, 94.40039
1143.565, 26.99902
1144.657, 144.0293
1145.749, 64.08887
1146.841, 81.11719
1147.932, 119.1455
1149.024, 235.1748
1150.115, 101.2041
1151.206, 162.2354
1152.297, 14.61719
1153.388, 296.4141
1154.479, 97.95215
1155.569, 127.9883
1156.659, 191.0264
1157.750, 115.0654
1158.839, 265.1055
1159.929, 233.1455
1161.019, 177.1875
1162.108, 107.2520
1163.198, 120.6445
1164.287, 90.23340
1165.376, 158.5518
1166.465, 113.6807
1167.553, 173.8105
1168.642, 235.9678
1169.730, 150.1250
1170.818, 195.2822
1171.906, 82.43945
1172.994, 163.5957
1174.082, 209.7529
1175.170, 122.9082
1176.257, 42.06543
1177.344, 163.2197
1178.431, 69.37500
1179.518, 121.5342
1180.605, 97.69336
1181.691, 191.8525
1182.778, 211.0107
1183.864, 196.1680
1184.950, 70.32422
1186.036, 48.48145
1187.122, 131.6357
1188.207, 187.1592
1189.292, 116.6016
1190.378, 18.78613
1191.463, 32.28516
1192.548, 122.3564
1193.632, 202.4268
1194.717, 210.4951
1195.801, 32.43750
1196.886, 116.6074
1197.970, 76.65039
1199.054, 61.69141
1200.137, 83.73145
1201.221, 130.7715
1202.305, 119.9922
1203.388, 152.0283
1204.471, 148.0625
1205.554, 58.09668
1206.637, 168.1270
1207.719, 138.1572
1208.802, 71.18652
1209.884, 181.2129
1210.966, 14.23828
1212.048, 244.2607
1213.130, 95.28125
1214.212, 280.3008
1215.293, 300.3174
1216.374, 139.3330
1217.456, 338.3447
1218.536, 308.3564
1219.617, 26.36914
1220.698, 269.3770
1221.778, 53.38379
1222.859, 176.3887
1223.939, 40.39062
1225.019, 175.3906
1226.099, 170.0127
1227.178, 335.3057
1228.258, 285.8594
1229.337, 314.4678
1230.417, 153.8369
1231.496, 286.6680
1232.574, 260.6523
1233.653, 235.7617
1234.732, 8.794922
1235.810, 97.76953
1236.888, 117.7383
1237.966, 194.7090
1239.044, 26.67578
1240.122, 93.63867
1241.199, 144.5996
1242.277, 65.55664
1243.354, 158.5117
1244.431, 19.53711
1245.508, 203.3965
1246.585, 28.42773
1247.661, 123.3516
1248.738, 192.2773
1249.814, 35.19531
1250.890, 215.1113
1251.966, 77.02539
1253.042, 70.06445
1254.117, 89.79688
1255.193, 103.6562
1256.268, 88.50977
1257.343, 147.1074
1258.418, 6.015625
1259.493, 130.8555
1260.567, 127.6914
1261.642, 52.52539
1262.716, 194.3555
1263.790, 19.17969
1264.864, 126.0020
1265.938, 0.2812500
1267.011, 85.52539
1268.085, 97.32812
1269.158, 173.1270
1270.231, 77.37500
1271.304, 70.93750
1272.377, 5.755859
1273.450, 165.9023
1274.522, 44.58398
1275.594, 71.26367
1276.666, 159.9375
1277.738, 126.6113
1278.810, 82.27930
1279.882, 151.9473
1280.953, 29.75586
1282.025, 289.5254
1283.096, 7.179688
1284.167, 62.20508
1285.238, 176.8477
1286.308, 87.48633
1287.379, 118.1230
1288.449, 138.7559
