##NAMES=Fluor-buergerite
##RRUFFID=R060132
##IDEAL CHEMISTRY=NaFe^3+^_3_Al_6_(Si_6_O_18_)(BO_3_)_3_O_3_F
##LOCALITY=20 km. south of San Luis Potasi, Mexico
##OWNER=RRUFF
##SOURCE=University of Arizona Mineral Museum
##DESCRIPTION=Brown short prismatic
##STATUS=The identification of this mineral has been confirmed by X-ray diffraction and chemical analysis
##URL=rruff.info/R060132
##MEASURED CHEMISTRY=(Na_0.87_Ca_0.03_[box]_0.10_)(Fe^3+^_0.82_Al_0.12_Mg_0.04_Ti_0.02_)_3_Al_6_(BO_3_)_3_(Si_0.98_Al_0.02_)_6_O_18_(O_0.66_F_0.19_(OH)_0.15_)_4_
##PIN_ID=L00828
##ORIENTATION=Laser parallel to -c* (0 0 -1). Fiducial mark perpendicular to laser is parallel to -a [-1 0 0]
131.6680, 0.0000000E+00
132.8980, 2.123047
134.1270, 74.59668
135.3560, 8.760742
136.5850, 131.7461
137.8140, 139.5488
139.0430, 399.1943
140.2710, 329.9922
141.5000, 252.9131
142.7280, 136.2695
143.9560, 45.66211
145.1840, 155.9141
146.4120, 303.0938
147.6390, 361.1553
148.8670, 411.4746
150.0940, 594.6846
151.3210, 721.5791
152.5490, 966.1787
153.7750, 1011.156
155.0020, 1032.853
156.2290, 1081.441
157.4550, 905.7900
158.6810, 987.7861
159.9080, 923.6045
161.1340, 776.2881
162.3590, 786.1211
163.5850, 939.3447
164.8110, 1152.158
166.0360, 1410.739
167.2610, 1237.241
168.4860, 1093.798
169.7110, 1282.529
170.9360, 1487.570
172.1610, 1468.659
173.3850, 1390.574
174.6100, 1362.820
175.8340, 1537.509
177.0580, 1645.142
178.2820, 1811.662
179.5050, 1893.580
180.7290, 1951.258
181.9520, 1997.704
183.1760, 2034.491
184.3990, 2133.648
185.6220, 2001.719
186.8450, 2289.699
188.0670, 2047.918
189.2900, 2184.366
190.5120, 2021.040
191.7340, 2306.926
192.9560, 2287.004
194.1780, 2158.256
195.4000, 2185.674
196.6220, 2121.260
197.8430, 2013.022
199.0640, 2093.974
200.2860, 2213.115
201.5070, 2500.448
202.7270, 2630.974
203.9480, 2205.691
205.1690, 1491.614
206.3890, 807.7588
207.6090, 556.3193
208.8290, 634.4395
210.0490, 288.9180
211.2690, 215.7949
212.4890, 319.9404
213.7080, 316.2314
214.9280, 342.6650
216.1470, 255.2383
217.3660, 52.94727
218.5850, 72.78711
219.8030, 55.25000
221.0220, 29.16504
222.2400, 51.03809
223.4590, 45.64355
224.6770, 104.2100
225.8950, 93.66309
227.1120, 74.00684
228.3300, 61.24707
229.5480, 144.3975
230.7650, 82.47070
231.9820, 229.4707
233.1990, 138.3945
234.4160, 60.76172
235.6330, 33.00000
236.8490, 167.3232
238.0660, 108.7383
239.2820, 12.24414
240.4980, 208.8467
241.7140, 373.5469
242.9300, 465.3457
244.1460, 430.2480
245.3610, 615.2490
246.5770, 712.3584
247.7920, 695.5537
249.0070, 1028.758
250.2220, 1095.929
251.4370, 1501.057
252.6510, 1658.093
253.8660, 1997.060
255.0800, 2157.911
256.2940, 2434.682
257.5080, 3125.523
258.7220, 3371.488
259.9360, 3545.633
261.1490, 3895.020
262.3630, 3640.693
263.5760, 3492.639
264.7890, 3371.802
266.0020, 3297.562
267.2150, 3517.592
268.4270, 3367.212
269.6400, 3531.983
270.8520, 3814.905
272.0640, 3754.982
273.2760, 3966.212
274.4880, 4033.600
275.7000, 4045.143
276.9120, 4044.843
278.1230, 3941.727
279.3340, 3732.445
280.5450, 3497.402
281.7560, 3185.417
282.9670, 3090.209
284.1780, 2807.678
285.3880, 2577.536
286.5980, 2407.366
287.8090, 2167.323
289.0190, 2112.363
290.2290, 2101.725
291.4380, 2165.223
292.6480, 2077.280
293.8570, 2020.384
295.0670, 2206.531
296.2760, 2081.726
297.4850, 2119.646
298.6930, 2045.259
299.9020, 2021.596
301.1110, 2014.960
302.3190, 1820.332
303.5270, 1594.696
304.7350, 1809.053
305.9430, 1438.413
307.1510, 1377.788
308.3580, 1114.186
309.5660, 1023.615
310.7730, 1049.080
311.9800, 1292.590
313.1870, 1149.148
314.3940, 1294.762
315.6010, 1409.372
316.8070, 1315.167
318.0130, 1557.957
319.2200, 1859.815
320.4260, 1730.688
321.6310, 2030.463
322.8370, 2044.166
324.0430, 2220.698
325.2480, 2310.066
326.4540, 2233.263
327.6590, 2486.236
328.8640, 2371.151
330.0680, 2398.111
331.2730, 2364.143
332.4780, 2050.300
333.6820, 2022.581
334.8860, 1926.986
336.0900, 1862.517
337.2940, 1970.170
338.4980, 1817.947
339.7010, 1734.851
340.9050, 1670.877
342.1080, 1907.026
343.3110, 1970.302
344.5140, 2167.700
345.7170, 2269.222
346.9200, 2237.868
348.1220, 2332.639
349.3240, 2301.533
350.5270, 2578.551
351.7290, 2532.693
352.9310, 2466.957
354.1320, 2635.341
355.3340, 2343.846
356.5350, 2364.014
357.7370, 2100.755
358.9380, 1931.615
360.1390, 1882.594
361.3400, 1865.690
362.5400, 1777.113
363.7410, 1767.429
364.9410, 1658.006
366.1410, 1583.238
367.3410, 1541.527
368.5410, 1428.332
369.7410, 1565.187
370.9400, 1249.850
372.1400, 1328.818
373.3390, 1126.717
374.5380, 1248.330
375.7370, 964.5498
376.9360, 1067.863
378.1350, 908.5225
379.3330, 671.3975
380.5310, 678.2754
381.7300, 1026.438
382.9280, 840.0391
384.1260, 1010.049
385.3230, 883.6104
386.5210, 1237.312
387.7180, 1458.580
388.9160, 1565.805
390.1130, 1803.377
391.3100, 2042.895
392.5060, 2198.996
393.7030, 2600.301
394.9000, 2780.539
396.0960, 3201.094
397.2920, 3287.947
398.4880, 3592.934
399.6840, 4121.055
400.8800, 3827.309
402.0750, 4013.701
403.2710, 4163.227
404.4660, 3967.891
405.6610, 3950.691
406.8560, 3981.625
408.0510, 3634.695
409.2450, 3294.902
410.4400, 3146.246
411.6340, 2690.725
412.8280, 2513.340
414.0220, 1976.094
415.2160, 1608.984
416.4100, 1257.012
417.6030, 913.1797
418.7970, 579.4863
419.9900, 384.6113
421.1830, 102.5176
422.3760, 69.23828
423.5690, 77.89844
424.7610, 182.9219
425.9540, 296.8594
427.1460, 358.7578
428.3380, 153.6348
429.5300, 143.4219
430.7220, 157.1133
431.9140, 223.7129
433.1050, 178.2402
434.2970, 99.68359
435.4880, 247.9902
436.6790, 173.8086
437.8700, 342.7754
439.0610, 638.8926
440.2510, 556.1582
441.4420, 846.5742
442.6320, 891.1426
443.8220, 1033.859
445.0120, 1369.730
446.2020, 1461.754
447.3910, 1708.932
448.5810, 2001.266
449.7700, 2081.754
450.9600, 2316.400
452.1490, 2571.203
453.3370, 2865.164
454.5260, 2895.285
455.7150, 2985.562
456.9030, 3228.000
458.0910, 3329.598
459.2800, 3477.354
460.4670, 3225.273
461.6550, 3187.354
462.8430, 3297.596
464.0300, 3204.000
465.2180, 3318.568
466.4050, 3084.303
467.5920, 3107.203
468.7790, 2821.270
469.9650, 2580.506
471.1520, 2729.914
472.3380, 2318.492
473.5250, 1968.244
474.7110, 1785.166
475.8970, 1447.262
477.0820, 1265.521
478.2680, 1135.973
479.4540, 928.5859
480.6390, 835.3730
481.8240, 737.3340
483.0090, 722.4668
484.1940, 624.7734
485.3780, 286.2539
486.5630, 459.9062
487.7470, 441.7344
488.9320, 46.73438
490.1160, 251.9082
491.3000, 236.2539
492.4830, 228.7754
493.6670, 131.4668
494.8500, 57.33398
496.0340, 63.37305
497.2170, 77.58789
498.4000, 173.9746
499.5820, 181.5371
500.7650, 35.27344
501.9480, 257.1816
503.1300, 263.2656
504.3120, 508.5215
505.4940, 1181.969
506.6760, 1491.602
507.8580, 1529.557
509.0390, 1086.500
510.2210, 1473.738
511.4020, 1521.188
512.5830, 1527.857
513.7640, 1552.746
514.9450, 1389.850
516.1250, 1315.160
517.3060, 1326.699
518.4860, 850.4551
519.6660, 965.4551
520.8460, 553.6836
522.0260, 676.0918
523.2060, 530.7012
524.3850, 127.4824
525.5650, 45.43945
526.7440, 60.58398
527.9230, 261.0996
529.1020, 117.6758
530.2810, 324.1074
531.4590, 217.4512
532.6380, 182.6758
533.8160, 226.7695
534.9940, 288.7480
536.1720, 88.62891
537.3500, 96.35742
538.5270, 34.06445
539.7050, 152.6562
540.8820, 93.41797
542.0590, 300.3516
543.2360, 416.4707
544.4130, 550.7754
545.5900, 894.2656
546.7660, 884.9863
547.9430, 1266.965
549.1190, 1377.176
550.2950, 1478.611
551.4710, 1519.283
552.6470, 1731.199
553.8220, 1920.332
554.9980, 2089.715
556.1730, 2093.361
557.3480, 2178.246
558.5230, 2300.371
559.6980, 2148.754
560.8730, 1931.354
562.0470, 2358.201
563.2220, 2296.299
564.3960, 2306.635
565.5700, 2440.244
566.7440, 2225.234
567.9170, 2308.852
569.0910, 2484.164
570.2640, 2463.055
571.4380, 2783.586
572.6110, 2882.891
573.7840, 3070.932
574.9570, 3237.928
576.1290, 3290.055
577.3020, 3419.904
578.4740, 3662.973
579.6460, 3735.268
580.8180, 3836.746
581.9900, 4086.416
583.1620, 4403.328
584.3330, 4586.412
585.5040, 4945.697
586.6760, 5243.178
587.8470, 5503.848
589.0180, 5880.707
590.1880, 6294.754
591.3590, 6698.303
592.5290, 7178.348
593.7000, 7673.883
594.8700, 8316.570
596.0400, 8941.430
597.2090, 9697.447
598.3790, 10502.66
599.5490, 11093.06
600.7180, 12344.61
601.8870, 13043.33
603.0560, 14187.21
604.2250, 14916.26
605.3940, 15735.46
606.5620, 16686.83
607.7300, 17568.35
608.8990, 18445.01
610.0670, 19247.83
611.2350, 19831.79
612.4020, 20566.48
613.5700, 21328.17
614.7370, 21793.59
615.9050, 22459.14
617.0720, 23046.86
618.2390, 23446.70
619.4060, 24315.69
620.5720, 25145.82
621.7390, 25873.09
622.9050, 26895.48
624.0710, 27380.02
625.2370, 28371.69
626.4030, 29240.49
627.5690, 30378.41
628.7340, 31352.47
629.9000, 32667.65
631.0650, 33767.96
632.2300, 35428.39
633.3950, 36639.95
634.5600, 37786.62
635.7240, 38521.42
636.8890, 39432.33
638.0530, 39637.36
639.2170, 38961.51
640.3810, 38590.77
641.5450, 37269.16
642.7080, 35730.65
643.8720, 34311.25
645.0350, 32273.97
646.1980, 30581.80
647.3610, 28660.74
648.5240, 27163.78
649.6870, 25875.94
650.8490, 24875.20
652.0120, 23618.56
653.1740, 22873.03
654.3360, 21911.60
655.4980, 20891.27
656.6600, 19828.04
657.8210, 19143.91
658.9830, 17974.88
660.1440, 16876.94
661.3050, 15586.09
662.4660, 14422.34
663.6270, 13440.69
664.7870, 12280.12
665.9480, 11403.64
667.1080, 10738.25
668.2680, 10064.94
669.4280, 9058.270
670.5880, 8534.863
671.7480, 7876.322
672.9070, 7414.049
674.0670, 6453.404
675.2260, 5781.768
676.3850, 5304.406
677.5440, 4401.945
678.7030, 3951.396
679.8610, 3173.924
681.0200, 2571.633
682.1780, 2211.676
683.3360, 1637.910
684.4940, 1425.582
685.6520, 1150.709
686.8090, 703.9590
687.9670, 775.7910
689.1240, 811.4180
690.2810, 625.1777
691.4380, 748.6367
692.5950, 709.3535
693.7520, 783.6523
694.9080, 665.7656
696.0650, 1045.518
697.2210, 832.8223
698.3770, 1065.830
699.5330, 1116.307
700.6880, 1378.576
701.8440, 1296.939
702.9990, 1506.945
704.1550, 1428.250
705.3100, 1576.611
706.4650, 1435.064
707.6190, 1479.408
708.7740, 1681.328
709.9290, 1654.658
711.0830, 1402.398
712.2370, 1650.293
713.3910, 1576.463
714.5450, 1319.979
715.6980, 1292.801
716.8520, 1352.498
718.0050, 1145.238
719.1580, 960.7793
720.3110, 1043.779
721.4640, 958.2930
722.6170, 967.5879
723.7700, 1038.764
724.9220, 879.2070
726.0740, 930.5469
727.2260, 834.4248
728.3780, 830.3906
729.5300, 993.0752
730.6810, 943.9189
731.8330, 997.5977
732.9840, 917.8027
734.1350, 1020.798
735.2860, 947.4082
736.4370, 804.4004
737.5880, 1033.572
738.7380, 747.3760
739.8880, 753.6299
741.0390, 770.0166
742.1890, 942.6543
743.3380, 813.8340
744.4880, 1212.348
745.6380, 1149.898
746.7870, 1274.989
747.9360, 1557.559
749.0850, 1791.453
750.2340, 1918.265
751.3830, 2171.039
752.5310, 2288.470
753.6800, 2342.165
754.8280, 2452.680
755.9760, 2420.885
757.1240, 2442.971
758.2720, 2324.254
759.4190, 2223.301
760.5670, 2144.282
761.7140, 1848.958
762.8610, 1528.390
764.0080, 1581.608
765.1550, 1390.700
766.3020, 1415.473
767.4480, 1140.150
768.5950, 1027.566
769.7410, 1003.472
770.8870, 886.7852
772.0330, 790.5762
773.1780, 942.2549
774.3240, 641.4092
775.4690, 767.5078
776.6140, 864.5508
777.7590, 1036.536
778.9040, 964.4629
780.0490, 1264.330
781.1940, 1677.140
782.3380, 1758.887
783.4820, 2291.572
784.6260, 2374.196
785.7700, 2660.756
786.9140, 2906.250
788.0580, 2976.678
789.2010, 3288.041
790.3450, 3301.334
791.4880, 3153.559
792.6310, 2898.715
793.7730, 2561.800
794.9160, 2148.813
796.0590, 1823.754
797.2010, 1541.272
798.3430, 1192.416
799.4850, 1016.135
800.6270, 915.7764
801.7690, 650.3418
802.9100, 706.8301
804.0520, 663.2373
805.1930, 651.5674
806.3340, 616.8486
807.4750, 739.0596
808.6160, 530.2305
809.7560, 630.3438
810.8970, 447.3936
812.0370, 385.3848
813.1770, 376.3262
814.3170, 249.1904
815.4570, 195.9756
816.5960, 176.6719
817.7360, 170.2773
818.8750, 33.78906
820.0140, 36.17480
821.1530, 61.43359
822.2920, 135.4297
823.4310, 228.5156
824.5690, 137.8740
825.7070, 98.46191
826.8460, 144.2578
827.9840, 167.2891
829.1220, 66.57227
830.2590, 194.0547
831.3970, 245.8057
832.5340, 140.8555
833.6710, 146.1504
834.8080, 217.6943
835.9450, 62.52832
837.0820, 167.5732
838.2190, 197.8838
839.3550, 125.4795
840.4910, 143.3242
841.6270, 93.42773
842.7630, 91.76660
843.8990, 150.3418
845.0350, 140.1855
846.1700, 64.29297
847.3060, 195.6289
848.4410, 20.26074
849.5760, 6.098633
850.7100, 9.139648
851.8450, 107.3818
852.9800, 39.88086
854.1140, 86.60254
855.2480, 123.4277
856.3820, 49.29980
857.5160, 126.0098
858.6500, 187.4092
859.7830, 9.678711
860.9170, 46.93652
862.0500, 51.75781
863.1830, 66.32324
864.3160, 65.83691
865.4480, 189.1709
866.5810, 482.3496
867.7130, 386.7373
868.8460, 447.3389
869.9780, 233.1455
871.1100, 322.8027
872.2410, 8.325195
873.3730, 73.63477
874.5050, 315.7588
875.6360, 289.7432
876.7670, 226.5840
877.8980, 216.2705
879.0290, 239.8018
880.1590, 281.1797
881.2900, 434.4111
882.4200, 385.5117
883.5500, 348.4785
884.6800, 515.3057
885.8100, 331.0186
886.9400, 334.5898
888.0690, 321.0195
889.1990, 309.3047
890.3280, 440.4424
891.4570, 456.4492
892.5860, 510.3242
893.7140, 465.0889
894.8430, 491.7217
895.9710, 498.2256
897.1000, 532.6016
898.2280, 559.9805
899.3560, 595.5635
900.4830, 618.9736
901.6110, 687.8574
902.7380, 702.6279
903.8660, 762.2783
904.9930, 631.8242
906.1200, 877.2910
907.2460, 855.6543
908.3730, 851.3672
909.5000, 1086.065
910.6260, 882.1240
911.7520, 934.0732
912.8780, 1060.950
914.0040, 887.7285
915.1290, 960.4131
916.2550, 1060.980
917.3800, 1127.468
918.5050, 1019.847
919.6300, 1219.136
920.7550, 1111.309
921.8800, 1191.363
923.0040, 1167.303
924.1290, 1342.126
925.2530, 1251.840
926.3770, 1179.438
927.5010, 1262.927
928.6250, 1210.320
929.7480, 1355.602
930.8720, 1499.781
931.9950, 1418.852
933.1180, 1579.828
934.2410, 1451.688
935.3640, 1648.436
936.4860, 1653.067
937.6090, 1809.586
938.7310, 1707.990
939.8530, 1692.281
940.9750, 1739.458
942.0970, 1875.521
943.2180, 1746.472
944.3400, 1921.310
945.4610, 1918.033
946.5820, 2067.645
947.7030, 1992.146
948.8240, 2043.532
949.9450, 1975.807
951.0650, 2164.969
952.1860, 2185.021
953.3060, 2252.859
954.4260, 2253.328
955.5460, 2276.572
956.6650, 2413.343
957.7850, 2353.619
958.9040, 2348.736
960.0230, 2508.232
961.1420, 2384.896
962.2610, 2544.385
963.3800, 2546.134
964.4990, 2632.915
965.6170, 2531.410
966.7350, 2622.379
967.8530, 2587.664
968.9710, 2493.352
970.0890, 2612.291
971.2070, 2657.716
972.3240, 2635.300
973.4410, 2751.741
974.5580, 2760.492
975.6750, 2677.895
976.7920, 2755.205
977.9090, 2794.401
979.0250, 2555.711
980.1410, 2658.450
981.2580, 2695.752
982.3740, 2793.614
983.4890, 2731.295
984.6050, 2800.680
985.7200, 2878.691
986.8360, 2771.359
987.9510, 2917.093
989.0660, 2792.726
990.1810, 2732.498
991.2950, 2581.751
992.4100, 2796.432
993.5240, 2721.266
994.6390, 2716.293
995.7530, 2976.726
996.8660, 2696.328
997.9800, 2650.329
999.0940, 2678.179
1000.207, 2627.242
1001.320, 2809.081
1002.433, 2710.019
1003.546, 2728.361
1004.659, 2920.846
1005.772, 2961.646
1006.884, 2893.996
1007.996, 2999.096
1009.108, 3139.491
1010.220, 3046.365
1011.332, 3287.035
1012.444, 3250.383
1013.555, 3179.112
1014.666, 3351.434
1015.777, 3228.645
1016.888, 3279.241
1017.999, 3457.281
1019.110, 3447.458
1020.220, 3311.102
1021.331, 3199.707
1022.441, 3137.045
1023.551, 3160.102
1024.661, 3096.727
1025.770, 3078.414
1026.880, 2977.363
1027.989, 2971.979
1029.098, 2871.748
1030.207, 2979.502
1031.316, 2721.584
1032.425, 2367.723
1033.533, 2591.984
1034.642, 2390.411
1035.750, 2417.574
1036.858, 2278.147
1037.966, 2323.625
1039.073, 2304.495
1040.181, 2351.295
1041.288, 2170.424
1042.396, 2235.662
1043.503, 2219.748
1044.610, 2137.185
1045.716, 2273.477
1046.823, 2195.519
1047.929, 2041.302
1049.036, 2368.670
1050.142, 2337.637
1051.248, 2498.184
1052.353, 2510.561
1053.459, 2468.794
1054.564, 2745.994
1055.670, 2897.164
1056.775, 2876.301
1057.880, 3097.748
1058.985, 3304.825
1060.089, 3227.701
1061.194, 3174.422
1062.298, 3193.381
1063.402, 3113.441
1064.506, 3278.934
1065.610, 3088.451
1066.713, 2990.330
1067.817, 3124.182
1068.920, 2800.008
1070.023, 2784.809
1071.126, 2709.582
1072.229, 2576.334
1073.332, 2610.062
1074.435, 2309.768
1075.537, 2155.453
1076.639, 2127.115
1077.741, 1977.756
1078.843, 1907.256
1079.945, 2079.977
1081.046, 1807.559
1082.148, 1790.123
1083.249, 1868.668
1084.350, 1750.195
1085.451, 1637.707
1086.551, 1872.207
1087.652, 1720.703
1088.752, 1567.205
1089.853, 1788.709
1090.953, 1738.262
1092.053, 1549.889
1093.152, 1713.572
1094.252, 1613.258
1095.351, 1625.084
1096.451, 1602.932
1097.550, 1650.822
1098.649, 1648.787
1099.748, 1421.842
1100.846, 1382.959
1101.945, 1193.145
1103.043, 1386.414
1104.141, 1286.730
1105.239, 1289.123
1106.337, 1139.600
1107.434, 1198.143
1108.532, 1175.758
1109.629, 1317.432
1110.726, 1139.166
1111.823, 1019.977
1112.920, 1171.863
1114.017, 1116.805
1115.113, 1007.836
1116.210, 1035.916
1117.306, 976.0410
1118.402, 1051.209
1119.498, 1075.449
1120.593, 1021.742
1121.689, 868.1035
1122.784, 881.4883
1123.879, 900.9082
1124.974, 608.4082
1126.069, 554.9258
1127.164, 498.4902
1128.259, 612.0918
1129.353, 521.7344
1130.447, 410.4102
1131.541, 439.1230
1132.635, 381.8574
1133.729, 311.6016
1134.822, 132.3535
1135.916, 379.1113
1137.009, 118.8926
1138.102, 322.6875
1139.195, 223.5352
1140.288, 175.4238
1141.380, 162.3301
1142.473, 23.25586
1143.565, 76.20508
1144.657, 66.17969
1145.749, 58.18164
1146.841, 120.2012
1147.932, 133.2363
1149.024, 175.2871
1150.115, 64.64258
1151.206, 35.41211
1152.297, 78.49219
1153.388, 32.58984
1154.479, 190.7090
1155.569, 43.85156
1156.659, 81.01172
1157.750, 88.81250
1158.839, 15.33984
1159.929, 59.50977
1161.019, 55.69336
1162.108, 1.103516
1163.198, 9.109375
1164.287, 92.33789
1165.376, 31.42188
1166.465, 43.17578
1167.553, 4.062500
1168.642, 66.61719
1169.730, 181.4512
1170.818, 74.28711
1171.906, 81.13867
1172.994, 19.01367
1174.082, 130.8809
1175.170, 26.79492
1176.257, 198.6992
1177.344, 82.68359
1178.431, 112.6875
1179.518, 53.27148
1180.605, 164.7539
1181.691, 33.84570
1182.778, 124.9316
1183.864, 76.93750
1184.950, 31.82617
1186.036, 59.72461
1187.122, 25.64258
1188.207, 36.42578
1189.292, 26.50781
1190.378, 47.54297
1191.463, 85.59570
1192.548, 27.66797
1193.632, 68.73438
1194.717, 23.77539
1195.801, 102.8086
1196.886, 78.13281
1197.970, 104.0898
1199.054, 87.06250
1200.137, 100.0820
1201.221, 59.15234
1202.305, 46.24219
1203.388, 123.3750
1204.471, 260.5312
1205.554, 48.71094
1206.637, 19.91211
1207.719, 207.1289
1208.802, 47.36914
1209.884, 78.62305
1210.966, 180.8984
1212.048, 113.1934
1213.130, 175.5059
1214.212, 183.8379
1215.293, 297.1895
1216.374, 285.7500
1217.456, 312.9531
1218.536, 344.3613
1219.617, 343.7910
1220.698, 468.2422
1221.778, 481.7109
1222.859, 436.2070
1223.939, 637.7305
1225.019, 646.2734
1226.099, 625.8418
1227.178, 650.4277
1228.258, 740.0352
1229.337, 834.6582
1230.417, 838.3145
1231.496, 1103.986
1232.574, 1138.678
1233.653, 1486.385
1234.732, 1558.113
1235.810, 1799.865
1236.888, 1968.637
1237.966, 2008.428
1239.044, 2279.230
1240.122, 2397.053
1241.199, 2660.889
1242.277, 2829.738
1243.354, 2787.605
1244.431, 2950.484
1245.508, 2906.381
1246.585, 3077.289
1247.661, 3189.215
1248.738, 3095.412
1249.814, 3079.992
1250.890, 3030.139
1251.966, 2880.164
1253.042, 3033.199
1254.117, 3074.250
1255.193, 2926.312
1256.268, 2972.391
1257.343, 3039.482
1258.418, 3084.592
1259.493, 3272.709
1260.567, 3183.848
1261.642, 3303.000
1262.716, 3240.164
1263.790, 3287.340
1264.864, 3208.527
1265.938, 3348.725
1267.011, 3563.936
1268.085, 3286.152
1269.158, 3345.383
1270.231, 3138.623
1271.304, 2991.873
1272.377, 3004.699
1273.450, 2906.408
1274.522, 2914.691
1275.594, 2964.982
1276.666, 2844.285
1277.738, 2773.598
1278.810, 2851.922
1279.882, 2850.719
1280.953, 2940.064
1282.025, 3020.418
1283.096, 3190.781
1284.167, 3319.154
1285.238, 3474.537
1286.308, 3542.926
1287.379, 3511.439
1288.449, 3688.846
1289.519, 3835.258
1290.589, 3704.699
1291.659, 3654.039
1292.729, 3660.496
1293.798, 3450.967
1294.868, 3418.330
1295.937, 3398.197
1297.006, 3423.672
1298.075, 3144.426
1299.143, 3065.215
1300.212, 2934.586
