##NAMES=Fluorapatite
##RRUFFID=R050617
##IDEAL CHEMISTRY=Ca_5_(PO_4_)_3_F
##LOCALITY=Santa Cruz, Sonora, Mexico
##OWNER=RRUFF
##SOURCE=University of Arizona Mineral Museum
##DESCRIPTION=Tan colored hexagonal prism
##STATUS=The identification of this mineral is confirmed by single-crystal X-ray diffraction and chemical analysis.
##URL=rruff.info/R050617
##MEASURED CHEMISTRY=Ca_5.00_(P_1.00_O_4_)_3_(F_0.99_Cl_0.01_)
##PIN_ID=L01712
##ORIENTATION=Laser parallel to c* (0 0 1). Fiducial mark perpendicular to laser is parallel to -b [0 -1 0]
105.8150, 0.0000000E+00
107.0470, 5.0903000E-02
108.2800, 32.69397
109.5120, 85.80908
110.7440, 37.39014
111.9760, 3.354370
113.2080, 37.44556
114.4400, 59.68335
115.6710, 76.27979
116.9030, 44.18420
118.1340, 32.37036
119.3650, 50.78601
120.5960, 35.39319
121.8270, 43.16467
123.0580, 31.07996
124.2880, 7.124390
125.5190, 90.28613
126.7490, 117.5513
127.9790, 86.06433
129.2090, 169.6621
130.4390, 161.3092
131.6680, 190.9996
132.8980, 213.7318
134.1270, 212.8475
135.3560, 294.3384
136.5850, 243.2078
137.8140, 280.1191
139.0430, 340.0734
140.2710, 301.0712
141.5000, 388.1140
142.7280, 373.2089
143.9560, 350.3395
145.1840, 286.4958
146.4120, 303.6731
147.6390, 204.8669
148.8670, 268.3285
150.0940, 225.4554
151.3210, 221.6243
152.5490, 230.8157
153.7750, 281.0165
155.0020, 218.2163
156.2290, 241.4196
157.4550, 206.6211
158.6810, 248.8151
159.9080, 233.1857
161.1340, 180.7449
162.3590, 170.9950
163.5850, 178.2552
164.8110, 184.6436
166.0360, 178.1216
167.2610, 171.0106
168.4860, 163.1827
169.7110, 143.6653
170.9360, 116.2454
172.1610, 102.8318
173.3850, 59.42822
174.6100, 88.14343
175.8340, 80.76245
177.0580, 80.63672
178.2820, 52.47888
179.5050, 46.41602
180.7290, 12.03625
181.9520, 39.65247
183.1760, 60.23938
184.3990, 75.80420
185.6220, 64.34888
186.8450, 29.87256
188.0670, 16.37891
189.2900, 28.87073
190.5120, 68.34668
191.7340, 19.19910
192.9560, 35.33936
194.1780, 9.843262
195.4000, 17.59082
196.6220, 39.25403
197.8430, 79.15161
199.0640, 36.95886
200.2860, 105.2740
201.5070, 23.49133
202.7270, 26.69775
203.9480, 80.94031
205.1690, 45.27136
206.3890, 67.57166
207.6090, 35.68335
208.8290, 47.30627
210.0490, 67.97644
211.2690, 57.96985
212.4890, 31.05603
213.7080, 16.43762
214.9280, 2.451172
216.1470, 35.04810
217.3660, 34.68518
218.5850, 37.23462
219.8030, 40.11597
221.0220, 76.73145
222.2400, 28.52173
223.4590, 59.31812
224.6770, 34.24170
225.8950, 25.85132
227.1120, 38.54858
228.3300, 105.0024
229.5480, 39.70898
230.7650, 54.33789
231.9820, 120.8169
233.1990, 56.36108
234.4160, 105.3542
235.6330, 135.0266
236.8490, 106.6643
238.0660, 136.6772
239.2820, 121.9219
240.4980, 137.8621
241.7140, 55.11890
242.9300, 73.82007
244.1460, 77.58423
245.3610, 100.6755
246.5770, 102.8643
247.7920, 51.90454
249.0070, 53.62646
250.2220, 102.8760
251.4370, 42.63940
252.6510, 133.2195
253.8660, 201.2983
255.0800, 84.71753
256.2940, 100.4854
257.5080, 187.5989
258.7220, 134.1274
259.9360, 185.9419
261.1490, 187.0066
262.3630, 236.7600
263.5760, 232.7354
264.7890, 247.8145
266.0020, 197.6768
267.2150, 272.4192
268.4270, 222.5300
269.6400, 233.4897
270.8520, 244.5242
272.0640, 214.6699
273.2760, 164.7053
274.4880, 137.3545
275.7000, 126.9829
276.9120, 101.3901
278.1230, 117.4260
279.3340, 82.09595
280.5450, 69.67334
281.7560, 68.12085
282.9670, 121.6973
284.1780, 92.08936
285.3880, 93.46411
286.5980, 63.82153
287.8090, 57.23364
289.0190, 62.75269
290.2290, 45.78198
291.4380, 85.06323
292.6480, 96.32544
293.8570, 120.5679
295.0670, 158.7810
296.2760, 151.7007
297.4850, 108.1404
298.6930, 145.2903
299.9020, 113.4204
301.1110, 100.5305
302.3190, 92.62012
303.5270, 104.6887
304.7350, 149.7368
305.9430, 84.76318
307.1510, 165.7668
308.3580, 112.7493
309.5660, 81.70972
310.7730, 144.6487
311.9800, 159.5654
313.1870, 152.4604
314.3940, 158.3320
315.6010, 159.1802
316.8070, 106.0049
318.0130, 123.0432
319.2200, 74.61499
320.4260, 100.5415
321.6310, 58.81934
322.8370, 6.689453
324.0430, 42.37402
325.2480, 2.566162
326.4540, 66.32373
327.6590, 51.57324
328.8640, 59.52515
330.0680, 71.51050
331.2730, 37.25293
332.4780, 28.30518
333.6820, 53.40723
334.8860, 58.21680
336.0900, 49.77173
337.2940, 23.08691
338.4980, 23.83765
339.7010, 41.42310
340.9050, 14.19946
342.1080, 21.17871
343.3110, 30.03613
344.5140, 14.00879
345.7170, 8.010010
346.9200, 49.98364
348.1220, 68.87158
349.3240, 39.55933
350.5270, 22.84375
351.7290, 32.51489
352.9310, 34.64185
354.1320, 40.39600
355.3340, 40.14746
356.5350, 47.48169
357.7370, 34.83228
358.9380, 36.77905
360.1390, 41.96338
361.3400, 32.36841
362.5400, 2.712646
363.7410, 60.87744
364.9410, 16.28687
366.1410, 20.49634
367.3410, 98.07715
368.5410, 3.762451
369.7410, 32.58301
370.9400, 76.48975
372.1400, 18.50562
373.3390, 115.5190
374.5380, 54.53833
375.7370, 39.43066
376.9360, 10.61548
378.1350, 29.36523
379.3330, 0.3137210
380.5310, 66.25439
381.7300, 40.18604
382.9280, 68.13525
384.1260, 2.888672
385.3230, 44.49585
386.5210, 58.38867
387.7180, 40.14062
388.9160, 84.74414
390.1130, 81.55811
391.3100, 10.92871
392.5060, 70.43579
393.7030, 33.77783
394.9000, 106.2527
396.0960, 3.570557
397.2920, 46.90381
398.4880, 7.246094
399.6840, 0.4987790
400.8800, 44.76489
402.0750, 149.8750
403.2710, 120.0391
404.4660, 61.39795
405.6610, 136.4529
406.8560, 83.43945
408.0510, 58.36499
409.2450, 111.2996
410.4400, 139.1865
411.6340, 50.25220
412.8280, 85.23926
414.0220, 66.01685
415.2160, 37.76929
416.4100, 62.73145
417.6030, 154.2590
418.7970, 119.8713
419.9900, 133.4971
421.1830, 171.2593
422.3760, 141.6067
423.5690, 161.0593
424.7610, 189.0872
425.9540, 155.1504
427.1460, 231.0505
428.3380, 291.7959
429.5300, 222.5081
430.7220, 358.0569
431.9140, 302.5388
433.1050, 406.0051
434.2970, 456.3606
435.4880, 421.8408
436.6790, 516.3286
437.8700, 468.8264
439.0610, 527.2883
440.2510, 599.7146
441.4420, 613.0957
442.6320, 601.4507
443.8220, 693.7837
445.0120, 672.0266
446.2020, 599.1973
447.3910, 585.3779
448.5810, 643.5647
449.7700, 502.5808
450.9600, 545.7188
452.1490, 430.7705
453.3370, 363.9424
454.5260, 291.1973
455.7150, 354.3545
456.9030, 269.2781
458.0910, 283.1638
459.2800, 282.0127
460.4670, 282.7451
461.6550, 203.5085
462.8430, 170.0249
464.0300, 80.60376
465.2180, 171.9602
466.4050, 210.0320
467.5920, 114.2317
468.7790, 147.8184
469.9650, 56.02808
471.1520, 121.1294
472.3380, 107.2173
473.5250, 159.3091
474.7110, 79.21191
475.8970, 61.02856
477.0820, 124.9009
478.2680, 131.7703
479.4540, 118.6077
480.6390, 120.2588
481.8240, 82.89526
483.0090, 100.6606
484.1940, 46.72949
485.3780, 86.99731
486.5630, 16.86646
487.7470, 23.76440
488.9320, 15.92969
490.1160, 32.93823
491.3000, 75.16724
492.4830, 4.7363002E-02
493.6670, 17.20264
494.8500, 72.21338
496.0340, 1.467773
497.2170, 25.70898
498.4000, 119.5049
499.5820, 29.17822
500.7650, 20.35059
501.9480, 82.98389
503.1300, 90.88135
504.3120, 80.16455
505.4940, 36.84131
506.6760, 9.380371
507.8580, 91.32422
509.0390, 2.453613
510.2210, 88.92725
511.4020, 29.27197
512.5830, 21.68311
513.7640, 91.30566
514.9450, 83.19629
516.1250, 69.58105
517.3060, 97.58398
518.4860, 75.41064
519.6660, 61.69580
520.8460, 58.48242
522.0260, 51.49512
523.2060, 46.03662
524.3850, 33.61914
525.5650, 73.23926
526.7440, 96.37402
527.9230, 6.980469
529.1020, 39.99902
530.2810, 67.43994
531.4590, 9.624512
532.6380, 70.03076
533.8160, 71.90283
534.9940, 70.55420
536.1720, 52.48633
537.3500, 46.90283
538.5270, 70.22412
539.7050, 63.00732
540.8820, 75.03027
542.0590, 62.80859
543.2360, 91.62842
544.4130, 71.46143
545.5900, 17.63623
546.7660, 82.45117
547.9430, 91.22754
549.1190, 97.99561
550.2950, 10.42480
551.4710, 91.48291
552.6470, 41.33643
553.8220, 51.41504
554.9980, 98.59424
556.1730, 99.74609
557.3480, 40.90283
558.5230, 5.840332
559.6980, 7.229004
560.8730, 98.80029
562.0470, 58.26367
563.2220, 149.3965
564.3960, 100.1226
565.5700, 180.1533
566.7440, 161.3345
567.9170, 222.9380
569.0910, 260.1953
570.2640, 339.2793
571.4380, 331.0171
572.6110, 417.9761
573.7840, 433.8521
574.9570, 580.5981
576.1290, 617.2441
577.3020, 610.9761
578.4740, 710.7920
579.6460, 749.4150
580.8180, 732.1514
581.9900, 714.1616
583.1620, 677.4907
584.3330, 559.2715
585.5040, 454.5532
586.6760, 319.1621
587.8470, 391.4375
589.0180, 326.7056
590.1880, 367.9375
591.3590, 247.0825
592.5290, 259.2051
593.7000, 184.3120
594.8700, 193.5410
596.0400, 208.0322
597.2090, 255.6406
598.3790, 325.4775
599.5490, 405.5137
600.7180, 407.1641
601.8870, 444.2002
603.0560, 479.2554
604.2250, 431.1099
605.3940, 500.8555
606.5620, 609.9570
607.7300, 627.0840
608.8990, 532.1182
610.0670, 534.2798
611.2350, 434.1562
612.4020, 381.9116
613.5700, 348.6543
614.7370, 419.4102
615.9050, 375.5195
617.0720, 360.7422
618.2390, 256.2153
619.4060, 244.6890
620.5720, 253.2588
621.7390, 246.3940
622.9050, 222.8550
624.0710, 112.2368
625.2370, 60.04150
626.4030, 88.98828
627.5690, 117.5024
628.7340, 83.74756
629.9000, 105.3018
631.0650, 59.73779
632.2300, 102.4248
633.3950, 6.453613
634.5600, 38.50000
635.7240, 65.03760
636.8890, 139.6885
638.0530, 126.7700
639.2170, 86.15479
640.3810, 30.16748
641.5450, 60.67090
642.7080, 66.75781
643.8720, 115.9883
645.0350, 102.8394
646.1980, 67.57617
647.3610, 184.2803
648.5240, 79.43457
649.6870, 61.82129
650.8490, 69.34961
652.0120, 74.58057
653.1740, 113.0723
654.3360, 142.5400
655.4980, 33.86426
656.6600, 51.95898
657.8210, 104.8286
658.9830, 45.23828
660.1440, 41.43115
661.3050, 81.40625
662.4660, 111.8735
663.6270, 63.83105
664.7870, 70.28271
665.9480, 37.35449
667.1080, 161.5415
668.2680, 167.6787
669.4280, 36.37744
670.5880, 130.1807
671.7480, 61.25732
672.9070, 61.71875
674.0670, 205.9019
675.2260, 90.13477
676.3850, 34.02539
677.5440, 117.0752
678.7030, 22.19873
679.8610, 109.7739
681.0200, 155.0850
682.1780, 53.11914
683.3360, 143.2119
684.4940, 18.70264
685.6520, 32.80078
686.8090, 103.9541
687.9670, 40.24121
689.1240, 47.53809
690.2810, 5.898438
691.4380, 34.58984
692.5950, 117.5156
693.7520, 43.22314
694.9080, 28.99414
696.0650, 47.52734
697.2210, 35.31396
698.3770, 17.53076
699.5330, 115.2471
700.6880, 11.89355
701.8440, 115.4067
702.9990, 170.2637
704.1550, 104.0503
705.3100, 83.92578
706.4650, 175.7271
707.6190, 33.38184
708.7740, 91.88770
709.9290, 148.6226
711.0830, 83.86621
712.2370, 92.78662
713.3910, 112.0483
714.5450, 124.6235
715.6980, 102.0762
716.8520, 70.64600
718.0050, 104.3276
719.1580, 65.69922
720.3110, 17.27539
721.4640, 108.9800
722.6170, 48.61670
723.7700, 124.7241
724.9220, 34.22070
726.0740, 102.1465
727.2260, 91.21338
728.3780, 87.56787
729.5300, 95.32568
730.6810, 87.98438
731.8330, 78.99707
732.9840, 89.09863
734.1350, 148.7861
735.2860, 159.7925
736.4370, 92.81299
737.5880, 32.66162
738.7380, 111.6128
739.8880, 10.30664
741.0390, 223.7573
742.1890, 225.1973
743.3380, 153.1504
744.4880, 146.5757
745.6380, 165.6680
746.7870, 79.08789
747.9360, 72.37500
749.0850, 35.82227
750.2340, 117.0264
751.3830, 92.54785
752.5310, 128.4229
753.6800, 197.2598
754.8280, 138.2861
755.9760, 128.9922
757.1240, 128.9805
758.2720, 79.49414
759.4190, 171.8447
760.5670, 43.16113
761.7140, 66.33301
762.8610, 138.0869
764.0080, 129.4590
765.1550, 149.6084
766.3020, 213.4551
767.4480, 4.565430
768.5950, 150.5908
769.7410, 117.1826
770.8870, 111.1709
772.0330, 180.2900
773.1780, 103.8145
774.3240, 196.2188
775.4690, 140.4932
776.6140, 147.4404
777.7590, 130.9434
778.9040, 232.8945
780.0490, 263.3975
781.1940, 202.6123
782.3380, 151.2510
783.4820, 199.9482
784.6260, 126.6025
785.7700, 44.33887
786.9140, 106.1084
788.0580, 161.0430
789.2010, 158.5107
790.3450, 170.6914
791.4880, 139.4883
792.6310, 154.0264
793.7730, 178.2393
794.9160, 243.7646
796.0590, 190.4111
797.2010, 214.5195
798.3430, 121.7617
799.4850, 220.4443
800.6270, 82.06641
801.7690, 174.1582
802.9100, 49.02246
804.0520, 28.79883
805.1930, 179.9170
806.3340, 63.94727
807.4750, 49.18262
808.6160, 148.4238
809.7560, 99.03320
810.8970, 152.3506
812.0370, 122.1387
813.1770, 168.3477
814.3170, 106.2314
815.4570, 190.3691
816.5960, 100.7129
817.7360, 14.63867
818.8750, 52.65625
820.0140, 49.15039
821.1530, 154.9473
822.2920, 176.1348
823.4310, 209.2920
824.5690, 167.6611
825.7070, 153.6719
826.8460, 109.6191
827.9840, 15.30762
829.1220, 129.0322
830.2590, 41.01172
831.3970, 66.89062
832.5340, 211.5703
833.6710, 70.98047
834.8080, 59.25098
835.9450, 100.4014
837.0820, 101.8389
838.2190, 73.75195
839.3550, 64.00391
840.4910, 13.38672
841.6270, 53.44434
842.7630, 33.32031
843.8990, 111.7529
845.0350, 148.9160
846.1700, 75.89453
847.3060, 175.1025
848.4410, 4.175781
849.5760, 134.4453
850.7100, 41.95508
851.8450, 75.49023
852.9800, 10.75098
854.1140, 201.9277
855.2480, 18.79590
856.3820, 190.3232
857.5160, 141.4482
858.6500, 195.2393
859.7830, 183.1338
860.9170, 128.4971
862.0500, 9.766602
863.1830, 194.3066
864.3160, 112.5791
865.4480, 237.2627
866.5810, 215.4053
867.7130, 177.6895
868.8460, 47.85840
869.9780, 136.8008
871.1100, 57.26465
872.2410, 82.08398
873.3730, 105.1953
874.5050, 300.2979
875.6360, 20.60645
876.7670, 143.4287
877.8980, 127.9316
879.0290, 28.31152
880.1590, 96.04688
881.2900, 157.0977
882.4200, 59.94043
883.5500, 6.646484
884.6800, 19.67188
885.8100, 53.65430
886.9400, 197.9902
888.0690, 94.09082
889.1990, 53.56641
890.3280, 259.9297
891.4570, 78.07227
892.5860, 44.29199
893.7140, 65.20312
894.8430, 91.38965
895.9710, 71.85840
897.1000, 61.68652
898.2280, 9.489258
899.3560, 47.51855
900.4830, 108.3936
901.6110, 30.74316
902.7380, 4.614258
903.8660, 58.67676
904.9930, 127.6992
906.1200, 54.28027
907.2460, 146.1982
908.3730, 61.17578
909.5000, 95.87402
910.6260, 182.0654
911.7520, 6.583008
912.8780, 32.56641
914.0040, 88.29980
915.1290, 206.1299
916.2550, 158.0186
917.3800, 189.2744
918.5050, 140.8525
919.6300, 101.4404
920.7550, 178.5430
921.8800, 43.99023
923.0040, 1.871094
924.1290, 63.02832
925.2530, 52.13770
926.3770, 227.6064
927.5010, 57.23047
928.6250, 243.7139
929.7480, 165.2061
930.8720, 167.8740
931.9950, 248.7656
933.1180, 158.7217
934.2410, 311.3369
935.3640, 96.63184
936.4860, 154.3457
937.6090, 193.9912
938.7310, 160.0371
939.8530, 179.9160
940.9750, 186.1592
942.0970, 222.8477
943.2180, 292.4346
944.3400, 352.9189
945.4610, 401.3193
946.5820, 525.1055
947.7030, 456.9629
948.8240, 696.8359
949.9450, 622.0117
951.0650, 798.2217
952.1860, 998.4551
953.3060, 1246.942
954.4260, 1924.396
955.5460, 2844.133
956.6650, 4333.700
957.7850, 6258.139
958.9040, 8332.041
960.0230, 10000.23
961.1420, 11437.50
962.2610, 12350.43
963.3800, 12828.46
964.4990, 12899.83
965.6170, 12317.34
966.7350, 10479.73
967.8530, 7763.136
968.9710, 5397.356
970.0890, 3665.163
971.2070, 2695.750
972.3240, 1864.987
973.4410, 1509.352
974.5580, 1103.326
975.6750, 935.9150
976.7920, 653.6934
977.9090, 372.2305
979.0250, 276.0879
980.1410, 356.6709
981.2580, 335.7383
982.3740, 281.4717
983.4890, 220.3379
984.6050, 159.2344
985.7200, 137.7520
986.8360, 147.7803
987.9510, 108.3320
989.0660, 193.6553
990.1810, 212.3232
991.2950, 19.66797
992.4100, 148.1533
993.5240, 25.23340
994.6390, 11.71094
995.7530, 130.8467
996.8660, 110.3574
997.9800, 30.01367
999.0940, 29.17969
1000.207, 132.1738
1001.320, 130.4453
1002.433, 63.95898
1003.546, 105.6953
1004.659, 30.23047
1005.772, 159.4258
1006.884, 20.58789
1007.996, 157.2871
1009.108, 9.144531
1010.220, 104.3945
1011.332, 183.0352
1012.444, 100.8418
1013.555, 91.40039
1014.666, 134.4297
1015.777, 181.5293
1016.888, 173.3203
1017.999, 162.0273
1019.110, 181.8711
1020.220, 154.7676
1021.331, 164.1035
1022.441, 118.1328
1023.551, 111.2480
1024.661, 353.2656
1025.770, 465.4043
1026.880, 448.3926
1027.989, 578.9980
1029.098, 470.1777
1030.207, 573.7930
1031.316, 503.8711
1032.425, 479.8105
1033.533, 636.4395
1034.642, 536.9531
1035.750, 406.9531
1036.858, 245.0898
1037.966, 320.0137
1039.073, 368.2598
1040.181, 257.6914
1041.288, 290.8848
1042.396, 257.4531
1043.503, 209.3965
1044.610, 292.6465
1045.716, 163.8379
1046.823, 183.8281
1047.929, 239.4746
1049.036, 190.9121
1050.142, 197.3496
1051.248, 315.0195
1052.353, 182.9961
1053.459, 441.4941
1054.564, 252.5039
1055.670, 425.8223
1056.775, 390.3633
1057.880, 481.6992
1058.985, 633.1230
1060.089, 414.1973
1061.194, 586.0215
1062.298, 467.6543
1063.402, 552.2090
1064.506, 310.3223
1065.610, 352.3789
1066.713, 218.4727
1067.817, 183.1016
1068.920, 160.6230
1070.023, 246.3691
1071.126, 241.6504
1072.229, 238.0938
1073.332, 279.5059
1074.435, 246.4023
1075.537, 287.9473
1076.639, 363.2246
1077.741, 312.7363
1078.843, 252.8320
1079.945, 423.1621
1081.046, 205.9238
1082.148, 289.1797
1083.249, 105.0645
1084.350, 229.9609
1085.451, 301.1680
1086.551, 326.1641
1087.652, 62.18555
1088.752, 119.7812
1089.853, 149.7227
1090.953, 51.71289
1092.053, 159.9941
1093.152, 342.8496
1094.252, 120.3555
1095.351, 31.07422
1096.451, 233.2734
1097.550, 96.47266
1098.649, 136.6016
1099.748, 258.7070
1100.846, 3.417969
1101.945, 3.408203
1103.043, 42.68750
1104.141, 106.2930
1105.239, 265.5996
1106.337, 328.5840
1107.434, 165.0039
1108.532, 322.0410
1109.629, 98.99023
1110.726, 23.84180
1111.823, 158.0098
1112.920, 186.1992
1114.017, 102.5059
1115.113, 106.8047
1116.210, 214.3262
1117.306, 341.5430
1118.402, 141.2520
1119.498, 98.36914
1120.593, 322.3301
1121.689, 281.0117
1122.784, 267.6387
1123.879, 159.1680
1124.974, 291.4590
1126.069, 165.4570
1127.164, 166.8672
1128.259, 183.9824
1129.353, 321.8008
1130.447, 71.14258
1131.541, 218.3887
1132.635, 319.0391
1133.729, 215.3984
1134.822, 11.47852
1135.916, 95.37500
1137.009, 310.7031
1138.102, 80.33203
1139.195, 188.1387
1140.288, 321.5605
1141.380, 42.42578
1142.473, 177.7754
1143.565, 99.27344
1144.657, 232.4199
1145.749, 203.9551
1146.841, 15.37305
1147.932, 196.1914
1149.024, 167.5918
1150.115, 72.43750
1151.206, 75.85938
1152.297, 91.31445
1153.388, 278.6562
1154.479, 225.3418
1155.569, 160.9590
1156.659, 167.9570
1157.750, 88.95898
1158.839, 239.9551
1159.929, 347.7168
1161.019, 202.4375
1162.108, 299.8906
1163.198, 278.9102
1164.287, 112.4355
1165.376, 180.3281
1166.465, 123.3066
1167.553, 495.5938
1168.642, 9.353516
1169.730, 417.9277
1170.818, 280.5684
1171.906, 167.8301
1172.994, 211.9180
1174.082, 134.9844
1175.170, 127.1113
1176.257, 163.9746
1177.344, 125.0625
1178.431, 221.9746
1179.518, 257.4121
1180.605, 187.2578
1181.691, 141.0586
1182.778, 243.0605
1183.864, 295.0664
1184.950, 522.7559
1186.036, 238.4922
1187.122, 85.25586
1188.207, 211.5977
1189.292, 19.64258
1190.378, 156.6895
1191.463, 40.73828
1192.548, 234.9434
1193.632, 393.3223
1194.717, 239.9961
1195.801, 312.3535
1196.886, 189.6973
1197.970, 191.9453
1199.054, 217.9883
1200.137, 198.0508
1201.221, 325.6133
1202.305, 369.9043
1203.388, 180.1934
1204.471, 259.2305
1205.554, 11.25781
1206.637, 313.3184
1207.719, 296.1602
1208.802, 181.9766
1209.884, 352.3105
1210.966, 228.3887
1212.048, 325.4375
1213.130, 392.0684
1214.212, 365.5918
1215.293, 268.1738
1216.374, 298.2070
1217.456, 358.3789
1218.536, 247.3008
1219.617, 539.6914
1220.698, 432.6191
1221.778, 100.1250
1222.859, 417.0254
1223.939, 239.7539
1225.019, 200.2070
1226.099, 222.6484
1227.178, 41.00977
1228.258, 500.5645
1229.337, 210.1328
1230.417, 242.1465
1231.496, 490.1289
1232.574, 333.0527
1233.653, 230.8633
1234.732, 278.5156
1235.810, 94.68945
1236.888, 208.3770
1237.966, 241.1953
1239.044, 242.0293
1240.122, 340.4609
1241.199, 287.5254
1242.277, 264.6992
1243.354, 430.6016
1244.431, 353.9004
1245.508, 463.1270
1246.585, 203.5371
1247.661, 48.66211
1248.738, 418.6602
1249.814, 392.4980
1250.890, 57.23047
1251.966, 292.7441
1253.042, 317.3613
1254.117, 26.65234
1255.193, 167.8320
1256.268, 265.3789
1257.343, 91.88086
1258.418, 10.42188
1259.493, 128.4746
1260.567, 241.3672
1261.642, 235.8164
1262.716, 506.3691
1263.790, 257.7559
1264.864, 78.25391
1265.938, 341.6699
1267.011, 149.2461
1268.085, 400.1602
1269.158, 406.5840
1270.231, 66.65430
1271.304, 128.8828
1272.377, 111.7441
1273.450, 330.8711
1274.522, 209.6660
1275.594, 256.3340
1276.666, 184.4961
1277.738, 252.1270
1278.810, 351.4414
1279.882, 208.4609
1280.953, 154.3438
1282.025, 8.767578
1283.096, 46.31836
1284.167, 254.3105
