##NAMES=Fluorite
##RRUFFID=R040099
##IDEAL CHEMISTRY=CaF_2_
##LOCALITY=Rock Candy mine, Grand Forks, British Columbia, Canada
##OWNER=RRUFF
##SOURCE=Bob Downs
##DESCRIPTION=Pale purple fragment
##STATUS=The identification of this mineral has been confirmed by X-ray diffraction and chemical analysis
##URL=rruff.info/R040099
##MEASURED CHEMISTRY=Ca_0.99_F_2.00_
##PIN_ID=L01716
##ORIENTATION=Laser parallel to a* (1 0 0). Fiducial mark perpendicular to laser is parallel to -c [0 0 -1]
94.52300, 0.0000000E+00
95.75900, 24.41309
96.99500, 47.17651
98.23100, 33.73193
99.46700, 54.83276
100.7030, 74.37085
101.9390, 78.16870
103.1740, 78.43311
104.4090, 68.59009
105.6440, 163.3252
106.8790, 165.4546
108.1140, 185.7183
109.3490, 253.9153
110.5830, 208.8706
111.8180, 247.4382
113.0520, 183.4983
114.2860, 275.9546
115.5200, 297.0857
116.7530, 388.3616
117.9870, 371.8755
119.2200, 318.6421
120.4530, 228.7144
121.6860, 147.0186
122.9190, 199.4856
124.1520, 173.0637
125.3850, 120.7109
126.6170, 92.39722
127.8490, 104.0972
129.0810, 86.79175
130.3130, 53.46680
131.5450, 134.1111
132.7770, 127.7178
134.0080, 87.28467
135.2390, 186.8127
136.4710, 249.0273
137.7020, 313.0420
138.9320, 612.5537
140.1630, 852.6355
141.3930, 981.9470
142.6240, 1277.312
143.8540, 1339.405
145.0840, 1461.691
146.3140, 1817.733
147.5440, 2065.530
148.7730, 2006.097
150.0020, 1605.453
151.2320, 1157.610
152.4610, 752.5825
153.6900, 537.3799
154.9180, 306.0122
156.1470, 288.4888
157.3750, 227.8181
158.6040, 151.0090
159.8320, 169.0681
161.0600, 124.0032
162.2870, 111.8198
163.5150, 153.5254
164.7420, 228.1255
165.9700, 210.5237
167.1970, 217.0339
168.4240, 196.3567
169.6510, 179.6204
170.8770, 118.8398
172.1040, 172.0239
173.3300, 153.1780
174.5560, 69.30640
175.7820, 94.41187
177.0080, 29.49683
178.2340, 76.43726
179.4590, 27.61108
180.6850, 56.35815
181.9100, 43.34375
183.1350, 29.69043
184.3600, 32.92578
185.5850, 50.75122
186.8090, 213.4648
188.0340, 293.6760
189.2580, 471.7153
190.4820, 626.4722
191.7060, 658.1631
192.9300, 717.2461
194.1530, 743.5513
195.3770, 613.7776
196.6000, 644.2725
197.8230, 460.2510
199.0460, 419.2419
200.2690, 431.2446
201.4910, 457.2576
202.7140, 446.2800
203.9360, 355.3115
205.1580, 350.3508
206.3800, 240.3982
207.6020, 208.4524
208.8240, 177.5132
210.0450, 80.56152
211.2670, 86.58374
212.4880, 177.5803
213.7090, 63.58301
214.9300, 115.5876
216.1510, 163.5898
217.3710, 150.5867
218.5920, 178.5759
219.8120, 219.5579
221.0320, 263.5330
222.2520, 390.5020
223.4720, 572.4653
224.6910, 649.4248
225.9110, 806.3813
227.1300, 698.3362
228.3490, 746.2913
229.5680, 630.2480
230.7870, 529.2078
232.0050, 463.1721
233.2240, 439.1418
234.4420, 516.1179
235.6600, 459.1003
236.8780, 521.0901
238.0960, 473.0867
239.3140, 529.0898
240.5310, 700.0999
241.7490, 884.6816
242.9660, 922.5513
244.1830, 912.3311
245.4000, 894.7822
246.6160, 728.0615
247.8330, 509.4177
249.0490, 374.8367
250.2660, 290.3057
251.4820, 380.8159
252.6980, 335.3621
253.9130, 375.9358
255.1290, 229.5312
256.3440, 154.1453
257.5600, 179.7729
258.7750, 259.4119
259.9900, 373.0591
261.2040, 674.7126
262.4190, 1007.370
263.6330, 1105.025
264.8480, 1022.678
266.0620, 666.3257
267.2760, 415.9680
268.4900, 170.6033
269.7030, 63.23145
270.9170, 52.85132
272.1300, 38.46240
273.3430, 16.93555
274.5560, 3.354248
275.7690, 107.7900
276.9820, 185.2703
278.1940, 49.81567
279.4070, 104.3899
280.6190, 72.00757
281.8310, 49.65991
283.0430, 141.3928
284.2550, 67.21240
285.4660, 117.0881
286.6770, 70.00830
287.8890, 45.96631
289.1000, 102.9600
290.3110, 65.00757
291.5210, 7.095703
292.7320, 28.21704
293.9420, 30.62891
295.1530, 58.45605
296.3630, 23.26636
297.5730, 34.05933
298.7830, 87.83594
299.9920, 71.59863
301.2020, 129.3474
302.4110, 145.0830
303.6200, 150.8062
304.8290, 188.2786
306.0380, 182.2178
307.2470, 226.9070
308.4550, 226.5862
309.6630, 230.2554
310.8720, 353.9155
312.0800, 384.5662
313.2880, 516.2090
314.4950, 670.8433
315.7030, 812.4709
316.9100, 1099.092
318.1170, 1399.708
319.3240, 1830.318
320.5310, 2232.923
321.7380, 2760.522
322.9450, 2851.116
324.1510, 2864.319
325.3570, 2627.902
326.5630, 2268.135
327.7690, 1764.993
328.9750, 1402.563
330.1810, 1251.108
331.3860, 1011.581
332.5910, 975.9285
333.7960, 884.1792
335.0010, 833.3296
336.2060, 780.3875
337.4110, 759.8662
338.6150, 758.2932
339.8200, 758.1741
341.0240, 813.0581
342.2280, 829.9446
343.4320, 873.8369
344.6350, 822.7371
345.8390, 907.6462
347.0420, 893.5640
348.2450, 1017.510
349.4480, 1086.474
350.6510, 993.4458
351.8540, 1157.453
353.0560, 1220.475
354.2590, 1198.524
355.4610, 1288.610
356.6630, 1376.750
357.8650, 1468.914
359.0670, 1542.130
360.2680, 1521.380
361.4700, 1544.665
362.6710, 1447.003
363.8720, 1477.815
365.0730, 1621.791
366.2740, 1461.234
367.4740, 1504.692
368.6750, 1457.186
369.8750, 1431.700
371.0750, 1343.244
372.2750, 1379.803
373.4750, 1234.383
374.6740, 1338.973
375.8740, 1215.570
377.0730, 1109.172
378.2720, 1157.779
379.4710, 1099.390
380.6700, 995.0039
381.8690, 909.6211
383.0670, 919.2402
384.2660, 904.8616
385.4640, 862.5852
386.6620, 800.6313
387.8600, 783.2537
389.0570, 779.0894
390.2550, 734.8660
391.4520, 710.4795
392.6490, 698.2832
393.8460, 678.9680
395.0430, 596.6553
396.2400, 515.7041
397.4370, 479.3999
398.6330, 459.9866
399.8290, 411.8325
401.0250, 433.4084
402.2210, 428.0906
403.4170, 314.6555
404.6130, 342.2151
405.8080, 289.7686
407.0030, 294.3164
408.1980, 237.8582
409.3930, 190.3940
410.5880, 224.9236
411.7830, 215.4478
412.9770, 143.9656
414.1720, 206.4775
415.3660, 169.9612
416.5600, 112.3757
417.7530, 150.3386
418.9470, 87.14331
420.1410, 153.3843
421.3340, 223.7546
422.5270, 78.62061
423.7200, 129.0571
424.9130, 99.52295
426.1060, 56.38940
427.2980, 57.50049
428.4900, 83.27173
429.6830, 72.91943
430.8750, 33.53052
432.0670, 55.66040
433.2580, 44.22388
434.4500, 4.182129
435.6410, 52.78882
436.8320, 50.08521
438.0240, 22.36353
439.2140, 46.75610
440.4050, 100.9514
441.5960, 155.2378
442.7860, 158.7761
443.9760, 197.5222
445.1670, 168.4961
446.3560, 200.9119
447.5460, 198.3262
448.7360, 128.7383
449.9250, 178.1487
451.1150, 119.5576
452.3040, 181.9639
453.4930, 154.3691
454.6810, 108.7727
455.8700, 188.1748
457.0590, 133.6104
458.2470, 173.2061
459.4350, 213.9248
460.6230, 187.7166
461.8110, 184.6743
462.9980, 173.5769
464.1860, 305.1479
465.3730, 283.0195
466.5600, 415.7661
467.7470, 334.6699
468.9340, 334.5034
470.1210, 360.5283
471.3080, 358.5957
472.4940, 399.4348
473.6800, 358.5701
474.8660, 424.4478
476.0520, 428.2285
477.2380, 345.1018
478.4230, 468.6116
479.6090, 427.7134
480.7940, 332.8584
481.9790, 406.6074
483.1640, 410.6685
484.3490, 341.7817
485.5330, 477.0227
486.7180, 475.8030
487.9020, 503.8115
489.0860, 504.6470
490.2700, 573.7817
491.4540, 642.3989
492.6370, 605.3687
493.8210, 570.1050
495.0040, 694.3574
496.1870, 672.2485
497.3700, 562.4219
498.5530, 492.5769
499.7360, 529.9861
500.9180, 447.5820
502.1000, 473.0762
503.2830, 523.5518
504.4650, 357.1606
505.6460, 349.4248
506.8280, 292.8186
508.0100, 276.0103
509.1910, 285.0996
510.3720, 249.9956
511.5530, 186.2620
512.7340, 158.6755
513.9150, 198.8079
515.0950, 137.3142
516.2760, 235.4077
517.4560, 169.9019
518.6360, 190.0796
519.8160, 202.0068
520.9950, 162.9766
522.1750, 172.6365
523.3540, 147.3074
524.5340, 124.8325
525.7130, 143.3516
526.8920, 72.86279
528.0700, 1.367188
529.2490, 104.8594
530.4270, 48.34473
531.6060, 62.82080
532.7840, 113.2876
533.9620, 56.74707
535.1390, 85.19580
536.3170, 84.63721
537.4940, 2.068359
538.6720, 82.48779
539.8490, 132.8970
541.0260, 46.29736
542.2030, 173.6875
543.3790, 85.06787
544.5560, 149.4385
545.7320, 145.7998
546.9080, 128.1509
548.0840, 212.4927
549.2600, 253.8252
550.4360, 237.1475
551.6110, 260.4600
552.7860, 275.2612
553.9620, 191.0532
555.1370, 282.3340
556.3110, 315.6035
557.4860, 274.8633
558.6610, 334.1118
559.8350, 343.3608
561.0090, 368.6069
562.1830, 433.8770
563.3570, 472.1909
564.5310, 498.5137
565.7040, 444.8594
566.8780, 440.2183
568.0510, 501.5854
569.2240, 468.9844
570.3970, 524.3950
571.5700, 508.8311
572.7420, 521.2798
573.9150, 488.7334
575.0870, 609.2085
576.2590, 541.6895
577.4310, 422.1704
578.6030, 518.6519
579.7740, 529.1206
580.9460, 499.5752
582.1170, 521.0181
583.2880, 439.4482
584.4590, 370.8643
585.6300, 306.2671
586.8010, 390.6553
587.9710, 264.0293
589.1410, 333.3877
590.3110, 183.7329
591.4810, 265.0664
592.6510, 208.3931
593.8210, 241.7388
594.9900, 208.1006
596.1600, 204.5293
597.3290, 170.0347
598.4980, 133.6006
599.6670, 106.2876
600.8350, 91.05957
602.0040, 53.94141
603.1720, 69.78271
604.3400, 151.9390
605.5080, 83.05713
606.6760, 116.2510
607.8440, 85.48633
609.0120, 105.7529
610.1790, 66.09277
611.3460, 61.49365
612.5130, 119.9595
613.6800, 56.49365
614.8470, 119.1221
616.0130, 146.8296
617.1800, 129.5840
618.3460, 27.34570
619.5120, 85.08057
620.6780, 79.78760
621.8440, 179.4663
623.0090, 110.1191
624.1750, 102.7437
625.3400, 84.33838
626.5050, 29.90283
627.6700, 15.43115
628.8350, 32.92090
629.9990, 73.62646
631.1640, 31.25146
632.3280, 33.06689
633.4920, 94.65332
634.6560, 18.46631
635.8200, 62.33252
636.9840, 97.27539
638.1470, 159.3159
639.3100, 50.48633
640.4730, 147.7310
641.6360, 81.10156
642.7990, 79.56494
643.9620, 160.1216
645.1240, 73.81348
646.2870, 106.5972
647.4490, 54.49023
648.6110, 4.532227
649.7730, 79.49902
650.9340, 20.62939
652.0960, 53.82764
653.2570, 9.886719
654.4180, 21.45508
655.5790, 76.13232
656.7400, 132.6719
657.9010, 175.1694
659.0620, 235.6270
660.2220, 226.0464
661.3820, 267.4268
662.5420, 415.7700
663.7020, 524.0776
664.8620, 650.3501
666.0210, 792.5859
667.1810, 929.6860
668.3400, 1065.427
669.4990, 1095.553
670.6580, 1014.427
671.8170, 1025.319
672.9750, 1025.333
674.1340, 1095.116
675.2920, 1143.975
676.4500, 1008.788
677.6080, 1077.195
678.7660, 1171.913
679.9230, 1221.694
681.0810, 1371.172
682.2380, 1440.874
683.3950, 1516.425
684.5520, 1728.046
685.7090, 1892.627
686.8660, 2030.167
688.0220, 2193.665
689.1780, 2334.122
690.3340, 2496.538
691.4900, 2609.910
692.6460, 2723.241
693.8020, 2851.528
694.9570, 2890.773
696.1130, 2748.975
697.2680, 2792.133
698.4230, 2878.249
699.5780, 2974.320
700.7320, 3078.786
701.8870, 3267.333
703.0410, 3396.273
704.1950, 3553.169
705.3490, 3678.014
706.5030, 3788.400
707.6570, 3875.587
708.8110, 3913.303
709.9640, 3936.974
711.1170, 3823.597
712.2700, 3717.181
713.4230, 3576.725
714.5760, 3419.242
715.7280, 3151.775
716.8810, 2926.278
718.0330, 2745.768
719.1850, 2512.260
720.3370, 2386.731
721.4890, 2261.199
722.6400, 2030.635
723.7920, 1971.054
724.9430, 1680.424
726.0940, 1652.745
727.2450, 1571.023
728.3960, 1445.250
729.5460, 1421.041
730.6970, 1308.332
731.8470, 1248.942
732.9970, 1171.833
734.1470, 1198.386
735.2970, 1131.359
736.4460, 1084.576
737.5960, 1192.308
738.7450, 1182.508
739.8940, 1028.796
741.0430, 1143.898
742.1920, 1080.435
743.3410, 1082.432
744.4890, 1043.752
745.6370, 1071.659
746.7850, 1083.460
747.9330, 1032.904
749.0810, 1026.740
750.2290, 1099.574
751.3760, 1092.049
752.5240, 1089.989
753.6710, 1169.976
754.8180, 1162.278
755.9650, 1337.363
757.1110, 1155.606
758.2580, 1276.529
759.4040, 1180.335
760.5510, 1234.463
761.6970, 1104.206
762.8420, 1227.822
763.9880, 1201.237
765.1340, 1164.039
766.2790, 1167.538
767.4240, 1094.135
768.5690, 1078.358
769.7140, 1115.023
770.8590, 1100.261
772.0030, 1229.656
773.1480, 1102.459
774.2920, 1252.549
775.4360, 1156.278
776.5800, 1302.950
777.7240, 1316.291
778.8670, 1390.369
780.0110, 1508.471
781.1540, 1450.514
782.2970, 1513.348
783.4400, 1454.447
784.5830, 1492.340
785.7250, 1620.356
786.8680, 1628.396
788.0100, 1652.552
789.1520, 1744.258
790.2940, 1814.738
791.4360, 1776.420
792.5780, 1805.649
793.7190, 1929.213
794.8600, 2025.296
796.0010, 2150.616
797.1420, 2068.106
798.2830, 2088.474
799.4240, 2185.932
800.5640, 2242.579
801.7050, 2279.150
802.8450, 2223.648
803.9850, 2292.073
805.1250, 2293.425
806.2640, 2448.705
807.4040, 2422.911
808.5430, 2523.045
809.6820, 2448.107
810.8210, 2641.095
811.9600, 2722.010
813.0990, 2623.853
814.2370, 2688.623
815.3760, 2791.322
816.5140, 2926.949
817.6520, 3037.503
818.7900, 3201.986
819.9270, 3259.396
821.0650, 3223.735
822.2020, 3245.001
823.3390, 3377.196
824.4760, 3414.319
825.6130, 3474.369
826.7500, 3478.348
827.8870, 3659.255
829.0230, 3730.091
830.1590, 3936.855
831.2950, 4295.560
832.4310, 4872.207
833.5670, 5657.810
834.7030, 6949.366
835.8380, 8062.884
836.9730, 8866.364
838.1080, 9296.807
839.2430, 9925.221
840.3780, 10852.60
841.5130, 11924.96
842.6470, 12985.27
843.7810, 12808.55
844.9150, 12079.79
846.0490, 10723.97
847.1830, 9521.084
848.3170, 8540.993
849.4500, 7927.189
850.5830, 8174.978
851.7160, 8236.521
852.8490, 8018.914
853.9820, 6919.818
855.1150, 5861.430
856.2470, 4571.883
857.3800, 3538.880
858.5120, 2634.873
859.6440, 2108.640
860.7760, 1538.025
861.9070, 1227.257
863.0390, 809.4243
864.1700, 676.5181
865.3010, 434.5435
866.4320, 400.4917
867.5630, 163.3574
868.6940, 181.0859
869.8240, 58.31592
870.9540, 98.95020
872.0850, 41.83594
873.2150, 277.9429
874.3450, 146.3936
875.4740, 247.1162
876.6040, 90.16260
877.7330, 226.4482
878.8620, 88.04346
879.9910, 132.8760
881.1200, 3.4180000E-02
882.2490, 29.75684
883.3770, 127.6890
884.5060, 92.38623
885.6340, 112.3120
886.7620, 122.4766
887.8900, 233.8828
889.0180, 170.5869
890.1450, 50.55518
891.2730, 115.2773
892.4000, 317.9907
893.5270, 605.6426
894.6540, 863.2417
895.7810, 1397.789
896.9070, 1493.283
898.0340, 1685.726
899.1600, 1513.118
900.2860, 1340.462
901.4120, 998.7607
902.5380, 857.0151
903.6630, 679.2256
904.7890, 698.4131
905.9140, 876.5674
907.0390, 1278.681
908.1640, 1926.779
909.2890, 3277.846
910.4130, 5886.892
911.5380, 9899.929
912.6620, 13890.97
913.7860, 13598.00
914.9100, 10585.03
916.0340, 8306.049
917.1580, 7335.062
918.2810, 7985.086
919.4040, 8516.106
920.5280, 9366.127
921.6510, 11438.14
922.7730, 12802.12
923.8960, 12087.11
925.0180, 10662.07
926.1410, 10960.04
927.2630, 13793.97
928.3850, 16904.90
929.5070, 16303.81
930.6280, 12859.68
931.7500, 10424.54
932.8710, 8605.364
933.9920, 7760.165
935.1130, 6749.939
936.2340, 6735.690
937.3550, 9160.415
938.4760, 11281.12
939.5960, 10298.79
940.7160, 7433.453
941.8360, 5217.089
942.9560, 4234.706
944.0760, 4442.303
945.1950, 5965.882
946.3150, 9077.440
947.4340, 15369.99
948.5530, 22701.51
949.6720, 24508.03
950.7900, 18818.53
951.9090, 11718.02
953.0270, 6928.495
954.1460, 4113.959
955.2640, 2903.414
956.3820, 2240.859
957.4990, 1797.297
958.6170, 1593.727
959.7340, 1667.151
960.8520, 1810.569
961.9690, 1741.983
963.0860, 1971.394
964.2020, 2012.803
965.3190, 2058.810
966.4350, 2100.548
967.5520, 2137.284
968.6680, 2007.726
969.7840, 1710.583
970.8990, 1664.046
972.0150, 1363.593
973.1310, 1297.393
974.2460, 925.1016
975.3610, 755.7866
976.4760, 537.7061
977.5910, 501.6929
978.7050, 224.3672
979.8200, 214.8770
980.9340, 239.4961
982.0480, 84.75293
983.1620, 69.20410
984.2760, 2.265625
985.3900, 204.2949
986.5030, 7.8130001E-03
987.6160, 79.71484
988.7300, 157.4932
989.8430, 55.35840
990.9550, 133.2637
992.0680, 9.242188
993.1810, 73.24023
994.2930, 98.71875
995.4050, 164.6934
996.5170, 49.68848
997.6290, 191.6904
998.7410, 125.7158
999.8520, 354.1523
1000.964, 433.0596
1002.075, 483.6240
1003.186, 613.8818
1004.297, 700.4551
1005.407, 779.3350
1006.518, 843.4141
1007.628, 947.5459
1008.738, 1001.066
1009.848, 1073.406
1010.958, 1258.748
1012.068, 1321.694
1013.178, 1413.495
1014.287, 1485.658
1015.396, 1663.346
1016.505, 1805.985
1017.614, 1969.041
1018.723, 2047.514
1019.831, 2145.945
1020.940, 2344.956
1022.048, 2478.201
1023.156, 2532.654
1024.264, 2585.885
1025.372, 2922.244
1026.479, 3123.812
1027.587, 3204.113
1028.694, 3348.496
1029.801, 3554.963
1030.908, 3719.514
1032.015, 3737.152
1033.121, 3849.880
1034.228, 3770.701
1035.334, 3719.613
1036.440, 3704.622
1037.546, 3659.728
1038.652, 3836.932
1039.758, 3852.236
1040.863, 3873.643
1041.968, 3985.150
1043.074, 3847.760
1044.178, 4076.476
1045.283, 4081.295
1046.388, 3983.219
1047.492, 4215.251
1048.597, 4103.391
1049.701, 4244.639
1050.805, 4173.997
1051.909, 4133.466
1053.012, 3979.049
1054.116, 3699.745
1055.219, 3656.717
1056.322, 3702.484
1057.425, 3443.528
1058.528, 3460.690
1059.631, 3392.971
1060.733, 3223.370
1061.836, 2969.889
1062.938, 3041.530
1064.040, 2778.292
1065.142, 2760.176
1066.243, 2554.184
1067.345, 2489.314
1068.446, 2368.572
1069.547, 2026.953
1070.648, 1989.462
1071.749, 1921.096
1072.850, 1922.859
1073.951, 1972.753
1075.051, 1724.774
1076.151, 1810.927
1077.251, 1684.210
1078.351, 1595.624
1079.451, 1339.173
1080.550, 1251.854
1081.650, 1133.669
1082.749, 908.6182
1083.848, 856.7041
1084.947, 669.9268
1086.046, 787.2852
1087.144, 513.7812
1088.243, 506.4150
1089.341, 464.1895
1090.439, 243.1025
1091.537, 306.1562
1092.635, 93.35059
1093.732, 205.6865
1094.830, 41.16602
1095.927, 114.7871
1097.024, 97.44824
1098.121, 171.5557
1099.218, 243.5527
1100.314, 234.4541
1101.411, 283.6377
1102.507, 303.9365
1103.603, 307.6133
1104.699, 346.1699
1105.795, 344.6758
1106.890, 375.0703
1107.986, 291.4199
1109.081, 294.6807
1110.176, 250.8545
1111.271, 170.9268
1112.366, 8.878906
1113.461, 61.68457
1114.555, 125.7930
1115.649, 1.070313
1116.744, 45.16211
1117.838, 93.93359
1118.931, 206.2646
1120.025, 308.1719
1121.119, 505.4561
1122.212, 557.9902
1123.305, 943.0664
1124.398, 1099.236
1125.491, 1346.721
1126.584, 1375.678
1127.676, 1377.878
1128.768, 1424.234
1129.861, 1579.757
1130.953, 1797.438
1132.044, 1910.287
1133.136, 2113.303
1134.228, 2492.514
1135.319, 2619.921
1136.410, 3098.570
1137.501, 3344.473
1138.592, 3745.615
1139.683, 4146.059
1140.773, 4399.768
1141.864, 4867.770
1142.954, 5201.023
1144.044, 5381.560
1145.134, 5542.346
1146.224, 5614.393
1147.313, 5984.666
1148.402, 6036.164
1149.492, 6289.940
1150.581, 6272.002
1151.670, 6338.370
1152.758, 6191.078
1153.847, 6069.184
1154.935, 5898.715
1156.024, 5793.680
1157.112, 5659.112
1158.200, 5563.391
1159.287, 5460.918
1160.375, 5383.453
1161.462, 5296.162
1162.550, 5276.795
1163.637, 5125.607
1164.724, 5067.828
1165.810, 4954.464
1166.897, 4835.514
1167.983, 4731.276
1169.070, 4615.304
1170.156, 4466.547
1171.242, 4398.715
1172.327, 4234.071
1173.413, 4137.604
1174.499, 3778.309
1175.584, 3599.191
1176.669, 3295.260
1177.754, 3102.540
1178.839, 2863.057
1179.923, 2502.810
1181.008, 2199.848
1182.092, 1933.200
1183.176, 1895.821
1184.260, 1686.690
1185.344, 1388.791
1186.428, 1374.098
1187.511, 984.5859
1188.595, 1108.245
1189.678, 983.0615
1190.761, 899.0273
1191.843, 847.1406
1192.926, 673.4014
1194.009, 744.8096
1195.091, 533.3643
1196.173, 486.0625
1197.255, 446.9082
1198.337, 473.8984
1199.419, 487.0352
1200.500, 444.3164
1201.582, 383.7520
1202.663, 505.3379
1203.744, 396.0742
1204.825, 502.9590
1205.905, 463.9883
1206.986, 372.1602
1208.066, 460.4727
1209.146, 588.9248
1210.226, 588.5176
1211.306, 613.2480
1212.386, 617.1182
1213.466, 906.1250
1214.545, 881.2686
1215.624, 1061.550
1216.703, 1028.967
1217.782, 1137.519
1218.861, 1270.206
1219.939, 1260.027
1221.018, 1392.982
1222.096, 1357.070
1223.174, 1468.172
1224.252, 1546.644
1225.330, 1636.128
1226.407, 1715.742
1227.485, 1755.885
1228.562, 2005.419
1229.639, 1991.081
1230.716, 2072.153
1231.793, 2056.927
1232.869, 2253.206
1233.946, 2214.507
1235.022, 2438.659
1236.098, 2344.004
1237.174, 2513.471
1238.250, 2716.802
1239.325, 2941.167
1240.401, 3031.939
1241.476, 3356.973
1242.551, 3398.989
1243.626, 3656.457
1244.701, 4059.812
1245.776, 4166.170
1246.850, 4615.153
1247.924, 4747.830
1248.999, 5123.599
1250.073, 5083.475
1251.146, 5566.470
1252.220, 5619.562
1253.293, 5976.768
1254.367, 6003.053
1255.440, 6132.433
1256.513, 6329.875
1257.586, 6408.375
1258.658, 6146.938
1259.731, 6238.556
1260.803, 6243.227
1261.875, 6320.945
1262.947, 6130.711
1264.019, 5942.520
1265.091, 6096.371
1266.162, 5875.261
1267.234, 5846.186
1268.305, 5944.146
1269.376, 6005.134
1270.447, 5810.152
1271.517, 5662.193
1272.588, 5922.258
1273.658, 5828.341
1274.729, 5980.444
1275.799, 6150.797
1276.868, 6085.947
