##NAMES=Fluorapatite
##RRUFFID=R050617
##IDEAL CHEMISTRY=Ca_5_(PO_4_)_3_F
##LOCALITY=Santa Cruz, Sonora, Mexico
##OWNER=RRUFF
##SOURCE=University of Arizona Mineral Museum
##DESCRIPTION=Tan colored hexagonal prism
##STATUS=The identification of this mineral is confirmed by single-crystal X-ray diffraction and chemical analysis.
##URL=rruff.info/R050617
##MEASURED CHEMISTRY=Ca_5.00_(P_1.00_O_4_)_3_(F_0.99_Cl_0.01_)
##PIN_ID=L00921
##ORIENTATION=Laser parallel to -a* (-1 0 0). Fiducial mark perpendicular to laser is parallel to c [0 0 1]
105.8150, 0.0000000E+00
107.0470, 89.27930
108.2800, 130.4705
109.5120, 190.1860
110.7440, 4.801514
111.9760, 90.89062
113.2080, 54.24048
114.4400, 79.63550
115.6710, 70.72998
116.9030, 88.13647
118.1340, 110.5588
119.3650, 147.8022
120.5960, 187.7703
121.8270, 213.3918
123.0580, 255.8894
124.2880, 373.0874
125.5190, 509.5610
126.7490, 552.2607
127.9790, 846.1448
129.2090, 1120.181
130.4390, 1387.346
131.6680, 1816.695
132.8980, 2298.241
134.1270, 2886.065
135.3560, 3363.431
136.5850, 4158.884
137.8140, 4776.370
139.0430, 5069.891
140.2710, 5229.912
141.5000, 4654.311
142.7280, 4065.802
143.9560, 3248.301
145.1840, 2467.779
146.4120, 1987.235
147.6390, 1673.670
148.8670, 1269.084
150.0940, 1011.475
151.3210, 963.8442
152.5490, 867.1936
153.7750, 553.5449
155.0020, 567.9094
156.2290, 494.3958
157.4550, 390.8608
158.6810, 358.5886
159.9080, 274.0793
161.1340, 232.7156
162.3590, 196.0615
163.5850, 128.9595
164.8110, 128.2000
166.0360, 123.9343
167.2610, 91.84766
168.4860, 54.61743
169.7110, 78.42529
170.9360, 117.3931
172.1610, 141.4873
173.3850, 89.60962
174.6100, 52.29688
175.8340, 63.84424
177.0580, 74.94507
178.2820, 33.04907
179.5050, 113.3154
180.7290, 66.72290
181.9520, 66.90283
183.1760, 78.05273
184.3990, 76.18311
185.6220, 18.29102
186.8450, 97.37939
188.0670, 41.44971
189.2900, 99.50537
190.5120, 114.5398
191.7340, 168.5527
192.9560, 84.54443
194.1780, 106.5149
195.4000, 56.46411
196.6220, 34.39087
197.8430, 144.2947
199.0640, 29.38184
200.2860, 75.67407
201.5070, 12.38818
202.7270, 98.93555
203.9480, 86.46313
205.1690, 1.791748
206.3890, 0.2954100
207.6090, 48.86890
208.8290, 16.56860
210.0490, 2.367432
211.2690, 3.206787
212.4890, 56.41602
213.7080, 8.083008
214.9280, 39.06396
216.1470, 1.646240
217.3660, 34.97168
218.5850, 9.070801
219.8030, 41.81006
221.0220, 43.29419
222.2400, 12.50366
223.4590, 27.09814
224.6770, 125.5493
225.8950, 75.75952
227.1120, 72.36084
228.3300, 46.82056
229.5480, 168.4917
230.7650, 74.73706
231.9820, 176.2354
233.1990, 157.9688
234.4160, 44.27100
235.6330, 114.7625
236.8490, 89.28467
238.0660, 39.20581
239.2820, 58.30688
240.4980, 50.93750
241.7140, 57.42529
242.9300, 52.09155
244.1460, 83.70825
245.3610, 7.039307
246.5770, 47.18921
247.7920, 5.784424
249.0070, 41.20996
250.2220, 37.16455
251.4370, 7.087402
252.6510, 67.66504
253.8660, 76.42188
255.0800, 73.28418
256.2940, 153.3057
257.5080, 100.2549
258.7220, 162.3711
259.9360, 237.1470
261.1490, 195.5176
262.3630, 190.0132
263.5760, 276.2637
264.7890, 226.7227
266.0020, 235.2163
267.2150, 247.4922
268.4270, 307.9502
269.6400, 294.4702
270.8520, 366.1069
272.0640, 355.1245
273.2760, 299.6768
274.4880, 347.9111
275.7000, 337.1338
276.9120, 334.3433
278.1230, 340.5381
279.3340, 260.7178
280.5450, 292.8818
281.7560, 238.0259
282.9670, 199.1509
284.1780, 252.2544
285.3880, 198.3364
286.5980, 225.3540
287.8090, 168.3467
289.0190, 154.3140
290.2290, 128.2554
291.4380, 104.7930
292.6480, 119.0615
293.8570, 83.92578
295.0670, 64.76270
296.2760, 72.57275
297.4850, 101.3560
298.6930, 61.11182
299.9020, 84.75977
301.1110, 79.96875
302.3190, 97.21338
303.5270, 98.84717
304.7350, 112.4507
305.9430, 162.0205
307.1510, 100.5615
308.3580, 122.0435
309.5660, 66.46777
310.7730, 87.84961
311.9800, 2.799316
313.1870, 144.5142
314.3940, 30.79785
315.6010, 118.0498
316.8070, 115.6265
318.0130, 87.91650
319.2200, 41.72998
320.4260, 1.596191
321.6310, 12.06494
322.8370, 9.777832
324.0430, 50.27686
325.2480, 9.061035
326.4540, 28.62646
327.6590, 73.78564
328.8640, 26.14014
330.0680, 6.768066
331.2730, 50.34375
332.4780, 9.553711
333.6820, 87.14600
334.8860, 57.57373
336.0900, 93.96094
337.2940, 18.87793
338.4980, 6.524902
339.7010, 33.91797
340.9050, 13.37158
342.1080, 49.78125
343.3110, 20.63086
344.5140, 4.269531
345.7170, 55.65576
346.9200, 24.42725
348.1220, 57.66650
349.3240, 28.74512
350.5270, 27.31494
351.7290, 64.75098
352.9310, 37.65771
354.1320, 50.82227
355.3340, 20.64404
356.5350, 67.50049
357.7370, 90.92334
358.9380, 76.89648
360.1390, 16.54834
361.3400, 121.5479
362.5400, 54.91455
363.7410, 142.4531
364.9410, 3.200195
366.1410, 135.7095
367.3410, 3.318359
368.5410, 27.31689
369.7410, 134.5273
370.9400, 101.3794
372.1400, 50.99219
373.3390, 61.43848
374.5380, 61.47314
375.7370, 72.85254
376.9360, 112.4595
378.1350, 198.1611
379.3330, 238.0928
380.5310, 101.8696
381.7300, 229.4692
382.9280, 179.0571
384.1260, 178.5049
385.3230, 245.0742
386.5210, 291.7803
387.7180, 276.3237
388.9160, 295.7598
390.1130, 389.1123
391.3100, 456.1206
392.5060, 436.5308
393.7030, 317.8818
394.9000, 318.9790
396.0960, 288.3691
397.2920, 279.2617
398.4880, 290.7812
399.6840, 213.4067
400.8800, 248.8765
402.0750, 236.5186
403.2710, 87.94141
404.4660, 193.3018
405.6610, 173.5278
406.8560, 270.3677
408.0510, 195.7686
409.2450, 190.0146
410.4400, 259.3398
411.6340, 201.2539
412.8280, 186.0923
414.0220, 157.0220
415.2160, 229.8745
416.4100, 276.7720
417.6030, 311.9697
418.7970, 334.8931
419.9900, 367.6191
421.1830, 402.2500
422.3760, 479.1763
423.5690, 552.9409
424.7610, 672.6021
425.9540, 764.3428
427.1460, 700.7031
428.3380, 718.0386
429.5300, 678.0166
430.7220, 799.5054
431.9140, 714.9512
433.1050, 751.3579
434.2970, 609.7100
435.4880, 579.9180
436.6790, 641.1382
437.8700, 754.1641
439.0610, 776.0640
440.2510, 585.9487
441.4420, 725.9048
442.6320, 699.6436
443.8220, 672.4355
445.0120, 738.1602
446.2020, 683.9102
447.3910, 593.6216
448.5810, 523.3418
449.7700, 531.2100
450.9600, 499.8208
452.1490, 500.4751
453.3370, 355.8545
454.5260, 312.2925
455.7150, 293.1792
456.9030, 331.1987
458.0910, 273.2876
459.2800, 183.6763
460.4670, 245.0103
461.6550, 112.1816
462.8430, 77.10742
464.0300, 159.7822
465.2180, 71.74219
466.4050, 144.8975
467.5920, 68.66650
468.7790, 172.6758
469.9650, 136.3623
471.1520, 143.0732
472.3380, 70.42627
473.5250, 74.10645
474.7110, 154.5610
475.8970, 124.2446
477.0820, 20.91064
478.2680, 76.23389
479.4540, 0.3437500
480.6390, 53.41797
481.8240, 46.66162
483.0090, 29.61182
484.1940, 1.030762
485.3780, 72.62061
486.5630, 18.98340
487.7470, 21.68701
488.9320, 131.1133
490.1160, 18.51318
491.3000, 40.21777
492.4830, 64.60010
493.6670, 17.14746
494.8500, 50.71875
496.0340, 39.56104
497.2170, 21.48340
498.4000, 33.41650
499.5820, 128.7925
500.7650, 126.2139
501.9480, 50.53027
503.1300, 181.1353
504.3120, 86.53027
505.4940, 140.6128
506.6760, 100.0171
507.8580, 268.0547
509.0390, 220.3516
510.2210, 258.3340
511.4020, 135.9990
512.5830, 120.2695
513.7640, 168.4673
514.9450, 191.8306
516.1250, 228.6821
517.3060, 250.4062
518.4860, 130.1094
519.6660, 99.62207
520.8460, 16.21338
522.0260, 66.04150
523.2060, 99.55469
524.3850, 56.81641
525.5650, 100.8838
526.7440, 55.08008
527.9230, 21.18213
529.1020, 46.64795
530.2810, 90.27686
531.4590, 54.98535
532.6380, 147.5908
533.8160, 46.54932
534.9940, 45.99023
536.1720, 95.24756
537.3500, 30.47559
538.5270, 95.99609
539.7050, 13.48926
540.8820, 1.683105
542.0590, 18.60205
543.2360, 99.65869
544.4130, 14.49805
545.5900, 29.92432
546.7660, 28.68799
547.9430, 39.13623
549.1190, 5.977051
550.2950, 23.56885
551.4710, 6.289063
552.6470, 85.71826
553.8220, 94.88818
554.9980, 64.50342
556.1730, 73.56689
557.3480, 54.32031
558.5230, 1.586914
559.6980, 30.54102
560.8730, 68.29102
562.0470, 82.77148
563.2220, 8.607910
564.3960, 32.74316
565.5700, 48.88574
566.7440, 20.88525
567.9170, 102.9175
569.0910, 99.25977
570.2640, 175.1055
571.4380, 315.8213
572.6110, 328.8110
573.7840, 448.2773
574.9570, 513.8027
576.1290, 591.2905
577.3020, 708.5498
578.4740, 771.8569
579.6460, 738.2119
580.8180, 828.1758
581.9900, 783.9438
583.1620, 721.5928
584.3330, 736.0791
585.5040, 674.9580
586.6760, 682.2256
587.8470, 672.1089
589.0180, 619.2925
590.1880, 644.4326
591.3590, 508.0625
592.5290, 420.9062
593.7000, 568.6289
594.8700, 330.9375
596.0400, 430.2100
597.2090, 198.1494
598.3790, 289.9795
599.5490, 317.8975
600.7180, 376.2139
601.8870, 450.8389
603.0560, 525.3984
604.2250, 519.8223
605.3940, 531.6064
606.5620, 641.5615
607.7300, 665.2461
608.8990, 639.6621
610.0670, 439.2656
611.2350, 560.5400
612.4020, 435.0947
613.5700, 399.4160
614.7370, 383.2480
615.9050, 442.3975
617.0720, 483.4814
618.2390, 343.7998
619.4060, 377.9600
620.5720, 378.3672
621.7390, 397.5527
622.9050, 407.4141
624.0710, 357.0771
625.2370, 418.6143
626.4030, 412.2207
627.5690, 600.3340
628.7340, 456.0752
629.9000, 463.0039
631.0650, 604.5596
632.2300, 492.2764
633.3950, 614.1650
634.5600, 554.1748
635.7240, 650.2627
636.8890, 495.7910
638.0530, 539.9844
639.2170, 581.8447
640.3810, 554.0225
641.5450, 436.4424
642.7080, 390.7793
643.8720, 428.4023
645.0350, 360.9150
646.1980, 419.2969
647.3610, 364.2168
648.5240, 383.1787
649.6870, 460.6748
650.8490, 169.0420
652.0120, 294.9883
653.1740, 267.1357
654.3360, 166.1230
655.4980, 287.9688
656.6600, 307.6260
657.8210, 313.5381
658.9830, 147.4580
660.1440, 202.4111
661.3050, 151.4219
662.4660, 100.6309
663.6270, 264.4873
664.7870, 259.7100
665.9480, 216.2188
667.1080, 28.62402
668.2680, 168.6152
669.4280, 117.5439
670.5880, 86.95312
671.7480, 100.1035
672.9070, 10.56738
674.0670, 117.7090
675.2260, 150.0430
676.3850, 5.364258
677.5440, 63.19629
678.7030, 58.08105
679.8610, 204.6328
681.0200, 68.27344
682.1780, 200.5723
683.3360, 69.28516
684.4940, 75.49414
685.6520, 184.3047
686.8090, 104.2246
687.9670, 13.74902
689.1240, 77.61621
690.2810, 27.27441
691.4380, 136.4102
692.5950, 141.9639
693.7520, 8.050781
694.9080, 96.74414
696.0650, 10.77246
697.2210, 132.0615
698.3770, 130.0137
699.5330, 207.1104
700.6880, 19.48047
701.8440, 160.6543
702.9990, 75.04004
704.1550, 60.13086
705.3100, 80.75000
706.4650, 58.83887
707.6190, 210.3467
708.7740, 228.6953
709.9290, 181.7012
711.0830, 257.1377
712.2370, 131.8584
713.3910, 105.4355
714.5450, 102.4102
715.6980, 145.1592
716.8520, 121.4033
718.0050, 98.08203
719.1580, 180.2197
720.3110, 200.6797
721.4640, 246.2939
722.6170, 19.59375
723.7700, 152.9307
724.9220, 48.17773
726.0740, 56.73145
727.2260, 116.1611
728.3780, 110.8057
729.5300, 7.405273
730.6810, 89.18066
731.8330, 10.52539
732.9840, 52.50488
734.1350, 20.90625
735.2860, 21.77637
736.4370, 34.10254
737.5880, 6.329102
738.7380, 14.61816
739.8880, 21.35352
741.0390, 130.4668
742.1890, 114.5928
743.3380, 100.4639
744.4880, 201.4385
745.6380, 88.55176
746.7870, 39.02148
747.9360, 134.4229
749.0850, 144.8750
750.2340, 71.16797
751.3830, 41.05469
752.5310, 157.6250
753.6800, 149.2461
754.8280, 124.5947
755.9760, 186.8174
757.1240, 44.95215
758.2720, 23.47168
759.4190, 237.0635
760.5670, 56.56445
761.7140, 42.55176
762.8610, 223.1182
764.0080, 114.4199
765.1550, 167.9600
766.3020, 100.4629
767.4480, 70.98047
768.5950, 36.87500
769.7410, 20.05273
770.8870, 223.7871
772.0330, 141.4717
773.1780, 149.7354
774.3240, 24.52246
775.4690, 68.66699
776.6140, 149.2715
777.7590, 154.9170
778.9040, 80.38574
780.0490, 249.6709
781.1940, 299.0068
782.3380, 34.17188
783.4820, 11.40430
784.6260, 104.5537
785.7700, 242.4121
786.9140, 62.56445
788.0580, 119.8633
789.2010, 88.15820
790.3450, 248.6123
791.4880, 80.42383
792.6310, 124.2949
793.7730, 191.3760
794.9160, 137.6973
796.0590, 239.3438
797.2010, 184.1934
798.3430, 70.60547
799.4850, 56.74414
800.6270, 157.2373
801.7690, 250.7783
802.9100, 210.2461
804.0520, 172.8350
805.1930, 219.3506
806.3340, 242.0225
807.4750, 152.1504
808.6160, 450.2549
809.7560, 159.4297
810.8970, 115.8994
812.0370, 50.45020
813.1770, 258.0352
814.3170, 179.5029
815.4570, 147.5439
816.5960, 124.4502
817.7360, 47.87109
818.8750, 152.6201
820.0140, 225.8242
821.1530, 129.4346
822.2920, 208.0088
823.4310, 183.9102
824.5690, 343.4014
825.7070, 338.4463
826.8460, 158.6699
827.9840, 236.5898
829.1220, 206.8760
830.2590, 70.09082
831.3970, 113.6475
832.5340, 262.4844
833.6710, 160.8916
834.8080, 141.7148
835.9450, 144.4385
837.0820, 98.39160
838.2190, 139.4873
839.3550, 229.0811
840.4910, 70.22949
841.6270, 179.2188
842.7630, 258.2012
843.8990, 220.0049
845.0350, 235.5186
846.1700, 135.9092
847.3060, 121.4756
848.4410, 36.55371
849.5760, 291.2705
850.7100, 177.6416
851.8450, 213.1279
852.9800, 316.0742
854.1140, 193.6201
855.2480, 66.67285
856.3820, 209.9434
857.5160, 155.5723
858.6500, 212.8223
859.7830, 183.7656
860.9170, 187.0781
862.0500, 103.2461
863.1830, 113.5596
864.3160, 189.1426
865.4480, 61.05566
866.5810, 234.7598
867.7130, 7.835938
868.8460, 90.11719
869.9780, 162.8213
871.1100, 118.5029
872.2410, 81.26562
873.3730, 176.2197
874.5050, 208.4893
875.6360, 62.08691
876.7670, 75.23438
877.8980, 139.4160
879.0290, 182.4023
880.1590, 138.9326
881.2900, 87.86035
882.4200, 222.8154
883.5500, 221.8086
884.6800, 190.7705
885.8100, 209.5811
886.9400, 287.4023
888.0690, 51.33008
889.1990, 72.37012
890.3280, 2.576172
891.4570, 128.0400
892.5860, 129.9600
893.7140, 25.12207
894.8430, 218.1543
895.9710, 220.0947
897.1000, 107.1826
898.2280, 128.2168
899.3560, 1.796875
900.4830, 51.18750
901.6110, 106.9043
902.7380, 83.61133
903.8660, 76.90625
904.9930, 120.2637
906.1200, 204.2402
907.2460, 62.00977
908.3730, 35.23828
909.5000, 127.4180
910.6260, 10.04297
911.7520, 125.6934
912.8780, 94.54883
914.0040, 114.3281
915.1290, 135.4453
916.2550, 102.2168
917.3800, 121.7441
918.5050, 82.60938
919.6300, 78.20117
920.7550, 125.1562
921.8800, 9.412109
923.0040, 4.224609
924.1290, 37.92188
925.2530, 102.3887
926.3770, 205.4277
927.5010, 7.335938
928.6250, 113.9727
929.7480, 53.05469
930.8720, 197.0039
931.9950, 199.5547
933.1180, 98.13867
934.2410, 89.93555
935.3640, 183.3262
936.4860, 73.83594
937.6090, 65.45703
938.7310, 209.8750
939.8530, 256.2168
940.9750, 336.4023
942.0970, 393.8320
943.2180, 345.0234
944.3400, 320.1582
945.4610, 369.1953
946.5820, 458.9609
947.7030, 486.3711
948.8240, 605.5566
949.9450, 436.3359
951.0650, 851.8945
952.1860, 827.2695
953.3060, 1223.236
954.4260, 1741.551
955.5460, 2863.086
956.6650, 3811.336
957.7850, 5834.207
958.9040, 7762.465
960.0230, 9728.229
961.1420, 11974.35
962.2610, 13594.18
963.3800, 13659.24
964.4990, 12769.70
965.6170, 11216.48
966.7350, 8905.713
967.8530, 6510.953
968.9710, 4746.139
970.0890, 3295.830
971.2070, 2420.988
972.3240, 1718.238
973.4410, 1357.084
974.5580, 938.2109
975.6750, 608.4961
976.7920, 588.5410
977.9090, 471.9316
979.0250, 411.0781
980.1410, 437.1641
981.2580, 325.3613
982.3740, 254.8496
983.4890, 191.3301
984.6050, 224.9785
985.7200, 171.2773
986.8360, 81.82812
987.9510, 131.1914
989.0660, 8.279297
990.1810, 207.9590
991.2950, 119.0371
992.4100, 230.3438
993.5240, 292.5430
994.6390, 74.74219
995.7530, 56.53711
996.8660, 168.4199
997.9800, 139.4551
999.0940, 206.3867
1000.207, 102.9824
1001.320, 88.12109
1002.433, 186.7422
1003.546, 2.740234
1004.659, 287.5605
1005.772, 75.62109
1006.884, 258.0293
1007.996, 126.4160
1009.108, 64.31445
1010.220, 137.4844
1011.332, 213.7012
1012.444, 16.98828
1013.555, 53.96680
1014.666, 43.83008
1015.777, 132.3594
1016.888, 0.8105470
1017.999, 138.6406
1019.110, 162.7246
1020.220, 62.19336
1021.331, 142.1504
1022.441, 354.4023
1023.551, 236.4160
1024.661, 288.7402
1025.770, 253.9238
1026.880, 326.7539
1027.989, 425.3613
1029.098, 538.6113
1030.207, 553.5137
1031.316, 678.7910
1032.425, 639.8848
1033.533, 738.8809
1034.642, 564.1094
1035.750, 555.1719
1036.858, 526.1816
1037.966, 512.3887
1039.073, 508.6914
1040.181, 566.1426
1041.288, 650.4824
1042.396, 448.0605
1043.503, 650.6523
1044.610, 418.2090
1045.716, 488.4922
1046.823, 641.8125
1047.929, 715.9531
1049.036, 717.3379
1050.142, 649.2012
1051.248, 670.1133
1052.353, 559.3457
1053.459, 506.8770
1054.564, 513.1523
1055.670, 428.2363
1056.775, 652.2148
1057.880, 648.9160
1058.985, 678.0938
1060.089, 551.1816
1061.194, 566.2461
1062.298, 303.5449
1063.402, 256.8438
1064.506, 192.0410
1065.610, 107.2363
1066.713, 156.7891
1067.817, 93.56055
1068.920, 266.4863
1070.023, 69.59766
1071.126, 292.7207
1072.229, 250.8086
1073.332, 312.7949
1074.435, 262.5352
1075.537, 514.8223
1076.639, 595.9414
1077.741, 644.4668
1078.843, 517.0801
1079.945, 574.5645
1081.046, 540.2871
1082.148, 1100.670
1083.249, 1167.365
1084.350, 1607.732
1085.451, 1272.605
1086.551, 1059.562
1087.652, 556.1680
1088.752, 158.8906
1089.853, 318.3574
1090.953, 179.8105
1092.053, 198.1094
1093.152, 326.5527
1094.252, 196.7754
1095.351, 199.0859
1096.451, 291.9629
1097.550, 57.30273
1098.649, 9.294922
1099.748, 52.23633
1100.846, 16.70508
1101.945, 68.32031
1103.043, 177.1562
1104.141, 68.98242
1105.239, 4.310547
1106.337, 35.89062
1107.434, 165.8203
1108.532, 134.7812
1109.629, 109.4980
1110.726, 108.3652
1111.823, 116.5449
1112.920, 125.6680
1114.017, 181.7285
1115.113, 233.3066
1116.210, 184.5469
1117.306, 132.5586
1118.402, 84.53906
1119.498, 191.9336
1120.593, 144.9824
1121.689, 312.9004
1122.784, 338.0840
1123.879, 491.4062
1124.974, 265.5410
1126.069, 220.7676
1127.164, 315.4258
1128.259, 376.8047
1129.353, 107.5332
1130.447, 15.25391
1131.541, 127.9668
1132.635, 149.2031
1133.729, 61.00391
1134.822, 106.6504
1135.916, 210.1465
1137.009, 2.941406
1138.102, 60.02734
1139.195, 138.3340
1140.288, 64.04688
1141.380, 107.6758
1142.473, 248.7559
1143.565, 39.66797
1144.657, 131.7559
1145.749, 91.13086
1146.841, 96.11914
1147.932, 47.57031
1149.024, 5.195313
1150.115, 20.94141
1151.206, 375.7754
1152.297, 74.84375
1153.388, 276.2051
1154.479, 279.6621
1155.569, 227.9980
1156.659, 249.8340
1157.750, 351.1914
1158.839, 193.4102
1159.929, 32.88281
1161.019, 90.70703
1162.108, 346.1543
1163.198, 185.7109
1164.287, 199.0625
1165.376, 73.19531
1166.465, 81.65625
1167.553, 288.9824
1168.642, 110.1309
1169.730, 216.5723
1170.818, 244.5391
1171.906, 242.4043
1172.994, 27.65039
1174.082, 91.80469
1175.170, 471.4863
1176.257, 124.5098
1177.344, 302.8945
1178.431, 105.6445
1179.518, 364.2520
1180.605, 282.3125
1181.691, 107.4277
1182.778, 211.3945
1183.864, 355.3184
1184.950, 204.8184
1186.036, 137.4219
1187.122, 84.47656
1188.207, 194.8359
1189.292, 126.0117
1190.378, 230.6211
1191.463, 76.44531
1192.548, 288.0938
1193.632, 204.5508
1194.717, 112.5352
1195.801, 93.57617
1196.886, 360.6973
1197.970, 69.14453
1199.054, 258.5645
1200.137, 350.0977
1201.221, 75.71680
1202.305, 206.9707
1203.388, 255.8281
1204.471, 44.97852
1205.554, 277.8789
1206.637, 248.7734
1207.719, 345.4258
1208.802, 351.9180
1209.884, 192.6816
1210.966, 355.1953
1212.048, 175.4062
1213.130, 318.1777
1214.212, 378.6133
1215.293, 238.4043
1216.374, 485.8164
1217.456, 262.5605
1218.536, 214.2910
1219.617, 253.1387
1220.698, 234.2969
1221.778, 248.0078
1222.859, 190.5547
1223.939, 219.9688
1225.019, 78.34766
1226.099, 116.0430
1227.178, 125.0000
1228.258, 185.0000
1229.337, 285.4180
1230.417, 376.2773
1231.496, 515.1680
1232.574, 113.9883
1233.653, 323.9414
1234.732, 461.4805
1235.810, 93.28516
1236.888, 224.7070
1237.966, 96.75391
1239.044, 327.3398
1240.122, 408.9141
1241.199, 269.8008
1242.277, 284.9844
1243.354, 403.1133
1244.431, 187.2500
1245.508, 251.3477
1246.585, 178.5938
1247.661, 178.1055
1248.738, 205.4883
1249.814, 74.58984
1250.890, 154.0508
1251.966, 75.47266
1253.042, 170.9414
1254.117, 68.52734
1255.193, 33.91797
1256.268, 17.39844
1257.343, 12.21094
1258.418, 34.92969
1259.493, 89.02344
1260.567, 125.1836
1261.642, 234.8164
1262.716, 301.7617
1263.790, 415.6445
1264.864, 313.1367
1265.938, 204.2227
1267.011, 136.8477
1268.085, 243.6641
1269.158, 253.8828
1270.231, 46.91797
1271.304, 82.08594
1272.377, 186.0391
1273.450, 31.80469
1274.522, 107.3984
1275.594, 159.0625
1276.666, 14.15234
1277.738, 171.8477
1278.810, 231.7070
1279.882, 209.4180
1280.953, 40.41406
1282.025, 33.03125
1283.096, 191.4023
1284.167, 81.60938
