##NAMES=Fluorophlogopite
##RRUFFID=R040075
##IDEAL CHEMISTRY=KMg_3_(Si_3_Al)O_10_F_2_
##LOCALITY=unknown
##OWNER=RRUFF
##SOURCE=University of Arizona Mineral Museum
##DESCRIPTION=Green hexagonal tablet
##STATUS=The identification of this mineral has been confirmed by X-ray diffraction and chemical analysis
##URL=rruff.info/R040075
##MEASURED CHEMISTRY=(K_0.93_[box]_0.04_Na_0.03_)(Mg_0.66_Fe_0.30_Ti_0.02_)_3_(Si_0.75_Al_0.25_)_4_O_10_(F_0.90_(OH)_0.06_Cl_0.04_)
##PIN_ID=L00287
##ORIENTATION=Laser parallel to c [0 0 1]. Fiducial mark perpendicular to laser is parallel to -b* (0 -1 0)
166.996, 0.000
168.381, 2.697
169.767, 198.104
171.152, 213.559
172.536, 189.045
173.921, 245.520
175.305, 245.671
176.689, 374.229
178.073, 490.596
179.456, 606.011
180.839, 635.757
182.222, 770.199
183.605, 900.106
184.988, 985.693
186.370, 1160.766
187.752, 1149.301
189.134, 1222.769
190.516, 1177.256
191.898, 1148.785
193.279, 1077.340
194.660, 990.337
196.041, 872.796
197.421, 721.506
198.801, 638.090
200.182, 604.592
201.561, 611.349
202.941, 515.832
204.321, 431.641
205.700, 459.014
207.079, 330.809
208.457, 351.951
209.836, 352.518
211.214, 286.982
212.592, 279.909
213.970, 192.439
215.348, 207.247
216.725, 186.794
218.102, 208.036
219.479, 147.319
220.856, 91.661
222.232, 170.051
223.608, 35.483
224.984, 98.946
226.360, 33.431
227.736, 42.927
229.111, 13.575
230.486, 19.969
231.861, 81.836
233.236, 9.941
234.610, 1.242
235.984, 18.439
237.358, 61.999
238.732, 4.417
240.105, 3.470
241.479, 15.316
242.852, 14.894
244.224, 22.585
245.597, 82.979
246.969, 66.396
248.342, 0.287
249.713, 53.993
251.085, 21.627
252.457, 20.812
253.828, 9.319
255.199, 44.885
256.570, 71.503
257.940, 111.164
259.310, 75.860
260.681, 180.581
262.050, 133.319
263.420, 143.067
264.790, 172.818
266.159, 187.725
267.528, 227.296
268.896, 279.007
270.265, 299.691
271.633, 359.343
273.001, 413.959
274.369, 464.535
275.737, 439.071
277.104, 471.560
278.471, 462.995
279.838, 516.371
281.205, 449.662
282.572, 469.890
283.938, 450.029
285.304, 369.039
286.670, 394.976
288.035, 316.835
289.401, 290.586
290.766, 249.267
292.131, 223.860
293.495, 206.539
294.860, 198.950
296.224, 183.467
297.588, 171.972
298.952, 168.468
300.315, 179.958
301.679, 214.443
303.042, 171.924
304.405, 194.602
305.767, 231.482
307.130, 199.510
308.492, 302.024
309.854, 281.022
311.216, 231.083
312.578, 301.480
313.939, 319.513
315.300, 343.727
316.661, 419.609
318.021, 409.614
319.382, 411.689
320.742, 430.203
322.102, 426.820
323.462, 383.834
324.821, 355.689
326.181, 330.542
327.540, 302.393
328.899, 287.016
330.257, 310.087
331.616, 268.938
332.974, 295.625
334.332, 305.483
335.690, 291.333
337.047, 312.142
338.405, 281.891
339.762, 318.565
341.119, 306.154
342.475, 267.648
343.832, 258.041
345.188, 336.332
346.544, 261.517
347.900, 374.588
349.255, 297.539
350.610, 324.366
351.965, 347.068
353.320, 293.648
354.675, 342.107
356.029, 318.449
357.384, 368.682
358.738, 396.805
360.091, 368.803
361.445, 316.674
362.798, 313.380
364.151, 331.959
365.504, 364.378
366.857, 330.598
368.209, 338.696
369.561, 324.695
370.913, 325.537
372.265, 342.241
373.617, 306.861
374.968, 351.436
376.319, 306.978
377.670, 369.149
379.021, 293.380
380.371, 294.530
381.721, 300.778
383.071, 320.781
384.421, 332.393
385.770, 315.210
387.120, 290.465
388.469, 294.184
389.818, 297.159
391.166, 333.319
392.515, 259.431
393.863, 325.212
395.211, 267.855
396.559, 338.321
397.906, 306.374
399.254, 372.389
400.601, 307.711
401.948, 227.685
403.294, 280.170
404.641, 373.503
405.987, 349.873
407.333, 359.916
408.679, 261.028
410.025, 322.627
411.370, 235.950
412.715, 331.914
414.060, 295.921
415.405, 274.981
416.749, 349.787
418.093, 201.201
419.437, 241.864
420.781, 196.802
422.125, 177.505
423.468, 229.729
424.811, 253.754
426.154, 254.817
427.497, 191.002
428.839, 211.248
430.182, 214.657
431.524, 169.247
432.866, 163.474
434.207, 156.876
435.549, 132.586
436.890, 137.665
438.231, 119.053
439.572, 94.437
440.912, 116.567
442.252, 50.192
443.593, 75.563
444.932, 54.930
446.272, 4.294
447.611, 29.347
448.951, 40.604
450.290, 55.667
451.628, 51.352
452.967, 63.052
454.305, 48.772
455.644, 45.526
456.981, 75.321
458.319, 67.196
459.657, 33.133
460.994, 96.090
462.331, 76.019
463.668, 8.866
465.004, 52.844
466.341, 18.738
467.677, 38.612
469.013, 0.500
470.348, 6.596
471.684, 56.657
473.019, 7.679
474.354, 25.669
475.689, 64.613
477.024, 135.518
478.358, 147.398
479.692, 165.256
481.026, 200.103
482.360, 241.951
483.694, 195.799
485.027, 357.649
486.360, 266.502
487.693, 381.359
489.026, 309.219
490.358, 294.083
491.691, 398.950
493.023, 379.804
494.354, 444.646
495.686, 410.474
497.017, 397.289
498.349, 501.091
499.680, 490.879
501.010, 519.655
502.341, 549.988
503.671, 519.171
505.001, 578.912
506.331, 581.651
507.661, 606.379
508.990, 528.098
510.319, 550.808
511.648, 601.518
512.977, 523.220
514.306, 605.930
515.634, 586.643
516.962, 612.355
518.290, 621.080
519.618, 617.813
520.945, 599.554
522.273, 622.308
523.600, 663.083
524.927, 667.865
526.253, 637.659
527.580, 679.472
528.906, 650.299
530.232, 637.130
531.558, 639.969
532.883, 667.820
534.208, 698.684
535.534, 625.550
536.858, 648.436
538.183, 635.346
539.508, 672.264
540.832, 696.212
542.156, 635.179
543.480, 671.151
544.803, 684.138
546.127, 666.129
547.450, 690.129
548.773, 686.797
550.096, 720.163
551.418, 680.192
552.741, 666.238
554.063, 631.293
555.385, 604.357
556.706, 595.929
558.028, 567.106
559.349, 581.635
560.670, 547.772
561.991, 546.921
563.312, 581.080
564.632, 456.254
565.952, 528.443
567.272, 419.638
568.592, 482.865
569.911, 421.098
571.231, 424.340
572.550, 307.606
573.869, 338.889
575.187, 294.178
576.506, 308.476
577.824, 286.778
579.142, 195.084
580.460, 271.393
581.778, 208.706
583.095, 221.020
584.412, 191.337
585.729, 251.656
587.046, 118.977
588.363, 207.299
589.679, 91.621
590.995, 125.945
592.311, 128.269
593.627, 89.594
594.942, 130.919
596.258, 126.245
597.573, 117.537
598.888, 93.730
600.202, 100.147
601.517, 105.038
602.831, 104.166
604.145, 90.211
605.459, 94.050
606.772, 78.220
608.086, 81.426
609.399, 98.256
610.712, 99.100
612.024, 118.227
613.337, 158.270
614.649, 183.536
615.961, 151.953
617.273, 162.900
618.585, 230.007
619.896, 137.185
621.208, 226.645
622.519, 225.160
623.829, 294.120
625.140, 317.185
626.450, 209.085
627.761, 294.938
629.071, 219.889
630.380, 255.058
631.690, 327.029
632.999, 319.083
634.308, 411.307
635.617, 282.683
636.926, 411.062
638.235, 402.444
639.543, 365.830
640.851, 410.219
642.159, 445.612
643.466, 369.008
644.774, 441.406
646.081, 418.809
647.388, 431.213
648.695, 506.622
650.002, 566.033
651.308, 549.447
652.614, 599.864
653.920, 684.285
655.226, 632.708
656.531, 753.135
657.837, 752.564
659.142, 823.143
660.447, 970.588
661.752, 944.133
663.056, 978.349
664.360, 1172.939
665.664, 1211.579
666.968, 1388.165
668.272, 1456.529
669.575, 1620.256
670.879, 1835.329
672.182, 1944.842
673.484, 2246.926
674.787, 2261.531
676.089, 2647.270
677.392, 2662.710
678.694, 2814.419
679.995, 2913.463
681.297, 2881.576
682.598, 2845.272
683.899, 2767.560
685.200, 2543.488
686.501, 2416.180
687.802, 2221.211
689.102, 2071.522
690.402, 1883.735
691.702, 1763.548
693.002, 1651.449
694.301, 1526.755
695.600, 1468.926
696.899, 1428.330
698.198, 1369.667
699.497, 1315.521
700.795, 1312.402
702.093, 1340.992
703.391, 1328.773
704.689, 1360.162
705.987, 1405.876
707.284, 1396.636
708.581, 1465.304
709.878, 1482.059
711.175, 1519.329
712.472, 1561.990
713.768, 1599.549
715.064, 1618.159
716.360, 1739.959
717.656, 1763.495
718.951, 1709.925
720.247, 1795.354
721.542, 1775.964
722.837, 1787.384
724.131, 1722.799
725.426, 1735.209
726.720, 1685.616
728.014, 1681.019
729.308, 1609.417
730.601, 1555.810
731.895, 1559.199
733.188, 1465.584
734.481, 1418.963
735.774, 1372.375
737.067, 1394.709
738.359, 1253.075
739.651, 1285.436
740.943, 1215.792
742.235, 1160.142
743.526, 1135.488
744.818, 1152.830
746.109, 1100.166
747.400, 1137.497
748.691, 1107.823
749.981, 1039.144
751.271, 1081.459
752.562, 1032.771
753.851, 1114.076
755.141, 1139.377
756.431, 1070.673
757.720, 1190.965
759.009, 1204.252
760.298, 1208.536
761.587, 1260.816
762.875, 1196.101
764.163, 1342.394
765.451, 1238.698
766.739, 1250.012
768.027, 1361.339
769.314, 1269.675
770.601, 1366.020
771.888, 1386.381
773.175, 1266.755
774.462, 1274.134
775.748, 1330.533
777.034, 1225.949
778.320, 1218.363
779.606, 1150.786
780.892, 1054.210
782.177, 1083.638
783.462, 982.064
784.747, 971.485
786.032, 932.901
787.317, 919.312
788.601, 765.719
789.885, 751.119
791.169, 681.514
792.453, 606.902
793.736, 595.283
795.019, 518.658
796.303, 506.027
797.585, 449.389
798.868, 407.182
800.151, 387.092
801.433, 326.434
802.715, 278.770
803.997, 240.097
805.279, 199.419
806.560, 185.615
807.841, 212.041
809.122, 159.342
810.403, 123.635
811.684, 87.922
812.964, 47.202
814.245, 80.472
815.525, 57.736
816.804, 18.008
818.084, 49.223
819.363, 38.446
820.643, 52.660
821.922, 19.135
823.201, 21.045
824.479, 45.785
825.758, 20.654
827.036, 13.550
828.314, 53.469
829.592, 39.432
830.869, 34.431
832.147, 54.466
833.424, 75.544
834.701, 28.679
835.977, 37.846
837.254, 63.049
838.530, 41.302
839.807, 5.593
841.082, 10.904
842.358, 31.238
843.634, 29.605
844.909, 11.996
846.184, 56.415
847.459, 62.872
848.734, 3.380
850.008, 89.906
851.283, 47.497
852.557, 9.873
853.831, 21.770
855.105, 18.559
856.378, 12.877
857.651, 16.815
858.925, 26.467
860.197, 14.739
861.470, 36.000
862.743, 14.252
864.015, 0.494
865.287, 34.719
866.559, 57.934
867.831, 45.142
869.102, 9.340
870.373, 60.526
871.645, 116.704
872.915, 83.874
874.186, 39.037
875.457, 89.191
876.727, 117.346
877.997, 95.494
879.267, 146.639
880.536, 114.777
881.806, 137.357
883.075, 99.030
884.344, 167.146
885.613, 171.254
886.882, 195.364
888.150, 228.466
889.419, 162.561
890.687, 222.649
891.954, 187.731
893.222, 209.805
894.490, 240.872
895.757, 204.937
897.024, 241.995
898.291, 281.046
899.557, 205.098
900.824, 280.144
902.090, 270.182
903.356, 288.213
904.622, 285.238
905.888, 280.485
907.153, 287.268
908.418, 278.273
909.683, 305.271
910.948, 328.263
912.213, 292.248
913.477, 327.227
914.741, 302.198
916.005, 402.163
917.269, 388.122
918.533, 323.073
919.796, 396.018
921.060, 344.957
922.323, 350.888
923.585, 411.814
924.848, 328.733
926.111, 423.650
927.373, 358.561
928.635, 328.465
929.897, 375.361
931.158, 434.250
932.420, 408.133
933.681, 535.007
934.942, 434.875
936.203, 471.736
937.463, 338.589
938.724, 349.436
939.984, 390.275
941.244, 377.107
942.504, 402.932
943.764, 419.750
945.023, 352.561
946.282, 421.365
947.541, 418.162
948.800, 359.951
950.059, 412.739
951.317, 420.519
952.575, 348.293
953.833, 416.066
955.091, 352.833
956.349, 372.593
957.606, 375.346
958.864, 416.093
960.121, 367.833
961.377, 390.566
962.634, 356.292
963.891, 348.013
965.147, 354.580
966.403, 333.279
967.659, 299.878
968.914, 332.803
970.170, 382.351
971.425, 325.846
972.680, 410.392
973.935, 383.158
975.190, 377.557
976.444, 350.607
977.698, 302.219
978.952, 352.257
980.206, 364.771
981.460, 327.153
982.713, 322.831
983.967, 320.239
985.220, 362.309
986.473, 379.309
987.725, 350.722
988.978, 330.543
990.230, 322.719
991.482, 305.129
992.734, 334.198
993.986, 317.984
995.237, 384.867
996.488, 359.146
997.739, 371.337
998.990, 386.117
1000.241, 365.377
1001.492, 363.711
1002.742, 333.865
1003.992, 329.091
1005.242, 309.463
1006.492, 265.789
1007.741, 346.091
1008.990, 312.137
1010.239, 440.150
1011.488, 320.472
1012.737, 273.889
1013.986, 264.222
1015.234, 374.042
1016.482, 242.469
1017.730, 358.001
1018.978, 228.481
1020.225, 277.765
1021.473, 364.312
1022.720, 308.968
1023.967, 332.622
1025.213, 372.101
1026.460, 344.840
1027.706, 394.523
1028.953, 368.052
1030.198, 387.735
1031.444, 380.419
1032.690, 382.105
1033.935, 456.791
1035.180, 416.514
1036.425, 390.006
1037.670, 472.700
1038.915, 364.399
1040.159, 425.120
1041.403, 364.821
1042.647, 407.577
1043.891, 463.279
1045.135, 400.957
1046.378, 422.662
1047.621, 446.369
1048.864, 449.860
1050.107, 470.729
1051.350, 422.307
1052.592, 481.016
1053.835, 485.725
1055.077, 456.476
1056.318, 530.221
1057.560, 455.982
1058.802, 499.692
1060.043, 468.447
1061.284, 487.160
1062.525, 516.878
1063.765, 567.596
1065.006, 456.316
1066.246, 532.035
1067.486, 537.764
1068.726, 442.494
1069.966, 511.229
1071.205, 447.063
1072.445, 522.953
1073.684, 524.688
1074.923, 505.742
1076.161, 530.478
1077.400, 533.228
1078.638, 444.964
1079.876, 496.701
1081.114, 544.472
1082.352, 444.211
1083.590, 540.951
1084.827, 537.690
1086.064, 508.514
1087.301, 475.254
1088.538, 515.995
1089.775, 538.735
1091.011, 533.477
1092.247, 541.219
1093.483, 529.961
1094.719, 494.705
1095.955, 543.450
1097.190, 492.195
1098.425, 494.930
1099.660, 483.676
1100.895, 368.423
1102.130, 423.608
1103.364, 466.356
1104.598, 332.160
1105.833, 365.946
1107.066, 299.695
1108.300, 342.444
1109.534, 308.202
1110.767, 274.953
1112.000, 210.722
1113.233, 208.474
1114.466, 249.227
1115.698, 189.949
1116.930, 242.704
1118.163, 181.536
1119.394, 219.372
1120.626, 183.137
1121.858, 143.904
1123.089, 121.711
1124.320, 100.490
1125.551, 126.299
1126.782, 112.217
1128.013, 152.104
1129.243, 156.782
1130.473, 118.630
1131.703, 104.970
1132.933, 94.850
1134.163, 117.910
1135.392, 136.931
1136.621, 63.861
1137.850, 137.877
1139.079, 49.941
1140.308, 1.913
1141.536, 106.063
1142.765, 77.155
1143.993, 78.215
1145.221, 166.338
1146.448, 39.362
1147.676, 125.486
1148.903, 160.547
1150.130, 20.376
1151.357, 71.621
1152.584, 131.608
1153.810, 74.785
1155.037, 66.448
1156.263, 24.007
1157.489, 55.318
1158.715, 13.571
1159.940, 1.162
1161.166, 41.586
1162.391, 54.872
1163.616, 8.167
1164.841, 70.067
1166.065, 22.233
1167.290, 56.373
1168.514, 17.630
1169.738, 75.313
1170.962, 27.529
1172.185, 20.143
1173.409, 46.363
1174.632, 68.037
1175.855, 23.772
1177.078, 33.371
1178.301, 28.638
1179.523, 62.902
1180.746, 65.195
1181.968, 6.829
1183.190, 38.820
1184.412, 25.114
1185.633, 42.238
1186.855, 13.604
1188.076, 23.781
1189.297, 6.264
1190.518, 32.581
1191.738, 23.190
1192.959, 51.909
1194.179, 50.996
1195.399, 35.527
1196.619, 18.544
1197.838, 20.557
1199.058, 37.601
1200.277, 31.585
1201.496, 14.598
1202.715, 16.565
1203.934, 13.117
1205.152, 35.616
1206.371, 15.608
1207.589, 55.033
1208.807, 59.241
1210.024, 66.181
1211.242, 78.411
1212.459, 72.114
1213.677, 81.378
1214.894, 54.360
1216.110, 43.399
1217.327, 10.314
1218.543, 0.224
1219.760, 53.128
1220.976, 21.972
1222.192, 66.008
1223.407, 32.888
1224.623, 43.861
1225.838, 48.732
1227.053, 30.074
1228.268, 46.937
1229.483, 70.796
1230.697, 94.650
1231.912, 19.533
1233.126, 74.378
1234.340, 50.218
1235.554, 69.066
1236.767, 84.972
1237.981, 79.816
1239.194, 80.846
1240.407, 93.877
1241.620, 57.717
1242.832, 69.635
1244.045, 12.558
1245.257, 65.263
1246.469, 59.054
1247.681, 19.062
1248.893, 48.719
1250.104, 32.498
1251.315, 37.281
1252.527, 87.049
1253.738, 72.957
1254.948, 45.926
1256.159, 49.688
1257.369, 44.460
1258.579, 83.289
1259.789, 53.034
1260.999, 9.231
1262.209, 113.497
1263.418, 34.247
1264.628, 33.967
1265.837, 86.682
1267.046, 56.394
1268.254, 45.342
1269.463, 54.031
1270.671, 8.288
1271.879, 26.382
1273.087, 36.038
1274.295, 4.961
1275.502, 111.651
1276.710, 1.257
1277.917, 79.847
1279.124, 18.416
1280.331, 30.958
1281.537, 69.492
1282.744, 41.018
1283.950, 33.532
1285.156, 59.033
1286.362, 16.517
1287.568, 34.054
1288.773, 44.557
1289.978, 30.012
1291.184, 89.457
1292.389, 39.894
1293.593, 56.324
1294.798, 70.745
1296.002, 3.253
1297.206, 18.864
1298.410, 41.509
1299.614, 2.857
1300.818, 5.187
1302.021, 16.505
1303.225, 6.185
1304.428, 5.151
1305.631, 24.609
1306.833, 6.347
1308.036, 19.900
1309.238, 15.862
1310.440, 48.359
1311.642, 54.570
1312.844, 26.768
1314.045, 12.045
1315.247, 36.126
1316.448, 26.714
1317.649, 9.426
1318.850, 40.517
1320.051, 34.583
1321.251, 42.826
1322.451, 17.903
1323.651, 17.970
1324.851, 15.555
1326.051, 3.521
1327.251, 12.059
1328.450, 2.729
1329.649, 5.734
1330.848, 9.245
1332.047, 24.192
1333.245, 48.149
1334.444, 35.041
1335.642, 1.022
1336.840, 36.928
1338.038, 38.840
1339.236, 4.742
1340.433, 35.849
1341.630, 48.712
1342.828, 40.572
1344.025, 53.767
1345.221, 46.311
1346.418, 56.089
1347.614, 35.889
1348.810, 45.664
1350.006, 47.480
1351.202, 4.243
1352.398, 8.959
1353.593, 72.823
1354.789, 19.598
1355.984, 52.364
1357.179, 23.879
1358.373, 42.863
1359.568, 6.404
1360.762, 77.318
1361.956, 127.934
1363.150, 118.487
1364.344, 78.341
1365.538, 32.719
1366.731, 81.410
1367.924, 32.082
1369.117, 78.763
1370.310, 4.441
1371.503, 62.377
1372.695, 87.047
1373.888, 72.714
1375.080, 47.369
1376.272, 70.939
1377.464, 64.591
1378.655, 52.125
1379.847, 36.817
1381.038, 28.411
1382.229, 27.000
1383.420, 15.847
1384.610, 48.917
1385.801, 28.220
1386.991, 59.511
1388.181, 47.303
1389.371, 57.460
1390.561, 31.703
1391.750, 84.923
1392.940, 75.122
1394.129, 51.279
1395.318, 107.387
1396.507, 23.478
1397.696, 17.601
1398.884, 52.604
1400.072, 49.509
1401.260, 33.643
1402.448, 52.471
1403.636, 73.925
1404.824, 70.895
1406.011, 47.813
1407.198, 74.507
1408.385, 91.300
1409.572, 116.195
1410.758, 16.159
1411.945, 138.624
1413.131, 51.741
1414.317, 69.802
1415.503, 123.587
1416.689, 4.879
1417.874, 102.064
1419.060, 78.204
1420.245, 74.477
1421.430, 83.225
1422.615, 94.755
1423.799, 80.099
1424.984, 105.125
1426.168, 70.543
1427.352, 75.374
1428.536, 111.820
1429.720, 17.024
1430.903, 21.126
1432.087, 100.320
1433.270, 37.901
1434.453, 68.179
1435.635, 119.512
1436.818, 78.775
1438.001, 137.030
1439.183, 78.541
1440.365, 61.585
1441.547, 50.115
1442.728, 40.777
1443.910, 92.529
1445.091, 62.711
1446.272, 81.723
1447.453, 96.709
1448.634, 63.968
1449.815, 97.073
1450.995, 112.094
1452.176, 98.132
1453.356, 79.805
1454.535, 85.940
1455.715, 60.849
1456.895, 87.731
1458.074, 82.434
1459.253, 95.281
1460.432, 82.070
1461.611, 117.059
1462.790, 86.716
1463.968, 65.196
1465.146, 61.835
1466.324, 131.357
1467.502, 92.887
1468.680, 58.789
1469.858, 113.285
1471.035, 62.859
1472.212, 36.435
1473.389, 131.054
1474.566, 56.790
1475.742, 102.513
1476.919, 134.279
1478.095, 82.758
1479.271, 125.529
1480.447, 147.278
1481.623, 79.994
1482.798, 135.760
1483.974, 113.638
1485.149, 88.525
1486.324, 128.397
1487.499, 97.282
1488.674, 87.151
1489.848, 125.030
1491.022, 94.921
1492.196, 63.817
1493.370, 119.730
1494.544, 94.677
1495.718, 105.651
1496.891, 81.673
1498.064, 79.773
1499.237, 61.940
1500.410, 118.147
1501.583, 44.401
1502.755, 25.708
1503.928, 81.073
1505.100, 4.509
1506.272, 66.968
1507.443, 63.516
1508.615, 76.148
1509.786, 98.881
1510.958, 75.726
1512.129, 4.309
1513.300, 33.788
1514.470, 47.038
1515.641, 22.065
1516.811, 52.337
1517.981, 5.728
1519.151, 39.339
1520.321, 70.914
1521.491, 17.375
1522.660, 54.577
1523.829, 0.000
##END=



