##NAMES=Fluorophlogopite
##RRUFFID=R040075
##IDEAL CHEMISTRY=KMg_3_(Si_3_Al)O_10_F_2_
##LOCALITY=unknown
##OWNER=RRUFF
##SOURCE=University of Arizona Mineral Museum
##DESCRIPTION=Green hexagonal tablet
##STATUS=The identification of this mineral has been confirmed by X-ray diffraction and chemical analysis
##URL=rruff.info/R040075
##MEASURED CHEMISTRY=(K_0.93_[box]_0.04_Na_0.03_)(Mg_0.66_Fe_0.30_Ti_0.02_)_3_(Si_0.75_Al_0.25_)_4_O_10_(F_0.90_(OH)_0.06_Cl_0.04_)
##PIN_ID=L00311
##ORIENTATION=Laser parallel to a [1 0 0]. Fiducial mark perpendicular to laser is parallel to b* (0 1 0)
124.519, 0.000
125.910, 275.811
127.300, 134.593
128.690, 218.908
130.080, 48.588
131.469, 11.483
132.858, 86.396
134.248, 136.309
135.636, 85.796
137.025, 280.527
138.413, 94.384
139.801, 20.400
141.189, 125.897
142.577, 272.942
143.964, 110.502
145.352, 368.430
146.739, 346.626
148.125, 275.021
149.512, 533.570
150.898, 562.858
152.284, 644.027
153.670, 766.783
155.056, 819.458
156.441, 992.105
157.827, 1144.348
159.212, 1556.197
160.596, 1617.720
161.981, 1998.980
163.365, 2110.030
164.749, 2710.896
166.133, 3141.594
167.517, 3842.146
168.900, 4372.575
170.283, 5372.904
171.666, 6323.150
173.049, 7343.328
174.431, 8803.440
175.813, 10293.892
177.195, 11926.386
178.577, 13715.867
179.959, 15596.903
181.340, 17236.258
182.721, 18448.234
184.102, 19355.846
185.483, 19326.674
186.863, 18286.680
188.244, 17725.840
189.624, 15583.503
191.003, 14020.988
192.383, 11708.546
193.762, 10086.189
195.141, 8453.965
196.520, 7021.906
197.899, 5880.057
199.277, 4908.494
200.656, 4027.006
202.034, 3435.527
203.411, 2854.040
204.789, 2422.535
206.166, 1971.043
207.543, 1579.568
208.920, 1378.143
210.297, 1098.351
211.673, 975.518
213.049, 774.347
214.425, 763.274
215.801, 672.209
217.176, 651.295
218.552, 250.457
219.927, 399.633
221.302, 218.758
222.676, 357.824
224.051, 476.834
225.425, 185.783
226.799, 144.666
228.173, 86.517
229.546, 32.230
230.919, 80.904
232.292, 80.496
233.665, 18.028
235.038, 33.537
236.410, 14.808
237.782, 136.933
239.154, 11.232
240.526, 59.307
241.898, 217.287
243.269, 335.178
244.640, 72.979
246.011, 49.099
247.381, 49.887
248.752, 118.324
250.122, 157.181
251.492, 86.253
252.861, 306.162
254.231, 184.973
255.600, 284.831
256.969, 354.287
258.338, 473.461
259.707, 553.378
261.075, 678.857
262.443, 783.013
263.811, 943.347
265.179, 1106.816
266.546, 1257.060
267.914, 1581.027
269.281, 1750.023
270.647, 1871.494
272.014, 2357.859
273.380, 2264.186
274.747, 2349.926
276.113, 2216.652
277.478, 1996.777
278.844, 1854.813
280.209, 1593.495
281.574, 1461.041
282.939, 1347.479
284.304, 1239.512
285.668, 1007.909
287.032, 974.348
288.396, 851.299
289.760, 827.403
291.123, 765.674
292.487, 727.391
293.850, 868.650
295.212, 708.408
296.575, 715.257
297.937, 739.539
299.300, 987.928
300.662, 898.680
302.023, 1188.165
303.385, 1166.517
304.746, 1264.213
306.107, 1317.172
307.468, 1409.468
308.829, 1467.693
310.189, 1495.851
311.549, 1507.617
312.909, 1557.291
314.269, 1654.597
315.629, 1632.431
316.988, 1619.459
318.347, 1446.815
319.706, 1623.735
321.065, 1390.768
322.423, 1318.431
323.781, 1245.061
325.139, 1101.530
326.497, 1058.242
327.855, 1014.903
329.212, 927.233
330.569, 894.782
331.926, 823.988
333.283, 770.310
334.639, 756.154
335.995, 632.137
337.351, 586.030
338.707, 663.943
340.063, 559.657
341.418, 754.980
342.773, 1039.967
344.128, 644.849
345.483, 459.969
346.837, 604.607
348.192, 629.846
349.546, 604.401
350.899, 588.839
352.253, 553.372
353.606, 587.798
354.960, 543.493
356.313, 527.983
357.665, 490.550
359.018, 484.708
360.370, 458.819
361.722, 462.947
363.074, 486.961
364.426, 356.028
365.777, 544.939
367.128, 337.043
368.479, 208.853
369.830, 348.608
371.181, 277.313
372.531, 297.965
373.881, 233.672
375.231, 238.214
376.581, 233.701
377.930, 123.510
379.280, 187.882
380.629, 229.196
381.977, 248.453
383.326, 89.651
384.674, 215.790
386.023, 166.872
387.370, 140.895
388.718, 190.858
390.066, 146.636
391.413, 93.906
392.760, 109.013
394.107, 71.322
395.454, 155.747
396.800, 34.529
398.146, 140.754
399.492, 76.355
400.838, 25.950
402.184, 131.368
403.529, 35.875
404.874, 11.414
406.219, 86.595
407.564, 41.762
408.908, 62.893
410.252, 19.396
411.596, 142.964
412.940, 73.372
414.284, 60.078
415.627, 119.604
416.970, 96.559
418.313, 76.965
419.656, 25.424
420.999, 58.981
422.341, 97.336
423.683, 195.129
425.025, 116.527
426.367, 18.368
427.708, 111.639
429.049, 68.578
430.390, 27.431
431.731, 31.218
433.072, 9.837
434.412, 84.448
435.752, 29.949
437.092, 90.367
438.432, 155.729
439.772, 64.978
441.111, 147.230
442.450, 49.377
443.789, 2.536
445.127, 93.490
446.466, 71.438
447.804, 65.320
449.142, 28.150
450.480, 102.081
451.817, 90.561
453.155, 66.141
454.492, 88.342
455.829, 10.943
457.166, 42.378
458.502, 84.359
459.838, 21.787
461.175, 188.131
462.510, 9.221
463.846, 20.612
465.181, 3.380
466.517, 66.918
467.852, 57.321
469.186, 152.828
470.521, 19.516
471.855, 52.205
473.190, 20.025
474.523, 126.074
475.857, 31.116
477.191, 167.095
478.524, 73.017
479.857, 161.880
481.190, 119.686
482.523, 12.435
483.855, 185.121
485.187, 208.752
486.519, 136.329
487.851, 133.851
489.183, 129.317
490.514, 227.728
491.845, 173.086
493.176, 158.407
494.507, 257.675
495.837, 210.896
497.168, 218.065
498.498, 199.184
499.828, 232.262
501.157, 288.292
502.487, 384.286
503.816, 345.234
505.145, 232.139
506.474, 332.008
507.802, 175.833
509.131, 312.640
510.459, 361.404
511.787, 290.129
513.115, 303.820
514.442, 345.476
515.770, 378.090
517.097, 400.703
518.424, 409.276
519.750, 435.823
521.077, 301.341
522.403, 418.816
523.729, 289.300
525.055, 471.585
526.381, 254.015
527.706, 341.161
529.031, 499.755
530.356, 375.895
531.681, 381.692
533.006, 279.560
534.330, 423.114
535.654, 458.646
536.978, 212.115
538.302, 389.051
539.625, 454.297
540.949, 349.706
542.272, 465.206
543.595, 339.828
544.917, 505.144
546.240, 330.237
547.562, 294.182
548.884, 400.298
550.206, 315.190
551.527, 369.714
552.849, 434.331
554.170, 398.587
555.491, 393.471
556.812, 297.218
558.132, 343.078
559.453, 286.298
560.773, 370.017
562.093, 324.744
563.412, 265.060
564.732, 378.246
566.051, 262.564
567.370, 362.437
568.689, 226.533
570.008, 289.981
571.326, 314.550
572.644, 252.463
573.963, 311.191
575.280, 175.562
576.598, 401.956
577.915, 415.950
579.233, 349.339
580.550, 398.036
581.866, 332.109
583.183, 356.598
584.499, 440.728
585.815, 301.904
587.131, 355.951
588.447, 289.642
589.763, 382.864
591.078, 506.119
592.393, 378.920
593.708, 572.638
595.022, 465.808
596.337, 659.525
597.651, 523.529
598.965, 621.664
600.279, 805.580
601.593, 728.861
602.906, 850.894
604.219, 1104.499
605.532, 937.897
606.845, 1171.225
608.158, 1164.172
609.470, 1379.930
610.782, 1443.405
612.094, 1416.658
613.406, 1733.271
614.718, 1724.742
616.029, 1727.740
617.340, 2164.605
618.651, 1997.350
619.962, 2247.710
621.272, 2129.306
622.582, 2602.002
623.892, 2444.392
625.202, 2432.391
626.512, 2781.004
627.821, 2463.636
629.131, 2396.278
630.440, 2575.256
631.749, 2426.271
633.057, 2569.593
634.366, 2412.326
635.674, 2515.795
636.982, 2448.856
638.290, 2502.278
639.597, 2525.512
640.905, 2528.037
642.212, 2551.520
643.519, 2635.166
644.825, 2628.424
646.132, 2751.660
647.438, 2875.068
648.744, 3098.677
650.050, 3135.811
651.356, 3259.312
652.662, 3543.537
653.967, 3437.294
655.272, 4120.813
656.577, 4067.053
657.882, 4430.830
659.186, 5137.049
660.490, 5211.166
661.794, 5795.465
663.098, 6321.494
664.402, 7125.696
665.705, 7776.126
667.009, 8420.296
668.312, 9434.986
669.614, 10340.943
670.917, 11206.465
672.219, 11930.676
673.522, 12684.367
674.824, 12958.651
676.125, 12726.325
677.427, 12832.564
678.728, 12106.869
680.030, 12062.162
681.331, 10719.706
682.631, 9116.756
683.932, 7920.568
685.232, 7040.774
686.532, 5885.113
687.832, 5569.092
689.132, 4598.619
690.432, 3892.496
691.731, 3706.128
693.030, 3149.748
694.329, 2792.271
695.628, 2749.163
696.926, 2430.185
698.224, 2335.753
699.522, 2267.342
700.820, 2170.895
702.118, 2149.682
703.415, 2063.674
704.713, 2077.436
706.010, 1821.506
707.307, 2035.097
708.603, 1899.213
709.900, 1863.305
711.196, 2026.766
712.492, 1883.811
713.788, 1947.300
715.083, 1931.104
716.379, 1824.887
717.674, 1878.570
718.969, 1772.403
720.264, 1885.808
721.558, 1749.455
722.853, 1653.038
724.147, 1896.447
725.441, 1409.929
726.735, 1683.646
728.028, 1537.032
729.322, 1510.758
730.615, 1374.344
731.908, 1337.436
733.201, 1290.867
734.493, 1174.289
735.785, 1287.921
737.078, 1161.352
738.370, 1094.775
739.661, 1098.188
740.953, 1211.591
742.244, 924.998
743.535, 1098.396
744.826, 1011.787
746.117, 1015.173
747.407, 968.553
748.698, 921.931
749.988, 1095.300
751.278, 878.663
752.567, 1002.021
753.857, 1045.366
755.146, 948.730
756.435, 1012.086
757.724, 1045.437
759.013, 1058.785
760.301, 962.127
761.590, 1005.463
762.878, 1018.791
764.165, 1132.115
765.453, 1075.466
766.741, 1108.811
768.028, 1052.148
769.315, 1165.508
770.602, 968.869
771.888, 972.227
773.175, 1085.605
774.461, 838.980
775.747, 842.404
777.033, 785.828
778.319, 759.248
779.604, 822.669
780.889, 606.104
782.174, 639.554
783.459, 663.042
784.744, 456.526
786.028, 550.023
787.312, 493.525
788.596, 387.019
789.880, 370.508
791.164, 413.989
792.447, 497.463
793.730, 310.929
795.013, 344.389
796.296, 327.845
797.579, 151.292
798.861, 244.729
800.143, 198.159
801.425, 121.583
802.707, 214.996
803.989, 51.599
805.270, 121.764
806.551, 45.116
807.832, 108.454
809.113, 181.782
810.394, 34.899
811.674, 118.385
812.954, 28.343
814.234, 134.896
815.514, 88.123
816.794, 28.664
818.073, 104.516
819.352, 102.317
820.631, 90.777
821.910, 3.858
823.189, 23.079
824.467, 14.180
825.745, 82.953
827.023, 144.059
828.301, 58.833
829.578, 48.289
830.856, 25.456
832.133, 27.342
833.410, 169.868
834.687, 72.813
835.963, 94.519
837.240, 88.078
838.516, 89.335
839.792, 13.183
841.068, 95.689
842.343, 78.927
843.618, 86.503
844.894, 169.362
846.169, 174.094
847.443, 133.283
848.718, 37.729
849.992, 103.715
851.266, 176.401
852.540, 113.271
853.814, 188.738
855.088, 69.260
856.361, 52.685
857.634, 104.635
858.907, 26.574
860.180, 138.501
861.453, 10.425
862.725, 12.333
863.997, 174.239
865.269, 43.862
866.541, 147.994
867.812, 69.863
869.084, 71.730
870.355, 93.586
871.626, 54.604
872.897, 147.270
874.167, 99.098
875.438, 100.928
876.708, 262.746
877.978, 94.559
879.248, 76.361
880.517, 248.153
881.787, 69.938
883.056, 111.711
884.325, 303.477
885.594, 515.234
886.862, 346.982
888.130, 98.726
889.399, 360.456
890.667, 262.193
891.934, 163.937
893.202, 345.671
894.469, 397.398
895.737, 239.119
897.004, 470.828
898.270, 262.531
899.537, 454.225
900.803, 365.920
902.070, 247.606
903.336, 639.284
904.601, 250.954
905.867, 352.617
907.132, 314.271
908.398, 425.918
909.663, 507.556
910.928, 399.184
912.192, 420.804
913.457, 392.415
914.721, 474.019
915.985, 575.613
917.249, 437.199
918.512, 438.786
919.776, 460.363
921.039, 391.932
922.302, 613.493
923.565, 435.045
924.827, 666.588
926.090, 538.122
927.352, 529.646
928.614, 721.162
929.876, 692.667
931.138, 424.163
932.399, 565.650
933.660, 497.130
934.922, 528.601
936.182, 640.061
937.443, 551.510
938.704, 612.949
939.964, 784.378
941.224, 565.797
942.484, 807.204
943.744, 598.602
945.003, 809.990
946.262, 651.368
947.521, 662.735
948.780, 814.094
950.039, 715.367
951.298, 786.704
952.556, 798.033
953.814, 769.150
955.072, 870.458
956.330, 668.003
957.587, 1049.102
958.845, 819.869
960.102, 610.891
961.359, 842.158
962.615, 720.609
963.872, 881.639
965.128, 830.445
966.384, 801.522
967.640, 892.395
968.896, 861.099
970.152, 732.020
971.407, 986.049
972.662, 726.893
973.917, 1077.257
975.172, 906.183
976.427, 935.595
977.681, 1096.479
978.935, 857.759
980.189, 1148.570
981.443, 1056.090
982.697, 1164.765
983.950, 1046.942
985.203, 1066.521
986.456, 937.435
987.709, 1241.883
988.962, 1142.641
990.214, 1347.305
991.467, 1638.739
992.719, 1589.594
993.971, 1574.809
995.222, 1275.542
996.474, 1567.425
997.725, 1638.693
998.976, 1540.855
1000.227, 1629.072
1001.478, 1463.238
1002.728, 1612.409
1003.978, 1855.585
1005.229, 1846.993
1006.479, 2022.889
1007.728, 1907.949
1008.978, 2098.977
1010.227, 2269.938
1011.476, 2322.351
1012.725, 2423.120
1013.974, 2826.622
1015.223, 2858.022
1016.471, 3195.761
1017.719, 3492.061
1018.967, 3844.846
1020.215, 4405.975
1021.462, 4427.444
1022.710, 4738.498
1023.957, 5229.945
1025.204, 5023.367
1026.451, 5464.576
1027.697, 5326.135
1028.944, 5147.273
1030.190, 5108.307
1031.436, 4800.033
1032.682, 4630.912
1033.928, 4292.340
1035.173, 3793.766
1036.418, 4094.936
1037.663, 3486.653
1038.908, 3377.604
1040.153, 3181.890
1041.398, 2866.809
1042.642, 3097.971
1043.886, 2769.644
1045.130, 2571.062
1046.374, 2832.210
1047.617, 2473.537
1048.860, 2474.672
1050.104, 2358.335
1051.347, 2259.457
1052.589, 2245.141
1053.832, 2162.093
1055.074, 2143.653
1056.316, 2194.791
1057.558, 2076.303
1058.800, 2217.382
1060.042, 2078.512
1061.283, 1899.932
1062.524, 1950.988
1063.765, 1722.276
1065.006, 1773.562
1066.247, 1704.597
1067.487, 1537.981
1068.728, 1519.002
1069.968, 1440.275
1071.208, 1381.880
1072.447, 1352.877
1073.687, 1278.137
1074.926, 1265.254
1076.165, 1188.876
1077.404, 1113.884
1078.643, 1128.315
1079.881, 1039.482
1081.120, 931.022
1082.358, 1022.339
1083.596, 923.581
1084.834, 1034.612
1086.071, 955.682
1087.309, 796.582
1088.546, 977.521
1089.783, 558.403
1091.020, 659.464
1092.256, 590.327
1093.493, 611.717
1094.729, 582.603
1095.965, 523.439
1097.201, 604.864
1098.436, 495.684
1099.672, 466.493
1100.907, 587.830
1102.142, 548.620
1103.377, 349.785
1104.612, 493.568
1105.846, 314.349
1107.081, 245.191
1108.315, 335.956
1109.549, 146.711
1110.782, 307.634
1112.016, 368.384
1113.249, 199.192
1114.483, 329.935
1115.716, 110.668
1116.948, 151.818
1118.181, 172.544
1119.413, 103.261
1120.646, 154.114
1121.878, 94.968
1123.110, 185.780
1124.341, 149.238
1125.573, 50.065
1126.804, 150.771
1128.035, 43.404
1129.266, 14.354
1130.497, 175.358
1131.727, 43.505
1132.957, 97.621
1134.188, 28.878
1135.418, 39.797
1136.647, 91.261
1137.877, 62.480
1139.106, 26.231
1140.335, 65.556
1141.564, 156.708
1142.793, 97.632
1144.022, 19.309
1145.250, 41.898
1146.479, 9.004
1147.707, 5.686
1148.934, 3.190
1150.162, 108.897
1151.390, 100.138
1152.617, 51.198
1153.844, 182.889
1155.071, 76.244
1156.298, 85.260
1157.524, 29.728
1158.751, 24.052
1159.977, 84.897
1161.203, 44.545
1162.428, 86.318
1163.654, 112.411
1164.879, 76.678
1166.105, 25.475
1167.330, 75.029
1168.555, 15.513
1169.779, 76.734
1171.004, 76.248
1172.228, 31.817
1173.452, 90.456
1174.676, 61.377
1175.900, 101.831
1177.123, 115.919
1178.346, 26.226
1179.570, 146.997
1180.793, 57.875
1182.015, 98.120
1183.238, 279.345
1184.460, 31.119
1185.683, 221.297
1186.905, 34.819
1188.126, 44.614
1189.348, 265.763
1190.569, 46.596
1191.791, 106.624
1193.012, 277.064
1194.233, 127.124
1195.453, 227.082
1196.674, 22.655
1197.894, 207.238
1199.114, 247.111
1200.334, 77.378
1201.554, 67.207
1202.774, 167.009
1203.993, 77.088
1205.212, 336.846
1206.431, 166.582
1207.650, 96.474
1208.869, 406.164
1210.087, 126.128
1211.305, 125.773
1212.524, 275.398
1213.741, 14.824
1214.959, 224.734
1216.177, 124.273
1217.394, 44.267
1218.611, 503.754
1219.828, 223.219
1221.045, 92.662
1222.261, 352.080
1223.478, 161.959
1224.694, 181.332
1225.910, 140.690
1227.126, 50.764
1228.342, 103.259
1229.557, 119.543
1230.772, 169.140
1231.987, 158.384
1233.202, 217.612
1234.417, 186.825
1235.631, 266.021
1236.846, 155.230
1238.060, 244.392
1239.274, 73.535
1240.488, 192.646
1241.701, 221.741
1242.915, 61.094
1244.128, 360.154
1245.341, 359.196
1246.554, 78.222
1247.767, 297.229
1248.979, 116.219
1250.191, 14.825
1251.403, 364.101
1252.615, 192.999
1253.827, 221.876
1255.039, 220.731
1256.250, 169.772
1257.461, 388.583
1258.672, 197.367
1259.883, 236.120
1261.094, 364.816
1262.304, 113.459
1263.514, 312.277
1264.724, 320.808
1265.934, 189.312
1267.144, 187.772
1268.354, 196.133
1269.563, 5.562
1270.772, 192.859
1271.981, 231.006
1273.190, 9.220
1274.398, 167.258
1275.607, 155.142
1276.815, 123.375
1278.023, 119.786
1279.231, 97.479
1280.439, 175.606
1281.646, 63.385
1282.853, 118.269
1284.060, 106.072
1285.267, 42.931
1286.474, 130.833
1287.681, 188.630
1288.887, 6.400
1290.093, 113.629
1291.299, 58.859
1292.505, 51.564
1293.711, 135.644
1294.916, 137.273
1296.121, 120.210
1297.327, 167.627
1298.531, 54.807
1299.736, 212.384
1300.941, 65.375
1302.145, 17.413
1303.349, 159.504
1304.553, 164.590
1305.757, 122.392
1306.961, 166.622
1308.164, 46.458
1309.367, 150.496
1310.570, 72.559
1311.773, 327.620
1312.976, 484.314
1314.178, 60.727
1315.381, 117.357
1316.583, 183.949
1317.785, 8.332
1318.987, 84.902
1320.188, 191.316
1321.390, 22.129
1322.591, 254.426
1323.792, 100.577
1324.993, 77.202
1326.193, 283.424
1327.394, 39.787
1328.594, 16.284
1329.794, 242.203
1330.994, 21.357
1332.194, 191.923
1333.394, 134.541
1334.593, 50.884
1335.792, 206.707
1336.991, 102.729
1338.190, 188.989
1339.389, 346.998
1340.587, 133.209
1341.786, 316.861
1342.984, 263.021
1344.182, 109.157
1345.379, 284.855
1346.577, 240.485
1347.774, 136.506
1348.972, 222.123
1350.169, 258.143
1351.365, 164.086
1352.562, 509.906
1353.759, 135.872
1354.955, 361.584
1356.151, 347.505
1357.347, 163.350
1358.543, 306.819
1359.738, 312.694
1360.934, 88.229
1362.129, 603.408
1363.324, 269.161
1364.519, 204.897
1365.713, 260.197
1366.908, 85.994
1368.102, 361.555
1369.296, 388.477
1370.490, 53.932
1371.684, 218.578
1372.877, 153.038
1374.071, 120.081
1375.264, 337.355
1376.457, 274.711
1377.650, 291.886
1378.843, 418.619
1380.035, 195.284
1381.227, 452.536
1382.419, 269.181
1383.611, 302.690
1384.803, 449.724
1385.995, 136.797
1387.186, 243.636
1388.377, 390.560
1389.568, 217.037
1390.759, 323.959
1391.950, 480.566
1393.140, 254.120
1394.331, 520.780
1395.521, 385.016
1396.711, 340.896
1397.900, 436.441
1399.090, 151.967
1400.279, 297.295
1401.469, 511.994
1402.658, 205.306
1403.847, 462.904
1405.035, 310.984
1406.224, 111.728
1407.412, 436.142
1408.600, 200.949
1409.788, 341.424
1410.976, 278.964
1412.164, 246.680
1413.351, 110.856
1414.538, 226.404
1415.725, 220.229
1416.912, 242.765
1418.099, 407.224
1419.285, 107.032
1420.472, 470.672
1421.658, 264.389
1422.844, 147.161
1424.030, 346.352
1425.215, 100.298
1426.401, 194.017
1427.586, 408.877
1428.771, 93.311
1429.956, 267.562
1431.141, 342.468
1432.325, 56.833
1433.510, 381.358
1434.694, 155.634
1435.878, 160.383
1437.062, 424.798
1438.245, 138.621
1439.429, 133.289
1440.612, 277.921
1441.795, 81.580
1442.978, 284.639
1444.161, 398.721
1445.343, 192.428
1446.526, 366.707
1447.708, 200.824
1448.890, 194.900
1450.072, 508.938
1451.253, 292.242
1452.435, 76.037
1453.616, 449.709
1454.797, 217.004
1455.978, 385.539
1457.159, 456.059
1458.340, 233.174
1459.520, 466.588
1460.700, 249.635
1461.880, 193.477
1463.060, 527.570
1464.240, 251.578
1465.420, 245.986
1466.599, 420.445
1467.778, 214.617
1468.957, 379.246
1470.136, 531.846
1471.315, 246.082
1472.493, 299.783
1473.671, 332.924
1474.849, 187.035
1476.027, 561.107
1477.205, 75.166
1478.383, 148.523
1479.560, 412.555
1480.737, 33.418
1481.914, 320.592
1483.091, 414.600
1484.268, 217.887
1485.444, 431.900
1486.621, 375.973
1487.797, 150.098
1488.973, 344.244
1490.149, 238.373
1491.324, 212.453
1492.500, 437.066
1493.675, 32.342
1494.850, 167.799
1496.025, 393.227
1497.200, 29.035
1498.374, 297.713
1499.548, 322.646
1500.723, 57.707
1501.897, 452.869
1503.071, 188.156
1504.244, 130.783
1505.418, 265.568
1506.591, 87.078
1507.764, 62.178
1508.937, 408.615
1510.110, 3.965
1511.282, 281.031
1512.455, 168.062
1513.627, 0.000
##END=



