##NAMES=Fluor-buergerite
##RRUFFID=R060132
##IDEAL CHEMISTRY=NaFe^3+^_3_Al_6_(Si_6_O_18_)(BO_3_)_3_O_3_F
##LOCALITY=20 km. south of San Luis Potasi, Mexico
##OWNER=RRUFF
##SOURCE=University of Arizona Mineral Museum
##DESCRIPTION=Brown short prismatic
##STATUS=The identification of this mineral has been confirmed by X-ray diffraction and chemical analysis
##URL=rruff.info/R060132
##MEASURED CHEMISTRY=(Na_0.87_Ca_0.03_[box]_0.10_)(Fe^3+^_0.82_Al_0.12_Mg_0.04_Ti_0.02_)_3_Al_6_(BO_3_)_3_(Si_0.98_Al_0.02_)_6_O_18_(O_0.66_F_0.19_(OH)_0.15_)_4_
##PIN_ID=L01714
##ORIENTATION=Laser parallel to a* (1 0 0). Fiducial mark perpendicular to laser is parallel to -c [0 0 -1]
120.5960, 0.0000000E+00
121.8270, 156.5122
123.0580, 257.1714
124.2880, 345.0703
125.5190, 83.96338
126.7490, 22.35840
127.9790, 71.37158
129.2090, 235.7905
130.4390, 251.8979
131.6680, 165.7798
132.8980, 133.2471
134.1270, 115.3589
135.3560, 184.4048
136.5850, 196.1348
137.8140, 407.6509
139.0430, 557.4141
140.2710, 564.1040
141.5000, 396.5332
142.7280, 408.6221
143.9560, 490.0186
145.1840, 672.5562
146.4120, 736.2896
147.6390, 856.0371
148.8670, 800.1143
150.0940, 908.6543
151.3210, 1127.934
152.5490, 1216.270
153.7750, 971.9233
155.0020, 931.1187
156.2290, 692.0435
157.4550, 661.8623
158.6810, 540.7139
159.9080, 485.7173
161.1340, 645.9771
162.3590, 748.5845
163.5850, 862.6196
164.8110, 996.6387
166.0360, 1102.279
167.2610, 1400.359
168.4860, 1271.528
169.7110, 1442.538
170.9360, 1800.900
172.1610, 1879.063
173.3850, 1910.099
174.6100, 1962.331
175.8340, 1990.993
177.0580, 2002.914
178.2820, 2039.861
179.5050, 2054.150
180.7290, 2008.818
181.9520, 1931.872
183.1760, 1996.289
184.3990, 1855.037
185.6220, 1889.087
186.8450, 1839.430
188.0670, 1780.059
189.2900, 1788.556
190.5120, 1653.156
191.7340, 1743.616
192.9560, 1724.343
194.1780, 1672.333
195.4000, 1715.570
196.6220, 1667.034
197.8430, 1636.686
199.0640, 1564.562
200.2860, 1648.660
201.5070, 1900.977
202.7270, 1914.505
203.9480, 1475.243
205.1690, 948.1816
206.3890, 497.3198
207.6090, 302.6494
208.8290, 173.1631
210.0490, 163.8555
211.2690, 15.71973
212.4890, 81.24707
213.7080, 52.95166
214.9280, 8.312988
216.1470, 32.16309
217.3660, 190.4824
218.5850, 0.3471680
219.8030, 198.6890
221.0220, 133.6055
222.2400, 214.4121
223.4590, 87.10742
224.6770, 296.6870
225.8950, 125.1489
227.1120, 192.4907
228.3300, 239.7080
229.5480, 132.7998
230.7650, 112.7627
231.9820, 51.40625
233.1990, 26.79443
234.4160, 183.6255
235.6330, 138.0610
236.8490, 165.2222
238.0660, 381.1738
239.2820, 485.7998
240.4980, 605.7676
241.7140, 743.0830
242.9300, 815.4473
244.1460, 1095.675
245.3610, 1126.746
246.5770, 1366.637
247.7920, 1489.381
249.0070, 1737.027
250.2220, 2090.744
251.4370, 2367.580
252.6510, 2781.542
253.8660, 2946.630
255.0800, 3203.848
256.2940, 3360.191
257.5080, 3581.667
258.7220, 3726.272
259.9360, 3673.951
261.1490, 3906.881
262.3630, 3496.887
263.5760, 3316.027
264.7890, 3242.305
266.0020, 3437.719
267.2150, 3442.074
268.4270, 3475.430
269.6400, 3511.703
270.8520, 3517.695
272.0640, 3465.867
273.2760, 3667.847
274.4880, 3499.318
275.7000, 3560.913
276.9120, 3367.621
278.1230, 3089.433
279.3340, 2988.342
280.5450, 2876.338
281.7560, 2613.406
282.9670, 2535.541
284.1780, 2540.739
285.3880, 2340.000
286.5980, 2372.325
287.8090, 2205.716
289.0190, 2134.174
290.2290, 2061.695
291.4380, 1943.264
292.6480, 1940.857
293.8570, 1850.456
295.0670, 1724.053
296.2760, 1864.660
297.4850, 1769.289
298.6930, 1727.949
299.9020, 1888.648
301.1110, 1759.395
302.3190, 1786.194
303.5270, 1944.053
304.7350, 1805.976
305.9430, 1906.967
307.1510, 1924.030
308.3580, 1760.171
309.5660, 1963.392
310.7730, 1986.690
311.9800, 2217.014
313.1870, 2134.270
314.3940, 2487.487
315.6010, 2451.567
316.8070, 2619.437
318.0130, 2768.141
319.2200, 2976.619
320.4260, 3172.896
321.6310, 3295.195
322.8370, 3480.442
324.0430, 3543.922
325.2480, 3530.543
326.4540, 3631.308
327.6590, 3553.210
328.8640, 3601.252
330.0680, 3585.434
331.2730, 3286.752
332.4780, 3142.209
333.6820, 3046.803
334.8860, 3127.531
336.0900, 2919.397
337.2940, 2954.398
338.4980, 2960.533
339.7010, 2965.803
340.9050, 3022.207
342.1080, 3070.744
343.3110, 3253.392
344.5140, 3401.979
345.7170, 3592.846
346.9200, 3560.650
348.1220, 3754.339
349.3240, 3985.688
350.5270, 3975.912
351.7290, 4148.828
352.9310, 4193.148
354.1320, 4038.499
355.3340, 4096.816
356.5350, 3820.299
357.7370, 3872.666
358.9380, 3508.820
360.1390, 3415.354
361.3400, 3352.271
362.5400, 3131.250
363.7410, 3163.525
364.9410, 2838.057
366.1410, 2719.629
367.3410, 2546.928
368.5410, 2330.608
369.7410, 2225.776
370.9400, 2111.968
372.1400, 2084.787
373.3390, 1850.321
374.5380, 1794.965
375.7370, 1667.987
376.9360, 1723.877
378.1350, 1596.504
379.3330, 1501.877
380.5310, 1698.370
381.7300, 1816.979
382.9280, 1792.704
384.1260, 2079.541
385.3230, 2086.487
386.5210, 2437.545
387.7180, 2407.714
388.9160, 2681.994
390.1130, 2932.389
391.3100, 3133.898
392.5060, 3401.523
393.7030, 3640.267
394.9000, 3953.129
396.0960, 4044.107
397.2920, 4203.205
398.4880, 4258.422
399.6840, 4280.760
400.8800, 4249.215
402.0750, 4097.790
403.2710, 3925.486
404.4660, 3973.303
405.6610, 3939.238
406.8560, 3606.297
408.0510, 3338.477
409.2450, 3200.778
410.4400, 2899.204
411.6340, 2514.752
412.8280, 2289.428
414.0220, 2079.229
415.2160, 1860.160
416.4100, 1760.222
417.6030, 1331.422
418.7970, 1330.752
419.9900, 1258.214
421.1830, 1085.807
422.3760, 1171.531
423.5690, 1024.389
424.7610, 1109.379
425.9540, 1155.503
427.1460, 1338.762
428.3380, 1430.155
429.5300, 1384.685
430.7220, 1471.351
431.9140, 1727.154
433.1050, 1933.096
434.2970, 2109.176
435.4880, 2309.784
436.6790, 2445.754
437.8700, 2655.253
439.0610, 2910.895
440.2510, 3092.678
441.4420, 3422.604
442.6320, 3521.674
443.8220, 3682.889
445.0120, 3750.247
446.2020, 3726.752
447.3910, 3678.403
448.5810, 3653.199
449.7700, 3611.145
450.9600, 3533.235
452.1490, 3407.155
453.3370, 3244.863
454.5260, 3079.399
455.7150, 2926.086
456.9030, 2726.921
458.0910, 2620.139
459.2800, 2470.279
460.4670, 2402.341
461.6550, 2234.791
462.8430, 2142.396
464.0300, 2057.162
465.2180, 1964.087
466.4050, 1839.170
467.5920, 1770.416
468.7790, 1815.819
469.9650, 1692.383
471.1520, 1672.106
472.3380, 1605.259
473.5250, 1558.032
474.7110, 1451.234
475.8970, 1328.905
477.0820, 1161.117
478.2680, 1017.799
479.4540, 824.2891
480.6390, 629.6387
481.8240, 433.7979
483.0090, 278.1172
484.1940, 57.59570
485.3780, 69.76855
486.5630, 144.0098
487.7470, 354.1523
488.9320, 372.2754
490.1160, 476.3047
491.3000, 588.5225
492.4830, 524.7354
493.6670, 795.9951
494.8500, 663.4170
496.0340, 645.9434
497.2170, 684.5664
498.4000, 477.2998
499.5820, 411.0410
500.7650, 363.7402
501.9480, 428.4092
503.1300, 306.0625
504.3120, 228.6475
505.4940, 188.9053
506.6760, 315.6348
507.8580, 616.5850
509.0390, 742.7422
510.2210, 1082.123
511.4020, 1314.698
512.5830, 1762.516
513.7640, 2266.535
514.9450, 2419.738
516.1250, 2757.229
517.3060, 2894.889
518.4860, 2959.744
519.6660, 3309.760
520.8460, 3249.939
522.0260, 3413.276
523.2060, 3434.771
524.3850, 3472.436
525.5650, 3367.258
526.7440, 3332.239
527.9230, 3045.377
529.1020, 2908.673
530.2810, 3126.127
531.4590, 2870.740
532.6380, 3001.509
533.8160, 2885.436
534.9940, 2994.521
536.1720, 2847.769
537.3500, 2861.183
538.5270, 2888.760
539.7050, 2909.521
540.8820, 3035.483
542.0590, 3109.635
543.2360, 3196.998
544.4130, 3238.551
545.5900, 3156.311
546.7660, 3214.292
547.9430, 3342.498
549.1190, 3344.936
550.2950, 3441.590
551.4710, 3502.499
552.6470, 3484.635
553.8220, 3669.026
554.9980, 3513.674
556.1730, 3700.556
557.3480, 3718.674
558.5230, 3848.017
559.6980, 3968.608
560.8730, 3981.433
562.0470, 4116.490
563.2220, 4324.795
564.3960, 4404.327
565.5700, 4606.078
566.7440, 4897.029
567.9170, 5084.193
569.0910, 5269.594
570.2640, 5501.199
571.4380, 5804.020
572.6110, 6084.052
573.7840, 6476.285
574.9570, 6647.718
576.1290, 6963.331
577.3020, 7186.116
578.4740, 7571.095
579.6460, 7900.242
580.8180, 8284.557
581.9900, 8535.357
583.1620, 9129.754
584.3330, 9325.604
585.5040, 9654.633
586.6760, 10709.83
587.8470, 10952.20
589.0180, 11361.75
590.1880, 11764.49
591.3590, 12294.40
592.5290, 13047.46
593.7000, 13882.67
594.8700, 14554.34
596.0400, 15228.57
597.2090, 16062.25
598.3790, 16809.08
599.5490, 17509.05
600.7180, 18339.18
601.8870, 19090.45
603.0560, 19789.86
604.2250, 20305.42
605.3940, 20924.12
606.5620, 21356.96
607.7300, 22089.94
608.8990, 22333.06
610.0670, 22855.31
611.2350, 23010.70
612.4020, 23244.22
613.5700, 23777.88
614.7370, 24009.66
615.9050, 24376.57
617.0720, 24763.61
618.2390, 25379.78
619.4060, 25973.07
620.5720, 26608.47
621.7390, 27589.00
622.9050, 28256.64
624.0710, 29357.42
625.2370, 30721.30
626.4030, 31896.32
627.5690, 33218.65
628.7340, 35082.95
629.9000, 36756.55
631.0650, 38945.53
632.2300, 40213.08
633.3950, 41653.00
634.5600, 42889.47
635.7240, 42801.78
636.8890, 42673.15
638.0530, 42075.78
639.2170, 40268.88
640.3810, 38961.23
641.5450, 37145.93
642.7080, 35628.87
643.8720, 34422.64
645.0350, 32432.86
646.1980, 30558.86
647.3610, 29054.97
648.5240, 27719.21
649.6870, 26423.56
650.8490, 25303.02
652.0120, 24112.60
653.1740, 23099.29
654.3360, 22394.09
655.4980, 21195.00
656.6600, 20792.03
657.8210, 19650.58
658.9830, 19197.38
660.1440, 17614.72
661.3050, 16556.16
662.4660, 15474.70
663.6270, 14692.80
664.7870, 13822.55
665.9480, 12856.40
667.1080, 12090.34
668.2680, 11123.38
669.4280, 10569.52
670.5880, 9668.752
671.7480, 8837.082
672.9070, 8278.503
674.0670, 7284.168
675.2260, 6729.041
676.3850, 5724.166
677.5440, 5097.873
678.7030, 4474.994
679.8610, 3656.277
681.0200, 3354.701
682.1780, 2885.804
683.3360, 2327.609
684.4940, 2118.041
685.6520, 1876.723
686.8090, 1969.027
687.9670, 1783.158
689.1240, 1909.096
690.2810, 1992.214
691.4380, 1736.958
692.5950, 1875.769
693.7520, 2055.811
694.9080, 1980.325
696.0650, 2129.534
697.2210, 2257.736
698.3770, 2218.614
699.5330, 2463.747
700.6880, 2473.738
701.8440, 2667.223
702.9990, 2631.998
704.1550, 2621.328
705.3100, 2621.213
706.4650, 2591.946
707.6190, 2507.539
708.7740, 2470.828
709.9290, 2361.731
711.0830, 2247.124
712.2370, 2238.945
713.3910, 2209.510
714.5450, 2003.396
715.6980, 1831.686
716.8520, 1837.007
718.0050, 1716.544
719.1580, 1644.677
720.3110, 1484.011
721.4640, 1408.367
722.6170, 1352.156
723.7700, 1364.942
724.9220, 1435.507
726.0740, 1461.812
727.2260, 1414.903
728.3780, 1611.288
729.5300, 1780.445
730.6810, 1882.168
731.8330, 1858.775
732.9840, 1866.605
734.1350, 1996.199
735.2860, 2066.328
736.4370, 2069.312
737.5880, 1977.134
738.7380, 1955.946
739.8880, 1912.784
741.0390, 1850.946
742.1890, 1860.473
743.3380, 1867.610
744.4880, 1915.680
745.6380, 1936.857
746.7870, 1900.953
747.9360, 2042.729
749.0850, 2083.762
750.2340, 2113.164
751.3830, 2236.871
752.5310, 2181.094
753.6800, 2212.165
754.8280, 2169.792
755.9760, 2176.391
757.1240, 2151.502
758.2720, 2117.015
759.4190, 1693.787
760.5670, 1867.354
761.7140, 1613.032
762.8610, 1520.574
764.0080, 1538.832
765.1550, 1397.077
766.3020, 1385.314
767.4480, 1246.584
768.5950, 1313.892
769.7410, 1327.254
770.8870, 1413.694
772.0330, 1357.198
773.1780, 1285.820
774.3240, 1357.533
775.4690, 1266.330
776.6140, 1182.220
777.7590, 1234.155
778.9040, 1181.124
780.0490, 1045.113
781.1940, 952.1367
782.3380, 962.1670
783.4820, 742.1909
784.6260, 731.1626
785.7700, 611.0815
786.9140, 562.9478
788.0580, 397.7588
789.2010, 354.5142
790.3450, 272.2129
791.4880, 216.8540
792.6310, 128.4360
793.7730, 244.9585
794.9160, 94.41992
796.0590, 138.8203
797.2010, 200.1582
798.3430, 144.4316
799.4850, 140.6401
800.6270, 33.21729
801.7690, 123.8364
802.9100, 198.8223
804.0520, 69.73926
805.1930, 237.5859
806.3340, 173.3623
807.4750, 339.0674
808.6160, 94.69922
809.7560, 119.2568
810.8970, 72.74023
812.0370, 68.14453
813.1770, 11.46826
814.3170, 41.69287
815.4570, 45.17236
816.5960, 106.1714
817.7360, 55.33984
818.8750, 140.6533
820.0140, 51.15918
821.1530, 119.8145
822.2920, 166.6567
823.4310, 171.7134
824.5690, 211.9902
825.7070, 140.5107
826.8460, 282.2407
827.9840, 176.2559
829.1220, 284.5034
830.2590, 284.0430
831.3970, 191.8765
832.5340, 214.9575
833.6710, 147.3008
834.8080, 265.8726
835.9450, 170.7373
837.0820, 196.8481
838.2190, 233.2192
839.3550, 170.8716
840.4910, 128.7764
841.6270, 54.91113
842.7630, 113.2388
843.8990, 187.7930
845.0350, 84.61426
846.1700, 107.6494
847.3060, 96.91309
848.4410, 69.40039
849.5760, 46.94434
850.7100, 14.00195
851.8450, 50.93311
852.9800, 20.28955
854.1140, 51.29736
855.2480, 101.7271
856.3820, 45.98535
857.5160, 40.09375
858.6500, 89.00781
859.7830, 35.77295
860.9170, 43.36865
862.0500, 81.79688
863.1830, 14.92969
864.3160, 33.85400
865.4480, 136.0112
866.5810, 215.7310
867.7130, 169.3184
868.8460, 117.7661
869.9780, 130.0615
871.1100, 206.2070
872.2410, 218.2158
873.3730, 231.0898
874.5050, 234.8281
875.6360, 245.7324
876.7670, 272.9014
877.8980, 260.2397
879.0290, 293.4453
880.1590, 301.5210
881.2900, 295.4668
882.4200, 392.2881
883.5500, 331.9873
884.6800, 313.5586
885.8100, 285.9990
886.9400, 446.3267
888.0690, 505.5337
889.1990, 511.6260
890.3280, 472.6050
891.4570, 463.4648
892.5860, 522.2183
893.7140, 659.8569
894.8430, 595.3989
895.9710, 641.8276
897.1000, 612.1562
898.2280, 641.4390
899.3560, 720.5308
900.4830, 709.5752
901.6110, 814.5190
902.7380, 846.3545
903.8660, 811.1021
904.9930, 989.7539
906.1200, 887.3081
907.2460, 1001.770
908.3730, 892.1191
909.5000, 1033.361
910.6260, 1014.493
911.7520, 1051.515
912.8780, 1127.428
914.0040, 1105.232
915.1290, 1239.929
916.2550, 1242.513
917.3800, 1286.985
918.5050, 1442.348
919.6300, 1293.599
920.7550, 1415.742
921.8800, 1408.775
923.0040, 1437.696
924.1290, 1492.501
925.2530, 1541.423
926.3770, 1594.211
927.5010, 1687.271
928.6250, 1720.648
929.7480, 1789.924
930.8720, 1872.084
931.9950, 1856.129
933.1180, 1843.058
934.2410, 1914.873
935.3640, 2054.572
936.4860, 2035.699
937.6090, 2199.169
938.7310, 2163.525
939.8530, 2293.768
940.9750, 2283.896
942.0970, 2439.910
943.2180, 2501.812
944.3400, 2535.600
945.4610, 2627.276
946.5820, 2646.032
947.7030, 2644.869
948.8240, 2728.773
949.9450, 2776.077
951.0650, 2870.940
952.1860, 2841.618
953.3060, 3071.130
954.4260, 3092.937
955.5460, 3032.014
956.6650, 3164.437
957.7850, 3129.580
958.9040, 3153.072
960.0230, 3242.707
961.1420, 3257.506
962.2610, 3214.091
963.3800, 3246.018
964.4990, 3231.846
965.6170, 3231.407
966.7350, 3407.462
967.8530, 3344.786
968.9710, 3469.081
970.0890, 3596.663
971.2070, 3451.952
972.3240, 3445.345
973.4410, 3395.205
974.5580, 3439.734
975.6750, 3332.668
976.7920, 3402.004
977.9090, 3437.452
979.0250, 3339.997
980.1410, 3336.801
981.2580, 3442.946
982.3740, 3303.558
983.4890, 3398.695
984.6050, 3454.042
985.7200, 3523.020
986.8360, 3415.548
987.9510, 3338.993
989.0660, 3368.176
990.1810, 3476.712
991.2950, 3452.996
992.4100, 3354.207
993.5240, 3548.934
994.6390, 3345.608
995.7530, 3541.454
996.8660, 3565.504
997.9800, 3434.714
999.0940, 3578.575
1000.207, 3502.606
1001.320, 3576.018
1002.433, 3738.485
1003.546, 3509.673
1004.659, 3458.040
1005.772, 3635.812
1006.884, 3661.669
1007.996, 3591.627
1009.108, 3595.535
1010.220, 3524.517
1011.332, 3631.791
1012.444, 3592.797
1013.555, 3610.131
1014.666, 3653.468
1015.777, 3584.152
1016.888, 3645.913
1017.999, 3453.349
1019.110, 3402.462
1020.220, 3285.464
1021.331, 3292.770
1022.441, 3300.490
1023.551, 3233.646
1024.661, 3051.937
1025.770, 2991.793
1026.880, 2970.456
1027.989, 2929.491
1029.098, 2823.243
1030.207, 2708.604
1031.316, 2837.948
1032.425, 2696.700
1033.533, 2671.380
1034.642, 2772.170
1035.750, 2638.438
1036.858, 2565.243
1037.966, 2683.422
1039.073, 2591.010
1040.181, 2758.010
1041.288, 2648.708
1042.396, 2644.592
1043.503, 2674.758
1044.610, 2778.991
1045.716, 2891.776
1046.823, 2844.559
1047.929, 3036.568
1049.036, 3009.749
1050.142, 3201.000
1051.248, 3325.430
1052.353, 3300.077
1053.459, 3312.941
1054.564, 3498.343
1055.670, 3532.468
1056.775, 3532.682
1057.880, 3546.047
1058.985, 3418.688
1060.089, 3444.068
1061.194, 3327.851
1062.298, 3282.076
1063.402, 3133.112
1064.506, 2984.121
1065.610, 2816.102
1066.713, 2748.057
1067.817, 2634.986
1068.920, 2465.890
1070.023, 2381.780
1071.126, 2231.647
1072.229, 2238.490
1073.332, 2111.880
1074.435, 1924.108
1075.537, 1911.885
1076.639, 1785.764
1077.741, 1800.375
1078.843, 1684.090
1079.945, 1662.788
1081.046, 1714.471
1082.148, 1618.146
1083.249, 1469.810
1084.350, 1476.484
1085.451, 1488.189
1086.551, 1438.910
1087.652, 1407.671
1088.752, 1318.452
1089.853, 1311.271
1090.953, 1196.143
1092.053, 1248.070
1093.152, 1295.064
1094.252, 1164.107
1095.351, 1235.240
1096.451, 1188.435
1097.550, 1256.721
1098.649, 1141.101
1099.748, 1174.551
1100.846, 1209.078
1101.945, 1282.667
1103.043, 1251.349
1104.141, 1291.100
1105.239, 1360.928
1106.337, 1283.845
1107.434, 1317.834
1108.532, 1393.887
1109.629, 1412.983
1110.726, 1317.141
1111.823, 1342.380
1112.920, 1211.675
1114.017, 1355.031
1115.113, 1254.448
1116.210, 1231.919
1117.306, 1179.439
1118.402, 1166.993
1119.498, 962.5732
1120.593, 923.1978
1121.689, 869.8506
1122.784, 902.5234
1123.879, 806.2505
1124.974, 706.0098
1126.069, 640.7939
1127.164, 559.6123
1128.259, 598.4653
1129.353, 548.3462
1130.447, 548.2773
1131.541, 416.2642
1132.635, 318.2749
1133.729, 324.3022
1134.822, 277.3516
1135.916, 339.4287
1137.009, 147.5317
1138.102, 173.6558
1139.195, 225.7993
1140.288, 151.9629
1141.380, 175.1460
1142.473, 153.3491
1143.565, 114.5703
1144.657, 67.25928
1145.749, 65.15332
1146.841, 29.65234
1147.932, 25.63184
1149.024, 87.93066
1150.115, 16.24707
1151.206, 90.41699
1152.297, 23.89941
1153.388, 18.22998
1154.479, 13.42627
1155.569, 60.92285
1156.659, 62.71289
1157.750, 1.359863
1158.839, 66.99561
1159.929, 8.352051
1161.019, 57.52637
1162.108, 40.56738
1163.198, 164.5977
1164.287, 19.32031
1165.376, 45.03955
1166.465, 9.766113
1167.553, 100.4854
1168.642, 74.23730
1169.730, 64.00830
1170.818, 89.79346
1171.906, 21.39502
1172.994, 31.40381
1174.082, 14.20215
1175.170, 16.99316
1176.257, 31.81641
1177.344, 32.56250
1178.431, 38.34521
1179.518, 19.12646
1180.605, 21.90137
1181.691, 27.36426
1182.778, 33.33105
1183.864, 39.19971
1184.950, 28.96387
1186.036, 22.71387
1187.122, 53.54199
1188.207, 62.18652
1189.292, 52.08545
1190.378, 73.62744
1191.463, 42.35254
1192.548, 72.07227
1193.632, 25.19385
1194.717, 74.49219
1195.801, 47.81934
1196.886, 47.17334
1197.970, 39.54492
1199.054, 26.93457
1200.137, 88.34277
1201.221, 86.77002
1202.305, 76.21533
1203.388, 114.6797
1204.471, 89.66357
1205.554, 191.6685
1206.637, 63.20361
1207.719, 174.7637
1208.802, 165.3696
1209.884, 211.0034
1210.966, 219.6782
1212.048, 214.3735
1213.130, 209.1040
1214.212, 255.3911
1215.293, 324.6826
1216.374, 326.5181
1217.456, 449.3843
1218.536, 437.2700
1219.617, 458.1870
1220.698, 456.1230
1221.778, 555.0786
1222.859, 594.0522
1223.939, 705.0449
1225.019, 733.0728
1226.099, 822.1182
1227.178, 829.1836
1228.258, 988.2676
1229.337, 953.3687
1230.417, 1170.487
1231.496, 1040.622
1232.574, 1234.772
1233.653, 1410.939
1234.732, 1514.122
1235.810, 1618.321
1236.888, 1753.536
1237.966, 1793.765
1239.044, 1954.010
1240.122, 2001.270
1241.199, 2080.545
1242.277, 2130.835
1243.354, 2147.140
1244.431, 2317.459
1245.508, 2204.793
1246.585, 2340.139
1247.661, 2475.500
1248.738, 2506.873
1249.814, 2474.260
1250.890, 2587.658
1251.966, 2550.070
1253.042, 2743.494
1254.117, 2702.931
1255.193, 2817.380
1256.268, 2840.841
1257.343, 2964.313
1258.418, 3039.798
1259.493, 3081.294
1260.567, 3041.802
1261.642, 3045.321
1262.716, 3128.851
1263.790, 3206.391
1264.864, 3134.941
1265.938, 3123.501
1267.011, 3180.073
1268.085, 3140.241
1269.158, 3052.242
1270.231, 3127.840
1271.304, 3009.446
1272.377, 2959.060
1273.450, 2933.683
1274.522, 3135.315
1275.594, 3154.956
1276.666, 3164.509
1277.738, 3127.169
1278.810, 3466.836
1279.882, 3283.511
1280.953, 3429.865
1282.025, 3644.555
1283.096, 3566.251
1284.167, 3744.493
1285.238, 3739.203
1286.308, 3808.204
1287.379, 3833.821
1288.449, 3779.617
1289.519, 3722.373
1290.589, 3698.661
