##NAMES=Fluorapatite
##RRUFFID=R050340
##IDEAL CHEMISTRY=Ca_5_(PO_4_)_3_F
##LOCALITY=Buckingham, Quebec, Canada
##OWNER=RRUFF
##SOURCE=California Institute of Technology
##DESCRIPTION=Blue fragment
##STATUS=The identification of this mineral has been confirmed by X-ray diffraction and chemical analysis
##URL=rruff.info/R050340
##MEASURED CHEMISTRY=Ca_5.00_((P_0.98_Si_0.02_)O_4_)_3_F_1.00_
##PIN_ID=L00787
##ORIENTATION=Laser parallel to c* (0 0 1). Fiducial mark perpendicular to laser is parallel to a [1 0 0]
108.2800, 0.0000000E+00
109.5120, 172.7861
110.7440, 111.1564
111.9760, 21.93616
113.2080, 2.551880
114.4400, 50.78540
115.6710, 87.89014
116.9030, 79.47302
118.1340, 133.6249
119.3650, 173.3333
120.5960, 74.52112
121.8270, 43.12476
123.0580, 39.09070
124.2880, 60.37512
125.5190, 8.055908
126.7490, 32.77271
127.9790, 93.83899
129.2090, 70.12073
130.4390, 183.5972
131.6680, 217.2490
132.8980, 203.0594
134.1270, 377.0131
135.3560, 434.0966
136.5850, 540.2981
137.8140, 733.6068
139.0430, 917.0164
140.2710, 1153.528
141.5000, 1336.139
142.7280, 1395.851
143.9560, 1303.668
145.1840, 1038.581
146.4120, 737.5795
147.6390, 587.6533
148.8670, 494.7932
150.0940, 403.9922
151.3210, 360.2437
152.5490, 334.5428
153.7750, 407.8850
155.0020, 451.2661
156.2290, 467.6831
157.4550, 460.1328
158.6810, 537.6123
159.9080, 731.1190
161.1340, 748.6506
162.3590, 803.2056
163.5850, 704.7819
164.8110, 653.3774
166.0360, 615.9907
167.2610, 551.6255
168.4860, 528.2994
169.7110, 551.0438
170.9360, 539.8970
172.1610, 485.7673
173.3850, 478.7114
174.6100, 434.7354
175.8340, 413.8186
177.0580, 324.0159
178.2820, 256.3147
179.5050, 221.6350
180.7290, 158.9552
181.9520, 144.2693
183.1760, 213.5664
184.3990, 134.8373
185.6220, 84.08252
186.8450, 150.3090
188.0670, 41.52209
189.2900, 83.72107
190.5120, 17.90674
191.7340, 39.08020
192.9560, 15.24316
194.1780, 28.39722
195.4000, 55.54309
196.6220, 80.68127
197.8430, 25.81238
199.0640, 94.93652
200.2860, 22.05469
201.5070, 28.16699
202.7270, 124.2737
203.9480, 40.37476
205.1690, 79.47034
206.3890, 89.56091
207.6090, 122.6462
208.8290, 126.7263
210.0490, 94.80127
211.2690, 151.8713
212.4890, 137.9363
213.7080, 202.9961
214.9280, 190.0508
216.1470, 159.1001
217.3660, 156.1443
218.5850, 146.1826
219.8030, 136.2151
221.0220, 165.2419
222.2400, 121.2629
223.4590, 154.2778
224.6770, 163.4512
225.8950, 138.6084
227.1120, 121.8223
228.3300, 169.5547
229.5480, 213.1692
230.7650, 246.7817
231.9820, 353.0950
233.1990, 337.4453
234.4160, 411.7278
235.6330, 421.9971
236.8490, 434.8970
238.0660, 443.8350
239.2820, 428.8435
240.4980, 417.4482
241.7140, 380.7339
242.9300, 369.2249
244.1460, 330.4507
245.3610, 250.3201
246.5770, 189.4082
247.7920, 215.1921
249.0070, 183.4880
250.2220, 191.6116
251.4370, 146.7795
252.6510, 153.4592
253.8660, 231.4612
255.0800, 264.2952
256.2940, 239.2810
257.5080, 349.9500
258.7220, 416.6775
259.9360, 505.7654
261.1490, 480.3979
262.3630, 554.0601
263.5760, 566.7397
264.7890, 773.4927
266.0020, 897.3359
267.2150, 1041.160
268.4270, 1148.922
269.6400, 1210.701
270.8520, 1227.492
272.0640, 1197.183
273.2760, 1049.998
274.4880, 887.8230
275.7000, 787.6562
276.9120, 643.4971
278.1230, 594.3450
279.3340, 478.1987
280.5450, 503.0574
281.7560, 393.9202
282.9670, 373.7871
284.1780, 290.6572
285.3880, 329.5300
286.5980, 321.4053
287.8090, 267.2822
289.0190, 239.1604
290.2290, 216.0391
291.4380, 225.9180
292.6480, 228.7966
293.8570, 226.7024
295.0670, 221.5510
296.2760, 256.4260
297.4850, 260.2996
298.6930, 318.1711
299.9020, 315.0403
301.1110, 333.9070
302.3190, 359.7712
303.5270, 380.7783
304.7350, 404.4902
305.9430, 449.3452
307.1510, 483.9395
308.3580, 584.0444
309.5660, 573.8882
310.7730, 626.7283
311.9800, 673.5642
313.1870, 638.3960
314.3940, 683.2234
315.6010, 612.0461
316.8070, 604.8630
318.0130, 513.6750
319.2200, 442.4807
320.4260, 341.2803
321.6310, 309.0732
322.8370, 312.8591
324.0430, 249.6375
325.2480, 240.8086
326.4540, 199.1704
327.6590, 203.9253
328.8640, 141.6719
330.0680, 140.4111
331.2730, 129.1423
332.4780, 85.86597
333.6820, 156.5823
334.8860, 127.2908
336.0900, 70.99146
337.2940, 136.7236
338.4980, 51.40918
339.7010, 33.14624
340.9050, 28.81616
342.1080, 64.47754
343.3110, 17.13159
344.5140, 76.88721
345.7170, 10.52490
346.9200, 14.84619
348.1220, 55.94922
349.3240, 16.40991
350.5270, 4.273193
351.7290, 21.85815
352.9310, 48.44092
354.1320, 1.718994
355.3340, 28.83936
356.5350, 7.532471
357.7370, 35.05933
358.9380, 14.58618
360.1390, 17.40234
361.3400, 35.00146
362.5400, 18.11719
363.7410, 14.56567
364.9410, 31.06470
366.1410, 2.776611
367.3410, 10.73999
368.5410, 16.07666
369.7410, 4.304932
370.9400, 15.50391
372.1400, 36.22827
373.3390, 5.986816
374.5380, 67.50464
375.7370, 45.65332
376.9360, 39.96143
378.1350, 29.35693
379.3330, 34.16602
380.5310, 12.80420
381.7300, 12.90283
382.9280, 19.27051
384.1260, 10.50635
385.3230, 16.75830
386.5210, 12.55103
387.7180, 10.72925
388.9160, 21.95654
390.1130, 33.29297
391.3100, 32.92236
392.5060, 19.16675
393.7030, 1.937256
394.9000, 14.17480
396.0960, 35.22803
397.2920, 52.82324
398.4880, 86.98218
399.6840, 17.37402
400.8800, 51.54004
402.0750, 33.80615
403.2710, 80.38818
404.4660, 116.3577
405.6610, 144.2676
406.8560, 98.25806
408.0510, 81.30786
409.2450, 65.40625
410.4400, 74.96436
411.6340, 122.1797
412.8280, 113.1877
414.0220, 155.0535
415.2160, 158.9097
416.4100, 235.8132
417.6030, 222.6511
418.7970, 274.4795
419.9900, 339.2979
421.1830, 394.1064
422.3760, 437.9048
423.5690, 485.6929
424.7610, 521.4722
425.9540, 612.2417
427.1460, 655.0024
428.3380, 764.7542
429.5300, 805.4956
430.7220, 884.2283
431.9140, 1036.951
433.1050, 1020.663
434.2970, 1023.365
435.4880, 1012.056
436.6790, 1143.737
437.8700, 1291.407
439.0610, 1324.067
440.2510, 1496.717
441.4420, 1586.363
442.6320, 1743.999
443.8220, 1927.623
445.0120, 2148.237
446.2020, 2236.840
447.3910, 2230.431
448.5810, 2278.013
449.7700, 2283.584
450.9600, 2147.143
452.1490, 2070.691
453.3370, 1860.229
454.5260, 1614.759
455.7150, 1527.279
456.9030, 1334.787
458.0910, 1096.284
459.2800, 985.7703
460.4670, 865.2441
461.6550, 702.7068
462.8430, 603.1577
464.0300, 534.5984
465.2180, 512.0303
466.4050, 411.4531
467.5920, 434.8657
468.7790, 315.2661
469.9650, 330.6550
471.1520, 325.0327
472.3380, 319.4077
473.5250, 278.7715
474.7110, 240.1240
475.8970, 211.4651
477.0820, 196.7942
478.2680, 190.1123
479.4540, 100.4207
480.6390, 117.7188
481.8240, 95.97949
483.0090, 193.1509
484.1940, 162.2908
485.3780, 187.5454
486.5630, 84.60913
487.7470, 192.8403
488.9320, 138.8477
490.1160, 67.82935
491.3000, 102.9976
492.4830, 88.83276
493.6670, 148.8569
494.8500, 80.83789
496.0340, 67.62500
497.2170, 104.2883
498.4000, 70.27222
499.5820, 145.3672
500.7650, 106.3306
501.9480, 35.19360
503.1300, 85.11426
504.3120, 20.03125
505.4940, 58.50415
506.6760, 0.6838380
507.8580, 16.92896
509.0390, 95.61426
510.2210, 16.45605
511.4020, 57.20093
512.5830, 15.39868
513.7640, 21.86841
514.9450, 15.64526
516.1250, 65.25781
517.3060, 5.133301
518.4860, 12.61523
519.6660, 89.43335
520.8460, 49.10229
522.0260, 3.747803
523.2060, 9.177734
524.3850, 2.227295
525.5650, 2.721680
526.7440, 19.21533
527.9230, 51.17090
529.1020, 27.37354
530.2810, 59.03491
531.4590, 27.50684
532.6380, 35.71777
533.8160, 38.88354
534.9940, 6.688721
536.1720, 34.45337
537.3500, 75.98535
538.5270, 4.169678
539.7050, 47.30469
540.8820, 0.3847660
542.0590, 41.70605
543.2360, 15.50513
544.4130, 4.752441
545.5900, 83.88965
546.7660, 100.7634
547.9430, 75.68726
549.1190, 61.33179
550.2950, 48.46631
551.4710, 101.7766
552.6470, 110.5847
553.8220, 67.32471
554.9980, 138.0645
556.1730, 160.5996
557.3480, 86.03271
558.5230, 162.6104
559.6980, 121.1882
560.8730, 151.6580
562.0470, 169.1531
563.2220, 172.5273
564.3960, 212.9688
565.5700, 171.6638
566.7440, 173.2554
567.9170, 257.9773
569.0910, 346.7705
570.2640, 336.2131
571.4380, 359.9849
572.6110, 565.5010
573.7840, 617.8967
574.9570, 814.2849
576.1290, 982.5706
577.3020, 1316.996
578.4740, 1675.360
579.6460, 2205.980
580.8180, 2885.384
581.9900, 3366.200
583.1620, 3558.589
584.3330, 3160.823
585.5040, 2491.255
586.6760, 1885.503
587.8470, 1281.795
589.0180, 1271.129
590.1880, 1125.406
591.3590, 1091.655
592.5290, 1135.947
593.7000, 1025.252
594.8700, 874.3682
596.0400, 733.6133
597.2090, 667.6504
598.3790, 592.0232
599.5490, 581.1589
600.7180, 670.1450
601.8870, 785.3169
603.0560, 927.3477
604.2250, 1278.754
605.3940, 1492.428
606.5620, 1909.061
607.7300, 2213.414
608.8990, 2491.380
610.0670, 2063.379
611.2350, 1690.467
612.4020, 1323.639
613.5700, 1026.626
614.7370, 954.8237
615.9050, 966.7549
617.0720, 1095.715
618.2390, 1088.879
619.4060, 870.1899
620.5720, 696.5007
621.7390, 505.5564
622.9050, 356.8684
624.0710, 301.9497
625.2370, 226.0710
626.4030, 164.5537
627.5690, 167.9766
628.7340, 113.9448
629.9000, 120.3679
631.0650, 156.6150
632.2300, 117.4019
633.3950, 83.96899
634.5600, 124.7495
635.7240, 101.3542
636.8890, 134.0234
638.0530, 104.8550
639.2170, 53.65991
640.3810, 157.6536
641.5450, 153.2314
642.7080, 94.63940
643.8720, 110.4343
645.0350, 157.5212
646.1980, 154.4236
647.3610, 238.3132
648.5240, 199.4326
649.6870, 273.1882
650.8490, 180.3826
652.0120, 148.7878
653.1740, 219.7803
654.3360, 183.8169
655.4980, 191.1440
656.6600, 167.4688
657.8210, 183.4912
658.9830, 182.0576
660.1440, 181.2288
661.3050, 169.0132
662.4660, 172.4546
663.6270, 140.8047
664.7870, 97.97559
665.9480, 115.7773
667.1080, 35.42236
668.2680, 137.6084
669.4280, 130.8037
670.5880, 119.9805
671.7480, 50.98730
672.9070, 79.89014
674.0670, 104.1387
675.2260, 73.98193
676.3850, 65.98145
677.5440, 12.69678
678.7030, 129.0732
679.8610, 11.16357
681.0200, 107.1802
682.1780, 29.27588
683.3360, 20.49902
684.4940, 86.98975
685.6520, 40.07373
686.8090, 25.01953
687.9670, 6.864258
689.1240, 0.4970700
690.2810, 19.68213
691.4380, 22.46973
692.5950, 54.53516
693.7520, 51.19727
694.9080, 97.18896
696.0650, 120.0796
697.2210, 81.06787
698.3770, 78.07422
699.5330, 101.0630
700.6880, 92.08887
701.8440, 125.3726
702.9990, 107.1841
704.1550, 52.91162
705.3100, 76.92529
706.4650, 42.62061
707.6190, 26.39893
708.7740, 103.1748
709.9290, 26.28027
711.0830, 82.06982
712.2370, 107.6875
713.3910, 106.1499
714.5450, 138.4619
715.6980, 91.96143
716.8520, 103.6489
718.0050, 39.02246
719.1580, 87.36963
720.3110, 9.217285
721.4640, 84.27686
722.6170, 117.8164
723.7700, 67.06982
724.9220, 107.3018
726.0740, 93.51318
727.2260, 79.73047
728.3780, 89.90039
729.5300, 93.04980
730.6810, 79.17969
731.8330, 72.28760
732.9840, 0.6254880
734.1350, 79.43311
735.2860, 125.4707
736.4370, 41.48877
737.5880, 94.64551
738.7380, 139.6211
739.8880, 78.70020
741.0390, 108.6357
742.1890, 22.58984
743.3380, 5.482910
744.4880, 6.350098
745.6380, 23.19092
746.7870, 105.0093
747.9360, 94.20264
749.0850, 68.98047
750.2340, 21.26270
751.3830, 85.45459
752.5310, 33.45996
753.6800, 93.34863
754.8280, 85.97217
755.9760, 33.89551
757.1240, 15.68262
758.2720, 12.46240
759.4190, 48.10352
760.5670, 10.47412
761.7140, 40.78027
762.8610, 31.11865
764.0080, 51.77832
765.1550, 48.06787
766.3020, 61.61475
767.4480, 42.35693
768.5950, 90.84424
769.7410, 86.20508
770.8870, 122.5454
772.0330, 88.76074
773.1780, 97.22168
774.3240, 70.46826
775.4690, 64.72656
776.6140, 33.94336
777.7590, 27.92432
778.9040, 114.1143
780.0490, 79.28516
781.1940, 33.37305
782.3380, 136.5015
783.4820, 38.38818
784.6260, 45.67188
785.7700, 110.7148
786.9140, 37.83301
788.0580, 85.83447
789.2010, 77.49854
790.3450, 161.4609
791.4880, 136.9531
792.6310, 41.88086
793.7730, 91.78711
794.9160, 79.67383
796.0590, 13.54150
797.2010, 27.38672
798.3430, 9.791016
799.4850, 74.99756
800.6270, 91.76807
801.7690, 43.52344
802.9100, 92.19336
804.0520, 13.08887
805.1930, 92.27051
806.3340, 30.06055
807.4750, 0.5727540
808.6160, 98.17773
809.7560, 42.49170
810.8970, 41.92529
812.0370, 21.56055
813.1770, 0.2163090
814.3170, 48.06396
815.4570, 40.10938
816.5960, 60.56055
817.7360, 20.51611
818.8750, 43.17822
820.0140, 40.08203
821.1530, 73.85156
822.2920, 72.05371
823.4310, 112.0405
824.5690, 44.94580
825.7070, 25.09961
826.8460, 16.68115
827.9840, 32.98535
829.1220, 47.79932
830.2590, 106.7275
831.3970, 54.62500
832.5340, 73.69580
833.6710, 31.83789
834.8080, 35.80322
835.9450, 34.73926
837.0820, 20.75146
838.2190, 3.707031
839.3550, 53.24951
840.4910, 68.32227
841.6270, 9.670410
842.7630, 73.05518
843.8990, 47.63037
845.0350, 42.11328
846.1700, 2.915527
847.3060, 8.644043
848.4410, 63.01562
849.5760, 94.76514
850.7100, 2.500977
851.8450, 75.30029
852.9800, 24.93164
854.1140, 94.59424
855.2480, 107.9712
856.3820, 73.53418
857.5160, 44.65430
858.6500, 28.17285
859.7830, 138.8145
860.9170, 107.2285
862.0500, 124.7974
863.1830, 83.29297
864.3160, 99.71631
865.4480, 112.2324
866.5810, 115.6187
867.7130, 161.9976
868.8460, 164.3330
869.9780, 202.8296
871.1100, 107.1675
872.2410, 131.6846
873.3730, 44.83740
874.5050, 124.1978
875.6360, 52.67822
876.7670, 119.9443
877.8980, 71.32227
879.0290, 86.29590
880.1590, 106.9736
881.2900, 84.66504
882.4200, 100.7563
883.5500, 9.3750000E-02
884.6800, 95.14404
885.8100, 111.2637
886.9400, 87.27051
888.0690, 16.56494
889.1990, 20.35498
890.3280, 27.48730
891.4570, 1.604004
892.5860, 27.46387
893.7140, 46.14795
894.8430, 25.76465
895.9710, 10.35303
897.1000, 41.81787
898.2280, 11.03174
899.3560, 19.68213
900.4830, 142.4819
901.6110, 66.74414
902.7380, 108.0229
903.8660, 36.69922
904.9930, 127.5684
906.1200, 105.4082
907.2460, 220.3911
908.3730, 20.22314
909.5000, 89.08057
910.6260, 115.8169
911.7520, 139.5205
912.8780, 161.0859
914.0040, 143.5864
915.1290, 163.4727
916.2550, 109.2051
917.3800, 84.73438
918.5050, 161.6548
919.6300, 121.9248
920.7550, 77.48779
921.8800, 24.31543
923.0040, 122.8306
924.1290, 13.45947
925.2530, 67.20166
926.3770, 10.94092
927.5010, 106.9043
928.6250, 58.39014
929.7480, 113.0791
930.8720, 148.7134
931.9950, 133.9229
933.1180, 162.3296
934.2410, 278.3408
935.3640, 239.9546
936.4860, 207.6338
937.6090, 150.1060
938.7310, 305.7773
939.8530, 349.5776
940.9750, 462.2412
942.0970, 531.9785
943.2180, 485.6387
944.3400, 584.3140
945.4610, 783.7534
946.5820, 963.1875
947.7030, 1192.466
948.8240, 1384.088
949.9450, 1596.539
951.0650, 1815.964
952.1860, 2169.471
953.3060, 2409.788
954.4260, 3226.219
955.5460, 3928.391
956.6650, 5370.948
957.7850, 7644.496
958.9040, 10502.21
960.0230, 14157.65
961.1420, 19306.00
962.2610, 26228.30
963.3800, 35203.70
964.4990, 45577.17
965.6170, 54312.89
966.7350, 55751.38
967.8530, 48395.95
968.9710, 35900.35
970.0890, 24572.18
971.2070, 16500.59
972.3240, 11027.94
973.4410, 7683.009
974.5580, 5376.531
975.6750, 3695.985
976.7920, 2734.713
977.9090, 2010.666
979.0250, 1557.274
980.1410, 1060.718
981.2580, 961.8105
982.3740, 688.1958
983.4890, 582.7310
984.6050, 540.6025
985.7200, 370.4004
986.8360, 273.9888
987.9510, 216.3677
989.0660, 280.0400
990.1810, 249.7158
991.2950, 228.3037
992.4100, 239.7832
993.5240, 201.1958
994.6390, 196.8447
995.7530, 98.55273
996.8660, 143.2305
997.9800, 174.8813
999.0940, 96.55859
1000.207, 108.2495
1001.320, 169.9399
1002.433, 235.6304
1003.546, 285.3218
1004.659, 267.0166
1005.772, 369.7119
1006.884, 446.4072
1007.996, 574.9443
1009.108, 672.6416
1010.220, 857.2178
1011.332, 763.9160
1012.444, 703.5767
1013.555, 576.2773
1014.666, 633.9814
1015.777, 401.6885
1016.888, 281.3979
1017.999, 286.7134
1019.110, 151.4243
1020.220, 102.1362
1021.331, 284.8594
1022.441, 299.3115
1023.551, 294.8306
1024.661, 417.5977
1025.770, 499.1553
1026.880, 558.7246
1027.989, 739.3784
1029.098, 841.9546
1030.207, 1033.879
1031.316, 1091.848
1032.425, 1530.765
1033.533, 1834.342
1034.642, 2111.111
1035.750, 2063.582
1036.858, 1919.358
1037.966, 1558.030
1039.073, 1428.812
1040.181, 1012.597
1041.288, 981.4155
1042.396, 836.1069
1043.503, 686.9658
1044.610, 778.8384
1045.716, 550.7153
1046.823, 572.6152
1047.929, 536.5361
1049.036, 586.5078
1050.142, 581.4946
1051.248, 564.4858
1052.353, 611.5684
1053.459, 694.5806
1054.564, 742.5996
1055.670, 856.6484
1056.775, 999.5991
1057.880, 1128.211
1058.985, 1354.257
1060.089, 1579.758
1061.194, 1712.811
1062.298, 1543.867
1063.402, 1422.256
1064.506, 1175.345
1065.610, 881.4146
1066.713, 703.4893
1067.817, 609.5737
1068.920, 611.6621
1070.023, 559.7534
1071.126, 586.5625
1072.229, 698.9492
1073.332, 684.1069
1074.435, 694.2207
1075.537, 769.3511
1076.639, 745.4893
1077.741, 792.6309
1078.843, 951.7764
1079.945, 1013.014
1081.046, 1100.177
1082.148, 1091.349
1083.249, 864.5244
1084.350, 655.7046
1085.451, 604.8882
1086.551, 418.0767
1087.652, 325.2695
1088.752, 371.4805
1089.853, 214.6943
1090.953, 232.9121
1092.053, 146.1328
1093.152, 182.3584
1094.252, 186.5879
1095.351, 123.8223
1096.451, 111.0615
1097.550, 127.3047
1098.649, 22.54980
1099.748, 43.79980
1100.846, 68.05176
1101.945, 17.69043
1103.043, 10.56641
1104.141, 109.8271
1105.239, 74.09180
1106.337, 88.36230
1107.434, 129.3477
1108.532, 40.08887
1109.629, 56.83691
1110.726, 52.60352
1111.823, 5.615234
1112.920, 114.8369
1114.017, 131.0664
1115.113, 124.3018
1116.210, 34.45801
1117.306, 93.77344
1118.402, 225.0117
1119.498, 229.2529
1120.593, 413.5479
1121.689, 316.7959
1122.784, 394.0469
1123.879, 366.2998
1124.974, 157.5557
1126.069, 170.8164
1127.164, 368.1064
1128.259, 149.3711
1129.353, 176.6396
1130.447, 197.9102
1131.541, 98.41211
1132.635, 8.687500
1133.729, 164.9648
1134.822, 100.2451
1135.916, 91.52637
1137.009, 193.9346
1138.102, 99.22070
1139.195, 97.76465
1140.288, 129.0557
1141.380, 36.34863
1142.473, 85.72363
1143.565, 78.15723
1144.657, 106.4580
1145.749, 84.75977
1146.841, 65.06348
1147.932, 25.37012
1149.024, 142.6768
1150.115, 53.98926
1151.206, 46.35254
1152.297, 85.68066
1153.388, 0.9892580
1154.479, 174.1455
1155.569, 115.4844
1156.659, 4.045898
1157.750, 315.3066
1158.839, 86.66016
1159.929, 78.01465
1161.019, 161.3711
1162.108, 139.7344
1163.198, 196.2158
1164.287, 147.5977
1165.376, 231.0029
1166.465, 47.38672
1167.553, 201.8398
1168.642, 46.24707
1169.730, 190.6533
1170.818, 154.0615
1171.906, 147.6016
1172.994, 208.7188
1174.082, 82.65625
1175.170, 123.3438
1176.257, 29.75488
1177.344, 78.60742
1178.431, 120.8486
1179.518, 129.5781
1180.605, 140.6045
1181.691, 122.0967
1182.778, 20.50391
1183.864, 94.90918
1184.950, 49.83984
1186.036, 41.15918
1187.122, 161.5586
1188.207, 10.95703
1189.292, 136.3535
1190.378, 126.7480
1191.463, 89.14258
1192.548, 98.53516
1193.632, 9.924805
1194.717, 66.58496
1195.801, 120.7549
1196.886, 180.0928
1197.970, 144.4268
1199.054, 199.7598
1200.137, 194.0898
1201.221, 204.4199
1202.305, 170.7480
1203.388, 42.07324
1204.471, 274.3955
1205.554, 61.71484
1206.637, 135.0312
1207.719, 123.3457
1208.802, 125.6572
1209.884, 34.96582
1210.966, 76.27148
1212.048, 147.5732
1213.130, 238.8740
1214.212, 240.1699
1215.293, 195.4629
1216.374, 174.7529
1217.456, 165.0391
1218.536, 104.3232
1219.617, 235.6035
1220.698, 199.8809
1221.778, 234.1553
1222.859, 133.4248
1223.939, 147.8828
1225.019, 101.1465
1226.099, 100.4062
1227.178, 200.6621
1228.258, 176.9160
1229.337, 198.1660
1230.417, 220.5732
1231.496, 227.6533
1232.574, 179.4746
1233.653, 265.7090
1234.732, 149.9395
1235.810, 84.16699
1236.888, 282.3906
1237.966, 158.8115
1239.044, 116.5752
1240.122, 113.4033
1241.199, 246.4678
1242.277, 184.6729
1243.354, 111.8740
1244.431, 200.0713
1245.508, 157.2656
1246.585, 128.2529
1247.661, 185.4385
1248.738, 232.6211
1249.814, 45.80078
1250.890, 162.9746
1251.966, 89.14648
1253.042, 77.31348
1254.117, 176.4775
1255.193, 171.6377
1256.268, 53.79199
1257.343, 182.9443
1258.418, 111.0918
1259.493, 101.2354
1260.567, 36.62500
1261.642, 129.4824
1262.716, 160.5859
1263.790, 153.6846
1264.864, 216.7793
1265.938, 33.87109
1267.011, 169.9551
1268.085, 15.03809
1269.158, 242.1133
1270.231, 110.1826
1271.304, 26.24902
1272.377, 53.30957
1273.450, 175.3652
1274.522, 107.4180
1275.594, 101.4658
1276.666, 206.5088
1277.738, 91.54785
1278.810, 174.5830
1279.882, 61.58789
1280.953, 208.6133
1282.025, 97.63672
1283.096, 10.38281
1284.167, 190.6133
1285.238, 0.6054690
1286.308, 272.4775
1287.379, 221.4502
