##NAMES=Fluor-uvite
##RRUFFID=R050172
##IDEAL CHEMISTRY=CaMg_3_(Al_5_Mg)(Si_6_O_18_)(BO_3_)_3_(OH)_3_F
##LOCALITY=Pierrepont, New York, USA
##OWNER=RRUFF
##SOURCE=Marcus Origlieri
##DESCRIPTION=Black prismatic crystal
##STATUS=The identification of this mineral has been confirmed by X-ray diffraction and chemical analysis
##URL=rruff.info/R050172
##MEASURED CHEMISTRY=(Ca_0.64_Na_0.36_)(Mg_0.56_Fe^2+^_0.34_Al_0.08_Ti_0.02_)_3_(Mg_1.00_Al_5.00_)(BO_3_)_3_Si_6.00_O_18_((OH)_3.45_F_0.55_)
##PIN_ID=L00240
##ORIENTATION=Laser parallel to -a* (-1 0 0). Fiducial mark perpendicular to laser is parallel to c [0 0 1]
168.010, 0.000
169.391, 3.768
170.771, 15.859
172.151, 71.585
173.531, 62.883
174.911, 24.073
176.290, 42.246
177.669, 45.292
179.049, 153.258
180.427, 47.288
181.806, 135.745
183.184, 251.630
184.562, 289.709
185.940, 475.838
187.318, 578.119
188.696, 673.937
190.073, 870.895
191.450, 1083.744
192.827, 1202.333
194.204, 1388.619
195.580, 1692.130
196.956, 1904.906
198.332, 2182.573
199.708, 2568.182
201.084, 2807.379
202.459, 3329.709
203.834, 3780.104
205.209, 4422.724
206.584, 4797.765
207.958, 5041.386
209.333, 5163.728
210.707, 5157.074
212.081, 5037.604
213.454, 4834.347
214.828, 4446.774
216.201, 4115.458
217.574, 3566.469
218.947, 3173.869
220.320, 2861.681
221.692, 2659.055
223.064, 2451.121
224.436, 2470.859
225.808, 2521.365
227.179, 2828.528
228.551, 3041.333
229.922, 3800.290
231.293, 4220.090
232.663, 5022.619
234.034, 5896.129
235.404, 6690.639
236.774, 7508.030
238.144, 7932.362
239.514, 8206.785
240.883, 7971.266
242.252, 7595.773
243.621, 6900.287
244.990, 5914.794
246.359, 5058.299
247.727, 4263.803
249.095, 3486.305
250.463, 2798.841
251.831, 2231.509
253.198, 1972.304
254.566, 1570.209
255.933, 1372.237
257.299, 1129.384
258.666, 1040.644
260.033, 897.009
261.399, 721.471
262.765, 646.025
264.131, 581.663
265.496, 599.378
266.862, 504.163
268.227, 426.009
269.592, 446.909
270.957, 368.857
272.321, 291.847
273.685, 274.875
275.050, 158.936
276.413, 135.027
277.777, 112.145
279.141, 100.282
280.504, 15.430
281.867, 6.573
283.230, 32.701
284.592, 61.191
285.955, 22.898
287.317, 108.026
288.679, 94.963
290.041, 126.896
291.403, 110.840
292.764, 92.795
294.125, 91.755
295.486, 151.708
296.847, 100.651
298.207, 65.294
299.568, 20.075
300.928, 106.287
302.288, 65.884
303.647, 153.850
305.007, 316.724
306.366, 371.657
307.725, 471.572
309.084, 643.542
310.443, 746.165
311.801, 852.307
313.159, 881.891
314.517, 923.163
315.875, 967.411
317.233, 937.010
318.590, 1017.520
319.947, 848.042
321.304, 857.578
322.661, 705.129
324.018, 743.692
325.374, 680.269
326.730, 620.857
328.086, 604.460
329.442, 606.075
330.797, 664.703
332.153, 715.491
333.508, 819.422
334.863, 954.387
336.217, 993.266
337.572, 1058.225
338.926, 1231.308
340.280, 1435.349
341.634, 1544.132
342.988, 1692.453
344.341, 1902.492
345.694, 1980.512
347.047, 2287.504
348.400, 2556.459
349.753, 2869.367
351.105, 3353.223
352.457, 3826.022
353.809, 4392.765
355.161, 5029.452
356.512, 5857.081
357.864, 6635.657
359.215, 7584.177
360.566, 8362.633
361.916, 9371.012
363.267, 9769.298
364.617, 10327.475
365.967, 10635.551
367.317, 10483.529
368.667, 10041.415
370.016, 9389.227
371.366, 8746.956
372.715, 7854.615
374.064, 7012.211
375.412, 6199.745
376.761, 5547.221
378.109, 4874.646
379.457, 4328.643
380.805, 3851.342
382.152, 3415.622
383.500, 3091.850
384.847, 2778.012
386.194, 2516.086
387.541, 2311.035
388.887, 2109.835
390.233, 2039.444
391.580, 1888.757
392.926, 1746.765
394.271, 1589.526
395.617, 1522.995
396.962, 1538.327
398.307, 1489.665
399.652, 1375.925
400.997, 1392.301
402.341, 1308.841
403.686, 1360.226
405.030, 1201.833
406.374, 1243.419
407.717, 1105.760
409.061, 1049.604
410.404, 972.125
411.747, 908.787
413.090, 831.467
414.433, 763.548
415.775, 697.421
417.117, 624.668
418.459, 567.577
419.801, 497.719
421.143, 434.186
422.484, 416.342
423.825, 349.489
425.166, 358.652
426.507, 232.413
427.848, 316.473
429.188, 256.130
430.528, 297.019
431.868, 225.222
433.208, 199.644
434.547, 254.235
435.887, 195.110
437.226, 176.126
438.565, 216.478
439.904, 161.827
441.242, 158.063
442.580, 180.661
443.918, 155.851
445.256, 141.104
446.594, 137.152
447.932, 88.225
449.269, 82.203
450.606, 129.049
451.943, 81.939
453.280, 125.886
454.616, 125.012
455.952, 108.243
457.288, 109.294
458.624, 87.554
459.960, 77.594
461.295, 88.514
462.631, 80.052
463.966, 135.853
465.300, 166.993
466.635, 288.054
467.969, 347.303
469.304, 381.549
470.638, 491.791
471.972, 548.031
473.305, 620.270
474.639, 680.510
475.972, 756.754
477.305, 823.159
478.638, 865.256
479.970, 975.517
481.303, 1018.785
482.635, 1123.059
483.967, 1100.340
485.298, 1301.628
486.630, 1413.922
487.961, 1262.225
489.293, 1251.533
490.624, 1361.848
491.954, 1370.169
493.285, 1365.480
494.615, 1326.781
495.945, 1275.071
497.275, 1310.352
498.605, 1189.623
499.935, 1160.887
501.264, 951.140
502.593, 990.382
503.922, 928.614
505.251, 830.835
506.579, 847.046
507.908, 757.246
509.236, 691.435
510.564, 609.614
511.891, 551.783
513.219, 553.942
514.546, 473.100
515.873, 429.256
517.200, 439.417
518.527, 369.573
519.853, 411.728
521.180, 403.879
522.506, 422.028
523.832, 391.175
525.157, 415.940
526.483, 438.994
527.808, 454.628
529.133, 483.779
530.458, 517.929
531.783, 490.089
533.107, 495.261
534.431, 480.435
535.756, 490.604
537.079, 446.774
538.403, 417.963
539.727, 416.147
541.050, 369.338
542.373, 295.543
543.696, 298.748
545.018, 247.961
546.341, 234.182
547.663, 174.403
548.985, 183.625
550.307, 90.861
551.629, 95.108
552.950, 60.368
554.271, 86.633
555.592, 53.899
556.913, 43.169
558.234, 104.442
559.554, 32.717
560.875, 0.006
562.195, 32.272
563.514, 3.448
564.834, 2.168
566.154, 45.114
567.473, 40.600
568.792, 3.673
570.111, 5.252
571.429, 45.223
572.748, 4.501
574.066, 33.774
575.384, 19.050
576.702, 41.556
578.019, 1.707
579.337, 44.990
580.654, 21.742
581.971, 21.480
583.288, 69.247
584.605, 37.998
585.921, 19.019
587.237, 4.821
588.553, 13.742
589.869, 23.563
591.185, 1.617
592.500, 45.776
593.815, 26.280
595.130, 31.905
596.445, 47.168
597.760, 31.270
599.074, 0.595
600.389, 0.080
601.703, 1.282
603.016, 51.633
604.330, 1.650
605.644, 10.125
606.957, 60.730
608.270, 121.409
609.583, 117.376
610.895, 149.255
612.208, 114.418
613.520, 161.667
614.832, 236.935
616.144, 258.326
617.455, 323.719
618.767, 404.144
620.078, 568.666
621.389, 559.165
622.700, 767.896
624.011, 836.629
625.321, 992.361
626.631, 1146.089
627.941, 1291.815
629.251, 1368.537
630.561, 1392.256
631.870, 1434.972
633.180, 1397.685
634.489, 1415.464
635.798, 1438.326
637.106, 1583.193
638.415, 1694.970
639.723, 1864.762
641.031, 2037.646
642.339, 2201.521
643.647, 2338.484
644.954, 2366.437
646.261, 2504.287
647.568, 2493.205
648.875, 2516.045
650.182, 2452.849
651.488, 2478.809
652.795, 2530.887
654.101, 2501.984
655.407, 2662.998
656.712, 2859.176
658.018, 2956.194
659.323, 3108.305
660.628, 3327.630
661.933, 3315.685
663.238, 3493.858
664.542, 3524.996
665.847, 3549.025
667.151, 3532.200
668.455, 3388.419
669.758, 3237.566
671.062, 2967.787
672.365, 2735.538
673.668, 2544.889
674.971, 2431.015
676.274, 2216.706
677.577, 1946.105
678.879, 1954.473
680.181, 1819.821
681.483, 1783.590
682.785, 1797.536
684.086, 1728.902
685.388, 1767.535
686.689, 1814.750
687.990, 1935.656
689.290, 2047.556
690.591, 2248.318
691.891, 2320.599
693.192, 2594.797
694.491, 2851.390
695.791, 3090.485
697.091, 3423.952
698.390, 3796.311
699.689, 3823.356
700.988, 3980.920
702.287, 3995.688
703.586, 3584.102
704.884, 3263.150
706.182, 2721.605
707.480, 2369.080
708.778, 1981.020
710.076, 1580.366
711.373, 1272.291
712.670, 1043.137
713.968, 810.837
715.264, 713.593
716.561, 581.205
717.857, 463.710
719.154, 399.367
720.450, 350.142
721.746, 303.742
723.041, 251.914
724.337, 250.011
725.632, 220.830
726.927, 205.073
728.222, 159.691
729.517, 174.047
730.811, 144.587
732.105, 113.957
733.400, 147.850
734.693, 132.145
735.987, 162.792
737.281, 136.273
738.574, 143.825
739.867, 130.293
741.160, 153.998
742.453, 137.678
743.745, 148.561
745.038, 201.168
746.330, 211.503
747.622, 230.172
748.913, 208.449
750.205, 298.417
751.496, 344.335
752.788, 322.650
754.079, 382.545
755.369, 385.117
756.660, 375.958
757.950, 390.425
759.241, 341.183
760.531, 338.823
761.820, 300.481
763.110, 315.187
764.399, 232.887
765.689, 217.563
766.978, 249.225
768.267, 251.870
769.555, 265.498
770.844, 256.110
772.132, 188.703
773.420, 228.280
774.708, 199.837
775.996, 217.377
777.283, 208.898
778.570, 200.400
779.857, 194.882
781.144, 190.863
782.431, 183.787
783.718, 182.210
785.004, 185.613
786.290, 173.338
787.576, 160.357
788.862, 141.700
790.147, 122.021
791.433, 120.321
792.718, 141.600
794.003, 137.857
795.288, 115.092
796.572, 117.306
797.857, 95.496
799.141, 97.665
800.425, 121.810
801.709, 104.932
802.992, 123.032
804.276, 131.109
805.559, 93.164
806.842, 64.195
808.125, 59.201
809.407, 78.182
810.690, 38.139
811.972, 76.070
813.254, 52.976
814.536, 15.857
815.818, 64.709
817.099, 35.537
818.381, 43.337
819.662, 68.112
820.943, 32.861
822.223, 26.583
823.504, 37.279
824.784, 18.053
826.065, 10.430
827.345, 35.848
828.624, 0.322
829.904, 9.237
831.183, 4.510
832.462, 3.975
833.741, 3.604
835.020, 10.273
836.299, 28.984
837.577, 19.747
838.856, 9.442
840.134, 1.402
841.412, 44.283
842.689, 44.226
843.967, 10.230
845.244, 19.724
846.521, 1.353
847.798, 71.468
849.075, 29.342
850.351, 21.877
851.628, 52.145
852.904, 0.522
854.180, 23.843
855.455, 27.259
856.731, 13.274
858.006, 0.226
859.281, 38.763
860.556, 23.359
861.831, 31.004
863.106, 13.296
864.380, 33.575
865.655, 37.826
866.929, 55.192
868.202, 55.489
869.476, 60.425
870.750, 44.576
872.023, 43.709
873.296, 17.815
874.569, 25.899
875.842, 12.956
877.114, 58.982
878.386, 17.989
879.658, 62.966
880.930, 44.920
882.202, 37.853
883.474, 45.760
884.745, 68.641
886.016, 74.385
887.287, 60.230
888.558, 92.019
889.829, 103.833
891.099, 85.605
892.369, 98.378
893.639, 134.099
894.909, 64.844
896.179, 108.558
897.448, 115.259
898.718, 100.942
899.987, 165.605
901.256, 139.249
902.524, 125.879
903.793, 114.487
905.061, 107.079
906.329, 119.659
907.597, 176.227
908.865, 167.776
910.133, 132.305
911.400, 170.814
912.667, 141.300
913.934, 155.766
915.201, 194.211
916.468, 170.634
917.734, 179.036
919.001, 190.416
920.267, 223.776
921.532, 252.114
922.798, 255.431
924.064, 213.728
925.329, 239.003
926.594, 222.258
927.859, 283.492
929.124, 243.706
930.388, 289.899
931.653, 228.071
932.917, 300.221
934.181, 316.352
935.445, 358.462
936.708, 343.550
937.972, 323.619
939.235, 397.667
940.498, 347.694
941.761, 398.630
943.024, 462.461
944.286, 378.262
945.548, 455.129
946.811, 496.957
948.072, 509.668
949.334, 558.366
950.596, 570.950
951.857, 602.428
953.118, 637.171
954.379, 657.728
955.640, 692.338
956.901, 718.960
958.161, 750.403
959.421, 766.912
960.681, 803.958
961.941, 785.272
963.201, 783.397
964.460, 768.660
965.720, 775.804
966.979, 744.710
968.238, 752.862
969.496, 751.871
970.755, 733.546
972.013, 741.040
973.272, 742.116
974.529, 737.223
975.787, 708.760
977.045, 708.689
978.302, 696.852
979.560, 689.434
980.817, 667.273
982.073, 698.524
983.330, 679.044
984.587, 642.571
985.843, 717.094
987.099, 690.172
988.355, 760.051
989.611, 750.485
990.866, 752.119
992.122, 674.167
993.377, 730.990
994.632, 752.796
995.887, 726.715
997.141, 793.093
998.396, 800.531
999.650, 836.550
1000.904, 876.081
1002.158, 908.229
1003.412, 900.412
1004.665, 958.130
1005.918, 980.137
1007.172, 1065.921
1008.425, 1164.961
1009.677, 1223.337
1010.930, 1329.416
1012.182, 1380.347
1013.434, 1503.798
1014.687, 1557.170
1015.938, 1567.688
1017.190, 1798.123
1018.441, 1842.718
1019.693, 2013.616
1020.944, 2086.181
1022.195, 2189.227
1023.445, 2300.631
1024.696, 2448.156
1025.946, 2514.484
1027.197, 2645.418
1028.446, 2691.955
1029.696, 2753.048
1030.946, 2808.590
1032.195, 2854.874
1033.445, 2919.533
1034.694, 2940.989
1035.942, 2960.714
1037.191, 2990.350
1038.440, 2983.434
1039.688, 3036.970
1040.936, 2982.701
1042.184, 2985.297
1043.432, 2958.813
1044.679, 2888.568
1045.927, 2862.890
1047.174, 2794.586
1048.421, 2742.895
1049.668, 2675.595
1050.914, 2509.392
1052.161, 2530.579
1053.407, 2420.134
1054.653, 2355.952
1055.899, 2373.631
1057.145, 2212.321
1058.391, 2194.551
1059.636, 2114.384
1060.881, 2110.030
1062.126, 1975.845
1063.371, 2015.488
1064.615, 2027.165
1065.860, 1936.880
1067.104, 1942.552
1068.348, 1786.229
1069.592, 1835.941
1070.836, 1750.707
1072.079, 1664.381
1073.323, 1622.130
1074.566, 1534.435
1075.809, 1547.530
1077.052, 1399.321
1078.294, 1336.022
1079.537, 1287.634
1080.779, 1153.239
1082.021, 1147.838
1083.263, 1120.431
1084.504, 1028.018
1085.746, 1007.598
1086.987, 961.172
1088.228, 939.740
1089.469, 896.303
1090.710, 850.859
1091.951, 785.410
1093.191, 764.118
1094.431, 712.505
1095.671, 710.041
1096.911, 668.572
1098.151, 637.185
1099.390, 682.716
1100.630, 547.234
1101.869, 624.748
1103.108, 561.258
1104.346, 534.764
1105.585, 535.266
1106.823, 473.764
1108.062, 522.258
1109.300, 475.750
1110.537, 459.240
1111.775, 448.726
1113.013, 414.210
1114.250, 424.204
1115.487, 401.698
1116.724, 406.651
1117.961, 380.128
1119.197, 306.649
1120.434, 298.124
1121.670, 277.595
1122.906, 274.066
1124.142, 226.551
1125.377, 237.020
1126.613, 189.497
1127.848, 182.980
1129.083, 147.477
1130.318, 172.978
1131.553, 142.485
1132.787, 111.998
1134.022, 93.477
1135.256, 111.157
1136.490, 119.978
1137.724, 120.491
1138.957, 87.772
1140.191, 97.398
1141.424, 99.959
1142.657, 99.552
1143.890, 84.147
1145.123, 85.435
1146.355, 67.482
1147.588, 77.091
1148.820, 31.726
1150.052, 28.366
1151.284, 45.020
1152.516, 24.308
1153.747, 21.358
1154.978, 20.049
1156.209, 37.739
1157.440, 60.433
1158.671, 7.132
1159.902, 31.850
1161.132, 29.580
1162.362, 42.667
1163.592, 6.068
1164.822, 31.803
1166.052, 12.539
1167.281, 26.704
1168.511, 20.098
1169.740, 30.122
1170.969, 37.684
1172.197, 27.602
1173.426, 12.100
1174.654, 23.804
1175.883, 11.512
1177.111, 18.222
1178.338, 9.934
1179.566, 24.354
1180.794, 36.348
1182.021, 7.052
1183.248, 24.241
1184.475, 1.544
1185.702, 46.848
1186.928, 25.825
1188.155, 1.392
1189.381, 1.282
1190.607, 30.957
1191.833, 7.632
1193.059, 14.307
1194.284, 18.014
1195.509, 14.310
1196.735, 0.642
1197.960, 6.025
1199.184, 10.309
1200.409, 43.352
1201.633, 4.908
1202.858, 22.250
1204.082, 21.647
1205.306, 8.885
1206.529, 0.914
1207.753, 8.045
1208.976, 3.874
1210.199, 14.177
1211.422, 18.649
1212.645, 27.005
1213.868, 40.630
1215.090, 32.255
1216.313, 21.879
1217.535, 7.502
1218.757, 27.130
1219.978, 7.750
1221.200, 15.445
1222.421, 18.062
1223.643, 0.323
1224.864, 12.289
1226.084, 48.900
1227.305, 47.510
1228.526, 53.118
1229.746, 39.726
1230.966, 33.334
1232.186, 34.941
1233.406, 65.547
1234.625, 57.151
1235.845, 59.628
1237.064, 67.357
1238.283, 44.957
1239.502, 42.556
1240.721, 29.153
1241.939, 44.749
1243.157, 66.346
1244.376, 9.944
1245.594, 28.541
1246.811, 74.138
1248.029, 31.736
1249.247, 95.335
1250.464, 53.934
1251.681, 69.533
1252.898, 65.133
1254.115, 49.733
1255.331, 68.334
1256.548, 84.935
1257.764, 78.536
1258.980, 55.138
1260.196, 84.740
1261.411, 51.342
1262.627, 67.944
1263.842, 44.547
1265.057, 19.168
1266.272, 72.771
1267.487, 36.374
1268.702, 49.978
1269.916, 26.582
1271.130, 78.185
1272.344, 62.790
1273.558, 53.394
1274.772, 58.999
1275.986, 62.604
1277.199, 61.209
1278.412, 102.813
1279.625, 5.417
1280.838, 13.021
1282.051, 42.637
1283.263, 53.241
1284.475, 67.845
1285.687, 60.449
1286.899, 58.052
1288.111, 26.671
1289.323, 41.322
1290.534, 5.947
1291.745, 24.549
1292.957, 53.152
1294.167, 75.911
1295.378, 54.843
1296.589, 31.490
1297.799, 62.223
1299.009, 49.665
1300.219, 28.183
1301.429, 44.720
1302.639, 41.406
1303.848, 55.080
1305.057, 75.260
1306.267, 83.996
1307.476, 80.917
1308.684, 84.863
1309.893, 57.387
1311.101, 40.009
1312.310, 27.533
1313.518, 12.567
1314.725, 18.617
1315.933, 7.527
1317.141, 33.116
1318.348, 59.302
1319.555, 62.794
1320.762, 60.470
1321.969, 49.490
1323.176, 32.048
1324.382, 56.528
1325.589, 37.384
1326.795, 49.406
1328.001, 35.815
1329.206, 33.102
1330.412, 45.606
1331.617, 47.486
1332.823, 1.038
1334.028, 86.755
1335.233, 78.540
1336.437, 37.213
1337.642, 79.772
1338.846, 20.323
1340.051, 33.846
1341.255, 64.651
1342.458, 56.050
1343.662, 37.503
1344.866, 30.504
1346.069, 9.058
1347.272, 53.288
1348.475, 49.615
1349.678, 47.948
1350.880, 42.955
1352.083, 0.415
1353.285, 39.980
1354.487, 14.432
1355.689, 41.836
1356.891, 17.765
1358.093, 52.654
1359.294, 38.094
1360.495, 30.509
1361.696, 38.868
1362.897, 25.158
1364.098, 51.522
1365.298, 8.796
1366.499, 55.201
1367.699, 64.499
1368.899, 35.672
1370.099, 71.914
1371.298, 74.227
1372.498, 59.529
1373.697, 78.821
1374.896, 72.449
1376.095, 33.822
1377.294, 70.075
1378.493, 48.322
1379.691, 35.554
1380.889, 90.712
1382.087, 54.855
1383.285, 33.934
1384.483, 63.955
1385.681, 93.539
1386.878, 101.039
1388.075, 72.617
1389.272, 38.203
1390.469, 87.787
1391.666, 99.369
1392.862, 126.950
1394.059, 111.529
1395.255, 79.106
1396.451, 91.680
1397.647, 84.202
1398.842, 78.773
1400.038, 90.324
1401.233, 69.890
1402.428, 107.453
1403.623, 70.014
1404.818, 45.367
1406.013, 118.921
1407.207, 123.472
1408.401, 27.002
1409.595, 96.421
1410.789, 52.931
1411.983, 56.459
1413.177, 117.973
1414.370, 75.483
1415.563, 47.007
1416.756, 119.523
1417.949, 74.019
1419.142, 70.527
1420.335, 46.005
1421.527, 54.344
1422.719, 53.744
1423.911, 50.287
1425.103, 30.824
1426.295, 73.356
1427.486, 51.901
1428.677, 85.442
1429.869, 56.007
1431.060, 31.425
1432.250, 23.997
1433.441, 30.518
1434.632, 44.091
1435.822, 81.670
1437.012, 4.133
1438.202, 17.269
1439.392, 14.359
1440.581, 7.789
1441.771, 17.338
1442.960, 36.241
1444.149, 30.856
1445.338, 13.462
1446.527, 17.953
1447.715, 6.417
1448.904, 5.308
1450.092, 27.128
1451.280, 21.526
1452.468, 23.186
1453.656, 25.857
1454.843, 30.541
1456.031, 17.243
1457.218, 5.951
1458.405, 32.662
1459.592, 56.374
1460.778, 24.088
1461.965, 40.803
1463.151, 13.522
1464.337, 0.756
1465.523, 32.969
1466.709, 50.702
1467.895, 62.395
1469.080, 66.139
1470.266, 6.112
1471.451, 71.645
1472.636, 21.408
1473.821, 62.180
1475.005, 73.966
1476.190, 7.726
1477.374, 7.529
1478.558, 26.340
1479.742, 30.974
1480.926, 40.701
1482.109, 55.075
1483.293, 60.120
1484.476, 64.099
1485.659, 64.048
1486.842, 58.880
1488.025, 53.286
1489.207, 34.879
1490.390, 35.738
1491.572, 41.488
1492.754, 51.718
1493.936, 6.564
1495.118, 56.009
1496.299, 20.323
1497.481, 51.179
1498.662, 60.174
1499.843, 43.057
1501.024, 62.363
1502.205, 114.725
1503.385, 89.437
1504.565, 81.077
1505.746, 66.855
1506.926, 34.538
1508.106, 10.814
1509.285, 32.117
1510.465, 31.137
1511.644, 71.334
1512.823, 28.309
1514.002, 59.264
1515.181, 47.422
1516.360, 2.448
1517.538, 64.872
1518.717, 25.724
1519.895, 24.816
1521.073, 66.894
1522.251, 37.591
1523.428, 5.904
1524.606, 47.669
1525.783, 0.000
##END=



