##NAMES=Fluorite
##RRUFFID=R060548
##IDEAL CHEMISTRY=CaF_2_
##LOCALITY=unknown
##OWNER=RRUFF
##SOURCE=Gemological Institute of America
##DESCRIPTION=Pale blue fragment
##STATUS=The identification of this mineral has been confirmed by X-ray diffraction and chemical analysis
##URL=rruff.info/R060548
##MEASURED CHEMISTRY=Ca_1.00_F_2.00_
##PIN_ID=L01039
##ORIENTATION=Laser parallel to -a* (-1 0 0). Fiducial mark perpendicular to laser is parallel to b [0 1 0]
185.1460, 0.0000000E+00
186.3730, 71.87402
187.6000, 0.9082030
188.8270, 112.3184
190.0530, 139.5391
191.2800, 107.2959
192.5060, 327.6592
193.7320, 166.9990
194.9580, 292.5332
196.1830, 303.9072
197.4090, 237.7705
198.6340, 245.7715
199.8590, 393.2363
201.0840, 393.1084
202.3090, 421.2783
203.5340, 296.6719
204.7580, 305.2305
205.9820, 121.9072
207.2060, 49.66992
208.4300, 48.49414
209.6540, 16.31641
210.8780, 180.7236
212.1010, 36.38379
213.3240, 234.7939
214.5470, 232.5635
215.7700, 362.1562
216.9930, 409.7910
218.2150, 480.0566
219.4380, 499.3975
220.6600, 660.6621
221.8820, 859.8447
223.1040, 955.9473
224.3260, 1211.974
225.5470, 1151.928
226.7680, 1258.812
227.9900, 1124.629
229.2110, 1052.377
230.4310, 917.0596
231.6520, 888.6768
232.8720, 889.4131
234.0930, 944.3672
235.3130, 1044.223
236.5330, 974.8418
237.7530, 1150.072
238.9720, 1302.234
240.1920, 1328.020
241.4110, 1544.253
242.6300, 1676.523
243.8490, 1585.951
245.0680, 1500.812
246.2860, 1163.057
247.5040, 996.5645
248.7230, 918.2129
249.9410, 1061.960
251.1590, 891.6699
252.3760, 803.3262
253.5940, 932.8926
254.8110, 741.3643
256.0280, 874.7412
257.2450, 914.0215
258.4620, 1213.227
259.6790, 1983.405
260.8950, 2543.559
262.1120, 2193.688
263.3280, 2087.789
264.5440, 1825.862
265.7600, 1504.903
266.9750, 1088.910
268.1910, 779.8857
269.4060, 440.8281
270.6210, 531.7266
271.8360, 296.5605
273.0510, 247.3438
274.2650, 299.0977
275.4800, 216.8232
276.6940, 140.5254
277.9080, 235.2070
279.1220, 103.8633
280.3360, 77.57715
281.5490, 119.0869
282.7630, 44.34766
283.9760, 9.198242
285.1890, 10.27832
286.4020, 49.77441
287.6150, 6.276367
288.8270, 80.78320
290.0400, 7.699219
291.2520, 5.301758
292.4640, 57.92773
293.6760, 62.89551
294.8870, 17.65137
296.0990, 78.54492
297.3100, 127.1260
298.5210, 189.5938
299.7320, 173.8984
300.9430, 241.3975
302.1540, 275.3457
303.3640, 318.9941
304.5750, 394.0361
305.7850, 401.2510
306.9950, 474.5908
308.2050, 583.4668
309.4140, 768.3770
310.6240, 894.6084
311.8330, 959.3184
313.0420, 1443.699
314.2510, 1606.743
315.4600, 2087.168
316.6680, 2652.260
317.8770, 3146.081
319.0850, 4026.939
320.2930, 4656.061
321.5010, 5281.403
322.7090, 5352.389
323.9160, 4739.316
325.1240, 4120.195
326.3310, 3509.040
327.5380, 2937.822
328.7450, 2492.408
329.9520, 2057.250
331.1580, 1761.942
332.3650, 1515.624
333.5710, 1339.278
334.7770, 1181.305
335.9830, 1130.191
337.1880, 1025.183
338.3940, 1110.727
339.5990, 1162.226
340.8040, 1137.688
342.0090, 1109.115
343.2140, 1137.434
344.4190, 1114.603
345.6230, 1140.760
346.8280, 1068.899
348.0320, 1202.025
349.2360, 1240.133
350.4400, 1288.222
351.6430, 1225.291
352.8470, 1234.342
354.0500, 1268.368
355.2530, 1300.773
356.4560, 1240.756
357.6590, 1354.883
358.8620, 1298.803
360.0640, 1263.693
361.2660, 1314.555
362.4680, 1225.387
363.6700, 1375.339
364.8720, 1167.300
366.0740, 1073.376
367.2750, 1117.482
368.4760, 1106.688
369.6770, 1049.681
370.8780, 1063.578
372.0790, 1117.231
373.2800, 955.9775
374.4800, 788.5225
375.6800, 909.4619
376.8800, 777.9521
378.0800, 878.4268
379.2800, 680.9414
380.4790, 865.8613
381.6790, 747.0098
382.8780, 742.8789
384.0770, 781.5566
385.2760, 629.3613
386.4750, 765.6182
387.6730, 799.3457
388.8720, 832.2969
390.0700, 778.2432
391.2680, 781.3770
392.4660, 693.2881
393.6630, 794.8594
394.8610, 664.1748
396.0580, 536.7197
397.2550, 613.9268
398.4520, 660.8926
399.6490, 399.5879
400.8460, 371.1514
402.0420, 442.9961
403.2390, 306.5977
404.4350, 227.7744
405.6310, 231.1416
406.8270, 150.9141
408.0220, 177.5479
409.2180, 116.3262
410.4130, 82.91895
411.6080, 238.9092
412.8030, 138.5547
413.9980, 15.35254
415.1920, 95.63477
416.3870, 0.8398440
417.5810, 154.9414
418.7750, 68.20312
419.9690, 37.53711
421.1630, 35.02441
422.3570, 82.25488
423.5500, 57.09277
424.7430, 77.80664
425.9360, 92.63379
427.1290, 55.58594
428.3220, 40.94531
429.5150, 24.66016
430.7070, 138.2920
431.8990, 33.70703
433.0910, 30.90625
434.2830, 203.7881
435.4750, 156.0889
436.6670, 91.49609
437.8580, 74.54199
439.0490, 356.6523
440.2400, 118.1875
441.4310, 200.0098
442.6220, 84.13770
443.8130, 170.9229
445.0030, 252.9209
446.1930, 242.0361
447.3830, 54.88867
448.5730, 329.9404
449.7630, 235.5967
450.9520, 283.3037
452.1420, 388.9951
453.3310, 331.4365
454.5200, 301.8281
455.7090, 306.1758
456.8980, 456.4561
458.0860, 448.6943
459.2740, 454.9180
460.4630, 389.0791
461.6510, 486.2041
462.8380, 346.3018
464.0260, 334.3750
465.2140, 467.9297
466.4010, 454.0156
467.5880, 506.6357
468.7750, 494.7041
469.9620, 529.6221
471.1490, 522.2568
472.3350, 572.7324
473.5220, 550.8203
474.7080, 528.3906
475.8940, 526.4424
477.0800, 446.4678
478.2650, 575.4600
479.4510, 457.4521
480.6360, 573.4053
481.8210, 477.3184
483.0060, 550.1885
484.1910, 591.0186
485.3760, 637.8076
486.5600, 645.5781
487.7440, 725.3184
488.9290, 709.0234
490.1130, 805.7334
491.2960, 737.4121
492.4800, 765.0635
493.6630, 565.6777
494.8470, 589.2910
496.0300, 615.8994
497.2130, 547.4678
498.3960, 572.0039
499.5780, 567.4980
500.7610, 501.8428
501.9430, 482.3877
503.1250, 380.7705
504.3070, 379.1709
505.4890, 307.4102
506.6710, 298.6660
507.8520, 264.4092
509.0330, 250.3379
510.2140, 220.1709
511.3950, 264.2480
512.5760, 280.2793
513.7570, 332.2666
514.9370, 303.4219
516.1170, 354.1143
517.2980, 243.9736
518.4780, 354.7871
519.6570, 340.5586
520.8370, 313.2881
522.0160, 203.9727
523.1960, 128.6123
524.3750, 171.2002
525.5540, 208.7422
526.7320, 170.2363
527.9110, 86.68262
529.0890, 33.07812
530.2680, 117.4170
531.4460, 11.70508
532.6240, 88.93652
533.8010, 345.1143
534.9790, 29.74902
536.1560, 153.6895
537.3340, 169.2295
538.5110, 61.10156
539.6880, 102.0820
540.8650, 98.37793
542.0410, 128.7871
543.2180, 38.32324
544.3940, 82.93945
545.5700, 41.28418
546.7460, 23.11719
547.9220, 78.90332
549.0970, 0.2958980
550.2730, 68.73340
551.4480, 1.161133
552.6230, 13.40430
553.7980, 41.91016
554.9730, 10.93066
556.1470, 29.20898
557.3210, 61.30566
558.4960, 91.22949
559.6700, 25.00781
560.8440, 163.4941
562.0170, 47.21875
563.1910, 127.6934
564.3640, 172.1582
565.5380, 192.9707
566.7110, 129.6357
567.8840, 7.649414
569.0560, 227.3311
570.2290, 290.7930
571.4010, 168.7559
572.5740, 159.6572
573.7460, 184.9707
574.9180, 253.2871
576.0890, 136.7168
577.2610, 183.9102
578.4320, 313.6836
579.6040, 138.5898
580.7750, 125.4229
581.9450, 91.30469
583.1160, 269.4893
584.2870, 99.01562
585.4570, 341.0039
586.6270, 229.3027
587.7980, 290.5215
588.9670, 195.6650
590.1370, 276.1846
591.3070, 243.2783
592.4760, 230.5400
593.6450, 264.9980
594.8140, 338.3984
595.9830, 340.6436
597.1520, 293.2090
598.3210, 294.5469
599.4890, 254.9150
600.6570, 417.4336
601.8250, 311.5752
602.9930, 465.9004
604.1610, 439.0762
605.3290, 154.7539
606.4960, 262.0908
607.6630, 135.3242
608.8300, 304.0107
609.9970, 191.0703
611.1640, 290.7783
612.3300, 201.5596
613.4970, 350.7676
614.6630, 199.8428
615.8290, 379.8359
616.9950, 804.8301
618.1610, 1333.799
619.3260, 906.3096
620.4920, 909.7500
621.6570, 1110.563
622.8220, 1398.342
623.9870, 1804.085
625.1520, 1932.897
626.3160, 2005.453
627.4810, 1875.963
628.6450, 1702.979
629.8090, 1322.496
630.9730, 1171.635
632.1370, 890.2939
633.3000, 734.3545
634.4640, 638.6641
635.6270, 517.8730
636.7900, 440.4521
637.9530, 436.1016
639.1160, 395.3691
640.2780, 387.5967
641.4410, 645.7861
642.6030, 733.9385
643.7650, 838.0537
644.9270, 985.1299
646.0890, 991.0186
647.2500, 1502.832
648.4120, 1287.883
649.5730, 1471.998
650.7340, 1133.368
651.8950, 1093.885
653.0560, 1131.430
654.2160, 1086.154
655.3770, 932.7207
656.5370, 645.4209
657.6970, 535.6631
658.8570, 326.2881
660.0170, 498.8604
661.1760, 386.2793
662.3360, 451.2041
663.4950, 529.7764
664.6540, 634.4893
665.8130, 744.3232
666.9720, 843.9580
668.1310, 917.0762
669.2890, 716.6621
670.4470, 753.9629
671.6050, 663.2070
672.7630, 498.1963
673.9210, 601.3428
675.0790, 311.7607
676.2360, 375.3662
677.3930, 341.6729
678.5510, 296.2510
679.7080, 530.0039
680.8640, 561.9590
682.0210, 773.9805
683.1770, 888.6543
684.3340, 987.5068
685.4900, 1161.717
686.6460, 1362.672
687.8020, 1602.154
688.9570, 1810.711
690.1130, 1832.057
691.2680, 1987.521
692.4230, 1961.524
693.5780, 1850.807
694.7330, 1793.871
695.8880, 1848.930
697.0420, 1590.082
698.1960, 1453.479
699.3510, 1591.227
700.5040, 1628.022
701.6580, 1575.058
702.8120, 1611.695
703.9650, 1747.551
705.1190, 1824.479
706.2720, 1931.208
707.4250, 1792.040
708.5780, 1859.286
709.7300, 1815.910
710.8830, 1826.138
712.0350, 1862.464
713.1870, 1706.977
714.3390, 1666.871
715.4910, 1422.378
716.6430, 1249.139
717.7940, 1229.391
718.9460, 914.1621
720.0970, 897.9199
721.2480, 658.6396
722.3990, 710.1660
723.5500, 782.0400
724.7000, 665.9053
725.8500, 725.1465
727.0010, 614.7725
728.1510, 429.0684
729.3010, 422.6426
730.4500, 515.0859
731.6000, 369.4512
732.7490, 386.9346
733.8980, 398.3906
735.0470, 109.8174
736.1960, 253.2119
737.3450, 171.5742
738.4940, 127.8789
739.6420, 66.17773
740.7900, 12.43652
741.9380, 17.64453
743.0860, 108.1973
744.2340, 12.37109
745.3810, 36.66602
746.5290, 139.3271
747.6760, 33.54980
748.8230, 171.2412
749.9700, 22.71387
751.1170, 120.6133
752.2630, 109.3525
753.4100, 173.7207
754.5560, 9.801758
755.7020, 43.68066
756.8480, 77.24316
757.9940, 115.7236
759.1390, 358.6504
760.2850, 531.5449
761.4300, 200.4082
762.5750, 168.2363
763.7200, 14.96875
764.8650, 48.74707
766.0100, 105.4102
767.1540, 102.9668
768.2980, 64.53027
769.4420, 15.97852
770.5860, 113.3633
771.7300, 76.29102
772.8740, 59.05762
774.0170, 136.0713
775.1610, 127.1650
776.3040, 271.2227
777.4470, 275.2471
778.5900, 401.2402
779.7320, 387.2012
780.8750, 482.1289
782.0170, 422.0254
783.1590, 573.8906
784.3010, 419.7246
785.4430, 1197.528
786.5850, 853.6709
787.7260, 860.6650
788.8680, 728.7598
790.0090, 571.4453
791.1500, 774.0996
792.2910, 878.7227
793.4310, 977.3164
794.5720, 892.8789
795.7120, 1204.412
796.8520, 1221.916
797.9920, 1417.389
799.1320, 1195.832
800.2720, 1419.248
801.4120, 1377.637
802.5510, 1664.998
803.6900, 1732.333
804.8290, 1874.643
805.9680, 1741.927
807.1070, 2075.188
808.2450, 1914.425
809.3840, 2123.641
810.5220, 2107.834
811.6600, 2198.997
812.7980, 2288.149
813.9360, 2262.293
815.0730, 2134.472
816.2110, 2296.597
817.3480, 2169.730
818.4850, 2274.871
819.6220, 2388.027
820.7590, 2357.174
821.8960, 2304.326
823.0320, 2388.455
824.1680, 2463.567
825.3040, 2406.657
826.4400, 2889.730
827.5760, 2655.783
828.7120, 2913.818
829.8470, 3405.840
830.9830, 3825.855
832.1180, 4663.854
833.2530, 5578.844
834.3880, 6261.816
835.5220, 7049.766
836.6570, 7066.696
837.7910, 6977.605
838.9250, 6578.496
840.0590, 6755.363
841.1930, 6629.284
842.3270, 7152.112
843.4600, 6847.416
844.5940, 6549.162
845.7270, 6351.245
846.8600, 6108.241
847.9930, 6189.859
849.1250, 6050.500
850.2580, 6200.971
851.3900, 5958.034
852.5230, 6010.000
853.6550, 5343.781
854.7870, 4877.869
855.9180, 4234.156
857.0500, 3919.303
858.1810, 3678.575
859.3130, 3223.312
860.4440, 3214.529
861.5750, 3157.647
862.7050, 2779.072
863.8360, 2290.290
864.9660, 1968.437
866.0970, 1891.539
867.2270, 1431.600
868.3570, 1272.619
869.4870, 985.5967
870.6160, 1013.532
871.7460, 896.0967
872.8750, 794.9502
874.0040, 659.7031
875.1330, 869.2344
876.2620, 755.0762
877.3910, 787.6621
878.5190, 957.3281
879.6470, 743.4082
880.7760, 869.7725
881.9040, 612.1729
883.0310, 482.0498
884.1590, 473.4854
885.2870, 419.2041
886.4140, 217.1719
887.5410, 87.85059
888.6680, 138.9482
889.7950, 43.03613
890.9220, 151.0098
892.0480, 375.9219
893.1750, 415.2285
894.3010, 527.5381
895.4270, 762.4121
896.5530, 709.2578
897.6790, 909.0762
898.8040, 1020.764
899.9300, 929.6426
901.0550, 911.3789
902.1800, 816.3340
903.3050, 934.5400
904.4300, 1698.592
905.5540, 2302.065
906.6790, 3711.077
907.8030, 5467.782
908.9270, 8804.530
910.0510, 13296.85
911.1750, 17730.04
912.2990, 19594.56
913.4220, 17708.06
914.5450, 14023.54
915.6690, 10586.01
916.7920, 8764.457
917.9140, 8545.891
919.0370, 9645.309
920.1600, 11668.71
921.2820, 14058.10
922.4040, 15304.47
923.5260, 15306.83
924.6480, 15307.18
925.7700, 17344.51
926.8910, 20006.83
928.0130, 20877.14
929.1340, 19063.44
930.2550, 16223.73
931.3760, 13647.01
932.4970, 11933.28
933.6170, 10732.55
934.7380, 10406.80
935.8580, 11839.05
936.9780, 13706.29
938.0980, 14500.53
939.2180, 12649.76
940.3370, 10339.98
941.4570, 8799.211
942.5760, 8869.432
943.6950, 10811.66
944.8140, 14874.88
945.9330, 22081.11
947.0520, 30305.34
948.1700, 34910.57
949.2890, 32347.80
950.4070, 24987.02
951.5250, 16938.26
952.6430, 11045.48
953.7600, 6871.717
954.8780, 4606.949
955.9950, 3122.180
957.1120, 2425.416
958.2290, 1890.654
959.3460, 1649.896
960.4630, 1518.141
961.5800, 1461.391
962.6960, 1413.645
963.8120, 1498.906
964.9280, 1390.172
966.0440, 1365.445
967.1600, 1212.727
968.2760, 1073.016
969.3910, 995.3125
970.5060, 640.6172
971.6210, 439.9316
972.7360, 271.2578
973.8510, 278.5938
974.9660, 149.9395
976.0800, 55.70312
977.1950, 195.4121
978.3090, 224.2480
979.4230, 438.2246
980.5370, 371.4414
981.6500, 229.8691
982.7640, 320.4316
983.8770, 389.1758
984.9900, 424.1270
986.1030, 262.3066
987.2160, 319.9492
988.3290, 346.1152
989.4420, 209.7969
990.5540, 457.5840
991.6660, 290.6055
992.7780, 284.7695
993.8900, 224.0762
995.0020, 12.49414
996.1140, 0.9277340
997.2250, 94.62695
998.3360, 668.2070
999.4470, 955.8125
1000.558, 1504.449
1001.669, 2227.109
1002.780, 2379.805
1003.890, 2372.529
1005.001, 1678.283
1006.111, 1366.072
1007.221, 1111.895
1008.331, 801.7520
1009.440, 795.6445
1010.550, 1114.578
1011.659, 1092.561
1012.768, 1101.586
1013.877, 1283.695
1014.986, 1478.852
1016.095, 1597.072
1017.204, 1719.383
1018.312, 2019.762
1019.420, 2175.240
1020.528, 2436.758
1021.636, 2683.480
1022.744, 2893.887
1023.852, 3014.777
1024.959, 3003.875
1026.066, 3433.785
1027.173, 3149.791
1028.280, 3238.857
1029.387, 3456.984
1030.494, 3169.172
1031.600, 3418.424
1032.707, 3244.746
1033.813, 3190.156
1034.919, 3085.648
1036.025, 3121.215
1037.130, 3203.902
1038.236, 2937.670
1039.341, 3144.529
1040.446, 2982.467
1041.552, 3065.521
1042.656, 3004.689
1043.761, 3021.934
1044.866, 2975.262
1045.970, 3145.668
1047.074, 3193.154
1048.179, 3193.725
1049.282, 3148.373
1050.386, 3229.105
1051.490, 3177.922
1052.593, 3001.820
1053.697, 2998.807
1054.800, 2871.875
1055.903, 2738.033
1057.006, 2713.277
1058.108, 2681.605
1059.211, 2607.744
1060.313, 2564.531
1061.415, 2513.125
1062.517, 2283.812
1063.619, 2216.590
1064.721, 2106.631
1065.823, 1975.590
1066.924, 1903.643
1068.025, 2062.865
1069.126, 1859.102
1070.227, 2001.436
1071.328, 1729.863
1072.429, 1999.488
1073.529, 1912.105
1074.629, 1763.951
1075.729, 1926.705
1076.829, 1880.615
1077.929, 1953.451
1079.029, 1898.975
1080.128, 1850.426
1081.228, 1683.164
1082.327, 1690.689
1083.426, 1833.074
1084.525, 1644.682
1085.623, 1574.389
1086.722, 1566.199
1087.820, 1277.109
1088.919, 973.1250
1090.017, 1135.242
1091.115, 816.4668
1092.212, 941.7949
1093.310, 629.2266
1094.407, 707.7656
1095.505, 472.4102
1096.602, 504.1602
1097.699, 341.0195
1098.795, 228.9863
1099.892, 404.0605
1100.989, 362.2441
1102.085, 221.5371
1103.181, 217.9395
1104.277, 52.45117
1105.373, 105.0742
1106.469, 279.8086
1107.564, 178.5801
1108.660, 355.5293
1109.755, 237.0957
1110.850, 270.3125
1111.945, 244.2832
1113.040, 322.4316
1114.134, 366.0449
1115.229, 461.7324
1116.323, 398.6797
1117.417, 303.8770
1118.511, 566.7637
1119.605, 659.6777
1120.698, 785.3770
1121.792, 1041.973
1122.885, 997.8027
1123.978, 1228.602
1125.071, 1318.031
1126.164, 1423.076
1127.257, 1638.314
1128.349, 1796.344
1129.442, 1405.670
1130.534, 1602.168
1131.626, 1699.805
1132.718, 1842.578
1133.810, 1919.492
1134.901, 2137.195
1135.993, 2354.734
1137.084, 2492.062
1138.175, 2808.531
1139.266, 2821.137
1140.357, 3305.885
1141.448, 3466.768
1142.538, 3398.793
1143.628, 3580.955
1144.719, 3679.254
1145.809, 3760.691
1146.898, 3916.252
1147.988, 3967.287
1149.078, 4060.668
1150.167, 4064.969
1151.256, 4182.270
1152.345, 4148.857
1153.434, 4154.805
1154.523, 4048.133
1155.612, 3846.891
1156.700, 3726.061
1157.788, 3633.609
1158.877, 3857.635
1159.964, 3733.072
1161.052, 3760.963
1162.140, 3681.324
1163.227, 3581.078
1164.315, 3654.270
1165.402, 3553.844
1166.489, 3426.781
1167.576, 3193.982
1168.663, 3440.385
1169.749, 3271.959
1170.836, 3030.676
1171.922, 3135.529
1173.008, 2891.516
1174.094, 2856.633
1175.180, 2844.889
1176.265, 2298.289
1177.351, 2248.844
1178.436, 1923.562
1179.521, 1622.451
1180.606, 1732.490
1181.691, 1356.684
1182.776, 1251.018
1183.860, 1220.484
1184.944, 953.0762
1186.029, 863.7910
1187.113, 736.6289
1188.197, 729.5918
1189.280, 589.8711
1190.364, 437.8789
1191.447, 372.2031
1192.531, 294.6504
1193.614, 191.2188
1194.697, 20.09375
1195.779, 186.7129
1196.862, 67.63672
1197.945, 2.683594
1199.027, 120.8438
1200.109, 183.1270
1201.191, 60.52734
1202.273, 112.9551
1203.355, 186.6680
1204.436, 9.589844
1205.518, 169.7344
1206.599, 33.21875
1207.680, 90.71289
1208.761, 49.53906
1209.842, 29.25391
1210.922, 51.85742
1212.003, 38.64648
1213.083, 194.2676
1214.163, 393.9980
1215.243, 258.8457
1216.323, 620.8066
1217.402, 380.8770
1218.482, 269.0586
1219.561, 415.3555
1220.641, 539.7617
1221.720, 351.2773
1222.798, 545.9023
1223.877, 673.6387
1224.956, 704.4824
1226.034, 835.4355
1227.112, 843.4961
1228.191, 887.6660
1229.269, 895.9414
1230.346, 1128.320
1231.424, 1074.809
1232.501, 1358.400
1233.579, 1561.096
1234.656, 1562.895
1235.733, 1755.793
1236.810, 1842.783
1237.886, 2052.867
1238.963, 2134.967
1240.039, 2301.432
1241.116, 2333.939
1242.192, 2524.646
1243.268, 2665.537
1244.343, 2818.570
1245.419, 2947.768
1246.494, 3081.146
1247.570, 3307.711
1248.645, 3634.418
1249.720, 3705.281
1250.795, 4033.307
1251.869, 3868.457
1252.944, 3987.791
1254.018, 4034.264
1255.093, 4228.875
1256.167, 4462.605
1257.240, 4487.412
1258.314, 4629.287
1259.388, 4537.211
1260.461, 4548.184
1261.535, 4580.205
1262.608, 4694.270
1263.681, 4419.377
1264.753, 4892.525
1265.826, 4558.715
1266.899, 4861.945
1267.971, 4879.211
1269.043, 4881.510
1270.115, 4935.848
1271.187, 5061.213
1272.259, 5020.609
1273.330, 5175.031
1274.402, 5102.480
1275.473, 5092.951
1276.544, 5031.875
1277.615, 5009.256
1278.686, 5061.797
1279.756, 4943.395
1280.827, 5040.172
1281.897, 4965.799
1282.967, 5108.236
1284.037, 5115.629
1285.107, 5447.746
1286.177, 5674.889
1287.247, 5936.545
1288.316, 6133.791
1289.385, 6379.164
1290.454, 6582.049
1291.523, 6965.840
1292.592, 7248.090
1293.661, 7168.541
1294.729, 7630.521
1295.797, 7562.461
1296.866, 7161.545
1297.934, 7403.135
1299.001, 7109.377
1300.069, 6737.195
1301.137, 6673.543
1302.204, 6364.434
1303.271, 6505.223
1304.338, 6449.094
1305.405, 6054.740
1306.472, 6086.521
1307.539, 5980.986
1308.605, 6102.461
1309.671, 5958.207
1310.737, 5945.875
1311.803, 5901.615
1312.869, 5813.512
1313.935, 5894.977
1315.000, 6050.354
1316.066, 5977.750
1317.131, 6001.160
1318.196, 5965.588
1319.261, 5979.033
1320.326, 5784.494
1321.390, 5833.967
1322.455, 5654.451
1323.519, 5479.773
1324.583, 5374.279
1325.647, 5146.660
1326.711, 4977.234
1327.775, 4705.764
1328.838, 4366.299
1329.902, 4077.838
1330.965, 4117.277
1332.028, 3830.820
1333.091, 3814.232
1334.153, 3660.834
1335.216, 3649.375
1336.279, 3666.371
1337.341, 3362.199
1338.403, 3903.479
1339.465, 4076.559
1340.527, 4518.068
1341.588, 2890.570
1342.650, 2837.055
1343.711, 3118.531
1344.772, 2849.996
1345.834, 2994.445
1346.894, 3077.881
1347.955, 3076.303
1349.016, 3071.707
1350.076, 3398.096
1351.136, 3605.156
1352.197, 3934.822
1353.257, 4487.156
1354.316, 5404.473
1355.376, 6259.766
1356.436, 7883.041
