##NAMES=Fluorite
##RRUFFID=R050046
##IDEAL CHEMISTRY=CaF_2_
##LOCALITY=Shangbao, Lei Yang, Hunan Province, China
##OWNER=RRUFF
##SOURCE=Eugene Schlepp
##DESCRIPTION=Pale purple crystal
##STATUS=The identification of this mineral has been confirmed by X-ray diffraction and chemical analysis
##URL=rruff.info/R050046
##MEASURED CHEMISTRY=Ca_1.000_ F_2.000_
##PIN_ID=L01404
##ORIENTATION=Laser parallel to c* (0 0 1). Fiducial mark perpendicular to laser is parallel to b [0 1 0]
168.1040, 0.0000000E+00
169.3320, 4.714844
170.5590, 37.38086
171.7860, 42.74414
173.0130, 61.09277
174.2400, 52.25488
175.4670, 12.07715
176.6930, 115.8594
177.9200, 52.87402
179.1460, 61.81543
180.3720, 213.5596
181.5980, 20.00684
182.8230, 182.0947
184.0490, 139.7529
185.2740, 202.9189
186.5000, 217.5420
187.7250, 8.577148
188.9500, 160.9922
190.1740, 46.74609
191.3990, 303.8154
192.6230, 106.1699
193.8480, 335.7881
195.0720, 300.7236
196.2960, 429.9336
197.5200, 376.3955
198.7430, 414.0439
199.9670, 604.8750
201.1900, 424.8818
202.4130, 575.0537
203.6360, 428.3857
204.8590, 478.8730
206.0820, 247.5049
207.3050, 134.2686
208.5270, 136.1533
209.7490, 63.25293
210.9710, 147.2598
212.1930, 88.46973
213.4150, 262.7764
214.6370, 282.1768
215.8580, 236.6670
217.0790, 206.2461
218.3010, 281.9062
219.5210, 316.6475
220.7420, 252.8740
221.9630, 265.7383
223.1830, 332.7373
224.4040, 375.0352
225.6240, 470.0996
226.8440, 340.2500
228.0640, 246.5020
229.2840, 335.8359
230.5030, 199.2559
231.7230, 171.7578
232.9420, 282.3379
234.1610, 279.9961
235.3800, 311.7246
236.5990, 392.5195
237.8170, 305.3809
239.0360, 233.3105
240.2540, 454.3105
241.4720, 383.3633
242.6900, 269.4238
243.9080, 462.4922
245.1250, 277.5605
246.3430, 466.6387
247.5600, 165.7344
248.7770, 240.8516
249.9940, 117.9941
251.2110, 410.1641
252.4280, 150.3594
253.6450, 170.5840
254.8610, 326.8340
256.0770, 286.1191
257.2930, 365.4297
258.5090, 1077.773
259.7250, 1158.145
260.9400, 682.5469
262.1560, 306.9785
263.3710, 49.43945
264.5860, 157.9297
265.8010, 71.45117
267.0160, 55.00586
268.2310, 22.59180
269.4450, 100.2051
270.6600, 48.84766
271.8740, 104.5176
273.0880, 41.78320
274.3020, 105.9492
275.5150, 223.7168
276.7290, 99.67773
277.9420, 2.300781
279.1550, 59.19141
280.3680, 47.96289
281.5810, 53.14062
282.7940, 178.3945
284.0070, 147.6738
285.2190, 263.0176
286.4310, 258.9082
287.6430, 229.5977
288.8550, 236.1406
290.0670, 276.6992
291.2790, 217.3496
292.4900, 463.0391
293.7020, 414.7422
294.9130, 431.4570
296.1240, 567.1836
297.3350, 500.0391
298.5450, 615.7676
299.7560, 355.5039
300.9660, 530.2500
302.1760, 596.0000
303.3860, 466.7656
304.5960, 622.5547
305.8060, 674.3594
307.0150, 948.2012
308.2250, 1164.160
309.4340, 1350.145
310.6430, 1447.213
311.8520, 2012.281
313.0610, 2479.363
314.2700, 2562.223
315.4780, 3344.777
316.6860, 3665.398
317.8940, 4235.783
319.1020, 4658.355
320.3100, 4858.023
321.5180, 4504.650
322.7250, 4269.461
323.9330, 3711.334
325.1400, 3090.262
326.3470, 2500.246
327.5540, 2115.277
328.7600, 1691.359
329.9670, 1437.484
331.1730, 1047.654
332.3800, 996.8633
333.5860, 1052.105
334.7920, 745.3848
335.9970, 731.6992
337.2030, 619.0410
338.4080, 683.4180
339.6140, 522.8242
340.8190, 588.2559
342.0240, 521.7148
343.2290, 754.2012
344.4330, 709.7090
345.6380, 428.2422
346.8420, 632.7969
348.0460, 478.3770
349.2500, 453.9727
350.4540, 362.5918
351.6580, 330.9531
352.8610, 835.8906
354.0650, 435.5684
355.2680, 403.2637
356.4710, 737.9766
357.6740, 452.7090
358.8760, 623.4551
360.0790, 246.2188
361.2810, 441.9980
362.4840, 638.7969
363.6860, 489.6094
364.8880, 541.8770
366.0900, 472.7148
367.2910, 587.5645
368.4930, 602.4277
369.6940, 506.2930
370.8950, 575.5527
372.0960, 433.0645
373.2970, 576.9668
374.4980, 315.0723
375.6980, 289.1621
376.8980, 345.0996
378.0990, 157.1504
379.2990, 250.4883
380.4980, 306.4590
381.6980, 323.4648
382.8980, 119.2773
384.0970, 340.0098
385.2960, 265.0117
386.4950, 125.8672
387.6940, 382.5645
388.8930, 328.1582
390.0920, 203.1934
391.2900, 134.2305
392.4880, 281.9551
393.6860, 307.2344
394.8840, 331.1133
396.0820, 339.2559
397.2800, 210.7246
398.4770, 52.95312
399.6750, 211.6152
400.8720, 164.6250
402.0690, 193.9023
403.2660, 34.26562
404.4620, 117.1094
405.6590, 177.2969
406.8550, 65.69141
408.0510, 158.7793
409.2480, 30.87109
410.4430, 34.25195
411.6390, 150.5762
412.8350, 184.0117
414.0300, 134.7441
415.2250, 392.8516
416.4200, 134.3535
417.6150, 165.5332
418.8100, 285.1270
420.0050, 73.38281
421.1990, 176.6504
422.3940, 78.86523
423.5880, 105.1016
424.7820, 10.82031
425.9750, 215.2539
427.1690, 206.3223
428.3630, 182.5117
429.5560, 238.5723
430.7490, 656.2266
431.9420, 1107.271
433.1350, 760.3145
434.3280, 767.4258
435.5200, 208.1250
436.7130, 356.9941
437.9050, 266.0078
439.0970, 283.4121
440.2890, 207.6719
441.4810, 390.6641
442.6720, 424.0820
443.8640, 460.7207
445.0550, 449.8594
446.2460, 566.8203
447.4370, 325.6172
448.6280, 501.7305
449.8180, 479.1895
451.0090, 203.3789
452.1990, 468.2949
453.3890, 566.2480
454.5790, 461.8730
455.7690, 413.9648
456.9590, 344.8379
458.1480, 571.0312
459.3380, 385.5977
460.5270, 387.4551
461.7160, 414.3105
462.9050, 304.3633
464.0940, 398.2090
465.2820, 327.2656
466.4700, 274.1016
467.6590, 220.9316
468.8470, 248.4590
470.0350, 449.2949
471.2220, 293.1250
472.4100, 400.2227
473.5970, 253.0410
474.7850, 567.8555
475.9720, 411.6582
477.1590, 511.4512
478.3460, 413.2363
479.5320, 596.0625
480.7190, 398.8848
481.9050, 630.6953
483.0910, 497.5312
484.2770, 662.3672
485.4630, 889.1914
486.6490, 769.0059
487.8340, 862.8125
489.0200, 762.6074
490.2050, 842.3926
491.3900, 1019.168
492.5750, 847.9375
493.7600, 673.7930
494.9440, 787.6445
496.1290, 678.5156
497.3130, 511.3730
498.4970, 380.2207
499.6810, 438.0547
500.8650, 630.8770
502.0480, 449.6855
503.2320, 413.4805
504.4150, 455.8613
505.5980, 298.6289
506.7810, 26.84570
507.9640, 196.5840
509.1460, 164.3066
510.3290, 353.0137
511.5110, 190.7188
512.6930, 214.3965
513.8750, 159.0605
515.0570, 400.7207
516.2390, 76.36523
517.4210, 84.01172
518.6020, 225.6230
519.7830, 101.9316
520.9640, 53.50977
522.1450, 164.1641
523.3260, 1.289063
524.5060, 210.7695
525.6870, 19.61719
526.8670, 226.9766
528.0470, 81.67969
529.2270, 28.59766
530.4070, 60.15039
531.5870, 238.4688
532.7660, 164.6426
533.9450, 34.82617
535.1240, 91.95703
536.3030, 60.93359
537.4820, 129.1172
538.6610, 73.14453
539.8390, 113.1523
541.0180, 38.86328
542.1960, 11.92969
543.3740, 127.0332
544.5520, 40.76172
545.7290, 3.033203
546.9070, 14.77148
548.0840, 15.52148
549.2620, 214.1426
550.4390, 229.7871
551.6160, 99.41211
552.7920, 59.99023
553.9690, 71.45508
555.1450, 170.0039
556.3220, 161.4414
557.4980, 89.85742
558.6740, 68.25000
559.8490, 80.61523
561.0250, 127.9551
562.2000, 124.5742
563.3760, 132.5664
564.5510, 160.8359
565.7260, 196.0859
566.9010, 212.1973
568.0750, 178.4043
569.2500, 142.5859
570.4240, 216.7461
571.5980, 77.88281
572.7720, 229.9922
573.9460, 211.0762
575.1200, 156.1387
576.2930, 74.17578
577.4670, 61.18359
578.6400, 203.1641
579.8130, 3.878906
580.9860, 125.0586
582.1590, 279.9727
583.3310, 3.099609
584.5040, 6.179688
585.6760, 141.3125
586.8480, 208.4512
588.0200, 7.773438
589.1920, 140.9785
590.3630, 113.2949
591.5350, 131.3262
592.7060, 187.9199
593.8770, 170.4883
595.0480, 83.03516
596.2190, 5.548828
597.3900, 186.0176
598.5600, 43.46094
599.7310, 49.13086
600.9010, 324.2031
602.0710, 238.5137
603.2410, 8.201172
604.4100, 273.0293
605.5800, 54.46484
606.7490, 335.6348
607.9190, 201.9590
609.0880, 95.77539
610.2570, 344.8594
611.4250, 307.1172
612.5940, 58.77148
613.7620, 190.7695
614.9310, 212.7422
616.0990, 246.7148
617.2670, 330.9414
618.4340, 423.8359
619.6020, 400.9785
620.7690, 644.7402
621.9370, 472.7109
623.1040, 709.0781
624.2710, 659.7695
625.4380, 396.7930
626.6040, 536.8594
627.7710, 587.2480
628.9370, 446.3281
630.1030, 480.3750
631.2690, 309.3984
632.4350, 507.7383
633.6010, 347.1230
634.7660, 448.9199
635.9320, 320.9258
637.0970, 267.0371
638.2620, 380.8750
639.4270, 380.6855
640.5920, 276.4727
641.7560, 355.2188
642.9210, 251.9355
644.0850, 168.6191
645.2490, 300.2676
646.4130, 180.8828
647.5770, 329.0273
648.7400, 355.5762
649.9040, 254.0938
651.0670, 236.5762
652.2300, 323.0293
653.3930, 269.9512
654.5560, 242.7109
655.7190, 299.0684
656.8810, 237.2031
658.0440, 262.3281
659.2060, 166.6797
660.3680, 490.7949
661.5300, 140.7793
662.6910, 520.9277
663.8530, 340.0195
665.0140, 469.2754
666.1750, 452.5918
667.3360, 296.6113
668.4970, 523.7539
669.6580, 419.0312
670.8190, 105.3809
671.9790, 571.2617
673.1390, 220.1133
674.2990, 520.2539
675.4590, 376.8105
676.6190, 534.7441
677.7790, 443.3867
678.9380, 442.6797
680.0970, 472.1816
681.2570, 542.2266
682.4160, 523.1836
683.5740, 579.8223
684.7330, 522.0664
685.8920, 649.2910
687.0500, 668.1523
688.2080, 655.8223
689.3660, 938.2500
690.5240, 898.6445
691.6820, 1022.725
692.8390, 954.8320
693.9960, 934.1562
695.1540, 924.4375
696.3110, 1015.678
697.4680, 1022.488
698.6240, 1326.082
699.7810, 1043.746
700.9370, 874.7207
702.0940, 1194.648
703.2500, 1068.576
704.4060, 1341.594
705.5610, 1289.619
706.7170, 1344.613
707.8720, 1427.582
709.0280, 1337.299
710.1830, 1220.326
711.3380, 1213.625
712.4920, 1118.496
713.6470, 1058.340
714.8020, 1002.074
715.9560, 957.2422
717.1100, 731.2090
718.2640, 837.9922
719.4180, 622.4805
720.5720, 732.9531
721.7250, 551.8516
722.8780, 666.0762
724.0320, 562.0645
725.1850, 553.1660
726.3380, 536.9375
727.4900, 450.6270
728.6430, 410.0547
729.7950, 454.0977
730.9470, 387.7266
732.1000, 293.8926
733.2510, 341.3340
734.4030, 366.0645
735.5550, 323.2891
736.7060, 310.6953
737.8570, 292.7480
739.0090, 232.3965
740.1600, 271.7246
741.3100, 227.6953
742.4610, 230.0938
743.6110, 165.3398
744.7620, 230.3477
745.9120, 169.5410
747.0620, 45.70898
748.2120, 67.13672
749.3610, 166.2109
750.5110, 81.25781
751.6600, 253.9922
752.8090, 211.9746
753.9580, 182.9316
755.1070, 154.8613
756.2560, 239.7656
757.4050, 113.7031
758.5530, 135.3633
759.7010, 214.3418
760.8490, 34.12109
761.9970, 121.0508
763.1450, 243.7148
764.2920, 274.4316
765.4400, 240.5137
766.5870, 351.3359
767.7340, 402.4258
768.8810, 305.8242
770.0280, 169.1953
771.1740, 253.4727
772.3210, 194.6289
773.4670, 5.693359
774.6130, 235.6680
775.7590, 346.6133
776.9050, 274.5312
778.0510, 262.4219
779.1960, 377.2852
780.3420, 342.1211
781.4870, 272.9297
782.6320, 333.1133
783.7770, 357.8711
784.9210, 342.1387
786.0660, 398.8457
787.2100, 452.5254
788.3540, 407.1797
789.4980, 266.8008
790.6420, 286.4062
791.7860, 92.98633
792.9300, 379.5176
794.0730, 573.0234
795.2160, 321.4883
796.3590, 225.9492
797.5020, 384.6719
798.6450, 153.0859
799.7880, 467.3750
800.9300, 455.7305
802.0720, 612.0742
803.2150, 657.9102
804.3560, 462.8125
805.4980, 628.1523
806.6400, 584.4922
807.7810, 474.8164
808.9230, 544.7188
810.0640, 440.0234
811.2050, 488.2812
812.3460, 307.5508
813.4860, 596.8008
814.6270, 481.0508
815.7670, 591.2812
816.9070, 753.5000
818.0470, 302.6992
819.1870, 635.8906
820.3270, 587.0859
821.4670, 500.2930
822.6060, 649.4883
823.7450, 660.6758
824.8840, 608.8477
826.0230, 591.0156
827.1620, 703.1680
828.3010, 964.3047
829.4390, 1067.426
830.5770, 984.5547
831.7150, 1342.695
832.8530, 1308.820
833.9910, 1504.930
835.1290, 1447.031
836.2660, 959.1172
837.4030, 940.1914
838.5410, 941.2578
839.6780, 741.3047
840.8140, 598.3438
841.9510, 637.3672
843.0870, 465.3828
844.2240, 496.3828
845.3600, 618.3750
846.4960, 379.3867
847.6320, 220.3555
848.7680, 285.3203
849.9030, 478.2656
851.0380, 545.2070
852.1740, 232.2109
853.3090, 181.1328
854.4440, 181.0508
855.5780, 15.03516
856.7130, 396.9766
857.8470, 69.17969
858.9820, 49.16797
860.1160, 265.6055
861.2500, 55.42969
862.3830, 47.98828
863.5170, 10.48438
864.6500, 179.0820
865.7840, 204.6523
866.9170, 233.2500
868.0500, 461.8477
869.1830, 561.4414
870.3150, 621.0234
871.4480, 872.6016
872.5800, 1184.188
873.7120, 1524.770
874.8440, 1771.352
875.9760, 1769.949
877.1080, 2355.547
878.2390, 2704.141
879.3710, 2542.750
880.5020, 2778.117
881.6330, 2393.723
882.7640, 2405.145
883.8940, 2034.051
885.0250, 1501.656
886.1550, 1070.059
887.2850, 885.0430
888.4160, 682.6445
889.5450, 455.2578
890.6750, 340.8320
891.8050, 184.8711
892.9340, 170.2539
894.0630, 46.97656
895.1930, 170.3789
896.3220, 267.0664
897.4500, 20.25391
898.5790, 104.8086
899.7070, 262.7617
900.8360, 219.8594
901.9640, 105.6328
903.0920, 328.4102
904.2200, 449.1992
905.3470, 1037.992
906.4750, 1423.445
907.6020, 1914.832
908.7290, 2549.793
909.8560, 3154.523
910.9830, 3496.129
912.1100, 3738.984
913.2360, 3319.852
914.3630, 3107.727
915.4890, 2721.621
916.6150, 2848.535
917.7410, 2717.461
918.8670, 3707.406
919.9920, 4498.367
921.1180, 5120.344
922.2430, 6018.340
923.3680, 6552.352
924.4930, 6503.379
925.6180, 7219.422
926.7420, 7597.488
927.8670, 7562.719
928.9910, 6596.832
930.1150, 5975.973
931.2390, 5591.141
932.3630, 4769.238
933.4860, 4516.453
934.6100, 3960.539
935.7330, 3867.840
936.8560, 3912.188
937.9790, 3700.559
939.1020, 3499.949
940.2250, 3121.367
941.3470, 3395.805
942.4700, 3549.277
943.5920, 4121.789
944.7140, 4440.324
945.8360, 5777.891
946.9570, 6887.484
948.0790, 6601.105
949.2000, 5709.754
950.3220, 4434.438
951.4430, 2941.148
952.5640, 2197.891
953.6840, 1192.660
954.8050, 1033.465
955.9250, 647.2969
957.0460, 445.1602
958.1660, 906.0547
959.2860, 539.9805
960.4050, 597.9375
961.5250, 499.9258
962.6440, 564.9492
963.7640, 591.0078
964.8830, 566.0977
966.0020, 663.2227
967.1210, 557.3867
968.2390, 580.5781
969.3580, 611.8086
970.4760, 447.0742
971.5940, 406.3789
972.7120, 177.7188
973.8300, 176.5039
974.9480, 168.1328
976.0650, 127.9648
977.1830, 212.4609
978.3000, 197.9883
979.4170, 134.5586
980.5340, 74.82812
981.6500, 168.7969
982.7670, 12.46094
983.8830, 140.1641
985.0000, 68.91016
986.1160, 274.2969
987.2320, 27.42969
988.3470, 36.19922
989.4630, 1.5625000E-02
990.5780, 193.7461
991.6940, 91.64453
992.8090, 5.605469
993.9240, 1.398438
995.0380, 164.5703
996.1530, 111.9062
997.2680, 31.11328
998.3820, 66.10156
999.4960, 56.44922
1000.610, 257.1562
1001.724, 259.3633
1002.837, 349.6211
1003.951, 480.9297
1005.064, 457.2891
1006.177, 582.7031
1007.291, 388.1719
1008.403, 305.6914
1009.516, 442.2617
1010.629, 376.8906
1011.741, 560.5703
1012.853, 667.3086
1013.965, 776.0977
1015.077, 616.9453
1016.189, 766.8477
1017.300, 865.8086
1018.412, 1055.844
1019.523, 1180.938
1020.634, 1501.098
1021.745, 1460.320
1022.856, 2194.609
1023.966, 2230.953
1025.077, 2381.363
1026.187, 2962.836
1027.297, 3244.719
1028.407, 3263.055
1029.517, 3583.516
1030.627, 3244.457
1031.736, 3154.766
1032.845, 2721.621
1033.955, 2576.473
1035.064, 2188.004
1036.172, 1879.172
1037.281, 1763.445
1038.390, 1625.965
1039.498, 1492.215
1040.606, 1614.723
1041.714, 1485.410
1042.822, 1545.180
1043.930, 1556.059
1045.037, 1472.012
1046.145, 1330.047
1047.252, 1334.160
1048.359, 1741.355
1049.466, 1392.633
1050.573, 1072.988
1051.679, 1461.426
1052.786, 1315.945
1053.892, 1399.543
1054.998, 1269.227
1056.104, 1346.992
1057.210, 1486.836
1058.315, 1184.770
1059.421, 1435.781
1060.526, 989.9180
1061.631, 1054.105
1062.736, 1199.508
1063.841, 1126.801
1064.946, 1447.242
1066.050, 1156.789
1067.154, 1278.586
1068.258, 1303.258
1069.362, 1502.930
1070.466, 1533.805
1071.570, 1579.762
1072.674, 1688.805
1073.777, 2118.930
1074.880, 2039.875
1075.983, 2413.375
1077.086, 2239.762
1078.189, 1788.234
1079.291, 1300.109
1080.394, 1124.750
1081.496, 1046.480
1082.598, 879.5000
1083.700, 720.4023
1084.802, 781.3906
1085.903, 896.4648
1087.005, 904.6328
1088.106, 808.8867
1089.207, 597.2266
1090.308, 292.6523
1091.409, 406.1680
1092.509, 19.77734
1093.610, 265.4688
1094.710, 413.2500
1095.810, 349.1211
1096.910, 210.0781
1098.010, 272.1250
1099.110, 206.2617
1100.209, 387.4883
1101.309, 58.80469
1102.408, 330.2109
1103.507, 245.7070
1104.606, 146.2930
1105.704, 405.9688
1106.803, 521.7305
1107.901, 638.5820
1108.999, 766.5273
1110.097, 910.5664
1111.195, 1122.688
1112.293, 1108.902
1113.391, 1664.176
1114.488, 1993.570
1115.585, 2237.059
1116.682, 3226.637
1117.779, 3392.309
1118.876, 4254.996
1119.973, 4854.844
1121.069, 5554.789
1122.165, 5942.652
1123.261, 6468.805
1124.357, 6452.051
1125.453, 6285.172
1126.549, 6226.594
1127.644, 5451.051
1128.739, 4978.875
1129.835, 4225.820
1130.930, 3811.781
1132.024, 3353.816
1133.119, 2912.949
1134.214, 3185.172
1135.308, 2640.488
1136.402, 2683.898
1137.496, 2408.395
1138.590, 2569.988
1139.684, 2476.668
1140.777, 2295.445
1141.871, 2284.309
1142.964, 2373.270
1144.057, 2345.711
1145.150, 2475.461
1146.243, 2489.688
1147.335, 2479.012
1148.428, 2578.438
1149.520, 2328.992
1150.612, 2310.727
1151.704, 2159.613
1152.796, 2066.668
1153.887, 2031.922
1154.979, 1926.402
1156.070, 1999.012
1157.161, 1935.395
1158.252, 2068.766
1159.343, 1943.938
1160.433, 1912.344
1161.524, 2001.984
1162.614, 1633.875
1163.704, 1672.977
1164.794, 1718.293
1165.884, 1732.840
1166.974, 1847.637
1168.063, 1926.598
1169.153, 1680.664
1170.242, 1363.844
1171.331, 1554.129
1172.420, 1303.512
1173.508, 1135.980
1174.597, 1073.539
1175.685, 977.1875
1176.774, 1011.934
1177.862, 853.8008
1178.950, 898.7461
1180.037, 635.7969
1181.125, 366.9219
1182.212, 381.1484
1183.300, 261.0039
1184.387, 262.9805
1185.474, 230.5273
1186.560, 321.1523
1187.647, 241.8555
1188.733, 276.6445
1189.820, 235.5859
1190.906, 156.5547
1191.992, 117.4336
1193.078, 11.50781
1194.163, 113.3672
1195.249, 154.8281
1196.334, 6.097656
1197.419, 193.5625
1198.504, 186.1836
1199.589, 182.7695
1200.674, 99.68359
1201.758, 154.2109
1202.843, 12.80859
1203.927, 112.4805
1205.011, 102.7734
1206.095, 78.97656
1207.179, 114.8867
1208.262, 76.81641
1209.345, 28.17969
1210.429, 130.8906
1211.512, 268.0273
1212.595, 77.76562
1213.677, 60.50391
1214.760, 191.8359
1215.842, 126.2383
1216.925, 203.7109
1218.007, 107.2500
1219.089, 330.8555
1220.171, 424.5273
1221.252, 456.2695
1222.334, 618.0781
1223.415, 563.9531
1224.496, 421.8867
1225.577, 416.8906
1226.658, 321.9570
1227.738, 343.0938
1228.819, 515.2891
1229.899, 415.5508
1230.979, 342.8711
1232.060, 92.25781
1233.139, 555.7070
1234.219, 575.2148
1235.299, 331.7852
1236.378, 420.4062
1237.457, 223.0898
1238.536, 564.8281
1239.615, 555.6133
1240.694, 639.4492
1241.772, 489.3398
1242.851, 451.2695
1243.929, 269.2656
1245.007, 544.3047
1246.085, 735.3906
1247.163, 772.5156
1248.240, 1177.684
1249.318, 775.9492
1250.395, 1015.254
1251.472, 884.5977
1252.549, 1059.984
1253.626, 1256.410
1254.703, 952.8711
1255.779, 1097.371
1256.855, 951.9062
1257.931, 1403.508
1259.007, 1353.160
1260.083, 1177.848
1261.159, 1267.586
1262.234, 1159.352
1263.310, 1384.148
1264.385, 1492.973
1265.460, 1480.828
1266.535, 1647.711
1267.610, 1603.625
1268.684, 1422.562
1269.758, 1393.527
1270.833, 1282.516
1271.907, 1471.527
1272.981, 1135.562
1274.054, 1530.625
1275.128, 1633.707
1276.201, 1473.305
1277.275, 1658.348
1278.348, 1850.910
1279.421, 1635.570
1280.493, 1741.723
1281.566, 1818.566
1282.638, 2006.148
1283.711, 1801.074
1284.783, 1797.289
1285.855, 2020.938
1286.927, 2025.387
1287.998, 2085.270
1289.070, 2243.703
1290.141, 2371.766
1291.212, 2437.031
1292.283, 2539.617
1293.354, 2443.406
1294.425, 2641.789
1295.495, 2639.172
1296.566, 2635.898
1297.636, 2872.348
1298.706, 2760.250
1299.776, 2772.672
1300.845, 2682.156
1301.915, 2688.047
1302.984, 2610.031
1304.054, 2658.242
1305.123, 2455.016
1306.191, 2384.188
1307.260, 2280.848
1308.329, 2268.133
1309.397, 2335.324
1310.465, 2179.184
1311.534, 2637.148
1312.602, 2495.012
1313.669, 2253.266
1314.737, 2587.285
1315.804, 2612.613
1316.872, 2522.066
1317.939, 2684.391
1319.006, 2427.297
1320.073, 2279.176
1321.139, 2306.098
1322.206, 2023.914
1323.272, 2068.922
1324.338, 2147.871
1325.404, 1839.809
1326.470, 1709.598
1327.536, 1639.602
1328.601, 1523.699
1329.667, 1408.680
1330.732, 1271.668
1331.797, 1421.664
1332.862, 1384.660
1333.926, 1295.930
1334.991, 1001.734
1336.055, 1207.738
1337.120, 1210.746
1338.184, 914.4375
1339.248, 572.4414
1340.311, 1225.449
1341.375, 703.2578
1342.438, 755.2656
