##NAMES=Fluorophlogopite
##RRUFFID=R040075
##IDEAL CHEMISTRY=KMg_3_(Si_3_Al)O_10_F_2_
##LOCALITY=unknown
##OWNER=RRUFF
##SOURCE=University of Arizona Mineral Museum
##DESCRIPTION=Green hexagonal tablet
##STATUS=The identification of this mineral has been confirmed by X-ray diffraction and chemical analysis
##URL=rruff.info/R040075
##MEASURED CHEMISTRY=(K_0.93_[box]_0.04_Na_0.03_)(Mg_0.66_Fe_0.30_Ti_0.02_)_3_(Si_0.75_Al_0.25_)_4_O_10_(F_0.90_(OH)_0.06_Cl_0.04_)
##PIN_ID=L00455
##ORIENTATION=Laser parallel to [1 0 1]. Fiducial mark perpendicular to laser is parallel to b* (0 1 0)
158.679, 0.000
160.066, 39.327
161.452, 42.062
162.839, 190.461
164.225, 6.283
165.611, 88.325
166.996, 129.515
168.381, 262.507
169.767, 324.733
171.152, 462.196
172.536, 532.915
173.921, 619.665
175.305, 779.000
176.689, 853.683
178.073, 1097.586
179.456, 1290.796
180.839, 1472.587
182.222, 1672.139
183.605, 2026.925
184.988, 2241.871
186.370, 2584.211
187.752, 2498.817
189.134, 2585.695
190.516, 2475.283
191.898, 2400.880
193.279, 2197.535
194.660, 2038.084
196.041, 1816.138
197.421, 1591.129
198.801, 1422.576
200.182, 1259.830
201.561, 1115.901
202.941, 1005.694
204.321, 887.040
205.700, 785.463
207.079, 745.172
208.457, 664.295
209.836, 569.285
211.214, 580.137
212.592, 528.425
213.970, 426.112
215.348, 400.140
216.725, 399.169
218.102, 415.282
219.479, 369.470
220.856, 334.218
222.232, 209.512
223.608, 167.860
224.984, 206.264
226.360, 166.422
227.736, 164.034
229.111, 140.972
230.486, 157.424
231.861, 131.830
233.236, 182.998
234.610, 174.289
235.984, 131.276
237.358, 31.829
238.732, 44.113
240.105, 12.755
241.479, 23.869
242.852, 63.827
244.224, 21.692
245.597, 31.970
246.969, 17.456
248.342, 90.388
249.713, 17.839
251.085, 58.954
252.457, 10.151
253.828, 47.332
255.199, 29.261
256.570, 16.473
257.940, 28.351
259.310, 26.807
260.681, 8.041
262.050, 5.121
263.420, 33.309
264.790, 73.465
266.159, 56.188
267.528, 34.847
268.896, 20.423
270.265, 103.906
271.633, 114.296
273.001, 211.582
274.369, 227.420
275.737, 167.784
277.104, 249.697
278.471, 272.488
279.838, 227.166
281.205, 143.694
282.572, 220.041
283.938, 148.174
285.304, 145.123
286.670, 146.843
288.035, 109.424
289.401, 160.814
290.766, 154.045
292.131, 120.126
293.495, 174.062
294.860, 105.892
296.224, 196.752
297.588, 91.875
298.952, 148.163
300.315, 172.707
301.679, 187.407
303.042, 185.329
304.405, 245.909
305.767, 209.587
307.130, 210.286
308.492, 260.706
309.854, 338.438
311.216, 265.388
312.578, 348.537
313.939, 346.219
315.300, 331.763
316.661, 357.246
318.021, 348.559
319.382, 364.169
320.742, 339.424
322.102, 327.250
323.462, 300.020
324.821, 330.673
326.181, 360.418
327.540, 325.725
328.899, 362.716
330.257, 372.622
331.616, 360.106
332.974, 387.670
334.332, 353.978
335.690, 392.952
337.047, 401.678
338.405, 362.148
339.762, 396.361
341.119, 369.316
342.475, 368.014
343.832, 336.454
345.188, 353.627
346.544, 362.286
347.900, 426.167
349.255, 404.529
350.610, 451.605
351.965, 472.400
353.320, 456.934
354.675, 511.194
356.029, 521.317
357.384, 554.883
358.738, 553.335
360.091, 560.551
361.445, 527.547
362.798, 525.270
364.151, 556.689
365.504, 545.775
366.857, 590.577
368.209, 545.029
369.561, 578.292
370.913, 573.269
372.265, 543.049
373.617, 583.348
374.968, 551.393
376.319, 625.101
377.670, 537.230
379.021, 621.170
380.371, 637.062
381.721, 663.976
383.071, 595.662
384.421, 631.154
385.770, 646.684
387.120, 621.766
388.469, 638.206
389.818, 642.241
391.166, 660.234
392.515, 591.923
393.863, 603.819
395.211, 668.396
396.559, 673.940
397.906, 820.623
399.254, 693.224
400.601, 740.885
401.948, 572.958
403.294, 741.434
404.641, 669.455
405.987, 797.253
407.333, 668.713
408.679, 633.123
410.025, 669.472
411.370, 600.280
412.715, 573.671
414.060, 562.307
415.405, 533.440
416.749, 532.062
418.093, 488.733
419.437, 393.462
420.781, 430.424
422.125, 386.450
423.468, 389.647
424.811, 280.090
426.154, 388.792
427.497, 287.825
428.839, 272.583
430.182, 256.892
431.524, 194.785
432.866, 133.253
434.207, 203.850
435.549, 171.323
436.890, 109.786
438.231, 148.840
439.572, 56.387
440.912, 64.023
442.252, 86.712
443.593, 27.584
444.932, 51.991
446.272, 69.914
447.611, 56.331
448.951, 23.758
450.290, 55.392
451.628, 41.471
452.967, 7.509
454.305, 4.278
455.644, 20.638
456.981, 16.879
458.319, 43.463
459.657, 15.873
460.994, 10.202
462.331, 15.554
463.668, 38.248
465.004, 66.954
466.341, 106.413
467.677, 72.041
469.013, 68.085
470.348, 66.822
471.684, 12.751
473.019, 62.690
474.354, 1.804
475.689, 31.983
477.024, 27.734
478.358, 59.545
479.692, 61.309
481.026, 88.139
482.360, 119.877
483.694, 154.579
485.027, 147.120
486.360, 57.744
487.693, 251.445
489.026, 120.955
490.358, 237.578
491.691, 306.199
493.023, 253.727
494.354, 385.329
495.686, 363.750
497.017, 372.297
498.349, 346.844
499.680, 383.190
501.010, 323.646
502.341, 371.955
503.671, 384.230
505.001, 416.343
506.331, 477.507
507.661, 511.682
508.990, 521.656
510.319, 519.413
511.648, 535.904
512.977, 519.215
514.306, 474.852
515.634, 495.295
516.962, 505.732
518.290, 512.158
519.618, 544.567
520.945, 524.973
522.273, 541.363
523.600, 617.761
524.927, 530.169
526.253, 550.568
527.580, 587.986
528.906, 532.413
530.232, 574.842
531.558, 539.288
532.883, 661.732
534.208, 616.205
535.534, 664.681
536.858, 650.176
538.183, 651.687
539.508, 628.226
540.832, 673.776
542.156, 661.341
543.480, 690.917
544.803, 619.515
546.127, 711.124
547.450, 669.744
548.773, 661.373
550.096, 806.012
551.418, 665.662
552.741, 680.323
554.063, 606.995
555.385, 714.680
556.706, 639.376
558.028, 682.083
559.349, 624.801
560.670, 606.538
561.991, 638.293
563.312, 582.076
564.632, 523.879
565.952, 465.725
567.272, 403.589
568.592, 401.487
569.911, 369.406
571.231, 396.373
572.550, 346.368
573.869, 306.378
575.187, 314.410
576.506, 250.731
577.824, 167.578
579.142, 170.706
580.460, 165.852
581.778, 153.027
583.095, 167.224
584.412, 143.446
585.729, 131.700
587.046, 65.966
588.363, 93.247
589.679, 16.543
590.995, 73.751
592.311, 64.726
593.627, 5.982
594.942, 37.190
596.258, 70.122
597.573, 79.237
598.888, 90.811
600.202, 16.225
601.517, 76.676
602.831, 42.350
604.145, 16.143
605.459, 67.031
606.772, 21.882
608.086, 86.617
609.399, 47.504
610.712, 102.353
612.024, 123.078
613.337, 70.810
614.649, 146.961
615.961, 158.263
617.273, 141.590
618.585, 218.965
619.896, 241.815
621.208, 270.239
622.519, 197.878
623.829, 274.289
625.140, 321.633
626.450, 263.857
627.761, 386.289
629.071, 336.803
630.380, 403.793
631.690, 423.546
632.999, 440.463
634.308, 471.004
635.617, 378.637
636.926, 481.899
638.235, 498.185
639.543, 458.597
640.851, 549.157
642.159, 523.762
643.466, 544.374
644.774, 543.720
646.081, 631.344
647.388, 622.974
648.695, 623.610
650.002, 753.252
651.308, 679.901
652.614, 831.557
653.920, 835.218
655.226, 856.886
656.531, 998.560
657.837, 998.241
659.142, 1033.928
660.447, 1237.856
661.752, 1314.558
663.056, 1398.790
664.360, 1512.730
665.664, 1651.468
666.968, 1890.438
668.272, 2010.775
669.575, 2325.293
670.879, 2397.587
672.182, 2661.750
673.484, 3060.675
674.787, 3133.213
676.089, 3580.227
677.392, 3656.193
678.694, 3839.195
679.995, 3936.037
681.297, 3958.504
682.598, 3832.039
683.899, 3768.696
685.200, 3454.595
686.501, 3349.053
687.802, 3114.339
689.102, 2891.096
690.402, 2641.718
691.702, 2486.135
693.002, 2341.765
694.301, 2280.087
695.600, 2168.120
696.899, 2150.341
698.198, 2098.892
699.497, 2176.705
700.795, 2121.173
702.093, 2243.588
703.391, 2269.863
704.689, 2473.171
705.987, 2485.217
707.284, 2534.303
708.581, 2672.342
709.878, 2719.562
711.175, 2946.768
712.472, 3087.078
713.768, 3166.204
715.064, 3276.195
716.360, 3353.142
717.656, 3420.987
718.951, 3334.833
720.247, 3487.679
721.542, 3432.523
722.837, 3499.367
724.131, 3348.210
725.426, 3401.053
726.720, 3245.894
728.014, 3076.732
729.308, 3126.571
730.601, 3042.408
731.895, 2928.242
733.188, 2888.074
734.481, 2674.905
735.774, 2734.733
737.067, 2476.560
738.359, 2353.381
739.651, 2265.202
740.943, 2290.020
742.235, 2217.834
743.526, 2088.646
744.818, 2113.455
746.109, 2010.259
747.400, 1908.061
748.691, 1974.861
749.981, 1875.587
751.271, 1919.381
752.562, 1850.173
753.851, 1848.705
755.141, 1877.750
756.431, 1865.291
757.720, 1894.075
759.009, 1946.860
760.298, 1999.642
761.587, 1958.423
762.875, 2006.202
764.163, 2098.979
765.451, 2029.755
766.739, 2148.529
768.027, 2178.302
769.314, 2129.073
770.601, 2137.846
771.888, 2097.513
773.175, 2016.397
774.462, 1997.176
775.748, 1929.952
777.034, 1851.729
778.320, 1764.509
779.606, 1706.297
780.892, 1675.104
782.177, 1450.919
783.462, 1434.745
784.747, 1311.578
786.032, 1331.408
787.317, 1176.245
788.601, 1100.079
789.885, 1105.916
791.169, 918.748
792.453, 809.576
793.736, 795.399
795.019, 691.218
796.303, 684.031
797.585, 534.838
798.868, 548.640
800.151, 455.436
801.433, 437.226
802.715, 508.010
803.997, 375.788
805.279, 306.560
806.560, 337.325
807.841, 252.084
809.122, 230.837
810.403, 175.583
811.684, 226.323
812.964, 169.056
814.245, 20.782
815.525, 89.500
816.804, 11.790
818.084, 24.900
819.363, 2.419
820.643, 22.243
821.922, 28.102
823.201, 46.479
824.479, 8.104
825.758, 12.673
827.036, 35.769
828.314, 13.248
829.592, 25.250
830.869, 35.261
832.147, 31.190
833.424, 64.367
834.701, 73.976
835.977, 6.358
837.254, 92.324
838.530, 48.072
839.807, 24.865
841.082, 69.689
842.358, 3.431
843.634, 106.466
844.909, 7.438
846.184, 58.433
847.459, 37.479
848.734, 80.563
850.008, 19.709
851.283, 24.885
852.557, 13.087
853.831, 55.328
855.105, 12.390
856.378, 17.093
857.651, 15.784
858.925, 37.279
860.197, 27.820
861.470, 38.790
862.743, 19.438
864.015, 20.075
865.287, 15.701
866.559, 24.314
867.831, 49.917
869.102, 60.515
870.373, 93.105
871.645, 102.076
872.915, 110.049
874.186, 126.829
875.457, 128.391
876.727, 141.948
877.997, 176.496
879.267, 132.038
880.536, 136.572
881.806, 181.099
883.075, 89.620
884.344, 170.133
885.613, 276.640
886.882, 240.138
888.150, 210.629
889.419, 241.113
890.687, 308.589
891.954, 269.064
893.222, 237.534
894.490, 380.001
895.757, 295.460
897.024, 372.917
898.291, 380.365
899.557, 309.806
900.824, 390.241
902.090, 322.668
903.356, 489.088
904.622, 414.501
905.888, 488.912
907.153, 532.316
908.418, 442.719
909.683, 493.117
910.948, 557.511
912.213, 486.899
913.477, 515.280
914.741, 560.653
916.005, 521.020
917.269, 527.379
918.533, 505.731
919.796, 616.077
921.060, 568.927
922.323, 610.748
923.585, 599.073
924.848, 530.391
926.111, 651.702
927.373, 613.007
928.635, 540.305
929.897, 558.596
931.158, 546.880
932.420, 567.157
933.681, 630.427
934.942, 572.690
936.203, 559.947
937.463, 530.197
938.724, 590.440
939.984, 573.676
941.244, 543.904
942.504, 557.125
943.764, 518.345
945.023, 433.557
946.282, 568.762
947.541, 443.959
948.800, 530.150
950.059, 605.334
951.317, 582.511
952.575, 527.680
953.833, 433.844
955.091, 562.000
956.349, 581.149
957.606, 466.293
958.864, 534.430
960.121, 435.560
961.377, 459.684
962.634, 510.801
963.891, 484.911
965.147, 477.015
966.403, 458.880
967.659, 511.970
968.914, 510.531
970.170, 513.387
971.425, 461.445
972.680, 501.272
973.935, 519.732
975.190, 476.010
976.444, 393.513
977.698, 454.146
978.952, 520.018
980.206, 431.275
981.460, 438.059
982.713, 441.888
983.967, 394.684
985.220, 411.640
986.473, 510.972
987.725, 432.237
988.978, 548.379
990.230, 526.283
991.482, 509.627
992.734, 516.145
993.986, 518.193
995.237, 512.375
996.488, 483.763
997.739, 560.940
998.990, 532.449
1000.241, 500.233
1001.492, 442.832
1002.742, 471.102
1003.992, 431.021
1005.242, 467.550
1006.492, 418.959
1007.741, 430.518
1008.990, 473.061
1010.239, 347.851
1011.488, 446.623
1012.737, 331.420
1013.986, 400.058
1015.234, 482.708
1016.482, 454.257
1017.730, 455.010
1018.978, 402.064
1020.225, 427.014
1021.473, 430.784
1022.720, 432.131
1023.967, 490.191
1025.213, 515.814
1026.460, 579.230
1027.706, 595.488
1028.953, 593.542
1030.198, 602.610
1031.444, 603.772
1032.690, 624.264
1033.935, 624.665
1035.180, 659.333
1036.425, 628.424
1037.670, 619.518
1038.915, 608.619
1040.159, 635.708
1041.403, 611.370
1042.647, 605.602
1043.891, 643.748
1045.135, 577.974
1046.378, 723.680
1047.621, 673.941
1048.864, 626.993
1050.107, 674.103
1051.350, 580.214
1052.592, 590.333
1053.835, 628.522
1055.077, 543.303
1056.318, 652.960
1057.560, 663.197
1058.802, 618.490
1060.043, 676.315
1061.284, 631.508
1062.525, 683.677
1063.765, 652.814
1065.006, 638.951
1066.246, 724.088
1067.486, 594.341
1068.726, 666.479
1069.966, 694.616
1071.205, 626.754
1072.445, 658.893
1073.684, 620.194
1074.923, 630.371
1076.161, 631.561
1077.400, 682.774
1078.638, 582.009
1079.876, 683.145
1081.114, 580.361
1082.352, 637.593
1083.590, 598.736
1084.827, 594.985
1086.064, 608.292
1087.301, 586.448
1088.538, 595.681
1089.775, 659.850
1091.011, 649.091
1092.247, 609.306
1093.483, 639.475
1094.719, 598.669
1095.955, 637.837
1097.190, 608.976
1098.425, 557.171
1099.660, 550.338
1100.895, 497.503
1102.130, 431.882
1103.364, 456.047
1104.598, 463.236
1105.833, 416.623
1107.066, 339.909
1108.300, 409.074
1109.534, 290.326
1110.767, 302.505
1112.000, 289.732
1113.233, 289.897
1114.466, 274.170
1115.698, 197.371
1116.930, 215.537
1118.163, 172.814
1119.394, 173.104
1120.626, 121.282
1121.858, 198.460
1123.089, 172.651
1124.320, 127.866
1125.551, 211.095
1126.782, 176.370
1128.013, 153.596
1129.243, 92.830
1130.473, 152.084
1131.703, 151.377
1132.933, 99.625
1134.163, 67.079
1135.392, 72.572
1136.621, 23.867
1137.850, 103.474
1139.079, 92.814
1140.308, 70.355
1141.536, 118.729
1142.765, 34.107
1143.993, 133.518
1145.221, 41.934
1146.448, 1.913
1147.676, 73.167
1148.903, 12.887
1150.130, 8.562
1151.357, 52.438
1152.584, 6.946
1153.810, 58.604
1155.037, 149.200
1156.263, 1.179
1157.489, 63.534
1158.715, 1.688
1159.940, 4.988
1161.166, 58.886
1162.391, 13.651
1163.616, 13.395
1164.841, 5.195
1166.065, 29.816
1167.290, 20.901
1168.514, 35.119
1169.738, 18.034
1170.962, 25.686
1172.185, 16.612
1173.409, 11.086
1174.632, 13.199
1175.855, 4.051
1177.078, 31.045
1178.301, 0.886
1179.523, 2.458
1180.746, 3.847
1181.968, 73.208
1183.190, 65.695
1184.412, 72.551
1185.633, 68.372
1186.855, 77.785
1188.076, 30.752
1189.297, 0.103
1190.518, 21.762
1191.738, 1.138
1192.959, 13.281
1194.179, 12.108
1195.399, 30.456
1196.619, 55.499
1197.838, 43.601
1199.058, 45.340
1200.277, 22.021
1201.496, 12.168
1202.715, 9.661
1203.934, 19.396
1205.152, 1.160
1206.371, 12.108
1207.589, 30.545
1208.807, 36.975
1210.024, 99.694
1211.242, 63.572
1212.459, 96.320
1213.677, 19.833
1214.894, 88.179
1216.110, 118.381
1217.327, 66.911
1218.543, 96.098
1219.760, 11.365
1220.976, 41.580
1222.192, 38.746
1223.407, 33.905
1224.623, 29.056
1225.838, 87.199
1227.053, 34.335
1228.268, 31.545
1229.483, 108.561
1230.697, 31.958
1231.912, 23.982
1233.126, 65.251
1234.340, 48.342
1235.554, 87.450
1236.767, 47.589
1237.981, 8.340
1239.194, 121.872
1240.407, 59.838
1241.620, 119.011
1242.832, 73.062
1244.045, 75.107
1245.257, 107.149
1246.469, 102.188
1247.681, 19.221
1248.893, 88.250
1250.104, 65.515
1251.315, 18.534
1252.527, 43.645
1253.738, 84.653
1254.948, 52.658
1256.159, 70.657
1257.369, 59.703
1258.579, 124.690
1259.789, 49.791
1260.999, 67.767
1262.209, 93.768
1263.418, 33.734
1264.628, 68.681
1265.837, 101.631
1267.046, 86.562
1268.254, 79.612
1269.463, 78.520
1270.671, 76.527
1271.879, 66.525
1273.087, 109.365
1274.295, 190.167
1275.502, 77.947
1276.710, 72.718
1277.917, 160.477
1279.124, 40.222
1280.331, 37.005
1281.537, 117.699
1282.744, 23.382
1283.950, 88.052
1285.156, 41.712
1286.362, 89.359
1287.568, 290.989
1288.773, 139.127
1289.978, 465.182
1291.184, 7.750
1292.389, 7.718
1293.593, 31.813
1294.798, 44.314
1296.002, 20.800
1297.206, 63.272
1298.410, 83.648
1299.614, 13.906
1300.818, 67.519
1302.021, 45.916
1303.225, 33.317
1304.428, 54.685
1305.631, 49.957
1306.833, 35.344
1308.036, 38.607
1309.238, 32.146
1310.440, 66.931
1311.642, 73.103
1312.844, 9.729
1314.045, 21.418
1315.247, 54.547
1316.448, 41.659
1317.649, 81.193
1318.850, 7.918
1320.051, 31.958
1321.251, 12.839
1322.451, 2.138
1323.651, 43.774
1324.851, 53.614
1326.051, 37.600
1327.251, 80.330
1328.450, 22.244
1329.649, 24.142
1330.848, 121.021
1332.047, 81.885
1333.245, 59.166
1334.444, 66.862
1335.642, 17.627
1336.840, 40.300
1338.038, 2.477
1339.236, 3.154
1340.433, 9.884
1341.630, 35.611
1342.828, 11.677
1344.025, 25.636
1345.221, 17.618
1346.418, 42.618
1347.614, 75.729
1348.810, 45.247
1350.006, 17.696
1351.202, 20.400
1352.398, 46.124
1353.593, 16.658
1354.789, 58.213
1355.984, 81.757
1357.179, 29.290
1358.373, 57.695
1359.568, 109.206
1360.762, 53.708
1361.956, 47.200
1363.150, 69.683
1364.344, 79.996
1365.538, 90.426
1366.731, 97.218
1367.924, 109.219
1369.117, 91.575
1370.310, 95.077
1371.503, 70.748
1372.695, 60.837
1373.888, 31.551
1375.080, 28.108
1376.272, 49.119
1377.464, 29.329
1378.655, 83.698
1379.847, 76.017
1381.038, 103.329
1382.229, 54.653
1383.420, 178.991
1384.610, 85.314
1385.801, 135.400
1386.991, 100.429
1388.181, 106.573
1389.371, 94.719
1390.561, 110.888
1391.750, 123.950
1392.940, 40.948
1394.129, 126.088
1395.318, 71.253
1396.507, 99.372
1397.696, 125.429
1398.884, 119.519
1400.072, 83.563
1401.260, 132.187
1402.448, 67.910
1403.636, 158.726
1404.824, 89.753
1406.011, 135.767
1407.198, 109.830
1408.385, 93.230
1409.572, 112.531
1410.758, 61.726
1411.945, 194.213
1413.131, 68.515
1414.317, 58.162
1415.503, 162.164
1416.689, 95.259
1417.874, 100.702
1419.060, 120.712
1420.245, 111.013
1421.430, 141.193
1422.615, 61.356
1423.799, 155.240
1424.984, 90.870
1426.168, 133.603
1427.352, 108.623
1428.536, 146.011
1429.720, 91.354
1430.903, 96.924
1432.087, 129.646
1433.270, 92.415
1434.453, 99.106
1435.635, 101.149
1436.818, 60.891
1438.001, 174.881
1439.183, 89.321
1440.365, 73.075
1441.547, 157.451
1442.728, 104.166
1443.910, 136.094
1445.091, 136.004
1446.272, 150.739
1447.453, 157.375
1448.634, 163.051
1449.815, 129.626
1450.995, 176.011
1452.176, 157.147
1453.356, 81.468
1454.535, 132.774
1455.715, 83.010
1456.895, 170.633
1458.074, 140.487
1459.253, 135.474
1460.432, 160.355
1461.611, 140.136
1462.790, 181.440
1463.968, 120.099
1465.146, 163.680
1466.324, 124.901
1467.502, 50.806
1468.680, 127.507
1469.858, 172.290
1471.035, 139.040
1472.212, 116.679
1473.389, 130.497
1474.566, 88.261
1475.742, 125.045
1476.919, 100.903
1478.095, 70.735
1479.271, 111.650
1480.447, 135.131
1481.623, 149.250
1482.798, 171.132
1483.974, 200.895
1485.149, 60.974
1486.324, 64.135
1487.499, 70.285
1488.674, 59.433
1489.848, 120.601
1491.022, 102.797
1492.196, 120.037
1493.370, 122.337
1494.544, 20.736
1495.718, 83.191
1496.891, 58.715
1498.064, 98.311
1499.237, 74.984
1500.410, 82.741
1501.583, 79.605
1502.755, 114.595
1503.928, 35.694
1505.100, 56.924
1506.272, 160.308
1507.443, 57.866
1508.615, 66.620
1509.786, 101.598
1510.958, 9.840
1512.129, 3.611
1513.300, 93.309
1514.470, 69.674
1515.641, 100.893
1516.811, 45.429
1517.981, 0.074
1519.151, 0.000
##END=



