##NAMES=Fluoro-richterite
##RRUFFID=R040019
##IDEAL CHEMISTRY=Na(NaCa)Mg_5_Si_8_O_22_F_2_
##LOCALITY=Wilberforce, Ontario, Canada
##OWNER=RRUFF
##SOURCE=University of Arizona Mineral Museum
##DESCRIPTION=Brown prismatic crystals
##STATUS=The identification of this mineral has been confirmed by X-ray diffraction and chemical analysis
##URL=rruff.info/R040019
##MEASURED CHEMISTRY=(Na_0.59_K_0.27_[box]_0.14_)_Σ=1_(Ca_1.30_Na_0.70_)_Σ=2_(Mg_4.67_Fe_0.17_Fe^3+^_0.10_Ti_0.03_Mn_0.02_Al_0.01_)_Σ=5_(Si_7.67_Al_0.33_)_Σ=8_(F_1.12_(OH)_0.88_)_Σ=2_; OH estimated by charge balance
##PIN_ID=L00352
##ORIENTATION=Laser parallel to a [1 0 0]. Fiducial mark perpendicular to laser is parallel to -b* (0 -1 0)
73.842, 0.000
75.239, 225.100
76.635, 308.868
78.031, 129.298
79.427, 21.603
80.823, 45.858
82.218, 302.871
83.614, 455.290
85.009, 523.228
86.404, 644.777
87.798, 689.342
89.193, 876.524
90.587, 1066.603
91.981, 1280.206
93.375, 1581.998
94.768, 1855.529
96.161, 2210.179
97.554, 2598.830
98.947, 3054.392
100.340, 3758.000
101.732, 4456.687
103.124, 5332.290
104.516, 6273.682
105.908, 7536.756
107.300, 8582.424
108.691, 9353.623
110.082, 10007.022
111.473, 10201.997
112.864, 10345.965
114.254, 10008.318
115.644, 9550.023
117.034, 8751.046
118.424, 7426.345
119.813, 6094.900
121.203, 5066.690
122.592, 3980.698
123.981, 3149.421
125.369, 2486.069
126.758, 1954.255
128.146, 1559.583
129.534, 1231.809
130.922, 1033.950
132.309, 770.021
133.696, 599.035
135.083, 457.001
136.470, 363.931
137.857, 262.835
139.243, 308.721
140.630, 233.600
142.016, 122.486
143.401, 28.385
144.787, 40.701
146.172, 61.852
147.557, 72.663
148.942, 19.852
150.327, 42.139
151.711, 145.152
153.096, 358.188
154.480, 480.249
155.863, 793.334
157.247, 979.429
158.630, 1079.475
160.013, 1163.449
161.396, 1193.374
162.779, 1306.289
164.161, 1081.208
165.544, 972.139
166.926, 963.089
168.308, 958.064
169.689, 993.069
171.070, 1143.105
172.452, 1430.319
173.833, 1679.276
175.213, 1903.189
176.594, 2216.080
177.974, 2362.609
179.354, 2638.349
180.734, 2745.255
182.114, 2701.832
183.493, 2537.496
184.872, 2564.245
186.251, 2280.080
187.630, 2168.998
189.008, 1987.997
190.387, 1825.072
191.765, 1732.223
193.143, 1635.767
194.520, 1545.680
195.898, 1550.017
197.275, 1537.438
198.652, 1554.956
200.029, 1631.544
201.405, 1627.194
202.782, 1669.911
204.158, 1798.706
205.534, 1828.601
206.909, 2059.683
208.285, 2073.905
209.660, 2185.214
211.035, 2175.569
212.410, 2274.961
213.784, 2422.383
215.159, 2609.835
216.533, 2878.316
217.907, 3176.828
219.281, 3606.368
220.654, 4128.935
222.027, 4647.531
223.400, 5580.153
224.773, 6477.802
226.146, 7403.476
227.518, 8627.178
228.891, 9423.902
230.263, 10116.652
231.634, 10397.714
233.006, 10383.579
234.377, 10135.036
235.748, 9488.876
237.119, 8587.735
238.490, 7417.617
239.860, 6558.232
241.231, 5755.380
242.601, 4969.007
243.970, 4412.976
245.340, 3880.597
246.709, 3448.119
248.079, 3000.861
249.448, 2626.292
250.816, 2303.906
252.185, 1978.169
253.553, 1682.342
254.921, 1382.103
256.289, 1165.314
257.657, 961.018
259.024, 784.917
260.391, 667.267
261.758, 503.275
263.125, 390.358
264.492, 308.513
265.858, 168.734
267.224, 53.015
268.590, 10.353
269.956, 109.257
271.321, 98.840
272.687, 129.396
274.052, 202.934
275.416, 230.506
276.781, 213.118
278.146, 227.501
279.510, 205.264
280.874, 178.767
282.237, 117.220
283.601, 67.603
284.964, 6.314
286.327, 3.140
287.690, 129.705
289.053, 165.619
290.416, 228.575
291.778, 363.633
293.140, 445.664
294.502, 554.822
295.863, 643.912
297.225, 770.214
298.586, 884.338
299.947, 1027.583
301.308, 1159.733
302.668, 1241.896
304.029, 1350.069
305.389, 1541.255
306.749, 1621.451
308.108, 1834.656
309.468, 1967.267
310.827, 2135.383
312.186, 2257.254
313.545, 2272.265
314.903, 2245.479
316.262, 2289.354
317.620, 2104.173
318.978, 1994.025
320.336, 1930.152
321.693, 1774.684
323.051, 1648.352
324.408, 1557.661
325.765, 1428.016
327.121, 1372.951
328.478, 1282.995
329.834, 1279.762
331.190, 1325.089
332.546, 1314.167
333.902, 1213.743
335.257, 1280.144
336.612, 1189.984
337.967, 1218.828
339.322, 1159.667
340.677, 1201.827
342.031, 1171.781
343.385, 1165.540
344.739, 1264.061
346.093, 1244.202
347.446, 1329.281
348.799, 1396.099
350.153, 1506.848
351.505, 1693.763
352.858, 1834.608
354.210, 2070.462
355.563, 2334.323
356.915, 2508.193
358.267, 2858.069
359.618, 3253.953
360.969, 3527.842
362.321, 3898.738
363.672, 4213.638
365.022, 4387.544
366.373, 4650.456
367.723, 4750.369
369.073, 4840.289
370.423, 4898.210
371.773, 4857.132
373.122, 5011.057
374.471, 5130.983
375.821, 5462.910
377.169, 5542.839
378.518, 6007.768
379.866, 6100.699
381.215, 6333.628
382.563, 6601.559
383.910, 6649.489
385.258, 6697.419
386.605, 6791.351
387.952, 6794.280
389.299, 6641.210
390.646, 6747.139
391.992, 6588.067
393.339, 6638.993
394.685, 6561.919
396.031, 6714.843
397.376, 6686.765
398.722, 6389.683
400.067, 6257.602
401.412, 5917.517
402.757, 5642.437
404.101, 5421.365
405.446, 4967.302
406.790, 4495.245
408.134, 4175.206
409.478, 3771.171
410.821, 3415.139
412.165, 3140.108
413.508, 2624.079
414.851, 2440.049
416.193, 2260.020
417.536, 2186.988
418.878, 2098.954
420.220, 1943.918
421.562, 2052.878
422.904, 1953.835
424.245, 2019.787
425.586, 2138.734
426.927, 1950.676
428.268, 2039.613
429.609, 1865.542
430.949, 1768.460
432.289, 1647.511
433.629, 1571.320
434.969, 1390.751
436.309, 1222.410
437.648, 1005.250
438.987, 861.666
440.326, 689.284
441.665, 548.272
443.003, 432.882
444.342, 381.681
445.680, 275.582
447.018, 253.980
448.355, 221.237
449.693, 159.594
451.030, 123.143
452.367, 101.972
453.704, 145.886
455.041, 108.336
456.377, 157.222
457.713, 88.415
459.049, 157.591
460.385, 113.859
461.721, 174.215
463.056, 168.156
464.391, 148.162
465.726, 158.866
467.061, 189.541
468.395, 157.114
469.730, 183.670
471.064, 194.210
472.398, 144.739
473.731, 195.254
475.065, 22.753
476.398, 38.223
477.731, 43.667
479.064, 43.086
480.397, 5.480
481.729, 113.835
483.062, 85.169
484.394, 186.479
485.725, 167.770
487.057, 136.040
488.389, 146.288
489.720, 80.514
491.051, 32.717
492.382, 45.888
493.712, 26.032
495.043, 24.858
496.373, 79.807
497.703, 32.844
499.032, 18.944
500.362, 42.100
501.691, 33.677
503.020, 40.424
504.349, 54.141
505.678, 119.833
507.007, 138.502
508.335, 224.149
509.663, 287.778
510.991, 410.386
512.319, 479.975
513.646, 498.544
514.973, 663.094
516.300, 718.625
517.627, 873.137
518.954, 929.631
520.280, 891.106
521.607, 1063.561
522.933, 1052.000
524.259, 1203.420
525.584, 1143.821
526.910, 1183.205
528.235, 1205.573
529.560, 1196.930
530.885, 1220.286
532.209, 1164.635
533.534, 1179.973
534.858, 1174.062
536.182, 1213.652
537.506, 1177.994
538.829, 1242.333
540.152, 1256.661
541.476, 1179.986
542.799, 1191.294
544.121, 1143.599
545.444, 1207.887
546.766, 1196.153
548.088, 1171.397
549.410, 1149.620
550.732, 1258.826
552.053, 1284.015
553.375, 1246.183
554.696, 1171.350
556.017, 1205.495
557.337, 1219.617
558.658, 1206.723
559.978, 1230.813
561.298, 1143.879
562.618, 1121.922
563.938, 1116.940
565.257, 1044.935
566.576, 1042.906
567.895, 1027.491
569.214, 1028.771
570.533, 1017.665
571.851, 961.534
573.170, 951.376
574.488, 921.194
575.805, 918.984
577.123, 894.749
578.440, 838.488
579.758, 854.199
581.075, 823.885
582.391, 808.544
583.708, 713.177
585.024, 595.782
586.341, 538.362
587.657, 430.914
588.972, 381.439
590.288, 330.938
591.603, 227.433
592.918, 182.345
594.233, 45.400
595.548, 47.881
596.863, 39.629
598.177, 121.177
599.491, 168.800
600.805, 136.530
602.119, 164.356
603.432, 143.310
604.746, 127.389
606.059, 107.597
607.372, 86.924
608.685, 26.363
609.997, 46.881
611.309, 16.549
612.621, 41.231
613.933, 44.910
615.245, 73.093
616.557, 73.039
617.868, 164.139
619.179, 139.099
620.490, 234.132
621.801, 215.136
623.111, 283.109
624.421, 286.053
625.731, 366.969
627.041, 392.857
628.351, 465.717
629.660, 484.551
630.970, 575.303
632.279, 654.081
633.588, 684.869
634.896, 709.979
636.205, 745.125
637.513, 806.036
638.821, 878.021
640.129, 977.396
641.437, 1072.617
642.744, 1243.177
644.051, 1271.674
645.358, 1400.004
646.665, 1589.342
647.972, 1742.371
649.278, 1973.819
650.584, 2074.498
651.890, 2368.661
653.196, 2713.979
654.502, 2968.799
655.807, 3383.519
657.113, 3615.117
658.418, 4106.165
659.722, 4726.267
661.027, 5304.490
662.331, 6017.098
663.636, 7118.902
664.940, 8235.758
666.244, 9377.967
667.547, 11283.073
668.851, 13285.223
670.154, 16388.328
671.457, 19536.604
672.760, 23514.854
674.062, 28735.422
675.365, 34144.680
676.667, 40432.027
677.969, 45019.246
679.271, 50095.246
680.572, 51998.523
681.874, 51141.594
683.175, 48896.551
684.476, 44255.305
685.777, 37971.414
687.077, 31890.676
688.378, 26289.646
689.678, 21948.742
690.978, 18076.152
692.278, 15172.742
693.577, 12275.354
694.877, 10716.566
696.176, 9205.221
697.475, 8117.325
698.774, 7009.986
700.072, 6296.051
701.371, 5688.517
702.669, 5122.342
703.967, 4558.085
705.265, 4289.964
706.562, 4155.777
707.860, 3784.104
709.157, 3562.097
710.454, 3475.665
711.751, 3250.231
713.047, 3214.790
714.344, 3097.782
715.640, 3012.536
716.936, 2981.765
718.232, 2898.019
719.527, 2896.716
720.823, 2840.876
722.118, 2766.212
723.413, 2837.237
724.708, 2785.238
726.002, 2801.213
727.297, 2843.165
728.591, 2776.094
729.885, 2842.997
731.179, 2865.876
732.472, 2783.733
733.766, 2735.565
735.059, 2782.373
736.352, 2644.159
737.645, 2721.920
738.937, 2617.660
740.230, 2546.375
741.522, 2412.068
742.814, 2345.896
744.106, 2234.754
745.397, 2174.014
746.689, 2038.618
747.980, 1912.937
749.271, 1838.040
750.562, 1784.588
751.853, 1692.168
753.143, 1638.206
754.433, 1511.082
755.723, 1464.927
757.013, 1399.758
758.303, 1332.806
759.592, 1276.014
760.881, 1272.441
762.170, 1161.958
763.459, 1120.747
764.748, 1088.314
766.036, 978.575
767.325, 1005.721
768.613, 847.301
769.901, 778.416
771.188, 798.195
772.476, 782.961
773.763, 659.606
775.050, 608.134
776.337, 510.046
777.624, 479.866
778.910, 557.958
780.196, 480.049
781.482, 455.213
782.768, 476.366
784.054, 442.507
785.339, 463.637
786.625, 352.757
787.910, 363.865
789.195, 321.968
790.479, 362.063
791.764, 374.151
793.048, 317.231
794.332, 347.311
795.616, 303.382
796.900, 283.444
798.183, 297.496
799.467, 314.539
800.750, 331.572
802.033, 312.597
803.316, 329.614
804.598, 309.679
805.880, 238.634
807.163, 280.638
808.445, 231.652
809.726, 232.690
811.008, 127.741
812.289, 201.800
813.570, 159.875
814.851, 188.945
816.132, 97.014
817.413, 141.075
818.693, 151.129
819.973, 109.177
821.253, 129.179
822.533, 110.472
823.813, 115.268
825.092, 68.281
826.371, 68.284
827.650, 1.277
828.929, 52.255
830.208, 27.224
831.486, 49.181
832.764, 12.872
834.042, 22.057
835.320, 67.974
836.598, 14.118
837.875, 10.229
839.152, 38.357
840.429, 74.515
841.706, 54.720
842.983, 39.962
844.259, 63.233
845.536, 130.545
846.812, 67.932
848.088, 78.363
849.363, 35.842
850.639, 78.347
851.914, 16.898
853.189, 79.466
854.464, 14.080
855.739, 18.292
857.013, 31.657
858.288, 1.015
859.562, 25.635
860.836, 15.302
862.110, 6.982
863.383, 94.671
864.656, 31.592
865.930, 25.851
867.203, 34.893
868.475, 30.655
869.748, 51.572
871.020, 12.795
872.292, 48.017
873.564, 79.235
874.836, 30.453
876.108, 99.669
877.379, 107.897
878.650, 147.132
879.922, 183.383
881.192, 159.646
882.463, 173.910
883.733, 231.175
885.004, 304.440
886.274, 314.707
887.544, 351.974
888.813, 448.263
890.083, 431.561
891.352, 438.859
892.621, 541.172
893.890, 645.490
895.159, 578.830
896.427, 531.188
897.695, 593.550
898.964, 709.919
900.232, 681.300
901.499, 740.687
902.767, 796.084
904.034, 743.496
905.301, 799.920
906.568, 863.377
907.835, 910.893
909.102, 954.178
910.368, 935.166
911.634, 1009.909
912.900, 1058.718
914.166, 1047.581
915.432, 1163.497
916.697, 1255.461
917.962, 1319.596
919.227, 1545.095
920.492, 1731.465
921.757, 1880.824
923.021, 1935.800
924.285, 2172.941
925.550, 2393.089
926.813, 2548.248
928.077, 2606.414
929.341, 2843.586
930.604, 2849.760
931.867, 2887.936
933.130, 2793.114
934.393, 2688.292
935.655, 2730.474
936.918, 2361.655
938.180, 2400.838
939.442, 2169.025
940.703, 2065.212
941.965, 1947.397
943.226, 1789.583
944.488, 1726.770
945.749, 1594.956
947.009, 1505.363
948.270, 1473.326
949.530, 1328.511
950.791, 1250.695
952.051, 1156.285
953.311, 1115.058
954.570, 1015.238
955.830, 1006.417
957.089, 948.595
958.348, 921.771
959.607, 808.947
960.866, 820.121
962.124, 812.292
963.383, 762.409
964.641, 829.576
965.899, 750.739
967.156, 760.900
968.414, 742.889
969.671, 708.042
970.928, 740.192
972.185, 745.229
973.442, 754.348
974.699, 728.387
975.955, 773.444
977.211, 744.301
978.468, 694.156
979.723, 709.664
980.979, 633.447
982.234, 659.122
983.490, 716.888
984.745, 683.854
986.000, 626.502
987.254, 675.341
988.509, 640.248
989.763, 721.350
991.017, 622.048
992.271, 696.575
993.525, 661.512
994.779, 722.148
996.032, 701.588
997.285, 687.667
998.538, 743.710
999.791, 670.107
1001.044, 786.174
1002.296, 721.743
1003.548, 791.955
1004.800, 831.791
1006.052, 838.091
1007.304, 926.303
1008.555, 926.460
1009.807, 913.434
1011.058, 978.538
1012.309, 1049.332
1013.559, 1093.340
1014.810, 1103.168
1016.060, 1091.781
1017.310, 1186.467
1018.560, 1115.506
1019.810, 1174.717
1021.060, 1240.544
1022.309, 1274.233
1023.558, 1282.848
1024.807, 1373.799
1026.056, 1353.572
1027.305, 1410.219
1028.553, 1497.348
1029.801, 1576.080
1031.049, 1683.728
1032.297, 1729.726
1033.545, 1817.500
1034.793, 1880.392
1036.040, 2027.508
1037.287, 2071.614
1038.534, 2282.115
1039.781, 2310.575
1041.027, 2461.586
1042.274, 2418.387
1043.520, 2479.977
1044.766, 2680.696
1046.012, 2574.526
1047.257, 2801.567
1048.503, 2766.800
1049.748, 2943.983
1050.993, 2882.419
1052.238, 3040.624
1053.483, 3153.043
1054.727, 3061.431
1055.971, 3169.489
1057.216, 3337.644
1058.459, 3380.681
1059.703, 3524.520
1060.947, 3597.778
1062.190, 3652.825
1063.433, 3783.517
1064.676, 3795.961
1065.919, 3893.598
1067.162, 3799.531
1068.404, 4064.861
1069.646, 3975.314
1070.888, 3902.113
1072.130, 3930.414
1073.372, 3783.665
1074.613, 3518.779
1075.855, 3454.730
1077.096, 3300.843
1078.337, 3089.666
1079.578, 3074.788
1080.818, 2840.298
1082.059, 2898.769
1083.299, 2645.865
1084.539, 2587.375
1085.779, 2519.428
1087.018, 2554.882
1088.258, 2412.629
1089.497, 2245.630
1090.736, 1973.369
1091.975, 1809.224
1093.213, 1713.217
1094.452, 1519.978
1095.690, 1589.869
1096.928, 1355.550
1098.166, 1393.530
1099.404, 1249.133
1100.642, 1158.614
1101.879, 1098.101
1103.116, 1121.752
1104.353, 998.319
1105.590, 986.742
1106.827, 930.367
1108.063, 888.233
1109.299, 851.360
1110.536, 772.969
1111.771, 801.297
1113.007, 751.049
1114.243, 652.693
1115.478, 702.003
1116.713, 650.997
1117.948, 607.992
1119.183, 522.027
1120.418, 595.926
1121.652, 668.677
1122.886, 775.400
1124.120, 809.001
1125.354, 641.524
1126.588, 525.034
1127.821, 506.445
1129.055, 408.936
1130.288, 456.492
1131.521, 435.286
1132.753, 404.909
1133.986, 422.439
1135.218, 331.950
1136.450, 386.308
1137.682, 269.663
1138.914, 364.060
1140.146, 312.304
1141.377, 216.577
1142.609, 275.665
1143.840, 218.695
1145.071, 276.104
1146.301, 254.788
1147.532, 260.093
1148.762, 226.946
1149.992, 232.676
1151.222, 179.530
1152.452, 166.405
1153.682, 193.263
1154.911, 121.797
1156.140, 149.435
1157.369, 153.900
1158.598, 132.575
1159.827, 78.075
1161.055, 100.952
1162.284, 6.348
1163.512, 46.896
1164.740, 24.331
1165.967, 69.592
1167.195, 13.223
1168.422, 18.887
1169.650, 16.929
1170.877, 66.828
1172.103, 20.498
1173.330, 18.163
1174.557, 40.220
1175.783, 15.610
1177.009, 56.711
1178.235, 39.008
1179.461, 26.937
1180.686, 75.303
1181.912, 45.320
1183.137, 12.733
1184.362, 13.632
1185.587, 66.417
1186.811, 17.708
1188.036, 23.893
1189.260, 38.530
1190.484, 3.063
1191.708, 68.623
1192.932, 54.219
1194.155, 17.082
1195.378, 12.446
1196.602, 27.424
1197.825, 0.559
1199.047, 11.555
1200.270, 1.090
1201.492, 1.690
1202.715, 11.280
1203.937, 10.334
1205.159, 56.208
1206.380, 53.001
1207.602, 11.874
1208.823, 8.486
1210.044, 41.254
1211.265, 1.072
1212.486, 0.540
1213.707, 19.307
1214.927, 42.523
1216.147, 3.301
1217.367, 2.376
1218.587, 90.979
1219.807, 25.744
1221.027, 123.040
1222.246, 5.280
1223.465, 9.436
1224.684, 18.472
1225.903, 98.055
1227.121, 37.329
1228.340, 38.792
1229.558, 90.211
1230.776, 34.725
1231.994, 87.229
1233.212, 35.344
1234.429, 18.220
1235.646, 82.360
1236.864, 136.181
1238.081, 105.516
1239.297, 77.018
1240.514, 113.426
1241.730, 81.779
1242.947, 116.339
1244.163, 64.011
1245.378, 119.388
1246.594, 141.388
1247.810, 131.241
1249.025, 91.706
1250.240, 103.982
1251.455, 94.702
1252.670, 79.512
1253.885, 79.078
1255.099, 176.566
1256.313, 76.811
1257.527, 110.865
1258.741, 150.390
1259.955, 105.450
1261.168, 96.297
1262.382, 154.744
1263.595, 144.807
1264.808, 126.232
1266.021, 149.285
1267.233, 175.388
1268.446, 171.955
1269.658, 190.606
1270.870, 200.733
1272.082, 194.303
1273.294, 207.133
1274.505, 177.792
1275.716, 152.028
1276.928, 98.571
1278.139, 114.246
1279.349, 126.743
1280.560, 120.230
1281.770, 145.322
1282.981, 135.669
1284.191, 115.411
1285.401, 142.815
1286.610, 128.675
1287.820, 164.790
1289.029, 170.143
1290.239, 94.749
1291.448, 240.224
1292.656, 101.555
1293.865, 183.713
1295.073, 202.596
1296.282, 164.520
1297.490, 146.935
1298.698, 142.239
1299.906, 206.547
1301.113, 167.466
1302.320, 194.166
1303.528, 130.012
1304.735, 158.889
1305.942, 88.918
1307.148, 153.912
1308.355, 115.688
1309.561, 121.226
1310.767, 142.541
1311.973, 145.947
1313.179, 146.272
1314.384, 145.233
1315.590, 162.280
1316.795, 199.952
1318.000, 183.533
1319.205, 176.958
1320.410, 152.675
1321.614, 126.933
1322.819, 69.561
1324.023, 61.926
1325.227, 116.949
1326.431, 194.917
1327.634, 85.632
1328.838, 170.002
1330.041, 138.257
1331.244, 163.438
1332.447, 165.093
1333.650, 151.139
1334.852, 149.107
1336.055, 133.625
1337.257, 108.499
1338.459, 103.335
1339.661, 72.632
1340.862, 122.718
1342.064, 104.616
1343.265, 105.134
1344.466, 137.828
1345.667, 126.236
1346.868, 105.417
1348.068, 132.812
1349.269, 169.180
1350.469, 116.774
1351.669, 102.000
1352.869, 52.872
1354.069, 142.623
1355.268, 102.601
1356.468, 67.172
1357.667, 77.595
1358.866, 184.934
1360.065, 42.105
1361.263, 90.884
1362.462, 71.184
1363.660, 69.619
1364.858, 140.970
1366.056, 14.402
1367.254, 7.857
1368.451, 44.064
1369.649, 91.281
1370.846, 13.057
1372.043, 77.277
1373.240, 29.620
1374.436, 47.774
1375.633, 37.586
1376.829, 72.239
1378.025, 96.738
1379.221, 17.191
1380.417, 70.535
1381.613, 23.514
1382.808, 5.764
1384.003, 98.935
1385.199, 93.784
1386.393, 52.912
1387.588, 33.665
1388.783, 56.079
1389.977, 6.966
1391.171, 118.143
1392.365, 20.718
1393.559, 19.073
1394.753, 91.865
1395.946, 65.505
1397.140, 5.294
1398.333, 5.111
1399.526, 126.792
1400.719, 14.962
1401.911, 49.314
1403.104, 108.717
1404.296, 12.107
1405.488, 31.196
1406.680, 62.278
1407.872, 19.898
1409.063, 41.759
1410.255, 29.769
1411.446, 78.211
1412.637, 135.683
1413.828, 2.058
1415.018, 32.871
1416.209, 166.072
1417.399, 184.198
1418.589, 50.521
1419.779, 166.726
1420.969, 112.188
1422.159, 132.501
1423.348, 111.273
1424.537, 180.412
1425.726, 178.218
1426.915, 135.351
1428.104, 54.890
1429.293, 142.481
1430.481, 47.816
1431.669, 28.729
1432.857, 95.273
1434.045, 140.082
1435.233, 147.186
1436.420, 168.696
1437.608, 176.948
1438.795, 160.244
1439.982, 178.156
1441.169, 160.568
1442.355, 160.789
1443.542, 156.759
1444.728, 212.033
1445.914, 151.068
1447.100, 96.479
1448.286, 255.843
1449.472, 217.134
1450.657, 134.817
1451.842, 271.849
1453.027, 203.582
1454.212, 192.828
1455.397, 229.178
1456.581, 197.300
1457.766, 277.838
1458.950, 212.817
1460.134, 223.361
1461.318, 196.706
1462.501, 191.219
1463.685, 135.272
1464.868, 106.464
1466.051, 156.359
1467.234, 120.730
1468.417, 169.432
1469.600, 151.367
1470.782, 151.872
1471.965, 224.334
1473.147, 40.114
1474.329, 264.203
1475.510, 213.329
1476.692, 185.482
1477.873, 50.959
1479.055, 204.089
1480.236, 81.948
1481.416, 323.771
1482.597, 98.553
1483.778, 186.980
