##NAMES=Fluorapatite
##RRUFFID=R050122
##IDEAL CHEMISTRY=Ca_5_(PO_4_)_3_F
##LOCALITY=Cruziero mine, San Jose, Minas Gerais, Brazil
##OWNER=RRUFF
##SOURCE=Carlos and Paulo Vasconcelos
##DESCRIPTION=Green fragment
##STATUS=The identification of this mineral has been confirmed by X-ray diffraction and chemical analysis
##URL=rruff.info/R050122
##MEASURED CHEMISTRY=(Ca_4.99_Mn_0.01_)_Î£=5_(P_1.00_O_4_)_3_F_1.00_; trace amounts of Fe
##PIN_ID=L00505
##ORIENTATION=Laser parallel to -a* (-1 0 0). Fiducial mark perpendicular to laser is parallel to -c [0 0 -1]
127.427, 0.000
128.822, 1.634
130.217, 172.923
131.612, 84.991
133.006, 221.317
134.400, 233.500
135.794, 465.833
137.188, 466.056
138.581, 477.483
139.975, 536.746
141.368, 350.632
142.760, 374.998
144.153, 232.152
145.545, 301.139
146.937, 181.008
148.329, 105.815
149.720, 271.587
151.112, 137.380
152.503, 286.203
153.893, 201.076
155.284, 281.967
156.674, 286.894
158.064, 371.878
159.454, 369.751
160.843, 233.828
162.233, 347.071
163.622, 176.314
165.011, 238.642
166.399, 257.105
167.787, 265.691
169.175, 267.315
170.563, 184.981
171.951, 280.700
173.338, 142.742
174.725, 198.215
176.112, 132.093
177.499, 31.424
178.885, 144.048
180.271, 17.143
181.657, 90.322
183.043, 6.491
184.428, 173.732
185.813, 17.489
187.198, 70.330
188.583, 144.509
189.967, 111.031
191.351, 97.711
192.735, 16.823
194.119, 7.002
195.502, 55.174
196.885, 0.338
198.268, 241.461
199.651, 9.576
201.033, 173.851
202.415, 15.965
203.797, 74.634
205.179, 96.191
206.561, 24.977
207.942, 221.835
209.323, 58.172
210.703, 120.448
212.084, 153.956
213.464, 62.015
214.844, 204.880
216.224, 33.359
217.603, 179.056
218.983, 10.369
220.362, 104.281
221.741, 3.314
223.119, 30.270
224.497, 115.820
225.875, 32.220
227.253, 118.500
228.631, 12.737
230.008, 195.918
231.385, 131.341
232.762, 91.746
234.139, 205.106
235.515, 94.607
236.891, 327.683
238.267, 106.095
239.643, 175.573
241.018, 360.705
242.393, 28.005
243.768, 250.172
245.143, 19.416
246.517, 142.781
247.891, 137.363
249.265, 106.412
250.639, 153.856
252.012, 40.039
253.386, 193.472
254.759, 28.724
256.131, 209.798
257.504, 136.579
258.876, 158.407
260.248, 256.629
261.620, 198.747
262.991, 248.105
264.363, 252.625
265.734, 272.440
267.104, 276.593
268.475, 301.016
269.845, 279.733
271.215, 32.678
272.585, 242.974
273.955, 122.044
275.324, 244.197
276.693, 161.172
278.062, 63.754
279.431, 183.550
280.799, 13.497
282.167, 68.574
283.535, 152.429
284.903, 21.241
286.270, 180.004
287.638, 115.701
289.005, 224.348
290.371, 47.942
291.738, 71.487
293.104, 119.550
294.470, 13.378
295.836, 172.497
297.201, 55.654
298.567, 215.121
299.932, 3.335
301.296, 120.559
302.661, 227.045
304.025, 8.273
305.389, 206.005
306.753, 90.211
308.117, 193.671
309.480, 139.212
310.843, 70.365
312.206, 155.565
313.569, 8.023
314.931, 182.970
316.293, 73.373
317.655, 58.396
319.017, 130.039
320.378, 19.005
321.740, 202.646
323.101, 93.102
324.461, 78.620
325.822, 81.267
327.182, 17.075
328.542, 166.027
329.902, 15.638
331.261, 175.607
332.621, 85.993
333.980, 195.914
335.339, 70.234
336.697, 19.642
338.056, 210.868
339.414, 8.101
340.772, 101.248
342.129, 32.264
343.487, 11.538
344.844, 241.237
346.201, 71.054
347.557, 230.221
348.914, 28.684
350.270, 160.396
351.626, 80.466
352.982, 80.068
354.337, 243.274
355.693, 53.271
357.048, 152.251
358.402, 144.755
359.757, 154.475
361.111, 133.223
362.465, 12.414
363.819, 296.438
365.173, 3.832
366.526, 235.212
367.879, 84.622
369.232, 64.011
370.585, 202.887
371.937, 52.632
373.290, 211.159
374.642, 104.420
375.993, 63.096
377.345, 182.101
378.696, 49.282
380.047, 248.977
381.398, 88.107
382.748, 216.978
384.099, 115.303
385.449, 73.985
386.799, 284.564
388.148, 3.220
389.497, 141.661
390.847, 9.667
392.196, 125.191
393.544, 162.971
394.893, 17.938
396.241, 269.972
397.589, 88.453
398.936, 146.688
400.284, 94.329
401.631, 54.546
402.978, 251.979
404.325, 40.121
405.672, 208.229
407.018, 185.526
408.364, 64.502
409.710, 282.678
411.055, 9.534
412.401, 217.652
413.746, 24.681
415.091, 49.661
416.435, 226.593
417.780, 33.180
419.124, 349.995
420.468, 86.732
421.812, 173.422
423.155, 240.062
424.498, 186.657
425.842, 353.234
427.184, 129.766
428.527, 476.884
429.869, 373.321
431.211, 379.716
432.553, 446.046
433.895, 271.920
435.236, 738.352
436.577, 464.514
437.918, 711.584
439.259, 827.704
440.599, 563.482
441.940, 879.520
443.280, 824.091
444.619, 869.758
445.959, 885.687
447.298, 891.077
448.637, 956.930
449.976, 672.649
451.315, 858.446
452.653, 513.795
453.991, 539.198
455.329, 534.753
456.667, 319.788
458.004, 616.202
459.341, 261.343
460.678, 436.838
462.015, 482.197
463.352, 267.452
464.688, 484.521
466.024, 209.299
467.360, 344.814
468.695, 271.188
470.031, 246.352
471.366, 373.582
472.701, 88.237
474.035, 264.217
475.370, 119.380
476.704, 254.316
478.038, 420.139
479.372, 34.482
480.705, 439.612
482.038, 173.609
483.371, 11.509
484.704, 377.219
486.037, 111.331
487.369, 306.416
488.701, 60.978
490.033, 375.307
491.365, 249.891
492.696, 144.146
494.027, 247.968
495.358, 36.438
496.689, 187.150
498.019, 90.690
499.350, 34.712
500.680, 347.138
502.009, 31.286
503.339, 444.370
504.668, 237.812
505.997, 201.587
507.326, 404.843
508.655, 18.950
509.983, 399.402
511.311, 103.128
512.639, 206.031
513.967, 328.874
515.295, 96.889
516.622, 329.546
517.949, 16.380
519.276, 136.505
520.602, 449.674
521.929, 47.461
523.255, 313.343
524.581, 96.646
525.906, 247.849
527.232, 151.644
528.557, 143.802
529.882, 255.809
531.207, 69.072
532.531, 320.885
533.855, 35.810
535.179, 266.158
536.503, 177.828
537.827, 260.988
539.150, 328.559
540.473, 111.303
541.796, 143.786
543.119, 285.816
544.441, 1.128
545.764, 216.797
547.086, 189.130
548.407, 199.823
549.729, 311.226
551.050, 76.217
552.371, 364.889
553.692, 76.791
555.013, 306.197
556.333, 157.866
557.653, 213.142
558.973, 344.024
560.293, 15.463
561.612, 435.721
562.932, 206.841
564.251, 157.683
565.569, 418.490
566.888, 9.146
568.206, 445.250
569.524, 226.164
570.842, 355.339
572.160, 535.862
573.477, 285.679
574.795, 765.351
576.112, 495.838
577.428, 945.212
578.745, 1125.886
580.061, 996.531
581.377, 1346.914
582.693, 977.176
584.009, 726.486
585.324, 816.898
586.639, 236.529
587.954, 747.727
589.269, 507.977
590.583, 489.369
591.897, 759.514
593.212, 339.453
594.525, 805.291
595.839, 175.283
597.152, 425.865
598.465, 575.777
599.778, 435.820
601.091, 656.080
602.403, 515.844
603.716, 647.332
605.028, 916.998
606.339, 926.617
607.651, 944.881
608.962, 650.533
610.273, 759.994
611.584, 619.402
612.895, 418.760
614.205, 758.588
615.515, 197.826
616.825, 567.594
618.135, 636.473
619.444, 245.574
620.754, 745.543
622.063, 64.271
623.372, 354.211
624.680, 332.572
625.989, 81.393
627.297, 450.094
628.605, 38.434
629.912, 397.080
631.220, 144.912
632.527, 73.133
633.834, 569.617
635.141, 97.680
636.447, 506.035
637.754, 262.688
639.060, 410.938
640.366, 353.953
641.671, 168.752
642.977, 537.162
644.282, 157.398
645.587, 185.262
646.892, 537.277
648.196, 155.176
649.501, 412.633
650.805, 470.645
652.109, 97.982
653.412, 561.670
654.716, 58.637
656.019, 495.123
657.322, 341.539
658.625, 229.016
659.927, 572.402
661.230, 249.779
662.532, 456.641
663.834, 363.299
665.135, 290.523
666.437, 745.986
667.738, 293.119
669.039, 579.174
670.340, 445.982
671.640, 7.117
672.940, 809.342
674.241, 136.090
675.540, 509.223
676.840, 318.479
678.139, 355.178
679.439, 576.418
680.738, 302.852
682.036, 548.316
683.335, 155.109
684.633, 390.713
685.931, 486.240
687.229, 202.455
688.527, 747.441
689.824, 179.400
691.121, 360.695
692.418, 476.492
693.715, 122.402
695.012, 568.074
696.308, 269.879
697.604, 154.861
698.900, 719.928
700.195, 154.330
701.491, 668.531
702.786, 294.006
704.081, 288.953
705.376, 363.904
706.670, 130.652
707.964, 436.893
709.259, 192.264
710.552, 136.232
711.846, 321.277
713.139, 13.471
714.433, 541.049
715.726, 113.928
717.018, 508.389
718.311, 403.387
719.603, 147.582
720.895, 471.531
722.187, 356.400
723.479, 58.270
724.770, 613.070
726.061, 87.174
727.352, 451.785
728.643, 216.471
729.934, 440.402
731.224, 445.012
732.514, 409.576
733.804, 624.109
735.094, 128.598
736.383, 263.047
737.672, 637.453
738.961, 88.184
740.250, 556.064
741.539, 420.270
742.827, 124.010
744.115, 738.133
745.403, 62.217
746.691, 516.250
747.978, 460.244
749.265, 35.377
750.552, 908.488
751.839, 171.404
753.126, 502.518
754.412, 286.264
755.698, 219.971
756.984, 773.635
758.270, 37.264
759.555, 542.426
760.840, 375.961
762.125, 20.539
763.410, 612.879
764.695, 316.260
765.979, 429.604
767.263, 472.914
768.547, 186.186
769.831, 781.154
771.114, 173.525
772.398, 466.682
773.681, 419.805
774.964, 82.268
776.246, 525.312
777.529, 56.611
778.811, 469.414
780.093, 442.098
781.375, 243.533
782.656, 857.725
783.937, 288.328
785.219, 211.131
786.499, 872.873
787.780, 95.934
789.060, 696.701
790.341, 417.947
791.621, 460.523
792.901, 592.514
794.180, 44.967
795.459, 957.285
796.739, 198.756
798.017, 8.850
799.296, 822.480
800.575, 46.100
801.853, 506.139
803.131, 347.322
804.409, 29.504
805.686, 651.652
806.964, 52.402
808.241, 584.508
809.518, 304.688
810.795, 116.779
812.071, 968.625
813.347, 90.021
814.623, 541.936
815.899, 673.244
817.175, 325.217
818.450, 547.029
819.726, 168.514
821.001, 400.420
822.275, 801.879
823.550, 133.740
824.824, 685.574
826.098, 62.783
827.372, 364.572
828.646, 685.277
829.920, 32.965
831.193, 708.465
832.466, 150.031
833.739, 441.732
835.011, 483.080
836.284, 24.744
837.556, 415.439
838.828, 457.059
840.100, 128.664
841.371, 719.512
842.642, 78.918
843.914, 571.738
845.184, 574.658
846.455, 56.143
847.726, 736.553
848.996, 82.002
850.266, 428.924
851.536, 609.359
852.805, 140.707
854.075, 608.273
855.344, 69.602
856.613, 310.592
857.881, 951.555
859.150, 132.824
860.418, 331.920
861.686, 203.215
862.954, 673.795
864.222, 624.143
865.489, 3.988
866.756, 612.684
868.023, 243.979
869.290, 254.426
870.557, 455.711
871.823, 326.982
873.089, 657.410
874.355, 458.670
875.621, 478.328
876.886, 599.871
878.152, 461.121
879.417, 341.311
880.682, 562.547
881.946, 336.727
883.211, 814.324
884.475, 125.369
885.739, 366.406
887.003, 657.438
888.266, 147.572
889.530, 888.270
890.793, 459.307
892.056, 181.004
893.318, 732.027
894.581, 13.047
895.843, 853.170
897.105, 264.178
898.367, 323.992
899.629, 964.994
900.890, 14.010
902.152, 1031.186
903.413, 522.172
904.673, 157.492
905.934, 753.424
907.194, 154.158
908.454, 244.619
909.714, 525.529
910.974, 45.338
912.234, 825.555
913.493, 366.447
914.752, 402.500
916.011, 633.391
917.270, 214.279
918.528, 535.172
919.786, 526.066
921.044, 53.561
922.302, 1077.314
923.560, 257.633
924.817, 808.521
926.074, 829.412
927.331, 359.385
928.588, 1020.291
929.844, 170.191
931.101, 571.111
932.357, 1002.035
933.613, 47.236
934.868, 1133.688
936.124, 454.621
937.379, 655.244
938.634, 1166.197
939.889, 138.229
941.144, 829.201
942.398, 600.184
943.652, 461.172
944.906, 1512.170
946.160, 567.652
947.414, 1558.664
948.667, 1059.396
949.920, 957.307
951.173, 1898.350
952.426, 1374.033
953.678, 1715.100
954.931, 2906.182
956.183, 2376.219
957.435, 4787.318
958.686, 7107.613
959.938, 12268.750
961.189, 19456.326
962.440, 23056.957
963.691, 22308.492
964.941, 15992.018
966.192, 9683.219
967.442, 6320.400
968.692, 4071.625
969.942, 2762.855
971.191, 2323.846
972.441, 825.104
973.690, 1226.375
974.939, 917.279
976.187, 548.570
977.436, 1389.250
978.684, 70.586
979.932, 911.938
981.180, 443.543
982.428, 574.934
983.675, 1056.104
984.922, 107.516
986.169, 528.941
987.416, 629.650
988.663, 11.178
989.909, 972.719
991.155, 244.002
992.401, 95.621
993.647, 621.410
994.893, 66.943
996.138, 574.709
997.383, 315.840
998.628, 377.527
999.873, 1203.363
1001.117, 245.078
1002.362, 386.861
1003.606, 818.527
1004.850, 30.396
1006.093, 961.992
1007.337, 534.262
1008.580, 396.252
1009.823, 788.189
1011.066, 190.264
1012.308, 732.422
1013.551, 634.807
1014.793, 43.000
1016.035, 1358.334
1017.277, 484.057
1018.518, 456.312
1019.760, 1068.631
1021.001, 380.959
1022.242, 1253.318
1023.483, 945.699
1024.723, 348.092
1025.964, 1400.557
1027.204, 574.596
1028.444, 1247.096
1029.683, 1599.615
1030.923, 1132.146
1032.162, 1585.039
1033.401, 747.727
1034.640, 600.336
1035.879, 1262.961
1037.117, 121.488
1038.355, 1444.148
1039.593, 916.840
1040.831, 679.543
1042.069, 1602.301
1043.306, 435.453
1044.544, 868.031
1045.781, 1520.852
1047.017, 233.750
1048.254, 1726.602
1049.490, 799.477
1050.726, 711.738
1051.962, 1324.664
1053.198, 467.602
1054.434, 1793.230
1055.669, 1106.211
1056.904, 779.203
1058.139, 1772.211
1059.374, 685.285
1060.608, 936.781
1061.843, 1259.891
1063.077, 413.316
1064.311, 1186.566
1065.544, 729.832
1066.778, 423.105
1068.011, 1736.395
1069.244, 169.703
1070.477, 1051.285
1071.710, 964.617
1072.942, 578.836
1074.174, 1242.262
1075.406, 765.695
1076.638, 900.500
1077.870, 1754.023
1079.101, 357.562
1080.332, 1081.109
1081.563, 874.672
1082.794, 466.945
1084.025, 1420.551
1085.255, 654.160
1086.485, 707.898
1087.715, 1091.645
1088.945, 245.441
1090.175, 1559.242
1091.404, 783.059
1092.633, 406.883
1093.862, 1260.719
1095.091, 324.590
1096.319, 829.031
1097.548, 812.926
1098.776, 96.848
1100.004, 1160.777
1101.231, 494.750
1102.459, 669.242
1103.686, 1743.230
1104.913, 127.234
1106.140, 864.160
1107.367, 698.180
1108.593, 177.789
1109.819, 1156.676
1111.046, 19.332
1112.271, 384.668
1113.497, 718.715
1114.722, 337.230
1115.948, 1296.691
1117.173, 510.621
1118.398, 54.559
1119.622, 1439.129
1120.847, 213.078
1122.071, 817.027
1123.295, 1060.984
1124.519, 224.945
1125.742, 879.770
1126.966, 843.750
1128.189, 112.270
1129.412, 1075.340
1130.635, 129.312
1131.857, 733.285
1133.080, 937.273
1134.302, 71.262
1135.524, 852.727
1136.746, 926.727
1137.967, 130.730
1139.188, 1186.418
1140.410, 710.422
1141.631, 694.930
1142.851, 1358.891
1144.072, 292.918
1145.292, 938.391
1146.512, 552.418
1147.732, 536.477
1148.952, 1642.758
1150.172, 216.812
1151.391, 750.859
1152.610, 1392.805
1153.829, 66.879
1155.048, 1331.320
1156.266, 326.344
1157.484, 750.398
1158.702, 1300.910
1159.920, 114.949
1161.138, 979.469
1162.356, 1113.949
1163.573, 242.035
1164.790, 1342.957
1166.007, 517.113
1167.224, 781.039
1168.440, 1079.336
1169.656, 463.234
1170.872, 857.121
1172.088, 1035.098
1173.304, 21.043
1174.519, 1582.789
1175.735, 338.016
1176.950, 591.824
1178.165, 1653.355
1179.379, 207.219
1180.594, 1141.066
1181.808, 1215.883
1183.022, 100.297
1184.236, 1763.449
1185.449, 501.273
1186.663, 434.980
1187.876, 858.676
1189.089, 162.824
1190.302, 1396.477
1191.515, 823.785
1192.727, 247.398
1193.939, 1620.988
1195.151, 417.613
1196.363, 471.168
1197.575, 1204.703
1198.786, 388.211
1199.997, 1321.703
1201.208, 898.039
1202.419, 481.512
1203.630, 1934.957
1204.840, 610.039
1206.051, 1003.434
1207.261, 1486.809
1208.470, 283.844
1209.680, 1577.160
1210.889, 1360.449
1212.099, 343.707
1213.308, 2146.938
1214.516, 681.301
1215.725, 824.469
1216.933, 2097.621
1218.142, 175.949
1219.350, 1729.031
1220.557, 1832.086
1221.765, 79.289
1222.972, 2102.273
1224.180, 775.875
1225.387, 699.465
1226.593, 1862.359
1227.800, 689.879
1229.006, 1932.715
1230.213, 1415.504
1231.419, 634.277
1232.624, 1697.043
1233.830, 1349.793
1235.035, 742.535
1236.241, 1935.262
1237.446, 588.645
1238.650, 1171.344
1239.855, 1344.023
1241.059, 328.156
1242.264, 1690.793
1243.468, 983.410
1244.671, 677.891
1245.875, 2180.484
1247.078, 353.059
1248.282, 1396.312
1249.485, 2018.848
1250.687, 41.371
1251.890, 1633.859
1253.092, 1346.316
1254.295, 373.266
1255.497, 2175.590
1256.699, 947.547
1257.900, 1592.859
1259.102, 1255.062
1260.303, 631.266
1261.504, 1663.422
1262.705, 1065.488
1263.905, 347.434
1265.106, 1909.348
1266.306, 881.242
1267.506, 693.352
1268.706, 1785.094
1269.905, 306.809
1271.105, 1430.410
1272.304, 1722.039
1273.503, 29.891
1274.702, 1681.367
1275.900, 1042.809
1277.099, 537.012
1278.297, 1708.340
1279.495, 190.355
1280.693, 1062.020
1281.891, 1423.164
1283.088, 95.746
1284.285, 1475.473
1285.482, 426.434
1286.679, 207.363
1287.876, 2078.242
1289.072, 209.094
1290.268, 580.883
1291.464, 1551.406
1292.660, 98.102
1293.856, 1313.113
1295.051, 573.473
1296.247, 186.320
1297.442, 1833.086
1298.637, 482.734
1299.831, 342.625
1301.026, 1572.434
1302.220, 157.797
1303.414, 1031.637
1304.608, 460.820
1305.802, 290.156
1306.995, 1509.480
1308.188, 305.223
1309.381, 504.375
1310.574, 1727.926
1311.767, 46.977
1312.960, 1135.949
1314.152, 1234.863
1315.344, 116.277
1316.536, 1632.434
1317.728, 759.535
1318.919, 258.133
1320.110, 1778.113
1321.301, 13.406
1322.492, 1104.961
1323.683, 1754.449
1324.874, 362.703
1326.064, 1510.863
1327.254, 1063.062
1328.444, 61.082
1329.634, 1769.027
1330.823, 606.906
1332.013, 484.707
1333.202, 1892.129
1334.391, 79.801
1335.580, 837.246
1336.768, 1635.316
1337.956, 112.633
1339.145, 1829.891
1340.333, 1137.086
1341.520, 694.234
1342.708, 2191.035
1343.895, 127.766
1345.083, 664.418
1346.270, 2071.008
1347.456, 72.508
1348.643, 1513.820
1349.829, 1680.078
1351.016, 263.742
1352.202, 2002.059
1353.387, 757.984
1354.573, 893.844
1355.759, 2059.602
1356.944, 325.285
1358.129, 880.895
1359.314, 2236.449
1360.498, 128.047
1361.683, 1956.531
1362.867, 1483.426
1364.051, 111.258
1365.235, 2132.680
1366.419, 451.500
1367.602, 446.730
1368.785, 1641.750
1369.968, 56.348
1371.151, 1000.012
1372.334, 1622.832
1373.517, 296.590
1374.699, 2043.844
1375.881, 1024.230
1377.063, 734.562
1378.245, 2674.262
1379.426, 454.484
1380.608, 1394.652
1381.789, 2234.207
1382.970, 291.113
1384.150, 1591.086
1385.331, 1770.535
1386.511, 250.453
1387.691, 2500.387
1388.871, 1430.352
1390.051, 469.555
1391.231, 2759.426
1392.410, 898.258
1393.589, 1038.008
1394.768, 2283.438
1395.947, 423.094
1397.126, 1641.504
1398.304, 1680.840
1399.483, 145.660
1400.661, 2642.383
1401.838, 1019.586
1403.016, 948.547
1404.194, 1981.660
1405.371, 646.984
1406.548, 1164.801
1407.725, 2281.770
1408.901, 507.742
1410.078, 1933.332
1411.254, 1769.723
1412.430, 217.203
1413.606, 2208.750
1414.782, 1066.215
1415.958, 783.582
1417.133, 2488.852
1418.308, 124.637
1419.483, 1710.227
1420.658, 2067.285
1421.832, 288.039
1423.007, 1644.254
1424.181, 1525.348
1425.355, 522.164
1426.529, 2623.992
1427.702, 1040.691
1428.876, 992.613
1430.049, 2389.215
1431.222, 305.762
1432.395, 1070.750
1433.567, 2096.445
1434.740, 332.121
1435.912, 2405.668
1437.084, 1793.117
1438.256, 61.715
1439.428, 2806.324
1440.599, 1078.453
1441.770, 673.820
1442.942, 2768.250
1444.112, 509.426
1445.283, 1502.543
1446.454, 2223.980
1447.624, 416.543
1448.794, 2225.652
1449.964, 1813.457
1451.134, 174.953
1452.303, 2594.703
1453.473, 1475.598
1454.642, 833.973
1455.811, 2684.602
1456.980, 1027.434
1458.148, 1357.543
1459.317, 2677.871
1460.485, 108.117
1461.653, 1667.621
1462.821, 2252.320
1463.989, 122.312
1465.156, 2882.199
1466.323, 1553.449
1467.490, 509.043
1468.657, 3208.023
1469.824, 1066.008
1470.991, 1174.324
1472.157, 3298.828
1473.323, 337.949
1474.489, 1783.691
1475.655, 2327.480
1476.820, 135.980
1477.986, 2334.398
1479.151, 1374.281
1480.316, 593.824
1481.481, 2893.480
1482.645, 995.359
1483.810, 712.105
1484.974, 2618.695
1486.138, 765.086
1487.302, 1253.086
1488.465, 1981.145
1489.629, 315.898
1490.792, 2010.523
1491.955, 1584.648
1493.118, 337.953
1494.281, 2542.266
1495.443, 740.875
1496.606, 234.461
1497.768, 2629.703
1498.930, 657.391
1500.091, 1225.516
1501.253, 2175.164
1502.414, 4.297
1503.575, 1917.664
1504.736, 1632.379
1505.897, 20.277
1507.058, 2329.949
1508.218, 1121.133
1509.379, 56.590
1510.539, 1804.242
1511.698, 0.000
##END=



