##NAMES=Fluoro-richterite
##RRUFFID=R040019
##IDEAL CHEMISTRY=Na(NaCa)Mg_5_Si_8_O_22_F_2_
##LOCALITY=Wilberforce, Ontario, Canada
##OWNER=RRUFF
##SOURCE=University of Arizona Mineral Museum
##DESCRIPTION=Brown prismatic crystals
##STATUS=The identification of this mineral has been confirmed by X-ray diffraction and chemical analysis
##URL=rruff.info/R040019
##MEASURED CHEMISTRY=(Na_0.59_K_0.27_[box]_0.14_)_Σ=1_(Ca_1.30_Na_0.70_)_Σ=2_(Mg_4.67_Fe_0.17_Fe^3+^_0.10_Ti_0.03_Mn_0.02_Al_0.01_)_Σ=5_(Si_7.67_Al_0.33_)_Σ=8_(F_1.12_(OH)_0.88_)_Σ=2_; OH estimated by charge balance
##PIN_ID=L00117
##ORIENTATION=Laser parallel to [-1 0 -1]. Fiducial mark perpendicular to laser is parallel to -b* (0 -1 0)
80.823, 0.000
82.218, 40.704
83.614, 14.585
85.009, 6.282
86.404, 107.330
87.798, 80.137
89.193, 149.372
90.587, 262.014
91.981, 383.931
93.375, 426.418
94.768, 504.409
96.161, 581.305
97.554, 574.116
98.947, 770.736
100.340, 882.084
101.732, 1093.166
103.124, 1141.968
104.516, 1478.467
105.908, 1773.629
107.300, 2084.639
108.691, 2225.412
110.082, 2305.027
111.473, 2391.970
112.864, 2338.794
114.254, 2302.410
115.644, 2319.780
117.034, 2169.024
118.424, 1780.810
119.813, 1382.112
121.203, 1133.905
122.592, 840.165
123.981, 577.856
125.369, 400.940
126.758, 259.390
128.146, 112.179
129.534, 146.289
130.922, 100.701
132.309, 68.399
133.696, 19.630
135.083, 23.396
136.470, 11.088
137.857, 62.187
139.243, 115.770
140.630, 15.981
142.016, 194.362
143.401, 67.981
144.787, 49.066
146.172, 67.887
147.557, 0.557
148.942, 43.744
150.327, 21.198
151.711, 31.371
153.096, 90.765
154.480, 190.369
155.863, 220.175
157.247, 324.172
158.630, 396.355
160.013, 520.713
161.396, 686.240
162.779, 724.929
164.161, 743.730
165.544, 801.522
166.926, 945.321
168.308, 1118.146
169.689, 1302.011
171.070, 1501.923
172.452, 1938.890
173.833, 2187.917
175.213, 2565.005
176.594, 2921.160
177.974, 3084.383
179.354, 3315.677
180.734, 3474.040
182.114, 3465.475
183.493, 3365.984
184.872, 3258.571
186.251, 3072.236
187.630, 2949.981
189.008, 2794.277
190.387, 2605.709
191.765, 2507.682
193.143, 2397.717
194.520, 2305.833
195.898, 2303.002
197.275, 2312.229
198.652, 2395.548
200.029, 2447.096
201.405, 2515.879
202.782, 2659.965
204.158, 2622.348
205.534, 2904.056
206.909, 3030.060
208.285, 3023.361
209.660, 3356.906
211.035, 3479.654
212.410, 3637.531
213.784, 3982.499
215.159, 4269.505
216.533, 4733.540
217.907, 5211.601
219.281, 5773.688
220.654, 6445.802
222.027, 7145.739
223.400, 7803.100
224.773, 8781.289
226.146, 9731.498
227.518, 10698.732
228.891, 11588.989
230.263, 12389.270
231.634, 12907.565
233.006, 12860.887
234.377, 12412.227
235.748, 11583.585
237.119, 10296.963
238.490, 8904.359
239.860, 7814.772
241.231, 6481.202
242.601, 5572.646
243.970, 4729.106
245.340, 4022.581
246.709, 3518.417
248.079, 2988.610
249.448, 2676.049
250.816, 2200.469
252.185, 1969.451
253.553, 1692.651
254.921, 1409.044
256.289, 1322.609
257.657, 1091.331
259.024, 944.197
260.391, 751.196
261.758, 685.317
263.125, 622.546
264.492, 562.878
265.858, 442.308
267.224, 431.834
268.590, 362.453
269.956, 233.160
271.321, 279.953
272.687, 293.818
274.052, 169.752
275.416, 223.733
276.781, 291.799
278.146, 276.894
279.510, 223.047
280.874, 366.282
282.237, 351.607
283.601, 495.025
284.964, 543.535
286.327, 646.133
287.690, 780.815
289.053, 912.582
290.416, 992.419
291.778, 1187.321
293.140, 1265.289
294.502, 1482.314
295.863, 1545.395
297.225, 1672.528
298.586, 1910.350
299.947, 2072.154
301.308, 2113.431
302.668, 2251.337
304.029, 2367.703
305.389, 2633.111
306.749, 2918.561
308.108, 3000.564
309.468, 3315.156
310.827, 3493.303
312.186, 3706.159
313.545, 3740.174
314.903, 3857.491
316.262, 3793.144
317.620, 3492.352
318.978, 3421.817
320.336, 3231.616
321.693, 3023.552
323.051, 2737.136
324.408, 2589.415
325.765, 2321.652
327.121, 2273.925
328.478, 2063.974
329.834, 1957.854
331.190, 1967.474
332.546, 1781.565
333.902, 1679.383
335.257, 1794.621
336.612, 1647.495
337.967, 1623.650
339.322, 1583.541
340.677, 1625.549
342.031, 1592.680
343.385, 1623.939
344.739, 1635.158
346.093, 1616.555
347.446, 1744.991
348.799, 1837.188
350.153, 1890.490
351.505, 1971.682
352.858, 2141.882
354.210, 2392.093
355.563, 2648.313
356.915, 2979.541
358.267, 3375.778
359.618, 3947.022
360.969, 4406.274
362.321, 4950.534
363.672, 5532.799
365.022, 5926.068
366.373, 6143.341
367.723, 6112.614
369.073, 5985.890
370.423, 5816.162
371.773, 5512.432
373.122, 5154.699
374.471, 4798.962
375.821, 4781.219
377.169, 4498.469
378.518, 4532.714
379.866, 4435.953
381.215, 4432.185
382.563, 4383.411
383.910, 4506.630
385.258, 4434.841
386.605, 4482.046
387.952, 4690.243
389.299, 4548.433
390.646, 4743.614
391.992, 4777.788
393.339, 4870.951
394.685, 4992.107
396.031, 5137.254
397.376, 5285.393
398.722, 5262.521
400.067, 5354.640
401.412, 5209.750
402.757, 5125.848
404.101, 5157.937
405.446, 4720.014
406.790, 4494.082
408.134, 4300.138
409.478, 4006.204
410.821, 3756.281
412.165, 3368.363
413.508, 2973.455
414.851, 2801.551
416.193, 2501.650
417.536, 2159.752
418.878, 2013.856
420.220, 1850.960
421.562, 1778.065
422.904, 1551.169
424.245, 1501.272
425.586, 1439.372
426.927, 1246.469
428.268, 1203.563
429.609, 1017.653
430.949, 997.739
432.289, 810.819
433.629, 817.894
434.969, 691.290
436.309, 702.126
437.648, 565.977
438.987, 589.333
440.326, 558.972
441.665, 495.625
443.003, 649.758
444.342, 884.130
445.680, 836.756
447.018, 609.296
448.355, 382.748
449.693, 334.627
451.030, 516.269
452.367, 339.686
453.704, 380.063
455.041, 231.445
456.377, 317.341
457.713, 241.631
459.049, 216.902
460.385, 224.926
461.721, 255.746
463.056, 251.549
464.391, 246.339
465.726, 225.110
467.061, 204.979
468.395, 208.594
469.730, 137.313
471.064, 124.016
472.398, 67.704
473.731, 103.369
475.065, 5.985
476.398, 89.388
477.731, 48.885
479.064, 51.454
480.397, 103.099
481.729, 103.846
483.062, 144.698
484.394, 106.676
485.725, 104.761
487.057, 151.953
488.389, 147.277
489.720, 95.731
491.051, 154.290
492.382, 128.984
493.712, 107.800
495.043, 97.728
496.373, 75.181
497.703, 78.894
499.032, 42.122
500.362, 11.428
501.691, 3.201
503.020, 1.775
504.349, 55.293
505.678, 138.776
507.007, 134.235
508.335, 195.666
509.663, 175.070
510.991, 324.447
512.319, 386.800
513.646, 418.125
514.973, 533.429
516.300, 527.718
517.627, 636.986
518.954, 695.233
520.280, 648.451
521.607, 819.644
522.933, 882.815
524.259, 984.960
525.584, 1138.078
526.910, 1156.169
528.235, 1292.242
529.560, 1408.309
530.885, 1468.370
532.209, 1462.413
533.534, 1418.448
534.858, 1458.481
536.182, 1339.492
537.506, 1301.505
538.829, 1348.522
540.152, 1214.526
541.476, 1194.518
542.799, 1184.486
544.121, 1183.442
545.444, 1097.377
546.766, 1114.287
548.088, 1086.166
549.410, 1082.017
550.732, 1128.847
552.053, 1083.646
553.375, 1107.417
554.696, 1066.156
556.017, 1102.865
557.337, 1146.543
558.658, 1097.191
559.978, 1121.808
561.298, 1085.394
562.618, 1036.949
563.938, 993.474
565.257, 1032.967
566.576, 1070.430
567.895, 1035.862
569.214, 986.262
570.533, 1086.631
571.851, 996.969
573.170, 1023.275
574.488, 1062.550
575.805, 1068.793
577.123, 1002.004
578.440, 947.183
579.758, 937.330
581.075, 909.445
582.391, 765.527
583.708, 897.578
585.024, 757.595
586.341, 682.581
587.657, 689.534
588.972, 574.454
590.288, 430.342
591.603, 307.197
592.918, 214.019
594.233, 131.806
595.548, 74.166
596.863, 55.249
598.177, 19.892
599.491, 14.531
600.805, 9.962
602.119, 10.128
603.432, 14.274
604.746, 13.018
606.059, 4.156
607.372, 18.744
608.685, 44.269
609.997, 84.225
611.309, 40.132
612.621, 118.981
613.933, 116.788
615.245, 200.552
616.557, 201.280
617.868, 256.972
619.179, 301.628
620.490, 381.251
621.801, 384.842
623.111, 508.400
624.421, 430.925
625.731, 566.417
627.041, 536.877
628.351, 642.304
629.660, 679.681
630.970, 751.775
632.279, 885.971
633.588, 944.623
634.896, 980.938
636.205, 986.698
637.513, 1175.199
638.821, 1187.364
640.129, 1280.389
641.437, 1405.761
642.744, 1493.434
644.051, 1590.145
645.358, 1707.832
646.665, 1898.718
647.972, 2054.767
649.278, 2252.072
650.584, 2383.900
651.890, 2602.995
653.196, 2969.706
654.502, 3158.733
655.807, 3603.607
657.113, 3865.663
658.418, 4374.538
659.722, 5088.510
661.027, 5609.407
662.331, 6240.397
663.636, 7348.999
664.940, 8466.659
666.244, 9594.586
667.547, 11443.440
668.851, 13281.471
670.154, 16224.395
671.457, 19390.984
672.760, 23216.463
674.062, 28586.393
675.365, 33842.172
676.667, 40136.730
677.969, 45565.617
679.271, 50973.738
680.572, 53784.414
681.874, 53280.422
683.175, 51396.152
684.476, 47018.691
685.777, 40318.270
687.077, 33752.766
688.378, 27997.543
689.678, 23289.732
690.978, 18951.975
692.278, 15681.658
693.577, 12575.278
694.877, 10948.335
696.176, 9153.975
697.475, 7794.890
698.774, 6725.580
700.072, 5965.667
701.371, 5214.550
702.669, 4747.406
703.967, 4111.644
705.265, 3787.052
706.562, 3563.057
707.860, 3197.189
709.157, 2962.213
710.454, 2848.210
711.751, 2581.186
713.047, 2476.143
714.344, 2349.080
715.640, 2182.997
716.936, 2125.895
718.232, 1999.774
719.527, 2030.634
720.823, 1922.475
722.118, 1839.297
723.413, 1784.101
724.708, 1691.887
726.002, 1622.654
727.297, 1706.404
728.591, 1543.136
729.885, 1634.851
731.179, 1597.549
732.472, 1548.229
733.766, 1446.894
735.059, 1499.541
736.352, 1470.172
737.645, 1455.787
738.937, 1379.385
740.230, 1391.969
741.522, 1289.537
742.814, 1310.089
744.106, 1210.626
745.397, 1839.149
746.689, 1669.657
747.980, 1198.150
749.271, 1408.302
750.562, 964.993
751.853, 972.649
753.143, 833.779
754.433, 854.604
755.723, 758.394
757.013, 732.682
758.303, 713.710
759.592, 594.461
760.881, 622.277
762.170, 543.156
763.459, 495.588
764.748, 483.232
766.036, 388.950
767.325, 421.439
768.613, 344.774
769.901, 331.069
771.188, 306.946
772.476, 254.817
773.763, 264.914
775.050, 122.189
776.337, 210.458
777.624, 130.720
778.910, 193.977
780.196, 186.226
781.482, 151.469
782.768, 177.544
784.054, 145.938
785.339, 176.164
786.625, 157.386
787.910, 166.603
789.195, 161.076
790.479, 183.084
791.764, 135.360
793.048, 164.658
794.332, 141.991
795.616, 244.360
796.900, 164.777
798.183, 173.230
799.467, 84.721
800.750, 186.262
802.033, 181.852
803.316, 137.478
804.598, 140.155
805.880, 89.878
807.163, 77.023
808.445, 115.438
809.726, 55.270
811.008, 73.132
812.289, 99.017
813.570, 32.918
814.851, 17.828
816.132, 4.748
817.413, 19.332
818.693, 27.574
819.973, 18.476
821.253, 9.373
822.533, 1.265
823.813, 13.149
825.092, 15.971
826.371, 54.105
827.650, 24.269
828.929, 21.448
830.208, 76.357
831.486, 2.159
832.764, 30.045
834.042, 35.732
835.320, 4.495
836.598, 11.271
837.875, 39.969
839.152, 94.229
840.429, 93.538
841.706, 45.893
842.983, 89.271
844.259, 106.691
845.536, 25.165
846.812, 129.650
848.088, 137.201
849.363, 64.819
850.639, 70.467
851.914, 28.147
853.189, 74.842
854.464, 33.569
855.739, 10.312
857.013, 51.940
858.288, 6.195
859.562, 38.551
860.836, 61.688
862.110, 82.929
863.383, 84.175
864.656, 102.426
865.930, 162.683
867.203, 181.944
868.475, 218.208
869.748, 322.479
871.020, 328.753
872.292, 403.034
873.564, 457.324
874.836, 481.633
876.108, 561.961
877.379, 560.301
878.650, 591.022
879.922, 636.026
881.192, 634.432
882.463, 664.844
883.733, 726.269
885.004, 724.725
886.274, 721.188
887.544, 695.659
888.813, 788.146
890.083, 687.647
891.352, 794.160
892.621, 818.699
893.890, 798.251
895.159, 740.820
896.427, 755.409
897.695, 747.025
898.964, 807.653
900.232, 896.306
901.499, 835.966
902.767, 903.645
904.034, 942.330
905.301, 885.037
906.568, 964.757
907.835, 1019.515
909.102, 998.303
910.368, 1000.116
911.634, 1022.715
912.900, 970.860
914.166, 1029.780
915.432, 1063.725
916.697, 1035.715
917.962, 1036.725
919.227, 1141.749
920.492, 1181.790
921.757, 1285.840
923.021, 1315.898
924.285, 1426.963
925.550, 1536.035
926.813, 1630.116
928.077, 1673.208
929.341, 1807.302
930.604, 1774.399
931.867, 1875.499
933.130, 1798.609
934.393, 1897.721
935.655, 1966.840
936.918, 1673.959
938.180, 1831.080
939.442, 1838.203
940.703, 1794.327
941.965, 1887.452
943.226, 1800.577
944.488, 1836.702
945.749, 1816.825
947.009, 1860.949
948.270, 1912.070
949.530, 1890.193
950.791, 1879.312
952.051, 1872.413
953.311, 1782.527
954.570, 1748.641
955.830, 1607.749
957.089, 1409.853
958.348, 1354.952
959.607, 1121.005
960.866, 997.093
962.124, 860.043
963.383, 740.062
964.641, 741.131
965.899, 638.966
967.156, 604.734
968.414, 587.436
969.671, 477.333
970.928, 542.117
972.185, 517.854
973.442, 502.542
974.699, 450.144
975.955, 484.830
977.211, 525.813
978.468, 422.879
979.723, 486.467
980.979, 461.173
982.234, 448.070
983.490, 470.616
984.745, 397.921
986.000, 398.726
987.254, 416.252
988.509, 423.820
989.763, 524.048
991.017, 514.745
992.271, 491.012
993.525, 573.895
994.779, 542.495
996.032, 603.090
997.285, 634.094
998.538, 683.165
999.791, 604.786
1001.044, 810.816
1002.296, 742.680
1003.548, 894.588
1004.800, 948.408
1006.052, 956.112
1007.304, 1142.272
1008.555, 1217.001
1009.807, 1284.555
1011.058, 1402.236
1012.309, 1484.882
1013.559, 1514.914
1014.810, 1531.213
1016.060, 1623.411
1017.310, 1661.181
1018.560, 1799.264
1019.810, 1799.185
1021.060, 1894.291
1022.309, 1988.443
1023.558, 1899.246
1024.807, 2070.458
1026.056, 1999.311
1027.305, 2149.062
1028.553, 2159.001
1029.801, 2401.170
1031.049, 2445.154
1032.297, 2487.140
1033.545, 2655.923
1034.793, 2783.586
1036.040, 2943.880
1037.287, 2997.253
1038.534, 3247.287
1039.781, 3357.229
1041.027, 3409.307
1042.274, 3516.822
1043.520, 3467.117
1044.766, 3589.555
1046.012, 3559.398
1047.257, 3592.188
1048.503, 3708.290
1049.748, 3895.110
1050.993, 3797.438
1052.238, 4043.393
1053.483, 4108.758
1054.727, 4047.846
1055.971, 4230.984
1057.216, 4358.925
1058.459, 4473.518
1059.703, 4523.162
1060.947, 4602.577
1062.190, 4779.611
1063.433, 4845.742
1064.676, 5042.569
1065.919, 5070.969
1067.162, 5106.909
1068.404, 5215.671
1069.646, 5073.760
1070.888, 5028.903
1072.130, 5046.054
1073.372, 4861.368
1074.613, 4698.116
1075.855, 4674.836
1077.096, 4298.969
1078.337, 4073.575
1079.578, 4043.603
1080.818, 3749.441
1082.059, 3584.518
1083.299, 3355.396
1084.539, 3313.602
1085.779, 3143.326
1087.018, 2983.602
1088.258, 2805.119
1089.497, 2649.349
1090.736, 2511.445
1091.975, 2312.804
1093.213, 2073.766
1094.452, 1950.735
1095.690, 1805.883
1096.928, 1690.680
1098.166, 1590.595
1099.404, 1508.241
1100.642, 1434.752
1101.879, 1338.294
1103.116, 1316.157
1104.353, 1138.713
1105.590, 1112.012
1106.827, 1057.599
1108.063, 1084.076
1109.299, 911.295
1110.536, 912.452
1111.771, 832.930
1113.007, 779.770
1114.243, 849.567
1115.478, 667.318
1116.713, 638.038
1117.948, 614.924
1119.183, 638.755
1120.418, 564.435
1121.652, 627.855
1122.886, 808.428
1124.120, 746.870
1125.354, 669.483
1126.588, 533.512
1127.821, 477.657
1129.055, 445.734
1130.288, 442.899
1131.521, 373.952
1132.753, 352.312
1133.986, 335.214
1135.218, 317.105
1136.450, 428.640
1137.682, 248.140
1138.914, 362.693
1140.146, 237.158
1141.377, 257.490
1142.609, 219.866
1143.840, 203.199
1145.071, 232.632
1146.301, 226.865
1147.532, 222.981
1148.762, 218.883
1149.992, 186.850
1151.222, 223.950
1152.452, 144.047
1153.682, 214.934
1154.911, 105.733
1156.140, 111.299
1157.369, 105.906
1158.598, 165.448
1159.827, 136.828
1161.055, 64.306
1162.284, 20.383
1163.512, 32.270
1164.740, 58.140
1165.967, 108.813
1167.195, 82.149
1168.422, 42.088
1169.650, 36.005
1170.877, 4.868
1172.103, 42.957
1173.330, 36.940
1174.557, 19.104
1175.783, 37.736
1177.009, 30.106
1178.235, 117.692
1179.461, 49.847
1180.686, 18.589
1181.912, 80.274
1183.137, 11.856
1184.362, 5.771
1185.587, 22.201
1186.811, 20.705
1188.036, 6.919
1189.260, 60.883
1190.484, 10.973
1191.708, 28.485
1192.932, 34.926
1194.155, 66.026
1195.378, 7.393
1196.602, 50.833
1197.825, 5.023
1199.047, 21.351
1200.270, 94.985
1201.492, 7.910
1202.715, 135.592
1203.937, 37.824
1205.159, 47.949
1206.380, 38.153
1207.602, 30.219
1208.823, 9.294
1210.044, 20.230
1211.265, 78.991
1212.486, 31.316
1213.707, 9.229
1214.927, 14.917
1216.147, 72.605
1217.367, 62.003
1218.587, 56.785
1219.807, 36.340
1221.027, 44.252
1222.246, 0.651
1223.465, 1.385
1224.684, 99.566
1225.903, 44.665
1227.121, 62.019
1228.340, 0.465
1229.558, 47.062
1230.776, 26.849
1231.994, 63.449
1233.212, 132.962
1234.429, 69.521
1235.646, 114.496
1236.864, 134.248
1238.081, 88.714
1239.297, 143.658
1240.514, 129.346
1241.730, 96.991
1242.947, 146.583
1244.163, 74.448
1245.378, 154.661
1246.594, 89.254
1247.810, 169.806
1249.025, 105.087
1250.240, 140.138
1251.455, 187.782
1252.670, 119.166
1253.885, 125.891
1255.099, 168.351
1256.313, 168.465
1257.527, 106.784
1258.741, 215.988
1259.955, 211.810
1261.168, 60.817
1262.382, 201.705
1263.595, 146.901
1264.808, 152.812
1266.021, 174.241
1267.233, 221.564
1268.446, 171.628
1269.658, 187.467
1270.870, 138.453
1272.082, 255.646
1273.294, 214.642
1274.505, 215.424
1275.716, 179.760
1276.928, 189.789
1278.139, 124.407
1279.349, 194.008
1280.560, 179.126
1281.770, 247.076
1282.981, 238.054
1284.191, 208.225
1285.401, 216.842
1286.610, 234.601
1287.820, 207.817
1289.029, 203.200
1290.239, 165.849
1291.448, 195.054
1292.656, 210.350
1293.865, 248.936
1295.073, 216.240
1296.282, 166.200
1297.490, 152.489
1298.698, 180.289
1299.906, 180.896
1301.113, 215.549
1302.320, 182.326
1303.528, 175.095
1304.735, 192.800
1305.942, 153.247
1307.148, 217.575
1308.355, 238.360
1309.561, 216.733
1310.767, 239.107
1311.973, 101.837
1313.179, 150.918
1314.384, 133.836
1315.590, 267.397
1316.795, 107.070
1318.000, 229.149
1319.205, 83.573
1320.410, 118.023
1321.614, 167.906
1322.819, 105.269
1324.023, 161.615
1325.227, 138.771
1326.431, 154.113
1327.634, 153.224
1328.838, 175.162
1330.041, 131.535
1331.244, 211.115
1332.447, 124.190
1333.650, 77.935
1334.852, 71.417
1336.055, 102.508
1337.257, 74.588
1338.459, 132.928
1339.661, 152.005
1340.862, 135.572
1342.064, 73.283
1343.265, 84.765
1344.466, 99.904
1345.667, 112.438
1346.868, 52.060
1348.068, 161.440
1349.269, 96.919
1350.469, 179.366
1351.669, 82.665
1352.869, 75.002
1354.069, 137.529
1355.268, 146.112
1356.468, 131.237
1357.667, 124.728
1358.866, 91.213
1360.065, 74.170
1361.263, 63.800
1362.462, 59.847
1363.660, 47.697
1364.858, 101.305
1366.056, 62.904
1367.254, 54.065
1368.451, 153.179
1369.649, 28.322
1370.846, 79.790
1372.043, 54.191
1373.240, 152.059
1374.436, 71.162
1375.633, 15.022
1376.829, 12.443
1378.025, 66.185
1379.221, 67.137
1380.417, 32.465
1381.613, 45.144
1382.808, 12.351
1384.003, 104.052
1385.199, 95.624
1386.393, 12.938
1387.588, 29.678
1388.783, 5.202
1389.977, 13.080
1391.171, 45.265
1392.365, 57.036
1393.559, 68.111
1394.753, 102.348
1395.946, 25.136
1397.140, 63.798
1398.333, 11.422
1399.526, 107.492
1400.719, 67.930
1401.911, 66.769
1403.104, 97.465
1404.296, 60.945
1405.488, 59.975
1406.680, 138.500
1407.872, 31.701
1409.063, 67.461
1410.255, 64.092
1411.446, 10.857
1412.637, 90.180
1413.828, 58.172
1415.018, 157.598
1416.209, 172.822
1417.399, 190.252
1418.589, 68.568
1419.779, 88.189
1420.969, 127.494
1422.159, 100.535
1423.348, 152.966
1424.537, 140.426
1425.726, 146.696
1426.915, 188.016
1428.104, 158.322
1429.293, 200.977
1430.481, 93.940
1431.669, 203.045
1432.857, 98.828
1434.045, 185.148
1435.233, 122.480
1436.420, 252.645
1437.608, 280.364
1438.795, 295.734
1439.982, 218.369
1441.169, 217.712
1442.355, 296.324
1443.542, 138.743
1444.728, 407.427
1445.914, 274.454
1447.100, 312.938
1448.286, 283.637
1449.472, 198.294
1450.657, 202.078
1451.842, 328.148
1453.027, 357.156
1454.212, 187.904
1455.397, 322.300
1456.581, 208.753
1457.766, 239.214
1458.950, 316.156
1460.134, 251.672
1461.318, 202.991
1462.501, 174.290
1463.685, 219.689
1464.868, 258.930
1466.051, 246.654
1467.234, 245.918
1468.417, 173.841
1469.600, 229.445
1470.782, 242.342
1471.965, 307.413
1473.147, 102.543
1474.329, 285.977
1475.510, 351.094
1476.692, 112.840
1477.873, 212.309
1479.055, 118.443
1480.236, 149.833
1481.416, 277.825
1482.597, 174.474
1483.778, 155.802
1484.958, 49.832
1486.138, 178.387
1487.318, 174.659
1488.498, 317.662
1489.678, 263.024
