##NAMES=Fluorapatite
##RRUFFID=R050617
##IDEAL CHEMISTRY=Ca_5_(PO_4_)_3_F
##LOCALITY=Santa Cruz, Sonora, Mexico
##OWNER=RRUFF
##SOURCE=University of Arizona Mineral Museum
##DESCRIPTION=Tan colored hexagonal prism
##STATUS=The identification of this mineral is confirmed by single-crystal X-ray diffraction and chemical analysis.
##URL=rruff.info/R050617
##MEASURED CHEMISTRY=Ca_5.00_(P_1.00_O_4_)_3_(F_0.99_Cl_0.01_)
##PIN_ID=L01712
##ORIENTATION=Laser parallel to c* (0 0 1). Fiducial mark perpendicular to laser is parallel to -b [0 -1 0]
105.8150, 0.0000000E+00
107.0470, 0.2769780
108.2800, 74.96399
109.5120, 51.99377
110.7440, 79.10266
111.9760, 45.90161
113.2080, 2.214844
114.4400, 32.90820
115.6710, 40.01025
116.9030, 28.44922
118.1340, 58.17981
119.3650, 3.850464
120.5960, 56.33374
121.8270, 8.714844
123.0580, 40.25732
124.2880, 28.93286
125.5190, 82.72156
126.7490, 68.60352
127.9790, 126.6831
129.2090, 160.8270
130.4390, 216.0396
131.6680, 253.2856
132.8980, 244.6218
134.1270, 267.0582
135.3560, 317.6282
136.5850, 309.2744
137.8140, 392.9218
139.0430, 391.5770
140.2710, 353.2358
141.5000, 406.9060
142.7280, 329.5856
143.9560, 359.2925
145.1840, 290.9781
146.4120, 256.6646
147.6390, 263.3492
148.8670, 272.1388
150.0940, 223.7607
151.3210, 281.6984
152.5490, 274.3229
153.7750, 313.4478
155.0020, 306.2194
156.2290, 307.6755
157.4550, 277.4010
158.6810, 288.9645
159.9080, 248.4014
161.1340, 217.3223
162.3590, 220.1846
163.5850, 158.7340
164.8110, 186.0056
166.0360, 192.6329
167.2610, 222.3485
168.4860, 115.0577
169.7110, 105.7598
170.9360, 135.6709
172.1610, 106.3546
173.3850, 125.0820
174.6100, 79.93921
175.8340, 30.73035
177.0580, 52.73035
178.2820, 64.53809
179.5050, 106.3259
180.7290, 13.10925
181.9520, 78.88269
183.1760, 23.64172
184.3990, 54.38879
185.6220, 66.11914
186.8450, 55.83057
188.0670, 72.52271
189.2900, 65.20166
190.5120, 66.87207
191.7340, 14.48853
192.9560, 54.12329
194.1780, 37.97437
195.4000, 3.524658
196.6220, 61.39502
197.8430, 48.06421
199.0640, 34.11230
200.2860, 6.138916
201.5070, 18.51562
202.7270, 20.61694
203.9480, 40.62427
205.1690, 47.91699
206.3890, 62.27905
207.6090, 64.51196
208.8290, 43.75879
210.0490, 108.9685
211.2690, 106.1104
212.4890, 20.20410
213.7080, 85.82593
214.9280, 6.635254
216.1470, 53.87183
217.3660, 32.88867
218.5850, 27.57886
219.8030, 3.523682
221.0220, 20.70703
222.2400, 23.98853
223.4590, 26.33276
224.6770, 108.6035
225.8950, 119.5918
227.1120, 62.47168
228.3300, 150.9626
229.5480, 76.65259
230.7650, 91.11084
231.9820, 130.6448
233.1990, 134.2910
234.4160, 106.7983
235.6330, 45.36890
236.8490, 78.85913
238.0660, 147.3171
239.2820, 96.47681
240.4980, 119.1321
241.7140, 66.68604
242.9300, 69.34253
244.1460, 98.75659
245.3610, 88.00928
246.5770, 107.1284
247.7920, 66.38428
249.0070, 93.65649
250.2220, 109.8638
251.4370, 97.03003
252.6510, 136.4534
253.8660, 103.2322
255.0800, 147.9727
256.2940, 152.3560
257.5080, 156.9160
258.7220, 233.2180
259.9360, 255.4849
261.1490, 284.0522
262.3630, 263.2878
263.5760, 328.6016
264.7890, 279.6731
266.0020, 263.8103
267.2150, 278.9941
268.4270, 292.8911
269.6400, 308.2874
270.8520, 304.5308
272.0640, 179.6909
273.2760, 206.7878
274.4880, 104.6577
275.7000, 240.6182
276.9120, 163.3782
278.1230, 167.1716
279.3340, 154.7644
280.5450, 72.34058
281.7560, 136.8987
282.9670, 123.4570
284.1780, 122.9775
285.3880, 102.4771
286.5980, 76.95483
287.8090, 126.4099
289.0190, 90.84229
290.2290, 59.25195
291.4380, 89.63770
292.6480, 70.00000
293.8570, 79.33838
295.0670, 106.6436
296.2760, 116.9253
297.4850, 145.1824
298.6930, 98.41577
299.9020, 162.6230
301.1110, 111.8059
302.3190, 180.9648
303.5270, 166.0994
304.7350, 126.2100
305.9430, 120.2834
307.1510, 155.3311
308.3580, 143.3525
309.5660, 182.3462
310.7730, 128.3000
311.9800, 130.2285
313.1870, 152.1318
314.3940, 142.0090
315.6010, 184.8601
316.8070, 120.6836
318.0130, 60.47998
319.2200, 103.2480
320.4260, 14.98755
321.6310, 84.02637
322.8370, 67.05933
324.0430, 68.72290
325.2480, 9.996338
326.4540, 46.80225
327.6590, 57.54639
328.8640, 77.88379
330.0680, 82.72632
331.2730, 56.98682
332.4780, 62.02466
333.6820, 29.10376
334.8860, 23.26587
336.0900, 4.439941
337.2940, 1.373535
338.4980, 5.877197
339.7010, 15.04102
340.9050, 9.088867
342.1080, 59.88232
343.3110, 57.39429
344.5140, 3.580322
345.7170, 111.1116
346.9200, 9.127930
348.1220, 51.92407
349.3240, 91.44019
350.5270, 26.03662
351.7290, 72.55811
352.9310, 55.12305
354.1320, 85.67212
355.3340, 103.5903
356.5350, 20.12085
357.7370, 65.70312
358.9380, 24.38940
360.1390, 70.39038
361.3400, 42.83350
362.5400, 43.18945
363.7410, 62.39282
364.9410, 77.46509
366.1410, 38.65137
367.3410, 72.49951
368.5410, 39.64380
369.7410, 12.23438
370.9400, 5.212646
372.1400, 47.93774
373.3390, 15.86230
374.5380, 76.99854
375.7370, 13.08008
376.9360, 83.94336
378.1350, 7.002197
379.3330, 8.982910
380.5310, 26.19873
381.7300, 1.356934
382.9280, 53.04224
384.1260, 32.16479
385.3230, 72.31494
386.5210, 44.23828
387.7180, 55.41382
388.9160, 61.00415
390.1130, 28.33936
391.3100, 36.82202
392.5060, 57.94189
393.7030, 50.22144
394.9000, 48.58447
396.0960, 33.52979
397.2920, 6.090820
398.4880, 9.292725
399.6840, 49.13867
400.8800, 22.34961
402.0750, 76.27197
403.2710, 84.35913
404.4660, 22.44263
405.6610, 92.19897
406.8560, 73.06836
408.0510, 130.0928
409.2450, 100.8633
410.4400, 100.5229
411.6340, 167.3840
412.8280, 46.20093
414.0220, 81.31689
415.2160, 99.26514
416.4100, 111.7485
417.6030, 163.0486
418.7970, 138.5181
419.9900, 183.1108
421.1830, 172.1042
422.3760, 237.3025
423.5690, 226.5710
424.7610, 242.7383
425.9540, 213.8789
427.1460, 288.8696
428.3380, 278.5227
429.5300, 283.8271
430.7220, 291.9797
431.9140, 366.2571
433.1050, 402.3799
434.2970, 457.3237
435.4880, 499.8994
436.6790, 539.7271
437.8700, 578.1848
439.0610, 609.1692
440.2510, 654.1516
441.4420, 668.1226
442.6320, 758.9358
443.8220, 745.8213
445.0120, 745.5962
446.2020, 677.3975
447.3910, 646.1558
448.5810, 687.8525
449.7700, 692.5403
450.9600, 688.1841
452.1490, 541.0039
453.3370, 478.8887
454.5260, 399.5269
455.7150, 402.1621
456.9030, 400.6040
458.0910, 373.9941
459.2800, 316.3413
460.4670, 287.5625
461.6550, 314.4829
462.8430, 252.5400
464.0300, 158.1714
465.2180, 153.0508
466.4050, 234.8081
467.5920, 82.52393
468.7790, 185.9038
469.9650, 195.4253
471.1520, 46.94287
472.3380, 158.4902
473.5250, 52.00732
474.7110, 98.36230
475.8970, 81.68457
477.0820, 54.91455
478.2680, 45.05908
479.4540, 123.9912
480.6390, 191.6279
481.8240, 81.92041
483.0090, 63.07568
484.1940, 53.31494
485.3780, 105.7710
486.5630, 69.34619
487.7470, 64.96631
488.9320, 53.34277
490.1160, 5.570313
491.3000, 109.9502
492.4830, 84.80957
493.6670, 96.28857
494.8500, 79.43701
496.0340, 76.69043
497.2170, 6.110352
498.4000, 68.24072
499.5820, 32.38574
500.7650, 18.74170
501.9480, 136.6191
503.1300, 59.43604
504.3120, 38.51416
505.4940, 82.72900
506.6760, 56.12598
507.8580, 61.84326
509.0390, 67.31641
510.2210, 55.13623
511.4020, 76.27197
512.5830, 83.27637
513.7640, 41.07422
514.9450, 21.93164
516.1250, 28.24854
517.3060, 33.44824
518.4860, 77.32275
519.6660, 22.35254
520.8460, 42.36670
522.0260, 45.05469
523.2060, 41.21924
524.3850, 137.0127
525.5650, 31.69580
526.7440, 92.21875
527.9230, 0.8696290
529.1020, 5.441895
530.2810, 35.69727
531.4590, 87.12012
532.6380, 40.30859
533.8160, 98.19824
534.9940, 10.42236
536.1720, 42.65234
537.3500, 133.8779
538.5270, 0.8164060
539.7050, 53.37549
540.8820, 7.027832
542.0590, 29.48438
543.2360, 91.05518
544.4130, 49.69873
545.5900, 41.30078
546.7660, 109.5205
547.9430, 73.41406
549.1190, 26.98096
550.2950, 78.91064
551.4710, 97.05029
552.6470, 39.51074
553.8220, 41.47217
554.9980, 1.621582
556.1730, 0.7011720
557.3480, 92.22314
558.5230, 126.6357
559.6980, 76.95068
560.8730, 149.0776
562.0470, 64.74658
563.2220, 116.2534
564.3960, 90.48047
565.5700, 66.56641
566.7440, 102.5991
567.9170, 130.3589
569.0910, 201.9033
570.2640, 325.5728
571.4380, 401.3125
572.6110, 461.3877
573.7840, 589.2676
574.9570, 652.4336
576.1290, 665.3594
577.3020, 793.5107
578.4740, 789.3906
579.6460, 717.0718
580.8180, 850.6377
581.9900, 868.0635
583.1620, 701.1777
584.3330, 621.1143
585.5040, 604.0659
586.6760, 391.3853
587.8470, 308.2261
589.0180, 371.2954
590.1880, 258.0503
591.3590, 310.0117
592.5290, 224.2954
593.7000, 199.4229
594.8700, 241.0796
596.0400, 232.9580
597.2090, 275.7188
598.3790, 319.3306
599.5490, 335.8350
600.7180, 415.3145
601.8870, 496.4312
603.0560, 550.0020
604.2250, 536.0596
605.3940, 510.3779
606.5620, 600.1562
607.7300, 592.2192
608.8990, 641.7495
610.0670, 575.7036
611.2350, 503.5190
612.4020, 373.6772
613.5700, 433.4219
614.7370, 359.4214
615.9050, 313.8110
617.0720, 260.8867
618.2390, 262.8823
619.4060, 235.0449
620.5720, 221.4980
621.7390, 223.6953
622.9050, 199.2188
624.0710, 160.2393
625.2370, 150.4199
626.4030, 45.49561
627.5690, 112.8657
628.7340, 184.3789
629.9000, 96.90869
631.0650, 98.00928
632.2300, 9.988770
633.3950, 22.93311
634.5600, 134.9727
635.7240, 61.35791
636.8890, 76.41650
638.0530, 130.6099
639.2170, 28.61914
640.3810, 13.95947
641.5450, 73.59668
642.7080, 121.4902
643.8720, 24.87549
645.0350, 193.1816
646.1980, 162.7383
647.3610, 87.60547
648.5240, 93.39062
649.6870, 33.51074
650.8490, 150.2549
652.0120, 72.05811
653.1740, 213.3691
654.3360, 152.1523
655.4980, 44.80615
656.6600, 97.16748
657.8210, 79.16113
658.9830, 117.2065
660.1440, 156.6616
661.3050, 103.4453
662.4660, 132.0117
663.6270, 101.1699
664.7870, 88.58643
665.9480, 154.4268
667.1080, 25.10596
668.2680, 97.63770
669.4280, 161.7471
670.5880, 85.73340
671.7480, 94.11768
672.9070, 160.7002
674.0670, 51.26172
675.2260, 98.47168
676.3850, 46.88379
677.5440, 0.6352540
678.7030, 147.4497
679.8610, 64.73340
681.0200, 151.2739
682.1780, 94.35352
683.3360, 60.45459
684.4940, 122.3594
685.6520, 128.1274
686.8090, 32.02246
687.9670, 76.72998
689.1240, 32.06543
690.2810, 7.615234
691.4380, 85.69043
692.5950, 17.69043
693.7520, 133.8179
694.9080, 53.37402
696.0650, 8.385742
697.2210, 34.97070
698.3770, 13.70850
699.5330, 101.3867
700.6880, 2.405273
701.8440, 14.86768
702.9990, 111.2690
704.1550, 130.5410
705.3100, 128.9863
706.4650, 7.547852
707.6190, 77.21875
708.7740, 76.12109
709.9290, 145.0771
711.0830, 51.58887
712.2370, 85.29102
713.3910, 242.9541
714.5450, 48.79102
715.6980, 69.49219
716.8520, 34.15234
718.0050, 68.48047
719.1580, 82.31934
720.3110, 101.7441
721.4640, 162.3066
722.6170, 191.0527
723.7700, 173.8262
724.9220, 72.10254
726.0740, 172.6738
727.2260, 104.0684
728.3780, 165.7695
729.5300, 45.67676
730.6810, 21.99316
731.8330, 45.18066
732.9840, 143.2891
734.1350, 76.30273
735.2860, 90.50879
736.4370, 113.2041
737.5880, 125.1816
738.7380, 116.9199
739.8880, 189.3955
741.0390, 14.19531
742.1890, 175.1143
743.3380, 20.29688
744.4880, 129.3877
745.6380, 128.6172
746.7870, 88.74707
747.9360, 76.77344
749.0850, 104.5752
750.2340, 98.72754
751.3830, 55.41992
752.5310, 111.9502
753.6800, 55.23828
754.8280, 98.82422
755.9760, 88.64648
757.1240, 23.96289
758.2720, 19.46777
759.4190, 139.1924
760.5670, 177.2871
761.7140, 262.7842
762.8610, 201.2051
764.0080, 23.49121
765.1550, 4.615234
766.3020, 92.81055
767.4480, 60.87500
768.5950, 71.48730
769.7410, 218.5947
770.8870, 104.1572
772.0330, 234.2334
773.1780, 38.88281
774.3240, 96.59082
775.4690, 191.8770
776.6140, 65.86914
777.7590, 172.4678
778.9040, 67.76172
780.0490, 109.8877
781.1940, 138.1406
782.3380, 140.4590
783.4820, 86.22559
784.6260, 208.1846
785.7700, 227.2158
786.9140, 135.7383
788.0580, 195.5703
789.2010, 186.1201
790.3450, 56.58691
791.4880, 125.7354
792.6310, 185.2832
793.7730, 178.8047
794.9160, 254.2129
796.0590, 29.20898
797.2010, 97.27148
798.3430, 242.4932
799.4850, 61.25488
800.6270, 142.2598
801.7690, 159.9883
802.9100, 174.5850
804.0520, 261.0137
805.1930, 154.3994
806.3340, 169.4385
807.4750, 75.08887
808.6160, 251.7871
809.7560, 138.5703
810.8970, 182.8828
812.0370, 220.1670
813.1770, 123.5537
814.3170, 113.6201
815.4570, 161.3828
816.5960, 106.0137
817.7360, 100.4971
818.8750, 94.59473
820.0140, 107.3682
821.1530, 122.1396
822.2920, 104.8232
823.4310, 123.4482
824.5690, 111.5293
825.7070, 133.7139
826.8460, 168.6104
827.9840, 168.0225
829.1220, 162.9795
830.2590, 113.5479
831.3970, 148.5000
832.5340, 50.01855
833.6710, 13.75391
834.8080, 21.49902
835.9450, 98.89941
837.0820, 120.2197
838.2190, 146.9043
839.3550, 191.7793
840.4910, 175.8369
841.6270, 89.87500
842.7630, 99.80176
843.8990, 32.82031
845.0350, 50.82715
846.1700, 78.21973
847.3060, 164.3828
848.4410, 97.88770
849.5760, 86.89258
850.7100, 26.43750
851.8450, 34.87402
852.9800, 19.81348
854.1140, 74.37598
855.2480, 171.5439
856.3820, 250.5146
857.5160, 199.7129
858.6500, 136.3633
859.7830, 110.6240
860.9170, 218.0508
862.0500, 126.8633
863.1830, 149.4668
864.3160, 55.96777
865.4480, 56.48047
866.5810, 76.44141
867.7130, 57.18457
868.8460, 29.76172
869.9780, 73.72852
871.1100, 9.450195
872.2410, 3.625977
873.3730, 58.85938
874.5050, 95.05859
875.6360, 137.4365
876.7670, 132.9512
877.8980, 132.3555
879.0290, 142.6172
880.1590, 143.0869
881.2900, 96.70801
882.4200, 101.5586
883.5500, 114.3828
884.6800, 146.0771
885.8100, 40.76465
886.9400, 129.6553
888.0690, 147.4863
889.1990, 29.75586
890.3280, 90.62598
891.4570, 90.61426
892.5860, 88.63672
893.7140, 11.03320
894.8430, 32.70703
895.9710, 30.91016
897.1000, 126.5752
898.2280, 83.48730
899.3560, 83.04590
900.4830, 47.74805
901.6110, 200.8574
902.7380, 96.23047
903.8660, 93.63281
904.9930, 2.318359
906.1200, 212.8633
907.2460, 80.13672
908.3730, 32.99023
909.5000, 160.0801
910.6260, 22.13965
911.7520, 116.0459
912.8780, 85.69434
914.0040, 121.3936
915.1290, 2.400391
916.2550, 1.951172
917.3800, 56.00879
918.5050, 99.18164
919.6300, 14.87988
920.7550, 82.45703
921.8800, 8.933594
923.0040, 67.83301
924.1290, 9.876953
925.2530, 145.7705
926.3770, 99.01562
927.5010, 156.4365
928.6250, 35.20703
929.7480, 90.47266
930.8720, 147.2627
931.9950, 144.3779
933.1180, 122.0938
934.2410, 161.6465
935.3640, 107.9160
936.4860, 119.4668
937.6090, 114.0781
938.7310, 196.8145
939.8530, 293.6904
940.9750, 187.2861
942.0970, 321.2656
943.2180, 208.4961
944.3400, 411.9727
945.4610, 326.8887
946.5820, 525.6104
947.7030, 505.9521
948.8240, 617.0645
949.9450, 557.3662
951.0650, 682.4219
952.1860, 1138.557
953.3060, 1524.970
954.4260, 2045.232
955.5460, 3357.029
956.6650, 4877.936
957.7850, 7312.600
958.9040, 9595.336
960.0230, 11497.05
961.1420, 13154.06
962.2610, 14165.71
963.3800, 14253.76
964.4990, 14227.48
965.6170, 13249.99
966.7350, 11132.48
967.8530, 8538.143
968.9710, 5840.010
970.0890, 3942.430
971.2070, 2892.104
972.3240, 2152.223
973.4410, 1623.924
974.5580, 1168.094
975.6750, 937.8223
976.7920, 849.5332
977.9090, 497.0234
979.0250, 340.5742
980.1410, 495.4883
981.2580, 320.4766
982.3740, 359.8496
983.4890, 248.5117
984.6050, 252.2070
985.7200, 79.27734
986.8360, 62.43945
987.9510, 200.7441
989.0660, 64.57617
990.1810, 101.1699
991.2950, 5.085938
992.4100, 207.3633
993.5240, 65.75781
994.6390, 56.84375
995.7530, 246.1895
996.8660, 131.9043
997.9800, 61.97852
999.0940, 75.23438
1000.207, 127.6426
1001.320, 89.54883
1002.433, 97.66797
1003.546, 76.65234
1004.659, 41.44141
1005.772, 10.97266
1006.884, 79.42578
1007.996, 133.2285
1009.108, 55.89062
1010.220, 69.75586
1011.332, 186.5879
1012.444, 64.04883
1013.555, 73.13672
1014.666, 49.85742
1015.777, 7.558594
1016.888, 59.41602
1017.999, 210.2637
1019.110, 213.4023
1020.220, 131.0469
1021.331, 75.25195
1022.441, 122.7793
1023.551, 358.8301
1024.661, 285.0488
1025.770, 345.9590
1026.880, 588.0742
1027.989, 558.1914
1029.098, 588.7480
1030.207, 648.4258
1031.316, 736.5059
1032.425, 557.0410
1033.533, 654.3477
1034.642, 708.2539
1035.750, 316.8867
1036.858, 252.1719
1037.966, 169.7930
1039.073, 322.0781
1040.181, 248.3789
1041.288, 213.6348
1042.396, 413.3301
1043.503, 213.7871
1044.610, 318.0215
1045.716, 11.02344
1046.823, 297.8496
1047.929, 333.2422
1049.036, 217.5176
1050.142, 335.5527
1051.248, 284.1758
1052.353, 316.8984
1053.459, 420.7012
1054.564, 484.0000
1055.670, 564.9004
1056.775, 701.3691
1057.880, 563.9453
1058.985, 625.4336
1060.089, 491.0938
1061.194, 408.9980
1062.298, 485.4531
1063.402, 502.7500
1064.506, 333.3320
1065.610, 232.9727
1066.713, 152.6133
1067.817, 252.7500
1068.920, 241.5293
1070.023, 218.5332
1071.126, 178.1055
1072.229, 205.9570
1073.332, 141.7461
1074.435, 278.9082
1075.537, 339.9531
1076.639, 432.6152
1077.741, 429.4707
1078.843, 256.4492
1079.945, 361.2617
1081.046, 296.8242
1082.148, 218.7402
1083.249, 301.9316
1084.350, 203.9141
1085.451, 108.7227
1086.551, 115.3652
1087.652, 216.5020
1088.752, 188.4961
1089.853, 204.9629
1090.953, 182.6094
1092.053, 153.3145
1093.152, 80.49414
1094.252, 19.62305
1095.351, 91.12109
1096.451, 351.0137
1097.550, 88.86523
1098.649, 106.4355
1099.748, 182.2168
1100.846, 123.4883
1101.945, 166.1113
1103.043, 158.4707
1104.141, 50.94336
1105.239, 153.0957
1106.337, 63.12891
1107.434, 128.3770
1108.532, 262.2148
1109.629, 61.91797
1110.726, 0.6484380
1111.823, 104.9238
1112.920, 91.77539
1114.017, 60.53320
1115.113, 139.7754
1116.210, 95.92578
1117.306, 157.4824
1118.402, 117.2480
1119.498, 49.11719
1120.593, 191.8613
1121.689, 80.93164
1122.784, 336.2617
1123.879, 325.1973
1124.974, 25.08398
1126.069, 196.8340
1127.164, 25.42969
1128.259, 307.4688
1129.353, 218.0898
1130.447, 299.5996
1131.541, 236.2324
1132.635, 259.5449
1133.729, 290.9141
1134.822, 237.2832
1135.916, 301.1211
1137.009, 246.7031
1138.102, 167.8379
1139.195, 196.0195
1140.288, 241.7793
1141.380, 209.4062
1142.473, 185.9668
1143.565, 251.3594
1144.657, 85.12500
1145.749, 78.40234
1146.841, 160.1387
1147.932, 171.5996
1149.024, 252.0488
1150.115, 148.3398
1151.206, 375.3496
1152.297, 313.9277
1153.388, 246.3633
1154.479, 99.65820
1155.569, 197.8535
1156.659, 146.4297
1157.750, 174.1348
1158.839, 293.2168
1159.929, 74.43750
1161.019, 151.9043
1162.108, 128.3379
1163.198, 35.53516
1164.287, 223.6035
1165.376, 261.9570
1166.465, 219.6250
1167.553, 174.8535
1168.642, 68.75781
1169.730, 224.6953
1170.818, 227.4746
1171.906, 328.7090
1172.994, 151.1367
1174.082, 315.0547
1175.170, 441.4043
1176.257, 96.26758
1177.344, 81.67383
1178.431, 198.6406
1179.518, 279.6641
1180.605, 307.7988
1181.691, 247.7129
1182.778, 242.7715
1183.864, 129.3555
1184.950, 128.7715
1186.036, 71.20312
1187.122, 42.26953
1188.207, 115.5508
1189.292, 271.3320
1190.378, 399.5469
1191.463, 375.0332
1192.548, 99.69336
1193.632, 408.3008
1194.717, 135.1543
1195.801, 94.38867
1196.886, 285.8223
1197.970, 180.5273
1199.054, 188.7324
1200.137, 360.7480
1201.221, 192.5020
1202.305, 323.3711
1203.388, 369.8379
1204.471, 287.5332
1205.554, 184.6953
1206.637, 378.6211
1207.719, 413.6973
1208.802, 472.5723
1209.884, 261.9180
1210.966, 298.0059
1212.048, 427.5332
1213.130, 336.5625
1214.212, 389.0430
1215.293, 354.2070
1216.374, 392.8867
1217.456, 248.4707
1218.536, 504.9941
1219.617, 462.2930
1220.698, 464.9062
1221.778, 234.2402
1222.859, 357.4004
1223.939, 401.5312
1225.019, 222.7617
1226.099, 265.9512
1227.178, 308.4609
1228.258, 349.9902
1229.337, 273.6309
1230.417, 363.3125
1231.496, 243.0469
1232.574, 515.0820
1233.653, 225.2773
1234.732, 583.9199
1235.810, 276.8555
1236.888, 438.3262
1237.966, 271.0312
1239.044, 278.0137
1240.122, 45.47461
1241.199, 206.3398
1242.277, 402.0312
1243.354, 256.7031
1244.431, 153.6094
1245.508, 546.2461
1246.585, 394.1797
1247.661, 385.2695
1248.738, 316.8594
1249.814, 218.8008
1250.890, 218.1016
1251.966, 166.3594
1253.042, 174.3438
1254.117, 94.78516
1255.193, 197.2305
1256.268, 91.81250
1257.343, 282.2891
1258.418, 209.1523
1259.493, 19.79297
1260.567, 336.8125
1261.642, 441.4453
1262.716, 373.9375
1263.790, 123.1680
1264.864, 204.6133
1265.938, 443.7422
1267.011, 226.6758
1268.085, 530.5234
1269.158, 26.19531
1270.231, 107.3711
1271.304, 350.3555
1272.377, 48.66016
1273.450, 242.7227
1274.522, 341.9258
1275.594, 251.9180
1276.666, 209.4648
1277.738, 197.6797
1278.810, 298.3359
1279.882, 176.0117
1280.953, 47.72656
1282.025, 125.3242
1283.096, 23.71875
1284.167, 178.9141
