##NAMES=Fluorophlogopite
##RRUFFID=R040039
##IDEAL CHEMISTRY=KMg_3_(Si_3_Al)O_10_F_2_
##LOCALITY=Franklin, Sussex County, New Jersey, USA
##OWNER=RRUFF
##SOURCE=University of Arizona Mineral Museum
##DESCRIPTION=Brown hexagonal sheets
##STATUS=The identification of this mineral has been confirmed by X-ray diffraction and chemical analysis
##URL=rruff.info/R040039
##MEASURED CHEMISTRY=(K_0.92_Na_0.06_[box]_0.02_)_Σ=1_(Mg_2.94_Fe_0.04_Ti_0.02_)_Σ=3_(Si_2.98_Al_1.02_)O_10_(F_1.24_(OH)_0.76_)_Σ=2_; OH estimated by charge balance
##PIN_ID=M00025
##ORIENTATION=Laser parallel to b* (0 1 0). Fiducial mark perpendicular to laser is parallel to c [0 0 1]
78.835, 0.000
80.232, 12.035
81.628, 3.623
83.025, 424.783
84.421, 731.376
85.817, 1278.616
87.213, 1750.771
88.608, 2519.787
90.003, 3442.808
91.398, 4347.564
92.793, 5931.025
94.188, 7121.086
95.582, 9246.532
96.976, 11087.525
98.370, 14438.159
99.764, 18545.750
101.157, 23914.004
102.550, 30103.334
103.943, 34993.527
105.336, 39804.348
106.729, 37495.625
108.121, 32887.270
109.513, 25679.141
110.905, 18711.201
112.297, 13648.258
113.688, 9765.428
115.079, 7382.099
116.470, 5710.519
117.861, 4849.337
119.251, 4505.695
120.642, 3205.038
122.032, 2618.027
123.422, 2214.474
124.811, 1902.333
126.201, 1605.830
127.590, 1402.758
128.979, 1133.188
130.367, 980.175
131.756, 910.771
133.144, 775.013
134.532, 681.938
135.920, 535.574
137.307, 469.951
138.695, 418.087
140.082, 336.000
141.469, 303.707
142.856, 169.235
144.242, 48.601
145.628, 30.184
147.014, 0.112
148.400, 27.175
149.786, 65.368
151.171, 25.683
152.556, 203.115
153.941, 104.654
155.325, 157.291
156.710, 122.016
158.094, 126.752
159.478, 196.932
160.862, 14.004
162.245, 34.922
163.629, 220.387
165.012, 321.691
166.395, 495.770
167.777, 557.926
169.160, 748.357
170.542, 851.425
171.924, 917.272
173.306, 1141.344
174.687, 1203.616
176.068, 1584.083
177.449, 1836.719
178.830, 2054.519
180.211, 2622.460
181.591, 3000.527
182.972, 3828.699
184.351, 4636.961
185.731, 5835.312
187.111, 7563.738
188.490, 9652.237
189.869, 12940.805
191.248, 16589.436
192.626, 21508.123
194.005, 27106.869
195.383, 32355.652
196.761, 36094.465
198.139, 36093.289
199.516, 35622.047
200.893, 29420.893
202.271, 24039.768
203.647, 18348.816
205.024, 13848.030
206.400, 10487.311
207.777, 7746.615
209.152, 6055.934
210.528, 4835.244
211.904, 3904.544
213.279, 3033.826
214.654, 2423.089
216.029, 2175.331
217.403, 1661.553
218.778, 1461.754
220.152, 1072.933
221.526, 901.091
222.900, 714.233
224.273, 485.367
225.646, 467.529
227.019, 325.756
228.392, 369.014
229.765, 195.318
231.137, 235.703
232.509, 240.126
233.881, 178.546
235.253, 199.957
236.625, 129.415
237.996, 5.739
239.367, 14.128
240.738, 58.505
242.108, 94.217
243.479, 120.093
244.849, 139.117
246.219, 184.308
247.589, 125.637
248.958, 158.989
250.328, 126.316
251.697, 142.479
253.065, 223.987
254.434, 123.665
255.803, 182.753
257.171, 66.565
258.539, 3.076
259.906, 4.916
261.274, 128.179
262.641, 101.762
264.008, 437.368
265.375, 447.469
266.742, 678.994
268.108, 881.235
269.475, 1322.053
270.840, 1823.788
272.206, 2344.609
273.572, 3421.423
274.937, 4443.810
276.302, 5617.005
277.667, 7199.218
279.032, 7691.322
280.396, 8343.759
281.760, 7555.411
283.125, 6607.277
284.488, 5328.626
285.852, 4169.652
287.215, 3390.646
288.578, 2721.592
289.941, 2354.688
291.304, 2016.525
292.666, 1672.312
294.029, 1637.048
295.391, 1439.737
296.753, 1545.380
298.114, 1409.976
299.476, 1583.529
300.837, 1632.039
302.198, 1779.506
303.558, 2024.933
304.919, 2340.318
306.279, 2899.664
307.639, 3289.969
308.999, 3980.236
310.359, 4539.469
311.718, 5179.500
313.077, 5928.983
314.436, 6207.216
315.795, 6647.640
317.154, 6770.751
318.512, 6988.674
319.870, 7083.205
321.228, 7039.742
322.586, 7132.421
323.943, 6674.560
325.300, 6498.425
326.657, 5952.522
328.014, 5393.767
329.371, 5030.773
330.727, 4270.949
332.083, 3899.665
333.439, 3300.316
334.795, 2719.312
336.150, 2509.309
337.506, 2055.684
338.861, 1867.992
340.215, 1453.943
341.570, 1430.859
342.924, 1180.278
344.279, 1079.150
345.633, 967.000
346.986, 867.953
348.340, 893.627
349.693, 769.402
351.046, 747.153
352.399, 715.878
353.752, 631.576
355.104, 703.247
356.457, 577.891
357.809, 802.506
359.160, 756.304
360.512, 873.864
361.863, 1012.395
363.214, 959.615
364.565, 1361.088
365.916, 1380.680
367.267, 1807.864
368.617, 2122.201
369.967, 2405.605
371.317, 2903.478
372.666, 2859.887
374.016, 2918.336
375.365, 2556.667
376.714, 2202.402
378.063, 1953.796
379.411, 1513.954
380.760, 1409.648
382.108, 1167.951
383.456, 979.900
384.803, 947.521
386.151, 767.629
387.498, 810.355
388.845, 730.301
390.192, 653.135
391.539, 746.639
392.885, 614.862
394.231, 649.318
395.577, 543.156
396.923, 672.417
398.269, 474.563
399.614, 558.514
400.959, 507.181
402.304, 463.096
403.649, 614.953
404.993, 462.204
406.337, 462.021
407.681, 445.721
409.025, 412.124
410.369, 422.104
411.712, 288.925
413.055, 393.878
414.398, 283.334
415.741, 173.240
417.084, 269.652
418.426, 111.323
419.768, 174.307
421.110, 62.673
422.452, 64.209
423.793, 93.595
425.134, 18.498
426.475, 128.254
427.816, 96.882
429.157, 115.716
430.497, 156.225
431.837, 81.124
433.177, 151.515
434.517, 149.851
435.857, 232.252
437.196, 108.481
438.535, 254.652
439.874, 266.772
441.213, 161.842
442.551, 280.858
443.889, 171.827
445.227, 228.744
446.565, 335.614
447.903, 477.439
449.240, 395.219
450.577, 253.954
451.914, 442.643
453.251, 406.288
454.588, 453.887
455.924, 488.443
457.260, 509.954
458.596, 771.421
459.932, 682.844
461.267, 918.223
462.602, 1041.557
463.938, 1089.848
465.272, 1327.095
466.607, 1238.298
467.941, 1151.458
469.276, 1152.574
470.610, 861.646
471.943, 628.681
473.277, 245.675
474.610, 191.628
475.944, 86.546
477.276, 39.416
478.609, 35.265
479.942, 126.928
481.274, 47.231
482.606, 2.610
483.938, 130.041
485.270, 17.570
486.601, 185.180
487.932, 24.042
489.263, 81.797
490.594, 48.254
491.925, 188.253
493.255, 7.211
494.585, 101.109
495.915, 26.962
497.245, 205.764
498.575, 216.525
499.904, 93.249
501.233, 338.929
502.562, 173.572
503.891, 391.175
505.219, 356.744
506.548, 436.277
507.876, 507.775
509.203, 486.238
510.531, 569.665
511.859, 667.058
513.186, 541.415
514.513, 607.738
515.840, 462.027
517.166, 431.306
518.493, 240.549
519.819, 347.755
521.145, 372.928
522.470, 117.066
523.796, 296.164
525.121, 59.235
526.446, 103.266
527.771, 80.269
529.096, 97.765
530.421, 152.102
531.745, 116.070
533.069, 48.645
534.393, 56.359
535.716, 76.967
537.040, 41.613
538.363, 149.833
539.686, 132.592
541.009, 58.978
542.331, 38.625
543.654, 122.658
544.976, 40.963
546.298, 81.225
547.620, 27.523
548.941, 57.668
550.263, 103.819
551.584, 10.964
552.905, 96.062
554.225, 47.877
555.546, 123.115
556.866, 140.070
558.186, 22.005
559.506, 215.866
560.826, 15.275
562.145, 139.553
563.465, 213.382
564.784, 25.761
566.103, 126.096
567.421, 27.006
568.740, 234.948
570.058, 222.912
571.376, 170.577
572.694, 321.620
574.011, 77.415
575.329, 225.727
576.646, 193.685
577.963, 144.569
579.279, 280.296
580.596, 130.458
581.912, 283.768
583.228, 182.636
584.544, 223.482
585.860, 245.832
587.175, 175.721
588.491, 254.853
589.806, 132.362
591.121, 252.905
592.435, 379.312
593.750, 207.676
595.064, 463.411
596.378, 326.285
597.692, 362.054
599.006, 398.845
600.319, 347.166
601.632, 416.761
602.945, 484.263
604.258, 526.777
605.571, 603.569
606.883, 721.336
608.195, 821.075
609.507, 690.586
610.819, 740.272
612.131, 855.935
613.442, 832.572
614.753, 986.056
616.064, 1202.768
617.375, 1183.327
618.685, 1443.860
619.995, 1424.369
621.306, 1764.853
622.615, 1815.312
623.925, 2095.748
625.235, 2426.157
626.544, 2536.543
627.853, 2976.904
629.162, 2967.242
630.471, 3507.553
631.779, 3587.590
633.087, 3817.377
634.395, 4326.375
635.703, 4374.588
637.011, 4772.703
638.318, 4891.590
639.625, 4865.486
640.932, 4952.193
642.239, 4580.910
643.546, 4976.695
644.852, 4741.975
646.158, 4639.809
647.464, 4811.607
648.770, 4529.924
650.076, 4719.420
651.381, 4636.818
652.686, 4635.785
653.991, 4933.699
655.296, 4663.203
656.600, 5112.734
657.905, 5241.588
659.209, 5261.435
660.513, 5810.740
661.817, 5690.551
663.120, 6250.346
664.423, 6510.121
665.726, 7029.880
667.029, 7759.621
668.332, 7979.346
669.635, 9359.051
670.937, 9709.233
672.239, 11048.907
673.541, 12673.969
674.842, 13763.604
676.144, 16233.016
677.445, 17953.061
678.746, 20002.652
680.047, 22471.619
681.348, 23052.926
682.648, 25101.820
683.948, 25073.791
685.248, 24203.859
686.548, 24155.986
687.848, 21715.318
689.147, 20855.654
690.447, 18694.625
691.746, 16733.125
693.044, 15296.184
694.343, 12767.917
695.641, 11506.553
696.940, 9796.049
698.238, 8400.667
699.535, 7346.221
700.833, 5979.174
702.130, 5507.326
703.427, 4692.814
704.724, 3999.417
706.021, 3488.090
707.318, 2954.066
708.614, 2881.856
709.910, 2450.738
711.206, 2106.363
712.502, 2124.979
713.798, 1685.006
715.093, 1732.104
716.388, 1491.567
717.683, 1399.165
718.978, 1497.848
720.272, 1149.969
721.567, 1277.010
722.861, 1132.807
724.155, 1151.164
725.448, 1170.241
726.742, 862.465
728.035, 1112.826
729.328, 1011.961
730.621, 867.764
731.914, 1056.750
733.206, 901.445
734.499, 1142.328
735.791, 901.691
737.083, 852.236
738.374, 1031.164
739.666, 840.317
740.957, 1016.079
742.248, 904.981
743.539, 954.083
744.830, 1212.963
746.120, 881.385
747.410, 960.703
748.701, 939.544
749.990, 828.274
751.280, 877.286
752.570, 846.087
753.859, 845.300
755.148, 764.070
756.437, 672.827
757.725, 891.568
759.014, 650.295
760.302, 719.484
761.590, 788.182
762.878, 676.863
764.166, 865.826
765.453, 594.477
766.740, 723.347
768.027, 781.967
769.314, 580.702
770.601, 799.306
771.887, 627.881
773.174, 686.440
774.460, 764.986
775.745, 563.516
777.031, 712.350
778.316, 650.850
779.602, 719.424
780.887, 847.896
782.172, 566.354
783.456, 904.798
784.741, 603.227
786.025, 781.643
787.309, 770.045
788.593, 748.436
789.876, 746.816
791.160, 805.193
792.443, 913.566
793.726, 891.975
795.009, 850.398
796.291, 1088.824
797.574, 857.287
798.856, 845.756
800.138, 944.274
801.420, 782.791
802.702, 871.330
803.983, 759.864
805.264, 648.387
806.545, 666.909
807.826, 525.423
809.107, 493.933
810.387, 512.432
811.667, 350.919
812.947, 589.398
814.227, 377.866
815.507, 396.323
816.786, 324.768
818.065, 343.199
819.344, 341.619
820.623, 260.026
821.902, 268.422
823.180, 236.805
824.459, 35.177
825.737, 353.532
827.014, 78.126
828.292, 210.157
829.569, 278.428
830.847, 46.687
832.124, 154.932
833.401, 123.164
834.677, 18.610
835.954, 29.586
837.230, 42.228
838.506, 14.069
839.782, 4.068
841.057, 52.221
842.333, 160.361
843.608, 161.469
844.883, 106.604
846.158, 104.667
847.433, 47.253
848.707, 80.789
849.981, 161.134
851.255, 26.844
852.529, 114.829
853.803, 217.179
855.076, 190.696
856.350, 101.435
857.623, 56.367
858.895, 54.168
860.168, 108.040
861.441, 179.679
862.713, 57.396
863.985, 15.103
865.257, 142.813
866.528, 9.482
867.800, 68.201
869.071, 25.886
870.342, 33.555
871.613, 131.230
872.884, 41.103
874.154, 56.526
875.425, 105.846
876.695, 51.714
877.965, 119.266
879.234, 43.175
880.504, 15.653
881.773, 111.844
883.042, 110.668
884.311, 116.748
885.580, 85.843
886.848, 28.494
888.117, 38.823
889.385, 23.869
890.653, 153.412
891.920, 20.699
893.188, 102.022
894.455, 245.186
895.722, 22.393
896.989, 209.587
898.256, 206.773
899.523, 23.956
900.789, 381.126
902.055, 128.288
903.321, 85.442
904.587, 252.585
905.852, 29.724
907.118, 166.848
908.383, 163.965
909.648, 171.075
910.913, 248.177
912.177, 15.301
913.442, 322.426
914.706, 159.543
915.970, 56.655
917.233, 303.756
918.497, 70.850
919.760, 247.936
921.024, 95.013
922.287, 122.081
923.550, 419.143
924.812, 236.197
926.075, 263.246
927.337, 370.287
928.599, 47.321
929.861, 504.377
931.122, 101.428
932.384, 388.473
933.645, 435.512
934.906, 162.543
936.167, 519.568
937.428, 246.591
938.688, 313.604
939.948, 410.612
941.208, 317.611
942.468, 414.605
943.728, 331.593
944.987, 328.572
946.247, 465.546
947.506, 322.514
948.765, 319.474
950.023, 506.432
951.282, 323.381
952.540, 590.325
953.798, 387.264
955.056, 554.194
956.314, 601.130
957.572, 288.058
958.829, 584.979
960.086, 601.903
961.343, 598.818
962.600, 795.729
963.856, 642.631
965.113, 679.526
966.369, 676.418
967.625, 693.301
968.881, 1000.175
970.136, 707.048
971.392, 853.913
972.647, 940.771
973.902, 737.623
975.157, 1204.470
976.411, 970.814
977.666, 927.646
978.920, 1319.064
980.174, 1005.886
981.428, 1292.701
982.682, 1289.067
983.935, 1145.870
985.188, 1375.216
986.441, 1333.188
987.694, 1454.472
988.947, 1580.607
990.199, 1325.858
991.452, 1681.940
992.704, 1458.355
993.956, 1545.135
995.207, 1881.567
996.459, 1668.153
997.710, 1874.727
998.961, 1927.906
1000.212, 1844.368
1001.463, 2360.842
1002.714, 2077.064
1003.964, 2393.653
1005.214, 2479.336
1006.464, 2406.059
1007.714, 2565.783
1008.964, 2622.255
1010.213, 2528.616
1011.462, 2887.948
1012.711, 2644.919
1013.960, 2771.324
1015.209, 2718.057
1016.457, 2564.813
1017.705, 2710.299
1018.954, 2547.005
1020.201, 2403.309
1021.449, 2781.650
1022.697, 2598.389
1023.944, 3011.984
1025.191, 3348.766
1026.438, 3578.294
1027.685, 4495.309
1028.931, 4845.867
1030.177, 5909.342
1031.423, 6894.611
1032.669, 7771.738
1033.915, 9200.996
1035.161, 9088.315
1036.406, 9269.140
1037.651, 9143.562
1038.896, 8010.406
1040.141, 7505.084
1041.386, 6495.527
1042.630, 5492.145
1043.874, 4861.986
1045.118, 4210.178
1046.362, 3746.453
1047.606, 3563.629
1048.849, 2980.781
1050.092, 2987.057
1051.336, 2714.076
1052.578, 2480.841
1053.821, 2417.367
1055.064, 2164.733
1056.306, 2071.023
1057.548, 2177.737
1058.790, 1825.157
1060.032, 1961.858
1061.273, 1785.402
1062.515, 1604.377
1063.756, 1901.575
1064.997, 1498.833
1066.237, 1855.213
1067.478, 1531.961
1068.718, 1438.954
1069.959, 1635.612
1071.199, 1512.142
1072.438, 1609.284
1073.678, 1415.930
1074.918, 1253.205
1076.157, 1679.956
1077.396, 1456.766
1078.635, 1420.438
1079.873, 1697.829
1081.112, 1404.668
1082.350, 1651.822
1083.588, 1748.660
1084.826, 1695.557
1086.064, 1862.930
1087.301, 1729.576
1088.539, 1816.275
1089.776, 1982.909
1091.013, 1619.560
1092.250, 1866.438
1093.486, 1863.047
1094.723, 1569.960
1095.959, 1916.849
1097.195, 1713.590
1098.431, 1991.200
1099.666, 1767.809
1100.902, 1815.021
1102.137, 2082.210
1103.372, 1678.748
1104.607, 1688.363
1105.842, 1924.895
1107.076, 1441.905
1108.311, 1690.651
1109.545, 1517.148
1110.779, 1393.963
1112.012, 1441.087
1113.246, 1087.896
1114.479, 1005.100
1115.712, 1151.560
1116.945, 718.009
1118.178, 975.914
1119.411, 712.356
1120.643, 538.817
1121.875, 956.209
1123.108, 542.641
1124.339, 549.430
1125.571, 726.190
1126.802, 312.629
1128.034, 350.221
1129.265, 216.724
1130.496, 153.703
1131.727, 400.126
1132.957, 13.149
1134.187, 374.050
1135.418, 300.688
1136.648, 62.927
1137.877, 254.455
1139.107, 271.043
1140.336, 77.737
1141.566, 369.552
1142.795, 5.908
1144.023, 273.427
1145.252, 130.366
1146.480, 196.729
1147.709, 193.095
1148.937, 0.550
1150.165, 155.834
1151.392, 172.549
1152.620, 71.089
1153.847, 225.530
1155.074, 185.209
1156.301, 81.591
1157.528, 435.936
1158.755, 252.658
1159.981, 69.597
1161.207, 425.340
1162.433, 11.853
1163.659, 288.382
1164.885, 134.901
1166.110, 91.192
1167.336, 248.653
1168.561, 35.089
1169.786, 171.182
1171.010, 218.138
1172.235, 64.788
1173.459, 290.970
1174.683, 10.694
1175.907, 63.078
1177.131, 243.553
1178.355, 120.464
1179.578, 46.563
1180.801, 276.436
1182.024, 13.265
1183.247, 389.326
1184.470, 306.257
1185.692, 52.314
1186.915, 528.348
1188.137, 54.790
1189.359, 91.175
1190.580, 297.367
1191.802, 16.354
1193.023, 229.558
1194.244, 76.233
1195.465, 82.098
1196.686, 217.934
1197.907, 114.398
1199.127, 170.186
1200.347, 266.008
1201.567, 32.610
1202.787, 438.319
1204.007, 254.182
1205.226, 19.844
1206.446, 215.472
1207.665, 97.905
1208.884, 32.387
1210.102, 73.083
1211.321, 59.076
1212.539, 204.485
1213.758, 179.874
1214.976, 65.616
1216.193, 250.947
1217.411, 217.918
1218.628, 83.196
1219.846, 248.445
1221.063, 53.666
1222.280, 178.855
1223.496, 164.021
1224.713, 100.340
1225.929, 25.757
1227.145, 147.173
1228.361, 93.308
1229.577, 168.269
1230.793, 174.545
1232.008, 59.972
1233.223, 494.879
1234.438, 220.550
1235.653, 335.424
1236.868, 230.586
1238.082, 175.601
1239.297, 350.415
1240.511, 165.198
1241.725, 169.950
1242.938, 204.682
1244.152, 19.769
1245.365, 234.454
1246.578, 89.116
1247.791, 93.871
1249.004, 348.486
1250.217, 16.918
1251.429, 247.640
1252.642, 132.174
1253.854, 2.229
1255.066, 292.248
1256.277, 176.702
1257.489, 101.820
1258.700, 176.198
1259.911, 80.865
1261.122, 347.238
1262.333, 401.541
1263.544, 16.174
1264.754, 261.255
1265.964, 255.419
1267.174, 56.720
1268.384, 340.775
1269.594, 184.745
1270.803, 208.170
1272.013, 312.082
1273.222, 46.562
1274.431, 270.618
1275.640, 154.606
1276.848, 318.860
1278.057, 213.400
1279.265, 96.469
1280.473, 230.831
1281.681, 514.450
1282.888, 65.479
1284.096, 244.444
1285.303, 217.972
1286.510, 37.230
1287.717, 437.598
1288.924, 60.620
1290.131, 164.612
1291.337, 418.074
1292.543, 681.391
1293.749, 527.254
1294.955, 611.521
1296.161, 221.322
1297.366, 375.561
1298.571, 245.507
1299.777, 1.364
1300.981, 412.080
1302.186, 75.154
1303.391, 217.675
1304.595, 170.467
1305.799, 97.003
1307.003, 265.680
1308.207, 257.823
1309.411, 109.561
1310.614, 313.628
1311.818, 65.910
1313.021, 318.380
1314.224, 298.793
1315.426, 131.178
1316.629, 203.521
1317.831, 415.444
1319.033, 2.320
1320.235, 299.174
1321.437, 187.371
1322.639, 119.283
1323.840, 470.981
1325.042, 7.680
1326.243, 134.069
1327.444, 315.129
1328.644, 106.712
1329.845, 498.228
1331.045, 379.188
1332.245, 110.584
1333.445, 328.242
1334.645, 249.186
1335.845, 230.404
1337.044, 420.129
1338.244, 121.242
1339.443, 381.875
1340.642, 382.480
1341.840, 153.428
1343.039, 444.037
1344.237, 294.820
1345.435, 105.602
1346.633, 595.684
1347.831, 266.357
1349.029, 386.982
1350.226, 396.844
1351.424, 87.373
1352.621, 411.010
1353.818, 518.891
1355.014, 168.779
1356.211, 418.562
1357.407, 329.904
1358.604, 210.111
1359.800, 599.805
1360.995, 30.035
1362.191, 570.232
1363.387, 539.895
1364.582, 310.049
1365.777, 359.461
1366.972, 380.020
1368.167, 179.836
1369.361, 72.457
1370.556, 56.854
1371.750, 60.762
1372.944, 403.238
1374.138, 134.646
1375.331, 178.332
1376.525, 311.307
1377.718, 113.998
1378.911, 496.277
1380.104, 227.895
1381.297, 259.980
1382.490, 492.078
1383.682, 341.449
1384.874, 411.109
1386.066, 613.352
1387.258, 214.805
1388.450, 516.463
1389.641, 367.230
1390.833, 279.551
1392.024, 610.713
1393.215, 392.084
1394.406, 352.807
1395.596, 614.092
1396.787, 85.678
1397.977, 346.311
1399.167, 616.926
1400.357, 148.047
1401.547, 492.867
1402.736, 232.295
1403.925, 23.824
1405.115, 415.305
1406.304, 226.287
1407.492, 112.967
1408.681, 523.518
1409.870, 66.598
1411.058, 341.297
1412.246, 307.641
1413.434, 113.334
1414.622, 467.254
1415.809, 136.135
1416.997, 221.520
1418.184, 231.164
1419.371, 160.428
1420.558, 83.941
1421.744, 282.908
1422.931, 103.160
1424.117, 292.074
1425.303, 271.371
1426.489, 49.697
1427.675, 310.477
1428.861, 29.539
1430.046, 28.094
1431.231, 467.869
1432.416, 127.932
1433.601, 246.230
1434.786, 385.396
1435.970, 125.533
1437.155, 394.957
1438.339, 421.930
1439.523, 61.990
1440.707, 652.047
1441.890, 369.090
1443.074, 164.051
1444.257, 540.725
1445.440, 379.002
1446.623, 356.529
1447.806, 554.514
1448.989, 433.445
1450.171, 582.328
1451.353, 780.242
1452.535, 78.627
1453.717, 647.150
1454.899, 565.566
1456.080, 491.186
1457.262, 737.578
1458.443, 594.871
1459.624, 357.449
1460.805, 731.967
1461.985, 410.105
1463.166, 667.812
1464.346, 808.266
1465.526, 452.885
1466.706, 697.764
1467.886, 1262.098
1469.065, 376.510
1470.245, 675.244
1471.424, 346.434
1472.603, 367.084
1473.782, 679.553
1474.960, 361.977
1476.139, 576.336
1477.317, 576.270
1478.495, 288.398
1479.673, 372.859
1480.851, 647.061
1482.029, 170.908
1483.206, 671.178
1484.383, 454.109
1485.560, 216.723
1486.737, 619.029
1487.914, 371.557
1489.091, 244.719
1490.267, 678.334
