##NAMES=Fluorophlogopite
##RRUFFID=R040075
##IDEAL CHEMISTRY=KMg_3_(Si_3_Al)O_10_F_2_
##LOCALITY=unknown
##OWNER=RRUFF
##SOURCE=University of Arizona Mineral Museum
##DESCRIPTION=Green hexagonal tablet
##STATUS=The identification of this mineral has been confirmed by X-ray diffraction and chemical analysis
##URL=rruff.info/R040075
##MEASURED CHEMISTRY=(K_0.93_[box]_0.04_Na_0.03_)(Mg_0.66_Fe_0.30_Ti_0.02_)_3_(Si_0.75_Al_0.25_)_4_O_10_(F_0.90_(OH)_0.06_Cl_0.04_)
##PIN_ID=L00309
##ORIENTATION=Laser parallel to -b* (0 -1 0). Fiducial mark perpendicular to laser is parallel to -c [0 0 -1]
130.367, 0.000
131.756, 108.249
133.144, 0.652
134.532, 163.548
135.920, 73.962
137.307, 54.932
138.695, 235.885
140.082, 3.447
141.469, 100.766
142.856, 97.428
144.242, 0.412
145.628, 6.066
147.014, 101.365
148.400, 11.010
149.786, 75.706
151.171, 117.377
152.556, 252.917
153.941, 259.295
155.325, 372.498
156.710, 332.977
158.094, 432.541
159.478, 502.874
160.862, 632.908
162.245, 828.895
163.629, 948.254
165.012, 1175.894
166.395, 1352.889
167.777, 1630.326
169.160, 1925.892
170.542, 2274.665
171.924, 2680.883
173.306, 3161.619
174.687, 3751.024
176.068, 4405.129
177.449, 5236.595
178.830, 6164.164
180.211, 7392.175
181.591, 8462.979
182.972, 9801.081
184.351, 11210.303
185.731, 12385.183
187.111, 12918.314
188.490, 13604.119
189.869, 13566.116
191.248, 12966.182
192.626, 11902.448
194.005, 10769.824
195.383, 9425.195
196.761, 8138.974
198.139, 6742.185
199.516, 5635.422
200.893, 4710.680
202.271, 3840.977
203.647, 3240.416
205.024, 2722.983
206.400, 2340.573
207.777, 1829.162
209.152, 1597.729
210.528, 1364.289
211.904, 1136.758
213.279, 969.156
214.654, 818.677
216.029, 690.787
217.403, 603.446
218.778, 499.942
220.152, 431.458
221.526, 342.963
222.900, 309.480
224.273, 198.996
225.646, 320.480
227.019, 247.492
228.392, 281.339
229.765, 196.699
231.137, 174.011
232.509, 73.271
233.881, 5.473
235.253, 27.616
236.625, 5.696
237.996, 6.910
239.367, 10.408
240.738, 31.980
242.108, 26.413
243.479, 48.645
244.849, 30.973
246.219, 10.529
247.589, 3.065
248.958, 22.422
250.328, 36.481
251.697, 53.243
253.065, 19.850
254.434, 47.554
255.803, 62.905
257.171, 111.360
258.539, 142.836
259.906, 171.473
261.274, 212.837
262.641, 255.599
264.008, 319.100
265.375, 396.234
266.742, 470.250
268.108, 573.962
269.475, 698.703
270.840, 797.354
272.206, 914.570
273.572, 1036.475
274.937, 1152.550
276.302, 1296.336
277.667, 1433.550
279.032, 1260.523
280.396, 1381.493
281.760, 1214.645
283.125, 1057.974
284.488, 1091.017
285.852, 916.726
287.215, 735.115
288.578, 693.901
289.941, 634.203
291.304, 545.178
292.666, 461.963
294.029, 454.492
295.391, 360.411
296.753, 411.172
298.114, 361.746
299.476, 448.786
300.837, 472.236
302.198, 512.920
303.558, 521.224
304.919, 562.488
306.279, 581.092
307.639, 687.833
308.999, 715.156
310.359, 778.139
311.718, 820.531
313.077, 862.033
314.436, 913.334
315.795, 952.245
317.154, 930.939
318.512, 916.359
319.870, 914.008
321.228, 910.372
322.586, 862.494
323.943, 848.548
325.300, 788.321
326.657, 724.139
328.014, 713.876
329.371, 651.576
330.727, 595.066
332.083, 594.512
333.439, 538.882
334.795, 456.056
336.150, 479.109
337.506, 348.119
338.861, 430.106
340.215, 354.887
341.570, 377.485
342.924, 308.301
344.279, 332.677
345.633, 293.894
346.986, 291.263
348.340, 284.469
349.693, 269.611
351.046, 277.410
352.399, 269.035
353.752, 222.535
355.104, 273.896
356.457, 261.120
357.809, 232.258
359.160, 271.385
360.512, 241.584
361.863, 230.626
363.214, 260.684
364.565, 198.668
365.916, 242.541
367.267, 178.420
368.617, 197.250
369.967, 191.044
371.317, 187.708
372.666, 171.316
374.016, 159.894
375.365, 155.403
376.714, 85.893
378.063, 181.301
379.411, 64.659
380.760, 120.011
382.108, 72.266
383.456, 90.469
384.803, 141.620
386.151, 66.720
387.498, 141.586
388.845, 111.582
390.192, 47.527
391.539, 43.417
392.885, 60.048
394.231, 48.528
395.577, 60.401
396.923, 59.909
398.269, 61.063
399.614, 58.477
400.959, 51.893
402.304, 52.400
403.649, 62.323
404.993, 43.543
406.337, 34.313
407.681, 69.138
409.025, 0.194
410.369, 46.663
411.712, 16.864
413.055, 37.432
414.398, 48.432
415.741, 8.621
417.084, 34.296
418.426, 58.912
419.768, 107.833
421.110, 1.286
422.452, 8.538
423.793, 12.744
425.134, 1.140
426.475, 3.875
427.816, 6.185
429.157, 13.940
430.497, 16.757
431.837, 1.362
433.177, 8.580
434.517, 5.418
435.857, 16.346
437.196, 18.221
438.535, 25.013
439.874, 16.683
441.213, 7.675
442.551, 51.096
443.889, 46.403
445.227, 19.846
446.565, 10.239
447.903, 10.574
449.240, 41.856
450.577, 16.077
451.914, 42.250
453.251, 44.377
454.588, 29.461
455.924, 33.501
457.260, 18.897
458.596, 7.738
459.932, 4.726
461.267, 12.921
462.602, 18.182
463.938, 13.510
465.272, 16.828
466.607, 37.365
467.941, 8.902
469.276, 5.500
470.610, 8.842
471.943, 6.871
473.277, 20.643
474.610, 40.478
475.944, 0.610
477.276, 16.642
478.609, 49.621
479.942, 6.547
481.274, 28.419
482.606, 70.240
483.938, 67.009
485.270, 113.729
486.601, 82.400
487.932, 82.023
489.263, 71.597
490.594, 103.122
491.925, 95.600
493.255, 96.030
494.585, 125.414
495.915, 137.751
497.245, 131.044
498.575, 120.292
499.904, 153.496
501.233, 180.656
502.562, 112.775
503.891, 201.735
505.219, 220.754
506.548, 157.574
507.876, 168.344
509.203, 150.045
510.531, 189.642
511.859, 196.238
513.186, 194.763
514.513, 209.064
515.840, 216.548
517.166, 224.951
518.493, 209.206
519.819, 179.589
521.145, 204.816
522.470, 188.968
523.796, 194.218
525.121, 208.201
526.446, 194.314
527.771, 193.172
529.096, 189.070
530.421, 206.910
531.745, 221.708
533.069, 201.409
534.393, 280.036
535.716, 196.624
537.040, 229.801
538.363, 236.442
539.686, 189.403
541.009, 296.750
542.331, 202.730
543.654, 321.834
544.976, 238.186
546.298, 315.041
547.620, 242.340
548.941, 205.494
550.263, 271.087
551.584, 222.604
552.905, 237.282
554.225, 236.816
555.546, 215.450
556.866, 245.072
558.186, 206.688
559.506, 246.280
560.826, 227.812
562.145, 211.347
563.465, 247.986
564.784, 244.485
566.103, 215.917
567.421, 290.683
568.740, 187.329
570.058, 182.913
571.376, 239.198
572.694, 223.573
574.011, 194.154
575.329, 179.304
576.646, 211.766
577.963, 200.840
579.279, 199.837
580.596, 205.235
581.912, 194.896
583.228, 195.039
584.544, 214.852
585.860, 195.344
587.175, 217.482
588.491, 218.535
589.806, 242.203
591.121, 234.003
592.435, 237.175
593.750, 302.092
595.064, 296.146
596.378, 347.209
597.692, 308.340
599.006, 374.360
600.319, 302.579
601.632, 390.073
602.945, 485.305
604.258, 457.302
605.571, 572.189
606.883, 564.072
608.195, 608.217
609.507, 668.133
610.819, 764.258
612.131, 793.389
613.442, 880.385
614.753, 992.404
616.064, 970.291
617.375, 1076.072
618.685, 1189.524
619.995, 1218.469
621.306, 1341.089
622.615, 1445.009
623.925, 1496.728
625.235, 1560.166
626.544, 1604.980
627.853, 1630.827
629.162, 1673.545
630.471, 1647.912
631.779, 1687.448
633.087, 1570.751
634.395, 1711.368
635.703, 1659.124
637.011, 1580.077
638.318, 1648.740
639.625, 1620.582
640.932, 1648.599
642.239, 1607.594
643.546, 1688.777
644.852, 1710.823
646.158, 1656.860
647.464, 1719.847
648.770, 1768.960
650.076, 1818.035
651.381, 1948.107
652.686, 1991.295
653.991, 2114.531
655.296, 2229.733
656.600, 2264.966
657.905, 2404.444
659.209, 2596.924
660.513, 2840.246
661.817, 3019.834
663.120, 3262.215
664.423, 3622.306
665.726, 3879.862
667.029, 4300.311
668.332, 4732.572
669.635, 5273.780
670.937, 5936.557
672.239, 6329.154
673.541, 7044.562
674.842, 7521.498
676.144, 7972.068
677.445, 8393.350
678.746, 8404.987
680.047, 8497.059
681.348, 8013.745
682.648, 7534.706
683.948, 7014.849
685.248, 6311.407
686.548, 5530.924
687.848, 4853.697
689.147, 4310.949
690.447, 3730.772
691.746, 3172.928
693.044, 2835.118
694.343, 2376.892
695.641, 2192.570
696.940, 1950.529
698.238, 1739.402
699.535, 1688.834
700.833, 1486.330
702.130, 1358.110
703.427, 1313.701
704.724, 1195.415
706.021, 1223.964
707.318, 1189.502
708.614, 1128.043
709.910, 1102.462
711.206, 1078.963
712.502, 1086.527
713.798, 1117.118
715.093, 1068.643
716.388, 1114.996
717.683, 1032.327
718.978, 1080.953
720.272, 999.534
721.567, 971.995
722.861, 1019.403
724.155, 1001.013
725.448, 940.448
726.742, 962.847
728.035, 872.300
729.328, 911.711
730.621, 782.130
731.914, 841.541
733.206, 782.950
734.499, 743.377
735.791, 698.836
737.083, 669.296
738.374, 695.761
739.666, 599.227
740.957, 581.695
742.248, 621.167
743.539, 526.642
744.830, 563.124
746.120, 539.613
747.410, 513.104
748.701, 578.601
749.990, 502.098
751.280, 511.597
752.570, 498.095
753.859, 528.604
755.148, 508.113
756.437, 492.626
757.725, 513.156
759.014, 525.337
760.302, 542.216
761.590, 559.748
762.878, 590.281
764.166, 549.814
765.453, 571.348
766.740, 538.883
768.027, 568.417
769.314, 602.952
770.601, 562.489
771.887, 553.026
773.174, 573.565
774.460, 557.107
775.745, 510.655
777.031, 492.210
778.316, 517.771
779.602, 444.338
780.887, 473.918
782.172, 430.501
783.456, 429.089
784.741, 342.678
786.025, 325.270
787.309, 336.871
788.593, 352.483
789.876, 253.098
791.160, 288.714
792.443, 261.331
793.726, 208.950
795.009, 191.570
796.291, 203.190
797.574, 221.811
798.856, 235.431
800.138, 197.051
801.420, 127.672
802.702, 104.292
803.983, 92.913
805.264, 89.533
806.545, 58.154
807.826, 61.774
809.107, 58.393
810.387, 38.011
811.667, 11.629
812.947, 37.243
814.227, 5.856
815.507, 30.466
816.786, 11.927
818.065, 11.330
819.344, 2.259
820.623, 8.843
821.902, 11.575
823.180, 10.004
824.459, 20.442
825.737, 15.894
827.014, 29.358
828.292, 20.866
829.569, 35.663
830.847, 11.835
832.124, 16.344
833.401, 24.865
834.677, 98.403
835.954, 2.998
837.230, 7.599
838.506, 64.209
839.782, 25.142
841.057, 17.818
842.333, 8.174
843.608, 18.850
844.883, 40.540
846.158, 25.255
847.433, 1.011
848.707, 64.729
849.981, 21.507
851.255, 19.301
852.529, 78.889
853.803, 38.078
855.076, 17.737
856.350, 13.434
857.623, 33.398
858.895, 20.748
860.168, 22.913
861.441, 21.857
862.713, 50.181
863.985, 30.321
865.257, 14.458
866.528, 7.598
867.800, 13.265
869.071, 10.124
870.342, 27.019
871.613, 4.084
872.884, 7.183
874.154, 35.279
875.425, 47.383
876.695, 4.491
877.965, 40.594
879.234, 81.696
880.504, 35.795
881.773, 61.893
883.042, 45.991
884.311, 97.087
885.580, 86.187
886.848, 87.285
888.117, 108.382
889.385, 96.477
890.653, 88.570
891.920, 100.661
893.188, 96.750
894.455, 128.840
895.722, 123.929
896.989, 117.016
898.256, 154.100
899.523, 162.188
900.789, 137.275
902.055, 168.359
903.321, 182.442
904.587, 214.522
905.852, 183.599
907.118, 156.675
908.383, 216.747
909.648, 233.817
910.913, 209.884
912.177, 189.949
913.442, 196.011
914.706, 262.072
915.970, 232.131
917.233, 260.191
918.497, 215.249
919.760, 214.304
921.024, 286.357
922.287, 231.407
923.550, 253.454
924.812, 249.499
926.075, 229.547
927.337, 260.592
928.599, 258.635
929.861, 291.675
931.122, 228.713
932.384, 234.747
933.645, 267.779
934.906, 222.807
936.167, 284.833
937.428, 304.859
938.688, 219.881
939.948, 310.901
941.208, 269.917
942.468, 314.930
943.728, 313.940
944.987, 287.948
946.247, 344.951
947.506, 288.952
948.765, 248.949
950.023, 359.944
951.282, 352.935
952.540, 374.924
953.798, 351.908
955.056, 399.890
956.314, 387.868
957.572, 387.843
958.829, 400.815
960.086, 439.784
961.343, 403.749
962.600, 450.629
963.856, 434.397
965.113, 422.275
966.369, 479.018
967.625, 454.862
968.881, 449.984
970.136, 516.125
971.392, 497.841
972.647, 477.582
973.902, 527.672
975.157, 478.834
976.411, 576.417
977.666, 544.234
978.920, 539.270
980.174, 594.653
981.428, 517.495
982.682, 634.497
983.935, 562.244
985.188, 544.490
986.441, 632.142
987.694, 676.579
988.947, 681.765
990.199, 691.530
991.452, 679.323
992.704, 724.931
993.956, 730.062
995.207, 753.836
996.459, 855.879
997.710, 812.022
998.961, 871.606
1000.212, 920.280
1001.463, 923.625
1002.714, 956.095
1003.964, 946.003
1005.214, 1049.843
1006.464, 1061.393
1007.714, 1063.169
1008.964, 1199.783
1010.213, 1165.571
1011.462, 1365.436
1012.711, 1406.311
1013.960, 1461.298
1015.209, 1628.119
1016.457, 1660.153
1017.705, 1928.962
1018.954, 2028.755
1020.201, 2264.763
1021.449, 2369.750
1022.697, 2625.653
1023.944, 2736.388
1025.191, 3044.521
1026.438, 3127.838
1027.685, 3273.539
1028.931, 3338.502
1030.177, 3291.431
1031.423, 3381.287
1032.669, 3163.749
1033.915, 3031.647
1035.161, 2956.951
1036.406, 2729.962
1037.651, 2592.951
1038.896, 2328.896
1040.141, 2257.858
1041.386, 2135.773
1042.630, 2035.716
1043.874, 1865.562
1045.118, 1812.583
1046.362, 1732.490
1047.606, 1707.477
1048.849, 1636.781
1050.092, 1583.792
1051.336, 1638.684
1052.578, 1612.753
1053.821, 1541.642
1055.064, 1485.530
1056.306, 1395.417
1057.548, 1447.301
1058.790, 1400.187
1060.032, 1350.073
1061.273, 1359.997
1062.515, 1251.014
1063.756, 1295.037
1064.997, 1234.025
1066.237, 1136.948
1067.478, 1083.820
1068.718, 1020.819
1069.959, 1011.687
1071.199, 1011.554
1072.438, 936.419
1073.678, 916.309
1074.918, 825.661
1076.157, 812.563
1077.396, 1049.424
1078.635, 1024.169
1079.873, 1091.907
1081.112, 1061.184
1082.350, 1066.035
1083.588, 762.884
1084.826, 526.736
1086.064, 558.424
1087.301, 529.271
1088.539, 508.121
1089.776, 498.989
1091.013, 478.830
1092.250, 422.703
1093.486, 451.618
1094.723, 366.454
1095.959, 406.345
1097.195, 393.177
1098.431, 335.261
1099.666, 341.095
1100.902, 305.927
1102.137, 291.756
1103.372, 282.584
1104.607, 242.424
1105.842, 233.325
1107.076, 161.184
1108.311, 151.094
1109.545, 171.917
1110.779, 116.735
1112.012, 130.799
1113.246, 157.061
1114.479, 139.875
1115.712, 132.858
1116.945, 104.668
1118.178, 121.522
1119.411, 125.335
1120.643, 134.149
1121.875, 97.960
1123.108, 133.821
1124.339, 93.636
1125.571, 86.524
1126.802, 24.346
1128.034, 17.788
1129.265, 78.206
1130.496, 38.029
1131.727, 32.092
1132.957, 69.398
1134.187, 43.336
1135.418, 15.227
1136.648, 52.084
1137.877, 28.127
1139.107, 100.329
1140.336, 30.201
1141.566, 57.076
1142.795, 61.037
1144.023, 1.917
1145.252, 29.845
1146.480, 23.739
1147.709, 45.633
1148.937, 40.644
1150.165, 48.557
1151.392, 40.475
1152.620, 54.389
1153.847, 24.300
1155.074, 14.712
1156.301, 38.625
1157.528, 16.195
1158.755, 5.453
1159.981, 2.463
1161.207, 4.399
1162.433, 32.424
1163.659, 19.622
1164.885, 5.547
1166.110, 29.566
1167.336, 31.456
1168.561, 69.757
1169.786, 1.002
1171.010, 61.895
1172.235, 34.164
1173.459, 20.238
1174.683, 51.609
1175.907, 7.508
1177.131, 24.324
1178.355, 34.136
1179.578, 6.054
1180.801, 56.746
1182.024, 19.303
1183.247, 4.490
1184.470, 9.266
1185.692, 20.121
1186.915, 15.888
1188.137, 26.652
1189.359, 21.099
1190.580, 11.304
1191.802, 3.440
1193.023, 29.178
1194.244, 9.918
1195.465, 18.351
1196.686, 4.364
1197.907, 46.073
1199.127, 1.779
1200.347, 69.656
1201.567, 71.845
1202.787, 67.087
1204.007, 77.775
1205.226, 32.460
1206.446, 32.103
1207.665, 22.663
1208.884, 4.497
1210.102, 4.165
1211.321, 6.827
1212.539, 11.515
1213.758, 75.158
1214.976, 5.800
1216.193, 40.436
1217.411, 78.068
1218.628, 43.697
1219.846, 28.322
1221.063, 18.022
1222.280, 24.635
1223.496, 34.284
1224.713, 4.930
1225.929, 26.525
1227.145, 43.116
1228.361, 50.703
1229.577, 37.286
1230.793, 71.693
1232.008, 6.717
1233.223, 80.849
1234.438, 35.413
1235.653, 30.973
1236.868, 44.531
1238.082, 29.084
1239.297, 18.761
1240.511, 49.308
1241.725, 23.852
1242.938, 65.391
1244.152, 3.927
1245.365, 51.566
1246.578, 41.085
1247.791, 44.394
1249.004, 45.292
1250.217, 35.425
1251.429, 21.745
1252.642, 31.247
1253.854, 18.733
1255.066, 39.212
1256.277, 94.687
1257.489, 6.158
1258.700, 14.384
1259.911, 42.064
1261.122, 9.507
1262.333, 44.947
1263.544, 30.381
1264.754, 60.811
1265.964, 43.229
1267.174, 56.642
1268.384, 29.078
1269.594, 62.476
1270.803, 23.867
1272.013, 56.253
1273.222, 31.746
1274.431, 25.752
1275.640, 75.599
1276.848, 6.945
1278.057, 1.286
1279.265, 14.620
1280.473, 31.948
1281.681, 44.266
1282.888, 45.581
1284.096, 15.106
1285.303, 90.194
1286.510, 85.490
1287.717, 19.781
1288.924, 89.065
1290.131, 30.273
1291.337, 59.548
1292.543, 80.818
1293.749, 15.084
1294.955, 43.344
1296.161, 45.599
1297.366, 48.850
1298.571, 51.096
1299.777, 14.664
1300.981, 43.532
1302.186, 6.756
1303.391, 3.046
1304.595, 14.079
1305.799, 30.186
1307.003, 12.294
1308.207, 24.230
1309.411, 4.378
1310.614, 10.458
1311.818, 13.614
1313.021, 14.281
1314.224, 1.320
1315.426, 26.765
1316.629, 15.885
1317.831, 11.720
1319.033, 25.417
1320.235, 12.521
1321.437, 45.532
1322.639, 37.608
1323.840, 36.697
1325.042, 46.227
1326.243, 4.306
1327.444, 25.983
1328.644, 52.948
1329.845, 8.927
1331.045, 103.948
1332.245, 36.946
1333.445, 4.016
1334.645, 62.990
1335.845, 48.088
1337.044, 62.004
1338.244, 26.175
1339.443, 33.116
1340.642, 44.735
1341.840, 36.643
1343.039, 57.665
1344.237, 0.506
1345.435, 43.523
1346.633, 14.981
1347.831, 51.126
1349.029, 71.568
1350.226, 77.147
1351.424, 23.359
1352.621, 46.188
1353.818, 38.200
1355.014, 28.945
1356.211, 62.494
1357.407, 16.290
1358.604, 49.271
1359.800, 50.936
1360.995, 67.004
1362.191, 52.168
1363.387, 46.070
1364.582, 14.071
1365.777, 8.615
1366.972, 9.615
1368.167, 10.083
1369.361, 20.992
1370.556, 66.042
1371.750, 52.065
1372.944, 46.061
1374.138, 10.952
1375.331, 16.431
1376.525, 22.640
1377.718, 51.823
1378.911, 44.910
1380.104, 34.042
1381.297, 34.958
1382.490, 0.121
1383.682, 43.276
1384.874, 34.325
1386.066, 65.324
1387.258, 35.446
1388.450, 16.321
1389.641, 45.578
1390.833, 16.614
1392.024, 24.687
1393.215, 29.698
1394.406, 8.325
1395.596, 32.680
1396.787, 48.151
1397.977, 64.307
1399.167, 30.138
1400.357, 39.129
1401.547, 56.238
1402.736, 37.089
1403.925, 45.985
1405.115, 15.924
1406.304, 42.720
1407.492, 68.641
1408.681, 40.577
1409.870, 11.112
1411.058, 0.854
1412.246, 41.496
1413.434, 10.878
1414.622, 73.400
1415.809, 4.165
1416.997, 20.510
1418.184, 27.212
1419.371, 56.962
1420.558, 9.820
1421.744, 6.448
1422.931, 40.299
1424.117, 7.036
1425.303, 48.069
1426.489, 2.918
1427.675, 66.762
1428.861, 26.617
1430.046, 14.478
1431.231, 43.043
1432.416, 110.820
1433.601, 50.663
1434.786, 71.492
1435.970, 45.326
1437.155, 23.115
1438.339, 48.957
1439.523, 53.794
1440.707, 95.558
1441.890, 70.692
1443.074, 11.948
1444.257, 37.769
1445.440, 54.919
1446.623, 64.671
1447.806, 70.913
1448.989, 61.200
1450.171, 53.670
1451.353, 78.396
1452.535, 37.636
1453.717, 38.312
1454.899, 76.986
1456.080, 54.204
1457.262, 62.882
1458.443, 122.559
1459.624, 64.264
1460.805, 74.959
1461.985, 61.645
1463.166, 32.370
1464.346, 62.030
1465.526, 36.792
1466.706, 8.264
1467.886, 79.084
1469.065, 32.461
1470.245, 35.688
1471.424, 34.567
1472.603, 0.411
1473.782, 61.257
1474.960, 42.109
1476.139, 44.960
1477.317, 75.812
1478.495, 61.663
1479.673, 7.478
1480.851, 75.413
1482.029, 65.340
1483.206, 19.284
1484.383, 55.298
1485.560, 22.386
1486.737, 80.570
1487.914, 78.793
1489.091, 33.060
1490.267, 81.378
1491.443, 58.757
1492.619, 37.201
1493.795, 20.706
1494.971, 70.279
1496.146, 49.936
1497.322, 55.690
1498.497, 41.371
1499.672, 45.282
1500.846, 75.324
1502.021, 34.501
1503.196, 65.832
1504.370, 105.336
1505.544, 76.042
1506.718, 98.983
1507.892, 67.407
1509.065, 3.749
1510.238, 148.643
1511.412, 111.795
1512.585, 74.031
1513.758, 159.293
1514.930, 0.000
##END=



