##NAMES=Fluorite
##RRUFFID=R050115
##IDEAL CHEMISTRY=CaF_2_
##LOCALITY=Isthak Valley Iskardu, N.A. Gilgit, Pakistan
##OWNER=RRUFF
##SOURCE=Syed Shah
##DESCRIPTION=Colorless fragment
##STATUS=The identification of this mineral has been confirmed by X-ray diffraction and chemical analysis
##URL=rruff.info/R050115
##MEASURED CHEMISTRY=CaF_2_
##PIN_ID=L00441
##ORIENTATION=Laser parallel to -a* (-1 0 0). Fiducial mark perpendicular to laser is parallel to b [0 1 0]
96.233, 0.000
97.628, 4.897
99.023, 21.912
100.418, 1.940
101.812, 84.223
103.206, 116.527
104.600, 79.344
105.994, 107.062
107.387, 109.645
108.781, 145.270
110.174, 122.643
111.566, 182.271
112.959, 166.347
114.351, 202.191
115.744, 162.782
117.136, 165.306
118.527, 177.800
119.919, 191.543
121.310, 131.747
122.701, 191.347
124.092, 154.074
125.482, 186.936
126.873, 221.991
128.263, 240.349
129.653, 285.101
131.042, 316.323
132.432, 396.080
133.821, 548.231
135.210, 838.649
136.599, 1166.012
137.987, 1529.340
139.376, 1884.833
140.764, 2292.948
142.152, 2684.342
143.539, 3082.717
144.927, 3509.770
146.314, 3341.703
147.701, 3045.103
149.088, 2190.500
150.474, 1520.391
151.861, 1054.787
153.247, 746.114
154.633, 504.301
156.018, 373.532
157.404, 299.805
158.789, 292.116
160.174, 304.462
161.559, 341.838
162.943, 370.238
164.327, 340.095
165.711, 357.108
167.095, 253.578
168.479, 206.071
169.862, 120.590
171.246, 48.133
172.628, 11.703
174.011, 11.926
175.394, 16.922
176.776, 1.417
178.158, 13.702
179.540, 12.101
180.922, 1.969
182.303, 10.097
183.684, 12.896
185.065, 67.050
186.446, 0.948
187.826, 40.801
189.207, 61.619
190.587, 11.404
191.967, 58.158
193.346, 13.115
194.726, 8.587
196.105, 5.735
197.484, 32.079
198.862, 22.554
200.241, 1.168
201.619, 1.765
202.997, 51.644
204.375, 15.058
205.753, 8.526
207.130, 57.896
208.507, 45.324
209.884, 88.762
211.261, 94.212
212.638, 144.314
214.014, 246.154
215.390, 273.649
216.766, 363.160
218.141, 469.661
219.517, 751.150
220.892, 861.620
222.267, 1068.081
223.642, 1208.518
225.016, 1279.914
226.391, 1299.252
227.765, 1114.553
229.139, 1085.860
230.512, 940.173
231.886, 1059.492
233.259, 1086.831
234.632, 1051.186
236.005, 1197.567
237.377, 1315.978
238.749, 1586.412
240.122, 1725.873
241.493, 1938.358
242.865, 1802.870
244.237, 1541.404
245.608, 1277.962
246.979, 1087.542
248.350, 1026.141
249.720, 1024.757
251.090, 971.390
252.461, 983.039
253.830, 876.045
255.200, 899.969
256.570, 1048.180
257.939, 1334.993
259.308, 1738.215
260.677, 2142.659
262.045, 2197.700
263.414, 1865.556
264.782, 1592.134
266.150, 1238.245
267.517, 1049.199
268.885, 938.339
270.252, 879.396
271.619, 838.791
272.986, 787.709
274.353, 875.644
275.719, 888.429
277.085, 874.323
278.451, 904.116
279.817, 948.708
281.182, 946.953
282.548, 956.831
283.913, 980.396
285.278, 986.028
286.642, 971.019
288.007, 989.081
289.371, 924.485
290.735, 907.864
292.099, 879.264
293.462, 923.810
294.826, 829.141
296.189, 794.576
297.552, 820.089
298.914, 740.399
300.277, 726.082
301.639, 724.306
303.001, 747.662
304.363, 755.063
305.724, 619.104
307.086, 695.083
308.447, 643.980
309.808, 648.824
311.168, 665.680
312.529, 631.526
313.889, 602.396
315.249, 633.288
316.609, 658.221
317.969, 643.132
319.328, 660.259
320.687, 635.370
322.046, 627.532
323.405, 619.750
324.764, 642.998
326.122, 613.303
327.480, 624.660
328.838, 575.044
330.196, 596.448
331.553, 614.878
332.910, 658.335
334.267, 610.808
335.624, 639.108
336.981, 714.657
338.337, 643.900
339.693, 644.858
341.049, 657.932
342.405, 655.314
343.760, 684.280
345.116, 701.783
346.471, 728.596
347.826, 669.738
349.180, 737.102
350.535, 717.675
351.889, 775.805
353.243, 769.686
354.597, 722.774
355.950, 753.983
357.304, 740.241
358.657, 808.669
360.010, 697.908
361.362, 767.292
362.715, 745.187
364.067, 699.327
365.419, 658.579
366.771, 684.505
368.123, 628.896
369.474, 647.968
370.825, 578.063
372.176, 595.773
373.527, 507.972
374.877, 566.078
376.228, 487.150
377.578, 510.893
378.928, 490.827
380.277, 452.007
381.627, 495.858
382.976, 398.930
384.325, 399.029
385.674, 362.077
387.023, 327.114
388.371, 306.092
389.719, 278.084
391.067, 362.164
392.415, 305.254
393.762, 188.309
395.110, 253.003
396.457, 153.964
397.804, 166.676
399.150, 125.365
400.497, 143.383
401.843, 177.163
403.189, 73.996
404.535, 86.667
405.881, 78.653
407.226, 41.422
408.571, 7.000
409.916, 17.902
411.261, 55.239
412.605, 16.265
413.950, 70.511
415.294, 8.929
416.638, 25.335
417.981, 7.141
419.325, 10.733
420.668, 50.907
422.011, 55.456
423.354, 15.056
424.697, 16.453
426.039, 35.050
427.381, 9.523
428.723, 18.057
430.065, 7.350
431.406, 0.303
432.748, 23.060
434.089, 28.656
435.430, 22.412
436.770, 55.215
438.111, 25.860
439.451, 46.801
440.791, 96.731
442.131, 102.656
443.471, 134.144
444.810, 86.942
446.149, 65.546
447.488, 115.894
448.827, 62.171
450.166, 135.725
451.504, 184.818
452.842, 99.442
454.180, 63.167
455.518, 121.558
456.855, 89.261
458.193, 71.116
459.530, 130.634
460.867, 20.615
462.203, 123.093
463.540, 83.177
464.876, 63.866
466.212, 175.938
467.548, 165.967
468.883, 219.526
470.219, 186.168
471.554, 137.969
472.889, 192.913
474.224, 202.854
475.558, 234.405
476.892, 245.050
478.227, 269.767
479.561, 376.412
480.894, 292.244
482.228, 379.237
483.561, 410.279
484.894, 394.906
486.227, 503.180
487.559, 543.578
488.892, 599.583
490.224, 585.311
491.556, 659.102
492.888, 706.484
494.220, 635.521
495.551, 625.039
496.882, 624.559
498.213, 554.742
499.544, 533.916
500.874, 543.377
502.205, 512.576
503.535, 399.688
504.865, 468.022
506.194, 367.241
507.524, 345.417
508.853, 448.545
510.182, 316.645
511.511, 400.700
512.840, 344.719
514.168, 331.710
515.496, 307.658
516.824, 324.575
518.152, 318.444
519.480, 286.270
520.807, 293.740
522.134, 261.778
523.461, 262.466
524.788, 235.107
526.114, 185.699
527.441, 277.240
528.767, 222.731
530.093, 152.175
531.418, 231.565
532.744, 128.903
534.069, 150.187
535.394, 157.414
536.719, 234.588
538.044, 187.709
539.368, 127.775
540.693, 204.785
542.017, 150.740
543.340, 142.639
544.664, 153.480
545.987, 154.264
547.311, 166.991
548.634, 161.660
549.956, 139.271
551.279, 134.824
552.601, 141.685
553.923, 225.751
555.245, 160.128
556.567, 217.445
557.889, 220.705
559.210, 139.907
560.531, 194.048
561.852, 179.130
563.173, 215.151
564.493, 137.113
565.813, 186.013
567.133, 228.764
568.453, 148.535
569.773, 280.056
571.092, 238.671
572.412, 170.304
573.731, 219.193
575.049, 208.422
576.368, 232.865
577.686, 201.473
579.005, 253.636
580.323, 226.086
581.640, 233.478
582.958, 207.266
584.275, 208.088
585.593, 207.769
586.909, 210.048
588.226, 219.204
589.543, 221.818
590.859, 237.511
592.175, 235.015
593.491, 239.879
594.807, 236.469
596.122, 284.200
597.438, 225.846
598.753, 227.337
600.068, 226.350
601.382, 156.854
602.697, 237.878
604.011, 138.808
605.325, 166.623
606.639, 172.432
607.952, 50.992
609.266, 188.713
610.579, 122.271
611.892, 112.705
613.205, 143.892
614.518, 37.195
615.830, 97.292
617.142, 46.217
618.454, 18.243
619.766, 121.739
621.078, 71.567
622.389, 101.127
623.700, 68.508
625.011, 156.076
626.322, 105.560
627.632, 96.955
628.943, 82.260
630.253, 38.545
631.563, 54.462
632.872, 0.519
634.182, 97.686
635.491, 83.016
636.800, 209.500
638.109, 101.207
639.418, 104.079
640.726, 121.118
642.035, 19.333
643.343, 125.671
644.651, 112.188
645.958, 10.877
647.266, 9.315
648.573, 8.601
649.880, 18.635
651.187, 32.207
652.494, 56.948
653.800, 122.592
655.106, 71.148
656.412, 18.609
657.718, 212.966
659.024, 132.242
660.329, 242.431
661.634, 388.558
662.939, 529.628
664.244, 795.675
665.549, 945.696
666.853, 1077.738
668.157, 980.833
669.461, 810.942
670.765, 720.111
672.069, 640.300
673.372, 539.515
674.675, 480.799
675.978, 395.087
677.281, 431.366
678.583, 466.673
679.886, 545.851
681.188, 676.036
682.490, 831.100
683.792, 1042.959
685.093, 1224.175
686.394, 1362.114
687.696, 1663.740
688.997, 1554.635
690.297, 1807.029
691.598, 1728.467
692.898, 1614.857
694.198, 1443.495
695.498, 1138.860
696.798, 994.898
698.097, 944.183
699.397, 789.165
700.696, 756.037
701.995, 678.879
703.293, 713.649
704.592, 770.397
705.890, 736.046
707.188, 844.527
708.486, 785.914
709.784, 998.254
711.081, 816.871
712.378, 768.138
713.675, 815.570
714.972, 621.941
716.269, 682.899
717.565, 438.011
718.862, 479.985
720.158, 449.035
721.453, 338.686
722.749, 431.467
724.045, 278.354
725.340, 331.829
726.635, 370.782
727.930, 159.489
729.224, 258.822
730.519, 185.283
731.813, 219.614
733.107, 234.972
734.401, 186.120
735.694, 233.401
736.988, 102.499
738.281, 81.534
739.574, 132.351
740.867, 13.923
742.160, 67.360
743.452, 40.993
744.744, 86.776
746.036, 39.769
747.328, 90.882
748.620, 58.229
749.911, 6.757
751.202, 25.459
752.493, 44.862
753.784, 113.771
755.075, 195.586
756.365, 227.309
757.655, 183.371
758.945, 388.025
760.235, 266.779
761.525, 438.695
762.814, 294.588
764.103, 258.111
765.392, 344.001
766.681, 276.266
767.969, 295.338
769.258, 364.649
770.546, 297.557
771.834, 454.218
773.122, 422.122
774.409, 563.471
775.697, 691.229
776.984, 702.288
778.271, 941.650
779.558, 927.536
780.844, 910.372
782.131, 1033.589
783.417, 900.630
784.703, 1041.422
785.989, 1025.981
787.274, 1029.452
788.560, 1170.223
789.845, 1224.809
791.130, 1302.233
792.415, 1411.640
793.699, 1471.769
794.983, 1749.645
796.268, 1630.383
797.552, 1902.445
798.835, 1989.769
800.119, 2011.879
801.402, 2403.293
802.686, 2211.892
803.969, 2362.339
805.251, 2451.104
806.534, 2278.124
807.816, 2386.571
809.098, 2237.929
810.380, 2300.536
811.662, 2258.074
812.944, 2057.235
814.225, 2282.577
815.506, 2253.857
816.787, 2209.549
818.068, 2243.232
819.349, 2166.857
820.629, 2340.395
821.909, 2388.916
823.189, 2583.623
824.469, 2764.654
825.749, 2761.760
827.028, 3240.652
828.307, 3249.538
829.586, 3622.895
830.865, 4391.748
832.144, 5224.910
833.422, 6489.337
834.700, 7123.949
835.978, 6256.023
837.256, 5429.917
838.534, 4596.931
839.811, 4338.797
841.088, 3997.819
842.365, 4016.090
843.642, 4129.835
844.919, 4294.887
846.195, 4890.900
847.472, 5376.863
848.748, 6192.776
850.023, 6569.310
851.299, 7224.457
852.575, 7270.223
853.850, 7165.942
855.125, 7051.615
856.400, 7727.245
857.674, 7952.827
858.949, 8468.362
860.223, 9203.854
861.497, 9909.304
862.771, 10704.710
864.045, 11550.074
865.318, 12365.392
866.591, 13850.670
867.864, 14325.903
869.137, 15551.097
870.410, 16206.251
871.682, 17081.363
872.955, 17646.439
874.227, 17591.469
875.499, 17466.469
876.770, 17151.432
878.042, 16726.121
879.313, 16311.004
880.584, 15315.855
881.855, 14749.118
883.126, 14233.544
884.396, 13007.124
885.667, 12561.107
886.937, 11865.260
888.207, 11018.770
889.476, 10652.849
890.746, 9664.760
892.015, 9146.096
893.284, 8638.576
894.553, 8075.430
895.822, 7678.877
897.090, 7043.930
898.359, 6826.062
899.627, 6441.105
900.895, 5882.901
902.163, 6036.715
903.430, 5643.728
904.698, 5949.543
905.965, 7159.273
907.232, 8581.153
908.499, 12954.602
909.765, 19788.473
911.032, 25441.729
912.298, 23465.955
913.564, 16060.103
914.830, 10874.310
916.095, 7998.507
917.361, 7412.618
918.626, 8866.806
919.891, 12250.990
921.156, 15625.173
922.420, 15239.350
923.685, 13753.528
924.949, 17327.707
926.213, 22581.891
927.477, 24666.082
928.740, 20290.270
930.004, 16364.462
931.267, 14728.661
932.530, 13022.864
933.793, 11287.070
935.056, 13701.280
936.318, 17975.492
937.581, 18589.719
938.843, 14283.974
940.104, 10008.260
941.366, 8572.565
942.628, 9676.915
943.889, 12981.307
945.150, 21405.775
946.411, 33870.285
947.672, 41504.871
948.932, 33479.488
950.193, 21104.145
951.453, 12848.863
952.713, 7633.631
953.973, 4918.432
955.232, 3443.256
956.491, 2558.112
957.751, 2673.004
959.010, 2197.918
960.268, 2162.854
961.527, 1407.809
962.785, 792.786
964.044, 497.791
965.302, 212.814
966.559, 57.857
967.817, 62.887
969.075, 93.101
970.332, 76.172
971.589, 277.316
972.846, 416.628
974.102, 251.172
975.359, 448.866
976.615, 282.807
977.871, 316.907
979.127, 491.184
980.383, 223.719
981.638, 498.380
982.893, 227.300
984.149, 254.343
985.404, 261.521
986.658, 218.834
987.913, 256.262
989.167, 133.817
990.421, 41.443
991.675, 179.097
992.929, 23.164
994.183, 65.430
995.436, 62.282
996.689, 209.979
997.942, 122.274
999.195, 374.606
1000.448, 536.974
1001.700, 579.377
1002.952, 771.819
1004.204, 624.300
1005.456, 596.819
1006.708, 849.380
1007.959, 731.982
1009.210, 1054.628
1010.461, 1037.314
1011.712, 970.047
1012.963, 1182.825
1014.213, 1135.649
1015.464, 1258.529
1016.714, 1441.457
1017.964, 1304.434
1019.214, 1487.460
1020.463, 1510.536
1021.712, 1503.664
1022.962, 1976.845
1024.210, 1550.079
1025.459, 1773.366
1026.708, 2076.709
1027.956, 1730.107
1029.204, 2113.564
1030.452, 2047.080
1031.700, 1930.654
1032.948, 2134.295
1034.195, 2007.997
1035.442, 2201.767
1036.689, 2095.603
1037.936, 2139.505
1039.183, 2523.477
1040.429, 2177.516
1041.676, 2471.634
1042.922, 2625.833
1044.168, 2430.109
1045.413, 2944.488
1046.659, 2748.988
1047.904, 2793.599
1049.149, 3058.336
1050.394, 2913.187
1051.639, 2958.166
1052.884, 2923.267
1054.128, 2898.476
1055.372, 3253.799
1056.616, 2839.219
1057.860, 2964.729
1059.104, 3110.321
1060.347, 2725.995
1061.590, 3031.754
1062.833, 2807.592
1064.076, 2763.512
1065.319, 2829.515
1066.561, 2455.600
1067.803, 2751.769
1069.046, 2688.023
1070.287, 2384.361
1071.529, 2580.789
1072.771, 2387.303
1074.012, 2373.902
1075.253, 2470.591
1076.494, 2117.368
1077.735, 2324.236
1078.975, 2111.195
1080.216, 2158.245
1081.456, 2375.389
1082.696, 2232.624
1083.936, 2249.953
1085.175, 2407.377
1086.415, 2154.896
1087.654, 2372.510
1088.893, 2140.223
1090.132, 1898.032
1091.371, 2375.938
1092.609, 1983.943
1093.847, 2092.047
1095.085, 2210.248
1096.323, 2078.551
1097.561, 2066.954
1098.799, 2135.456
1100.036, 2294.061
1101.273, 2262.768
1102.510, 2161.574
1103.747, 2240.486
1104.983, 2519.500
1106.220, 2088.620
1107.456, 2517.842
1108.692, 2357.170
1109.928, 2266.604
1111.163, 2426.146
1112.399, 2185.793
1113.634, 2465.547
1114.869, 2165.412
1116.104, 2162.451
1117.339, 2519.881
1118.573, 2059.460
1119.808, 2250.168
1121.042, 2300.048
1122.276, 1932.018
1123.509, 2333.908
1124.743, 1844.601
1125.976, 2005.315
1127.210, 2194.380
1128.443, 1903.590
1129.675, 1988.429
1130.908, 2047.907
1132.141, 1853.163
1133.373, 2077.236
1134.605, 1931.213
1135.837, 2057.810
1137.068, 2182.678
1138.300, 1944.517
1139.531, 2271.591
1140.762, 2051.602
1141.993, 2002.458
1143.224, 2175.022
1144.455, 2202.197
1145.685, 2205.599
1146.915, 1969.148
1148.145, 1912.847
1149.375, 2086.694
1150.605, 2280.691
1151.834, 2024.840
1153.063, 2109.139
1154.292, 2013.590
1155.521, 1988.192
1156.750, 2162.949
1157.978, 1637.859
1159.207, 2162.923
1160.435, 1838.260
1161.663, 1763.634
1162.891, 1921.057
1164.118, 1676.742
1165.345, 1702.584
1166.573, 1668.584
1167.800, 1704.742
1169.026, 1831.060
1170.253, 1477.535
1171.480, 1414.170
1172.706, 1700.966
1173.932, 1297.922
1175.158, 1315.040
1176.383, 1422.320
1177.609, 1089.762
1178.834, 1387.368
1180.059, 1115.135
1181.284, 863.065
1182.509, 1311.156
1183.734, 789.410
1184.958, 927.824
1186.182, 966.401
1187.406, 635.141
1188.630, 1034.045
1189.854, 543.109
1191.077, 642.340
1192.301, 721.734
1193.524, 451.293
1194.747, 511.019
1195.969, 780.911
1197.192, 290.969
1198.414, 661.223
1199.636, 311.640
1200.858, 442.224
1202.080, 622.987
1203.302, 363.915
1204.523, 625.010
1205.744, 626.271
1206.966, 337.699
1208.186, 669.293
1209.407, 471.057
1210.628, 452.987
1211.848, 625.084
1213.068, 437.353
1214.288, 489.789
1215.508, 852.412
1216.727, 215.204
1217.947, 548.167
1219.166, 631.297
1220.385, 334.598
1221.604, 688.066
1222.822, 521.707
1224.041, 505.518
1225.259, 789.496
1226.477, 373.645
1227.695, 557.963
1228.913, 512.452
1230.130, 417.110
1231.348, 841.939
1232.565, 306.943
1233.782, 412.109
1234.999, 697.430
1236.215, 382.903
1237.432, 558.531
1238.648, 654.315
1239.864, 480.256
1241.080, 756.353
1242.296, 432.606
1243.511, 639.019
1244.726, 865.590
1245.942, 522.320
1247.156, 939.213
1248.371, 856.266
1249.586, 733.479
1250.800, 1100.856
1252.014, 788.396
1253.228, 706.101
1254.442, 1153.966
1255.656, 851.994
1256.869, 830.187
1258.083, 958.540
1259.296, 787.059
1260.509, 1205.740
1261.722, 684.587
1262.934, 963.615
1264.147, 1102.824
1265.359, 662.247
1266.571, 813.872
1267.783, 1023.765
1268.994, 711.493
1270.206, 1113.059
1271.417, 758.002
1272.628, 702.462
1273.839, 957.452
1275.050, 832.996
1276.260, 717.663
1277.471, 840.108
1278.681, 752.457
1279.891, 755.056
1281.101, 587.903
1282.310, 460.989
1283.520, 824.324
1284.729, 477.879
1285.938, 381.632
1287.147, 525.612
1288.356, 239.776
1289.564, 674.117
1290.773, 548.657
1291.981, 183.367
1293.189, 598.248
1294.397, 383.299
1295.604, 318.522
1296.812, 473.914
1298.019, 19.478
1299.226, 155.213
1300.433, 311.117
1301.640, 157.193
1302.846, 313.442
1304.053, 99.861
1305.259, 13.548
1306.465, 293.215
1307.671, 159.853
1308.876, 177.245
1310.082, 234.518
1311.287, 31.965
1312.492, 339.587
1313.697, 247.385
1314.902, 115.359
1316.106, 523.511
1317.310, 301.841
1318.515, 260.349
1319.719, 629.038
1320.922, 247.905
1322.126, 676.955
1323.329, 596.160
1324.533, 265.327
1325.736, 924.459
1326.939, 563.543
1328.141, 542.627
1329.344, 811.877
1330.546, 571.291
1331.748, 850.871
1332.950, 930.613
1334.152, 690.520
1335.354, 1080.589
1336.555, 1090.820
1337.757, 931.215
1338.958, 1182.380
1340.159, 1193.206
1341.359, 1304.081
1342.560, 1762.160
1343.760, 1513.353
1344.960, 1894.701
1346.160, 2129.027
1347.360, 1910.683
1348.560, 2632.487
1349.759, 2764.437
1350.959, 2986.531
1352.158, 4138.780
1353.357, 4341.207
1354.555, 4833.811
1355.754, 6476.596
1356.952, 7279.562
1358.151, 10172.711
1359.349, 12800.026
1360.546, 15253.264
1361.744, 15469.701
1362.941, 16490.111
1364.139, 13893.720
1365.336, 11687.487
1366.533, 8391.410
1367.730, 6355.477
1368.926, 5089.398
1370.123, 3493.438
1371.319, 3317.593
1372.515, 2642.320
1373.711, 2226.664
1374.906, 2591.136
1376.102, 2477.159
1377.297, 2670.051
1378.492, 3231.254
1379.687, 2912.713
1380.882, 3364.427
1382.077, 3326.397
1383.271, 2508.627
1384.465, 2871.115
1385.659, 2343.862
1386.853, 2346.870
1388.047, 2590.138
1389.240, 2633.667
1390.434, 3147.457
1391.627, 4291.509
1392.820, 5115.825
1394.013, 7240.394
1395.205, 9465.170
1396.398, 10440.029
1397.590, 10744.901
1398.782, 9059.836
1399.974, 6734.928
1401.166, 5160.244
1402.357, 3285.781
1403.549, 2391.534
1404.740, 1807.501
1405.931, 733.682
1407.122, 730.072
1408.313, 276.672
1409.503, 86.521
1410.693, 80.494
1411.883, 242.287
1413.073, 325.021
1414.263, 149.954
1415.453, 372.159
1416.642, 374.165
1417.831, 135.976
1419.020, 347.592
1420.209, 9.017
1421.398, 189.749
1422.587, 78.704
1423.775, 1017.854
1424.963, 1287.208
1426.151, 1806.765
1427.339, 2676.522
1428.526, 2416.480
1429.714, 2466.635
1430.901, 2086.976
1432.088, 1087.416
1433.275, 1028.024
1434.462, 588.805
1435.648, 159.771
1436.835, 350.926
1438.021, 72.262
1439.207, 283.779
1440.393, 835.414
1441.579, 637.229
1442.764, 1149.227
1443.949, 1731.403
1445.135, 1403.766
1446.320, 1786.313
1447.504, 1849.047
1448.689, 1571.963
1449.873, 2115.190
1451.058, 1478.741
1452.242, 1162.616
1453.426, 1216.813
1454.609, 521.327
1455.793, 526.155
1456.976, 611.293
1458.159, 276.742
1459.342, 692.513
1460.525, 858.616
1461.708, 865.051
1462.890, 1721.821
1464.073, 1838.928
1465.255, 1811.147
1466.437, 2258.678
1467.619, 1656.987
1468.800, 1293.211
1469.982, 1190.299
1471.163, 714.656
1472.344, 509.136
1473.525, 753.726
1474.706, 208.409
1475.886, 383.174
1477.066, 408.008
1478.247, 62.896
1479.427, 377.816
1480.607, 32.755
1481.786, 57.688
1482.966, 372.590
1484.145, 92.570
1485.324, 202.163
1486.503, 226.729
1487.682, 8.942
1488.860, 255.063
1490.039, 298.654
1491.217, 191.716
1492.395, 344.248
1493.573, 129.798
1494.751, 209.765
1495.928, 450.974
1497.106, 132.538
1498.283, 204.496
1499.460, 316.904
1500.637, 4.311
1501.814, 339.454
1502.990, 329.101
1504.166, 112.082
1505.342, 520.228
1506.518, 158.635
1507.694, 166.100
1508.870, 611.691
1510.045, 170.955
