##NAMES=Fluorapatite
##RRUFFID=R050340
##IDEAL CHEMISTRY=Ca_5_(PO_4_)_3_F
##LOCALITY=Buckingham, Quebec, Canada
##OWNER=RRUFF
##SOURCE=California Institute of Technology
##DESCRIPTION=Blue fragment
##STATUS=The identification of this mineral has been confirmed by X-ray diffraction and chemical analysis
##URL=rruff.info/R050340
##MEASURED CHEMISTRY=Ca_5.00_((P_0.98_Si_0.02_)O_4_)_3_F_1.00_
##PIN_ID=L00787
##ORIENTATION=Laser parallel to c* (0 0 1). Fiducial mark perpendicular to laser is parallel to a [1 0 0]
108.2800, 0.0000000E+00
109.5120, 0.1632080
110.7440, 18.87708
111.9760, 23.83362
113.2080, 21.42737
114.4400, 36.05994
115.6710, 64.61475
116.9030, 61.55835
118.1340, 67.80017
119.3650, 75.44153
120.5960, 46.91040
121.8270, 35.67383
123.0580, 18.69653
124.2880, 8.050781
125.5190, 11.59094
126.7490, 34.05908
127.9790, 26.88501
129.2090, 106.8716
130.4390, 199.0043
131.6680, 170.2689
132.8980, 244.6533
134.1270, 382.1460
135.3560, 401.7367
136.5850, 618.4163
137.8140, 727.1771
139.0430, 1004.017
140.2710, 1169.937
141.5000, 1366.932
142.7280, 1399.005
143.9560, 1313.156
145.1840, 1024.382
146.4120, 796.6777
147.6390, 611.0354
148.8670, 527.4474
150.0940, 425.9066
151.3210, 320.4080
152.5490, 368.9465
153.7750, 328.5188
155.0020, 363.1215
156.2290, 421.7517
157.4550, 491.4067
158.6810, 570.0842
159.9080, 603.7825
161.1340, 735.4990
162.3590, 718.2327
163.5850, 752.9819
164.8110, 624.7449
166.0360, 570.5239
167.2610, 556.3176
168.4860, 524.1741
169.7110, 497.1321
170.9360, 589.1101
172.1610, 552.0955
173.3850, 479.1311
174.6100, 436.2375
175.8340, 372.4187
177.0580, 354.6401
178.2820, 311.8942
179.5050, 243.1886
180.7290, 230.5594
181.9520, 179.9413
183.1760, 151.1984
184.3990, 88.66614
185.6220, 102.0082
186.8450, 112.3375
188.0670, 97.65161
189.2900, 65.95178
190.5120, 72.63184
191.7340, 53.48340
192.9560, 49.73083
194.1780, 70.96863
195.4000, 35.19751
196.6220, 28.41809
197.8430, 72.63049
199.0640, 15.83569
200.2860, 92.03381
201.5070, 36.22510
202.7270, 98.41003
203.9480, 89.58813
205.1690, 137.7601
206.3890, 116.9259
207.6090, 95.08545
208.8290, 140.2391
210.0490, 136.3870
211.2690, 163.5289
212.4890, 188.6649
213.7080, 220.7947
214.9280, 206.9187
216.1470, 205.0367
217.3660, 148.1484
218.5850, 179.2540
219.8030, 143.3531
221.0220, 130.4459
222.2400, 134.6125
223.4590, 145.8627
224.6770, 131.9934
225.8950, 134.1284
227.1120, 201.3167
228.3300, 231.9875
229.5480, 236.0283
230.7650, 274.7495
231.9820, 319.2551
233.1990, 337.3572
234.4160, 387.0034
235.6330, 472.9141
236.8490, 460.2400
238.0660, 458.3306
239.2820, 460.6367
240.4980, 368.3765
241.7140, 359.3711
242.9300, 313.9978
244.1460, 245.4905
245.3610, 220.9119
246.5770, 228.7612
247.7920, 163.0808
249.0070, 184.4707
250.2220, 148.0105
251.4370, 179.8708
252.6510, 181.4324
253.8660, 209.0730
255.0800, 157.9255
256.2940, 216.1370
257.5080, 285.1511
258.7220, 293.5825
259.9360, 407.1255
261.1490, 419.0674
262.3630, 545.2036
263.5760, 702.2004
264.7890, 790.0366
266.0020, 865.9133
267.2150, 977.8462
268.4270, 1165.726
269.6400, 1186.618
270.8520, 1213.032
272.0640, 1076.306
273.2760, 1014.223
274.4880, 867.1465
275.7000, 731.0752
276.9120, 734.0088
278.1230, 569.9468
279.3340, 453.8884
280.5450, 477.8333
281.7560, 413.7803
282.9670, 366.7297
284.1780, 346.6807
285.3880, 312.6328
286.5980, 290.5857
287.8090, 315.5388
289.0190, 268.4922
290.2290, 330.4446
291.4380, 215.3965
292.6480, 276.3472
293.8570, 236.2961
295.0670, 315.2432
296.2760, 286.1880
297.4850, 312.1304
298.6930, 329.0703
299.9020, 330.0068
301.1110, 322.9409
302.3190, 369.8718
303.5270, 399.7991
304.7350, 441.7231
305.9430, 462.6436
307.1510, 535.5596
308.3580, 519.4724
309.5660, 638.3809
310.7730, 691.2849
311.9800, 694.1851
313.1870, 661.0803
314.3940, 672.9709
315.6010, 576.8564
316.8070, 497.7366
318.0130, 485.6108
319.2200, 425.4797
320.4260, 432.3423
321.6310, 372.1987
322.8370, 275.0479
324.0430, 307.8901
325.2480, 253.7253
326.4540, 197.5530
327.6590, 230.3728
328.8640, 128.1851
330.0680, 93.98975
331.2730, 96.78711
332.4780, 80.57666
333.6820, 97.35889
334.8860, 44.13403
336.0900, 35.90088
337.2940, 51.66016
338.4980, 60.41187
339.7010, 50.15649
340.9050, 47.89331
342.1080, 67.62256
343.3110, 61.34424
344.5140, 22.94141
345.7170, 5.757813
346.9200, 3.448730
348.1220, 44.86938
349.3240, 12.79175
350.5270, 71.54224
351.7290, 4.712891
352.9310, 8.118408
354.1320, 16.97534
355.3340, 55.61084
356.5350, 49.43066
357.7370, 52.63647
358.9380, 46.62842
360.1390, 27.59180
361.3400, 11.20898
362.5400, 22.91797
363.7410, 8.844482
364.9410, 45.43628
366.1410, 59.34888
367.3410, 4.983154
368.5410, 15.54883
369.7410, 33.39380
370.9400, 31.01147
372.1400, 11.76709
373.3390, 4.338379
374.5380, 32.79419
375.7370, 7.165039
376.9360, 19.65967
378.1350, 2.419189
379.3330, 13.67334
380.5310, 11.53003
381.7300, 4.893066
382.9280, 38.55640
384.1260, 22.18433
385.3230, 26.34912
386.5210, 22.11816
387.7180, 5.824463
388.9160, 9.250000
390.1130, 29.30884
391.3100, 8.774658
392.5060, 21.31934
393.7030, 25.92676
394.9000, 12.36304
396.0960, 2.018066
397.2920, 36.85352
398.4880, 96.97314
399.6840, 19.10254
400.8800, 64.63037
402.0750, 51.88135
403.2710, 92.32349
404.4660, 82.57544
405.6610, 37.88672
406.8560, 53.89282
408.0510, 151.1165
409.2450, 91.39624
410.4400, 81.78979
411.6340, 190.8953
412.8280, 148.0435
414.0220, 184.9893
415.2160, 140.0286
416.4100, 247.9609
417.6030, 278.8850
418.7970, 275.7993
419.9900, 384.7043
421.1830, 398.6003
422.3760, 456.5601
423.5690, 586.4580
424.7610, 689.3462
425.9540, 789.2251
427.1460, 906.0945
428.3380, 979.9531
429.5300, 998.8027
430.7220, 1107.643
431.9140, 1223.474
433.1050, 1203.296
434.2970, 1216.107
435.4880, 1304.908
436.6790, 1351.699
437.8700, 1387.479
439.0610, 1487.256
440.2510, 1510.023
441.4420, 1750.780
442.6320, 1783.526
443.8220, 1978.262
445.0120, 2133.988
446.2020, 2249.704
447.3910, 2308.799
448.5810, 2336.102
449.7700, 2283.789
450.9600, 2188.465
452.1490, 2031.129
453.3370, 1803.783
454.5260, 1646.427
455.7150, 1448.060
456.9030, 1269.683
458.0910, 1182.294
459.2800, 1000.895
460.4670, 904.4854
461.6550, 737.0645
462.8430, 642.6328
464.0300, 587.1887
465.2180, 583.7327
466.4050, 448.2659
467.5920, 420.8035
468.7790, 365.3296
469.9650, 266.8445
471.1520, 246.3564
472.3380, 299.8567
473.5250, 297.3452
474.7110, 186.8228
475.8970, 261.3132
477.0820, 174.7932
478.2680, 189.1997
479.4540, 197.5576
480.6390, 225.9670
481.8240, 154.3984
483.0090, 155.7734
484.1940, 151.1250
485.3780, 141.5227
486.5630, 130.9048
487.7470, 142.5544
488.9320, 121.6726
490.1160, 128.7566
491.3000, 112.5247
492.4830, 88.68652
493.6670, 88.41431
494.8500, 65.09180
496.0340, 57.26636
497.2170, 108.3374
498.4000, 92.55640
499.5820, 138.7341
500.7650, 83.00635
501.9480, 26.14282
503.1300, 104.1824
504.3120, 41.15063
505.4940, 62.49976
506.6760, 101.4065
507.8580, 25.46558
509.0390, 79.56592
510.2210, 1.033691
511.4020, 16.66748
512.5830, 4.399170
513.7640, 35.26562
514.9450, 15.08813
516.1250, 81.38477
517.3060, 53.87671
518.4860, 12.95752
519.6660, 19.72290
520.8460, 62.32861
522.0260, 61.02905
523.2060, 50.69556
524.3850, 77.82080
525.5650, 30.62427
526.7440, 64.39233
527.9230, 57.31934
529.1020, 7.967529
530.2810, 58.49829
531.4590, 52.03076
532.6380, 22.86108
533.8160, 43.40234
534.9940, 9.424072
536.1720, 64.82275
537.3500, 34.42554
538.5270, 36.26685
539.7050, 89.43311
540.8820, 85.13721
542.0590, 2.655273
543.2360, 51.33594
544.4130, 9.789307
545.5900, 46.65552
546.7660, 30.43237
547.9430, 101.0488
549.1190, 46.69775
550.2950, 31.57788
551.4710, 9.232910
552.6470, 68.81250
553.8220, 56.61646
554.9980, 106.6104
556.1730, 81.43262
557.3480, 119.9282
558.5230, 110.8315
559.6980, 165.5029
560.8730, 137.0698
562.0470, 152.8464
563.2220, 95.19434
564.3960, 185.9019
565.5700, 275.6343
566.7440, 177.1865
567.9170, 235.9670
569.0910, 220.3479
570.2640, 364.0762
571.4380, 434.9058
572.6110, 600.5173
573.7840, 665.1792
574.9570, 863.8137
576.1290, 1117.151
577.3020, 1458.686
578.4740, 1824.124
579.6460, 2344.374
580.8180, 2921.787
581.9900, 3486.365
583.1620, 3600.739
584.3330, 3011.053
585.5040, 2506.679
586.6760, 1786.247
587.8470, 1509.504
589.0180, 1256.958
590.1880, 1170.987
591.3590, 1213.267
592.5290, 1249.618
593.7000, 1059.904
594.8700, 1016.359
596.0400, 786.7837
597.2090, 756.1885
598.3790, 719.2632
599.5490, 689.7468
600.7180, 757.1958
601.8870, 826.3062
603.0560, 1004.594
604.2250, 1216.601
605.3940, 1538.535
606.5620, 1916.861
607.7300, 2233.663
608.8990, 2247.791
610.0670, 2074.929
611.2350, 1775.954
612.4020, 1330.040
613.5700, 1120.001
614.7370, 1019.251
615.9050, 1032.052
617.0720, 1041.287
618.2390, 992.4988
619.4060, 945.5991
620.5720, 744.4580
621.7390, 525.1694
622.9050, 476.3110
624.0710, 281.2307
625.2370, 259.0537
626.4030, 191.5896
627.5690, 163.8323
628.7340, 214.0417
629.9000, 134.9321
631.0650, 175.8110
632.2300, 166.7925
633.3950, 154.4487
634.5600, 206.0801
635.7240, 93.62720
636.8890, 135.0247
638.0530, 136.9343
639.2170, 217.4734
640.3810, 102.1152
641.5450, 175.8240
642.7080, 240.1667
643.8720, 121.6863
645.0350, 127.9216
646.1980, 141.0681
647.3610, 200.8428
648.5240, 196.3269
649.6870, 232.6997
650.8490, 226.2981
652.0120, 202.5488
653.1740, 223.8901
654.3360, 117.2495
655.4980, 169.3877
656.6600, 254.9158
657.8210, 265.1108
658.9830, 144.1355
660.1440, 125.1018
661.3050, 179.5391
662.4660, 131.9238
663.6270, 137.0920
664.7870, 116.4443
665.9480, 104.3374
667.1080, 76.35376
668.2680, 172.5879
669.4280, 121.7993
670.5880, 147.0872
671.7480, 38.35986
672.9070, 130.4707
674.0670, 86.56177
675.2260, 103.7996
676.3850, 100.5010
677.5440, 58.43262
678.7030, 53.99805
679.8610, 107.3154
681.0200, 66.59717
682.1780, 76.68994
683.3360, 115.0327
684.4940, 52.87842
685.6520, 60.96045
686.8090, 50.88965
687.9670, 55.97803
689.1240, 39.91260
690.2810, 84.96484
691.4380, 90.07910
692.5950, 56.15771
693.7520, 12.16455
694.9080, 39.82812
696.0650, 114.6104
697.2210, 18.44873
698.3770, 66.22900
699.5330, 88.15039
700.6880, 35.17139
701.8440, 50.27832
702.9990, 7.448730
704.1550, 41.45654
705.3100, 81.18506
706.4650, 24.07178
707.6190, 115.8525
708.7740, 29.60059
709.9290, 13.19678
711.0830, 50.67334
712.2370, 35.27979
713.3910, 41.39258
714.5450, 109.1270
715.6980, 58.79492
716.8520, 78.37500
718.0050, 18.19971
719.1580, 77.09961
720.3110, 34.37988
721.4640, 79.63867
722.6170, 89.87793
723.7700, 18.20996
724.9220, 23.40771
726.0740, 92.72168
727.2260, 41.87744
728.3780, 0.9873050
729.5300, 76.12109
730.6810, 55.20947
731.8330, 67.27734
732.9840, 23.32520
734.1350, 26.35107
735.2860, 27.35498
736.4370, 102.3623
737.5880, 12.32617
738.7380, 14.26758
739.8880, 82.18750
741.0390, 36.08740
742.1890, 99.04688
743.3380, 113.1714
744.4880, 19.01318
745.6380, 49.16650
746.7870, 54.60107
747.9360, 48.37158
749.0850, 21.73096
750.2340, 53.22754
751.3830, 79.27197
752.5310, 14.14990
753.6800, 83.00049
754.8280, 11.61230
755.9760, 12.48633
757.1240, 26.00049
758.2720, 83.58740
759.4190, 142.1631
760.5670, 14.78857
761.7140, 60.37305
762.8610, 86.73828
764.0080, 2.193359
765.1550, 9.438477
766.3020, 10.09717
767.4480, 55.48193
768.5950, 61.94629
769.7410, 36.21729
770.8870, 86.46582
772.0330, 88.24609
773.1780, 81.45654
774.3240, 104.6499
775.4690, 28.69043
776.6140, 96.84277
777.7590, 94.11182
778.9040, 43.12988
780.0490, 66.22217
781.1940, 100.2954
782.3380, 104.3115
783.4820, 9.749512
784.6260, 35.25342
785.7700, 54.23389
786.9140, 67.19629
788.0580, 95.13818
789.2010, 50.06445
790.3450, 104.9727
791.4880, 47.86572
792.6310, 65.70557
793.7730, 45.56152
794.9160, 97.39648
796.0590, 84.21338
797.2010, 107.0127
798.3430, 35.79395
799.4850, 42.55615
800.6270, 79.29785
801.7690, 59.02100
802.9100, 124.6875
804.0520, 123.2861
805.1930, 55.75049
806.3340, 14.40137
807.4750, 35.01611
808.6160, 27.62695
809.7560, 35.85254
810.8970, 51.70264
812.0370, 55.83789
813.1770, 65.31152
814.3170, 78.78809
815.4570, 49.07031
816.5960, 32.33496
817.7360, 31.80322
818.8750, 7.080566
820.0140, 13.37842
821.1530, 39.62061
822.2920, 21.97510
823.4310, 36.63721
824.5690, 64.26123
825.7070, 41.37646
826.8460, 11.40674
827.9840, 5.604980
829.1220, 17.15869
830.2590, 1.162109
831.3970, 55.58838
832.5340, 76.50928
833.6710, 82.14697
834.8080, 90.50537
835.9450, 51.48633
837.0820, 22.54102
838.2190, 0.3549800
839.3550, 23.43701
840.4910, 20.38281
841.6270, 57.14648
842.7630, 14.06348
843.8990, 33.72168
845.0350, 36.76172
846.1700, 67.43408
847.3060, 89.97510
848.4410, 53.70508
849.5760, 15.63086
850.7100, 12.02441
851.8450, 22.94531
852.9800, 38.63867
854.1140, 70.39746
855.2480, 127.3154
856.3820, 123.0400
857.5160, 144.5718
858.6500, 119.2798
859.7830, 61.01660
860.9170, 144.4111
862.0500, 53.83691
863.1830, 183.5430
864.3160, 177.0225
865.4480, 209.8994
866.5810, 235.4956
867.7130, 209.1553
868.8460, 128.5254
869.9780, 156.8594
871.1100, 115.1963
872.2410, 76.52441
873.3730, 157.1538
874.5050, 128.3457
875.6360, 185.5439
876.7670, 110.0557
877.8980, 60.36230
879.0290, 15.92578
880.1590, 126.5337
881.2900, 88.71973
882.4200, 107.4048
883.5500, 68.73486
884.6800, 33.02734
885.8100, 7.404297
886.9400, 0.3085940
888.0690, 16.07227
889.1990, 17.13623
890.3280, 51.62061
891.4570, 1.356445
892.5860, 112.6621
893.7140, 32.23633
894.8430, 38.07080
895.9710, 21.49805
897.1000, 33.53418
898.2280, 62.37988
899.3560, 45.82666
900.4830, 112.2930
901.6110, 10.02490
902.7380, 39.77002
903.8660, 67.19189
904.9930, 57.81348
906.1200, 84.70312
907.2460, 8.205078
908.3730, 74.88037
909.5000, 88.92920
910.6260, 93.06836
911.7520, 70.88232
912.8780, 52.02637
914.0040, 108.0083
915.1290, 100.8223
916.2550, 117.7261
917.3800, 34.21387
918.5050, 49.16895
919.6300, 79.02979
920.7550, 103.7383
921.8800, 94.51904
923.0040, 108.3481
924.1290, 148.2881
925.2530, 62.03369
926.3770, 86.00439
927.5010, 44.72998
928.6250, 137.5249
929.7480, 99.23047
930.8720, 200.1479
931.9950, 79.00439
933.1180, 135.9512
934.2410, 174.5957
935.3640, 283.2627
936.4860, 268.0845
937.6090, 331.8164
938.7310, 377.8398
939.8530, 381.7490
940.9750, 456.4551
942.0970, 473.8970
943.2180, 501.5078
944.3400, 613.0830
945.4610, 805.6909
946.5820, 990.3613
947.7030, 1199.045
948.8240, 1505.765
949.9450, 1667.537
951.0650, 1801.183
952.1860, 2208.756
953.3060, 2629.321
954.4260, 3441.543
955.5460, 4285.964
956.6650, 5873.555
957.7850, 8017.068
958.9040, 11007.65
960.0230, 14934.35
961.1420, 20374.95
962.2610, 27595.34
963.3800, 36915.53
964.4990, 47014.00
965.6170, 54653.80
966.7350, 55546.48
967.8530, 47397.21
968.9710, 35709.99
970.0890, 24357.78
971.2070, 16398.43
972.3240, 11565.95
973.4410, 7791.910
974.5580, 5489.868
975.6750, 3884.412
976.7920, 2824.875
977.9090, 2039.392
979.0250, 1459.033
980.1410, 1225.867
981.2580, 981.6060
982.3740, 740.4399
983.4890, 579.5312
984.6050, 443.6831
985.7200, 386.1909
986.8360, 273.2856
987.9510, 330.3613
989.0660, 177.1123
990.1810, 274.9575
991.2950, 341.8018
992.4100, 261.6440
993.5240, 258.4844
994.6390, 174.2100
995.7530, 162.0474
996.8660, 187.7456
997.9800, 131.5801
999.0940, 132.4141
1000.207, 109.2495
1001.320, 383.0840
1002.433, 363.9170
1003.546, 276.7485
1004.659, 442.5801
1005.772, 364.4111
1006.884, 564.2178
1007.996, 637.0474
1009.108, 733.8774
1010.220, 993.5713
1011.332, 955.4062
1012.444, 783.2686
1013.555, 776.8369
1014.666, 541.6689
1015.777, 465.8105
1016.888, 379.6650
1017.999, 257.4966
1019.110, 247.1812
1020.220, 266.7759
1021.331, 373.2651
1022.441, 405.9126
1023.551, 454.0781
1024.661, 268.6484
1025.770, 565.2324
1026.880, 590.1484
1027.989, 697.9717
1029.098, 960.8530
1030.207, 1117.599
1031.316, 1300.367
1032.425, 1591.333
1033.533, 1824.191
1034.642, 2057.115
1035.750, 1960.853
1036.858, 1962.729
1037.966, 1625.507
1039.073, 1501.474
1040.181, 939.4609
1041.288, 1009.899
1042.396, 897.9033
1043.503, 927.9087
1044.610, 749.9189
1045.716, 729.9307
1046.823, 807.8076
1047.929, 681.8315
1049.036, 561.8584
1050.142, 644.5156
1051.248, 631.5830
1052.353, 689.7988
1053.459, 817.8506
1054.564, 858.9116
1055.670, 1059.980
1056.775, 1088.050
1057.880, 1322.122
1058.985, 1436.382
1060.089, 1716.457
1061.194, 1776.534
1062.298, 1724.728
1063.402, 1442.811
1064.506, 1033.894
1065.610, 752.9785
1066.713, 797.0645
1067.817, 599.1533
1068.920, 710.5518
1070.023, 695.6445
1071.126, 645.7666
1072.229, 728.8623
1073.332, 692.7729
1074.435, 777.0591
1075.537, 736.1616
1076.639, 849.2666
1077.741, 959.3745
1078.843, 989.4854
1079.945, 1061.598
1081.046, 1049.713
1082.148, 1043.830
1083.249, 930.9482
1084.350, 795.0688
1085.451, 601.1924
1086.551, 462.3184
1087.652, 280.4482
1088.752, 290.5820
1089.853, 237.7192
1090.953, 267.7510
1092.053, 223.8926
1093.152, 214.2139
1094.252, 187.3594
1095.351, 140.2358
1096.451, 157.6631
1097.550, 60.81934
1098.649, 55.98242
1099.748, 50.30664
1100.846, 135.4961
1101.945, 56.66406
1103.043, 52.83301
1104.141, 125.0049
1105.239, 62.17773
1106.337, 50.64355
1107.434, 54.57422
1108.532, 21.25586
1109.629, 73.90918
1110.726, 60.92383
1111.823, 47.78125
1112.920, 172.3418
1114.017, 43.46777
1115.113, 66.40625
1116.210, 21.69141
1117.306, 153.7969
1118.402, 335.9053
1119.498, 251.0146
1120.593, 238.1270
1121.689, 351.2402
1122.784, 324.3535
1123.879, 426.4688
1124.974, 371.5830
1126.069, 384.6992
1127.164, 31.81543
1128.259, 76.93359
1129.353, 90.05078
1130.447, 178.1699
1131.541, 94.31641
1132.635, 32.43652
1133.729, 208.5566
1134.822, 147.6777
1135.916, 159.7998
1137.009, 184.2979
1138.102, 92.04492
1139.195, 118.3164
1140.288, 82.57031
1141.380, 21.19141
1142.473, 139.9258
1143.565, 25.95801
1144.657, 187.1494
1145.749, 96.44531
1146.841, 8.446289
1147.932, 162.1484
1149.024, 99.47754
1150.115, 153.5840
1151.206, 150.9502
1152.297, 200.0566
1153.388, 168.2852
1154.479, 65.41016
1155.569, 3.686523
1156.659, 20.43555
1157.750, 145.5586
1158.839, 95.68066
1159.929, 6.811523
1161.019, 141.9414
1162.108, 97.30859
1163.198, 125.4775
1164.287, 216.8389
1165.376, 253.1768
1166.465, 248.5918
1167.553, 80.02148
1168.642, 205.1738
1169.730, 87.01074
1170.818, 38.38184
1171.906, 138.7471
1172.994, 92.30762
1174.082, 139.4727
1175.170, 105.3418
1176.257, 98.69629
1177.344, 50.99219
1178.431, 43.10938
1179.518, 62.62012
1180.605, 68.49902
1181.691, 110.6240
1182.778, 28.75391
1183.864, 128.9658
1184.950, 74.56934
1186.036, 162.7744
1187.122, 209.9307
1188.207, 111.0850
1189.292, 6.236328
1190.378, 57.38379
1191.463, 137.5273
1192.548, 24.66797
1193.632, 151.8037
1194.717, 142.9365
1195.801, 115.0674
1196.886, 160.1943
1197.970, 145.3184
1199.054, 12.56250
1200.137, 122.5430
1201.221, 48.64551
1202.305, 90.74316
1203.388, 182.8369
1204.471, 107.9277
1205.554, 70.01660
1206.637, 132.1006
1207.719, 94.18066
1208.802, 134.2578
1209.884, 138.3320
1210.966, 84.40234
1212.048, 98.46875
1213.130, 81.53223
1214.212, 81.67578
1215.293, 108.6465
1216.374, 109.6973
1217.456, 131.7461
1218.536, 165.7900
1219.617, 235.0010
1220.698, 18.96094
1221.778, 194.0547
1222.859, 20.06543
1223.939, 135.0723
1225.019, 99.07422
1226.099, 155.1621
1227.178, 252.1553
1228.258, 159.2998
1229.337, 26.28613
1230.417, 59.26660
1231.496, 69.24219
1232.574, 151.2129
1233.653, 184.1797
1234.732, 234.1426
1235.810, 195.0996
1236.888, 52.73535
1237.966, 137.6846
1239.044, 141.8779
1240.122, 276.8975
1241.199, 264.7900
1242.277, 63.49805
1243.354, 202.4258
1244.431, 115.3477
1245.508, 72.85742
1246.585, 234.7705
1247.661, 192.7754
1248.738, 78.68066
1249.814, 118.5820
1250.890, 94.47949
1251.966, 119.3721
1253.042, 153.2607
1254.117, 122.1445
1255.193, 104.0244
1256.268, 137.3193
1257.343, 152.7705
1258.418, 138.6348
1259.493, 159.4961
1260.567, 57.35254
1261.642, 113.2041
1262.716, 77.05078
1263.790, 94.89258
1264.864, 114.7305
1265.938, 78.62891
1267.011, 135.4561
1268.085, 30.27930
1269.158, 35.24609
1270.231, 6.909180
1271.304, 189.0283
1272.377, 152.8535
1273.450, 165.5293
1274.522, 21.31152
1275.594, 134.0869
1276.666, 13.45312
1277.738, 15.29883
1278.810, 81.04395
1279.882, 11.78516
1280.953, 82.51758
1282.025, 37.25391
1283.096, 190.4424
1284.167, 31.86719
1285.238, 168.5771
1286.308, 190.2314
1287.379, 146.8867
1288.449, 215.5361
