##NAMES=Fluorite
##RRUFFID=R050046
##IDEAL CHEMISTRY=CaF_2_
##LOCALITY=Shangbao, Lei Yang, Hunan Province, China
##OWNER=RRUFF
##SOURCE=Eugene Schlepp
##DESCRIPTION=Pale purple crystal
##STATUS=The identification of this mineral has been confirmed by X-ray diffraction and chemical analysis
##URL=rruff.info/R050046
##MEASURED CHEMISTRY=Ca_1.000_ F_2.000_
##PIN_ID=L01404
##ORIENTATION=Laser parallel to c* (0 0 1). Fiducial mark perpendicular to laser is parallel to b [0 1 0]
168.1040, 0.0000000E+00
169.3320, 100.9238
170.5590, 37.55859
171.7860, 0.1835940
173.0130, 129.5967
174.2400, 4.832031
175.4670, 97.91406
176.6930, 107.0957
177.9200, 103.1875
179.1460, 115.9951
180.3720, 150.7031
181.5980, 74.22559
182.8230, 12.51758
184.0490, 86.40332
185.2740, 45.92969
186.5000, 32.98730
187.7250, 187.6104
188.9500, 89.68164
190.1740, 182.1875
191.3990, 51.09375
192.6230, 293.3721
193.8480, 285.0459
195.0720, 330.0400
196.2960, 269.3311
197.5200, 451.9014
198.7430, 355.7393
199.9670, 442.8359
201.1900, 405.1797
202.4130, 386.7627
203.6360, 440.5752
204.8590, 240.6094
206.0820, 381.8467
207.3050, 193.2734
208.5270, 157.8740
209.7490, 173.6348
210.9710, 123.5488
212.1930, 48.60547
213.4150, 78.92090
214.6370, 237.1279
215.8580, 151.5811
217.0790, 265.1572
218.3010, 426.7773
219.5210, 379.5635
220.7420, 327.5762
221.9630, 116.5811
223.1830, 377.6924
224.4040, 404.9160
225.6240, 224.2568
226.8440, 206.7197
228.0640, 84.30176
229.2840, 181.0029
230.5030, 264.8193
231.7230, 78.75098
232.9420, 153.7959
234.1610, 231.9473
235.3800, 160.2041
236.5990, 110.5576
237.8170, 252.0088
239.0360, 365.5488
240.2540, 259.1807
241.4720, 232.8799
242.6900, 353.5938
243.9080, 237.3096
245.1250, 410.0391
246.3430, 114.7900
247.5600, 79.56348
248.7770, 169.3613
249.9940, 267.1836
251.2110, 220.0234
252.4280, 212.8994
253.6450, 150.8115
254.8610, 109.7627
256.0770, 266.7539
257.2930, 1080.785
258.5090, 719.3174
259.7250, 1043.972
260.9400, 520.1279
262.1560, 192.3271
263.3710, 153.5684
264.5860, 128.8535
265.8010, 55.18164
267.0160, 65.55176
268.2310, 34.03613
269.4450, 70.41895
270.6600, 36.91602
271.8740, 6.545898
273.0880, 76.03418
274.3020, 78.65625
275.5150, 92.31934
276.7290, 204.0508
277.9420, 296.9023
279.1550, 337.9385
280.3680, 357.0938
281.5810, 203.2812
282.7940, 368.6582
284.0070, 322.1855
285.2190, 594.8135
286.4310, 637.4688
287.6430, 543.1523
288.8550, 757.9365
290.0670, 614.7607
291.2790, 859.6113
292.4900, 815.5332
293.7020, 1005.576
294.9130, 1348.645
296.1240, 1451.734
297.3350, 1636.839
298.5450, 1563.963
299.7560, 2036.100
300.9660, 2178.259
302.1760, 2702.436
303.3860, 2841.625
304.5960, 3665.830
305.8060, 4598.049
307.0150, 5863.283
308.2250, 7115.529
309.4340, 9331.793
310.6430, 11518.07
311.8520, 14282.37
313.0610, 17296.67
314.2700, 20679.32
315.4780, 23962.85
316.6860, 27704.21
317.8940, 31550.08
319.1020, 34375.61
320.3100, 36195.09
321.5180, 35438.75
322.7250, 33277.46
323.9330, 28871.18
325.1400, 24232.98
326.3470, 19396.86
327.5540, 15349.81
328.7600, 12388.34
329.9670, 9888.421
331.1730, 8225.555
332.3800, 6794.723
333.5860, 5774.971
334.7920, 5062.268
335.9970, 4400.619
337.2030, 3970.018
338.4080, 3537.465
339.6140, 3242.955
340.8190, 2980.490
342.0240, 2726.067
343.2290, 2535.686
344.4330, 2268.345
345.6380, 2289.040
346.8420, 1941.774
348.0460, 1953.544
349.2500, 1814.349
350.4540, 1663.189
351.6580, 1673.062
352.8610, 1697.969
354.0650, 1468.906
355.2680, 1314.874
356.4710, 1293.873
357.6740, 1319.900
358.8760, 1387.957
360.0790, 1318.043
361.2810, 1343.155
362.4840, 1141.297
363.6860, 1149.460
364.8880, 1119.649
366.0900, 1190.864
367.2910, 1201.104
368.4930, 1128.371
369.6940, 1078.660
370.8950, 1048.074
372.0960, 971.9541
373.2970, 945.6748
374.4980, 887.0576
375.6980, 805.4619
376.8980, 856.8877
378.0990, 665.3350
379.2990, 839.8135
380.4980, 584.3115
381.6980, 687.8281
382.8980, 704.3613
384.0970, 587.8242
385.2960, 668.1729
386.4950, 638.0840
387.6940, 694.4941
388.8930, 705.9805
390.0920, 706.5156
391.2900, 685.3242
392.4880, 581.9863
393.6860, 668.6641
394.8840, 728.9609
396.0820, 729.6680
397.2800, 613.3828
398.4770, 664.7637
399.6750, 405.2188
400.8720, 622.9766
402.0690, 509.7930
403.2660, 468.8398
404.4620, 577.7734
405.6590, 476.9688
406.8550, 483.4609
408.0510, 401.1523
409.2480, 455.9863
410.4430, 260.2305
411.6390, 302.5078
412.8350, 271.0527
414.0300, 478.0000
415.2250, 253.2012
416.4200, 376.9980
417.6150, 426.9551
418.8100, 421.4238
420.0050, 469.9961
421.1990, 354.8008
422.3940, 458.7246
423.5880, 386.6543
424.7820, 325.5879
425.9750, 335.5273
427.1690, 299.5391
428.3630, 458.4824
429.5560, 340.4297
430.7490, 463.7871
431.9420, 439.7383
433.1350, 460.8906
434.3280, 509.8438
435.5200, 482.7969
436.7130, 512.7500
437.9050, 561.7031
439.0970, 384.6562
440.2890, 463.6074
441.4810, 305.5586
442.6720, 625.5078
443.8640, 368.4570
445.0550, 766.4062
446.2460, 552.3535
447.4370, 611.3750
448.6280, 582.7344
449.8180, 465.0215
451.0090, 467.0117
452.1990, 476.0781
453.3890, 362.0176
454.5790, 442.9512
455.7690, 391.9980
456.9590, 444.9785
458.1480, 520.7773
459.3380, 454.7344
460.5270, 503.8672
461.7160, 495.7188
462.9050, 560.6953
464.0940, 577.9512
465.2820, 502.0371
466.4700, 567.0293
467.6590, 506.0254
468.8470, 365.0410
470.0350, 628.0625
471.2220, 529.0938
472.4100, 463.1250
473.5970, 353.1816
474.7850, 377.2422
475.9720, 572.3066
477.1590, 552.4043
478.3460, 534.5039
479.5320, 509.6055
480.7190, 448.7227
481.9050, 603.8438
483.0910, 605.9668
484.2770, 625.0977
485.4630, 619.2363
486.6490, 728.3750
487.8340, 972.5176
489.0200, 921.6660
490.2050, 797.8203
491.3900, 973.9805
492.5750, 816.1465
493.7600, 839.3164
494.9440, 736.4922
496.1290, 725.6719
497.3130, 665.2285
498.4970, 602.0234
499.6810, 516.1973
500.8650, 534.3672
502.0480, 417.5469
503.2320, 424.5898
504.4150, 368.2461
505.5980, 402.4121
506.7810, 366.7559
507.9640, 347.0059
509.1460, 217.1914
510.3290, 326.6621
511.5110, 221.8418
512.6930, 273.1719
513.8750, 47.68555
515.0570, 294.9668
516.2390, 297.1211
517.4210, 44.55078
518.6020, 387.6895
519.7830, 232.1152
520.9640, 71.11914
522.1450, 61.23828
523.3260, 248.3457
524.5060, 17.16211
525.6870, 31.08203
526.8670, 18.02734
528.0470, 141.9922
529.2270, 75.04492
530.4070, 112.1484
531.5870, 54.32617
532.7660, 16.45508
533.9450, 201.2266
535.1240, 68.98633
536.3030, 227.2656
537.4820, 74.34961
538.6610, 57.04688
539.8390, 220.4902
541.0180, 42.93555
542.1960, 92.34766
543.3740, 50.74805
544.5520, 18.13867
545.7290, 34.51562
546.9070, 9.876953
548.0840, 79.77734
549.2620, 34.49219
550.4390, 202.7539
551.6160, 13.98828
552.7920, 13.20703
553.9690, 130.4082
555.1450, 67.40430
556.3220, 24.72852
557.4980, 144.1562
558.6740, 63.86133
559.8490, 9.861328
561.0250, 12.84375
562.2000, 77.63867
563.3760, 204.7617
564.5510, 132.6953
565.7260, 118.6191
566.9010, 203.5273
568.0750, 69.41992
569.2500, 144.2988
570.4240, 159.1621
571.5980, 31.00977
572.7720, 150.8418
573.9460, 53.65625
575.1200, 148.4551
576.2930, 146.2402
577.4670, 104.0098
578.6400, 167.7598
579.8130, 96.49609
580.9860, 180.2207
582.1590, 104.9316
583.3310, 166.6523
584.5040, 102.3672
585.6760, 213.0723
586.8480, 172.7656
588.0200, 83.45703
589.1920, 44.17773
590.3630, 50.88281
591.5350, 92.57422
592.7060, 77.24805
593.8770, 105.9082
595.0480, 122.5488
596.2190, 82.17383
597.3900, 52.97461
598.5600, 33.57617
599.7310, 201.9219
600.9010, 80.40234
602.0710, 17.13281
603.2410, 178.2852
604.4100, 36.19531
605.5800, 73.38477
606.7490, 141.7148
607.9190, 249.0234
609.0880, 186.9258
610.2570, 337.9570
611.4250, 391.1934
612.5940, 205.4336
613.7620, 376.3418
614.9310, 278.9297
616.0990, 314.1113
617.2670, 448.8711
618.4340, 671.8711
619.6020, 353.0078
620.7690, 480.3105
621.9370, 364.3105
623.1040, 413.8281
624.2710, 521.5723
625.4380, 467.9414
626.6040, 405.4336
627.7710, 541.1582
628.9370, 465.1914
630.1030, 521.9824
631.2690, 495.7793
632.4350, 323.4414
633.6010, 413.0645
634.7660, 294.8965
635.9320, 400.7520
637.0970, 300.0000
638.2620, 306.6992
639.4270, 408.9531
640.5920, 315.1328
641.7560, 460.5664
642.9210, 150.6953
644.0850, 125.8027
645.2490, 208.8828
646.4130, 140.4355
647.5770, 164.4297
648.7400, 275.5137
649.9040, 133.9570
651.0670, 180.9082
652.2300, 150.8340
653.3930, 128.7344
654.5560, 156.3555
655.7190, 209.4492
656.8810, 138.2676
658.0440, 231.0586
659.2060, 137.8223
660.3680, 12.55664
661.5300, 334.2422
662.6910, 200.9004
663.8530, 129.5332
665.0140, 377.1387
666.1750, 287.8047
667.3360, 311.2168
668.4970, 188.7734
669.6580, 336.4648
670.8190, 223.7578
671.9790, 261.6133
673.1390, 189.8770
674.2990, 366.2734
675.4590, 412.6465
676.6190, 351.3867
677.7790, 335.7109
678.9380, 415.0137
680.0970, 509.9980
681.2570, 673.1797
682.4160, 528.4062
683.5740, 576.5625
684.7330, 737.4727
685.8920, 753.4883
687.0500, 901.2285
688.2080, 1021.658
689.3660, 984.8770
690.5240, 842.9375
691.6820, 951.5742
692.8390, 1054.164
693.9960, 1003.154
695.1540, 1067.875
696.3110, 1010.666
697.4680, 1119.639
698.6240, 1034.475
699.7810, 1161.783
700.9370, 1093.105
702.0940, 1368.918
703.2500, 968.7227
704.4060, 1165.506
705.5610, 1190.264
706.7170, 1420.998
707.8720, 1131.641
709.0280, 1184.332
710.1830, 1189.000
711.3380, 1124.236
712.4920, 1111.855
713.6470, 1036.254
714.8020, 891.8652
715.9560, 801.4492
717.1100, 877.0332
718.2640, 642.6055
719.4180, 598.2227
720.5720, 688.7695
721.7250, 507.9629
722.8780, 566.4141
724.0320, 627.7871
725.1850, 476.7832
726.3380, 389.7559
727.4900, 420.4395
728.6430, 435.3086
729.7950, 489.1973
730.9470, 381.6953
732.1000, 297.0859
733.2510, 260.5879
734.4030, 166.0625
735.5550, 6.404297
736.7060, 56.10938
737.8570, 248.2969
739.0090, 166.6445
740.1600, 133.7988
741.3100, 298.2168
742.4610, 100.4922
743.6110, 84.62891
744.7620, 288.5938
745.9120, 156.7949
747.0620, 21.03320
748.2120, 54.08594
749.3610, 43.17383
750.5110, 155.2266
751.6600, 37.74219
752.8090, 73.22070
753.9580, 115.1582
755.1070, 67.92969
756.2560, 47.90039
757.4050, 184.1465
758.5530, 23.87500
759.7010, 60.90430
760.8490, 99.14062
761.9970, 57.43555
763.1450, 41.45898
764.2920, 155.5098
765.4400, 150.4609
766.5870, 95.99219
767.7340, 104.4531
768.8810, 102.8691
770.0280, 69.59375
771.1740, 161.5664
772.3210, 61.86133
773.4670, 141.1016
774.6130, 204.3066
775.7590, 146.4863
776.9050, 185.6289
778.0510, 236.0430
779.1960, 67.82812
780.3420, 328.8691
781.4870, 356.7949
782.6320, 343.5000
783.7770, 93.45312
784.9210, 14.81055
786.0660, 271.9570
787.2100, 140.7598
788.3540, 281.2402
789.4980, 295.9824
790.6420, 391.5391
791.7860, 514.8789
792.9300, 469.4180
794.0730, 464.0508
795.2160, 712.3770
796.3590, 367.9570
797.5020, 399.2168
798.6450, 543.8672
799.7880, 365.3691
800.9300, 367.8457
802.0720, 434.9082
803.2150, 292.3398
804.3560, 412.7559
805.4980, 582.1523
806.6400, 480.5625
807.7810, 550.9727
808.9230, 563.3867
810.0640, 598.7910
811.2050, 632.0859
812.3460, 626.5352
813.4860, 658.8691
814.6270, 578.2461
815.7670, 532.5957
816.9070, 631.9434
818.0470, 604.9863
819.1870, 709.6875
820.3270, 653.0234
821.4670, 608.3398
822.6060, 553.6348
823.7450, 789.9082
824.8840, 796.1621
826.0230, 807.4180
827.1620, 1087.664
828.3010, 925.8906
829.4390, 1113.096
830.5770, 786.2812
831.7150, 1097.445
832.8530, 1192.613
833.9910, 1335.762
835.1290, 1451.932
836.2660, 1259.082
837.4030, 1164.215
838.5410, 952.3281
839.6780, 651.4258
840.8140, 494.5020
841.9510, 483.5586
843.0870, 593.5977
844.2240, 421.6152
845.3600, 499.6152
846.4960, 206.5938
847.6320, 360.5566
848.7680, 466.5039
849.9030, 562.6035
851.0380, 233.8438
852.1740, 322.7363
853.3090, 242.6523
854.4440, 160.4590
855.5780, 160.1250
856.7130, 99.41797
857.8470, 10.22656
858.9820, 50.95508
860.1160, 123.7793
861.2500, 150.3125
862.3830, 49.54492
863.5170, 70.86719
864.6500, 131.6074
865.7840, 132.0605
866.9170, 435.4902
868.0500, 205.1875
869.1830, 348.4688
870.3150, 714.8438
871.4480, 641.2012
872.5800, 1153.299
873.7120, 1227.793
874.8440, 1811.139
875.9760, 2018.469
877.1080, 1990.783
878.2390, 2489.092
879.3710, 2627.270
880.5020, 2542.336
881.6330, 2527.617
882.7640, 2264.887
883.8940, 1938.533
885.0250, 1444.021
886.1550, 1343.266
887.2850, 960.4805
888.4160, 589.9922
889.5450, 444.7969
890.6750, 216.4316
891.8050, 174.5391
892.9340, 42.83398
894.0630, 81.04688
895.1930, 4.832031
896.3220, 124.0332
897.4500, 240.4961
898.5790, 55.29883
899.7070, 288.7891
900.8360, 193.5254
901.9640, 120.5898
903.0920, 146.9629
904.2200, 514.7305
905.3470, 816.4590
906.4750, 1548.297
907.6020, 1693.145
908.7290, 2373.758
909.8560, 3133.318
910.9830, 3564.459
912.1100, 3674.123
913.2360, 3527.203
914.3630, 3090.336
915.4890, 2777.186
916.6150, 2777.312
917.7410, 2802.439
918.8670, 3569.566
919.9920, 4356.197
921.1180, 5279.281
922.2430, 5950.410
923.3680, 6290.074
924.4930, 6965.207
925.6180, 7092.344
926.7420, 7409.480
927.8670, 7343.623
928.9910, 6980.770
930.1150, 6057.922
931.2390, 5349.078
932.3630, 4807.238
933.4860, 4340.430
934.6100, 3866.645
935.7330, 3833.869
936.8560, 3827.098
937.9790, 3441.338
939.1020, 3268.586
940.2250, 2963.869
941.3470, 3042.162
942.4700, 3442.463
943.5920, 4024.771
944.7140, 4576.094
945.8360, 5609.422
946.9570, 6600.766
948.0790, 6401.117
949.2000, 5881.480
950.3220, 4499.854
951.4430, 3077.240
952.5640, 1883.637
953.6840, 1368.045
954.8050, 899.4629
955.9250, 831.8965
957.0460, 636.3398
958.1660, 839.7988
959.2860, 488.2695
960.4050, 614.7578
961.5250, 612.2559
962.6440, 868.7715
963.7640, 831.3027
964.8830, 655.8496
966.0020, 720.4121
967.1210, 789.9922
968.2390, 601.5879
969.3580, 636.2012
970.4760, 577.8320
971.5940, 573.4824
972.7120, 431.1484
973.8300, 516.8340
974.9480, 404.5391
976.0650, 485.2656
977.1830, 356.0098
978.3000, 255.7793
979.4170, 248.5254
980.5340, 279.3750
981.6500, 105.2070
982.7670, 170.0605
983.8830, 19.93555
985.0000, 144.1680
986.1160, 78.68555
987.2320, 77.43750
988.3470, 54.57422
989.4630, 293.7148
990.5780, 151.9609
991.6940, 166.1680
992.8090, 104.0527
993.9240, 130.2168
995.0380, 147.3262
996.1530, 77.08789
997.2680, 25.16602
998.3820, 214.6367
999.4960, 62.58398
1000.610, 425.5938
1001.724, 3.296875
1002.837, 15.97266
1003.951, 497.7812
1005.064, 216.5664
1006.177, 641.3867
1007.291, 284.2500
1008.403, 471.1523
1009.516, 496.0879
1010.629, 657.0605
1011.741, 595.0664
1012.853, 603.1094
1013.965, 872.1875
1015.077, 812.3047
1016.189, 945.4590
1017.300, 1047.650
1018.412, 1301.898
1019.523, 1263.189
1020.634, 1704.523
1021.745, 1699.896
1022.856, 2227.332
1023.966, 2573.814
1025.077, 2715.338
1026.187, 2955.934
1027.297, 3487.133
1028.407, 3498.623
1029.517, 3522.316
1030.627, 3521.566
1031.736, 3195.787
1032.845, 2907.295
1033.955, 2298.795
1035.064, 2240.418
1036.172, 1924.486
1037.281, 1889.650
1038.390, 1873.879
1039.498, 1611.172
1040.606, 1691.539
1041.714, 1526.965
1042.822, 1301.465
1043.930, 1619.025
1045.037, 1517.648
1046.145, 1600.336
1047.252, 1322.086
1048.359, 1561.896
1049.466, 1582.781
1050.573, 1512.729
1051.679, 1443.742
1052.786, 1421.824
1053.892, 1361.975
1054.998, 1435.215
1056.104, 1417.523
1057.210, 1330.898
1058.315, 1139.342
1059.421, 1180.850
1060.526, 1176.426
1061.631, 1288.070
1062.736, 1111.783
1063.841, 1264.561
1064.946, 927.4082
1066.050, 1131.221
1067.154, 1140.830
1068.258, 1149.545
1069.362, 1344.691
1070.466, 1553.883
1071.570, 1423.307
1072.674, 1854.346
1073.777, 1816.516
1074.880, 1889.027
1075.983, 1752.566
1077.086, 1728.178
1078.189, 1701.857
1079.291, 1280.547
1080.394, 1222.371
1081.496, 954.2637
1082.598, 650.2305
1083.700, 1080.268
1084.802, 769.3750
1085.903, 650.5566
1087.005, 949.8105
1088.106, 803.1367
1089.207, 600.5371
1090.308, 457.0098
1091.409, 376.5547
1092.509, 363.1758
1093.610, 72.86914
1094.710, 181.6367
1095.810, 134.4785
1096.910, 282.3965
1098.010, 270.3887
1099.110, 215.4570
1100.209, 323.5996
1101.309, 49.81836
1102.408, 430.1113
1103.507, 247.4805
1104.606, 296.9258
1105.704, 965.4453
1106.803, 524.0430
1107.901, 606.7188
1108.999, 645.4688
1110.097, 1191.295
1111.195, 1197.197
1112.293, 1128.180
1113.391, 1677.238
1114.488, 1922.373
1115.585, 2083.586
1116.682, 2761.707
1117.779, 2937.748
1118.876, 3693.193
1119.973, 4377.674
1121.069, 4892.326
1122.165, 5608.178
1123.261, 5843.518
1124.357, 6205.297
1125.453, 5985.244
1126.549, 5812.146
1127.644, 5678.400
1128.739, 5032.010
1129.835, 4628.316
1130.930, 4159.750
1132.024, 3684.271
1133.119, 3377.875
1134.214, 3093.277
1135.308, 2908.158
1136.402, 2720.010
1137.496, 2785.945
1138.590, 2776.963
1139.684, 2765.059
1140.777, 2549.238
1141.871, 2764.500
1142.964, 2537.844
1144.057, 2799.268
1145.150, 2527.773
1146.243, 2663.373
1147.335, 2487.062
1148.428, 2812.852
1149.520, 2595.781
1150.612, 2614.832
1151.704, 2506.068
1152.796, 2461.418
1153.887, 2351.959
1154.979, 2331.703
1156.070, 2268.943
1157.161, 2214.299
1158.252, 2134.938
1159.343, 2149.449
1160.433, 1995.148
1161.524, 2007.043
1162.614, 1854.223
1163.704, 1925.641
1164.794, 1836.273
1165.884, 1874.148
1166.974, 1863.199
1168.063, 1931.484
1169.153, 1672.867
1170.242, 1564.355
1171.331, 1341.949
1172.420, 1134.625
1173.508, 1287.391
1174.597, 1436.234
1175.685, 1199.156
1176.774, 1054.188
1177.862, 943.3164
1178.950, 835.5430
1180.037, 811.9180
1181.125, 944.3984
1182.212, 804.9961
1183.300, 590.6758
1184.387, 448.4492
1185.474, 50.29688
1186.560, 347.2227
1187.647, 501.2188
1188.733, 261.2852
1189.820, 225.4219
1190.906, 244.6250
1191.992, 201.9023
1193.078, 53.24609
1194.163, 176.6602
1195.249, 158.1406
1196.334, 269.3086
1197.419, 57.74609
1198.504, 60.12109
1199.589, 4.566406
1200.674, 256.3164
1201.758, 17.86328
1202.843, 261.9805
1203.927, 66.08203
1205.011, 0.8710940
1206.095, 105.8906
1207.179, 61.97656
1208.262, 19.12891
1209.345, 75.66016
1210.429, 34.61328
1211.512, 51.94531
1212.595, 74.34766
1213.677, 98.80859
1214.760, 127.5703
1215.842, 161.8594
1216.925, 213.5703
1218.007, 279.2812
1219.089, 372.0547
1220.171, 376.1602
1221.252, 401.7852
1222.334, 372.7383
1223.415, 326.7539
1224.496, 265.8320
1225.577, 386.9688
1226.658, 331.1641
1227.738, 380.4180
1228.819, 410.7344
1229.899, 290.1055
1230.979, 487.5312
1232.060, 497.0195
1233.139, 362.5586
1234.219, 557.1602
1235.299, 521.0508
1236.378, 557.2539
1237.457, 614.2734
1238.536, 562.0781
1239.615, 584.9297
1240.694, 422.8281
1241.772, 496.7617
1242.851, 680.7383
1243.929, 510.7578
1245.007, 833.8203
1246.085, 649.9180
1247.163, 814.0508
1248.240, 654.2578
1249.318, 777.5000
1250.395, 767.7930
1251.472, 846.1367
1252.549, 1120.574
1253.626, 1074.078
1254.703, 1246.652
1255.779, 1232.273
1256.855, 1369.961
1257.931, 1441.699
1259.007, 1370.488
1260.083, 1339.301
1261.159, 1437.141
1262.234, 1508.008
1263.310, 1375.902
1264.385, 1475.816
1265.460, 1477.766
1266.535, 1372.734
1267.610, 1364.719
1268.684, 1247.727
1269.758, 1478.758
1270.833, 1623.805
1271.907, 1631.871
1272.981, 1633.949
1274.054, 1454.047
1275.128, 1697.246
1276.201, 1686.852
1277.275, 1844.336
1278.348, 1679.164
1279.421, 1813.859
1280.493, 1704.250
1281.566, 1920.367
1282.638, 1828.688
1283.711, 1780.605
1284.783, 1918.691
1285.855, 1931.066
1286.927, 2086.332
1287.998, 1986.113
1289.070, 2293.754
1290.141, 2641.660
1291.212, 2331.051
1292.283, 2469.301
1293.354, 2634.840
1294.425, 2567.820
1295.495, 2824.527
1296.566, 2672.328
1297.636, 2727.973
1298.706, 2587.004
1299.776, 2863.539
1300.845, 2675.238
1301.915, 2704.789
1302.984, 2295.242
1304.054, 2650.328
1305.123, 2341.949
1306.191, 2384.254
1307.260, 2473.293
1308.329, 2494.969
1309.397, 2619.094
1310.465, 2395.188
1311.534, 2368.395
1312.602, 2550.758
1313.669, 2339.637
1314.737, 2676.957
1315.804, 2464.555
1316.872, 2449.156
1317.939, 2544.762
1319.006, 2371.379
1320.073, 2226.996
1321.139, 2459.621
1322.206, 2518.246
1323.272, 1875.875
1324.338, 2007.512
1325.404, 2036.254
1326.470, 2038.266
1327.536, 2004.242
1328.601, 1494.859
1329.667, 1671.500
1330.732, 1538.980
1331.797, 1399.910
1332.862, 1445.781
1333.926, 1322.730
1334.991, 1331.016
1336.055, 1245.645
1337.120, 1201.273
1338.184, 1234.957
1339.248, 911.5742
1340.311, 887.1836
1341.375, 881.7891
1342.438, 980.3867
1343.502, 936.9727
