##NAMES=Fluorapatite
##RRUFFID=R060184
##IDEAL CHEMISTRY=Ca_5_(PO_4_)_3_F
##LOCALITY=Yates mine, Otter Lake, Quebec, Canada
##OWNER=RRUFF
##SOURCE=Lloyd Twaites
##DESCRIPTION=Green colored fragment of a hexagonal prism
##STATUS=The identification of this mineral has been confirmed by X-ray diffraction and chemical analysis
##URL=rruff.info/R060184
##MEASURED CHEMISTRY=(Ca_0.99_Ce_0.01_)_5.00_((P_0.98_Si_0.01_S_0.01_)O_4_)_3_F_1.00_
##PIN_ID=M00887
##ORIENTATION=Laser parallel to c* (0 0 1). Fiducial mark perpendicular to laser is parallel to a [1 0 0]
170.5590, 0.0000000E+00
171.7860, 0.2241210
173.0130, 18.13306
174.2400, 25.90332
175.4670, 21.45288
176.6930, 125.2739
177.9200, 55.31396
179.1460, 46.59106
180.3720, 148.3699
181.5980, 99.92090
182.8230, 91.39795
184.0490, 65.05884
185.2740, 86.93530
186.5000, 75.27759
187.7250, 20.97900
188.9500, 5.409668
190.1740, 26.48535
191.3990, 26.07959
192.6230, 44.72314
193.8480, 65.46606
195.0720, 60.32568
196.2960, 95.31372
197.5200, 77.43799
198.7430, 74.68481
199.9670, 63.03052
201.1900, 123.4453
202.4130, 159.8994
203.6360, 91.36719
204.8590, 71.82764
206.0820, 129.2646
207.3050, 175.6638
208.5270, 156.0210
209.7490, 98.34204
210.9710, 196.6533
212.1930, 223.9978
213.4150, 157.4302
214.6370, 196.9548
215.8580, 177.7251
217.0790, 138.6282
218.3010, 168.6873
219.5210, 153.1729
220.7420, 170.1746
221.9630, 178.7212
223.1830, 231.3523
224.4040, 274.9890
225.6240, 345.6340
226.8440, 366.2673
228.0640, 356.8079
229.2840, 399.2407
230.5030, 413.5498
231.7230, 436.7092
232.9420, 423.7173
234.1610, 423.5784
235.3800, 375.2969
236.5990, 400.8770
237.8170, 380.3213
239.0360, 288.6331
240.2540, 256.8159
241.4720, 322.8726
242.6900, 264.8057
243.9080, 265.6455
245.1250, 282.4653
246.3430, 214.2549
247.5600, 250.0056
248.7770, 256.0999
249.9940, 241.2542
251.2110, 222.7920
252.4280, 367.9702
253.6450, 318.9326
254.8610, 430.0789
256.0770, 399.7583
257.2930, 521.2649
258.5090, 615.3301
259.7250, 700.8535
260.9400, 722.2993
262.1560, 744.2817
263.3710, 787.1206
264.5860, 797.2888
265.8010, 920.8679
267.0160, 962.7639
268.2310, 1025.541
269.4450, 897.9868
270.6600, 733.0127
271.8740, 827.9458
273.0880, 717.6404
274.3020, 665.1675
275.5150, 680.8259
276.7290, 619.7041
277.9420, 579.3413
279.1550, 568.4517
280.3680, 501.9648
281.5810, 519.7341
282.7940, 520.3164
284.0070, 465.5601
285.2190, 484.5264
286.4310, 513.2244
287.6430, 431.9114
288.8550, 457.5586
290.0670, 463.3340
291.2790, 482.9678
292.4900, 450.3506
293.7020, 497.6877
294.9130, 482.9758
296.1240, 445.2100
297.3350, 530.3879
298.5450, 531.5098
299.7560, 574.5752
300.9660, 568.5842
302.1760, 714.5361
303.3860, 591.4316
304.5960, 759.2717
305.8060, 783.0549
307.0150, 703.7830
308.2250, 741.4553
309.4340, 729.0730
310.6430, 719.6355
311.8520, 774.1438
313.0610, 594.5981
314.2700, 524.9983
315.4780, 559.3450
316.6860, 480.0405
317.8940, 478.2935
319.1020, 418.4302
320.3100, 391.4050
321.5180, 402.1423
322.7250, 379.8337
323.9330, 308.3542
325.1400, 253.6748
326.3470, 193.8269
327.5540, 253.8457
328.7600, 178.7866
329.9670, 219.5847
331.1730, 146.4861
332.3800, 208.4451
333.5860, 64.80176
334.7920, 142.7732
335.9970, 139.0957
337.2030, 67.43677
338.4080, 49.55737
339.6140, 46.47559
340.8190, 24.66968
342.0240, 8.891357
343.2290, 81.76758
344.4330, 117.2239
345.6380, 99.05005
346.8420, 31.80249
348.0460, 50.37256
349.2500, 41.90332
350.4540, 14.77417
351.6580, 78.23340
352.8610, 14.47119
354.0650, 3.703613
355.2680, 17.59082
356.4710, 11.04053
357.6740, 15.80908
358.8760, 18.70898
360.0790, 27.50098
361.2810, 10.36133
362.4840, 9.043457
363.6860, 2.014160
364.8880, 24.34766
366.0900, 21.68311
367.2910, 19.21582
368.4930, 27.23682
369.6940, 31.32764
370.8950, 44.43457
372.0960, 33.12207
373.2970, 22.11426
374.4980, 36.48438
375.6980, 12.70801
376.8980, 54.08008
378.0990, 3.236816
379.2990, 57.83789
380.4980, 86.23291
381.6980, 31.45557
382.8980, 3.347656
384.0970, 8.648438
385.2960, 93.61914
386.4950, 86.53809
387.6940, 34.43945
388.8930, 89.20654
390.0920, 23.00342
391.2900, 67.65674
392.4880, 115.4351
393.6860, 121.6899
394.8840, 153.0654
396.0820, 144.7686
397.2800, 64.72412
398.4770, 100.2441
399.6750, 236.0483
400.8720, 148.9824
402.0690, 136.2202
403.2660, 243.4688
404.4620, 139.4268
405.6590, 238.4551
406.8550, 239.3237
408.0510, 317.9683
409.2480, 286.5815
410.4430, 273.1406
411.6390, 393.4976
412.8350, 327.9033
414.0300, 342.8667
415.2250, 520.0298
416.4200, 498.8447
417.6150, 598.6753
418.8100, 687.1631
420.0050, 776.5977
421.1990, 832.9863
422.3940, 959.3193
423.5880, 1148.608
424.7820, 1116.834
425.9750, 1360.014
427.1690, 1543.150
428.3630, 1641.247
429.5560, 1789.298
430.7490, 1748.311
431.9420, 1843.283
433.1350, 1881.215
434.3280, 2006.111
435.5200, 1955.973
436.7130, 1948.800
437.9050, 2203.595
439.0970, 2228.354
440.2890, 2428.079
441.4810, 2482.771
442.6720, 2601.427
443.8640, 2515.052
445.0550, 2769.644
446.2460, 2751.203
447.4370, 2636.731
448.6280, 2532.228
449.8180, 2272.692
451.0090, 2190.124
452.1990, 1967.523
453.3890, 1839.892
454.5790, 1656.226
455.7690, 1429.528
456.9590, 1211.799
458.1480, 1107.038
459.3380, 1022.246
460.5270, 929.4087
461.7160, 885.5273
462.9050, 803.6206
464.0940, 683.6357
465.2820, 667.6289
466.4700, 559.5786
467.6590, 475.5000
468.8470, 482.3833
470.0350, 439.0151
471.2220, 335.8164
472.4100, 383.3018
473.5970, 291.9146
474.7850, 260.1782
475.9720, 296.6602
477.1590, 336.4917
478.3460, 242.6206
479.5320, 328.7109
480.7190, 149.4609
481.9050, 214.0249
483.0910, 134.5186
484.2770, 153.7817
485.4630, 208.8125
486.6490, 58.39160
487.8340, 188.0679
489.0200, 31.62354
490.2050, 218.7065
491.3900, 72.03613
492.5750, 139.1191
493.7600, 41.92090
494.9440, 61.16748
496.1290, 77.58838
497.3130, 5.927734
498.4970, 28.69531
499.6810, 63.17139
500.8650, 37.67725
502.0480, 30.58447
503.2320, 9.887695
504.4150, 23.60449
505.5980, 32.28857
506.7810, 101.4346
507.9640, 47.30811
509.1460, 20.68115
510.3290, 10.58789
511.5110, 104.5430
512.6930, 9.740723
513.8750, 39.06787
515.0570, 7.930664
516.2390, 18.56445
517.4210, 3.639648
518.6020, 27.50781
519.7830, 26.68652
520.9640, 73.85303
522.1450, 9.594727
523.3260, 24.48389
524.5060, 83.91309
525.6870, 2.714844
526.8670, 40.71289
528.0470, 42.45166
529.2270, 19.11670
530.4070, 80.37598
531.5870, 33.95996
532.7660, 56.98486
533.9450, 23.64697
535.1240, 12.10645
536.3030, 36.59033
537.4820, 13.99121
538.6610, 7.509766
539.8390, 23.55518
541.0180, 6.090820
542.1960, 12.14600
543.3740, 49.93555
544.5520, 35.66455
545.7290, 85.98096
546.9070, 55.64844
548.0840, 79.22607
549.2620, 119.2617
550.4390, 112.1123
551.6160, 110.0034
552.7920, 143.8091
553.9690, 118.6768
555.1450, 211.3428
556.3220, 147.3237
557.4980, 213.2793
558.6740, 193.9180
559.8490, 262.2056
561.0250, 308.1895
562.2000, 312.0249
563.3760, 358.4604
564.5510, 346.1006
565.7260, 408.7778
566.9010, 497.3203
568.0750, 533.8242
569.2500, 699.2793
570.4240, 957.5293
571.5980, 1013.799
572.7720, 1214.955
573.9460, 1537.107
575.1200, 2009.207
576.2930, 2311.394
577.4670, 2844.744
578.6400, 3310.098
579.8130, 3777.260
580.9860, 3661.054
582.1590, 3341.108
583.3310, 2786.061
584.5040, 2424.408
585.6760, 1925.489
586.8480, 1849.942
588.0200, 1585.263
589.1920, 1448.487
590.3630, 1496.483
591.5350, 1319.451
592.7060, 1269.491
593.8770, 1195.402
595.0480, 1082.039
596.2190, 953.8447
597.3900, 956.7979
598.5600, 1038.502
599.7310, 1052.491
600.9010, 1289.322
602.0710, 1445.996
603.2410, 1716.714
604.4100, 1719.687
605.5800, 1985.507
606.7490, 1965.068
607.9190, 1988.607
609.0880, 1756.711
610.2570, 1614.062
611.4250, 1436.202
612.5940, 1395.433
613.7620, 1417.561
614.9310, 1329.840
616.0990, 1137.597
617.2670, 1108.985
618.4340, 975.2495
619.6020, 783.3506
620.7690, 694.5703
621.9370, 450.1143
623.1040, 477.9170
624.2710, 459.4839
625.4380, 285.2246
626.6040, 350.1328
627.7710, 419.3818
628.9370, 481.1655
630.1030, 453.9160
631.2690, 439.6396
632.4350, 457.0640
633.6010, 442.3843
634.7660, 393.7227
635.9320, 515.6636
637.0970, 505.3438
638.2620, 633.3682
639.4270, 548.9458
640.5920, 649.4888
641.7560, 609.4336
642.9210, 661.3755
644.0850, 651.8047
645.2490, 643.5972
646.4130, 689.0977
647.5770, 717.3276
648.7400, 773.7783
649.9040, 749.0107
651.0670, 841.2090
652.2300, 798.9463
653.3930, 896.1768
654.5560, 726.3789
655.7190, 677.2871
656.8810, 612.1006
658.0440, 604.8525
659.2060, 604.0625
660.3680, 662.2812
661.5300, 549.2383
662.6910, 472.8672
663.8530, 584.7686
665.0140, 241.6123
666.1750, 525.1660
667.3360, 407.6338
668.4970, 443.5400
669.6580, 246.6104
670.8190, 309.9482
671.9790, 331.8281
673.1390, 352.4482
674.2990, 418.6865
675.4590, 384.5361
676.6190, 291.4629
677.7790, 323.0859
678.9380, 268.6104
680.0970, 213.2197
681.2570, 195.2148
682.4160, 61.69434
683.5740, 124.5889
684.7330, 196.3018
685.8920, 249.5732
687.0500, 174.3359
688.2080, 171.5840
689.3660, 208.5850
690.5240, 175.3154
691.6820, 173.7910
692.8390, 178.4131
693.9960, 217.0820
695.1540, 132.9873
696.3110, 129.8789
697.4680, 196.1816
698.6240, 32.53320
699.7810, 95.05762
700.9370, 121.4941
702.0940, 186.1074
703.2500, 172.5762
704.4060, 133.5459
705.5610, 159.4521
706.7170, 159.6104
707.8720, 163.8457
709.0280, 204.0381
710.1830, 189.7236
711.3380, 208.4795
712.4920, 199.8584
713.6470, 204.5264
714.8020, 176.9023
715.9560, 128.7227
717.1100, 118.1113
718.2640, 154.5996
719.4180, 233.0615
720.5720, 161.5801
721.7250, 176.3057
722.8780, 72.21582
724.0320, 126.6621
725.1850, 35.69531
726.3380, 49.71387
727.4900, 62.73340
728.6430, 107.6006
729.7950, 104.5732
730.9470, 77.33594
732.1000, 98.04297
733.2510, 153.6963
734.4030, 103.2998
735.5550, 57.84961
736.7060, 107.6045
737.8570, 38.38379
739.0090, 58.01367
740.1600, 94.67090
741.3100, 73.94922
742.4610, 27.25098
743.6110, 40.52051
744.7620, 85.12207
745.9120, 47.98340
747.0620, 10.30566
748.2120, 137.7627
749.3610, 190.0879
750.5110, 19.26172
751.6600, 194.4258
752.8090, 140.5195
753.9580, 36.77441
755.1070, 99.53125
756.2560, 138.2178
757.4050, 120.0518
758.5530, 138.5205
759.7010, 164.9209
760.8490, 158.9570
761.9970, 126.1943
763.1450, 111.0068
764.2920, 116.9521
765.4400, 115.2031
766.5870, 116.7314
767.7340, 170.7725
768.8810, 140.6719
770.0280, 5.487305
771.1740, 31.72168
772.3210, 261.9512
773.4670, 137.5752
774.6130, 209.1445
775.7590, 156.7080
776.9050, 39.81738
778.0510, 56.81738
779.1960, 25.43945
780.3420, 88.23340
781.4870, 70.22363
782.6320, 60.17578
783.7770, 154.2822
784.9210, 119.5635
786.0660, 156.5938
787.2100, 160.5830
788.3540, 139.6377
789.4980, 159.3975
790.6420, 112.7422
791.7860, 197.8457
792.9300, 196.5596
794.0730, 22.46582
795.2160, 180.0566
796.3590, 93.59570
797.5020, 94.08203
798.6450, 76.51562
799.7880, 69.88770
800.9300, 58.19824
802.0720, 78.44727
803.2150, 63.75391
804.3560, 87.74023
805.4980, 54.80762
806.6400, 103.8105
807.7810, 105.7520
808.9230, 133.6406
810.0640, 208.4727
811.2050, 78.25195
812.3460, 49.97559
813.4860, 64.63965
814.6270, 118.2500
815.7670, 90.80566
816.9070, 118.3037
818.0470, 163.6074
819.1870, 230.7842
820.3270, 30.35742
821.4670, 33.12207
822.6060, 194.1172
823.7450, 85.27539
824.8840, 169.0684
826.0230, 78.79590
827.1620, 93.61816
828.3010, 43.24316
829.4390, 40.34570
830.5770, 87.29980
831.7150, 94.90625
832.8530, 71.10352
833.9910, 187.2275
835.1290, 143.5742
836.2660, 155.9199
837.4030, 162.9971
838.5410, 111.8691
839.6780, 127.9570
840.8140, 69.93262
841.9510, 24.68555
843.0870, 160.4727
844.2240, 47.20801
845.3600, 117.8975
846.4960, 308.7051
847.6320, 76.40332
848.7680, 192.1221
849.9030, 64.75488
851.0380, 26.34766
852.1740, 131.7539
853.3090, 242.9082
854.4440, 181.9697
855.5780, 174.1338
856.7130, 146.5781
857.8470, 137.9111
858.9820, 307.7764
860.1160, 120.3994
861.2500, 235.1982
862.3830, 192.5391
863.5170, 176.9229
864.6500, 222.5254
865.7840, 157.8486
866.9170, 249.3223
868.0500, 263.6367
869.1830, 271.9922
870.3150, 240.0752
871.4480, 214.4531
872.5800, 119.8760
873.7120, 99.09180
874.8440, 67.93359
875.9760, 34.15527
877.1080, 272.8037
878.2390, 150.6348
879.3710, 142.1250
880.5020, 3.680664
881.6330, 16.39844
882.7640, 74.95312
883.8940, 94.85742
885.0250, 62.12988
886.1550, 124.6914
887.2850, 22.78613
888.4160, 1.278320
889.5450, 51.47559
890.6750, 91.97754
891.8050, 60.08496
892.9340, 9.8632999E-02
894.0630, 91.25488
895.1930, 123.4727
896.3220, 38.26074
897.4500, 209.9229
898.5790, 86.58887
899.7070, 20.69629
900.8360, 28.96582
901.9640, 38.81836
903.0920, 78.30762
904.2200, 125.6279
905.3470, 124.7881
906.4750, 182.1191
907.6020, 144.6992
908.7290, 176.2666
909.8560, 154.2803
910.9830, 58.56250
912.1100, 16.40820
913.2360, 0.4746090
914.3630, 20.34473
915.4890, 74.14453
916.6150, 5.473633
917.7410, 38.34668
918.8670, 129.5518
919.9920, 28.20605
921.1180, 121.6475
922.2430, 63.25000
923.3680, 54.84277
924.4930, 93.31836
925.6180, 39.14941
926.7420, 36.96094
927.8670, 82.58887
928.9910, 18.10840
930.1150, 184.7666
931.2390, 173.1621
932.3630, 142.0020
933.4860, 225.8232
934.6100, 275.4014
935.7330, 281.8721
936.8560, 448.1289
937.9790, 404.6621
939.1020, 648.9668
940.2250, 754.5752
941.3470, 874.6846
942.4700, 1024.420
943.5920, 1257.150
944.7140, 1511.082
945.8360, 1918.308
946.9570, 2062.681
948.0790, 2497.584
949.2000, 3117.723
950.3220, 3812.455
951.4430, 4561.918
952.5640, 5626.619
953.6840, 7215.531
954.8050, 9077.711
955.9250, 11977.05
957.0460, 15112.45
958.1660, 18985.43
959.2860, 24196.74
960.4050, 29110.60
961.5250, 35259.80
962.6440, 40638.19
963.7640, 43551.75
964.8830, 42141.25
966.0020, 37163.52
967.1210, 30380.88
968.2390, 24273.93
969.3580, 18341.78
970.4760, 13758.44
971.5940, 10245.14
972.7120, 7693.865
973.8300, 5775.352
974.9480, 4583.920
976.0650, 3241.923
977.1830, 2401.928
978.3000, 1969.809
979.4170, 1693.445
980.5340, 1283.807
981.6500, 859.7852
982.7670, 807.8906
983.8830, 442.6934
985.0000, 614.6133
986.1160, 377.6621
987.2320, 279.2070
988.3470, 223.1211
989.4630, 282.8809
990.5780, 75.61719
991.6940, 176.2344
992.8090, 331.8203
993.9240, 74.70312
995.0380, 129.2207
996.1530, 165.0938
997.2680, 80.92188
998.3820, 276.6875
999.4960, 270.5527
1000.610, 277.2500
1001.724, 404.1055
1002.837, 401.9551
1003.951, 367.8047
1005.064, 513.6504
1006.177, 748.4922
1007.291, 949.0781
1008.403, 891.5820
1009.516, 865.7930
1010.629, 757.7129
1011.741, 883.5801
1012.853, 642.3711
1013.965, 672.1367
1015.077, 372.5234
1016.189, 718.5664
1017.300, 594.1660
1018.412, 600.5449
1019.523, 404.0098
1020.634, 465.5781
1021.745, 616.1016
1022.856, 747.6582
1023.966, 1065.006
1025.077, 826.8223
1026.187, 1079.664
1027.297, 1211.314
1028.407, 1530.287
1029.517, 1511.279
1030.627, 1600.586
1031.736, 1781.650
1032.845, 1848.094
1033.955, 1947.027
1035.064, 1840.268
1036.172, 1619.859
1037.281, 1515.893
1038.390, 1370.027
1039.498, 1173.176
1040.606, 1104.348
1041.714, 1154.555
1042.822, 902.7695
1043.930, 853.9980
1045.037, 975.1953
1046.145, 737.8125
1047.252, 880.4941
1048.359, 734.9902
1049.466, 831.3105
1050.573, 944.6855
1051.679, 938.2520
1052.786, 983.6309
1053.892, 1135.805
1054.998, 1344.225
1056.104, 1474.660
1057.210, 1395.113
1058.315, 1528.586
1059.421, 1329.559
1060.526, 1535.736
1061.631, 1349.271
1062.736, 1212.578
1063.841, 1052.160
1064.946, 1137.760
1066.050, 1096.385
1067.154, 1156.035
1068.258, 1173.709
1069.362, 1292.615
1070.466, 1291.340
1071.570, 1584.090
1072.674, 1239.869
1073.777, 1170.674
1074.880, 1382.506
1075.983, 1119.359
1077.086, 1099.242
1078.189, 949.1484
1079.291, 930.0781
1080.394, 668.0352
1081.496, 794.0234
1082.598, 564.0410
1083.700, 526.0840
1084.802, 573.1543
1085.903, 440.2539
1087.005, 328.3770
1088.106, 181.5254
1089.207, 281.7090
1090.308, 234.9238
1091.409, 233.1680
1092.509, 126.4414
1093.610, 211.7422
1094.710, 6.072266
1095.810, 111.4316
1096.910, 218.8262
1098.010, 77.25586
1099.110, 4.712891
1100.209, 110.2031
1101.309, 206.7246
1102.408, 63.27344
1103.507, 131.8555
1104.606, 112.4648
1105.704, 66.10547
1106.803, 45.77734
1107.901, 67.47656
1108.999, 38.21484
1110.097, 18.01367
1111.195, 6.341797
1112.293, 48.36133
1113.391, 15.50781
1114.488, 40.41211
1115.585, 144.3496
1116.682, 272.3145
1117.779, 214.3184
1118.876, 285.3613
1119.973, 184.4355
1121.069, 164.4609
1122.165, 409.0625
1123.261, 389.2441
1124.357, 195.4590
1125.453, 289.7090
1126.549, 155.9902
1127.644, 60.30469
1128.739, 226.6543
1129.835, 89.06250
1130.930, 260.5059
1132.024, 209.9805
1133.119, 32.49219
1134.214, 183.0352
1135.308, 152.6113
1136.402, 165.2246
1137.496, 48.86719
1138.590, 149.6758
1139.684, 303.3887
1140.777, 215.9316
1141.871, 130.2891
1142.964, 199.5488
1144.057, 146.4277
1145.150, 127.1230
1146.243, 124.6895
1147.335, 86.68359
1148.428, 180.0059
1149.520, 177.1113
1150.612, 135.0469
1151.704, 254.2891
1152.796, 215.6094
1153.887, 77.09961
1154.979, 183.9395
1156.070, 203.2227
1157.161, 108.7383
1158.252, 248.4512
1159.343, 131.7656
1160.433, 192.3086
1161.524, 311.1680
1162.614, 262.9473
1163.704, 224.7637
1164.794, 259.6484
1165.884, 242.5801
1166.974, 226.1152
1168.063, 225.5820
1169.153, 173.6465
1170.242, 89.74805
1171.331, 21.94922
1172.420, 220.0625
1173.508, 36.27539
1174.597, 28.52148
1175.685, 318.8047
1176.774, 195.1270
1177.862, 90.49609
1178.950, 218.9121
1180.037, 148.3770
1181.125, 62.12109
1182.212, 163.4102
1183.300, 94.99414
1184.387, 255.6191
1185.474, 109.2773
1186.560, 182.9746
1187.647, 115.7109
1188.733, 182.4844
1189.820, 174.2930
1190.906, 167.0664
1191.992, 200.0723
1193.078, 202.0273
1194.163, 52.01953
1195.249, 130.0508
1196.334, 350.1191
1197.419, 312.2246
1198.504, 143.3672
1199.589, 11.44922
1200.674, 188.7656
1201.758, 70.02148
1202.843, 253.3105
1203.927, 80.64062
1205.011, 170.0078
1206.095, 88.41406
1207.179, 90.85742
1208.262, 174.3379
1209.345, 161.8574
1210.429, 96.41406
1211.512, 199.0059
1212.595, 79.63867
1213.677, 193.3086
1214.760, 165.0176
1215.842, 77.76367
1216.925, 311.5469
1218.007, 240.3652
1219.089, 224.2246
1220.171, 243.1211
1221.252, 135.0547
1222.334, 111.0254
1223.415, 266.0352
1224.496, 147.0820
1225.577, 217.1680
1226.658, 103.2910
1227.738, 55.44922
1228.819, 411.6445
1229.899, 440.8770
1230.979, 282.1465
1232.060, 191.4551
1233.139, 395.8008
1234.219, 158.1836
1235.299, 252.6035
1236.378, 219.0605
1237.457, 240.5566
1238.536, 225.0879
1239.615, 116.6816
1240.694, 71.11719
1241.772, 194.0039
1242.851, 120.8457
1243.929, 213.5840
1245.007, 153.3594
1246.085, 95.17383
1247.163, 124.6914
1248.240, 154.9102
1249.318, 107.8320
1250.395, 26.20703
1251.472, 38.69141
1252.549, 20.32031
1253.626, 22.62891
1254.703, 55.45508
1255.779, 141.5781
1256.855, 279.7363
1257.931, 292.9336
1259.007, 145.7207
1260.083, 273.9902
1261.159, 157.2969
1262.234, 81.63867
1263.310, 184.0137
1264.385, 74.42578
1265.460, 175.8730
1266.535, 69.35938
1267.610, 1.878906
1268.684, 280.4336
1269.758, 15.97461
1270.833, 58.35742
1271.907, 54.72461
1272.981, 142.9199
1274.054, 139.6035
1275.128, 29.67969
1276.201, 18.06250
1277.275, 94.15430
1278.348, 120.6230
1279.421, 37.56055
1280.493, 229.2734
1281.566, 174.1445
1282.638, 67.95117
1283.711, 4.039063
1284.783, 104.7070
1285.855, 19.16406
1286.927, 22.19727
1287.998, 11.21484
1289.070, 346.7930
1290.141, 208.8359
1291.212, 225.9121
1292.283, 157.0234
1293.354, 89.16992
1294.425, 153.8184
1295.495, 125.0293
1296.566, 166.2734
1297.636, 195.4219
1298.706, 296.8633
1299.776, 201.2109
1300.845, 257.5898
1301.915, 139.0020
1302.984, 132.3496
1304.054, 207.9297
1305.123, 130.4434
1306.191, 15.99219
1307.260, 126.5703
1308.329, 111.1836
1309.397, 279.8301
1310.465, 84.70117
1311.534, 492.4180
1312.602, 253.1699
1313.669, 547.9531
1314.737, 367.7773
1315.804, 191.6270
1316.872, 288.5078
1317.939, 107.4160
1319.006, 397.3535
1320.073, 446.3184
1321.139, 448.3125
1322.206, 233.3359
1323.272, 244.3867
1324.338, 463.4668
1325.404, 323.5742
1326.470, 483.7129
1327.536, 485.8770
1328.601, 306.8633
1329.667, 414.0840
1330.732, 297.3340
1331.797, 270.6133
1332.862, 310.9199
1333.926, 474.2539
1334.991, 386.6855
1336.055, 554.0098
1337.120, 388.4277
1338.184, 402.8789
1339.248, 565.3555
1340.311, 357.8613
