##NAMES=Fluor-uvite
##RRUFFID=R050172
##IDEAL CHEMISTRY=CaMg_3_(Al_5_Mg)(Si_6_O_18_)(BO_3_)_3_(OH)_3_F
##LOCALITY=Pierrepont, New York, USA
##OWNER=RRUFF
##SOURCE=Marcus Origlieri
##DESCRIPTION=Black prismatic crystal
##STATUS=The identification of this mineral has been confirmed by X-ray diffraction and chemical analysis
##URL=rruff.info/R050172
##MEASURED CHEMISTRY=(Ca_0.64_Na_0.36_)(Mg_0.56_Fe^2+^_0.34_Al_0.08_Ti_0.02_)_3_(Mg_1.00_Al_5.00_)(BO_3_)_3_Si_6.00_O_18_((OH)_3.45_F_0.55_)
##PIN_ID=M00231
##ORIENTATION=Laser parallel to c* (0 0 1). Fiducial mark perpendicular to laser is parallel to -a [-1 0 0]
166.1800, 0.0000000E+00
167.4110, 3.562500
168.6410, 245.7539
169.8720, 214.4336
171.1020, 234.8086
172.3320, 314.5332
173.5620, 191.6230
174.7910, 19.03516
176.0210, 90.49219
177.2500, 151.2930
178.4790, 303.7637
179.7080, 152.0547
180.9370, 542.8164
182.1650, 194.8184
183.3940, 327.8301
184.6220, 629.4551
185.8500, 468.0684
187.0780, 578.3320
188.3050, 562.6934
189.5330, 900.3008
190.7600, 788.9121
191.9870, 879.5000
193.2140, 956.9238
194.4410, 1056.404
195.6680, 1264.713
196.8940, 1387.279
198.1200, 1555.053
199.3470, 1728.514
200.5720, 2004.480
201.7980, 2385.656
203.0240, 2523.498
204.2490, 2262.602
205.4740, 2086.984
206.6990, 1923.426
207.9240, 2116.369
209.1490, 1901.883
210.3740, 2110.547
211.5980, 2174.707
212.8220, 2049.322
214.0460, 2249.018
215.2700, 1864.571
216.4930, 2000.691
217.7170, 1900.452
218.9400, 1616.821
220.1630, 1805.195
221.3860, 1762.895
222.6090, 1683.302
223.8320, 1506.125
225.0540, 1441.436
226.2760, 1546.642
227.4980, 1315.244
228.7200, 1574.768
229.9420, 1335.786
231.1630, 1557.509
232.3850, 1589.777
233.6060, 1755.644
234.8270, 1667.485
236.0480, 1703.264
237.2690, 1547.299
238.4890, 1627.087
239.7090, 1435.127
240.9290, 1555.682
242.1490, 1244.401
243.3690, 1246.074
244.5890, 1078.773
245.8080, 1066.722
247.0270, 982.0576
248.2470, 801.7617
249.4650, 764.8154
250.6840, 558.1719
251.9030, 565.7930
253.1210, 681.6426
254.3390, 585.6826
255.5570, 599.8809
256.7750, 657.2041
257.9930, 716.6172
259.2100, 827.7637
260.4280, 609.9307
261.6450, 724.6133
262.8620, 754.3477
264.0790, 703.6650
265.2950, 227.4648
266.5120, 451.7900
267.7280, 243.8115
268.9440, 598.1426
270.1600, 155.1250
271.3760, 147.9316
272.5920, 271.5361
273.8070, 192.9238
275.0220, 247.9805
276.2370, 46.99121
277.4520, 244.6494
278.6670, 162.0391
279.8820, 80.15723
281.0960, 179.9795
282.3100, 114.4746
283.5240, 16.34180
284.7380, 71.54102
285.9520, 175.8447
287.1650, 73.49707
288.3780, 181.3984
289.5920, 232.6221
290.8050, 80.15430
292.0170, 16.03516
293.2300, 268.2480
294.4430, 81.80273
295.6550, 199.6904
296.8670, 178.9189
298.0790, 190.4922
299.2910, 314.0303
300.5020, 87.25684
301.7140, 54.59668
302.9250, 115.4102
304.1360, 145.8945
305.3470, 6.991211
306.5580, 6.242188
307.7680, 26.46191
308.9780, 184.1699
310.1890, 31.95605
311.3990, 173.9502
312.6090, 254.4531
313.8180, 437.5088
315.0280, 466.8145
316.2370, 613.7217
317.4460, 721.1289
318.6550, 688.1260
319.8640, 926.6846
321.0730, 1019.287
322.2810, 1001.682
323.4890, 1096.804
324.6980, 1184.617
325.9060, 1265.656
327.1130, 1485.577
328.3210, 1479.681
329.5280, 1496.689
330.7360, 1682.230
331.9430, 1563.297
333.1500, 1739.890
334.3560, 1845.000
335.5630, 1875.633
336.7690, 1955.024
337.9760, 2095.488
339.1820, 2004.718
340.3870, 2007.483
341.5930, 2030.788
342.7990, 2223.604
344.0040, 2103.903
345.2090, 2323.679
346.4140, 2297.938
347.6190, 2304.674
348.8240, 2475.894
350.0280, 2506.338
351.2330, 2626.817
352.4370, 2737.539
353.6410, 2847.745
354.8440, 3008.434
356.0480, 2926.645
357.2520, 3207.402
358.4550, 3281.763
359.6580, 3471.720
360.8610, 3763.305
362.0640, 3776.434
363.2660, 4053.163
364.4690, 4012.391
365.6710, 4326.199
366.8730, 4384.540
368.0750, 4510.486
369.2770, 4642.015
370.4780, 4572.076
371.6800, 4575.578
372.8810, 4708.409
374.0820, 4494.350
375.2830, 4243.402
376.4830, 4195.549
377.6840, 4161.945
378.8840, 4065.164
380.0840, 3816.753
381.2840, 3705.983
382.4840, 3533.250
383.6840, 3383.215
384.8830, 3175.901
386.0830, 3171.752
387.2820, 2936.268
388.4810, 2933.765
389.6800, 2874.548
390.8780, 2553.272
392.0770, 2622.639
393.2750, 2453.542
394.4730, 2260.179
395.6710, 2159.863
396.8690, 2195.717
398.0660, 2095.705
399.2640, 2029.610
400.4610, 2048.467
401.6580, 1821.425
402.8550, 1760.914
404.0520, 1574.365
405.2490, 1603.026
406.4450, 1680.678
407.6410, 1565.610
408.8370, 1665.152
410.0330, 1427.462
411.2290, 1480.677
412.4240, 1357.635
413.6200, 1516.425
414.8150, 1352.277
416.0100, 1307.047
417.2050, 1229.034
418.4000, 1138.808
419.5940, 1137.116
420.7880, 987.5625
421.9830, 1103.492
423.1770, 1027.639
424.3700, 979.1309
425.5640, 914.0537
426.7580, 779.2295
427.9510, 669.2090
429.1440, 622.1240
430.3370, 592.5166
431.5300, 538.5459
432.7220, 431.0225
433.9150, 378.5010
435.1070, 336.7686
436.2990, 391.2852
437.4910, 265.1992
438.6830, 345.0449
439.8750, 317.4053
441.0660, 280.9482
442.2570, 241.6846
443.4480, 234.9150
444.6390, 31.63477
445.8300, 68.93359
447.0210, 103.4473
448.2110, 21.30469
449.4010, 108.0479
450.5910, 70.26758
451.7810, 53.52344
452.9710, 82.07617
454.1610, 66.61133
455.3500, 216.3809
456.5390, 141.9658
457.7280, 60.02832
458.9170, 192.2715
460.1060, 83.10449
461.2940, 189.3135
462.4830, 133.3105
463.6710, 319.2383
464.8590, 223.4873
466.0470, 209.5996
467.2350, 411.0498
468.4220, 392.8086
469.6090, 564.8496
470.7970, 461.3857
471.9840, 561.8633
473.1700, 449.2822
474.3570, 591.6455
475.5440, 494.9551
476.7300, 606.2139
477.9160, 714.4238
479.1020, 683.5869
480.2880, 587.7041
481.4740, 606.7803
482.6590, 596.8154
483.8440, 641.8135
485.0300, 704.7754
486.2140, 733.7031
487.3990, 688.5996
488.5840, 833.4678
489.7680, 868.3096
490.9530, 737.1289
492.1370, 887.9258
493.3210, 799.8037
494.5040, 846.2344
495.6880, 967.9814
496.8720, 914.7764
498.0550, 904.9951
499.2380, 820.1807
500.4210, 773.2676
501.6040, 785.1768
502.7860, 746.0645
503.9690, 852.4590
505.1510, 741.5430
506.3330, 846.6113
507.5150, 843.8408
508.6970, 656.5674
509.8780, 1017.305
511.0600, 902.0557
512.2410, 660.8184
513.4220, 899.5977
514.6030, 924.3975
515.7840, 797.2227
516.9640, 1069.074
518.1440, 1006.961
519.3250, 1021.881
520.5050, 1159.838
521.6850, 1142.834
522.8640, 1213.871
524.0440, 1340.951
525.2230, 1298.080
526.4020, 1224.256
527.5820, 1254.483
528.7600, 1244.601
529.9390, 1305.264
531.1180, 1275.481
532.2960, 1479.930
533.4740, 1463.438
534.6520, 1555.005
535.8300, 1505.642
537.0080, 1383.347
538.1850, 1526.130
539.3630, 1469.988
540.5400, 1587.918
541.7170, 1679.925
542.8940, 1551.006
544.0700, 1680.159
545.2470, 1587.385
546.4230, 1588.525
547.5990, 1821.042
548.7750, 1622.479
549.9510, 1434.989
551.1270, 1557.572
552.3020, 1464.256
553.4780, 1380.025
554.6530, 1399.904
555.8280, 1539.891
557.0030, 1441.015
558.1770, 1311.279
559.3520, 1441.685
560.5260, 1283.267
561.7000, 1316.019
562.8740, 1289.940
564.0480, 1223.028
565.2220, 1212.277
566.3950, 1356.708
567.5680, 1272.312
568.7420, 1240.109
569.9150, 1364.106
571.0870, 1212.265
572.2600, 1418.672
573.4320, 1182.268
574.6050, 1390.799
575.7770, 1227.475
576.9490, 1343.244
578.1210, 1252.522
579.2920, 1329.634
580.4640, 1074.401
581.6350, 1105.390
582.8060, 933.5234
583.9770, 1071.816
585.1480, 1253.455
586.3190, 847.4941
587.4890, 1144.865
588.6590, 1009.534
589.8290, 1039.128
590.9990, 1009.268
592.1690, 913.4463
593.3390, 905.9141
594.5080, 875.7471
595.6770, 826.0703
596.8470, 783.9824
598.0160, 782.9902
599.1840, 589.0762
600.3530, 712.2373
601.5210, 510.4668
602.6900, 575.7715
603.8580, 568.1543
605.0260, 649.6035
606.1930, 740.1182
607.3610, 568.6982
608.5280, 575.3398
609.6960, 639.0449
610.8630, 781.8086
612.0300, 648.6318
613.1970, 674.5107
614.3630, 525.4482
615.5300, 671.4414
616.6960, 500.4912
617.8620, 573.5977
619.0280, 667.7588
620.1940, 364.9766
621.3590, 444.2510
622.5250, 313.5811
623.6900, 310.9668
624.8550, 424.4082
626.0200, 168.6846
627.1850, 313.2861
628.3490, 373.0635
629.5140, 352.4785
630.6780, 10.91602
631.8420, 84.01953
633.0060, 8.971680
634.1700, 108.7393
635.3330, 22.92285
636.4970, 271.6807
637.6600, 143.6436
638.8230, 142.1855
639.9860, 93.14551
641.1490, 34.06445
642.3110, 73.06641
643.4740, 107.7490
644.6360, 176.5254
645.7980, 32.28027
646.9600, 97.98535
648.1220, 48.34863
649.2840, 182.7354
650.4450, 182.1748
651.6060, 284.6680
652.7670, 368.2129
653.9280, 422.1816
655.0890, 406.4600
656.2500, 545.1611
657.4100, 593.1143
658.5700, 593.7168
659.7300, 708.5703
660.8900, 549.4746
662.0500, 559.4287
663.2100, 631.4316
664.3690, 584.4844
665.5280, 421.5869
666.6880, 479.7354
667.8460, 383.9326
669.0050, 396.1787
670.1640, 332.4707
671.3220, 318.9795
672.4810, 413.1943
673.6390, 317.6240
674.7970, 336.0986
675.9540, 372.6191
677.1120, 527.1836
678.2690, 529.7910
679.4270, 555.4404
680.5840, 630.1338
681.7410, 706.8691
682.8980, 656.6445
684.0540, 719.4609
685.2110, 688.3184
686.3670, 811.2158
687.5230, 859.4092
688.6790, 999.7637
689.8350, 971.2314
690.9900, 961.2568
692.1460, 1116.966
693.3010, 1093.035
694.4560, 1199.365
695.6110, 1284.693
696.7660, 1415.334
697.9210, 1602.681
699.0750, 1652.003
700.2290, 1806.715
701.3840, 1939.297
702.5370, 2026.682
703.6910, 2156.089
704.8450, 2336.043
705.9980, 2583.492
707.1520, 2913.254
708.3050, 3024.993
709.4580, 3225.475
710.6110, 3506.302
711.7630, 3918.927
712.9160, 4112.283
714.0680, 4312.768
715.2200, 4947.562
716.3720, 5363.900
717.5240, 5933.106
718.6760, 6318.675
719.8270, 6766.068
720.9780, 7383.430
722.1300, 7709.314
723.2810, 7935.218
724.4310, 8151.886
725.5820, 8224.061
726.7330, 8286.839
727.8830, 8364.819
729.0330, 8488.978
730.1830, 8420.427
731.3330, 8457.572
732.4830, 8507.512
733.6320, 8400.768
734.7810, 8669.044
735.9310, 8507.187
737.0800, 8535.322
738.2290, 8335.837
739.3770, 8470.803
740.5260, 8415.301
741.6740, 8331.113
742.8220, 8345.507
743.9700, 8359.993
745.1180, 8451.058
746.2660, 8396.991
747.4130, 8557.396
748.5610, 8375.036
749.7080, 8646.922
750.8550, 8465.820
752.0020, 8825.596
753.1490, 8603.931
754.2950, 8722.434
755.4420, 8570.721
756.5880, 8764.005
757.7340, 8854.274
758.8800, 8885.321
760.0250, 8906.523
761.1710, 8948.515
762.3160, 9017.391
763.4620, 8926.417
764.6070, 9054.325
765.7520, 9218.204
766.8960, 8983.052
768.0410, 9054.870
769.1850, 9171.655
770.3300, 9338.411
771.4740, 9268.036
772.6180, 9141.056
773.7610, 8987.716
774.9050, 8694.280
776.0480, 8318.380
777.1920, 7960.471
778.3350, 7680.620
779.4780, 7304.738
780.6200, 7199.195
781.7630, 6888.920
782.9060, 6486.930
784.0480, 6274.926
785.1900, 5892.731
786.3320, 5642.011
787.4740, 5683.253
788.6150, 5557.457
789.7570, 5209.626
790.8980, 4965.756
792.0390, 4913.848
793.1800, 4635.901
794.3210, 4473.914
795.4620, 4505.889
796.6020, 3947.821
797.7420, 3947.714
798.8830, 3757.566
800.0230, 3479.377
801.1620, 3247.146
802.3020, 2894.871
803.4420, 2816.554
804.5810, 2410.193
805.7200, 2267.789
806.8590, 2061.340
807.9980, 1926.846
809.1370, 1752.338
810.2750, 1575.724
811.4140, 1424.093
812.5520, 1269.417
813.6900, 1110.693
814.8280, 1204.923
815.9650, 945.1055
817.1030, 916.2393
818.2400, 705.3242
819.3780, 598.3604
820.5150, 465.3477
821.6520, 415.2842
822.7880, 360.1719
823.9250, 283.0088
825.0610, 257.7920
826.1980, 244.5215
827.3340, 124.1934
828.4700, 212.8047
829.6050, 40.35938
830.7410, 30.16895
831.8760, 27.81641
833.0120, 30.58301
834.1470, 87.47266
835.2820, 196.5137
836.4160, 184.7666
837.5510, 85.22559
838.6860, 175.8389
839.8200, 126.6572
840.9540, 149.6533
842.0880, 187.8418
843.2220, 223.2432
844.3550, 141.8770
845.4890, 88.70020
846.6220, 172.6875
847.7550, 56.88086
848.8880, 131.2227
850.0210, 36.75293
851.1540, 24.57910
852.2860, 144.1953
853.4190, 18.83398
854.5510, 194.2461
855.6830, 31.55078
856.8150, 87.00781
857.9460, 6.520508
859.0780, 27.82812
860.2090, 55.06641
861.3410, 96.20801
862.4720, 110.2666
863.6020, 104.2432
864.7330, 136.1387
865.8640, 62.95801
866.9940, 46.67969
868.1240, 77.30078
869.2540, 44.83008
870.3840, 68.76562
871.5140, 72.58789
872.6440, 140.8262
873.7730, 186.9883
874.9020, 314.0830
876.0320, 126.1133
877.1600, 114.0635
878.2890, 199.9307
879.4180, 176.7295
880.5460, 269.4590
881.6750, 297.1221
882.8030, 180.7217
883.9310, 357.2500
885.0590, 292.7168
886.1860, 285.1172
887.3140, 308.4541
888.4410, 408.7266
889.5680, 361.9375
890.6950, 408.0869
891.8220, 402.1758
892.9490, 399.7344
894.0750, 504.1768
895.2020, 403.0898
896.3280, 504.9424
897.4540, 508.7363
898.5800, 495.4863
899.7050, 500.1758
900.8310, 555.8086
901.9560, 557.3818
903.0820, 514.8975
904.2070, 645.3555
905.3320, 686.7568
906.4560, 623.1211
907.5810, 730.4287
908.7050, 772.7168
909.8300, 704.9512
910.9540, 850.1562
912.0780, 864.3213
913.2010, 824.4814
914.3250, 882.6113
915.4480, 825.6875
916.5720, 959.7148
917.6950, 786.7119
918.8180, 966.6963
919.9410, 1001.638
921.0630, 969.5361
922.1860, 1006.379
923.3080, 1014.192
924.4300, 1029.949
925.5520, 1179.656
926.6740, 933.3184
927.7960, 1114.926
928.9170, 1100.480
930.0390, 1007.979
931.1600, 1208.430
932.2810, 1175.830
933.4020, 1253.182
934.5230, 1307.487
935.6430, 1212.743
936.7640, 1430.946
937.8840, 1284.096
939.0040, 1300.191
940.1240, 1401.234
941.2440, 1421.225
942.3630, 1462.161
943.4830, 1606.047
944.6020, 1719.879
945.7210, 1709.658
946.8400, 1867.387
947.9590, 1692.062
949.0770, 1808.687
950.1960, 1995.258
951.3140, 1905.780
952.4320, 1983.251
953.5500, 2095.670
954.6680, 1946.039
955.7860, 2128.358
956.9030, 2348.628
958.0210, 2123.848
959.1380, 2294.760
960.2550, 2250.500
961.3720, 2407.115
962.4890, 2291.162
963.6050, 2381.514
964.7220, 2328.492
965.8380, 2497.197
966.9540, 2366.895
968.0700, 2447.264
969.1860, 2326.913
970.3010, 2523.572
971.4170, 2360.829
972.5320, 2556.199
973.6470, 2638.752
974.7620, 2670.266
975.8770, 2462.218
976.9910, 2505.658
978.1060, 2473.768
979.2200, 2561.882
980.3340, 2427.236
981.4480, 2437.229
982.5620, 2352.400
983.6760, 2503.825
984.7890, 2467.100
985.9030, 2232.045
987.0160, 2380.429
988.1290, 2316.922
989.2420, 2248.029
990.3550, 2257.291
991.4670, 2263.562
992.5800, 2135.283
993.6920, 2295.964
994.8040, 2096.853
995.9160, 2107.211
997.0280, 2020.938
998.1390, 1990.438
999.2510, 1991.731
1000.362, 1871.711
1001.473, 1847.963
1002.584, 2081.395
1003.695, 1673.481
1004.805, 1755.512
1005.916, 1889.647
1007.026, 1671.759
1008.136, 1720.462
1009.246, 1765.681
1010.356, 1865.336
1011.466, 1855.645
1012.576, 1864.338
1013.685, 1883.860
1014.794, 1855.566
1015.903, 1874.923
1017.012, 1827.478
1018.121, 1828.761
1019.229, 1857.174
1020.338, 1910.723
1021.446, 1910.770
1022.554, 1877.225
1023.662, 1998.476
1024.770, 1922.908
1025.878, 2102.309
1026.985, 2085.404
1028.092, 2225.973
1029.200, 2113.353
1030.307, 2008.903
1031.413, 2204.160
1032.520, 2069.697
1033.627, 2019.227
1034.733, 2174.749
1035.839, 2143.266
1036.945, 2221.775
1038.051, 2175.280
1039.157, 2323.518
1040.262, 2311.023
1041.368, 2297.236
1042.473, 2328.297
1043.578, 2265.776
1044.683, 2379.339
1045.788, 2393.206
1046.893, 2300.861
1047.997, 2415.369
1049.101, 2338.599
1050.205, 2275.201
1051.309, 2241.672
1052.413, 2206.408
1053.517, 2253.152
1054.621, 2255.584
1055.724, 2174.806
1056.827, 2264.230
1057.930, 2194.693
1059.033, 2330.124
1060.136, 2255.701
1061.238, 2298.554
1062.341, 2261.583
1063.443, 2284.975
1064.545, 2315.181
1065.647, 2289.684
1066.749, 2343.793
1067.850, 2270.250
1068.952, 2286.646
1070.053, 2278.054
1071.154, 2182.460
1072.255, 2040.865
1073.356, 2155.271
1074.457, 2025.677
1075.557, 1894.083
1076.658, 1950.488
1077.758, 1895.897
1078.858, 1931.307
1079.958, 1892.718
1081.057, 1834.132
1082.157, 1745.546
1083.256, 1829.965
1084.356, 1724.385
1085.455, 1654.809
1086.554, 1676.235
1087.653, 1612.667
1088.751, 1601.102
1089.850, 1513.541
1090.948, 1572.984
1092.046, 1444.435
1093.144, 1430.893
1094.242, 1501.355
1095.340, 1450.829
1096.437, 1226.312
1097.534, 1350.816
1098.632, 1211.358
1099.729, 1370.944
1100.826, 1343.570
1101.922, 1227.254
1103.019, 1146.023
1104.115, 1230.876
1105.212, 1090.785
1106.308, 1082.779
1107.404, 931.8408
1108.499, 1002.981
1109.595, 891.8984
1110.691, 900.5615
1111.786, 686.9307
1112.881, 886.3926
1113.976, 673.9395
1115.071, 586.5420
1116.166, 669.2178
1117.260, 773.9443
1118.355, 797.7061
1119.449, 619.5479
1120.543, 571.4258
1121.637, 634.3965
1122.731, 692.4189
1123.824, 594.4658
1124.918, 420.5557
1126.011, 498.6826
1127.104, 424.8408
1128.197, 534.0225
1129.290, 494.2275
1130.382, 258.4551
1131.475, 276.7041
1132.567, 286.9824
1133.659, 347.2949
1134.751, 263.6357
1135.843, 277.0098
1136.935, 227.4160
1138.027, 262.8506
1139.118, 203.3076
1140.209, 149.7803
1141.300, 307.2686
1142.391, 219.7803
1143.482, 271.3506
1144.573, 268.9717
1145.663, 234.6133
1146.754, 46.26953
1147.844, 78.94531
1148.934, 119.6387
1150.024, 212.3477
1151.113, 236.6143
1152.203, 254.8164
1153.292, 271.3438
1154.381, 223.0674
1155.470, 118.1377
1156.559, 21.95801
1157.648, 28.20312
1158.737, 88.64258
1159.825, 121.5020
1160.913, 100.3799
1162.001, 66.72754
1163.089, 47.15820
1164.177, 58.05664
1165.265, 65.98242
1166.352, 127.9219
1167.440, 49.87695
1168.527, 60.85645
1169.614, 101.1514
1170.701, 2.826172
1171.788, 136.1836
1172.874, 20.23828
1173.961, 110.7148
1175.047, 30.31641
1176.133, 177.3457
1177.219, 88.44336
1178.305, 0.5634770
1179.390, 42.66992
1180.476, 86.77930
1181.561, 120.9102
1182.646, 52.07910
1183.731, 32.25586
1184.816, 44.56934
1185.901, 115.5918
1186.985, 14.21191
1188.070, 26.02734
1189.154, 45.14453
1190.238, 5.325195
1191.322, 0.4941410
1192.406, 40.35059
1193.489, 23.78906
1194.573, 19.92285
1195.656, 34.05176
1196.739, 29.17871
1197.822, 24.38379
1198.905, 25.57520
1199.988, 11.76855
1201.070, 64.67969
1202.153, 122.6045
1203.235, 61.54688
1204.317, 83.50391
1205.399, 159.4775
1206.481, 116.4648
1207.562, 269.4697
1208.644, 133.4902
1209.725, 241.5273
1210.806, 211.5791
1211.887, 352.6475
1212.968, 235.7314
1214.049, 197.8320
1215.129, 152.9482
1216.209, 187.2998
1217.290, 314.2275
1218.370, 297.3926
1219.450, 488.5723
1220.529, 501.7676
1221.609, 377.9785
1222.688, 202.2070
1223.768, 549.4502
1224.847, 475.7090
1225.926, 475.9824
1227.005, 586.2725
1228.083, 557.5771
1229.162, 565.5605
1230.240, 485.8955
1231.318, 502.2451
1232.396, 506.6104
1233.474, 526.7109
1234.552, 569.0273
1235.629, 631.7959
1236.707, 633.2178
1237.784, 700.6514
1238.861, 662.0977
1239.938, 784.5557
1241.015, 538.0254
1242.092, 575.5059
1243.168, 699.9980
1244.244, 574.5000
1245.321, 622.0137
1246.397, 546.5361
1247.473, 541.8398
1248.548, 637.6162
1249.624, 554.1729
1250.699, 574.7373
1251.775, 605.3125
1252.850, 577.8945
1253.925, 653.4863
1254.999, 652.0879
1256.074, 549.6973
1257.148, 588.3135
1258.223, 573.9395
1259.297, 481.5723
1260.371, 356.2129
1261.445, 493.8613
1262.519, 314.5176
1263.592, 484.1797
1264.666, 266.8506
1265.739, 238.5283
1266.812, 432.2119
1267.885, 467.9043
1268.958, 419.6016
1270.030, 409.3076
1271.103, 492.0186
1272.175, 402.6982
1273.247, 478.2490
1274.319, 561.1211
1275.391, 365.8564
1276.463, 350.8477
1277.535, 455.5947
1278.606, 461.3457
1279.677, 257.1055
1280.748, 362.8682
1281.819, 367.6387
1282.890, 287.4131
1283.961, 455.5527
1285.031, 294.7646
1286.102, 346.1865
1287.172, 463.2676
1288.242, 473.0684
1289.312, 292.9229
1290.381, 465.7354
1291.451, 390.4346
1292.520, 432.2568
1293.590, 433.5166
1294.659, 291.7324
1295.728, 331.5732
1296.797, 294.7695
1297.865, 161.6250
1298.934, 277.2969
1300.002, 176.1504
1301.070, 337.2969
1302.138, 336.5918
1303.206, 231.4717
1304.274, 229.2686
1305.341, 262.7627
1306.409, 302.4707
1307.476, 460.3281
1308.543, 405.4668
1309.610, 156.2354
1310.677, 252.1387
1311.744, 116.7783
1312.810, 217.4160
1313.877, 259.3555
1314.943, 75.51074
1316.009, 156.4678
1317.075, 339.3906
1318.140, 304.3506
1319.206, 199.1689
1320.272, 216.0986
1321.337, 216.0967
1322.402, 360.1191
1323.467, 154.3311
1324.532, 247.8320
1325.596, 103.5752
1326.661, 71.48828
1327.725, 39.39355
1328.790, 48.64941
1329.854, 99.69922
1330.918, 196.7578
1331.981, 90.82422
