##NAMES=Fluorite
##RRUFFID=R050045
##IDEAL CHEMISTRY=CaF_2_
##LOCALITY=Hunan Province, China
##OWNER=RRUFF
##SOURCE=Eugene Schlepp
##DESCRIPTION=Pale green colored cubes
##STATUS=The identification of this mineral has been confirmed by X-ray diffraction and chemical analysis
##URL=rruff.info/R050045
##MEASURED CHEMISTRY=Ca_1.000_ F_2.000_
##PIN_ID=L00437
##ORIENTATION=Laser parallel to a* (1 0 0). Fiducial mark perpendicular to laser is parallel to -b [0 -1 0]
131.042, 0.000
132.432, 1.559
133.821, 283.291
135.210, 158.751
136.599, 97.388
137.987, 198.881
139.376, 191.451
140.764, 285.387
142.152, 180.370
143.539, 226.251
144.927, 62.941
146.314, 300.297
147.701, 138.182
149.088, 186.475
150.474, 365.131
151.861, 114.047
153.247, 303.159
154.633, 82.705
156.018, 233.117
157.404, 83.594
158.789, 74.060
160.174, 264.441
161.559, 196.291
162.943, 276.923
164.327, 157.449
165.711, 228.469
167.095, 89.385
168.479, 170.353
169.862, 172.083
171.246, 62.698
172.628, 223.233
174.011, 133.966
175.394, 194.925
176.776, 85.793
178.158, 144.973
179.540, 173.721
180.922, 76.448
182.303, 176.060
183.684, 158.588
185.065, 258.126
186.446, 98.454
187.826, 128.062
189.207, 217.589
190.587, 2.883
191.967, 236.648
193.346, 147.169
194.726, 166.981
196.105, 136.366
197.484, 114.643
198.862, 141.571
200.241, 119.268
201.619, 128.313
202.997, 130.254
204.375, 79.425
205.753, 68.642
207.130, 48.226
208.507, 44.932
209.884, 97.835
211.261, 107.371
212.638, 76.898
214.014, 206.486
215.390, 226.058
216.766, 55.625
218.141, 185.196
219.517, 34.771
220.892, 74.353
222.267, 33.950
223.642, 46.438
225.016, 123.181
226.391, 47.166
227.765, 192.544
229.139, 17.741
230.512, 61.978
231.886, 141.700
233.259, 71.425
234.632, 181.151
236.005, 19.122
237.377, 200.607
238.749, 150.337
240.122, 40.062
241.493, 29.786
242.865, 59.511
244.237, 259.230
245.608, 118.946
246.979, 248.659
248.350, 88.369
249.720, 168.076
251.090, 87.778
252.461, 167.486
253.830, 157.199
255.200, 73.091
256.570, 76.614
257.939, 16.317
259.308, 76.015
260.677, 55.682
262.045, 35.316
263.414, 69.160
264.782, 105.435
266.150, 104.187
267.517, 203.836
268.885, 243.627
270.252, 123.312
271.619, 123.001
272.986, 263.024
274.353, 26.636
275.719, 159.074
277.085, 108.925
278.451, 128.779
279.817, 250.967
281.182, 58.830
282.548, 111.848
283.913, 206.887
285.278, 116.234
286.642, 215.584
288.007, 25.072
289.371, 354.418
290.735, 343.764
292.099, 153.107
293.462, 202.451
294.826, 185.195
296.189, 346.125
297.552, 114.221
298.914, 373.859
300.277, 193.566
301.639, 333.271
303.001, 343.072
304.363, 352.906
305.724, 502.770
307.086, 472.652
308.447, 692.557
309.808, 752.445
311.168, 952.375
312.529, 1283.217
313.889, 1663.158
315.249, 2193.104
316.609, 2753.053
317.969, 3723.006
319.328, 4314.740
320.687, 4744.688
322.046, 4857.771
323.405, 3977.945
324.764, 3497.883
326.122, 2637.977
327.480, 2177.895
328.838, 1767.812
330.196, 1277.730
331.553, 1077.629
332.910, 877.521
334.267, 897.406
335.624, 817.346
336.981, 627.219
338.337, 747.084
339.693, 426.939
341.049, 406.791
342.405, 516.674
343.760, 606.439
345.116, 546.189
346.471, 335.938
347.826, 515.670
349.180, 385.400
350.535, 415.127
351.889, 295.053
353.243, 324.777
354.597, 434.205
355.950, 283.926
357.304, 423.596
358.657, 253.314
360.010, 433.031
361.362, 282.744
362.715, 152.396
364.067, 272.045
365.419, 211.695
366.771, 371.336
368.123, 280.973
369.474, 250.576
370.825, 290.098
372.176, 121.299
373.527, 260.939
374.877, 180.639
376.228, 350.277
377.578, 339.912
378.928, 119.547
380.277, 229.104
381.627, 138.846
382.976, 198.318
384.325, 217.941
385.674, 97.504
387.023, 424.609
388.371, 154.287
389.719, 331.352
391.067, 251.021
392.415, 369.859
393.762, 406.059
395.110, 295.832
396.457, 489.004
397.804, 108.738
399.150, 127.541
400.497, 87.279
401.843, 103.867
403.189, 233.510
404.535, 63.105
405.881, 143.223
407.226, 152.984
408.571, 92.975
409.916, 212.729
411.261, 22.525
412.605, 292.270
413.950, 12.008
415.294, 51.758
416.638, 161.484
417.981, 72.334
419.325, 137.359
420.668, 26.852
422.011, 196.545
423.354, 26.197
424.697, 24.148
426.039, 285.527
427.381, 111.004
428.723, 259.734
430.065, 40.637
431.406, 68.971
432.748, 238.574
434.089, 71.828
435.430, 407.740
436.770, 126.045
438.111, 75.572
439.451, 325.096
440.791, 44.613
442.131, 244.113
443.471, 83.502
444.810, 283.166
446.149, 142.604
447.488, 242.039
448.827, 251.471
450.166, 110.658
451.504, 190.080
452.842, 189.498
454.180, 41.090
455.518, 288.305
456.855, 217.680
458.193, 297.064
459.530, 96.455
460.867, 305.840
462.203, 155.221
463.540, 94.596
464.876, 173.963
466.212, 103.326
467.548, 282.680
468.883, 172.027
470.219, 171.365
471.554, 310.701
472.889, 0.027
474.224, 369.336
475.558, 98.641
476.892, 247.934
478.227, 337.221
479.561, 13.498
480.894, 425.758
482.228, 34.994
483.561, 24.221
484.894, 463.424
486.227, 32.617
487.559, 291.803
488.892, 210.980
490.224, 70.164
491.556, 199.336
492.888, 238.502
494.220, 267.660
495.551, 56.811
496.882, 225.953
498.213, 125.088
499.544, 144.213
500.874, 303.334
502.205, 52.443
503.535, 311.588
504.865, 310.725
506.194, 269.852
507.524, 238.973
508.853, 108.088
510.182, 163.105
511.511, 26.293
512.840, 215.383
514.168, 234.465
515.496, 233.543
516.824, 382.611
518.152, 83.396
519.480, 222.453
520.807, 351.498
522.134, 90.535
523.461, 369.568
524.788, 308.621
526.114, 377.635
527.441, 206.643
528.767, 115.645
530.093, 524.639
531.418, 2.949
532.744, 386.014
534.069, 64.969
535.394, 233.914
536.719, 282.852
538.044, 251.783
539.368, 400.707
540.693, 49.621
542.017, 198.758
543.340, 467.654
544.664, 81.252
545.987, 190.135
547.311, 229.021
548.634, 297.896
549.956, 306.777
551.279, 267.494
552.601, 339.818
553.923, 108.674
555.245, 207.520
556.567, 160.240
557.889, 271.193
559.210, 340.012
560.531, 65.658
561.852, 343.082
563.173, 141.814
564.493, 65.363
565.813, 314.070
567.133, 72.768
568.453, 521.453
569.773, 100.125
571.092, 168.500
572.412, 387.150
573.731, 105.361
575.049, 583.850
576.368, 52.471
577.686, 295.752
579.005, 184.363
580.323, 154.432
581.640, 283.023
582.958, 81.359
584.275, 319.092
585.593, 557.652
586.909, 28.570
588.226, 457.123
589.543, 152.396
590.859, 260.895
592.175, 199.420
593.491, 142.680
594.807, 185.078
596.122, 222.922
597.438, 198.178
598.753, 376.664
600.068, 415.002
601.382, 443.469
602.697, 51.926
604.011, 216.805
605.325, 405.244
606.639, 193.672
607.952, 412.092
609.266, 160.504
610.579, 208.904
611.892, 217.297
613.205, 182.281
614.518, 460.656
615.830, 69.023
617.142, 303.201
618.454, 441.549
619.766, 229.889
621.078, 628.219
622.389, 336.539
623.700, 804.854
625.011, 793.158
626.322, 511.453
627.632, 859.738
628.943, 448.016
630.253, 596.287
631.563, 423.643
632.872, 231.895
634.182, 530.137
635.491, 198.375
636.800, 486.602
638.109, 423.039
639.418, 341.250
640.726, 576.312
642.035, 244.275
643.343, 622.463
644.651, 420.473
645.958, 418.643
647.266, 749.211
648.573, 497.357
649.880, 635.508
651.187, 633.648
652.494, 341.783
653.800, 799.850
655.106, 187.969
656.412, 546.080
657.718, 254.188
659.024, 532.287
660.329, 169.518
661.634, 177.602
662.939, 355.680
664.244, 163.748
665.549, 301.811
666.853, 309.867
668.157, 127.916
669.461, 255.781
670.765, 143.844
672.069, 171.898
673.372, 489.945
674.675, 152.014
675.978, 335.932
677.281, 103.869
678.583, 71.805
679.886, 259.734
681.188, 57.656
682.490, 245.584
683.792, 123.506
685.093, 191.420
686.394, 249.338
687.696, 22.750
688.997, 403.449
690.297, 81.324
691.598, 159.135
692.898, 97.002
694.198, 64.861
695.498, 272.717
696.798, 110.570
698.097, 38.301
699.397, 346.139
700.696, 206.029
701.995, 411.639
703.293, 189.336
704.592, 117.031
705.890, 184.721
707.188, 217.594
708.486, 339.955
709.784, 157.500
711.081, 215.043
712.378, 37.422
713.675, 9.922
714.972, 407.555
716.269, 64.975
717.565, 245.611
718.862, 273.025
720.158, 59.561
721.453, 197.424
722.749, 294.789
724.045, 231.916
725.340, 299.273
726.635, 126.582
727.930, 463.939
729.224, 101.293
730.519, 268.629
731.813, 165.980
733.107, 312.689
734.401, 380.061
735.694, 12.568
736.988, 394.785
738.281, 372.137
739.574, 10.598
740.867, 246.750
742.160, 274.098
743.452, 260.373
744.744, 467.752
746.036, 65.148
747.328, 432.543
748.620, 339.938
749.911, 157.354
751.202, 514.773
752.493, 162.193
753.784, 409.613
755.075, 307.033
756.365, 224.457
757.655, 551.881
758.945, 100.920
760.235, 326.449
761.525, 353.824
762.814, 121.197
764.103, 348.572
765.392, 145.951
766.681, 363.330
767.969, 310.713
769.258, 258.113
770.546, 575.514
771.834, 97.102
773.122, 270.254
774.409, 257.613
775.697, 94.975
776.984, 462.342
778.271, 189.709
779.558, 257.082
780.844, 404.457
782.131, 191.836
783.417, 509.219
784.703, 256.607
785.989, 233.998
787.274, 601.396
788.560, 118.803
789.845, 706.211
791.130, 413.625
792.415, 131.047
793.699, 538.479
794.983, 35.916
796.268, 743.371
797.552, 230.834
798.835, 108.303
800.119, 645.777
801.402, 46.744
802.686, 690.721
803.969, 378.191
805.251, 175.668
806.534, 513.150
807.816, 100.639
809.098, 478.135
810.380, 195.641
811.662, 143.148
812.944, 610.666
814.225, 171.775
815.506, 545.713
816.787, 713.213
818.068, 290.725
819.349, 518.242
820.629, 185.768
821.909, 523.303
823.189, 876.422
824.469, 403.986
825.749, 591.559
827.028, 269.141
828.307, 566.729
829.586, 625.119
830.865, 102.729
832.144, 760.703
833.422, 358.326
834.700, 595.959
835.978, 776.092
837.256, 383.746
838.534, 701.404
839.811, 990.852
841.088, 768.533
842.365, 1173.621
843.642, 811.328
844.919, 1039.047
846.195, 777.336
847.472, 745.076
848.748, 752.826
850.023, 682.479
851.299, 709.127
852.575, 765.910
853.850, 623.701
855.125, 746.820
856.400, 474.656
857.674, 842.502
858.949, 920.361
860.223, 798.234
861.497, 940.822
862.771, 558.732
864.045, 726.656
865.318, 784.594
866.591, 408.662
867.864, 874.498
869.137, 422.477
870.410, 424.951
871.682, 672.988
872.955, 321.041
874.227, 434.195
875.499, 772.283
876.770, 310.385
878.042, 648.504
879.313, 566.643
880.584, 504.799
881.855, 532.969
883.126, 191.156
884.396, 899.361
885.667, 227.592
886.937, 405.842
888.207, 574.109
889.476, 170.717
890.746, 1019.033
892.015, 507.400
893.284, 364.256
894.553, 802.660
895.822, 441.111
897.090, 839.586
898.359, 358.080
899.627, 466.631
900.895, 665.197
902.163, 223.814
903.430, 762.447
904.698, 501.100
905.965, 259.771
907.232, 688.459
908.499, 367.166
909.765, 605.891
911.032, 574.635
912.298, 466.969
913.564, 875.750
914.830, 684.553
916.095, 543.375
917.361, 832.217
918.626, 431.078
919.891, 869.957
921.156, 658.857
922.420, 267.777
923.685, 906.717
924.949, 369.857
926.213, 708.836
927.477, 537.836
928.740, 546.855
930.004, 725.904
931.267, 514.975
932.530, 434.064
933.793, 773.176
935.056, 252.309
936.318, 821.463
937.581, 250.641
938.843, 279.838
940.104, 879.059
941.366, 318.301
942.628, 457.566
943.889, 466.854
945.150, 266.162
946.411, 835.490
947.672, 364.844
948.932, 764.217
950.193, 403.613
951.453, 303.035
952.713, 822.475
953.973, 489.533
955.232, 669.018
956.491, 658.525
957.751, 58.055
959.010, 777.607
960.268, 187.180
961.527, 546.777
962.785, 476.395
964.044, 236.035
965.302, 313.840
966.559, 404.312
967.817, 4.016
969.075, 265.629
970.332, 205.379
971.589, 15.148
972.846, 234.941
974.102, 165.246
975.359, 357.551
976.615, 57.359
977.871, 187.188
979.127, 357.039
980.383, 93.082
981.638, 456.840
982.893, 23.219
984.149, 296.750
985.404, 416.734
986.658, 93.258
987.913, 446.750
989.167, 336.777
990.421, 73.164
991.675, 536.902
992.929, 43.016
994.183, 127.109
995.436, 117.258
996.689, 32.570
997.942, 547.613
999.195, 417.824
1000.448, 498.059
1001.700, 1068.309
1002.952, 498.582
1004.204, 608.879
1005.456, 523.305
1006.708, 173.707
1007.959, 544.156
1009.210, 194.629
1010.461, 185.117
1011.712, 577.922
1012.963, 108.523
1014.213, 519.141
1015.464, 729.781
1016.714, 30.441
1017.964, 861.145
1019.214, 181.879
1020.463, 602.633
1021.712, 713.434
1022.962, 314.250
1024.210, 1005.098
1025.459, 445.984
1026.708, 356.891
1027.956, 987.832
1029.204, 199.203
1030.452, 890.180
1031.700, 571.250
1032.948, 392.262
1034.195, 703.297
1035.442, 86.531
1036.689, 467.602
1037.936, 788.715
1039.183, 3.895
1040.429, 1005.051
1041.676, 573.086
1042.922, 384.281
1044.168, 895.543
1045.413, 94.242
1046.659, 1055.539
1047.904, 656.934
1049.149, 337.281
1050.394, 1148.707
1051.639, 696.863
1052.884, 238.336
1054.128, 1039.824
1055.372, 391.328
1056.616, 982.844
1057.860, 364.398
1059.104, 425.961
1060.347, 957.539
1061.590, 249.398
1062.833, 771.055
1064.076, 702.715
1065.319, 394.770
1066.561, 616.492
1067.803, 498.223
1069.046, 319.969
1070.287, 951.719
1071.529, 203.492
1072.771, 805.277
1074.012, 707.062
1075.253, 469.031
1076.494, 940.969
1077.735, 542.914
1078.975, 586.711
1080.216, 868.719
1081.456, 260.836
1082.696, 832.977
1083.936, 705.129
1085.175, 507.402
1086.415, 1119.688
1087.654, 631.980
1088.893, 744.320
1090.132, 746.664
1091.371, 99.020
1092.609, 1101.379
1093.847, 503.746
1095.085, 486.129
1096.323, 728.512
1097.561, 410.910
1098.799, 533.512
1100.036, 385.922
1101.273, 188.332
1102.510, 410.754
1103.747, 273.195
1104.983, 425.883
1106.220, 878.332
1107.456, 160.785
1108.692, 543.254
1109.928, 325.723
1111.163, 118.203
1112.399, 620.684
1113.634, 166.824
1114.869, 95.590
1116.104, 288.055
1117.339, 49.484
1118.573, 452.969
1119.808, 125.426
1121.042, 17.887
1122.276, 620.352
1123.509, 72.754
1124.743, 649.691
1125.976, 272.137
1127.210, 154.582
1128.443, 657.031
1129.675, 386.965
1130.908, 129.418
1132.141, 602.488
1133.373, 54.949
1134.605, 637.410
1135.837, 297.367
1137.068, 169.852
1138.300, 644.301
1139.531, 345.012
1140.762, 317.488
1141.993, 651.801
1143.224, 164.289
1144.455, 298.031
1145.685, 779.945
1146.915, 302.418
1148.145, 505.328
1149.375, 237.789
1150.605, 480.254
1151.834, 703.441
1153.063, 84.105
1154.292, 298.516
1155.521, 476.641
1156.750, 99.039
1157.978, 721.766
1159.207, 45.855
1160.435, 546.484
1161.663, 429.879
1162.891, 92.199
1164.118, 425.758
1165.345, 418.406
1166.573, 260.695
1167.800, 604.219
1169.026, 286.480
1170.253, 338.730
1171.480, 573.086
1172.706, 105.309
1173.932, 657.516
1175.158, 223.023
1176.383, 5.199
1177.609, 737.602
1178.834, 90.305
1180.059, 222.430
1181.284, 626.207
1182.509, 31.703
1183.734, 180.344
1184.958, 317.410
1186.182, 60.578
1187.406, 642.012
1188.630, 103.582
1189.854, 258.270
1191.077, 470.215
1192.301, 107.250
1193.524, 354.480
1194.747, 296.051
1195.969, 121.742
1197.192, 890.105
1198.414, 84.453
1199.636, 397.023
1200.858, 409.602
1202.080, 201.578
1203.302, 722.977
1204.523, 319.969
1205.744, 341.324
1206.966, 792.645
1208.186, 159.793
1209.407, 531.066
1210.628, 732.305
1211.848, 151.543
1213.068, 932.723
1214.288, 463.875
1215.508, 325.008
1216.727, 1246.105
1217.947, 289.191
1219.166, 650.230
1220.385, 1011.242
1221.604, 265.973
1222.822, 966.922
1224.041, 798.223
1225.259, 29.246
1226.477, 1310.223
1227.695, 635.094
1228.913, 649.270
1230.130, 1040.438
1231.348, 478.773
1232.565, 1399.715
1233.782, 790.402
1234.999, 630.371
1236.215, 1221.000
1237.432, 842.090
1238.648, 482.883
1239.864, 1083.461
1241.080, 595.875
1242.296, 706.414
1243.511, 856.934
1244.726, 338.387
1245.942, 1348.871
1247.156, 539.332
1248.371, 651.316
1249.586, 1541.742
1250.800, 342.148
1252.014, 1192.531
1253.228, 1092.898
1254.442, 455.820
1255.656, 1526.148
1256.869, 926.445
1258.083, 527.238
1259.296, 1277.500
1260.509, 769.582
1261.722, 1080.855
1262.934, 941.016
1264.147, 840.270
1265.359, 1270.387
1266.571, 760.480
1267.783, 862.527
1268.994, 1452.539
1270.206, 739.547
1271.417, 1009.527
1272.628, 1249.480
1273.839, 439.402
1275.050, 770.176
1276.260, 1110.043
1277.471, 210.691
1278.681, 1091.246
1279.891, 701.012
1281.101, 486.262
1282.310, 1105.980
1283.520, 115.645
1284.729, 896.188
1285.938, 945.711
1287.147, 85.207
1288.356, 855.328
1289.564, 194.602
1290.773, 534.023
1291.981, 1123.230
1293.189, 372.359
1294.397, 621.426
1295.604, 890.461
1296.812, 309.406
1298.019, 1028.324
1299.226, 433.090
1300.433, 11.934
1301.640, 1170.535
1302.846, 409.023
1304.053, 597.285
1305.259, 733.184
1306.465, 241.105
1307.671, 1148.906
1308.876, 216.656
1310.082, 414.363
1311.287, 1192.004
1312.492, 219.590
1313.697, 797.129
1314.902, 734.605
1316.106, 132.035
1317.310, 1229.379
1318.515, 656.676
1319.719, 73.914
1320.922, 1221.070
1322.126, 447.746
1323.329, 374.785
1324.533, 751.672
1325.736, 178.574
1326.939, 905.406
1328.141, 539.992
1329.344, 26.672
1330.546, 1013.195
1331.748, 355.605
1332.950, 111.977
1334.152, 841.410
1335.354, 62.375
1336.555, 333.730
1337.757, 892.809
1338.958, 221.230
1340.159, 374.578
1341.359, 431.379
1342.560, 37.055
1343.760, 765.965
1344.960, 221.520
1346.160, 357.020
1347.360, 962.465
1348.560, 2.141
1349.759, 833.176
1350.959, 868.441
1352.158, 6.344
1353.357, 828.555
1354.555, 653.652
1355.754, 41.293
1356.952, 1703.348
1358.151, 1328.297
1359.349, 503.195
1360.546, 1118.070
1361.744, 122.922
1362.941, 587.742
1364.139, 692.551
1365.336, 292.648
1366.533, 1252.012
1367.730, 411.039
1368.926, 74.242
1370.123, 468.660
1371.319, 296.090
1372.515, 48.598
1373.711, 403.086
1374.906, 352.711
1376.102, 441.141
1377.297, 677.277
1378.492, 61.676
1379.687, 886.609
1380.882, 384.855
1382.077, 453.043
1383.271, 1471.188
1384.465, 149.066
1385.659, 877.105
1386.853, 1094.828
1388.047, 282.773
1389.240, 1060.637
1390.434, 868.457
1391.627, 196.266
1392.820, 1244.066
1394.013, 871.820
1395.205, 549.523
1396.398, 1347.188
1397.590, 104.820
1398.782, 822.402
1399.974, 1238.773
1401.166, 406.230
1402.357, 903.578
1403.549, 628.488
1404.740, 272.449
1405.931, 1498.012
1407.122, 295.078
1408.313, 601.535
1409.503, 1217.562
1410.693, 164.219
1411.883, 823.656
1413.073, 980.000
1414.263, 575.375
1415.453, 890.441
1416.642, 1036.668
1417.831, 331.621
1419.020, 1315.285
1420.209, 351.863
1421.398, 363.680
1422.587, 1379.000
1423.775, 13.016
1424.963, 1119.453
1426.151, 1178.336
1427.339, 320.008
1428.526, 1070.859
1429.714, 616.016
1430.901, 320.070
1432.088, 1449.449
1433.275, 463.664
1434.462, 828.789
1435.648, 1185.434
1436.835, 501.430
1438.021, 1137.234
1439.207, 1239.062
1440.393, 804.699
1441.579, 1796.727
1442.764, 1332.348
1443.949, 934.004
1445.135, 1969.211
1446.320, 767.664
1447.504, 1324.215
1448.689, 2072.977
1449.873, 806.988
1451.058, 1618.305
1452.242, 1559.949
1453.426, 887.859
1454.609, 2107.363
1455.793, 1668.641
1456.976, 886.227
1458.159, 2076.918
1459.342, 1181.352
1460.525, 1241.367
1461.708, 1999.855
1462.890, 1016.648
1464.073, 1743.273
1465.255, 1792.035
1466.437, 845.312
1467.619, 1883.430
1468.800, 1551.199
1469.982, 1026.148
1471.163, 1968.684
1472.344, 978.957
1473.525, 1024.699
1474.706, 1927.402
1475.886, 740.504
1477.066, 985.516
1478.247, 1780.734
1479.427, 135.766
1480.607, 1530.578
1481.786, 1184.812
1482.966, 610.062
1484.145, 1616.688
1485.324, 555.180
1486.503, 803.766
1487.682, 1472.281
1488.860, 620.684
1490.039, 909.070
1491.217, 1317.453
1492.395, 395.922
1493.573, 924.508
1494.751, 963.234
1495.928, 342.285
1497.106, 1312.574
1498.283, 593.551
1499.460, 525.219
1500.637, 1024.324
1501.814, 327.477
1502.990, 411.441
1504.166, 1356.109
1505.342, 251.652
1506.518, 918.293
1507.694, 676.289
1508.870, 54.109
1510.045, 1257.211
1511.221, 470.938
1512.396, 187.133
1513.571, 1646.395
1514.745, 214.609
1515.920, 479.625
1517.094, 880.020
1518.269, 1.684
1519.443, 0.000
##END=



