##NAMES=Fluorophlogopite
##RRUFFID=R040039
##IDEAL CHEMISTRY=KMg_3_(Si_3_Al)O_10_F_2_
##LOCALITY=Franklin, Sussex County, New Jersey, USA
##OWNER=RRUFF
##SOURCE=University of Arizona Mineral Museum
##DESCRIPTION=Brown hexagonal sheets
##STATUS=The identification of this mineral has been confirmed by X-ray diffraction and chemical analysis
##URL=rruff.info/R040039
##MEASURED CHEMISTRY=(K_0.92_Na_0.06_[box]_0.02_)_Σ=1_(Mg_2.94_Fe_0.04_Ti_0.02_)_Σ=3_(Si_2.98_Al_1.02_)O_10_(F_1.24_(OH)_0.76_)_Σ=2_; OH estimated by charge balance
##PIN_ID=L00415
##ORIENTATION=Laser parallel to [-1 0 -1]. Fiducial mark perpendicular to laser is parallel to b* (0 1 0)
96.233, 0.000
97.628, 196.577
99.023, 774.594
100.418, 1209.138
101.812, 1974.487
103.206, 2518.373
104.600, 2863.655
105.994, 3045.394
107.387, 2824.863
108.781, 2478.292
110.174, 2140.763
111.566, 1957.136
112.959, 1723.996
114.351, 1613.865
115.744, 1650.142
117.136, 1542.335
118.527, 1501.304
119.919, 1259.836
121.310, 1242.787
122.701, 1029.487
124.092, 1124.011
125.482, 928.251
126.873, 869.048
128.263, 865.625
129.653, 720.685
131.042, 771.684
132.432, 560.957
133.821, 445.759
135.210, 468.419
136.599, 406.056
137.987, 389.731
139.376, 346.998
140.764, 287.480
142.152, 211.515
143.539, 163.857
144.927, 123.976
146.314, 53.901
147.701, 10.660
149.088, 59.727
150.474, 64.661
151.861, 94.860
153.247, 77.567
154.633, 63.345
156.018, 91.187
157.404, 99.085
158.789, 90.979
160.174, 35.032
161.559, 67.072
162.943, 31.151
164.327, 9.023
165.711, 10.963
167.095, 141.303
168.479, 173.297
169.862, 305.205
171.246, 315.609
172.628, 475.540
174.011, 613.442
175.394, 725.214
176.776, 862.095
178.158, 1030.312
179.540, 1320.388
180.922, 1569.552
182.303, 1927.821
183.684, 2486.208
185.065, 3133.727
186.446, 4279.385
187.826, 5449.179
189.207, 7329.106
190.587, 9126.162
191.967, 12073.337
193.346, 14530.628
194.726, 16508.021
196.105, 17725.506
197.484, 17293.068
198.862, 16140.717
200.241, 13648.444
201.619, 10986.241
202.997, 8574.109
204.375, 6502.041
205.753, 4958.086
207.130, 3757.261
208.507, 2939.576
209.884, 2443.014
211.261, 1943.535
212.638, 1595.055
214.014, 1341.603
215.390, 1221.185
216.766, 978.795
218.141, 785.426
219.517, 701.069
220.892, 494.721
222.267, 456.382
223.642, 250.053
225.016, 267.731
226.391, 171.417
227.765, 196.112
229.139, 101.813
230.512, 76.522
231.886, 109.237
233.259, 55.957
234.632, 58.683
236.005, 13.414
237.377, 58.151
238.749, 36.104
240.122, 57.351
241.493, 33.588
242.865, 82.819
244.237, 127.044
245.608, 105.256
246.979, 133.456
248.350, 113.664
249.720, 63.896
251.090, 112.198
252.461, 174.596
253.830, 49.150
255.200, 77.865
256.570, 5.298
257.939, 148.833
259.308, 19.043
260.677, 206.065
262.045, 220.037
263.414, 331.897
264.782, 551.907
266.150, 715.442
267.517, 980.719
268.885, 1269.392
270.252, 1596.366
271.619, 2276.580
272.986, 2848.263
274.353, 3434.517
275.719, 4171.156
277.085, 4782.849
278.451, 5070.573
279.817, 4983.314
281.182, 4513.072
282.548, 3837.838
283.913, 3260.608
285.278, 2459.385
286.642, 2062.161
288.007, 1686.880
289.371, 1521.453
290.735, 1395.906
292.099, 1180.199
293.462, 1158.396
294.826, 1034.529
296.189, 1203.665
297.552, 1220.812
298.914, 1328.959
300.277, 1417.095
301.639, 1610.208
303.001, 1930.300
304.363, 2072.371
305.724, 2563.424
307.086, 2998.458
308.447, 3484.477
309.808, 3952.478
311.168, 4368.465
312.529, 4795.495
313.889, 5189.741
315.249, 5345.296
316.609, 5586.209
317.969, 5511.380
319.328, 5658.993
320.687, 5557.972
322.046, 5485.168
323.405, 5320.295
324.764, 5092.102
326.122, 4771.929
327.480, 4227.713
328.838, 3919.517
330.196, 3516.891
331.553, 3053.628
332.910, 2690.245
334.267, 2301.737
335.624, 2022.045
336.981, 1821.167
338.337, 1564.146
339.693, 1428.961
341.049, 1287.692
342.405, 1162.411
343.760, 1076.976
345.116, 991.490
346.471, 947.576
347.826, 881.300
349.180, 859.024
350.535, 829.748
351.889, 804.470
353.243, 815.189
354.597, 846.906
355.950, 828.620
357.304, 814.329
358.657, 890.033
360.010, 934.732
361.362, 1006.425
362.715, 998.113
364.067, 1264.793
365.419, 1359.468
366.771, 1605.134
368.123, 1968.792
369.474, 2087.443
370.825, 2191.084
372.176, 2229.777
373.527, 2027.398
374.877, 1857.083
376.228, 1515.817
377.578, 1380.582
378.928, 1133.384
380.277, 955.252
381.627, 868.131
382.976, 764.080
384.325, 712.856
385.674, 579.602
387.023, 574.199
388.371, 609.696
389.719, 613.970
391.067, 500.461
392.415, 451.740
393.762, 551.562
395.110, 454.193
396.457, 477.162
397.804, 418.202
399.150, 370.894
400.497, 423.116
401.843, 365.239
403.189, 383.182
404.535, 352.409
405.881, 276.218
407.226, 328.064
408.571, 202.091
409.916, 285.317
411.261, 192.796
412.605, 218.383
413.950, 168.033
415.294, 65.238
416.638, 168.394
417.981, 107.498
419.325, 66.846
420.668, 72.505
422.011, 6.825
423.354, 87.384
424.697, 22.404
426.039, 115.635
427.381, 48.961
428.723, 124.285
430.065, 125.475
431.406, 142.479
432.748, 135.865
434.089, 143.925
435.430, 177.928
436.770, 251.505
438.111, 235.037
439.451, 351.167
440.791, 267.812
442.131, 299.261
443.471, 398.404
444.810, 401.299
446.149, 456.652
447.488, 498.418
448.827, 545.426
450.166, 639.141
451.504, 677.831
452.842, 740.497
454.180, 754.975
455.518, 698.761
456.855, 762.358
458.193, 673.933
459.530, 677.485
460.867, 561.014
462.203, 651.521
463.540, 690.003
464.876, 635.464
466.212, 617.901
467.548, 507.316
468.883, 470.708
470.219, 262.076
471.554, 179.421
472.889, 1.744
474.224, 0.016
475.558, 24.755
476.892, 82.582
478.227, 28.488
479.561, 59.449
480.894, 68.482
482.228, 1.413
483.561, 72.727
484.894, 125.060
486.227, 97.828
487.559, 149.580
488.892, 257.316
490.224, 277.029
491.556, 482.721
492.888, 518.391
494.220, 612.039
495.551, 671.665
496.882, 755.270
498.213, 893.855
499.544, 829.420
500.874, 949.967
502.205, 925.495
503.535, 872.005
504.865, 972.496
506.194, 899.969
507.524, 955.422
508.853, 919.856
510.182, 971.272
511.511, 994.670
512.840, 841.048
514.168, 879.407
515.496, 678.748
516.824, 636.068
518.152, 541.370
519.480, 433.654
520.807, 503.918
522.134, 317.163
523.461, 224.389
524.788, 276.601
526.114, 223.793
527.441, 211.967
528.767, 169.129
530.093, 219.272
531.418, 148.417
532.744, 171.542
534.069, 145.647
535.394, 131.744
536.719, 121.819
538.044, 111.877
539.368, 102.684
540.693, 99.651
542.017, 89.968
543.340, 108.970
544.664, 110.959
545.987, 143.928
547.311, 181.876
548.634, 57.818
549.956, 160.732
551.279, 6.638
552.601, 79.509
553.923, 118.357
555.245, 156.187
556.567, 152.000
557.889, 111.801
559.210, 102.590
560.531, 99.182
561.852, 100.141
563.173, 98.983
564.493, 69.713
565.813, 114.523
567.133, 132.355
568.453, 163.232
569.773, 31.135
571.092, 87.049
572.412, 106.993
573.731, 77.955
575.049, 121.431
576.368, 56.435
577.686, 15.444
579.005, 13.157
580.323, 32.928
581.640, 38.015
582.958, 6.167
584.275, 37.283
585.593, 19.517
586.909, 58.506
588.226, 40.800
589.543, 54.149
590.859, 92.561
592.175, 40.054
593.491, 55.603
594.807, 0.786
596.122, 1.143
597.438, 11.535
598.753, 45.750
600.068, 59.009
601.382, 91.245
602.697, 144.461
604.011, 59.658
605.325, 184.833
606.639, 98.990
607.952, 234.127
609.266, 194.246
610.579, 259.349
611.892, 401.434
613.205, 323.502
614.518, 513.554
615.830, 534.589
617.142, 562.607
618.454, 798.608
619.766, 722.592
621.078, 926.560
622.389, 908.510
623.700, 1137.445
625.011, 1400.362
626.322, 1404.264
627.632, 1649.149
628.943, 1851.018
630.253, 1965.870
631.563, 2152.649
632.872, 2309.316
634.182, 2606.426
635.491, 2592.903
636.800, 2884.780
638.109, 3010.714
639.418, 2970.083
640.726, 3075.841
642.035, 3053.951
643.343, 3079.554
644.651, 3132.848
645.958, 3080.527
647.266, 3199.200
648.573, 3193.859
649.880, 3183.506
651.187, 3448.142
652.494, 3380.765
653.800, 3578.376
655.106, 3675.974
656.412, 3834.560
657.718, 4064.132
659.024, 4198.694
660.329, 4413.244
661.634, 4741.781
662.939, 4906.308
664.244, 5480.821
665.549, 5755.323
666.853, 6379.813
668.157, 7024.291
669.461, 7668.757
670.765, 8553.214
672.069, 9397.659
673.372, 11122.090
674.675, 12316.512
675.978, 13990.924
677.281, 15935.319
678.583, 17649.891
679.886, 19324.262
681.188, 20409.551
682.490, 21053.918
683.792, 21298.420
685.093, 20564.312
686.394, 19928.631
687.696, 18727.740
688.997, 17341.975
690.297, 15706.266
691.598, 14182.754
692.898, 12786.891
694.198, 11101.830
695.498, 9697.225
696.798, 8621.309
698.097, 7160.432
699.397, 6314.556
700.696, 5360.334
701.995, 4714.480
703.293, 4250.742
704.592, 3643.373
705.890, 3313.743
707.188, 2892.137
708.486, 2685.457
709.784, 2455.145
711.081, 2160.695
712.378, 2079.765
713.675, 1940.610
714.972, 1760.559
716.269, 1648.358
717.565, 1554.663
718.862, 1534.491
720.158, 1415.059
721.453, 1313.959
722.749, 1407.771
724.045, 1294.094
725.340, 1260.349
726.635, 1249.216
727.930, 1191.775
729.224, 1177.517
730.519, 1231.580
731.813, 1179.339
733.107, 1181.640
734.401, 1299.312
735.694, 1135.767
736.988, 1150.599
738.281, 1245.446
739.574, 1064.284
740.867, 1093.356
742.160, 1192.030
743.452, 1060.677
744.744, 1118.433
746.036, 1115.347
747.328, 1076.850
748.620, 1119.649
749.911, 993.475
751.202, 1093.696
752.493, 998.931
753.784, 943.534
755.075, 1043.592
756.365, 834.814
757.655, 997.311
758.945, 832.023
760.235, 767.247
761.525, 863.024
762.814, 730.529
764.103, 711.294
765.392, 792.053
766.681, 693.807
767.969, 757.691
769.258, 772.432
770.546, 766.244
771.834, 777.972
773.122, 689.695
774.409, 773.411
775.697, 750.122
776.984, 874.826
778.271, 850.525
779.558, 799.219
780.844, 934.908
782.131, 854.591
783.417, 961.269
784.703, 1018.941
785.989, 964.608
787.274, 1061.365
788.560, 984.051
789.845, 992.753
791.130, 1158.353
792.415, 1042.104
793.699, 1114.879
794.983, 1050.682
796.268, 1073.495
797.552, 1070.336
798.835, 890.173
800.119, 945.008
801.402, 792.838
802.686, 812.664
803.969, 838.602
805.251, 643.419
806.534, 733.292
807.816, 572.102
809.098, 472.907
810.380, 514.708
811.662, 414.505
812.944, 491.298
814.225, 373.088
815.506, 382.873
816.787, 391.655
818.068, 258.433
819.349, 289.208
820.629, 324.978
821.909, 195.745
823.189, 289.509
824.469, 199.269
825.749, 126.026
827.028, 156.779
828.307, 65.529
829.586, 189.276
830.865, 96.020
832.144, 11.760
833.422, 82.496
834.700, 15.772
835.978, 51.949
837.256, 14.667
838.534, 27.621
839.811, 64.075
841.088, 79.232
842.365, 55.416
843.642, 71.062
844.919, 39.295
846.195, 53.327
847.472, 14.052
848.748, 24.440
850.023, 15.158
851.299, 86.247
852.575, 0.688
853.850, 32.134
855.125, 6.402
856.400, 8.942
857.674, 42.521
858.949, 94.991
860.223, 39.495
861.497, 62.996
862.771, 34.494
864.045, 9.008
865.318, 62.482
866.591, 13.022
867.864, 25.464
869.137, 101.963
870.410, 44.537
871.682, 28.938
872.955, 13.579
874.227, 59.104
875.499, 67.341
876.770, 107.211
878.042, 0.181
879.313, 78.569
880.584, 100.039
881.855, 36.301
883.126, 29.347
884.396, 45.993
885.667, 24.331
886.937, 40.312
888.207, 69.030
889.476, 64.378
890.746, 99.731
892.015, 191.103
893.284, 15.489
894.553, 112.890
895.822, 58.299
897.090, 100.731
898.359, 80.182
899.627, 64.685
900.895, 152.218
902.163, 143.777
903.430, 52.383
904.698, 205.996
905.965, 59.617
907.232, 85.261
908.499, 114.908
909.765, 83.560
911.032, 84.213
912.298, 85.866
913.564, 141.522
914.830, 104.179
916.095, 56.838
917.361, 142.499
918.626, 42.159
919.891, 2.821
921.156, 139.481
922.420, 15.142
923.685, 161.810
924.949, 67.476
926.213, 109.144
927.477, 141.812
928.740, 71.482
930.004, 84.162
931.267, 148.843
932.530, 45.524
933.793, 166.208
935.056, 68.891
936.318, 81.574
937.581, 148.259
938.843, 13.944
940.104, 89.630
941.366, 112.316
942.628, 15.997
943.889, 76.684
945.150, 33.364
946.411, 194.044
947.672, 84.726
948.932, 121.407
950.193, 107.090
951.453, 95.773
952.713, 108.457
953.973, 167.140
955.232, 5.823
956.491, 189.504
957.751, 19.185
959.010, 122.865
960.268, 173.547
961.527, 51.229
962.785, 174.910
964.044, 222.592
965.302, 74.275
966.559, 271.958
967.817, 169.641
969.075, 118.323
970.332, 297.006
971.589, 131.688
972.846, 362.370
974.102, 313.052
975.359, 218.733
976.615, 356.414
977.871, 248.095
979.127, 355.775
980.383, 412.455
981.638, 395.134
982.893, 416.812
984.149, 400.313
985.404, 459.992
986.658, 512.750
987.913, 445.420
989.167, 515.936
990.421, 444.058
991.675, 471.735
992.929, 655.801
994.183, 497.479
995.436, 634.156
996.689, 705.048
997.942, 593.727
999.195, 814.759
1000.448, 760.397
1001.700, 962.928
1002.952, 1030.382
1004.204, 983.747
1005.456, 1057.608
1006.708, 958.552
1007.959, 893.066
1009.210, 923.600
1010.461, 795.971
1011.712, 923.394
1012.963, 904.370
1014.213, 890.002
1015.464, 992.094
1016.714, 729.160
1017.964, 867.042
1019.214, 838.005
1020.463, 656.749
1021.712, 881.894
1022.962, 757.088
1024.210, 836.990
1025.459, 973.464
1026.708, 871.803
1027.956, 1113.040
1029.204, 1219.710
1030.452, 1299.396
1031.700, 1668.106
1032.948, 1709.594
1034.195, 1884.703
1035.442, 2011.410
1036.689, 1925.787
1037.936, 1947.292
1039.183, 1662.220
1040.429, 1688.212
1041.676, 1587.192
1042.922, 1218.847
1044.168, 1264.642
1045.413, 1091.754
1046.659, 940.874
1047.904, 1182.766
1049.149, 847.512
1050.394, 956.235
1051.639, 1039.642
1052.884, 819.396
1054.128, 1004.128
1055.372, 978.988
1056.616, 1023.574
1057.860, 1094.380
1059.104, 949.659
1060.347, 1048.479
1061.590, 1114.209
1062.833, 1039.259
1064.076, 1222.989
1065.319, 1050.091
1066.561, 1101.122
1067.803, 1296.860
1069.046, 1139.967
1070.287, 1436.698
1071.529, 1339.504
1072.771, 1310.629
1074.012, 1528.364
1075.253, 1527.233
1076.494, 1541.166
1077.735, 1806.919
1078.975, 1671.254
1080.216, 1994.007
1081.456, 1968.756
1082.696, 2023.737
1083.936, 2388.506
1085.175, 2245.408
1086.415, 2462.242
1087.654, 2658.019
1088.893, 2564.917
1090.132, 2765.693
1091.371, 2739.467
1092.609, 2832.823
1093.847, 2966.589
1095.085, 2720.350
1096.323, 2854.346
1097.561, 2818.098
1098.799, 2752.438
1100.036, 2936.321
1101.273, 2780.057
1102.510, 2743.872
1103.747, 2707.608
1104.983, 2551.223
1106.220, 2445.500
1107.456, 2342.614
1108.692, 2095.765
1109.928, 2029.481
1111.163, 1793.192
1112.399, 1712.468
1113.634, 1505.168
1114.869, 1220.861
1116.104, 1245.815
1117.339, 1076.500
1118.573, 916.178
1119.808, 989.851
1121.042, 764.517
1122.276, 1165.253
1123.509, 1237.909
1124.743, 783.559
1125.976, 680.202
1127.210, 529.839
1128.443, 294.470
1129.675, 362.094
1130.908, 243.713
1132.141, 235.561
1133.373, 192.174
1134.605, 138.781
1135.837, 149.386
1137.068, 197.983
1138.300, 133.575
1139.531, 273.167
1140.762, 42.752
1141.993, 191.649
1143.224, 232.239
1144.455, 3.177
1145.685, 262.800
1146.915, 40.374
1148.145, 11.942
1149.375, 241.505
1150.605, 30.938
1151.834, 192.614
1153.063, 125.160
1154.292, 21.294
1155.521, 185.634
1156.750, 372.150
1157.978, 484.669
1159.207, 106.434
1160.435, 29.945
1161.663, 156.637
1162.891, 93.194
1164.118, 18.324
1165.345, 137.151
1166.573, 49.396
1167.800, 91.016
1169.026, 130.421
1170.253, 20.175
1171.480, 98.203
1172.706, 53.580
1173.932, 3.046
1175.158, 134.310
1176.383, 51.683
1177.609, 283.045
1178.834, 268.668
1180.059, 37.966
1181.284, 179.362
1182.509, 110.687
1183.734, 52.001
1184.958, 172.584
1186.182, 61.174
1187.406, 46.426
1188.630, 51.552
1189.854, 6.025
1191.077, 75.176
1192.301, 23.538
1193.524, 22.708
1194.747, 78.228
1195.969, 98.765
1197.192, 146.301
1198.414, 13.253
1199.636, 81.459
1200.858, 193.672
1202.080, 110.176
1203.302, 29.679
1204.523, 123.231
1205.744, 18.495
1206.966, 120.352
1208.186, 182.518
1209.407, 67.776
1210.628, 159.587
1211.848, 62.528
1213.068, 79.394
1214.288, 163.170
1215.508, 63.668
1216.727, 120.398
1217.947, 135.332
1219.166, 3.229
1220.385, 273.444
1221.604, 134.869
1222.822, 119.811
1224.041, 185.440
1225.259, 17.316
1226.477, 216.607
1227.695, 223.206
1228.913, 121.382
1230.130, 231.982
1231.348, 140.149
1232.565, 164.181
1233.782, 277.667
1234.999, 132.465
1236.215, 254.125
1237.432, 304.552
1238.648, 73.862
1239.864, 268.268
1241.080, 299.673
1242.296, 126.215
1243.511, 364.582
1244.726, 53.137
1245.942, 151.527
1247.156, 342.857
1248.371, 170.700
1249.586, 379.001
1250.800, 257.291
1252.014, 262.565
1253.228, 403.832
1254.442, 88.378
1255.656, 223.382
1256.869, 341.610
1258.083, 63.826
1259.296, 280.279
1260.509, 336.467
1261.722, 132.407
1262.934, 198.566
1264.147, 240.714
1265.359, 238.989
1266.571, 358.107
1267.783, 180.213
1268.994, 354.937
1270.206, 363.013
1271.417, 243.075
1272.628, 496.338
1273.839, 276.372
1275.050, 269.636
1276.260, 492.760
1277.471, 146.755
1278.681, 284.579
1279.891, 311.534
1281.101, 235.568
1282.310, 383.508
1283.520, 305.434
1284.729, 214.379
1285.938, 477.472
1287.147, 137.165
1288.356, 279.097
1289.564, 336.891
1290.773, 115.170
1291.981, 401.075
1293.189, 294.573
1294.397, 279.934
1295.604, 454.610
1296.812, 240.268
1298.019, 241.875
1299.226, 471.457
1300.433, 114.578
1301.640, 391.114
1302.846, 319.580
1304.053, 151.019
1305.259, 311.438
1306.465, 166.493
1307.671, 196.784
1308.876, 383.000
1310.082, 208.854
1311.287, 297.062
1312.492, 387.890
1313.697, 210.002
1314.902, 277.154
1316.106, 216.688
1317.310, 208.731
1318.515, 367.562
1319.719, 239.942
1320.922, 318.953
1322.126, 347.688
1323.329, 145.649
1324.533, 275.941
1325.736, 422.673
1326.939, 252.562
1328.141, 358.403
1329.344, 130.483
1330.546, 129.271
1331.748, 217.795
1332.950, 43.228
1334.152, 158.646
1335.354, 279.359
1336.555, 24.816
1337.757, 217.018
1338.958, 119.188
1340.159, 75.441
1341.359, 238.049
1342.560, 106.535
1343.760, 13.688
1344.960, 152.720
1346.160, 12.875
1347.360, 142.379
1348.560, 187.059
1349.759, 99.318
1350.959, 245.084
1352.158, 114.286
1353.357, 4.556
1354.555, 208.482
1355.754, 39.293
1356.952, 170.540
1358.151, 187.658
1359.349, 1.185
1360.546, 205.586
1361.744, 138.917
1362.941, 1.045
1364.139, 213.583
1365.336, 81.134
1366.533, 119.793
1367.730, 311.646
1368.926, 0.668
1370.123, 105.091
1371.319, 179.360
1372.515, 79.668
1373.711, 170.970
1374.906, 55.638
1376.102, 45.696
1377.297, 258.966
1378.492, 10.617
1379.687, 137.211
1380.882, 252.877
1382.077, 30.635
1383.271, 353.818
1384.465, 185.731
1385.659, 150.105
1386.853, 296.122
1388.047, 142.181
1389.240, 178.206
1390.434, 342.739
1391.627, 12.914
1392.820, 213.019
1394.013, 397.629
1395.205, 26.502
1396.398, 307.264
1397.590, 122.078
1398.782, 45.868
1399.974, 326.628
1401.166, 199.087
1402.357, 131.771
1403.549, 327.428
1404.740, 47.057
1405.931, 242.295
1407.122, 338.864
1408.313, 158.921
1409.503, 255.441
1410.693, 363.948
1411.883, 64.441
1413.073, 395.405
1414.263, 221.526
1415.453, 142.701
1416.642, 535.019
1417.831, 136.403
1419.020, 166.826
1420.209, 379.244
1421.398, 0.352
1422.587, 353.055
1423.775, 180.058
1424.963, 196.450
1426.151, 457.849
1427.339, 187.331
1428.526, 147.411
1429.714, 365.508
1430.901, 177.100
1432.088, 310.181
1433.275, 287.882
1434.462, 145.534
1435.648, 515.372
1436.835, 385.028
1438.021, 324.812
1439.207, 622.706
1440.393, 455.718
1441.579, 582.826
1442.764, 642.584
1443.949, 309.604
1445.135, 746.820
1446.320, 733.697
1447.504, 592.853
1448.689, 829.901
1449.873, 629.466
1451.058, 614.312
1452.242, 903.270
1453.426, 640.780
1454.609, 659.672
1455.793, 938.439
1456.976, 587.449
1458.159, 760.962
1459.342, 947.622
1460.525, 515.726
1461.708, 822.624
1462.890, 720.580
1464.073, 557.188
1465.255, 775.520
1466.437, 513.402
1467.619, 489.917
1468.800, 817.924
1469.982, 395.248
1471.163, 552.033
1472.344, 574.448
1473.525, 301.622
1474.706, 708.821
1475.886, 525.173
1477.066, 281.854
1478.247, 638.919
1479.427, 325.471
1480.607, 342.441
1481.786, 619.403
1482.966, 236.378
1484.145, 393.462
1485.324, 490.677
1486.503, 218.321
1487.682, 436.181
1488.860, 424.005
1490.039, 61.745
1491.217, 469.642
1492.395, 277.565
1493.573, 125.525
1494.751, 403.488
1495.928, 171.506
1497.106, 119.569
1498.283, 347.965
1499.460, 46.492
1500.637, 295.201
1501.814, 364.115
1502.990, 33.244
1504.166, 322.613
1505.342, 272.196
1506.518, 9.541
1507.694, 360.412
1508.870, 220.660
1510.045, 161.270
1511.221, 419.325
1512.396, 60.421
1513.571, 266.490
1514.745, 325.439
