##NAMES=Fluorapatite
##RRUFFID=R050340
##IDEAL CHEMISTRY=Ca_5_(PO_4_)_3_F
##LOCALITY=Buckingham, Quebec, Canada
##OWNER=RRUFF
##SOURCE=California Institute of Technology
##DESCRIPTION=Blue fragment
##STATUS=The identification of this mineral has been confirmed by X-ray diffraction and chemical analysis
##URL=rruff.info/R050340
##MEASURED CHEMISTRY=Ca_5.00_((P_0.98_Si_0.02_)O_4_)_3_F_1.00_
##PIN_ID=L00565
##ORIENTATION=Laser parallel to -a* (-1 0 0). Fiducial mark perpendicular to laser is parallel to -c [0 0 -1]
108.2800, 0.0000000E+00
109.5120, 220.8672
110.7440, 138.0967
111.9760, 53.52466
113.2080, 10.62402
114.4400, 109.7202
115.6710, 125.8567
116.9030, 99.26562
118.1340, 128.5601
119.3650, 138.0007
120.5960, 112.6956
121.8270, 160.1194
123.0580, 172.5669
124.2880, 144.9131
125.5190, 152.0579
126.7490, 85.92261
127.9790, 212.4399
129.2090, 226.5474
130.4390, 271.1880
131.6680, 382.3118
132.8980, 331.8752
134.1270, 502.8403
135.3560, 497.1721
136.5850, 606.8423
137.8140, 696.8242
139.0430, 846.0952
140.2710, 1076.637
141.5000, 1002.439
142.7280, 1129.507
143.9560, 1061.833
145.1840, 821.3984
146.4120, 747.1819
147.6390, 585.1614
148.8670, 501.3203
150.0940, 495.6431
151.3210, 444.1177
152.5490, 465.7327
153.7750, 445.6123
155.0020, 498.3499
156.2290, 431.3367
157.4550, 393.4341
158.6810, 371.6362
159.9080, 415.9375
161.1340, 359.3345
162.3590, 385.8213
163.5850, 254.3955
164.8110, 291.0518
166.0360, 241.7881
167.2610, 286.6006
168.4860, 299.4888
169.7110, 346.4492
170.9360, 325.3066
172.1610, 333.9351
173.3850, 279.9385
174.6100, 303.3750
175.8340, 288.1245
177.0580, 250.0439
178.2820, 315.0200
179.5050, 404.0498
180.7290, 312.1113
181.9520, 369.2080
183.1760, 303.2920
184.3990, 314.3438
185.6220, 362.3965
186.8450, 267.4624
188.0670, 392.5234
189.2900, 370.5854
190.5120, 342.6519
191.7340, 384.7266
192.9560, 405.8115
194.1780, 457.9102
195.4000, 585.0229
196.6220, 595.1519
197.8430, 567.2974
199.0640, 772.4619
200.2860, 851.6445
201.5070, 873.8472
202.7270, 1039.069
203.9480, 1070.312
205.1690, 1267.574
206.3890, 1429.857
207.6090, 1482.161
208.8290, 1483.486
210.0490, 1585.831
211.2690, 1529.196
212.4890, 1513.582
213.7080, 1283.988
214.9280, 1233.414
216.1470, 1105.860
217.3660, 1003.325
218.5850, 881.8091
219.8030, 818.3125
221.0220, 756.8330
222.2400, 751.3730
223.4590, 587.9307
224.6770, 538.5054
225.8950, 526.0977
227.1120, 547.7261
228.3300, 515.3999
229.5480, 590.0654
230.7650, 578.7529
231.9820, 554.4893
233.1990, 532.5825
234.4160, 567.3862
235.6330, 441.7290
236.8490, 405.5430
238.0660, 455.7388
239.2820, 356.5361
240.4980, 362.3374
241.7140, 289.1470
242.9300, 265.3652
244.1460, 243.9731
245.3610, 282.7109
246.5770, 230.4590
247.7920, 333.8638
249.0070, 278.6079
250.2220, 388.3608
251.4370, 289.1221
252.6510, 205.3706
253.8660, 217.1426
255.0800, 206.5972
256.2940, 326.9893
257.5080, 316.2104
258.7220, 342.5898
259.9360, 300.5063
261.1490, 330.1421
262.3630, 220.5879
263.5760, 280.4248
264.7890, 343.3486
266.0020, 395.3506
267.2150, 308.4233
268.4270, 324.5630
269.6400, 395.7642
270.8520, 248.0234
272.0640, 355.3354
273.2760, 367.6978
274.4880, 350.1064
275.7000, 397.5581
276.9120, 423.0513
278.1230, 417.5830
279.3340, 445.2271
280.5450, 488.7539
281.7560, 462.3906
282.9670, 513.0576
284.1780, 522.7544
285.3880, 542.1855
286.5980, 559.6416
287.8090, 576.0122
289.0190, 587.8159
290.2290, 564.6426
291.4380, 600.4922
292.6480, 634.3623
293.8570, 666.2529
295.0670, 741.1626
296.2760, 705.0913
297.4850, 756.0381
298.6930, 717.0020
299.9020, 759.9829
301.1110, 803.9795
302.3190, 736.9922
303.5270, 737.0195
304.7350, 755.0610
305.9430, 695.1162
307.1510, 703.1860
308.3580, 740.2686
309.5660, 645.3638
310.7730, 584.4707
311.9800, 532.5903
313.1870, 419.7207
314.3940, 356.8628
315.6010, 443.0156
316.8070, 355.1792
318.0130, 356.3525
319.2200, 261.5347
320.4260, 274.7251
321.6310, 261.9233
322.8370, 242.1279
324.0430, 146.3384
325.2480, 236.5542
326.4540, 132.7764
327.6590, 198.0044
328.8640, 174.2373
330.0680, 190.4761
331.2730, 149.7207
332.4780, 96.97070
333.6820, 27.22656
334.8860, 117.4878
336.0900, 60.75439
337.2940, 39.02686
338.4980, 121.3037
339.7010, 86.58740
340.9050, 43.87549
342.1080, 65.16895
343.3110, 32.46777
344.5140, 0.2290040
345.7170, 1.914551
346.9200, 1.920410
348.1220, 33.23242
349.3240, 35.56738
350.5270, 27.89355
351.7290, 25.43701
352.9310, 57.77148
354.1320, 0.8896480
355.3340, 54.66748
356.5350, 31.72461
357.7370, 88.61865
358.9380, 6.610352
360.1390, 38.96045
361.3400, 50.68604
362.5400, 26.65967
363.7410, 38.00781
364.9410, 79.64062
366.1410, 144.6963
367.3410, 73.03516
368.5410, 118.3765
369.7410, 29.24023
370.9400, 63.89990
372.1400, 71.57275
373.3390, 38.26074
374.5380, 108.0752
375.7370, 68.86377
376.9360, 12.47119
378.1350, 35.26807
379.3330, 86.84863
380.5310, 121.0918
381.7300, 13.33496
382.9280, 13.56006
384.1260, 21.21387
385.3230, 24.01514
386.5210, 37.15186
387.7180, 41.27344
388.9160, 69.38818
390.1130, 104.5044
391.3100, 44.62061
392.5060, 96.72949
393.7030, 142.8384
394.9000, 5.050781
396.0960, 84.05762
397.2920, 112.1650
398.4880, 31.72607
399.6840, 109.3779
400.8800, 160.4912
402.0750, 94.61279
403.2710, 2.257324
404.4660, 56.87988
405.6610, 43.97656
406.8560, 102.1494
408.0510, 134.2812
409.2450, 196.4175
410.4400, 155.5591
411.6340, 212.7056
412.8280, 213.8589
414.0220, 161.3306
415.2160, 311.4941
416.4100, 203.6602
417.6030, 411.8306
418.7970, 376.0044
419.9900, 466.1807
421.1830, 485.3594
422.3760, 606.5425
423.5690, 726.7368
424.7610, 947.9326
425.9540, 972.1313
427.1460, 1250.332
428.3380, 1089.535
429.5300, 1200.739
430.7220, 1271.945
431.9140, 1156.152
433.1050, 1120.359
434.2970, 1011.568
435.4880, 986.7783
436.6790, 958.9893
437.8700, 951.2002
439.0610, 963.2705
440.2510, 988.6235
441.4420, 1046.837
442.6320, 1061.051
443.8220, 1180.265
445.0120, 1211.481
446.2020, 1359.697
447.3910, 1265.913
448.5810, 1369.131
449.7700, 1515.349
450.9600, 1425.571
452.1490, 1438.792
453.3370, 1355.013
454.5260, 1273.232
455.7150, 1200.453
456.9030, 1130.673
458.0910, 1013.553
459.2800, 889.1104
460.4670, 785.3271
461.6550, 702.5430
462.8430, 610.7578
464.0300, 535.9712
465.2180, 473.1831
466.4050, 384.3975
467.5920, 388.6108
468.7790, 344.8218
469.9650, 175.0317
471.1520, 234.2407
472.3380, 203.4482
473.5250, 348.6538
474.7110, 184.8584
475.8970, 177.0610
477.0820, 103.2617
478.2680, 72.45996
479.4540, 96.65771
480.6390, 175.8530
481.8240, 155.0464
483.0090, 185.2383
484.1940, 98.42773
485.3780, 145.6157
486.5630, 48.80127
487.7470, 26.96777
488.9320, 12.12061
490.1160, 2.275391
491.3000, 6.9824003E-02
492.4830, 48.61963
493.6670, 17.77197
494.8500, 87.91943
496.0340, 111.0640
497.2170, 18.17920
498.4000, 98.68408
499.5820, 73.24170
500.7650, 9.689453
501.9480, 103.3618
503.1300, 141.4097
504.3120, 108.2539
505.4940, 75.29736
506.6760, 103.3374
507.8580, 91.47998
509.0390, 52.51855
510.2210, 89.55713
511.4020, 50.40527
512.5830, 50.29395
513.7640, 119.0952
514.9450, 38.42188
516.1250, 21.40674
517.3060, 85.55176
518.4860, 77.89600
519.6660, 58.86475
520.8460, 58.91553
522.0260, 50.04297
523.2060, 13.01025
524.3850, 97.97510
525.5650, 16.93701
526.7440, 83.82471
527.9230, 96.39551
529.1020, 53.00293
530.2810, 178.3682
531.4590, 11.35303
532.6380, 101.3203
533.8160, 120.8638
534.9940, 124.8481
536.1720, 143.4326
537.3500, 99.33838
538.5270, 103.3354
539.7050, 68.38232
540.8820, 6.707031
542.0590, 49.84521
543.2360, 99.85303
544.4130, 27.02344
545.5900, 33.63379
546.7660, 74.64697
547.9430, 91.95312
549.1190, 59.96875
550.2950, 134.9814
551.4710, 208.0562
552.6470, 54.09375
553.8220, 76.61768
554.9980, 4.314453
556.1730, 112.2080
557.3480, 103.2480
558.5230, 161.4604
559.6980, 154.4941
560.8730, 242.5317
562.0470, 141.5669
563.2220, 112.9263
564.3960, 218.0127
565.5700, 238.0366
566.7440, 335.2163
567.9170, 283.2617
569.0910, 166.4526
570.2640, 290.4810
571.4380, 390.5264
572.6110, 434.5449
573.7840, 582.5820
574.9570, 686.6074
576.1290, 718.6348
577.3020, 784.6577
578.4740, 930.6748
579.6460, 1184.694
580.8180, 1379.702
581.9900, 1732.069
583.1620, 2196.066
584.3330, 2710.062
585.5040, 3203.520
586.6760, 4061.590
587.8470, 4739.581
589.0180, 4944.022
590.1880, 5100.115
591.3590, 4757.144
592.5290, 4039.097
593.7000, 3336.043
594.8700, 2711.985
596.0400, 2233.253
597.2090, 1871.307
598.3790, 1664.370
599.5490, 1688.146
600.7180, 1669.057
601.8870, 1792.136
603.0560, 2168.034
604.2250, 2324.926
605.3940, 2439.811
606.5620, 2514.637
607.7300, 2134.509
608.8990, 1855.375
610.0670, 1426.312
611.2350, 1041.396
612.4020, 813.2778
613.5700, 620.1294
614.7370, 468.2085
615.9050, 363.1416
617.0720, 296.4795
618.2390, 284.7026
619.4060, 261.6729
620.5720, 219.4990
621.7390, 223.3203
622.9050, 189.4165
624.0710, 232.2715
625.2370, 213.8145
626.4030, 340.0161
627.5690, 224.8428
628.7340, 265.0610
629.9000, 300.4497
631.0650, 182.1938
632.2300, 280.0469
633.3950, 271.8530
634.5600, 117.3745
635.7240, 212.1016
636.8890, 130.8481
638.0530, 271.3447
639.2170, 253.8179
640.3810, 251.5200
641.5450, 231.8560
642.7080, 255.6177
643.8720, 266.2983
645.0350, 183.2871
646.1980, 257.9629
647.3610, 196.7520
648.5240, 228.3999
649.6870, 229.7500
650.8490, 192.7139
652.0120, 194.5215
653.1740, 138.5513
654.3360, 125.8721
655.4980, 76.54004
656.6600, 89.32910
657.8210, 83.63135
658.9830, 77.70947
660.1440, 116.8765
661.3050, 81.01904
662.4660, 101.3203
663.6270, 160.9897
664.7870, 84.65088
665.9480, 13.48486
667.1080, 129.1123
668.2680, 42.79980
669.4280, 45.88379
670.5880, 42.51221
671.7480, 106.1396
672.9070, 5.683105
674.0670, 114.3071
675.2260, 187.9116
676.3850, 148.7417
677.5440, 68.69922
678.7030, 44.69678
679.8610, 12.05273
681.0200, 25.48242
682.1780, 135.7227
683.3360, 28.46045
684.4940, 152.0435
685.6520, 71.53760
686.8090, 172.1182
687.9670, 134.4927
689.1240, 112.9668
690.2810, 60.41553
691.4380, 83.99170
692.5950, 12.81885
693.7520, 71.31348
694.9080, 12.47266
696.0650, 134.0581
697.2210, 38.52979
698.3770, 84.09717
699.5330, 159.1558
700.6880, 94.96631
701.8440, 25.30225
702.9990, 16.32275
704.1550, 100.9941
705.3100, 49.07812
706.4650, 86.50342
707.6190, 50.75586
708.7740, 104.0552
709.9290, 84.10449
711.0830, 114.4937
712.2370, 91.33203
713.3910, 105.5195
714.5450, 154.2031
715.6980, 228.3652
716.8520, 176.5146
718.0050, 93.65137
719.1580, 133.7749
720.3110, 31.88477
721.4640, 124.9790
722.6170, 95.06006
723.7700, 25.12842
724.9220, 75.17920
726.0740, 93.21631
727.2260, 25.24023
728.3780, 66.24658
729.5300, 4.239258
730.6810, 148.2085
731.8330, 135.1650
732.9840, 166.1079
734.1350, 35.03857
735.2860, 67.95215
736.4370, 158.8525
737.5880, 102.7388
738.7380, 135.6123
739.8880, 56.47266
741.0390, 208.3184
742.1890, 106.1509
743.3380, 100.0757
744.4880, 6.882324
745.6380, 143.6665
746.7870, 193.4385
747.9360, 80.19678
749.0850, 46.03564
750.2340, 93.23926
751.3830, 158.2314
752.5310, 47.93359
753.6800, 129.6255
754.8280, 130.2988
755.9760, 128.1357
757.1240, 64.97754
758.2720, 107.6538
759.4190, 63.28369
760.5670, 59.88818
761.7140, 85.47754
762.8610, 59.23877
764.0080, 176.1724
765.1550, 91.75684
766.3020, 0.6503910
767.4480, 203.9023
768.5950, 72.39795
769.7410, 74.88428
770.8870, 87.36084
772.0330, 105.8242
773.1780, 107.9443
774.3240, 95.71338
775.4690, 122.1377
776.6140, 94.55029
777.7590, 101.9800
778.9040, 41.39600
780.0490, 83.80420
781.1940, 135.4531
782.3380, 38.83447
783.4820, 116.2344
784.6260, 72.58691
785.7700, 7.094727
786.9140, 15.41113
788.0580, 38.70801
789.2010, 54.98926
790.3450, 31.27246
791.4880, 15.54004
792.6310, 149.7881
793.7730, 205.0234
794.9160, 114.2534
796.0590, 119.4707
797.2010, 82.32568
798.3430, 34.80908
799.4850, 21.05518
800.6270, 110.0449
801.7690, 110.1309
802.9100, 55.20361
804.0520, 5.147949
805.1930, 88.18408
806.3340, 34.79346
807.4750, 108.1860
808.6160, 95.13818
809.7560, 16.09131
810.8970, 50.54980
812.0370, 91.33398
813.1770, 0.7944340
814.3170, 34.94727
815.4570, 20.85742
816.5960, 8.405762
817.7360, 139.1157
818.8750, 25.27686
820.0140, 33.56494
821.1530, 71.95312
822.2920, 106.6113
823.4310, 67.25684
824.5690, 13.11230
825.7070, 145.4912
826.8460, 46.91992
827.9840, 33.42480
829.1220, 21.91992
830.2590, 70.07129
831.3970, 71.50293
832.5340, 19.53809
833.6710, 63.87793
834.8080, 37.10645
835.9450, 12.50293
837.0820, 9.860352
838.2190, 88.20801
839.3550, 68.21777
840.4910, 72.48242
841.6270, 16.20508
842.7630, 38.07129
843.8990, 162.1738
845.0350, 61.25684
846.1700, 153.4873
847.3060, 74.68555
848.4410, 47.10352
849.5760, 167.0586
850.7100, 13.78320
851.8450, 104.3496
852.9800, 128.4727
854.1140, 123.5869
855.2480, 102.6826
856.3820, 150.6328
857.5160, 216.4932
858.6500, 215.5664
859.7830, 228.6240
860.9170, 231.2051
862.0500, 180.1602
863.1830, 342.1826
864.3160, 228.7373
865.4480, 290.6270
866.5810, 370.5664
867.7130, 382.5664
868.8460, 307.5566
869.9780, 271.5381
871.1100, 347.1777
872.2410, 247.0254
873.3730, 224.9883
874.5050, 204.9434
875.6360, 281.8896
876.7670, 137.6543
877.8980, 104.5850
879.0290, 24.50684
880.1590, 125.4209
881.2900, 49.38086
882.4200, 162.2793
883.5500, 98.16992
884.6800, 21.97461
885.8100, 23.38281
886.9400, 20.55664
888.0690, 103.2783
889.1990, 39.87109
890.3280, 46.69043
891.4570, 0.5048830
892.5860, 0.6904300
893.7140, 26.95508
894.8430, 33.75195
895.9710, 66.38574
897.1000, 155.9971
898.2280, 1.289063
899.3560, 41.69336
900.4830, 23.04883
901.6110, 16.73828
902.7380, 18.01660
903.8660, 66.74023
904.9930, 84.33203
906.1200, 54.92871
907.2460, 116.5713
908.3730, 105.2734
909.5000, 111.3867
910.6260, 91.67578
911.7520, 107.3818
912.8780, 127.0537
914.0040, 107.7510
915.1290, 73.16895
916.2550, 7.206055
917.3800, 117.4863
918.5050, 7.874023
919.6300, 150.5625
920.7550, 4.874023
921.8800, 169.8340
923.0040, 140.8281
924.1290, 18.19629
925.2530, 109.6709
926.3770, 205.9541
927.5010, 200.9512
928.6250, 108.6064
929.7480, 231.2578
930.8720, 204.9170
931.9950, 295.5732
933.1180, 245.7461
934.2410, 188.0771
935.3640, 183.1016
936.4860, 336.7451
937.6090, 372.3887
938.7310, 443.8643
939.8530, 529.5400
940.9750, 641.1523
942.0970, 851.3574
943.2180, 838.0078
944.3400, 1102.647
945.4610, 1165.727
946.5820, 1457.985
947.7030, 1692.620
948.8240, 2097.018
949.9450, 2344.281
951.0650, 2972.494
952.1860, 3714.443
953.3060, 5022.102
954.4260, 6344.041
955.5460, 8652.475
956.6650, 12090.05
957.7850, 16928.71
958.9040, 22833.28
960.0230, 29727.05
961.1420, 37513.71
962.2610, 45347.38
963.3800, 49816.93
964.4990, 49644.21
965.6170, 44245.80
966.7350, 36310.41
967.8530, 30440.90
968.9710, 20194.49
970.0890, 14064.97
971.2070, 10083.96
972.3240, 7037.178
973.4410, 5117.866
974.5580, 3680.504
975.6750, 2637.183
976.7920, 1890.084
977.9090, 1416.941
979.0250, 1040.665
980.1410, 832.3301
981.2580, 606.1807
982.3740, 611.1865
983.4890, 434.2881
984.6050, 344.0713
985.7200, 384.3086
986.8360, 311.0586
987.9510, 155.8125
989.0660, 292.5703
990.1810, 103.3330
991.2950, 66.09961
992.4100, 243.8730
993.5240, 41.65137
994.6390, 40.43262
995.7530, 74.22266
996.8660, 197.6992
997.9800, 185.4980
999.0940, 251.9033
1000.207, 220.1387
1001.320, 316.9668
1002.433, 366.7988
1003.546, 372.6367
1004.659, 738.4785
1005.772, 763.0771
1006.884, 1015.949
1007.996, 1132.854
1009.108, 1204.767
1010.220, 1170.752
1011.332, 835.6768
1012.444, 757.6064
1013.555, 654.4375
1014.666, 459.3789
1015.777, 436.3340
1016.888, 364.2998
1017.999, 236.2852
1019.110, 108.1836
1020.220, 379.7109
1021.331, 460.4424
1022.441, 318.4551
1023.551, 376.4746
1024.661, 353.5254
1025.770, 531.4062
1026.880, 486.2734
1027.989, 553.0312
1029.098, 579.0967
1030.207, 655.1797
1031.316, 781.2715
1032.425, 797.1846
1033.533, 851.9160
1034.642, 944.9912
1035.750, 1109.051
1036.858, 1203.137
1037.966, 1479.276
1039.073, 1652.422
1040.181, 1873.575
1041.288, 1904.737
1042.396, 2301.640
1043.503, 2422.819
1044.610, 2878.005
1045.716, 3385.197
1046.823, 3992.396
1047.929, 4943.319
1049.036, 5906.535
1050.142, 7150.519
1051.248, 7987.928
1052.353, 8042.154
1053.459, 7619.422
1054.564, 6692.528
1055.670, 5628.814
1056.775, 4622.111
1057.880, 3610.419
1058.985, 2949.736
1060.089, 2515.061
1061.194, 2070.397
1062.298, 1739.740
1063.402, 1608.724
1064.506, 1463.080
1065.610, 1367.442
1066.713, 1390.840
1067.817, 1366.245
1068.920, 1451.670
1070.023, 1567.101
1071.126, 1727.464
1072.229, 1905.067
1073.332, 2095.974
1074.435, 2357.827
1075.537, 2577.312
1076.639, 2871.812
1077.741, 2936.391
1078.843, 3257.956
1079.945, 2991.500
1081.046, 2884.049
1082.148, 2761.611
1083.249, 2312.195
1084.350, 1946.786
1085.451, 1945.392
1086.551, 1712.005
1087.652, 1398.636
1088.752, 1080.287
1089.853, 933.9463
1090.953, 739.6104
1092.053, 599.7832
1093.152, 547.6699
1094.252, 476.6641
1095.351, 450.3809
1096.451, 557.1172
1097.550, 439.8711
1098.649, 277.6328
1099.748, 151.4004
1100.846, 269.1826
1101.945, 298.9727
1103.043, 138.7705
1104.141, 37.58496
1105.239, 91.40820
1106.337, 222.2373
1107.434, 140.0732
1108.532, 92.91504
1109.629, 46.22852
1110.726, 45.57812
1111.823, 86.44922
1112.920, 114.3262
1114.017, 19.79102
1115.113, 109.0928
1116.210, 3.000977
1117.306, 212.9414
1118.402, 237.8652
1119.498, 103.7949
1120.593, 113.7305
1121.689, 112.6729
1122.784, 172.6201
1123.879, 190.5723
1124.974, 341.5303
1126.069, 187.4941
1127.164, 188.4639
1128.259, 27.49512
1129.353, 88.47852
1130.447, 0.5439450
1131.541, 126.4863
1132.635, 42.69727
1133.729, 57.77441
1134.822, 28.77344
1135.916, 98.77734
1137.009, 51.21094
1138.102, 47.71777
1139.195, 127.9287
1140.288, 71.70801
1141.380, 3.277344
1142.473, 231.7412
1143.565, 212.7637
1144.657, 122.7900
1145.749, 71.96191
1146.841, 48.73242
1147.932, 110.7139
1149.024, 127.8594
1150.115, 142.6045
1151.206, 106.6816
1152.297, 182.7432
1153.388, 135.0439
1154.479, 173.6875
1155.569, 101.4834
1156.659, 62.56348
1157.750, 62.64551
1158.839, 39.26660
1159.929, 262.8555
1161.019, 62.94531
1162.108, 122.1094
1163.198, 236.1914
1164.287, 179.2773
1165.376, 14.37598
1166.465, 27.47656
1167.553, 88.58008
1168.642, 106.6855
1169.730, 51.88770
1170.818, 129.9980
1171.906, 208.2168
1172.994, 83.81543
1174.082, 241.2598
1175.170, 78.33789
1176.257, 86.41602
1177.344, 268.4980
1178.431, 50.26855
1179.518, 161.7910
1180.605, 101.5645
1181.691, 21.31348
1182.778, 75.74023
1183.864, 32.79688
1184.950, 72.85254
1186.036, 124.9121
1187.122, 86.97070
1188.207, 29.79004
1189.292, 206.1621
1190.378, 63.23242
1191.463, 100.3037
1192.548, 90.37695
1193.632, 42.55078
1194.717, 68.49805
1195.801, 217.5479
1196.886, 186.5977
1197.970, 86.64648
1199.054, 138.6973
1200.137, 128.7471
1201.221, 61.20215
1202.305, 161.8125
1203.388, 244.8262
1204.471, 205.8408
1205.554, 62.85547
1206.637, 228.2041
1207.719, 149.2168
1208.802, 13.77148
1209.884, 36.22852
1210.966, 156.2295
1212.048, 107.3203
1213.130, 82.31836
1214.212, 100.3174
1215.293, 198.3174
1216.374, 167.3145
1217.456, 152.3105
1218.536, 126.3096
1219.617, 89.30664
1220.698, 124.7314
1221.778, 122.2949
1222.859, 178.2871
1223.939, 159.2773
1225.019, 144.2656
1226.099, 146.4512
1227.178, 153.2451
1228.258, 120.2285
1229.337, 93.20898
1230.417, 103.0479
1231.496, 103.1631
1232.574, 186.1377
1233.653, 120.8154
1234.732, 144.7842
1235.810, 199.7500
1236.888, 98.71289
1237.966, 206.6719
1239.044, 152.6289
1240.122, 20.72363
1241.199, 133.2373
1242.277, 188.2920
1243.354, 153.2197
1244.431, 53.75391
1245.508, 266.6758
1246.585, 31.64453
1247.661, 103.5586
1248.738, 107.4688
1249.814, 127.6016
1250.890, 112.5049
1251.966, 125.7861
1253.042, 112.3037
1254.117, 139.1973
1255.193, 146.0879
1256.268, 160.9756
1257.343, 29.85938
1258.418, 56.05566
1259.493, 62.93066
1260.567, 3.215820
1261.642, 12.65332
1262.716, 28.51660
1263.790, 72.37695
1264.864, 156.2334
1265.938, 112.0596
1267.011, 48.84082
1268.085, 84.94629
1269.158, 1.806641
1270.231, 163.5469
1271.304, 104.3564
1272.377, 66.08984
1273.450, 82.81934
1274.522, 20.54395
1275.594, 3.283203
1276.666, 6.4452998E-02
1277.738, 34.23145
1278.810, 4.431641
1279.882, 50.08203
1280.953, 89.72852
1282.025, 128.3711
1283.096, 3.150391
1284.167, 59.22363
1285.238, 74.35449
1286.308, 109.9307
1287.379, 161.5029
