##NAMES=Fluorapatite
##RRUFFID=R050401
##IDEAL CHEMISTRY=Ca_5_(PO_4_)_3_F
##LOCALITY=Urbano mine, Golconda District, Minas Gerais, Brazil
##OWNER=RRUFF
##SOURCE=Bob Downs
##DESCRIPTION=Pale purple hexagonal prism associated with albite R050402
##STATUS=The identification of this mineral has been confirmed by X-ray diffraction and chemical analysis
##URL=rruff.info/R050401
##MEASURED CHEMISTRY=(Ca_0.99_Mn_0.01_)_5_(P_1.00_O_4_)_3_F_1.00_
##PIN_ID=L01966
##ORIENTATION=Laser parallel to a* (1 0 0). Fiducial mark perpendicular to laser is parallel to c [0 0 1]
140.2710, 0.0000000E+00
141.5000, 0.4721680
142.7280, 115.4409
143.9560, 54.01416
145.1840, 75.65527
146.4120, 20.95850
147.6390, 23.30713
148.8670, 68.25781
150.0940, 90.61816
151.3210, 70.15088
152.5490, 83.89355
153.7750, 9.763672
155.0020, 63.71045
156.2290, 41.92188
157.4550, 93.32812
158.6810, 68.29150
159.9080, 4.796875
161.1340, 58.23242
162.3590, 61.85986
163.5850, 56.91357
164.8110, 140.2925
166.0360, 196.1436
167.2610, 76.47754
168.4860, 180.7544
169.7110, 56.78906
170.9360, 185.7583
172.1610, 31.56641
173.3850, 105.3838
174.6100, 142.0679
175.8340, 33.99805
177.0580, 121.4673
178.2820, 163.3501
179.5050, 57.46094
180.7290, 26.29199
181.9520, 128.0342
183.1760, 164.5269
184.3990, 55.58105
185.6220, 39.70361
186.8450, 76.35205
188.0670, 111.2979
189.2900, 68.77832
190.5120, 75.41553
191.7340, 45.43701
192.9560, 95.20801
194.1780, 164.4897
195.4000, 92.27637
196.6220, 176.4360
197.8430, 161.9575
199.0640, 33.81543
200.2860, 151.1675
201.5070, 94.21191
202.7270, 44.80127
203.9480, 14.32373
205.1690, 4.300781
206.3890, 130.4131
207.6090, 21.61670
208.8290, 78.23975
210.0490, 63.87158
211.2690, 4.374512
212.4890, 37.08789
213.7080, 48.55420
214.9280, 68.44727
216.1470, 48.62061
217.3660, 19.13965
218.5850, 153.5757
219.8030, 103.6914
221.0220, 10.09033
222.2400, 159.7290
223.4590, 66.19287
224.6770, 70.28369
225.8950, 54.17578
227.1120, 88.35889
228.3300, 57.83105
229.5480, 21.13770
230.7650, 54.36035
231.9820, 150.3550
233.1990, 50.19385
234.4160, 147.9023
235.6330, 96.14453
236.8490, 97.52637
238.0660, 86.64014
239.2820, 77.83594
240.4980, 86.26514
241.7140, 26.66016
242.9300, 23.48438
244.1460, 10.78564
245.3610, 62.46240
246.5770, 27.74561
247.7920, 60.97949
249.0070, 42.45947
250.2220, 76.08496
251.4370, 74.07764
252.6510, 91.69580
253.8660, 93.30078
255.0800, 107.1294
256.2940, 80.63330
257.5080, 135.1069
258.7220, 132.9463
259.9360, 97.67188
261.1490, 211.3125
262.3630, 91.93115
263.5760, 86.78076
264.7890, 103.4688
266.0020, 207.0327
267.2150, 122.6899
268.4270, 143.7124
269.6400, 218.6406
270.8520, 196.7715
272.0640, 198.6948
273.2760, 190.6646
274.4880, 152.6387
275.7000, 134.4697
276.9120, 89.87500
278.1230, 124.4360
279.3340, 117.1353
280.5450, 101.5903
281.7560, 148.0601
282.9670, 138.8096
284.1780, 74.17285
285.3880, 25.83594
286.5980, 95.80371
287.8090, 137.0732
289.0190, 36.48926
290.2290, 65.83691
291.4380, 231.8945
292.6480, 95.03906
293.8570, 12.18945
295.0670, 113.0781
296.2760, 19.90820
297.4850, 7.962891
298.6930, 102.4648
299.9020, 93.62207
301.1110, 93.84766
302.3190, 92.18457
303.5270, 22.53613
304.7350, 10.67383
305.9430, 28.79883
307.1510, 151.3926
308.3580, 160.4238
309.5660, 165.0273
310.7730, 170.7100
311.9800, 134.1152
313.1870, 29.44727
314.3940, 13.86621
315.6010, 122.7793
316.8070, 14.95117
318.0130, 145.0244
319.2200, 50.44238
320.4260, 79.61914
321.6310, 99.70312
322.8370, 44.93555
324.0430, 15.08496
325.2480, 42.01953
326.4540, 55.11426
327.6590, 122.4678
328.8640, 174.2666
330.0680, 67.91113
331.2730, 23.57031
332.4780, 58.45996
333.6820, 155.3623
334.8860, 92.87695
336.0900, 89.62207
337.2940, 13.98438
338.4980, 79.85645
339.7010, 99.27734
340.9050, 17.22656
342.1080, 192.9180
343.3110, 153.6074
344.5140, 3.269531
345.7170, 6.173828
346.9200, 2.765625
348.1220, 111.8584
349.3240, 15.13184
350.5270, 35.87109
351.7290, 11.58301
352.9310, 70.44043
354.1320, 80.22949
355.3340, 129.0117
356.5350, 13.12891
357.7370, 46.17188
358.9380, 40.16504
360.1390, 133.1953
361.3400, 41.11621
362.5400, 102.9355
363.7410, 110.1709
364.9410, 13.83008
366.1410, 134.7236
367.3410, 12.76562
368.5410, 66.30371
369.7410, 34.54199
370.9400, 185.0293
372.1400, 157.1631
373.3390, 44.37402
374.5380, 65.19434
375.7370, 48.56836
376.9360, 115.6963
378.1350, 27.22754
379.3330, 154.4756
380.5310, 9.852539
381.7300, 127.1592
382.9280, 15.80566
384.1260, 105.2500
385.3230, 128.6543
386.5210, 82.74805
387.7180, 167.7236
388.9160, 140.5303
390.1130, 118.5322
391.3100, 184.3877
392.5060, 51.20508
393.7030, 120.1680
394.9000, 220.0537
396.0960, 123.8525
397.2920, 36.32520
398.4880, 175.2158
399.6840, 110.1035
400.8800, 106.8486
402.0750, 209.4746
403.2710, 109.4141
404.4660, 14.89746
405.6610, 91.13184
406.8560, 182.3760
408.0510, 15.64258
409.2450, 155.5342
410.4400, 0.2519530
411.6340, 43.73535
412.8280, 152.9951
414.0220, 165.1367
415.2160, 43.53711
416.4100, 8.600586
417.6030, 90.31445
418.7970, 31.17676
419.9900, 54.42578
421.1830, 47.41895
422.3760, 62.26465
423.5690, 158.2539
424.7610, 166.6113
425.9540, 119.1318
427.1460, 271.1670
428.3380, 163.0869
429.5300, 134.4150
430.7220, 146.8096
431.9140, 181.4688
433.1050, 189.3535
434.2970, 249.3301
435.4880, 218.9404
436.6790, 205.9199
437.8700, 294.3340
439.0610, 162.3984
440.2510, 218.2383
441.4420, 338.4033
442.6320, 194.0332
443.8220, 256.5527
445.0120, 390.4824
446.2020, 325.8545
447.3910, 327.4463
448.5810, 284.0596
449.7700, 175.0781
450.9600, 349.9961
452.1490, 278.7695
453.3370, 219.6875
454.5260, 166.3574
455.7150, 171.1309
456.9030, 136.5039
458.0910, 47.05078
459.2800, 166.8584
460.4670, 169.9219
461.6550, 287.8848
462.8430, 134.9268
464.0300, 103.1309
465.2180, 28.63770
466.4050, 69.22461
467.5920, 105.8320
468.7790, 43.51758
469.9650, 211.2139
471.1520, 89.11914
472.3380, 109.2773
473.5250, 72.40625
474.7110, 44.55859
475.8970, 36.19336
477.0820, 84.35156
478.2680, 40.72754
479.4540, 67.53613
480.6390, 191.1602
481.8240, 56.22168
483.0090, 141.7646
484.1940, 189.1074
485.3780, 4.724609
486.5630, 125.6758
487.7470, 96.48340
488.9320, 284.7314
490.1160, 98.11914
491.3000, 137.7734
492.4830, 36.50195
493.6670, 28.66211
494.8500, 153.0518
496.0340, 15.46680
497.2170, 31.85938
498.4000, 75.69629
499.5820, 113.9287
500.7650, 120.9844
501.9480, 116.6953
503.1300, 108.0654
504.3120, 86.66602
505.4940, 52.78516
506.6760, 67.66992
507.8580, 44.04199
509.0390, 157.4326
510.2210, 189.6357
511.4020, 138.7246
512.5830, 59.89160
513.7640, 151.7920
514.9450, 87.53320
516.1250, 125.2158
517.3060, 17.82910
518.4860, 126.1035
519.6660, 168.1064
520.8460, 70.08105
522.0260, 220.4326
523.2060, 28.43457
524.3850, 115.2754
525.5650, 137.4512
526.7440, 140.1123
527.9230, 134.8535
529.1020, 140.0713
530.2810, 136.9766
531.4590, 146.2510
532.6380, 125.5107
533.8160, 158.4854
534.9940, 88.69238
536.1720, 125.9521
537.3500, 129.5791
538.5270, 210.6709
539.7050, 93.30566
540.8820, 94.83691
542.0590, 87.54492
543.2360, 3.762695
544.4130, 71.49219
545.5900, 135.7305
546.7660, 243.7432
547.9430, 154.1367
549.1190, 206.0967
550.2950, 20.72656
551.4710, 83.24023
552.6470, 80.84180
553.8220, 133.4570
554.9980, 173.6641
556.1730, 97.97852
557.3480, 31.25879
558.5230, 181.7490
559.6980, 36.81348
560.8730, 135.4375
562.0470, 162.2480
563.2220, 87.32227
564.3960, 57.61719
565.5700, 144.7734
566.7440, 138.5488
567.9170, 238.5391
569.0910, 188.2930
570.2640, 254.5586
571.4380, 303.2305
572.6110, 265.0586
573.7840, 381.9414
574.9570, 331.4629
576.1290, 285.5664
577.3020, 326.0430
578.4740, 463.4824
579.6460, 499.4590
580.8180, 516.4766
581.9900, 471.1016
583.1620, 564.5547
584.3330, 489.0273
585.5040, 219.5508
586.6760, 366.2012
587.8470, 252.8770
589.0180, 130.4551
590.1880, 292.3496
591.3590, 196.3516
592.5290, 222.6816
593.7000, 176.1895
594.8700, 224.2578
596.0400, 145.3926
597.2090, 233.5820
598.3790, 148.4570
599.5490, 276.4766
600.7180, 320.8867
601.8870, 250.5820
603.0560, 190.2930
604.2250, 352.4863
605.3940, 327.6582
606.5620, 350.2695
607.7300, 312.8418
608.8990, 451.3672
610.0670, 399.7695
611.2350, 490.7891
612.4020, 303.7070
613.5700, 186.5098
614.7370, 329.7539
615.9050, 258.3516
617.0720, 212.0781
618.2390, 318.1836
619.4060, 192.2773
620.5720, 107.8438
621.7390, 326.1992
622.9050, 220.9980
624.0710, 133.0234
625.2370, 261.1797
626.4030, 123.3633
627.5690, 166.3965
628.7340, 87.11133
629.9000, 165.6406
631.0650, 101.0469
632.2300, 28.22070
633.3950, 104.1895
634.5600, 140.6582
635.7240, 239.1094
636.8890, 263.1895
638.0530, 33.63086
639.2170, 137.9258
640.3810, 154.4453
641.5450, 138.5117
642.7080, 197.0078
643.8720, 78.60547
645.0350, 214.2383
646.1980, 258.6309
647.3610, 210.0449
648.5240, 107.5527
649.6870, 193.2500
650.8490, 324.0312
652.0120, 229.5430
653.1740, 212.6367
654.3360, 205.0996
655.4980, 8.341797
656.6600, 265.7422
657.8210, 218.4648
658.9830, 265.0625
660.1440, 132.2246
661.3050, 185.9590
662.4660, 87.27344
663.6270, 245.0605
664.7870, 227.8145
665.9480, 231.1621
667.1080, 217.9004
668.2680, 162.9043
669.4280, 93.71094
670.5880, 290.5957
671.7480, 254.1172
672.9070, 28.49219
674.0670, 154.0625
675.2260, 54.66797
676.3850, 201.8418
677.5440, 58.08789
678.7030, 192.4863
679.8610, 27.66406
681.0200, 67.09180
682.1780, 114.3203
683.3360, 94.20898
684.4940, 95.36133
685.6520, 186.2207
686.8090, 204.2031
687.9670, 57.25000
689.1240, 95.39258
690.2810, 325.7871
691.4380, 127.7891
692.5950, 62.71680
693.7520, 53.83398
694.9080, 162.0527
696.0650, 244.8965
697.2210, 191.2539
698.3770, 256.2734
699.5330, 174.2207
700.6880, 313.0664
701.8440, 64.92383
702.9990, 172.3867
704.1550, 94.54883
705.3100, 44.14258
706.4650, 43.05859
707.6190, 80.27539
708.7740, 230.3379
709.9290, 270.8320
711.0830, 128.7402
712.2370, 102.4277
713.3910, 33.48633
714.5450, 272.3125
715.6980, 153.8672
716.8520, 143.5273
718.0050, 316.2988
719.1580, 172.8770
720.3110, 115.4023
721.4640, 169.8945
722.6170, 387.7832
723.7700, 298.1309
724.9220, 336.1875
726.0740, 292.1895
727.2260, 301.0352
728.3780, 196.3164
729.5300, 284.2148
730.6810, 401.6621
731.8330, 230.1660
732.9840, 258.4277
734.1350, 170.8359
735.2860, 153.0000
736.4370, 174.2988
737.5880, 88.77734
738.7380, 281.2051
739.8880, 206.0723
741.0390, 402.2871
742.1890, 263.5195
743.3380, 221.4180
744.4880, 330.8477
745.6380, 312.1719
746.7870, 130.4902
747.9360, 273.8555
749.0850, 479.4648
750.2340, 188.7031
751.3830, 219.7773
752.5310, 334.4980
753.6800, 161.5859
754.8280, 129.3223
755.9760, 298.5684
757.1240, 211.4648
758.2720, 154.7871
759.4190, 347.6973
760.5670, 27.51953
761.7140, 360.1270
762.8610, 325.9512
764.0080, 104.2637
765.1550, 96.25977
766.3020, 252.0664
767.4480, 227.4141
768.5950, 120.1211
769.7410, 152.4355
770.8870, 219.9902
772.0330, 211.7168
773.1780, 275.1582
774.3240, 214.9688
775.4690, 132.8398
776.6140, 181.2793
777.7590, 162.5332
778.9040, 106.8086
780.0490, 133.9902
781.1940, 69.35547
782.3380, 267.9980
783.4820, 252.2227
784.6260, 365.7051
785.7700, 369.0977
786.9140, 304.3750
788.0580, 313.5625
789.2010, 290.7051
790.3450, 261.6660
791.4880, 268.1074
792.6310, 227.7305
793.7730, 207.5879
794.9160, 231.7598
796.0590, 152.7051
797.2010, 113.7969
798.3430, 312.2852
799.4850, 296.9590
800.6270, 144.0254
801.7690, 449.8633
802.9100, 139.5957
804.0520, 282.2969
805.1930, 158.9141
806.3340, 182.2676
807.4750, 156.1465
808.6160, 306.9434
809.7560, 260.5508
810.8970, 92.60938
812.0370, 70.71094
813.1770, 314.9824
814.3170, 181.1934
815.4570, 296.4277
816.5960, 315.5273
817.7360, 236.3164
818.8750, 121.5488
820.0140, 193.1426
821.1530, 338.5391
822.2920, 350.8965
823.4310, 414.3379
824.5690, 378.6777
825.7070, 416.2969
826.8460, 423.3750
827.9840, 382.7871
829.1220, 384.2676
830.2590, 330.1113
831.3970, 180.8105
832.5340, 200.3633
833.6710, 28.23633
834.8080, 59.16602
835.9450, 423.5859
837.0820, 68.99023
838.2190, 352.9141
839.3550, 268.4258
840.4910, 155.7383
841.6270, 29.41406
842.7630, 18.52930
843.8990, 55.56250
845.0350, 9.453125
846.1700, 74.65234
847.3060, 205.9824
848.4410, 406.5898
849.5760, 102.9492
850.7100, 329.6016
851.8450, 66.17578
852.9800, 273.4180
854.1140, 5.103516
855.2480, 179.0957
856.3820, 310.6719
857.5160, 112.7871
858.6500, 31.29492
859.7830, 238.3750
860.9170, 253.3496
862.0500, 281.3750
863.1830, 206.2773
864.3160, 248.1973
865.4480, 337.6562
866.5810, 334.4609
867.7130, 265.3477
868.8460, 329.1660
869.9780, 294.8027
871.1100, 90.04883
872.2410, 15.83398
873.3730, 268.3418
874.5050, 233.7246
875.6360, 13.68945
876.7670, 139.5195
877.8980, 73.27930
879.0290, 67.87305
880.1590, 252.4668
881.2900, 51.55273
882.4200, 224.4492
883.5500, 66.95312
884.6800, 36.28906
885.8100, 126.6172
886.9400, 291.4492
888.0690, 91.38867
889.1990, 202.6465
890.3280, 510.2559
891.4570, 57.53516
892.5860, 173.7188
893.7140, 287.5293
894.8430, 315.0059
895.9710, 330.1641
897.1000, 69.09961
898.2280, 175.1719
899.3560, 263.2227
900.4830, 4.125000
901.6110, 237.8711
902.7380, 97.73047
903.8660, 183.4785
904.9930, 402.4941
906.1200, 532.8223
907.2460, 51.48242
908.3730, 268.1016
909.5000, 158.9434
910.6260, 184.5234
911.7520, 180.5469
912.8780, 117.9746
914.0040, 130.2578
915.1290, 97.96094
916.2550, 336.9824
917.3800, 220.0664
918.5050, 38.80664
919.6300, 361.4824
920.7550, 14.18359
921.8800, 83.85938
923.0040, 81.51758
924.1290, 359.4492
925.2530, 39.92188
926.3770, 257.6562
927.5010, 48.21875
928.6250, 55.66016
929.7480, 124.0156
930.8720, 91.46484
931.9950, 264.4805
933.1180, 272.0391
934.2410, 360.5273
935.3640, 405.0078
936.4860, 422.4102
937.6090, 182.4531
938.7310, 367.3398
939.8530, 319.3398
940.9750, 83.42188
942.0970, 210.6562
943.2180, 257.8672
944.3400, 105.2695
945.4610, 402.6641
946.5820, 317.9258
947.7030, 429.7969
948.8240, 465.1758
949.9450, 322.4336
951.0650, 351.8086
952.1860, 377.1758
953.3060, 349.5547
954.4260, 621.3555
955.5460, 877.7188
956.6650, 813.0859
957.7850, 975.7578
958.9040, 1682.152
960.0230, 2469.539
961.1420, 3405.941
962.2610, 4485.344
963.3800, 5428.742
964.4990, 5883.973
965.6170, 5388.371
966.7350, 4473.359
967.8530, 3111.758
968.9710, 1984.062
970.0890, 1296.531
971.2070, 870.9258
972.3240, 722.2695
973.4410, 431.6641
974.5580, 308.5039
975.6750, 58.44922
976.7920, 210.8477
977.9090, 237.9570
979.0250, 345.1562
980.1410, 356.5156
981.2580, 328.2070
982.3740, 350.6367
983.4890, 199.0703
984.6050, 371.3242
985.7200, 166.7852
986.8360, 429.2344
987.9510, 138.7070
989.0660, 310.0430
990.1810, 315.5156
991.2950, 470.9961
992.4100, 176.4570
993.5240, 130.4648
994.6390, 220.9609
995.7530, 121.4648
996.8660, 282.9766
997.9800, 220.4883
999.0940, 394.0078
1000.207, 102.5391
1001.320, 82.07031
1002.433, 1.390625
1003.546, 127.1445
1004.659, 62.68750
1005.772, 235.0977
1006.884, 210.1484
1007.996, 159.7227
1009.108, 112.3086
1010.220, 56.07031
1011.332, 2.804688
1012.444, 23.50391
1013.555, 105.3398
1014.666, 51.78906
1015.777, 49.16016
1016.888, 96.35156
1017.999, 73.83984
1019.110, 209.0547
1020.220, 120.6055
1021.331, 329.1641
1022.441, 183.5586
1023.551, 135.1445
1024.661, 25.24609
1025.770, 140.6094
1026.880, 163.2266
1027.989, 42.85938
1029.098, 181.5117
1030.207, 393.1914
1031.316, 371.5039
1032.425, 168.2383
1033.533, 337.3750
1034.642, 195.8828
1035.750, 256.7266
1036.858, 334.5586
1037.966, 243.4570
1039.073, 27.37891
1040.181, 287.3203
1041.288, 52.82031
1042.396, 369.7969
1043.503, 191.7930
1044.610, 324.8164
1045.716, 32.85547
1046.823, 329.9180
1047.929, 73.99609
1049.036, 167.0625
1050.142, 232.1602
1051.248, 71.28125
1052.353, 512.5391
1053.459, 235.7031
1054.564, 139.2617
1055.670, 98.40625
1056.775, 40.44922
1057.880, 387.7773
1058.985, 373.3633
1060.089, 308.6328
1061.194, 73.31250
1062.298, 393.1758
1063.402, 378.5234
1064.506, 114.8945
1065.610, 186.2891
1066.713, 164.7148
1067.817, 167.1641
1068.920, 140.6367
1070.023, 16.86328
1071.126, 75.65234
1072.229, 29.80469
1073.332, 200.7539
1074.435, 331.3281
1075.537, 4.937500
1076.639, 353.5781
1077.741, 470.2422
1078.843, 167.9414
1079.945, 267.6641
1081.046, 296.4258
1082.148, 322.2148
1083.249, 453.0273
1084.350, 179.8750
1085.451, 39.74609
1086.551, 261.6484
1087.652, 219.5898
1088.752, 245.5508
1089.853, 1.453125
1090.953, 258.5703
1092.053, 77.61719
1093.152, 239.6992
1094.252, 131.8125
1095.351, 16.95703
1096.451, 17.86719
1097.550, 179.3281
1098.649, 105.4453
1099.748, 226.7773
1100.846, 313.1016
1101.945, 309.3984
1103.043, 30.75391
1104.141, 520.1445
1105.239, 72.42578
1106.337, 74.00391
1107.434, 184.4727
1108.532, 55.89844
1109.629, 209.4609
1110.726, 4.933594
1111.823, 37.26562
1112.920, 26.43359
1114.017, 161.1758
1115.113, 352.9531
1116.210, 140.7617
1117.306, 376.6055
1118.402, 202.4922
1119.498, 81.43750
1120.593, 133.4258
1121.689, 114.4609
1122.784, 124.5312
1123.879, 309.6406
1124.974, 115.7852
1126.069, 36.97656
1127.164, 202.2031
1128.259, 37.46484
1129.353, 377.7695
1130.447, 181.1133
1131.541, 181.4922
1132.635, 101.9102
1133.729, 199.3633
1134.822, 332.5820
1135.916, 258.1133
1137.009, 205.6914
1138.102, 330.3047
1139.195, 421.9766
1140.288, 433.6875
1141.380, 413.3867
1142.473, 234.2461
1143.565, 275.9297
1144.657, 265.6328
1145.749, 226.1797
1146.841, 198.5781
1147.932, 201.1836
1149.024, 27.25000
1150.115, 199.3906
1151.206, 41.57812
1152.297, 268.8086
1153.388, 473.0859
1154.479, 128.4102
1155.569, 197.7695
1156.659, 235.2266
1157.750, 342.6836
1158.839, 229.1914
1159.929, 168.2852
1161.019, 357.2930
1162.108, 145.9336
1163.198, 93.61328
1164.287, 124.3125
1165.376, 352.6484
1166.465, 324.4453
1167.553, 330.1289
1168.642, 134.2773
1169.730, 573.2070
1170.818, 365.8320
1171.906, 146.8555
1172.994, 523.9453
1174.082, 160.2852
1175.170, 443.4727
1176.257, 285.6992
1177.344, 209.9805
1178.431, 288.3047
1179.518, 420.6602
1180.605, 543.0781
1181.691, 310.5469
1182.778, 217.0664
1183.864, 145.6367
1184.950, 244.2578
1186.036, 330.9297
1187.122, 659.6562
1188.207, 453.1445
1189.292, 218.9688
1190.378, 597.8594
1191.463, 409.7969
1192.548, 155.7930
1193.632, 599.8320
1194.717, 287.9297
1195.801, 237.0703
1196.886, 332.2656
1197.970, 310.5117
1199.054, 308.8203
1200.137, 374.1562
1201.221, 276.5156
1202.305, 226.9609
1203.388, 175.8984
1204.471, 125.4453
1205.554, 246.0469
1206.637, 249.1953
1207.719, 365.2578
1208.802, 343.0078
1209.884, 334.8125
1210.966, 262.6719
1212.048, 250.5820
1213.130, 494.5430
1214.212, 277.5547
1215.293, 250.6172
1216.374, 116.7344
1217.456, 526.9023
1218.536, 149.1211
1219.617, 111.3906
1220.698, 577.4375
1221.778, 204.8164
1222.859, 255.2500
1223.939, 345.7383
1225.019, 219.2734
1226.099, 201.8633
1227.178, 443.6680
1228.258, 55.36719
1229.337, 505.5234
1230.417, 47.67188
1231.496, 546.1758
1232.574, 44.07422
1233.653, 175.0273
1234.732, 269.0312
1235.810, 437.0898
1236.888, 214.2070
1237.966, 205.3828
1239.044, 293.6094
1240.122, 266.8906
1241.199, 393.9297
1242.277, 227.8594
1243.354, 355.3047
1244.431, 220.8047
1245.508, 433.3594
1246.585, 431.9688
1247.661, 135.6289
1248.738, 502.3516
1249.814, 500.1250
1250.890, 258.9531
1251.966, 167.8320
1253.042, 159.7734
1254.117, 305.7656
1255.193, 439.8125
1256.268, 321.9180
1257.343, 237.0781
1258.418, 565.2891
1259.493, 275.5664
1260.567, 502.8984
1261.642, 293.2812
1262.716, 348.7227
1263.790, 483.2188
1264.864, 161.7812
1265.938, 506.3945
1267.011, 446.0664
1268.085, 458.7930
1269.158, 170.5781
1270.231, 168.4180
1271.304, 231.3164
1272.377, 116.9414
1273.450, 363.2812
1274.522, 136.3594
1275.594, 255.5273
1276.666, 356.7656
1277.738, 298.0781
1278.810, 175.4375
1279.882, 283.8594
1280.953, 387.3398
1282.025, 389.8867
1283.096, 132.4922
1284.167, 271.1562
1285.238, 315.8750
1286.308, 85.66406
1287.379, 345.5078
1288.449, 33.58984
1289.519, 128.6367
1290.589, 149.3477
1291.659, 246.3867
1292.729, 153.5195
1293.798, 226.7656
1294.868, 40.36328
1295.937, 169.4453
1297.006, 20.24219
1298.075, 120.0742
1299.143, 40.55078
1300.212, 466.8828
1301.280, 267.3672
1302.348, 17.08594
1303.416, 267.5156
1304.484, 376.1797
1305.552, 370.9023
1306.620, 309.6836
1307.687, 99.51953
1308.754, 239.4414
1309.821, 514.4180
1310.888, 487.4492
1311.955, 247.5391
1313.021, 608.6836
