##NAMES=Fluorophlogopite
##RRUFFID=R040039
##IDEAL CHEMISTRY=KMg_3_(Si_3_Al)O_10_F_2_
##LOCALITY=Franklin, Sussex County, New Jersey, USA
##OWNER=RRUFF
##SOURCE=University of Arizona Mineral Museum
##DESCRIPTION=Brown hexagonal sheets
##STATUS=The identification of this mineral has been confirmed by X-ray diffraction and chemical analysis
##URL=rruff.info/R040039
##MEASURED CHEMISTRY=(K_0.92_Na_0.06_[box]_0.02_)_Σ=1_(Mg_2.94_Fe_0.04_Ti_0.02_)_Σ=3_(Si_2.98_Al_1.02_)O_10_(F_1.24_(OH)_0.76_)_Σ=2_; OH estimated by charge balance
##PIN_ID=L00415
##ORIENTATION=Laser parallel to [-1 0 -1]. Fiducial mark perpendicular to laser is parallel to b* (0 1 0)
96.233, 0.000
97.628, 147.677
99.023, 290.229
100.418, 536.284
101.812, 865.726
103.206, 1166.422
104.600, 1339.359
105.994, 1584.722
107.387, 1761.239
108.781, 1778.932
110.174, 1698.230
111.566, 1730.323
112.959, 1630.164
114.351, 1657.993
115.744, 1752.462
117.136, 1794.803
118.527, 1653.819
119.919, 1366.346
121.310, 1393.268
122.701, 1239.001
124.092, 1240.691
125.482, 1100.665
126.873, 967.347
128.263, 917.719
129.653, 758.272
131.042, 683.420
132.432, 618.793
133.821, 518.188
135.210, 529.997
136.599, 455.503
137.987, 416.711
139.376, 413.657
140.764, 381.373
142.152, 225.894
143.539, 188.251
144.927, 171.472
146.314, 126.579
147.701, 112.590
149.088, 2.479
150.474, 52.386
151.861, 65.799
153.247, 61.012
154.633, 71.239
156.018, 64.474
157.404, 77.714
158.789, 69.498
160.174, 58.961
161.559, 59.933
162.943, 13.186
164.327, 10.885
165.711, 48.860
167.095, 56.177
168.479, 119.070
169.862, 210.689
171.246, 289.706
172.628, 378.340
174.011, 421.533
175.394, 528.706
176.776, 691.784
178.158, 796.940
179.540, 1065.143
180.922, 1325.360
182.303, 1633.646
183.684, 2143.023
185.065, 2783.504
186.446, 3736.094
187.826, 4991.795
189.207, 7200.604
190.587, 8157.518
191.967, 10284.537
193.346, 12091.654
194.726, 13438.862
196.105, 14116.151
197.484, 13583.520
198.862, 12650.958
200.241, 10618.469
201.619, 8756.052
202.997, 6763.697
204.375, 5243.406
205.753, 3957.235
207.130, 3001.273
208.507, 2411.510
209.884, 1807.878
211.261, 1408.341
212.638, 1165.848
214.014, 901.396
215.390, 778.978
216.766, 609.586
218.141, 477.213
219.517, 342.856
220.892, 255.512
222.267, 167.184
223.642, 107.567
225.016, 126.570
226.391, 37.283
227.765, 87.010
229.139, 83.750
230.512, 43.504
231.886, 2.270
233.259, 12.952
234.632, 53.839
236.005, 4.640
237.377, 20.547
238.749, 34.724
240.122, 90.642
241.493, 77.105
242.865, 166.195
244.237, 83.332
245.608, 67.460
246.979, 105.590
248.350, 133.743
249.720, 57.914
251.090, 66.151
252.461, 88.507
253.830, 2.975
255.200, 65.445
256.570, 95.778
257.939, 224.047
259.308, 352.331
260.677, 438.651
262.045, 563.301
263.414, 852.327
264.782, 1022.169
266.150, 1392.556
267.517, 1866.360
268.885, 2433.475
270.252, 3139.829
271.619, 4052.396
272.986, 5279.115
274.353, 6379.973
275.719, 7429.945
277.085, 8229.997
278.451, 8390.101
279.817, 8070.239
281.182, 7160.413
282.548, 6000.617
283.913, 4907.843
285.278, 3779.090
286.642, 3024.354
288.007, 2344.625
289.371, 1854.852
290.735, 1488.980
292.099, 1257.007
293.462, 1185.953
294.826, 968.863
296.189, 941.786
297.552, 920.724
298.914, 1006.667
300.277, 974.605
301.639, 1103.537
303.001, 1365.463
304.363, 1497.383
305.724, 1868.299
307.086, 2218.212
308.447, 2667.121
309.808, 3104.028
311.168, 3651.952
312.529, 4080.119
313.889, 4590.215
315.249, 5063.243
316.609, 5654.176
317.969, 5994.873
319.328, 6431.592
320.687, 6685.604
322.046, 6964.359
323.405, 6779.501
324.764, 6588.644
326.122, 6288.716
327.480, 5650.153
328.838, 5251.683
330.196, 4625.613
331.553, 4033.390
332.910, 3577.068
334.267, 3138.588
335.624, 2728.005
336.981, 2323.278
338.337, 2084.468
339.693, 1957.592
341.049, 1655.724
342.405, 1571.862
343.760, 1389.008
345.116, 1350.160
346.471, 1230.319
347.826, 1170.483
349.180, 1070.653
350.535, 1047.828
351.889, 1046.008
353.243, 978.190
354.597, 1004.376
355.950, 922.564
357.304, 946.754
358.657, 994.946
360.010, 1030.139
361.362, 1031.332
362.715, 1075.525
364.067, 1161.718
365.419, 1253.910
366.771, 1464.102
368.123, 1462.292
369.474, 1667.480
370.825, 1654.665
372.176, 1654.846
373.527, 1562.022
374.877, 1350.194
376.228, 1282.401
377.578, 1194.562
378.928, 973.717
380.277, 1004.866
381.627, 882.008
382.976, 807.145
384.325, 777.275
385.674, 741.398
387.023, 779.117
388.371, 663.228
389.719, 622.208
391.067, 629.306
392.415, 550.527
393.762, 583.517
395.110, 542.215
396.457, 503.247
397.804, 488.357
399.150, 425.162
400.497, 373.697
401.843, 412.517
403.189, 421.444
404.535, 389.015
405.881, 350.742
407.226, 352.182
408.571, 251.263
409.916, 267.430
411.261, 218.949
412.605, 189.707
413.950, 199.004
415.294, 155.209
416.638, 182.083
417.981, 113.385
419.325, 160.032
420.668, 150.242
422.011, 193.955
423.354, 198.768
424.697, 186.221
426.039, 299.697
427.381, 215.795
428.723, 295.423
430.065, 348.863
431.406, 326.191
432.748, 377.617
434.089, 361.036
435.430, 453.676
436.770, 398.271
438.111, 381.887
439.451, 515.902
440.791, 464.007
442.131, 439.326
443.471, 464.625
444.810, 435.303
446.149, 487.431
447.488, 531.376
448.827, 550.232
450.166, 480.116
451.504, 515.788
452.842, 610.478
454.180, 478.114
455.518, 549.732
456.855, 535.333
458.193, 554.917
459.530, 559.483
460.867, 491.032
462.203, 564.562
463.540, 512.075
464.876, 569.569
466.212, 575.046
467.548, 421.504
468.883, 360.945
470.219, 211.367
471.554, 129.771
472.889, 40.156
474.224, 54.489
475.558, 36.208
476.892, 99.991
478.227, 61.863
479.561, 100.804
480.894, 53.833
482.228, 31.073
483.561, 76.041
484.894, 43.770
486.227, 11.560
487.559, 18.319
488.892, 150.043
490.224, 124.750
491.556, 231.438
492.888, 315.105
494.220, 299.755
495.551, 387.387
496.882, 492.001
498.213, 556.598
499.544, 556.179
500.874, 681.743
502.205, 653.291
503.535, 634.822
504.865, 855.337
506.194, 903.834
507.524, 973.315
508.853, 970.780
510.182, 1126.227
511.511, 1170.656
512.840, 1142.069
514.168, 1160.464
515.496, 1011.843
516.824, 934.204
518.152, 748.546
519.480, 676.871
520.807, 690.179
522.134, 580.469
523.461, 482.741
524.788, 480.996
526.114, 450.232
527.441, 405.451
528.767, 337.653
530.093, 353.839
531.418, 348.015
532.744, 240.173
534.069, 305.314
535.394, 167.447
536.719, 224.563
538.044, 205.661
539.368, 183.750
540.693, 233.829
542.017, 191.890
543.340, 282.943
544.664, 196.993
545.987, 81.029
547.311, 254.053
548.634, 164.082
549.956, 196.091
551.279, 153.085
552.601, 210.069
553.923, 214.037
555.245, 161.992
556.567, 174.958
557.889, 216.911
559.210, 188.856
560.531, 192.795
561.852, 164.745
563.173, 185.713
564.493, 151.685
565.813, 133.708
567.133, 185.734
568.453, 146.791
569.773, 168.862
571.092, 145.954
572.412, 149.073
573.731, 120.194
575.049, 99.331
576.368, 116.452
577.686, 79.551
579.005, 41.624
580.323, 18.667
581.640, 14.673
582.958, 17.356
584.275, 65.437
585.593, 11.595
586.909, 83.802
588.226, 33.096
589.543, 31.451
590.859, 112.864
592.175, 17.381
593.491, 68.950
594.807, 52.598
596.122, 37.316
597.438, 28.097
598.753, 42.063
600.068, 1.807
601.382, 30.279
602.697, 65.331
604.011, 36.355
605.325, 156.348
606.639, 173.317
607.952, 162.267
609.266, 213.194
610.579, 200.102
611.892, 335.989
613.205, 416.857
614.518, 383.705
615.830, 532.533
617.142, 512.342
618.454, 723.131
619.766, 682.901
621.078, 859.651
622.389, 938.382
623.700, 1112.093
625.011, 1424.785
626.322, 1305.457
627.632, 1688.110
628.943, 1852.745
630.253, 1970.341
631.563, 2174.674
632.872, 2323.976
634.182, 2643.404
635.491, 2660.812
636.800, 2846.596
638.109, 3056.921
639.418, 3016.183
640.726, 3084.111
642.035, 3128.956
643.343, 3134.187
644.651, 3093.415
645.958, 3181.884
647.266, 3203.275
648.573, 3324.543
649.880, 3209.902
651.187, 3386.247
652.494, 3407.576
653.800, 3741.890
655.106, 3728.188
656.412, 3980.472
657.718, 4100.740
659.024, 4279.992
660.329, 4539.229
661.634, 4957.452
662.939, 5193.660
664.244, 5725.852
665.549, 6021.029
666.853, 6706.192
668.157, 7381.339
669.461, 8046.471
670.765, 9391.590
672.069, 10116.691
673.372, 11821.781
674.675, 12766.854
675.978, 14701.911
677.281, 16636.957
678.583, 18521.982
679.886, 19957.002
681.188, 21072.041
682.490, 21617.062
683.792, 21692.152
685.093, 20977.404
686.394, 20172.637
687.696, 18969.373
688.997, 17634.514
690.297, 15949.657
691.598, 14356.689
692.898, 12971.780
694.198, 11296.870
695.498, 9833.697
696.798, 8670.207
698.097, 7295.343
699.397, 6592.161
700.696, 5500.358
701.995, 4899.980
703.293, 4400.009
704.592, 3755.777
705.890, 3481.520
707.188, 3232.621
708.486, 2707.440
709.784, 2546.326
711.081, 2297.000
712.378, 2100.999
713.675, 2039.042
714.972, 1910.548
716.269, 1785.303
717.565, 1674.176
718.862, 1629.015
720.158, 1633.560
721.453, 1524.560
722.749, 1513.851
724.045, 1434.448
725.340, 1434.783
726.635, 1520.710
727.930, 1455.610
729.224, 1474.999
730.519, 1452.548
731.813, 1479.532
733.107, 1502.464
734.401, 1500.398
735.694, 1539.597
736.988, 1570.176
738.281, 1526.709
739.574, 1493.518
740.867, 1494.409
742.160, 1605.575
743.452, 1545.152
744.744, 1551.929
746.036, 1490.811
747.328, 1484.517
748.620, 1439.203
749.911, 1364.642
751.202, 1368.097
752.493, 1267.505
753.784, 1237.485
755.075, 1211.346
756.365, 1187.965
757.655, 1150.577
758.945, 1133.644
760.235, 1098.338
761.525, 1078.381
762.814, 1067.319
764.103, 1010.199
765.392, 1061.264
766.681, 960.282
767.969, 1022.326
769.258, 1029.360
770.546, 1006.385
771.834, 1086.398
773.122, 1141.403
774.409, 1092.398
775.697, 1139.383
776.984, 1138.359
778.271, 1271.325
779.558, 1313.282
780.844, 1369.229
782.131, 1472.167
783.417, 1482.097
784.703, 1635.018
785.989, 1578.929
787.274, 1621.838
788.560, 1694.766
789.845, 1698.708
791.130, 1781.682
792.415, 1628.676
793.699, 1623.702
794.983, 1586.748
796.268, 1594.792
797.552, 1523.862
798.835, 1458.163
800.119, 1462.999
801.402, 1306.068
802.686, 1187.131
803.969, 1165.186
805.251, 1034.234
806.534, 935.273
807.816, 825.305
809.098, 798.330
810.380, 745.347
811.662, 704.356
812.944, 657.358
814.225, 593.353
815.506, 577.340
816.787, 630.320
818.068, 499.293
819.349, 458.259
820.629, 392.217
821.909, 283.169
823.189, 370.114
824.469, 264.052
825.749, 234.983
827.028, 277.908
828.307, 83.826
829.586, 123.737
830.865, 92.642
832.144, 93.541
833.422, 95.918
834.700, 72.318
835.978, 71.197
837.256, 52.070
838.534, 7.935
839.811, 10.792
841.088, 25.360
842.365, 24.465
843.642, 19.283
844.919, 30.907
846.195, 13.888
847.472, 20.675
848.748, 28.546
850.023, 23.790
851.299, 2.944
852.575, 29.331
853.850, 51.629
855.125, 9.964
856.400, 43.305
857.674, 77.675
858.949, 47.906
860.223, 0.483
861.497, 33.951
862.771, 20.591
864.045, 67.127
865.318, 69.342
866.591, 21.847
867.864, 11.371
869.137, 31.092
870.410, 51.450
871.682, 37.027
872.955, 71.381
874.227, 89.215
875.499, 116.136
876.770, 97.514
878.042, 15.221
879.313, 4.936
880.584, 106.660
881.855, 26.557
883.126, 40.226
884.396, 43.967
885.667, 25.159
886.937, 58.354
888.207, 30.548
889.476, 52.840
890.746, 33.369
892.015, 88.166
893.284, 21.411
894.553, 40.682
895.822, 98.966
897.090, 40.281
898.359, 35.614
899.627, 62.516
900.895, 164.356
902.163, 103.761
903.430, 108.207
904.698, 135.677
905.965, 55.166
907.232, 140.674
908.499, 238.186
909.765, 80.708
911.032, 99.237
912.298, 187.770
913.564, 158.307
914.830, 210.844
916.095, 289.382
917.361, 137.921
918.626, 146.459
919.891, 95.997
921.156, 158.534
922.420, 118.071
923.685, 80.608
924.949, 117.145
926.213, 65.681
927.477, 130.217
928.740, 120.753
930.004, 163.290
931.267, 148.827
932.530, 55.363
933.793, 189.908
935.056, 69.454
936.318, 100.999
937.581, 89.544
938.843, 108.090
940.104, 120.636
941.366, 189.184
942.628, 161.261
943.889, 163.280
945.150, 126.829
946.411, 114.377
947.672, 84.926
948.932, 117.475
950.193, 130.023
951.453, 158.572
952.713, 172.121
953.973, 239.669
955.232, 132.218
956.491, 243.765
957.751, 134.313
959.010, 153.862
960.268, 201.412
961.527, 207.963
962.785, 283.514
964.044, 188.066
965.302, 190.618
966.559, 317.170
967.817, 225.724
969.075, 218.276
970.332, 304.830
971.589, 207.384
972.846, 303.938
974.102, 275.495
975.359, 250.051
976.615, 303.607
977.871, 307.166
979.127, 366.724
980.383, 416.283
981.638, 347.842
982.893, 395.403
984.149, 398.964
985.404, 350.526
986.658, 551.053
987.913, 456.579
989.167, 482.027
990.421, 445.321
991.675, 442.694
992.929, 561.358
994.183, 494.704
995.436, 514.032
996.689, 609.890
997.942, 631.203
999.195, 667.547
1000.448, 702.144
1001.700, 720.204
1002.952, 752.028
1004.204, 737.009
1005.456, 818.179
1006.708, 777.447
1007.959, 850.159
1009.210, 796.820
1010.461, 711.349
1011.712, 822.554
1012.963, 782.046
1014.213, 699.440
1015.464, 824.035
1016.714, 691.777
1017.964, 673.926
1019.214, 759.649
1020.463, 566.113
1021.712, 661.444
1022.962, 636.846
1024.210, 710.564
1025.459, 864.579
1026.708, 759.345
1027.956, 1058.863
1029.204, 1087.629
1030.452, 1190.715
1031.700, 1519.864
1032.948, 1594.435
1034.195, 1701.646
1035.442, 1727.311
1036.689, 1606.147
1037.936, 1878.805
1039.183, 2064.098
1040.429, 1692.902
1041.676, 1355.495
1042.922, 1164.196
1044.168, 1155.851
1045.413, 1133.706
1046.659, 1004.674
1047.904, 1144.335
1049.149, 967.073
1050.394, 1029.095
1051.639, 1108.937
1052.884, 933.509
1054.128, 1040.429
1055.372, 1061.230
1056.616, 1085.285
1057.860, 1102.137
1059.104, 1090.901
1060.347, 1140.039
1061.590, 1148.874
1062.833, 1114.933
1064.076, 1269.717
1065.319, 1223.698
1066.561, 1144.789
1067.803, 1346.607
1069.046, 1273.782
1070.287, 1408.576
1071.529, 1436.508
1072.771, 1340.739
1074.012, 1553.547
1075.253, 1573.371
1076.494, 1648.537
1077.735, 1770.365
1078.975, 1807.609
1080.216, 1987.473
1081.456, 2064.337
1082.696, 2114.200
1083.936, 2391.152
1085.175, 2427.035
1086.415, 2513.147
1087.654, 2747.053
1088.893, 2638.064
1090.132, 2840.313
1091.371, 2922.232
1092.609, 2913.509
1093.847, 3047.575
1095.085, 2965.508
1096.323, 2946.620
1097.561, 3059.562
1098.799, 2946.763
1100.036, 2972.778
1101.273, 2901.721
1102.510, 2885.933
1103.747, 2821.894
1104.983, 2695.854
1106.220, 2785.013
1107.456, 2473.991
1108.692, 2233.594
1109.928, 2216.699
1111.163, 1888.697
1112.399, 1701.046
1113.634, 1562.053
1114.869, 1323.057
1116.104, 1234.214
1117.339, 1046.216
1118.573, 1019.217
1119.808, 1024.491
1121.042, 951.487
1122.276, 1426.727
1123.509, 1504.724
1124.743, 1104.718
1125.976, 729.158
1127.210, 515.150
1128.443, 423.139
1129.675, 385.197
1130.908, 251.182
1132.141, 278.437
1133.373, 214.431
1134.605, 114.421
1135.837, 216.598
1137.068, 102.584
1138.300, 20.566
1139.531, 172.739
1140.762, 62.719
1141.993, 132.123
1143.224, 165.316
1144.455, 56.704
1145.685, 232.618
1146.915, 71.580
1148.145, 32.537
1149.375, 104.833
1150.605, 1.798
1151.834, 104.758
1153.063, 104.723
1154.292, 37.303
1155.521, 200.137
1156.750, 17.104
1157.978, 33.086
1159.207, 56.351
1160.435, 7.323
1161.663, 83.298
1162.891, 68.277
1164.118, 36.719
1165.345, 184.431
1166.573, 115.390
1167.800, 429.347
1169.026, 102.455
1170.253, 46.589
1171.480, 28.351
1172.706, 51.387
1173.932, 20.332
1175.158, 91.349
1176.383, 25.390
1177.609, 127.547
1178.834, 23.562
1180.059, 22.489
1181.284, 68.632
1182.509, 45.961
1183.734, 27.121
1184.958, 67.217
1186.182, 13.401
1187.406, 33.467
1188.630, 73.886
1189.854, 87.270
1191.077, 46.519
1192.301, 23.270
1193.524, 7.276
1194.747, 133.480
1195.969, 61.821
1197.192, 7.264
1198.414, 52.431
1199.636, 48.042
1200.858, 39.933
1202.080, 70.311
1203.302, 11.375
1204.523, 61.088
1205.744, 100.719
1206.966, 4.421
1208.186, 84.889
1209.407, 32.704
1210.628, 101.446
1211.848, 54.384
1213.068, 29.007
1214.288, 95.771
1215.508, 13.470
1216.727, 117.179
1217.947, 73.876
1219.166, 8.015
1220.385, 183.777
1221.604, 198.934
1222.822, 33.871
1224.041, 153.877
1225.259, 33.570
1226.477, 134.438
1227.695, 176.810
1228.913, 17.724
1230.130, 114.830
1231.348, 167.474
1232.565, 89.565
1233.782, 233.975
1234.999, 119.954
1236.215, 64.892
1237.432, 270.298
1238.648, 68.058
1239.864, 119.170
1241.080, 213.272
1242.296, 114.183
1243.511, 223.307
1244.726, 94.731
1245.942, 140.755
1247.156, 228.979
1248.371, 103.745
1249.586, 254.021
1250.800, 226.034
1252.014, 127.271
1253.228, 352.262
1254.442, 39.964
1255.656, 152.364
1256.869, 287.495
1258.083, 96.122
1259.296, 268.369
1260.509, 273.280
1261.722, 147.904
1262.934, 234.965
1264.147, 274.008
1265.359, 122.208
1266.571, 390.080
1267.783, 130.908
1268.994, 299.993
1270.206, 289.790
1271.417, 85.912
1272.628, 305.266
1273.839, 231.021
1275.050, 179.115
1276.260, 350.136
1277.471, 132.850
1278.681, 225.188
1279.891, 342.870
1281.101, 158.624
1282.310, 246.664
1283.520, 220.296
1284.729, 161.104
1285.938, 318.077
1287.147, 108.649
1288.356, 159.545
1289.564, 266.053
1290.773, 124.098
1291.981, 271.581
1293.189, 333.986
1294.397, 132.340
1295.604, 413.727
1296.812, 345.903
1298.019, 249.199
1299.226, 316.477
1300.433, 101.181
1301.640, 239.367
1302.846, 321.367
1304.053, 149.409
1305.259, 294.429
1306.465, 230.229
1307.671, 218.134
1308.876, 211.012
1310.082, 175.243
1311.287, 269.013
1312.492, 375.759
1313.697, 184.472
1314.902, 296.116
1316.106, 227.535
1317.310, 196.961
1318.515, 343.406
1319.719, 203.658
1320.922, 150.018
1322.126, 301.178
1323.329, 203.469
1324.533, 232.566
1325.736, 177.712
1326.939, 128.948
1328.141, 306.940
1329.344, 118.676
1330.546, 105.682
1331.748, 285.917
1332.950, 95.691
1334.152, 402.558
1335.354, 242.355
1336.555, 9.041
1337.757, 162.568
1338.958, 111.980
1340.159, 29.375
1341.359, 226.135
1342.560, 111.370
1343.760, 12.746
1344.960, 142.352
1346.160, 70.570
1347.360, 113.866
1348.560, 193.986
1349.759, 41.845
1350.959, 189.376
1352.158, 23.815
1353.357, 154.260
1354.555, 167.342
1355.754, 116.869
1356.952, 187.950
1358.151, 149.629
1359.349, 32.548
1360.546, 154.079
1361.744, 153.104
1362.941, 5.181
1364.139, 128.204
1365.336, 21.997
1366.533, 89.744
1367.730, 79.121
1368.926, 95.124
1370.123, 91.143
1371.319, 194.766
1372.515, 28.620
1373.711, 136.991
1374.906, 112.555
1376.102, 55.847
1377.297, 159.188
1378.492, 6.884
1379.687, 64.734
1380.882, 151.384
1382.077, 34.798
1383.271, 284.933
1384.465, 243.462
1385.659, 4.980
1386.853, 211.790
1388.047, 138.295
1389.240, 57.145
1390.434, 181.338
1391.627, 34.142
1392.820, 165.174
1394.013, 284.317
1395.205, 41.542
1396.398, 266.833
1397.590, 21.653
1398.782, 28.131
1399.974, 185.812
1401.166, 91.004
1402.357, 6.935
1403.549, 323.823
1404.740, 88.389
1405.931, 189.168
1407.122, 190.751
1408.313, 150.322
1409.503, 226.280
1410.693, 239.211
1411.883, 47.501
1413.073, 337.003
1414.263, 154.854
1415.453, 110.610
1416.642, 358.172
1417.831, 152.746
1419.020, 167.527
1420.209, 259.154
1421.398, 11.644
1422.587, 315.985
1423.775, 219.450
1424.963, 147.597
1426.151, 394.929
1427.339, 188.796
1428.526, 153.537
1429.714, 370.849
1430.901, 148.016
1432.088, 273.915
1433.275, 346.062
1434.462, 229.747
1435.648, 405.764
1436.835, 427.433
1438.021, 216.014
1439.207, 504.462
1440.393, 382.177
1441.579, 396.598
1442.764, 715.326
1443.949, 468.558
1445.135, 652.752
1446.320, 574.451
1447.504, 359.617
1448.689, 633.952
1449.873, 574.447
1451.058, 470.754
1452.242, 681.491
1453.426, 514.649
1454.609, 498.722
1455.793, 716.034
1456.976, 410.583
1458.159, 652.024
1459.342, 700.036
1460.525, 507.919
1461.708, 599.103
1462.890, 555.475
1464.073, 409.556
1465.255, 681.376
1466.437, 416.619
1467.619, 340.038
1468.800, 654.531
1469.982, 366.555
1471.163, 456.633
1472.344, 598.438
1473.525, 251.055
1474.706, 448.708
1475.886, 497.823
1477.066, 173.907
1478.247, 565.747
1479.427, 344.479
1480.607, 241.049
1481.786, 506.352
1482.966, 229.833
1484.145, 290.348
1485.324, 387.120
1486.503, 181.844
1487.682, 414.588
1488.860, 488.266
1490.039, 40.349
1491.217, 336.814
1492.395, 301.297
1493.573, 68.703
1494.751, 410.080
1495.928, 234.698
1497.106, 88.575
1498.283, 374.646
1499.460, 102.855
1500.637, 205.233
1501.814, 330.854
1502.990, 15.741
1504.166, 242.925
1505.342, 318.350
1506.518, 45.134
1507.694, 212.324
1508.870, 169.996
1510.045, 39.205
1511.221, 337.061
