##NAMES=Fluor-buergerite
##RRUFFID=R060132
##IDEAL CHEMISTRY=NaFe^3+^_3_Al_6_(Si_6_O_18_)(BO_3_)_3_O_3_F
##LOCALITY=20 km. south of San Luis Potasi, Mexico
##OWNER=RRUFF
##SOURCE=University of Arizona Mineral Museum
##DESCRIPTION=Brown short prismatic
##STATUS=The identification of this mineral has been confirmed by X-ray diffraction and chemical analysis
##URL=rruff.info/R060132
##MEASURED CHEMISTRY=(Na_0.87_Ca_0.03_[box]_0.10_)(Fe^3+^_0.82_Al_0.12_Mg_0.04_Ti_0.02_)_3_Al_6_(BO_3_)_3_(Si_0.98_Al_0.02_)_6_O_18_(O_0.66_F_0.19_(OH)_0.15_)_4_
##PIN_ID=L01714
##ORIENTATION=Laser parallel to a* (1 0 0). Fiducial mark perpendicular to laser is parallel to -c [0 0 -1]
120.5960, 0.0000000E+00
121.8270, 92.09863
123.0580, 282.4463
124.2880, 304.7944
125.5190, 21.49170
126.7490, 50.37598
127.9790, 163.8364
129.2090, 429.9702
130.4390, 641.3101
131.6680, 784.9346
132.8980, 934.7261
134.1270, 1015.519
135.3560, 1338.332
136.5850, 1685.020
137.8140, 2319.830
139.0430, 2955.103
140.2710, 3575.058
141.5000, 4145.825
142.7280, 5003.478
143.9560, 6100.059
145.1840, 7144.588
146.4120, 8504.087
147.6390, 9767.181
148.8670, 10840.71
150.0940, 11643.97
151.3210, 12162.38
152.5490, 12187.20
153.7750, 11179.34
155.0020, 9914.767
156.2290, 8338.402
157.4550, 6879.199
158.6810, 5581.076
159.9080, 4317.943
161.1340, 3297.729
162.3590, 2494.383
163.5850, 1921.854
164.8110, 1421.101
166.0360, 1017.088
167.2610, 756.7988
168.4860, 495.2334
169.7110, 488.3926
170.9360, 215.2812
172.1610, 123.8789
173.3850, 54.85059
174.6100, 148.9277
175.8340, 193.3750
177.0580, 293.1924
178.2820, 197.3848
179.5050, 119.9717
180.7290, 32.02637
181.9520, 250.5898
183.1760, 376.3906
184.3990, 362.3447
185.6220, 670.5059
186.8450, 839.1689
188.0670, 879.3223
189.2900, 1189.953
190.5120, 1284.049
191.7340, 1647.600
192.9560, 1893.596
194.1780, 2393.927
195.4000, 2610.304
196.6220, 2814.747
197.8430, 3196.292
199.0640, 3470.979
200.2860, 4013.829
201.5070, 4482.857
202.7270, 5084.074
203.9480, 5050.488
205.1690, 5319.107
206.3890, 5469.937
207.6090, 6040.985
208.8290, 6738.240
210.0490, 7677.706
211.2690, 8630.467
212.4890, 10034.58
213.7080, 11331.22
214.9280, 12951.37
216.1470, 14556.97
217.3660, 16561.07
218.5850, 18924.76
219.8030, 21492.04
221.0220, 24622.76
222.2400, 28133.55
223.4590, 31865.40
224.6770, 35772.45
225.8950, 40083.72
227.1120, 44302.20
228.3300, 48246.89
229.5480, 50724.80
230.7650, 51961.05
231.9820, 52044.81
233.1990, 50606.04
234.4160, 48821.59
235.6330, 46180.32
236.8490, 43271.25
238.0660, 40558.34
239.2820, 37622.61
240.4980, 34475.07
241.7140, 32192.70
242.9300, 29040.51
244.1460, 27224.50
245.3610, 25116.68
246.5770, 23298.04
247.7920, 22040.56
249.0070, 20762.27
250.2220, 19535.15
251.4370, 18975.22
252.6510, 17959.46
253.8660, 17422.88
255.0800, 16551.47
256.2940, 15822.25
257.5080, 15301.19
258.7220, 14599.31
259.9360, 13937.60
261.1490, 13024.07
262.3630, 11455.71
263.5760, 10354.52
264.7890, 9241.503
266.0020, 8242.657
267.2150, 7291.337
268.4270, 6433.119
269.6400, 5666.622
270.8520, 4957.723
272.0640, 4427.779
273.2760, 3889.914
274.4880, 3584.526
275.7000, 3336.568
276.9120, 3174.008
278.1230, 2973.818
279.3340, 2625.982
280.5450, 2672.476
281.7560, 2679.240
282.9670, 2820.265
284.1780, 3089.551
285.3880, 3189.098
286.5980, 3601.901
287.8090, 4101.958
289.0190, 4783.266
290.2290, 5622.818
291.4380, 6619.615
292.6480, 7130.648
293.8570, 8056.770
295.0670, 8992.750
296.2760, 9642.770
297.4850, 9872.037
298.6930, 9817.548
299.9020, 9301.051
301.1110, 8093.176
302.3190, 6758.217
303.5270, 5467.951
304.7350, 4412.438
305.9430, 3068.024
307.1510, 2243.959
308.3580, 1425.725
309.5660, 969.8320
310.7730, 590.4629
311.9800, 469.0215
313.1870, 488.1699
314.3940, 536.1064
315.6010, 479.3525
316.8070, 863.1396
318.0130, 907.5273
319.2200, 1170.160
320.4260, 1140.641
321.6310, 1603.041
322.8370, 1705.210
324.0430, 1944.835
325.2480, 2190.371
326.4540, 2610.318
327.6590, 2928.422
328.8640, 3452.681
330.0680, 3726.856
331.2730, 4178.418
332.4780, 4531.127
333.6820, 4947.984
334.8860, 5562.029
336.0900, 6105.178
337.2940, 6778.551
338.4980, 7325.547
339.7010, 7861.188
340.9050, 8637.013
342.1080, 9573.445
343.3110, 10143.09
344.5140, 10945.58
345.7170, 11554.32
346.9200, 12368.71
348.1220, 13297.23
349.3240, 13960.90
350.5270, 14950.69
351.7290, 15988.62
352.9310, 17205.68
354.1320, 18364.61
355.3340, 19751.21
356.5350, 21094.67
357.7370, 22686.26
358.9380, 24543.98
360.1390, 26258.82
361.3400, 28278.79
362.5400, 30664.89
363.7410, 33019.11
364.9410, 35396.44
366.1410, 38029.90
367.3410, 40504.47
368.5410, 42630.16
369.7410, 44050.96
370.9400, 44823.89
372.1400, 44612.93
373.3390, 43653.09
374.5380, 41885.37
375.7370, 39466.75
376.9360, 36658.26
378.1350, 33529.87
379.3330, 30795.60
380.5310, 27896.44
381.7300, 25175.39
382.9280, 22758.44
384.1260, 20655.26
385.3230, 18984.89
386.5210, 17186.27
387.7180, 15905.76
388.9160, 14727.37
390.1130, 13718.08
391.3100, 12976.89
392.5060, 11890.82
393.7030, 11319.85
394.9000, 10485.99
396.0960, 10065.23
397.2920, 9404.580
398.4880, 8822.036
399.6840, 8463.598
400.8800, 8058.262
402.0750, 7671.032
403.2710, 7294.355
404.4660, 6898.986
405.6610, 6543.971
406.8560, 6121.068
408.0510, 5771.447
409.2450, 5374.843
410.4400, 5080.340
411.6340, 4725.990
412.8280, 4256.791
414.0220, 3908.742
415.2160, 3677.844
416.4100, 3285.069
417.6030, 3137.499
418.7970, 2725.042
419.9900, 2496.726
421.1830, 2372.551
422.3760, 2250.514
423.5690, 2034.615
424.7610, 1890.854
425.9540, 1694.232
427.1460, 1493.744
428.3380, 1352.393
429.5300, 1167.384
430.7220, 1024.091
431.9140, 809.1416
433.1050, 822.3252
434.2970, 586.6416
435.4880, 588.0889
436.6790, 539.6680
437.8700, 423.3770
439.0610, 252.2178
440.2510, 85.19238
441.4420, 52.29785
442.6320, 16.46582
443.8220, 112.1221
445.0120, 39.70703
446.2020, 71.19629
447.3910, 266.5996
448.5810, 224.0010
449.7700, 206.3809
450.9600, 158.7354
452.1490, 181.0430
453.3370, 83.31543
454.5260, 201.5127
455.7150, 328.6836
456.9030, 240.8838
458.0910, 283.0742
459.2800, 270.2754
460.4670, 318.4824
461.6550, 226.7148
462.8430, 122.9277
464.0300, 24.93457
465.2180, 138.9385
466.4050, 33.10742
467.5920, 58.58008
468.7790, 120.8271
469.9650, 50.35156
471.1520, 71.99609
472.3380, 36.24219
473.5250, 166.6074
474.7110, 56.11523
475.8970, 96.65820
477.0820, 21.14160
478.2680, 55.15039
479.4540, 27.55859
480.6390, 119.9238
481.8240, 130.3555
483.0090, 290.7402
484.1940, 340.1455
485.3780, 202.5918
486.5630, 197.0234
487.7470, 76.43652
488.9320, 22.77637
490.1160, 48.84180
491.3000, 173.8320
492.4830, 180.8047
493.6670, 226.8896
494.8500, 234.0859
496.0340, 474.3945
497.2170, 615.9873
498.4000, 1171.352
499.5820, 1044.007
500.7650, 1317.791
501.9480, 1458.699
503.1300, 1433.748
504.3120, 1703.923
505.4940, 1863.229
506.6760, 1798.645
507.8580, 2094.183
509.0390, 2290.828
510.2210, 2511.627
511.4020, 3056.539
512.5830, 3376.578
513.7640, 3960.777
514.9450, 4179.143
516.1250, 4517.654
517.3060, 5026.283
518.4860, 5165.045
519.6660, 5223.933
520.8460, 5446.937
522.0260, 5347.053
523.2060, 5292.282
524.3850, 5227.621
525.5650, 5080.240
526.7440, 4861.623
527.9230, 4798.291
529.1020, 4520.064
530.2810, 4396.949
531.4590, 4403.940
532.6380, 3997.042
533.8160, 3955.252
534.9940, 3793.564
536.1720, 3672.982
537.3500, 3534.509
538.5270, 3489.141
539.7050, 3304.887
540.8820, 3267.774
542.0590, 3189.776
543.2360, 3191.923
544.4130, 3028.178
545.5900, 2874.544
546.7660, 2873.038
547.9430, 2833.635
549.1190, 2575.338
550.2950, 2628.155
551.4710, 2585.090
552.6470, 2460.154
553.8220, 2415.354
554.9980, 2395.709
556.1730, 2461.219
557.3480, 2227.891
558.5230, 2281.715
559.6980, 2079.685
560.8730, 2214.787
562.0470, 2179.028
563.2220, 2300.419
564.3960, 2409.949
565.5700, 2428.622
566.7440, 2569.446
567.9170, 2678.402
569.0910, 2739.490
570.2640, 2926.714
571.4380, 3144.081
572.6110, 3078.595
573.7840, 3283.214
574.9570, 3442.938
576.1290, 3479.761
577.3020, 3600.678
578.4740, 3826.695
579.6460, 3842.814
580.8180, 4149.025
581.9900, 4250.336
583.1620, 4474.750
584.3330, 4822.514
585.5040, 4882.996
586.6760, 5219.879
587.8470, 5243.379
589.0180, 5565.425
590.1880, 5765.666
591.3590, 6078.859
592.5290, 6324.504
593.7000, 6723.092
594.8700, 6853.444
596.0400, 7415.147
597.2090, 7570.537
598.3790, 8227.413
599.5490, 8476.247
600.7180, 8762.805
601.8870, 9136.021
603.0560, 9267.930
604.2250, 9618.109
605.3940, 9802.965
606.5620, 10025.10
607.7300, 10312.27
608.8990, 10321.76
610.0670, 10460.13
611.2350, 10476.58
612.4020, 10646.11
613.5700, 10924.42
614.7370, 11203.85
615.9050, 11704.36
617.0720, 12112.17
618.2390, 12761.01
619.4060, 13530.95
620.5720, 14569.88
621.7390, 15792.38
622.9050, 16997.45
624.0710, 18715.54
625.2370, 20580.22
626.4030, 23049.89
627.5690, 25918.92
628.7340, 29205.39
629.9000, 32363.92
631.0650, 35941.50
632.2300, 38689.16
633.3950, 40834.87
634.5600, 41817.64
635.7240, 42478.49
636.8890, 41958.84
638.0530, 40496.79
639.2170, 38934.53
640.3810, 37062.91
641.5450, 34946.00
642.7080, 32765.49
643.8720, 30635.12
645.0350, 28654.57
646.1980, 26716.39
647.3610, 24789.87
648.5240, 23045.41
649.6870, 21262.96
650.8490, 19734.62
652.0120, 18255.06
653.1740, 16702.04
654.3360, 15314.46
655.4980, 13915.38
656.6600, 12996.36
657.8210, 12059.94
658.9830, 11040.15
660.1440, 10256.00
661.3050, 9496.918
662.4660, 8878.607
663.6270, 8267.077
664.7870, 7534.986
665.9480, 7093.916
667.1080, 6554.898
668.2680, 6113.911
669.4280, 5529.056
670.5880, 5016.400
671.7480, 4833.351
672.9070, 4528.458
674.0670, 4220.885
675.2260, 3733.414
676.3850, 3613.841
677.5440, 3385.086
678.7030, 2909.896
679.8610, 2804.775
681.0200, 2588.324
682.1780, 2454.584
683.3360, 2273.520
684.4940, 2536.029
685.6520, 2658.131
686.8090, 2746.426
687.9670, 3122.095
689.1240, 3404.586
690.2810, 3755.009
691.4380, 3989.557
692.5950, 4557.104
693.7520, 4908.802
694.9080, 5743.571
696.0650, 6373.248
697.2210, 7080.005
698.3770, 7948.231
699.5330, 8686.241
700.6880, 9157.189
701.8440, 10158.46
702.9990, 10708.16
704.1550, 11110.95
705.3100, 11369.59
706.4650, 11204.12
707.6190, 10711.44
708.7740, 10233.81
709.9290, 9671.820
711.0830, 8941.837
712.2370, 8161.455
713.3910, 7252.855
714.5450, 6500.466
715.6980, 5835.049
716.8520, 4996.826
718.0050, 4250.299
719.1580, 3726.182
720.3110, 3404.957
721.4640, 2863.135
722.6170, 2652.777
723.7700, 2462.868
724.9220, 2008.276
726.0740, 1827.460
727.2260, 1672.268
728.3780, 1627.754
729.5300, 1669.595
730.6810, 1545.602
731.8330, 1401.483
732.9840, 1462.653
734.1350, 1369.586
735.2860, 1400.854
736.4370, 1205.646
737.5880, 1299.582
738.7380, 1196.061
739.8880, 1024.994
741.0390, 1166.927
742.1890, 1098.652
743.3380, 1152.924
744.4880, 1158.524
745.6380, 1054.309
746.7870, 1214.184
747.9360, 1118.993
749.0850, 977.7109
750.2340, 978.6729
751.3830, 1008.921
752.5310, 933.7227
753.6800, 897.3154
754.8280, 865.3965
755.9760, 804.2881
757.1240, 760.3721
758.2720, 687.3057
759.4190, 652.2393
760.5670, 556.1289
761.7140, 504.1201
762.8610, 383.6362
764.0080, 240.4243
765.1550, 191.9458
766.3020, 9.545410
767.4480, 73.91504
768.5950, 150.3247
769.7410, 295.6714
770.8870, 87.95361
772.0330, 160.1709
773.1780, 44.32324
774.3240, 7.407227
775.4690, 69.41699
776.6140, 21.64111
777.7590, 44.78955
778.9040, 37.04297
780.0490, 88.39844
781.1940, 39.88428
782.3380, 54.47803
783.4820, 64.81201
784.6260, 12.97314
785.7700, 84.14355
786.9140, 135.8164
788.0580, 24.05762
789.2010, 33.15479
790.3450, 166.4824
791.4880, 170.9966
792.6310, 112.7017
793.7730, 0.4326170
794.9160, 54.53711
796.0590, 30.64062
797.2010, 17.13330
798.3430, 19.80811
799.4850, 36.38330
800.6270, 55.86035
801.7690, 101.2417
802.9100, 107.5317
804.0520, 44.72998
805.1930, 116.8271
806.3340, 47.83203
807.4750, 105.7334
808.6160, 71.53906
809.7560, 68.24316
810.8970, 224.8438
812.0370, 120.3560
813.1770, 66.77051
814.3170, 157.0771
815.4570, 13.28809
816.5960, 82.62354
817.7360, 30.29102
818.8750, 100.9121
820.0140, 68.69971
821.1530, 44.19873
822.2920, 29.42090
823.4310, 123.8081
824.5690, 103.9292
825.7070, 19.93896
826.8460, 3.819336
827.9840, 44.43896
829.1220, 58.86230
830.2590, 139.4604
831.3970, 139.2749
832.5340, 168.3086
833.6710, 136.5762
834.8080, 111.0620
835.9450, 58.75488
837.0820, 88.62695
838.2190, 124.6948
839.3550, 98.97852
840.4910, 99.46484
841.6270, 144.1553
842.7630, 62.07422
843.8990, 74.17871
845.0350, 90.47559
846.1700, 115.9736
847.3060, 131.6870
848.4410, 20.37451
849.5760, 26.29102
850.7100, 55.06494
851.8450, 109.7036
852.9800, 49.21582
854.1140, 25.59082
855.2480, 92.82129
856.3820, 49.92188
857.5160, 10.88428
858.6500, 21.69336
859.7830, 3.645020
860.9170, 67.85498
862.0500, 137.2188
863.1830, 253.4570
864.3160, 196.5811
865.4480, 171.5850
866.5810, 244.4658
867.7130, 173.2305
868.8460, 152.4966
869.9780, 171.9653
871.1100, 147.6128
872.2410, 190.0381
873.3730, 181.1772
874.5050, 221.1914
875.6360, 283.0957
876.7670, 288.8838
877.8980, 316.7139
879.0290, 371.1113
880.1590, 328.5571
881.2900, 302.8882
882.4200, 288.1030
883.5500, 294.2002
884.6800, 300.7402
885.8100, 267.0444
886.9400, 347.7964
888.0690, 409.4453
889.1990, 449.0352
890.3280, 560.5249
891.4570, 556.9111
892.5860, 578.7441
893.7140, 565.3696
894.8430, 554.4424
895.9710, 560.4097
897.1000, 532.2715
898.2280, 690.0273
899.3560, 590.7012
900.4830, 716.3037
901.6110, 681.8291
902.7380, 782.7798
903.8660, 706.1587
904.9930, 890.4365
906.1200, 894.6191
907.2460, 775.7002
908.3730, 807.6787
909.5000, 778.5234
910.6260, 754.8296
911.7520, 905.5039
912.8780, 758.3516
914.0040, 877.5083
915.1290, 843.9287
916.2550, 965.8950
917.3800, 929.7339
918.5050, 1055.428
919.6300, 963.2773
920.7550, 985.1270
921.8800, 928.8682
923.0040, 935.1426
924.1290, 927.4976
925.2530, 994.7671
926.3770, 947.8740
927.5010, 996.4922
928.6250, 1089.561
929.7480, 1223.505
930.8720, 1139.830
931.9950, 1205.472
933.1180, 1195.437
934.2410, 1337.296
935.3640, 1193.326
936.4860, 1312.518
937.6090, 1271.221
938.7310, 1264.843
939.8530, 1504.352
940.9750, 1464.792
942.0970, 1518.041
943.2180, 1521.028
944.3400, 1689.363
945.4610, 1729.494
946.5820, 1636.243
947.7030, 1848.828
948.8240, 1746.452
949.9450, 1789.194
951.0650, 1858.308
952.1860, 1798.286
953.3060, 1957.530
954.4260, 1986.998
955.5460, 2067.723
956.6650, 2059.807
957.7850, 2047.234
958.9040, 2151.737
960.0230, 2229.120
961.1420, 2288.951
962.2610, 2364.021
963.3800, 2461.417
964.4990, 2453.982
965.6170, 2486.329
966.7350, 2473.529
967.8530, 2442.756
968.9710, 2613.827
970.0890, 2635.356
971.2070, 2699.029
972.3240, 2730.692
973.4410, 2867.960
974.5580, 2876.712
975.6750, 2713.312
976.7920, 2596.985
977.9090, 2775.696
979.0250, 2703.535
980.1410, 2742.242
981.2580, 2954.244
982.3740, 2975.159
983.4890, 3106.393
984.6050, 3299.767
985.7200, 3406.852
986.8360, 3447.887
987.9510, 3501.648
989.0660, 3690.636
990.1810, 3856.132
991.2950, 3832.655
992.4100, 4041.697
993.5240, 4355.192
994.6390, 4400.167
995.7530, 4700.774
996.8660, 5086.541
997.9800, 5303.621
999.0940, 5454.004
1000.207, 5830.003
1001.320, 5844.800
1002.433, 6042.680
1003.546, 6011.232
1004.659, 6075.964
1005.772, 6191.324
1006.884, 6217.206
1007.996, 6002.858
1009.108, 6167.442
1010.220, 5834.058
1011.332, 5903.661
1012.444, 5606.440
1013.555, 5295.879
1014.666, 4986.644
1015.777, 4809.138
1016.888, 4676.453
1017.999, 4250.767
1019.110, 4105.508
1020.220, 3965.648
1021.331, 3714.511
1022.441, 3571.304
1023.551, 3346.085
1024.661, 3391.933
1025.770, 3353.391
1026.880, 3008.894
1027.989, 2992.297
1029.098, 2778.611
1030.207, 2573.907
1031.316, 2589.043
1032.425, 2466.919
1033.533, 2442.782
1034.642, 2379.056
1035.750, 2347.486
1036.858, 2332.171
1037.966, 2440.773
1039.073, 2491.744
1040.181, 2471.733
1041.288, 2454.431
1042.396, 2456.831
1043.503, 2460.096
1044.610, 2485.349
1045.716, 2572.176
1046.823, 2740.366
1047.929, 2953.029
1049.036, 3261.677
1050.142, 3356.362
1051.248, 3610.682
1052.353, 3898.950
1053.459, 3923.740
1054.564, 4107.849
1055.670, 4164.992
1056.775, 4390.141
1057.880, 4181.345
1058.985, 4285.422
1060.089, 4065.553
1061.194, 3972.862
1062.298, 3902.470
1063.402, 3756.665
1064.506, 3519.631
1065.610, 3286.396
1066.713, 3101.731
1067.817, 2914.854
1068.920, 2738.421
1070.023, 2503.438
1071.126, 2312.517
1072.229, 2131.578
1073.332, 2016.491
1074.435, 1921.525
1075.537, 1784.548
1076.639, 1847.237
1077.741, 1725.866
1078.843, 1709.854
1079.945, 1533.824
1081.046, 1563.781
1082.148, 1517.731
1083.249, 1406.667
1084.350, 1341.604
1085.451, 1262.567
1086.551, 1254.527
1087.652, 1279.520
1088.752, 1230.509
1089.853, 1192.497
1090.953, 1222.515
1092.053, 1214.673
1093.152, 1212.492
1094.252, 1239.490
1095.351, 1130.499
1096.451, 1078.531
1097.550, 1027.592
1098.649, 1011.702
1099.748, 874.8628
1100.846, 927.7090
1101.945, 944.3535
1103.043, 983.6694
1104.141, 1066.017
1105.239, 1096.404
1106.337, 1043.844
1107.434, 1029.325
1108.532, 976.8535
1109.629, 897.4375
1110.726, 955.0581
1111.823, 827.7183
1112.920, 768.4233
1114.017, 940.1802
1115.113, 733.9922
1116.210, 908.8223
1117.306, 929.6670
1118.402, 891.5244
1119.498, 866.3896
1120.593, 804.2681
1121.689, 837.1646
1122.784, 1163.071
1123.879, 1147.992
1124.974, 1525.937
1126.069, 725.8994
1127.164, 385.8896
1128.259, 472.8936
1129.353, 408.9072
1130.447, 425.9243
1131.541, 402.9473
1132.635, 429.9790
1133.729, 327.0156
1134.822, 256.0601
1135.916, 223.1157
1137.009, 207.1802
1138.102, 89.25586
1139.195, 165.3398
1140.288, 46.56641
1141.380, 130.5107
1142.473, 150.5938
1143.565, 111.6826
1144.657, 33.77637
1145.749, 158.8711
1146.841, 250.9717
1147.932, 193.0776
1149.024, 184.2578
1150.115, 1.310059
1151.206, 18.56738
1152.297, 40.44873
1153.388, 193.3467
1154.479, 29.34229
1155.569, 7.647949
1156.659, 107.6372
1157.750, 101.6289
1158.839, 153.6221
1159.929, 116.6191
1161.019, 88.61719
1162.108, 106.6201
1163.198, 72.37305
1164.287, 124.4053
1165.376, 95.50000
1166.465, 114.3984
1167.553, 102.9448
1168.642, 30.89453
1169.730, 25.36133
1170.818, 102.3701
1171.906, 237.1055
1172.994, 43.84277
1174.082, 120.5820
1175.170, 63.32715
1176.257, 44.92480
1177.344, 119.8008
1178.431, 42.45215
1179.518, 0.7265630
1180.605, 219.0010
1181.691, 20.61230
1182.778, 30.22852
1183.864, 5.152344
1184.950, 145.4629
1186.036, 41.08398
1187.122, 42.70801
1188.207, 23.33691
1189.292, 80.96875
1190.378, 33.39453
1191.463, 8.228516
1192.548, 0.1464840
1193.632, 52.49316
1194.717, 80.86328
1195.801, 25.26562
1196.886, 55.21680
1197.970, 77.88281
1199.054, 0.5507810
1200.137, 10.98633
1201.221, 93.57422
1202.305, 115.1387
1203.388, 66.28516
1204.471, 77.26074
1205.554, 42.81055
1206.637, 63.63086
1207.719, 45.09277
1208.802, 89.42676
1209.884, 61.95410
1210.966, 158.4873
1212.048, 169.0264
1213.130, 197.5732
1214.212, 111.1250
1215.293, 262.6836
1216.374, 104.2471
1217.456, 250.8174
1218.536, 157.4033
1219.617, 106.9932
1220.698, 294.5908
1221.778, 183.2002
1222.859, 273.8164
1223.939, 441.4375
1225.019, 568.0654
1226.099, 591.7002
1227.178, 684.0654
1228.258, 694.3672
1229.337, 726.6406
1230.417, 709.2998
1231.496, 661.9648
1232.574, 698.6348
1233.653, 795.3105
1234.732, 797.9912
1235.810, 911.6768
1236.888, 974.3682
1237.966, 1080.063
1239.044, 1230.764
1240.122, 1115.469
1241.199, 1311.179
1242.277, 1352.892
1243.354, 1175.609
1244.431, 1245.330
1245.508, 1254.056
1246.585, 1077.785
1247.661, 1252.519
1248.738, 1391.254
1249.814, 1378.994
1250.890, 1488.738
1251.966, 1561.486
1253.042, 1563.237
1254.117, 1692.992
1255.193, 1788.750
1256.268, 1861.512
1257.343, 1740.276
1258.418, 1866.045
1259.493, 1889.817
1260.567, 1855.592
1261.642, 1960.370
1262.716, 2115.151
1263.790, 2184.936
1264.864, 2057.723
1265.938, 2096.514
1267.011, 2043.309
1268.085, 2034.129
1269.158, 2040.850
1270.231, 2037.162
1271.304, 2130.969
1272.377, 2126.777
1273.450, 2146.592
1274.522, 2248.145
1275.594, 2374.773
1276.666, 2677.788
1277.738, 2775.615
1278.810, 3197.444
1279.882, 3511.854
1280.953, 3537.533
1282.025, 3864.119
1283.096, 4246.150
1284.167, 4264.315
1285.238, 4530.839
1286.308, 4680.700
1287.379, 4846.565
1288.449, 4757.436
1289.519, 4644.310
