##NAMES=Fluoro-richterite
##RRUFFID=R040019
##IDEAL CHEMISTRY=Na(NaCa)Mg_5_Si_8_O_22_F_2_
##LOCALITY=Wilberforce, Ontario, Canada
##OWNER=RRUFF
##SOURCE=University of Arizona Mineral Museum
##DESCRIPTION=Brown prismatic crystals
##STATUS=The identification of this mineral has been confirmed by X-ray diffraction and chemical analysis
##URL=rruff.info/R040019
##MEASURED CHEMISTRY=(Na_0.59_K_0.27_[box]_0.14_)_Σ=1_(Ca_1.30_Na_0.70_)_Σ=2_(Mg_4.67_Fe_0.17_Fe^3+^_0.10_Ti_0.03_Mn_0.02_Al_0.01_)_Σ=5_(Si_7.67_Al_0.33_)_Σ=8_(F_1.12_(OH)_0.88_)_Σ=2_; OH estimated by charge balance
##PIN_ID=L00117
##ORIENTATION=Laser parallel to [-1 0 -1]. Fiducial mark perpendicular to laser is parallel to -b* (0 -1 0)
144.787, 0.000
146.172, 53.214
147.557, 17.230
148.942, 12.254
150.327, 173.525
151.711, 446.560
153.096, 948.997
154.480, 1573.404
155.863, 2068.509
157.247, 2768.336
158.630, 3387.285
160.013, 3837.104
161.396, 3926.880
162.779, 3636.717
164.161, 3071.367
165.544, 2542.876
166.926, 2174.511
168.308, 1810.716
169.689, 1714.075
171.070, 1526.266
172.452, 1551.039
173.833, 1471.197
175.213, 1408.578
176.594, 1500.053
177.974, 1369.871
179.354, 1380.355
180.734, 1336.102
182.114, 1215.757
183.493, 1110.067
184.872, 1158.112
186.251, 1065.965
187.630, 1032.662
189.008, 1049.237
190.387, 1013.724
191.765, 1211.157
193.143, 1176.569
194.520, 1389.983
195.898, 1479.428
197.275, 1612.921
198.652, 1797.480
200.029, 2026.120
201.405, 2182.854
202.782, 2451.692
204.158, 2694.644
205.534, 3079.712
206.909, 3560.903
208.285, 3756.216
209.660, 4392.012
211.035, 5081.771
212.410, 5528.025
213.784, 6418.233
215.159, 7543.060
216.533, 8852.507
217.907, 10374.177
219.281, 12400.665
220.654, 14783.450
222.027, 17499.525
223.400, 20887.898
224.773, 24760.596
226.146, 28673.613
227.518, 32552.883
228.891, 35994.191
230.263, 38700.582
231.634, 40298.133
233.006, 39991.855
234.377, 38018.789
235.748, 35076.922
237.119, 31561.252
238.490, 27325.797
239.860, 24382.543
241.231, 20911.502
242.601, 18460.672
243.970, 16749.047
245.340, 15123.630
246.709, 13618.406
248.079, 12061.378
249.448, 10619.539
250.816, 8855.886
252.185, 7515.411
253.553, 6363.111
254.921, 5198.986
256.289, 4348.030
257.657, 3624.237
259.024, 2974.605
260.391, 2361.130
261.758, 2022.795
263.125, 1558.588
264.492, 1321.499
265.858, 1001.528
267.224, 781.674
268.590, 472.935
269.956, 280.310
271.321, 175.797
272.687, 37.395
274.052, 94.898
275.416, 245.083
276.781, 254.161
278.146, 374.134
279.510, 323.004
280.874, 337.772
282.237, 312.440
283.601, 343.011
284.964, 277.159
286.327, 296.862
287.690, 149.148
289.053, 116.342
290.416, 53.447
291.778, 142.521
293.140, 147.423
294.502, 428.192
295.863, 457.985
297.225, 803.984
298.586, 981.284
299.947, 1161.999
301.308, 1522.221
302.668, 1810.891
304.029, 2065.946
305.389, 2458.318
306.749, 2891.946
308.108, 3220.717
309.468, 3600.974
310.827, 4004.057
312.186, 4025.862
313.545, 4108.142
314.903, 4171.098
316.262, 3962.625
317.620, 3633.638
318.978, 3287.077
320.336, 2908.682
321.693, 2613.826
323.051, 2147.268
324.408, 1910.978
325.765, 1591.932
327.121, 1452.106
328.478, 1149.478
329.834, 1004.028
331.190, 885.741
332.546, 903.605
333.902, 768.610
335.257, 838.746
336.612, 798.005
337.967, 844.380
339.322, 924.867
340.677, 1069.458
342.031, 1091.144
343.385, 1233.897
344.739, 1264.699
346.093, 1375.543
347.446, 1452.434
348.799, 1370.369
350.153, 1472.351
351.505, 1495.379
352.858, 1588.454
354.210, 1665.575
355.563, 1898.744
356.915, 2204.959
358.267, 2463.221
359.618, 2904.529
360.969, 3419.883
362.321, 4037.282
363.672, 4411.728
365.022, 4766.214
366.373, 4996.746
367.723, 5151.321
369.073, 5117.937
370.423, 5054.594
371.773, 4986.293
373.122, 4960.994
374.471, 5018.531
375.821, 5328.814
377.169, 5372.881
378.518, 5771.753
379.866, 5883.514
381.215, 6245.275
382.563, 6529.094
383.910, 6663.968
385.258, 6761.896
386.605, 6853.875
387.952, 7007.908
389.299, 6816.989
390.646, 7034.117
391.992, 7003.294
393.339, 6902.518
394.685, 6997.789
396.031, 7127.105
397.376, 7032.465
398.722, 6746.869
400.067, 6646.313
401.412, 6294.799
402.757, 5927.325
404.101, 5754.891
405.446, 5312.492
406.790, 4744.130
408.134, 4495.804
409.478, 4106.512
410.821, 3777.252
412.165, 3674.023
413.508, 3300.827
414.851, 3339.659
416.193, 3319.521
417.536, 3419.411
418.878, 3702.326
420.220, 4026.268
421.562, 4288.235
422.904, 4683.645
424.245, 5075.238
425.586, 5451.274
426.927, 5739.331
428.268, 6065.409
429.609, 6110.506
430.949, 6183.623
432.289, 6328.757
433.629, 6296.911
434.969, 5738.078
436.309, 5444.341
437.648, 4582.541
438.987, 3950.614
440.326, 3315.968
441.665, 2681.216
443.003, 2196.131
444.342, 1759.063
445.680, 1338.983
447.018, 1148.283
448.355, 900.472
449.693, 616.302
451.030, 575.049
452.367, 564.598
453.704, 331.802
455.041, 140.924
456.377, 243.808
457.713, 180.247
459.049, 136.605
460.385, 168.872
461.721, 218.424
463.056, 241.500
464.391, 201.273
465.726, 250.722
467.061, 255.696
468.395, 182.074
469.730, 144.653
471.064, 173.889
472.398, 173.563
473.731, 160.927
475.065, 145.618
476.398, 34.583
477.731, 76.863
479.064, 53.146
480.397, 7.417
481.729, 42.666
483.062, 138.904
484.394, 167.131
485.725, 248.345
487.057, 260.342
488.389, 260.729
489.720, 273.896
491.051, 207.045
492.382, 207.175
493.712, 219.286
495.043, 274.376
496.373, 230.445
497.703, 256.493
499.032, 356.520
500.362, 443.522
501.691, 543.504
503.020, 612.463
504.349, 730.398
505.678, 947.309
507.007, 1051.195
508.335, 1265.057
509.663, 1417.894
510.991, 1679.706
512.319, 1966.491
513.646, 2313.252
514.973, 2676.986
516.300, 3072.696
517.627, 3608.398
518.954, 4102.077
520.280, 4429.726
521.607, 5088.346
522.933, 5174.936
524.259, 5245.521
525.584, 4896.085
526.910, 4447.634
528.235, 4007.160
529.560, 3464.667
530.885, 2960.173
532.209, 2437.646
533.534, 2050.113
534.858, 1877.572
536.182, 1641.018
537.506, 1560.466
538.829, 1407.895
540.152, 1312.320
541.476, 1310.737
542.799, 1211.129
544.121, 1113.498
545.444, 1076.835
546.766, 1124.137
548.088, 1142.404
549.410, 1111.636
550.732, 1143.832
552.053, 1132.995
553.375, 1065.120
554.696, 1062.208
556.017, 1094.257
557.337, 1110.267
558.658, 1064.238
559.978, 1030.170
561.298, 970.060
562.618, 1000.909
563.938, 927.717
565.257, 955.480
566.576, 882.202
567.895, 810.878
569.214, 906.509
570.533, 946.095
571.851, 941.634
573.170, 916.128
574.488, 1018.574
575.805, 1078.973
577.123, 1174.907
578.440, 1300.137
579.758, 1477.885
581.075, 1579.091
582.391, 1854.249
583.708, 2035.357
585.024, 2074.415
586.341, 2156.423
587.657, 2163.382
588.972, 2037.374
590.288, 1994.142
591.603, 1650.944
592.918, 1299.695
594.233, 973.395
595.548, 711.055
596.863, 441.703
598.177, 269.338
599.491, 139.974
600.805, 5.579
602.119, 101.893
603.432, 170.503
604.746, 158.284
606.059, 217.241
607.372, 171.405
608.685, 212.778
609.997, 206.390
611.309, 272.246
612.621, 190.391
613.933, 185.781
615.245, 177.978
616.557, 128.289
617.868, 110.378
619.179, 82.673
620.490, 42.916
621.801, 53.817
623.111, 34.347
624.421, 95.381
625.731, 149.305
627.041, 107.133
628.351, 256.854
629.660, 232.500
630.970, 341.063
632.279, 413.557
633.588, 501.986
634.896, 598.352
636.205, 590.660
637.513, 775.906
638.821, 784.302
640.129, 978.429
641.437, 1018.497
642.744, 1200.505
644.051, 1365.453
645.358, 1508.340
646.665, 1743.169
647.972, 1855.937
649.278, 2119.645
650.584, 2244.293
651.890, 2672.134
653.196, 2979.778
654.502, 3349.427
655.807, 3790.462
657.113, 4273.674
658.418, 4728.051
659.722, 5430.042
661.027, 5988.815
662.331, 6710.645
663.636, 7916.411
664.940, 9081.096
666.244, 10626.838
667.547, 12707.477
668.851, 14799.149
670.154, 18015.916
671.457, 21366.375
672.760, 25758.330
674.062, 31567.008
675.365, 37176.000
676.667, 43740.090
677.969, 49168.195
679.271, 54609.355
680.572, 56864.965
681.874, 55963.922
683.175, 53675.758
684.476, 50031.629
685.777, 41491.883
687.077, 34713.586
688.378, 28796.367
689.678, 24002.965
690.978, 19592.666
692.278, 16260.281
693.577, 13127.148
694.877, 11437.068
696.176, 9677.035
697.475, 8328.117
698.774, 7264.456
700.072, 6543.424
701.371, 5853.385
702.669, 5298.212
703.967, 4822.693
705.265, 4514.324
706.562, 4218.481
707.860, 4079.696
709.157, 3886.055
710.454, 3928.411
711.751, 3860.489
713.047, 3972.676
714.344, 3894.636
715.640, 4128.669
716.936, 4123.417
718.232, 4117.183
719.527, 4525.964
720.823, 4538.296
722.118, 4672.604
723.413, 4713.772
724.708, 4717.857
726.002, 4765.882
727.297, 4838.844
728.591, 4693.741
729.885, 4858.577
731.179, 4806.352
732.472, 4646.064
733.766, 4573.716
735.059, 4604.305
736.352, 4399.836
737.645, 4379.305
738.937, 4171.714
740.230, 4137.062
741.522, 3780.351
742.814, 3699.581
744.106, 3575.753
745.397, 3477.864
746.689, 3339.917
747.980, 3164.358
749.271, 2922.852
750.562, 2798.731
751.853, 2655.555
753.143, 2514.061
754.433, 2384.596
755.723, 2335.703
757.013, 2187.434
758.303, 2104.781
759.592, 2025.690
760.881, 1913.733
762.170, 1772.947
763.459, 1677.914
764.748, 1626.166
766.036, 1463.706
767.325, 1477.005
768.613, 1256.345
769.901, 1147.881
771.188, 1056.822
772.476, 898.802
773.763, 865.832
775.050, 744.532
776.337, 722.663
777.624, 669.048
778.910, 621.711
780.196, 569.798
781.482, 567.430
782.768, 534.651
784.054, 508.963
785.339, 498.772
786.625, 481.322
787.910, 438.202
789.195, 465.415
790.479, 412.964
791.764, 435.477
793.048, 448.968
794.332, 388.437
795.616, 437.878
796.900, 366.291
798.183, 351.675
799.467, 327.032
800.750, 383.362
802.033, 296.665
803.316, 280.940
804.598, 268.190
805.880, 200.414
807.163, 230.608
808.445, 212.776
809.726, 103.917
811.008, 186.027
812.289, 86.110
813.570, 64.164
814.851, 99.186
816.132, 69.179
817.413, 67.141
818.693, 70.074
819.973, 39.979
821.253, 46.853
822.533, 22.698
823.813, 2.179
825.092, 39.296
826.371, 8.950
827.650, 80.231
828.929, 14.582
830.208, 61.031
831.486, 37.618
832.764, 9.179
834.042, 105.290
835.320, 46.836
836.598, 65.429
837.875, 49.078
839.152, 58.772
840.429, 133.519
841.706, 0.353
842.983, 120.213
844.259, 108.155
845.536, 93.169
846.812, 147.246
848.088, 67.415
849.363, 121.632
850.639, 109.925
851.914, 39.288
853.189, 56.684
854.464, 2.793
855.739, 8.417
857.013, 72.935
858.288, 18.436
859.562, 1.919
860.836, 5.618
862.110, 28.826
863.383, 11.254
864.656, 59.667
865.930, 15.068
867.203, 51.456
868.475, 15.833
869.748, 66.201
871.020, 43.561
872.292, 21.914
873.564, 111.257
874.836, 99.599
876.108, 114.944
877.379, 150.991
878.650, 175.629
879.922, 196.977
881.192, 200.325
882.463, 241.681
883.733, 347.041
885.004, 345.412
886.274, 332.787
887.544, 450.177
888.813, 567.586
890.083, 536.019
891.352, 627.468
892.621, 779.935
893.890, 788.415
895.159, 944.907
896.427, 935.410
897.695, 1014.927
898.964, 1162.465
900.232, 1231.036
901.499, 1305.626
902.767, 1347.245
904.034, 1476.868
905.301, 1475.507
906.568, 1515.153
907.835, 1721.841
909.102, 1735.570
910.368, 1827.365
911.634, 1761.249
912.900, 1931.244
914.166, 2028.328
915.432, 2240.530
916.697, 2378.390
917.962, 2503.255
919.227, 2720.801
920.492, 2908.469
921.757, 3124.250
923.021, 3385.130
924.285, 3758.114
925.550, 4024.192
926.813, 4425.358
928.077, 4642.621
929.341, 4934.945
930.604, 5042.334
931.867, 5161.777
933.130, 5155.252
934.393, 5195.766
935.655, 5166.211
936.918, 4997.870
938.180, 5018.446
939.442, 4943.030
940.703, 4795.625
941.965, 4993.226
943.226, 4987.834
944.488, 4873.449
945.749, 5097.066
947.009, 5198.690
948.270, 5061.319
949.530, 5099.952
950.791, 5023.591
952.051, 5085.232
953.311, 4832.880
954.570, 4529.532
955.830, 4419.187
957.089, 4114.847
958.348, 3661.256
959.607, 3314.802
960.866, 3050.286
962.124, 2673.326
963.383, 2500.723
964.641, 2283.714
965.899, 2145.625
967.156, 2008.696
968.414, 1897.652
969.671, 1792.612
970.928, 1786.596
972.185, 1754.466
973.442, 1697.375
974.699, 1660.193
975.955, 1620.853
977.211, 1614.765
978.468, 1539.128
979.723, 1551.704
980.979, 1603.909
982.234, 1551.961
983.490, 1692.925
984.745, 1543.783
986.000, 1739.138
987.254, 1782.076
988.509, 1695.072
989.763, 1817.981
991.017, 1944.442
992.271, 2021.384
993.525, 2061.187
994.779, 2322.117
996.032, 2360.883
997.285, 2507.669
998.538, 2672.143
999.791, 2659.500
1001.044, 3053.749
1002.296, 3115.817
1003.548, 3375.567
1004.800, 3744.625
1006.052, 3894.627
1007.304, 4292.699
1008.555, 4482.055
1009.807, 4701.442
1011.058, 5011.815
1012.309, 5252.267
1013.559, 5370.960
1014.810, 5571.684
1016.060, 5514.946
1017.310, 5806.127
1018.560, 6067.615
1019.810, 5888.201
1021.060, 5976.196
1022.309, 6173.283
1023.558, 6144.901
1024.807, 6338.482
1026.056, 6377.315
1027.305, 6687.671
1028.553, 6792.699
1029.801, 7091.459
1031.049, 7463.291
1032.297, 7641.446
1033.545, 8146.884
1034.793, 8659.887
1036.040, 8920.085
1037.287, 9353.711
1038.534, 9557.598
1039.781, 9841.279
1041.027, 10152.021
1042.274, 9989.410
1043.520, 10183.278
1044.766, 10200.055
1046.012, 10085.190
1047.257, 10120.718
1048.503, 10056.140
1049.748, 10249.365
1050.993, 10235.365
1052.238, 10580.843
1053.483, 10549.485
1054.727, 10672.753
1055.971, 10687.505
1057.216, 10821.072
1058.459, 11128.397
1059.703, 11180.351
1060.947, 11439.593
1062.190, 11783.759
1063.433, 12047.246
1064.676, 12127.313
1065.919, 12438.608
1067.162, 12524.954
1068.404, 12972.438
1069.646, 12542.576
1070.888, 12511.923
1072.130, 12602.246
1073.372, 12100.365
1074.613, 11785.424
1075.855, 11472.521
1077.096, 10926.655
1078.337, 10472.604
1079.578, 10222.310
1080.818, 9807.589
1082.059, 9425.692
1083.299, 9168.602
1084.539, 8826.595
1085.779, 8474.454
1087.018, 8112.432
1088.258, 7859.152
1089.497, 7246.910
1090.736, 6787.837
1091.975, 6189.215
1093.213, 5833.773
1094.452, 5305.157
1095.690, 4904.290
1096.928, 4401.681
1098.166, 4230.771
1099.404, 3936.232
1100.642, 3682.959
1101.879, 3435.899
1103.116, 3228.499
1104.353, 3024.001
1105.590, 2866.819
1106.827, 2690.213
1108.063, 2532.779
1109.299, 2395.753
1110.536, 2301.907
1111.771, 2191.504
1113.007, 2117.869
1114.243, 2002.928
1115.478, 2037.457
1116.713, 1851.422
1117.948, 1798.573
1119.183, 1741.541
1120.418, 1613.480
1121.652, 1703.001
1122.886, 1782.815
1124.120, 1816.320
1125.354, 1664.630
1126.588, 1451.318
1127.821, 1324.146
1129.055, 1233.125
1130.288, 1112.695
1131.521, 1113.947
1132.753, 1119.758
1133.986, 1081.909
1135.218, 946.843
1136.450, 921.782
1137.682, 881.651
1138.914, 978.612
1140.146, 848.318
1141.377, 832.292
1142.609, 787.541
1143.840, 712.959
1145.071, 614.762
1146.301, 668.614
1147.532, 669.218
1148.762, 645.542
1149.992, 554.926
1151.222, 541.208
1152.452, 519.479
1153.682, 592.129
1154.911, 448.558
1156.140, 504.046
1157.369, 351.277
1158.598, 334.210
1159.827, 291.928
1161.055, 305.433
1162.284, 285.843
1163.512, 211.119
1164.740, 191.360
1165.967, 159.603
1167.195, 105.751
1168.422, 63.904
1169.650, 23.942
1170.877, 120.126
1172.103, 1.017
1173.330, 27.163
1174.557, 51.796
1175.783, 8.000
1177.009, 21.197
1178.235, 1.153
1179.461, 25.075
1180.686, 12.458
1181.912, 36.472
1183.137, 6.185
1184.362, 44.159
1185.587, 63.204
1186.811, 74.966
1188.036, 43.251
1189.260, 52.661
1190.484, 27.667
1191.708, 25.331
1192.932, 14.339
1194.155, 35.739
1195.378, 49.187
1196.602, 93.207
1197.825, 41.092
1199.047, 79.787
1200.270, 32.141
1201.492, 27.560
1202.715, 19.271
1203.937, 95.347
1205.159, 58.561
1206.380, 52.353
1207.602, 40.629
1208.823, 38.980
1210.044, 45.601
1211.265, 20.889
1212.486, 24.199
1213.707, 56.896
1214.927, 74.510
1216.147, 77.865
1217.367, 24.167
1218.587, 56.974
1219.807, 15.557
1221.027, 1.410
1222.246, 1.988
1223.465, 50.226
1224.684, 88.267
1225.903, 126.735
1227.121, 3.581
1228.340, 63.859
1229.558, 13.781
1230.776, 69.777
1231.994, 81.991
1233.212, 161.590
1234.429, 162.988
1235.646, 92.065
1236.864, 68.221
1238.081, 129.062
1239.297, 107.700
1240.514, 123.796
1241.730, 160.052
1242.947, 113.759
1244.163, 151.270
1245.378, 97.446
1246.594, 214.797
1247.810, 151.958
1249.025, 85.243
1250.240, 205.320
1251.455, 151.492
1252.670, 239.181
1253.885, 247.520
1255.099, 251.818
1256.313, 257.319
1257.527, 149.062
1258.741, 180.175
1259.955, 239.261
1261.168, 138.377
1262.382, 234.183
1263.595, 176.623
1264.808, 206.261
1266.021, 198.552
1267.233, 283.951
1268.446, 205.477
1269.658, 264.453
1270.870, 116.221
1272.082, 190.337
1273.294, 159.573
1274.505, 272.775
1275.716, 97.441
1276.928, 238.246
1278.139, 135.194
1279.349, 229.753
1280.560, 271.083
1281.770, 254.976
1282.981, 257.663
1284.191, 220.193
1285.401, 266.616
1286.610, 191.920
1287.820, 149.307
1289.029, 295.297
1290.239, 191.132
1291.448, 178.449
1292.656, 213.020
1293.865, 262.906
1295.073, 235.199
1296.282, 245.033
1297.490, 189.391
1298.698, 182.282
1299.906, 175.244
1301.113, 157.989
1302.320, 178.306
1303.528, 205.475
1304.735, 233.994
1305.942, 262.248
1307.148, 261.142
1308.355, 269.700
1309.561, 252.853
1310.767, 226.706
1311.973, 223.205
1313.179, 200.503
1314.384, 200.807
1315.590, 169.625
1316.795, 191.104
1318.000, 184.841
1319.205, 151.065
1320.410, 245.653
1321.614, 139.393
1322.819, 62.197
1324.023, 192.780
1325.227, 169.751
1326.431, 117.511
1327.634, 119.232
1328.838, 70.545
1330.041, 119.217
1331.244, 174.423
1332.447, 226.629
1333.650, 213.705
1334.852, 131.637
1336.055, 190.014
1337.257, 99.273
1338.459, 117.020
1339.661, 105.111
1340.862, 144.096
1342.064, 101.212
1343.265, 72.200
1344.466, 206.497
1345.667, 125.421
1346.868, 158.514
1348.068, 222.010
1349.269, 114.366
1350.469, 57.795
1351.669, 74.371
1352.869, 75.444
1354.069, 134.561
1355.268, 143.969
1356.468, 98.823
1357.667, 149.008
1358.866, 72.467
1360.065, 68.045
1361.263, 94.935
1362.462, 37.771
1363.660, 24.694
1364.858, 148.789
1366.056, 72.740
1367.254, 34.908
1368.451, 34.347
1369.649, 15.193
1370.846, 14.142
1372.043, 75.645
1373.240, 65.085
1374.436, 34.422
1375.633, 45.401
1376.829, 35.754
1378.025, 3.259
1379.221, 16.807
1380.417, 87.477
1381.613, 24.024
1382.808, 34.503
1384.003, 52.503
1385.199, 45.295
1386.393, 63.327
1387.588, 6.172
1388.783, 94.593
1389.977, 60.154
1391.171, 64.548
1392.365, 11.218
1393.559, 48.969
1394.753, 33.809
1395.946, 57.704
1397.140, 78.458
1398.333, 65.941
1399.526, 184.807
1400.719, 85.596
1401.911, 184.915
1403.104, 155.984
1404.296, 118.611
1405.488, 150.417
1406.680, 49.941
1407.872, 120.030
1409.063, 163.433
1410.255, 111.139
1411.446, 23.056
1412.637, 124.162
1413.828, 135.966
1415.018, 252.932
1416.209, 185.596
1417.399, 154.566
1418.589, 60.912
1419.779, 168.489
1420.969, 104.503
1422.159, 143.606
1423.348, 153.056
1424.537, 214.609
1425.726, 216.984
1426.915, 211.322
1428.104, 196.303
1429.293, 183.072
1430.481, 118.240
1431.669, 168.816
1432.857, 161.236
1434.045, 242.871
1435.233, 140.941
1436.420, 259.367
1437.608, 356.697
1438.795, 186.001
1439.982, 257.781
1441.169, 415.864
1442.355, 290.860
1443.542, 182.410
1444.728, 311.274
1445.914, 233.227
1447.100, 319.941
1448.286, 292.401
1449.472, 210.562
1450.657, 200.599
1451.842, 355.898
1453.027, 283.463
1454.212, 305.839
1455.397, 392.513
1456.581, 235.051
1457.766, 211.625
1458.950, 372.809
1460.134, 248.857
1461.318, 358.241
1462.501, 286.188
1463.685, 248.848
1464.868, 317.055
1466.051, 226.182
1467.234, 252.146
1468.417, 158.368
1469.600, 264.053
1470.782, 314.273
1471.965, 314.716
1473.147, 341.408
1474.329, 348.490
1475.510, 323.528
1476.692, 217.932
1477.873, 216.457
1479.055, 243.401
1480.236, 165.937
1481.416, 265.069
1482.597, 220.489
1483.778, 129.173
1484.958, 192.222
1486.138, 200.392
1487.318, 166.782
1488.498, 327.177
1489.678, 118.732
1490.857, 142.811
1492.037, 234.775
1493.216, 209.521
1494.395, 258.077
1495.574, 81.439
1496.752, 189.311
1497.931, 60.205
1499.109, 219.188
1500.287, 20.635
1501.465, 173.229
1502.643, 59.479
1503.820, 99.963
1504.998, 16.543
1506.175, 97.301
1507.352, 101.047
1508.529, 1.996
1509.706, 116.029
1510.882, 39.234
1512.059, 99.426
1513.235, 151.693
1514.411, 94.051
1515.587, 98.059
1516.762, 152.195
1517.938, 74.914
1519.113, 0.467
1520.288, 0.000
##END=



