##NAMES=Fluorapophyllite-(K)
##RRUFFID=R060554
##IDEAL CHEMISTRY=KCa_4_Si_8_O_20_F&#183;8H_2_O
##LOCALITY=unknown
##OWNER=RRUFF
##SOURCE=Gemological Institute of America
##DESCRIPTION=Colorless polished fragment
##STATUS=The identification of this mineral has been confirmed by X-ray diffraction and chemical analysis
##URL=rruff.info/R060554
##MEASURED CHEMISTRY=(K_0.88_Na_0.12_)Ca_4.00_Si_8.00_O_20_F_1.00_Â·8H2O
##PIN_ID=L01258
##ORIENTATION=Laser parallel to c* (0 0 1). Fiducial mark perpendicular to laser is parallel to a [1 0 0]
53.91000, 0.0000000E+00
55.14900, 68.94290
56.38700, 154.2446
57.62600, 237.3011
58.86400, 276.4500
60.10300, 446.5895
61.34100, 458.8698
62.57900, 259.5382
63.81700, 126.6607
65.05400, 25.38788
66.29200, 110.3973
67.52900, 157.1564
68.76700, 92.38464
70.00400, 19.26477
71.24100, 52.19739
72.47700, 224.8741
73.71400, 544.7939
74.95100, 1094.465
76.18700, 1875.425
77.42300, 2631.270
78.65900, 3814.670
79.89500, 5382.372
81.13100, 7389.145
82.36700, 9639.766
83.60200, 12231.03
84.83700, 14992.74
86.07200, 17858.69
87.30800, 20241.74
88.54200, 22005.71
89.77700, 22829.45
91.01200, 22758.83
92.24600, 21576.64
93.48000, 19902.67
94.71400, 18514.74
95.94800, 17478.70
97.18200, 17019.43
98.41600, 17189.84
99.64900, 17348.87
100.8830, 18762.56
102.1160, 21832.98
103.3490, 25891.17
104.5820, 30487.11
105.8150, 33896.74
107.0470, 35120.00
108.2800, 34210.79
109.5120, 29992.04
110.7440, 23987.68
111.9760, 19351.65
113.2080, 16353.89
114.4400, 14310.35
115.6710, 13323.99
116.9030, 13027.74
118.1340, 13585.58
119.3650, 14677.46
120.5960, 16278.35
121.8270, 17313.20
123.0580, 17898.00
124.2880, 17956.70
125.5190, 17645.27
126.7490, 17133.69
127.9790, 16627.76
129.2090, 16148.91
130.4390, 15603.14
131.6680, 14314.42
132.8980, 12941.75
134.1270, 10908.06
135.3560, 8872.512
136.5850, 7090.306
137.8140, 5695.450
139.0430, 4931.924
140.2710, 4291.751
141.5000, 3981.958
142.7280, 3871.103
143.9560, 3906.812
145.1840, 4362.319
146.4120, 4985.483
147.6390, 5813.582
148.8670, 7146.491
150.0940, 8960.044
151.3210, 10910.04
152.5490, 12781.17
153.7750, 14660.21
155.0020, 17312.93
156.2290, 20621.10
157.4550, 24029.60
158.6810, 27203.35
159.9080, 29400.33
161.1340, 29847.55
162.3590, 28809.00
163.5850, 25799.70
164.8110, 22050.64
166.0360, 18123.82
167.2610, 14601.25
168.4860, 11811.92
169.7110, 9703.838
170.9360, 8866.996
172.1610, 8558.393
173.3850, 9014.038
174.6100, 9895.064
175.8340, 11411.32
177.0580, 13468.42
178.2820, 16164.02
179.5050, 19320.85
180.7290, 23132.92
181.9520, 27056.21
183.1760, 30004.73
184.3990, 31029.47
185.6220, 31104.42
186.8450, 29032.61
188.0670, 26208.00
189.2900, 22988.60
190.5120, 20479.42
191.7340, 18531.44
192.9560, 17579.67
194.1780, 17389.10
195.4000, 18027.72
196.6220, 19746.55
197.8430, 21953.56
199.0640, 24981.77
200.2860, 28276.17
201.5070, 32625.12
202.7270, 37187.76
203.9480, 42259.10
205.1690, 47742.05
206.3890, 53045.81
207.6090, 56876.92
208.8290, 59317.16
210.0490, 59280.41
211.2690, 57691.12
212.4890, 53979.12
213.7080, 50258.59
214.9280, 46135.34
216.1470, 41910.87
217.3660, 38676.47
218.5850, 36175.47
219.8030, 34075.09
221.0220, 33410.95
222.2400, 32724.45
223.4590, 32058.54
224.6770, 31644.22
225.8950, 30911.46
227.1120, 29747.24
228.3300, 28349.53
229.5480, 25987.32
230.7650, 23340.59
231.9820, 21027.73
233.1990, 17889.85
234.4160, 15166.50
235.6330, 12830.32
236.8490, 10903.45
238.0660, 9054.543
239.2820, 7459.510
240.4980, 6392.307
241.7140, 5406.366
242.9300, 4796.674
244.1460, 4026.111
245.3610, 3439.791
246.5770, 3177.670
247.7920, 2951.932
249.0070, 2817.448
250.2220, 2550.041
251.4370, 2631.218
252.6510, 2608.279
253.8660, 2838.807
255.0800, 3155.141
256.2940, 3543.393
257.5080, 4298.422
258.7220, 4648.221
259.9360, 5390.312
261.1490, 5679.522
262.3630, 6409.937
263.5760, 6989.551
264.7890, 7429.360
266.0020, 7791.356
267.2150, 7504.537
268.4270, 7212.903
269.6400, 6563.441
270.8520, 5735.151
272.0640, 5151.028
273.2760, 4560.069
274.4880, 4087.270
275.7000, 3826.630
276.9120, 3692.338
278.1230, 3705.832
279.3340, 3902.672
280.5450, 4219.672
281.7560, 4686.460
282.9670, 5405.147
284.1780, 6151.621
285.3880, 7136.247
286.5980, 8301.025
287.8090, 9717.954
289.0190, 11238.03
290.2290, 12902.26
291.4380, 14580.62
292.6480, 16328.12
293.8570, 17934.74
295.0670, 18950.48
296.2760, 19862.33
297.4850, 19680.28
298.6930, 19081.33
299.9020, 17562.47
301.1110, 15780.70
302.3190, 13940.02
303.5270, 11829.43
304.7350, 10195.92
305.9430, 8695.500
307.1510, 7619.165
308.3580, 6604.912
309.5660, 5732.741
310.7730, 5080.652
311.9800, 4645.646
313.1870, 4292.718
314.3940, 4195.871
315.6010, 4002.102
316.8070, 3877.410
318.0130, 3976.795
319.2200, 3987.257
320.4260, 4199.795
321.6310, 4506.406
322.8370, 4891.091
324.0430, 5320.848
325.2480, 5751.677
326.4540, 6040.577
327.6590, 6598.547
328.8640, 7179.584
330.0680, 7896.690
331.2730, 8351.860
332.4780, 8971.096
333.6820, 9223.395
334.8860, 9636.758
336.0900, 9716.183
337.2940, 9631.669
338.4980, 9184.217
339.7010, 8325.820
340.9050, 7779.483
342.1080, 6736.204
343.3110, 5896.980
344.5140, 5032.812
345.7170, 4013.698
346.9200, 3281.727
348.1220, 2508.898
349.3240, 2159.215
350.5270, 2548.678
351.7290, 1164.287
352.9310, 2648.047
354.1320, 1767.955
355.3340, 1254.379
356.5350, 1424.639
357.7370, 143.1655
358.9380, 88.31201
360.1390, 41.79639
361.3400, 47.05811
362.5400, 35.23340
363.7410, 7.676758
364.9410, 160.6821
366.1410, 266.7935
367.3410, 330.0078
368.5410, 392.3218
369.7410, 335.7329
370.9400, 382.2383
372.1400, 355.8354
373.3390, 268.5215
374.5380, 95.29395
375.7370, 149.8496
376.9360, 214.0010
378.1350, 537.1953
379.3330, 732.5874
380.5310, 726.2773
381.7300, 919.2666
382.9280, 991.6538
384.1260, 995.4795
385.3230, 904.7471
386.5210, 882.4175
387.7180, 841.4824
388.9160, 768.6768
390.1130, 746.7119
391.3100, 625.8369
392.5060, 537.2412
393.7030, 428.8853
394.9000, 397.7188
396.0960, 318.7275
397.2920, 228.8892
398.4880, 127.1230
399.6840, 64.42529
400.8800, 14.75488
402.0750, 33.90918
403.2710, 103.5859
404.4660, 167.3018
405.6610, 167.0649
406.8560, 216.8726
408.0510, 376.7261
409.2450, 416.6235
410.4400, 576.5645
411.6340, 797.5479
412.8280, 973.5732
414.0220, 1268.640
415.2160, 1656.747
416.4100, 2201.893
417.6030, 2967.079
418.7970, 3989.304
419.9900, 5274.564
421.1830, 7208.864
422.3760, 9646.199
423.5690, 12300.57
424.7610, 15049.97
425.9540, 18525.41
427.1460, 22697.89
428.3380, 27600.39
429.5300, 31293.94
430.7220, 33701.51
431.9140, 33504.11
433.1050, 30796.76
434.2970, 26523.46
435.4880, 21341.21
436.6790, 16610.99
437.8700, 12500.85
439.0610, 9383.752
440.2510, 7154.735
441.4420, 5487.782
442.6320, 4486.896
443.8220, 3664.078
445.0120, 3073.354
446.2020, 2595.724
447.3910, 2242.197
448.5810, 2070.769
449.7700, 1995.424
450.9600, 2011.165
452.1490, 1950.008
453.3370, 2213.937
454.5260, 2319.967
455.7150, 2742.092
456.9030, 3015.325
458.0910, 3359.667
459.2800, 3687.099
460.4670, 3829.649
461.6550, 3912.328
462.8430, 3855.098
464.0300, 3757.932
465.2180, 3644.833
466.4050, 3189.778
467.5920, 2797.756
468.7790, 2308.769
469.9650, 2072.807
471.1520, 1675.863
472.3380, 1376.940
473.5250, 1368.034
474.7110, 1233.146
475.8970, 1225.273
477.0820, 1301.417
478.2680, 1430.578
479.4540, 1640.754
480.6390, 1917.945
481.8240, 2158.151
483.0090, 2153.373
484.1940, 2163.608
485.3780, 1961.858
486.5630, 1710.122
487.7470, 1621.400
488.9320, 1319.690
490.1160, 1017.994
491.3000, 777.3096
492.4830, 568.6357
493.6670, 479.9727
494.8500, 315.3193
496.0340, 366.6748
497.2170, 180.0386
498.4000, 336.3906
499.5820, 251.7495
500.7650, 325.1084
501.9480, 130.3921
503.1300, 308.1860
504.3120, 301.7285
505.4940, 362.5850
506.6760, 420.5352
507.8580, 506.8862
509.0390, 552.2407
510.2210, 617.5972
511.4020, 556.9565
512.5830, 717.3174
513.7640, 795.6787
514.9450, 825.0410
516.1250, 967.4048
517.3060, 1081.328
518.4860, 1275.727
519.6660, 1380.155
520.8460, 1526.481
522.0260, 1687.068
523.2060, 1978.746
524.3850, 2150.854
525.5650, 2511.472
526.7440, 2691.633
527.9230, 2992.896
529.1020, 3317.268
530.2810, 3797.858
531.4590, 3874.546
532.6380, 4431.369
533.8160, 4544.135
534.9940, 4840.967
536.1720, 4997.030
537.3500, 5268.813
538.5270, 5211.006
539.7050, 5276.021
540.8820, 5190.510
542.0590, 5007.353
543.2360, 5101.687
544.4130, 5077.431
545.5900, 5044.295
546.7660, 4849.209
547.9430, 4912.161
549.1190, 5019.150
550.2950, 5334.177
551.4710, 5428.240
552.6470, 5724.338
553.8220, 5686.473
554.9980, 5760.642
556.1730, 5848.847
557.3480, 6179.088
558.5230, 6370.364
559.6980, 6742.674
560.8730, 7283.020
562.0470, 7803.400
563.2220, 8363.811
564.3960, 9035.258
565.5700, 9824.741
566.7440, 10701.25
567.9170, 11614.80
569.0910, 12816.38
570.2640, 14128.00
571.4380, 15264.00
572.6110, 16948.38
573.7840, 18728.28
574.9570, 20476.11
576.1290, 22117.81
577.3020, 23828.56
578.4740, 25157.23
579.6460, 26512.45
580.8180, 27377.04
581.9900, 27920.31
583.1620, 27944.31
584.3330, 27045.70
585.5040, 26219.33
586.6760, 24687.62
587.8470, 23041.14
589.0180, 21390.46
590.1880, 19086.37
591.3590, 17336.39
592.5290, 15688.99
593.7000, 13844.75
594.8700, 12603.47
596.0400, 11286.01
597.2090, 10087.32
598.3790, 9235.210
599.5490, 8432.736
600.7180, 7867.001
601.8870, 7280.624
603.0560, 6807.198
604.2250, 6404.526
605.3940, 6071.167
606.5620, 5806.084
607.7300, 5574.582
608.8990, 5432.046
610.0670, 5292.654
611.2350, 5078.059
612.4020, 4977.766
613.5700, 5084.054
614.7370, 4956.345
615.9050, 5042.638
617.0720, 5049.935
618.2390, 5096.232
619.4060, 5079.532
620.5720, 5242.835
621.7390, 5222.139
622.9050, 5368.446
624.0710, 5377.754
625.2370, 5388.063
626.4030, 5537.375
627.5690, 5585.686
628.7340, 5768.000
629.9000, 5731.314
631.0650, 5891.629
632.2300, 6055.945
633.3950, 6263.261
634.5600, 6287.578
635.7240, 6637.895
636.8890, 6760.214
638.0530, 6851.108
639.2170, 7410.426
640.3810, 7690.581
641.5450, 8041.904
642.7080, 8531.369
643.8720, 8844.726
645.0350, 9716.113
646.1980, 10091.52
647.3610, 11097.93
648.5240, 11749.34
649.6870, 12672.76
650.8490, 13640.19
652.0120, 14561.63
653.1740, 15461.08
654.3360, 16414.53
655.4980, 17700.98
656.6600, 18551.44
657.8210, 19481.91
658.9830, 19961.44
660.1440, 20507.03
661.3050, 20864.75
662.4660, 20861.66
663.6270, 20703.78
664.7870, 20081.13
665.9480, 19291.73
667.1080, 18257.59
668.2680, 17421.68
669.4280, 16105.00
670.5880, 14928.53
671.7480, 13572.27
672.9070, 12314.20
674.0670, 11350.30
675.2260, 10169.55
676.3850, 9088.915
677.5440, 8241.392
678.7030, 7393.961
679.8610, 6664.602
681.0200, 5922.292
682.1780, 5434.015
683.3360, 4849.764
684.4940, 4352.522
685.6520, 3754.281
686.8090, 3367.034
687.9670, 3108.779
689.1240, 2752.520
690.2810, 2575.251
691.4380, 2136.978
692.5950, 1901.695
693.7520, 1735.405
694.9080, 1435.107
696.0650, 1294.802
697.2210, 1235.487
698.3770, 1076.162
699.5330, 797.8291
700.6880, 663.4858
701.8440, 533.1338
702.9990, 517.7705
704.1550, 399.3975
705.3100, 329.0132
706.4650, 285.6182
707.6190, 229.2119
708.7740, 251.7939
709.9290, 102.3643
711.0830, 68.91797
712.2370, 131.4512
713.3910, 47.03076
714.5450, 42.57764
715.6980, 63.81104
716.8520, 86.82324
718.0050, 27.54736
719.1580, 144.3311
720.3110, 73.23779
721.4640, 82.23047
722.6170, 102.3154
723.7700, 183.5044
724.9220, 191.8408
726.0740, 225.3306
727.2260, 203.9917
728.3780, 147.8154
729.5300, 163.7715
730.6810, 218.8701
731.8330, 156.1406
732.9840, 217.5518
734.1350, 197.1357
735.2860, 239.8828
736.4370, 247.8174
737.5880, 176.9419
738.7380, 283.2212
739.8880, 319.7119
741.0390, 185.4326
742.1890, 79.31445
743.3380, 94.30127
744.4880, 2.400879
745.6380, 47.43359
746.7870, 23.22705
747.9360, 92.96777
749.0850, 231.6782
750.2340, 180.3696
751.3830, 479.0391
752.5310, 495.6919
753.6800, 770.3271
754.8280, 918.9458
755.9760, 1216.547
757.1240, 1465.131
758.2720, 1581.698
759.4190, 2122.248
760.5670, 2187.781
761.7140, 2507.296
762.8610, 2711.795
764.0080, 2860.277
765.1550, 2956.208
766.3020, 2970.243
767.4480, 2928.620
768.5950, 2818.032
769.7410, 2634.834
770.8870, 2396.810
772.0330, 2190.172
773.1780, 1950.519
774.3240, 1695.850
775.4690, 1579.163
776.6140, 1477.471
777.7590, 1670.762
778.9040, 1718.875
780.0490, 1887.136
781.1940, 2070.397
782.3380, 2299.434
783.4820, 2538.778
784.6260, 2923.078
785.7700, 3208.202
786.9140, 3660.732
788.0580, 4041.393
789.2010, 4324.682
790.3450, 4416.807
791.4880, 4291.327
792.6310, 3903.914
793.7730, 3600.639
794.9160, 3124.546
796.0590, 2688.812
797.2010, 2144.023
798.3430, 1805.123
799.4850, 1624.634
800.6270, 1305.076
801.7690, 1182.383
802.9100, 1018.737
804.0520, 956.6304
805.1930, 800.4985
806.3340, 788.3418
807.4750, 778.1655
808.6160, 774.9551
809.7560, 750.7163
810.8970, 776.4482
812.0370, 714.1504
813.1770, 835.8223
814.3170, 908.4629
815.4570, 818.0728
816.5960, 968.6494
817.7360, 882.1948
818.8750, 985.7070
820.0140, 1140.187
821.1530, 1083.634
822.2920, 1145.048
823.4310, 1295.429
824.5690, 1358.778
825.7070, 1353.093
826.8460, 1546.376
827.9840, 1496.626
829.1220, 1702.843
830.2590, 1707.027
831.3970, 1821.180
832.5340, 1958.299
833.6710, 1917.386
834.8080, 2013.441
835.9450, 1916.463
837.0820, 2048.453
838.2190, 2055.412
839.3550, 2078.338
840.4910, 2004.231
841.6270, 2229.094
842.7630, 2275.923
843.8990, 2026.722
845.0350, 1914.488
846.1700, 2055.224
847.3060, 1970.568
848.4410, 1838.534
849.5760, 1821.995
850.7100, 1858.514
851.8450, 1683.160
852.9800, 1731.764
854.1140, 1633.450
855.2480, 1614.581
856.3820, 1604.346
857.5160, 1367.423
858.6500, 1270.787
859.7830, 1302.745
860.9170, 1141.465
862.0500, 1221.525
863.1830, 1100.351
864.3160, 1031.389
865.4480, 953.8315
866.5810, 871.1558
867.7130, 794.9087
868.8460, 712.4912
869.9780, 689.1177
871.1100, 660.9272
872.2410, 607.9629
873.3730, 574.1211
874.5050, 459.2354
875.6360, 462.3145
876.7670, 404.8247
877.8980, 453.1577
879.0290, 398.8740
880.1590, 330.6025
881.2900, 403.0513
882.4200, 336.9404
883.5500, 360.8906
884.6800, 314.7070
885.8100, 375.7344
886.9400, 377.4731
888.0690, 352.6357
889.1990, 358.7949
890.3280, 347.9639
891.4570, 307.1318
892.5860, 318.2949
893.7140, 276.4556
894.8430, 351.6221
895.9710, 348.7886
897.1000, 280.9565
898.2280, 330.1265
899.3560, 248.3008
900.4830, 365.4790
901.6110, 251.6553
902.7380, 239.8379
903.8660, 213.0229
904.9930, 256.2163
906.1200, 109.4541
907.2460, 184.7368
908.3730, 123.0317
909.5000, 100.3257
910.6260, 86.63184
911.7520, 138.9399
912.8780, 26.25439
914.0040, 31.43311
915.1290, 32.86816
916.2550, 64.18457
917.3800, 82.49951
918.5050, 107.7871
919.6300, 0.9277340
920.7550, 34.64648
921.8800, 47.37646
923.0040, 20.12109
924.1290, 105.8735
925.2530, 23.33594
926.3770, 49.44824
927.5010, 20.24609
928.6250, 56.03467
929.7480, 32.84082
930.8720, 91.65576
931.9950, 7.502441
933.1180, 2.348145
934.2410, 22.18701
935.3640, 77.03076
936.4860, 15.89307
937.6090, 18.75732
938.7310, 12.37305
939.8530, 65.50684
940.9750, 40.64307
942.0970, 5.781738
943.2180, 88.92188
944.3400, 72.43604
945.4610, 180.2061
946.5820, 123.3516
947.7030, 253.4980
948.8240, 284.6475
949.9450, 241.7983
951.0650, 317.9512
952.1860, 279.1069
953.3060, 472.2642
954.4260, 362.4238
955.5460, 432.5859
956.6650, 377.7505
957.7850, 500.9175
958.9040, 554.0869
960.0230, 547.2588
961.1420, 618.4326
962.2610, 745.6094
963.3800, 840.7896
964.4990, 930.9722
965.6170, 1107.159
966.7350, 1213.349
967.8530, 1368.543
968.9710, 1526.740
970.0890, 1533.941
971.2070, 1513.146
972.3240, 1388.354
973.4410, 1235.568
974.5580, 1127.787
975.6750, 850.0107
976.7920, 823.2402
977.9090, 771.4736
979.0250, 687.7119
980.1410, 723.9546
981.2580, 812.2021
982.3740, 740.4580
983.4890, 777.7227
984.6050, 860.9937
985.7200, 799.2979
986.8360, 1002.633
987.9510, 1017.979
989.0660, 1196.370
990.1810, 1254.789
991.2950, 1338.270
992.4100, 1458.792
993.5240, 1602.049
994.6390, 1757.978
995.7530, 2002.669
996.8660, 2271.436
997.9800, 2597.287
999.0940, 2858.217
1000.207, 3135.213
1001.320, 3718.279
1002.433, 3912.432
1003.546, 4437.653
1004.659, 4410.958
1005.772, 4716.345
1006.884, 4650.853
1007.996, 4355.532
1009.108, 4134.791
1010.220, 3820.844
1011.332, 3397.297
1012.444, 3025.286
1013.555, 2638.265
1014.666, 2411.377
1015.777, 2209.528
1016.888, 2095.189
1017.999, 2027.716
1019.110, 2017.308
1020.220, 1987.820
1021.331, 1993.902
1022.441, 2014.429
1023.551, 2019.999
1024.661, 2130.744
1025.770, 2302.942
1026.880, 2390.345
1027.989, 2568.848
1029.098, 2743.680
1030.207, 2935.978
1031.316, 3219.175
1032.425, 3589.210
1033.533, 3844.088
1034.642, 4267.558
1035.750, 4629.941
1036.858, 4936.258
1037.966, 5470.017
1039.073, 5880.330
1040.181, 6506.774
1041.288, 7134.647
1042.396, 7858.161
1043.503, 9107.703
1044.610, 10273.99
1045.716, 11606.99
1046.823, 13271.54
1047.929, 15696.03
1049.036, 18288.30
1050.142, 21796.10
1051.248, 25770.86
1052.353, 30348.28
1053.459, 35916.64
1054.564, 41469.14
1055.670, 47190.37
1056.775, 52157.41
1057.880, 55519.10
1058.985, 57128.20
1060.089, 56172.60
1061.194, 52115.25
1062.298, 46535.12
1063.402, 40212.01
1064.506, 33612.22
1065.610, 27598.42
1066.713, 22933.91
1067.817, 18966.12
1068.920, 15944.33
1070.023, 13225.05
1071.126, 11110.21
1072.229, 9226.308
1073.332, 7870.233
1074.435, 6521.145
1075.537, 5497.780
1076.639, 4691.473
1077.741, 4049.058
1078.843, 3589.945
1079.945, 3025.436
1081.046, 2603.113
1082.148, 2325.562
1083.249, 2068.266
1084.350, 1839.844
1085.451, 1703.215
1086.551, 1562.852
1087.652, 1435.266
1088.752, 1238.723
1089.853, 1260.144
1090.953, 1082.406
1092.053, 1029.937
1093.152, 863.1963
1094.252, 932.4546
1095.351, 819.9429
1096.451, 726.1997
1097.550, 824.6260
1098.649, 856.1050
1099.748, 866.5005
1100.846, 921.7935
1101.945, 956.1328
1103.043, 985.3760
1104.141, 1042.747
1105.239, 1102.202
1106.337, 1391.696
1107.434, 1661.165
1108.532, 1798.627
1109.629, 2042.851
1110.726, 2297.069
1111.823, 2554.284
1112.920, 2797.495
1114.017, 2726.844
1115.113, 2629.189
1116.210, 2436.430
1117.306, 2125.887
1118.402, 1733.076
1119.498, 1402.310
1120.593, 1262.836
1121.689, 985.0103
1122.784, 806.4263
1123.879, 572.5972
1124.974, 538.8398
1126.069, 393.9971
1127.164, 402.1470
1128.259, 319.3198
1129.353, 261.4521
1130.447, 226.6421
1131.541, 127.7554
1132.635, 208.0869
1133.729, 188.1953
1134.822, 131.2939
1135.916, 147.6143
1137.009, 104.6270
1138.102, 67.98291
1139.195, 52.06494
1140.288, 0.2729490
1141.380, 27.68213
1142.473, 31.63672
1143.565, 74.31689
1144.657, 4.730957
1145.749, 44.20459
1146.841, 66.87793
1147.932, 92.02197
1149.024, 25.23926
1150.115, 24.49561
1151.206, 32.79102
1152.297, 8.054199
1153.388, 22.71631
1154.479, 38.67725
1155.569, 21.89209
1156.659, 56.46436
1157.750, 53.00098
1158.839, 19.37939
1159.929, 9.125488
1161.019, 0.9707030
1162.108, 3.496094
1163.198, 10.03809
1164.287, 6.606445
1165.376, 55.81006
1166.465, 13.57568
1167.553, 3.980957
1168.642, 18.50732
1169.730, 154.2891
1170.818, 155.9487
1171.906, 34.88965
1172.994, 62.19678
1174.082, 28.86621
1175.170, 8.176270
1176.257, 3.586914
1177.344, 60.46680
1178.431, 117.4126
1179.518, 38.48438
1180.605, 32.63428
1181.691, 48.40918
1182.778, 100.0938
1183.864, 97.20410
1184.950, 103.5645
1186.036, 63.88281
1187.122, 77.71484
1188.207, 36.43750
1189.292, 0.9047850
1190.378, 40.59424
1191.463, 32.89307
1192.548, 88.53076
1193.632, 52.00977
1194.717, 113.4165
1195.801, 15.04150
1196.886, 6.548340
1197.970, 54.83057
1199.054, 9.453613
1200.137, 26.54492
1201.221, 82.55225
1202.305, 27.09668
1203.388, 39.35547
1204.471, 41.53223
1205.554, 76.16553
1206.637, 69.47510
1207.719, 91.76270
1208.802, 48.09668
1209.884, 116.5566
1210.966, 75.04639
1212.048, 128.2935
1213.130, 73.61621
1214.212, 99.45605
1215.293, 149.4136
1216.374, 86.51416
1217.456, 130.2544
1218.536, 143.2417
1219.617, 141.3667
1220.698, 204.1616
1221.778, 115.9780
1222.859, 184.9155
1223.939, 218.1445
1225.019, 128.2739
1226.099, 200.2881
1227.178, 144.3916
1228.258, 132.2324
1229.337, 153.8760
1230.417, 178.3970
1231.496, 167.1592
1232.574, 193.2075
1233.653, 159.9512
1234.732, 139.4810
1235.810, 131.0479
1236.888, 137.2832
1237.966, 138.5015
1239.044, 202.7314
