##NAMES=Fluorapatite
##RRUFFID=R050122
##IDEAL CHEMISTRY=Ca_5_(PO_4_)_3_F
##LOCALITY=Cruziero mine, San Jose, Minas Gerais, Brazil
##OWNER=RRUFF
##SOURCE=Carlos and Paulo Vasconcelos
##DESCRIPTION=Green fragment
##STATUS=The identification of this mineral has been confirmed by X-ray diffraction and chemical analysis
##URL=rruff.info/R050122
##MEASURED CHEMISTRY=(Ca_4.99_Mn_0.01_)_Î£=5_(P_1.00_O_4_)_3_F_1.00_; trace amounts of Fe
##PIN_ID=L00505
##ORIENTATION=Laser parallel to -a* (-1 0 0). Fiducial mark perpendicular to laser is parallel to -c [0 0 -1]
116.256, 0.000
117.653, 2.226
119.050, 80.152
120.447, 130.100
121.843, 9.759
123.240, 177.500
124.636, 164.308
126.031, 184.516
127.427, 203.658
128.822, 171.388
130.217, 358.434
131.612, 300.600
133.006, 428.735
134.400, 404.726
135.794, 474.474
137.188, 454.888
138.581, 456.882
139.975, 474.379
141.368, 317.314
142.760, 338.644
144.153, 210.351
145.545, 283.417
146.937, 209.821
148.329, 203.548
149.720, 299.584
151.112, 143.915
152.503, 288.514
153.893, 284.352
155.284, 434.402
156.674, 359.626
158.064, 284.981
159.454, 333.444
160.843, 324.992
162.233, 283.614
163.622, 291.056
165.011, 223.050
166.399, 272.861
167.787, 262.758
169.175, 308.939
170.563, 187.277
171.951, 227.770
173.338, 163.462
174.725, 272.256
176.112, 238.209
177.499, 269.317
178.885, 374.519
180.271, 335.949
181.657, 396.495
183.043, 308.100
184.428, 413.930
185.813, 258.782
187.198, 169.678
188.583, 262.611
189.967, 24.479
191.351, 334.290
192.735, 140.994
194.119, 171.078
195.502, 86.535
196.885, 99.873
198.268, 233.094
199.651, 133.206
201.033, 238.216
202.415, 131.147
203.797, 227.006
205.179, 243.803
206.561, 201.544
207.942, 355.267
209.323, 331.913
210.703, 328.937
212.084, 248.693
213.464, 372.240
214.844, 297.324
216.224, 168.049
217.603, 229.709
218.983, 151.209
220.362, 195.245
221.741, 146.480
223.119, 158.061
224.497, 350.387
225.875, 205.715
227.253, 364.106
228.631, 244.651
230.008, 301.968
231.385, 313.080
232.762, 317.000
234.139, 410.254
235.515, 158.898
236.891, 438.404
238.267, 153.270
239.643, 138.194
241.018, 228.883
242.393, 88.339
243.768, 244.914
245.143, 65.326
246.517, 227.055
247.891, 137.409
249.265, 156.232
250.639, 136.828
252.012, 22.056
253.386, 233.667
254.759, 71.966
256.131, 92.610
257.504, 125.361
258.876, 130.636
260.248, 289.107
261.620, 177.952
262.991, 365.484
264.363, 74.589
265.734, 275.122
267.104, 283.664
268.475, 178.302
269.845, 208.555
271.215, 30.738
272.585, 255.854
273.955, 99.897
275.324, 318.871
276.693, 229.775
278.062, 153.607
279.431, 388.370
280.799, 254.063
282.167, 372.665
283.535, 322.498
284.903, 372.976
286.270, 442.568
287.638, 317.252
289.005, 508.002
290.371, 289.809
291.738, 278.656
293.104, 309.537
294.470, 196.446
295.836, 333.808
297.201, 118.749
298.567, 389.261
299.932, 220.214
301.296, 207.172
302.661, 313.003
304.025, 77.482
305.389, 258.881
306.753, 114.927
308.117, 328.359
309.480, 223.633
310.843, 66.830
312.206, 160.908
313.569, 120.946
314.931, 265.792
316.293, 49.847
317.655, 94.043
319.017, 79.616
320.378, 91.555
321.740, 51.947
323.101, 79.002
324.461, 134.698
325.822, 67.954
327.182, 19.976
328.542, 132.829
329.902, 81.450
331.261, 94.377
332.621, 110.972
333.980, 73.961
335.339, 90.917
336.697, 78.961
338.056, 82.329
339.414, 54.764
340.772, 36.797
342.129, 0.548
343.487, 18.555
344.844, 104.041
346.201, 3.876
347.557, 127.438
348.914, 23.440
350.270, 57.789
351.626, 49.944
352.982, 38.401
354.337, 192.974
355.693, 35.010
357.048, 155.818
358.402, 1.359
359.757, 19.726
361.111, 60.416
362.465, 57.263
363.819, 133.214
365.173, 75.175
366.526, 65.379
367.879, 96.846
369.232, 18.499
370.585, 53.656
371.937, 29.191
373.290, 80.950
374.642, 37.654
375.993, 67.921
377.345, 98.719
378.696, 0.374
380.047, 99.761
381.398, 81.599
382.748, 41.991
384.099, 102.208
385.449, 4.536
386.799, 43.570
388.148, 84.041
389.497, 115.735
390.847, 34.511
392.196, 69.793
393.544, 189.188
394.893, 30.309
396.241, 169.446
397.589, 9.003
398.936, 89.277
400.284, 98.300
401.631, 28.568
402.978, 277.882
404.325, 110.491
405.672, 232.991
407.018, 231.528
408.364, 53.315
409.710, 321.329
411.055, 110.529
412.401, 389.842
413.746, 167.658
415.091, 276.764
416.435, 374.409
417.780, 282.274
419.124, 769.780
420.468, 567.206
421.812, 944.563
423.155, 1011.857
424.498, 1239.092
425.842, 1836.273
427.184, 1893.386
428.527, 2430.448
429.869, 2627.456
431.211, 2354.408
432.553, 2251.312
433.895, 1567.924
435.236, 1844.719
436.577, 1241.461
437.918, 1148.149
439.259, 1144.790
440.599, 871.376
441.940, 1118.121
443.280, 774.603
444.619, 1041.028
445.959, 877.407
447.298, 813.729
448.637, 909.992
449.976, 666.203
451.315, 892.354
452.653, 648.448
453.991, 474.481
455.329, 620.864
456.667, 286.776
458.004, 603.096
459.341, 258.870
460.678, 424.593
462.015, 461.509
463.352, 187.108
464.688, 276.221
466.024, 81.450
467.360, 377.268
468.695, 283.520
470.031, 318.812
471.366, 335.562
472.701, 10.586
474.035, 366.241
475.370, 175.246
476.704, 120.146
478.038, 331.066
479.372, 65.548
480.705, 380.750
482.038, 75.396
483.371, 109.659
484.704, 410.926
486.037, 75.179
487.369, 320.106
488.701, 114.726
490.033, 138.725
491.365, 118.996
492.696, 123.355
494.027, 77.508
495.358, 31.982
496.689, 205.113
498.019, 179.124
499.350, 72.304
500.680, 332.734
502.009, 85.552
503.339, 208.413
504.668, 81.285
505.997, 164.150
507.326, 336.898
508.655, 69.978
509.983, 330.634
511.311, 103.888
512.639, 206.010
513.967, 256.145
515.295, 99.567
516.622, 358.881
517.949, 32.488
519.276, 273.673
520.602, 355.761
521.929, 47.745
523.255, 375.101
524.581, 97.684
525.906, 323.693
527.232, 96.001
528.557, 67.962
529.882, 358.821
531.207, 137.261
532.531, 360.766
533.855, 72.889
535.179, 39.423
536.503, 161.113
537.827, 123.167
539.150, 292.316
540.473, 24.206
541.796, 205.408
543.119, 225.363
544.441, 6.120
545.764, 352.186
547.086, 62.738
548.407, 266.882
549.729, 257.038
551.050, 32.541
552.371, 307.061
553.692, 57.989
555.013, 184.603
556.333, 214.254
557.653, 53.612
558.973, 302.771
560.293, 43.425
561.612, 202.304
562.932, 18.001
564.251, 17.805
565.569, 331.460
566.888, 8.848
568.206, 429.795
569.524, 119.203
570.842, 78.627
572.160, 507.967
573.477, 77.205
574.795, 666.370
576.112, 345.548
577.428, 715.279
578.745, 1074.301
580.061, 873.875
581.377, 1162.955
582.693, 771.781
584.009, 811.965
585.324, 1070.654
586.639, 969.393
587.954, 1968.975
589.269, 2077.471
590.583, 2596.865
591.897, 2465.229
593.212, 1563.637
594.525, 1462.355
595.839, 650.539
597.152, 649.988
598.465, 628.043
599.778, 366.135
601.091, 814.945
602.403, 472.799
603.716, 682.400
605.028, 1100.123
606.339, 957.779
607.651, 1346.818
608.962, 714.344
610.273, 672.818
611.584, 450.211
612.895, 317.539
614.205, 805.422
615.515, 302.178
616.825, 570.420
618.135, 526.916
619.444, 113.906
620.754, 571.934
622.063, 12.094
623.372, 415.006
624.680, 310.246
625.989, 166.760
627.297, 403.416
628.605, 49.537
629.912, 356.385
631.220, 260.682
632.527, 23.229
633.834, 583.863
635.141, 61.256
636.447, 514.480
637.754, 199.377
639.060, 325.061
640.366, 366.387
641.671, 30.766
642.977, 546.814
644.282, 162.047
645.587, 167.150
646.892, 613.453
648.196, 57.658
649.501, 332.262
650.805, 287.152
652.109, 150.773
653.412, 408.959
654.716, 143.119
656.019, 447.102
657.322, 221.346
658.625, 455.861
659.927, 338.199
661.230, 112.068
662.532, 505.221
663.834, 268.775
665.135, 332.990
666.437, 550.150
667.738, 164.225
669.039, 537.258
670.340, 211.980
671.640, 195.568
672.940, 588.664
674.241, 72.572
675.540, 464.367
676.840, 251.869
678.139, 305.572
679.439, 448.504
680.738, 192.629
682.036, 555.084
683.335, 170.611
684.633, 262.986
685.931, 525.102
687.229, 10.508
688.527, 732.008
689.824, 86.521
691.121, 298.457
692.418, 396.559
693.715, 39.463
695.012, 511.578
696.308, 52.295
697.604, 173.254
698.900, 555.596
700.195, 91.018
701.491, 618.109
702.786, 183.512
704.081, 144.803
705.376, 327.076
706.670, 29.592
707.964, 357.879
709.259, 141.234
710.552, 202.490
711.846, 404.148
713.139, 79.307
714.433, 620.188
715.726, 22.203
717.018, 272.986
718.311, 454.451
719.603, 63.121
720.895, 401.113
722.187, 252.957
723.479, 280.541
724.770, 402.639
726.061, 143.434
727.352, 584.107
728.643, 206.043
729.934, 322.789
731.224, 374.615
732.514, 156.877
733.804, 518.596
735.094, 230.262
736.383, 332.824
737.672, 614.379
738.961, 35.883
740.250, 537.357
741.539, 348.748
742.827, 131.379
744.115, 672.660
745.403, 144.059
746.691, 555.453
747.978, 346.578
749.265, 261.088
750.552, 922.107
751.839, 53.078
753.126, 564.994
754.412, 345.857
755.698, 156.816
756.984, 737.574
758.270, 8.285
759.555, 409.461
760.840, 430.059
762.125, 20.605
763.410, 581.094
764.695, 121.535
765.979, 382.699
767.263, 423.035
768.547, 212.916
769.831, 613.520
771.114, 93.240
772.398, 593.906
773.681, 424.000
774.964, 92.793
776.246, 682.787
777.529, 149.156
778.811, 389.059
780.093, 488.492
781.375, 207.283
782.656, 717.678
783.937, 175.842
785.219, 75.291
786.499, 704.311
787.780, 0.258
789.060, 599.492
790.341, 312.453
791.621, 161.918
792.901, 620.520
794.180, 90.441
795.459, 728.652
796.739, 236.166
798.017, 35.377
799.296, 743.504
800.575, 8.373
801.853, 640.711
803.131, 208.287
804.409, 126.973
805.686, 705.434
806.964, 66.693
808.241, 422.174
809.518, 499.895
810.795, 98.715
812.071, 886.711
813.347, 124.475
814.623, 503.912
815.899, 681.322
817.175, 329.975
818.450, 667.994
819.726, 116.250
821.001, 334.830
822.275, 452.369
823.550, 10.885
824.824, 738.555
826.098, 256.125
827.372, 364.537
828.646, 681.961
829.920, 49.689
831.193, 697.967
832.466, 85.840
833.739, 214.064
835.011, 572.156
836.284, 179.688
837.556, 417.338
838.828, 352.693
840.100, 9.342
841.371, 598.176
842.642, 27.104
843.914, 573.693
845.184, 218.162
846.455, 186.012
847.726, 482.361
848.996, 109.117
850.266, 557.137
851.536, 304.072
852.805, 61.711
854.075, 640.998
855.344, 21.225
856.613, 385.441
857.881, 631.926
859.150, 39.146
860.418, 612.195
861.686, 50.357
862.954, 256.738
864.222, 563.361
865.489, 37.744
866.756, 768.273
868.023, 305.553
869.290, 271.270
870.557, 768.043
871.823, 155.475
873.089, 431.342
874.355, 738.535
875.621, 134.809
876.886, 701.850
878.152, 428.900
879.417, 274.945
880.682, 371.959
881.946, 91.777
883.211, 964.883
884.475, 111.742
885.739, 457.662
887.003, 694.488
888.266, 70.678
889.530, 937.264
890.793, 314.023
892.056, 289.332
893.318, 636.039
894.581, 2.682
895.843, 558.381
897.105, 255.074
898.367, 240.795
899.629, 797.449
900.890, 46.020
902.152, 720.090
903.413, 476.646
904.673, 51.844
905.934, 808.346
907.194, 204.717
908.454, 470.277
909.714, 656.705
910.974, 161.299
912.234, 897.680
913.493, 534.035
914.752, 358.926
916.011, 525.244
917.270, 100.523
918.528, 696.795
919.786, 513.049
921.044, 198.652
922.302, 944.859
923.560, 159.924
924.817, 576.090
926.074, 492.234
927.331, 397.252
928.588, 943.369
929.844, 508.617
931.101, 734.709
932.357, 1110.783
933.613, 126.229
934.868, 1002.262
936.124, 547.545
937.379, 632.393
938.634, 1078.379
939.889, 232.453
941.144, 699.000
942.398, 794.855
943.652, 270.062
944.906, 1376.002
946.160, 744.734
947.414, 1701.666
948.667, 1367.141
949.920, 951.762
951.173, 2020.016
952.426, 1633.730
953.678, 2069.564
954.931, 2814.871
956.183, 2679.822
957.435, 5449.121
958.686, 7509.414
959.938, 13575.191
961.189, 22714.730
962.440, 26989.516
963.691, 25341.367
964.941, 17419.258
966.192, 9984.953
967.442, 6473.520
968.692, 3809.193
969.942, 2294.848
971.191, 2130.727
972.441, 806.357
973.690, 1522.426
974.939, 756.727
976.187, 732.314
977.436, 1079.006
978.684, 184.598
979.932, 810.170
981.180, 312.252
982.428, 277.908
983.675, 784.197
984.922, 99.393
986.169, 464.994
987.416, 478.838
988.663, 145.561
989.909, 629.953
991.155, 26.561
992.401, 38.934
993.647, 493.576
994.893, 130.965
996.138, 603.990
997.383, 280.168
998.628, 105.537
999.873, 1072.941
1001.117, 228.270
1002.362, 483.539
1003.606, 789.246
1004.850, 185.426
1006.093, 1037.164
1007.337, 383.504
1008.580, 298.770
1009.823, 823.422
1011.066, 78.676
1012.308, 792.918
1013.551, 599.336
1014.793, 15.352
1016.035, 1186.500
1017.277, 283.129
1018.518, 728.367
1019.760, 1154.727
1021.001, 229.945
1022.242, 1354.531
1023.483, 722.543
1024.723, 397.723
1025.964, 1683.820
1027.204, 280.559
1028.444, 1115.750
1029.683, 1442.043
1030.923, 837.199
1032.162, 1446.066
1033.401, 663.508
1034.640, 787.852
1035.879, 1713.031
1037.117, 730.777
1038.355, 2314.961
1039.593, 2072.598
1040.831, 1707.738
1042.069, 2552.832
1043.306, 855.227
1044.544, 1949.027
1045.781, 2044.117
1047.017, 1652.801
1048.254, 3647.625
1049.490, 2894.055
1050.726, 2505.676
1051.962, 2720.707
1053.198, 1336.371
1054.434, 1900.367
1055.669, 1305.344
1056.904, 1220.227
1058.139, 1825.164
1059.374, 730.922
1060.608, 1235.391
1061.843, 1520.367
1063.077, 617.395
1064.311, 1482.449
1065.544, 907.512
1066.778, 772.523
1068.011, 1707.547
1069.244, 662.555
1070.477, 1327.176
1071.710, 1292.137
1072.942, 617.516
1074.174, 2072.461
1075.406, 1397.383
1076.638, 1934.367
1077.870, 2499.238
1079.101, 1174.102
1080.332, 1558.938
1081.563, 1293.742
1082.794, 648.301
1084.025, 1623.094
1085.255, 667.859
1086.485, 1043.516
1087.715, 1218.277
1088.945, 222.812
1090.175, 1677.523
1091.404, 902.203
1092.633, 377.281
1093.862, 1171.914
1095.091, 126.547
1096.319, 892.281
1097.548, 1086.852
1098.776, 28.602
1100.004, 1216.164
1101.231, 530.707
1102.459, 527.035
1103.686, 1271.523
1104.913, 54.016
1106.140, 1002.250
1107.367, 576.648
1108.593, 58.988
1109.819, 1096.340
1111.046, 259.383
1112.271, 114.992
1113.497, 599.098
1114.722, 36.832
1115.948, 769.223
1117.173, 433.203
1118.398, 147.145
1119.622, 1323.238
1120.847, 307.113
1122.071, 722.496
1123.295, 1046.301
1124.519, 90.074
1125.742, 1071.730
1126.966, 715.008
1128.189, 288.668
1129.412, 949.738
1130.635, 73.312
1131.857, 667.191
1133.080, 770.566
1134.302, 374.051
1135.524, 1124.309
1136.746, 739.809
1137.967, 483.238
1139.188, 1019.734
1140.410, 382.098
1141.631, 776.230
1142.851, 1274.121
1144.072, 147.363
1145.292, 1123.156
1146.512, 585.582
1147.732, 668.727
1148.952, 1404.781
1150.172, 137.852
1151.391, 941.188
1152.610, 1299.969
1153.829, 242.914
1155.048, 1447.164
1156.266, 370.930
1157.484, 833.727
1158.702, 1219.789
1159.920, 212.500
1161.138, 1106.766
1162.356, 1308.590
1163.573, 211.168
1164.790, 1214.914
1166.007, 237.375
1167.224, 609.785
1168.440, 945.098
1169.656, 2.594
1170.872, 1009.633
1172.088, 685.273
1173.304, 197.434
1174.519, 1440.215
1175.735, 273.812
1176.950, 655.797
1178.165, 1353.844
1179.379, 55.742
1180.594, 937.566
1181.808, 833.246
1183.022, 34.961
1184.236, 1456.598
1185.449, 57.574
1186.663, 609.074
1187.876, 1011.539
1189.089, 214.957
1190.302, 1156.234
1191.515, 640.602
1192.727, 1.797
1193.939, 1672.781
1195.151, 304.141
1196.363, 894.988
1197.575, 1216.527
1198.786, 478.379
1199.997, 1439.051
1201.208, 1001.605
1202.419, 572.156
1203.630, 1782.645
1204.840, 487.402
1206.051, 907.750
1207.261, 1558.043
1208.470, 227.105
1209.680, 1497.250
1210.889, 1174.410
1212.099, 525.211
1213.308, 2155.148
1214.516, 818.051
1215.725, 987.859
1216.933, 1857.598
1218.142, 494.824
1219.350, 1604.418
1220.557, 1653.953
1221.765, 224.688
1222.972, 1994.066
1224.180, 865.043
1225.387, 994.531
1226.593, 1953.715
1227.800, 641.027
1229.006, 1930.117
1230.213, 1309.168
1231.419, 538.195
1232.624, 1707.152
1233.830, 1156.062
1235.035, 775.000
1236.241, 2003.816
1237.446, 643.766
1238.650, 1382.484
1239.855, 1441.152
1241.059, 489.688
1242.264, 1808.246
1243.468, 796.758
1244.671, 728.168
1245.875, 2176.566
1247.078, 344.914
1248.282, 1384.121
1249.485, 1662.324
1250.687, 337.859
1251.890, 1835.809
1253.092, 1203.711
1254.295, 538.758
1255.497, 2006.492
1256.699, 708.051
1257.900, 1205.539
1259.102, 1143.090
1260.303, 287.688
1261.504, 1515.105
1262.705, 1172.383
1263.905, 258.969
1265.106, 1845.973
1266.306, 412.461
1267.506, 950.387
1268.706, 1757.199
1269.905, 7.449
1271.105, 1230.512
1272.304, 1417.020
1273.503, 317.145
1274.702, 1559.078
1275.900, 713.629
1277.099, 642.844
1278.297, 1758.734
1279.495, 14.172
1280.693, 1322.895
1281.891, 1358.570
1283.088, 54.105
1284.285, 1290.461
1285.482, 605.469
1286.679, 410.781
1287.876, 1975.879
1289.072, 229.539
1290.268, 936.082
1291.464, 1460.695
1292.660, 165.219
1293.856, 1341.449
1295.051, 724.293
1296.247, 131.477
1297.442, 1875.031
1298.637, 478.008
1299.831, 581.906
1301.026, 1415.086
1302.220, 261.262
1303.414, 1303.145
1304.608, 415.203
1305.802, 618.484
1306.995, 1732.934
1308.188, 504.547
1309.381, 857.422
1310.574, 1579.801
1311.767, 162.492
1312.960, 1475.066
1314.152, 1184.738
1315.344, 92.875
1316.536, 1619.359
1317.728, 629.969
1318.919, 422.000
1320.110, 1653.586
1321.301, 25.414
1322.492, 1147.125
1323.683, 1366.410
1324.874, 102.109
1326.064, 1579.176
1327.254, 937.762
1328.444, 31.160
1329.634, 1347.301
1330.823, 538.133
1332.013, 278.840
1333.202, 1544.840
1334.391, 135.316
1335.580, 735.691
1336.768, 1352.855
1337.956, 56.961
1339.145, 1571.711
1340.333, 581.641
1341.520, 491.477
1342.708, 1720.582
1343.895, 290.258
1345.083, 969.816
1346.270, 1679.012
1347.456, 281.582
1348.643, 1256.906
1349.829, 1256.332
1351.016, 354.582
1352.202, 1902.273
1353.387, 8.828
1354.573, 549.797
1355.759, 1807.617
1356.944, 136.133
1358.129, 1244.594
1359.314, 1553.012
1360.498, 18.621
1361.683, 2048.762
1362.867, 1268.402
1364.051, 426.734
1365.235, 1963.031
1366.419, 335.195
1367.602, 673.355
1368.785, 1647.512
1369.968, 28.383
1371.151, 1086.004
1372.334, 1299.320
1373.517, 56.559
1374.699, 1886.984
1375.881, 850.926
1377.063, 573.578
1378.245, 2297.059
1379.426, 448.641
1380.608, 1322.074
1381.789, 1963.398
1382.970, 505.535
1384.150, 1648.508
1385.331, 1591.777
1386.511, 137.344
1387.691, 2283.250
1388.871, 1274.457
1390.051, 517.375
1391.231, 2560.781
1392.410, 460.500
1393.589, 1172.375
1394.768, 2113.762
1395.947, 457.445
1397.126, 1683.016
1398.304, 1383.715
1399.483, 443.277
1400.661, 2511.465
1401.838, 698.781
1403.016, 1039.656
1404.194, 2019.516
1405.371, 567.359
1406.548, 1165.195
1407.725, 2013.332
1408.901, 402.539
1410.078, 1730.992
1411.254, 1476.566
1412.430, 336.578
1413.606, 2376.809
1414.782, 783.176
1415.958, 693.570
1417.133, 2243.004
1418.308, 40.949
1419.483, 1515.371
1420.658, 1862.637
1421.832, 48.145
1423.007, 1631.605
1424.181, 1213.254
1425.355, 370.609
1426.529, 2677.266
1427.702, 842.402
1428.876, 608.344
1430.049, 1916.078
1431.222, 91.961
1432.395, 1004.480
1433.567, 1565.473
1434.740, 81.941
1435.912, 2063.887
1437.084, 1287.508
1438.256, 0.203
1439.428, 2555.543
1440.599, 604.414
1441.770, 538.582
1442.942, 2542.891
1444.112, 205.457
1445.283, 1196.488
1446.454, 1907.617
1447.624, 120.453
1448.794, 2317.355
1449.964, 1646.609
1451.134, 165.586
1452.303, 2206.883
1453.473, 995.418
1454.642, 593.355
1455.811, 2273.633
1456.980, 653.703
1458.148, 1222.656
1459.317, 1799.906
1460.485, 119.656
1461.653, 1655.305
1462.821, 1974.664
1463.989, 353.961
1465.156, 2473.109
1466.323, 1272.055
1467.490, 567.562
1468.657, 2765.527
1469.824, 564.188
1470.991, 557.516
1472.157, 2510.441
1473.323, 69.984
1474.489, 1839.633
1475.655, 1799.121
1476.820, 94.590
1477.986, 2483.797
1479.151, 1107.656
1480.316, 753.516
1481.481, 2323.426
1482.645, 803.414
1483.810, 563.387
1484.974, 2578.336
1486.138, 258.383
1487.302, 1619.012
1488.465, 1850.453
1489.629, 182.305
1490.792, 2225.027
1491.955, 1316.723
1493.118, 203.848
1494.281, 2237.273
1495.443, 631.762
1496.606, 376.910
1497.768, 2253.418
1498.930, 440.965
1500.091, 1295.320
1501.253, 1865.055
1502.414, 60.695
1503.575, 2089.781
1504.736, 1534.305
1505.897, 6.316
1507.058, 2464.703
1508.218, 0.000
##END=



