##NAMES=Fluorophlogopite
##RRUFFID=R040039
##IDEAL CHEMISTRY=KMg_3_(Si_3_Al)O_10_F_2_
##LOCALITY=Franklin, Sussex County, New Jersey, USA
##OWNER=RRUFF
##SOURCE=University of Arizona Mineral Museum
##DESCRIPTION=Brown hexagonal sheets
##STATUS=The identification of this mineral has been confirmed by X-ray diffraction and chemical analysis
##URL=rruff.info/R040039
##MEASURED CHEMISTRY=(K_0.92_Na_0.06_[box]_0.02_)_Σ=1_(Mg_2.94_Fe_0.04_Ti_0.02_)_Σ=3_(Si_2.98_Al_1.02_)O_10_(F_1.24_(OH)_0.76_)_Σ=2_; OH estimated by charge balance
##PIN_ID=M00049
##ORIENTATION=Laser parallel to a [1 0 0]. Fiducial mark perpendicular to laser is parallel to b* (0 1 0)
91.398, 0.000
92.793, 345.192
94.188, 707.197
95.582, 1695.730
96.976, 2320.318
98.370, 3386.071
99.764, 4380.267
101.157, 5457.219
102.550, 6109.271
103.943, 6400.951
105.336, 6381.236
106.729, 5189.479
108.121, 4758.266
109.513, 3799.229
110.905, 3420.177
112.297, 2922.586
113.688, 2746.639
115.079, 2302.616
116.470, 1687.311
117.861, 1770.859
119.251, 1246.701
120.642, 1195.818
122.032, 1114.215
123.422, 958.489
124.811, 862.958
126.201, 788.937
127.590, 860.235
128.979, 645.872
130.367, 643.205
131.756, 417.166
133.144, 362.416
134.532, 497.227
135.920, 161.771
137.307, 365.990
138.695, 319.804
140.082, 293.270
141.469, 186.433
142.856, 59.331
144.242, 51.998
145.628, 165.547
147.014, 36.723
148.400, 31.179
149.786, 9.230
151.171, 87.437
152.556, 14.214
153.941, 64.267
155.325, 102.873
156.710, 131.595
158.094, 315.918
159.478, 150.931
160.862, 210.318
162.245, 181.073
163.629, 40.392
165.012, 20.933
166.395, 71.055
167.777, 0.083
169.160, 121.053
170.542, 358.489
171.924, 182.562
173.306, 331.110
174.687, 345.070
176.068, 730.881
177.449, 686.910
178.830, 925.965
180.211, 1170.540
181.591, 1237.121
182.972, 1683.923
184.351, 2050.930
185.731, 2788.127
187.111, 3485.500
188.490, 4733.037
189.869, 6300.719
191.248, 8338.525
192.626, 10966.428
194.005, 14034.412
195.383, 16562.469
196.761, 17890.602
198.139, 17258.791
199.516, 15907.052
200.893, 12655.385
202.271, 10273.666
203.647, 7502.021
205.024, 5770.545
206.400, 4299.145
207.777, 3217.631
209.152, 2505.901
210.528, 1904.034
211.904, 1752.351
213.279, 1290.669
214.654, 1129.000
216.029, 1167.336
217.403, 835.676
218.778, 864.016
220.152, 492.359
221.526, 450.702
222.900, 219.045
224.273, 37.386
225.646, 315.729
227.019, 35.877
228.392, 322.512
229.765, 190.912
231.137, 149.325
232.509, 72.224
233.881, 96.242
235.253, 104.705
236.625, 13.177
237.996, 108.312
239.367, 19.763
240.738, 58.789
242.108, 102.709
243.479, 154.248
244.849, 94.188
246.219, 187.399
247.589, 29.062
248.958, 240.831
250.328, 92.753
251.697, 164.793
253.065, 86.698
254.434, 20.826
255.803, 11.714
257.171, 144.167
258.539, 222.641
259.906, 303.534
261.274, 245.449
262.641, 168.631
264.008, 182.104
265.375, 54.648
266.742, 228.724
268.108, 1.603
269.475, 424.624
270.840, 1227.637
272.206, 1910.844
273.572, 2943.809
274.937, 4076.731
276.302, 5459.545
277.667, 7172.287
279.032, 7084.935
280.396, 7327.496
281.760, 6289.994
283.125, 5492.416
284.488, 4134.564
285.852, 3566.596
287.215, 2688.473
288.578, 2220.121
289.941, 2291.246
291.304, 1571.965
292.666, 1702.432
294.029, 1522.844
295.391, 1503.199
296.753, 1703.518
298.114, 1393.795
299.476, 1754.033
300.837, 1494.230
302.198, 1904.391
303.558, 2004.654
304.919, 2054.742
306.279, 2715.383
307.639, 2926.025
308.999, 4036.109
310.359, 4018.637
311.718, 4718.562
313.077, 5329.979
314.436, 5370.959
315.795, 5877.686
317.154, 6092.121
318.512, 6390.801
319.870, 6764.926
321.228, 6538.750
322.586, 6942.557
323.943, 6174.861
325.300, 6524.621
326.657, 5785.869
328.014, 5163.309
329.371, 4766.934
330.727, 4046.160
332.083, 3763.629
333.439, 3092.406
334.795, 3040.949
336.150, 2609.271
337.506, 2237.484
338.861, 2155.656
340.215, 1703.820
341.570, 1551.979
342.924, 1220.113
344.279, 1398.203
345.633, 1096.281
346.986, 994.352
348.340, 1122.408
349.693, 1030.451
351.046, 1138.484
352.399, 866.502
353.752, 1054.506
355.104, 1062.492
356.457, 780.770
357.809, 1038.721
359.160, 1101.352
360.512, 1139.268
361.863, 1337.170
363.214, 1335.848
364.565, 1443.949
365.916, 1463.461
367.267, 1571.283
368.617, 1709.787
369.967, 1721.227
371.317, 2259.383
372.666, 1948.945
374.016, 1967.152
375.365, 1674.900
376.714, 1473.238
378.063, 1541.039
379.411, 1071.066
380.760, 1168.688
382.108, 943.795
383.456, 852.889
384.803, 890.447
386.151, 640.320
387.498, 716.010
388.845, 523.963
390.192, 1065.994
391.539, 583.447
392.885, 741.203
394.231, 668.611
395.577, 473.529
396.923, 700.715
398.269, 549.701
399.614, 625.387
400.959, 492.377
402.304, 495.945
403.649, 692.242
404.993, 599.523
406.337, 547.199
407.681, 324.203
409.025, 347.473
410.369, 239.309
411.712, 168.484
413.055, 386.428
414.398, 319.918
415.741, 188.670
417.084, 343.451
418.426, 136.650
419.768, 224.057
421.110, 71.057
422.452, 75.150
423.793, 42.082
425.134, 71.453
426.475, 298.932
427.816, 67.533
429.157, 384.971
430.497, 217.281
431.837, 342.926
433.177, 199.893
434.517, 297.822
435.857, 330.244
437.196, 296.695
438.535, 470.467
439.874, 427.266
441.213, 533.582
442.551, 804.758
443.889, 580.984
445.227, 827.164
446.565, 843.303
447.903, 769.926
449.240, 865.980
450.577, 831.992
451.914, 1208.119
453.251, 1284.055
454.588, 1299.955
455.924, 915.822
457.260, 901.652
458.596, 1047.447
459.932, 453.207
461.267, 788.930
462.602, 444.617
463.938, 250.271
465.272, 375.889
466.607, 151.469
467.941, 147.012
469.276, 262.512
470.610, 367.977
471.943, 353.439
473.277, 18.871
474.610, 64.250
475.944, 110.422
477.276, 15.199
478.609, 59.947
479.942, 84.943
481.274, 250.074
482.606, 175.088
483.938, 260.129
485.270, 115.174
486.601, 80.221
487.932, 245.270
489.263, 199.707
490.594, 275.154
491.925, 499.984
493.255, 394.791
494.585, 729.564
495.915, 594.311
497.245, 1099.027
498.575, 773.717
499.904, 638.375
501.233, 893.006
502.562, 617.609
503.891, 602.188
505.219, 456.732
506.548, 601.252
507.876, 765.740
509.203, 470.201
510.531, 504.637
511.859, 469.043
513.186, 323.422
514.513, 357.771
515.840, 212.094
517.166, 406.387
518.493, 29.348
519.819, 434.848
521.145, 469.014
522.470, 263.152
523.796, 547.285
525.121, 1.393
526.446, 305.445
527.771, 119.473
529.096, 16.535
530.421, 187.428
531.745, 21.359
533.069, 165.248
534.393, 269.111
535.716, 122.947
537.040, 246.750
538.363, 0.543
539.686, 474.285
541.009, 81.900
542.331, 31.820
543.654, 305.498
544.976, 0.826
546.298, 412.797
547.620, 166.445
548.941, 190.059
550.263, 303.672
551.584, 197.332
552.905, 370.963
554.225, 55.404
555.546, 278.188
556.866, 11.752
558.186, 45.279
559.506, 398.779
560.826, 62.299
562.145, 405.809
563.465, 469.295
564.784, 27.154
566.103, 326.395
567.421, 30.006
568.740, 313.646
570.058, 117.234
571.376, 240.666
572.694, 224.395
574.011, 138.154
575.329, 311.865
576.646, 205.646
577.963, 179.133
579.279, 292.877
580.596, 84.277
581.912, 268.469
583.228, 329.430
584.544, 112.711
585.860, 23.939
587.175, 98.037
588.491, 431.305
589.806, 115.516
591.121, 177.646
592.435, 20.582
593.750, 226.326
595.064, 276.609
596.378, 90.482
597.692, 162.338
599.006, 315.131
600.319, 52.102
601.632, 510.598
602.945, 293.273
604.258, 345.924
605.571, 138.555
606.883, 361.154
608.195, 325.482
609.507, 226.289
610.819, 438.820
612.131, 421.328
613.442, 463.812
614.753, 836.275
616.064, 578.717
617.375, 791.133
618.685, 793.533
619.995, 895.906
621.306, 908.260
622.615, 930.463
623.925, 1222.785
625.235, 1574.500
626.544, 1716.158
627.853, 1948.320
629.162, 2100.521
630.471, 2236.848
631.779, 2342.211
633.087, 2532.801
634.395, 2674.324
635.703, 2931.832
637.011, 3102.322
638.318, 3885.471
639.625, 3477.396
640.932, 3518.986
642.239, 3050.918
643.546, 3782.080
644.852, 3512.838
646.158, 3464.648
647.464, 3370.641
648.770, 3472.537
650.076, 3625.318
651.381, 3746.383
652.686, 4028.277
653.991, 4140.217
655.296, 4172.078
656.600, 4663.924
657.905, 4555.752
659.209, 4687.562
660.513, 5179.355
661.817, 5141.135
663.120, 5932.895
664.423, 5864.639
665.726, 6626.371
667.029, 7288.146
668.332, 7609.844
669.635, 9051.527
670.937, 8943.617
672.239, 10465.268
673.541, 12026.934
674.842, 12648.553
676.144, 15675.469
677.445, 16747.295
678.746, 18828.875
680.047, 21285.469
681.348, 21547.412
682.648, 23216.322
683.948, 22408.307
685.248, 21869.111
686.548, 21814.400
687.848, 19265.482
689.147, 18825.113
690.447, 16687.490
691.746, 15168.867
693.044, 13819.629
694.343, 11535.023
695.641, 10744.023
696.940, 8908.926
698.238, 7872.781
699.535, 6602.613
700.833, 5569.197
702.130, 5318.180
703.427, 4178.449
704.724, 4039.281
706.021, 3520.203
707.318, 3109.146
708.614, 3360.070
709.910, 2677.648
711.206, 2393.281
712.502, 2564.490
713.798, 1844.387
715.093, 1964.350
716.388, 1655.516
717.683, 1785.908
718.978, 1797.047
720.272, 1428.766
721.567, 1776.229
722.861, 1427.930
724.155, 1507.656
725.448, 1748.723
726.742, 905.270
728.035, 1686.180
729.328, 1167.008
730.621, 923.562
731.914, 1454.557
733.206, 1065.270
734.499, 1815.844
735.791, 796.797
737.083, 1290.600
738.374, 1251.514
739.666, 829.930
740.957, 1200.389
742.248, 667.982
743.539, 1038.195
744.830, 1049.072
746.120, 830.924
747.410, 1321.553
748.701, 931.008
749.990, 946.357
751.280, 917.176
752.570, 730.617
753.859, 1000.975
755.148, 731.764
756.437, 637.637
757.725, 1028.406
759.014, 649.164
760.302, 950.227
761.590, 830.443
762.878, 731.176
764.166, 951.900
765.453, 522.463
766.740, 543.170
768.027, 453.869
769.314, 304.559
770.601, 895.240
771.887, 255.916
773.174, 816.758
774.460, 1067.418
775.745, 678.066
777.031, 941.156
778.316, 521.793
779.602, 832.420
780.887, 653.043
782.172, 553.664
783.456, 1174.275
784.741, 794.881
786.025, 965.477
787.309, 806.082
788.593, 866.686
789.876, 817.330
791.160, 557.986
792.443, 918.645
793.726, 459.336
795.009, 420.021
796.291, 1010.703
797.574, 651.377
798.856, 722.049
800.138, 992.719
801.420, 463.387
802.702, 1014.113
803.983, 524.836
805.264, 485.553
806.545, 656.264
807.826, 146.967
809.107, 327.664
810.387, 278.355
811.667, 289.041
812.947, 739.721
814.227, 380.395
815.507, 881.062
816.786, 321.727
818.065, 582.385
819.344, 493.410
820.623, 144.059
821.902, 424.699
823.180, 445.334
824.459, 55.965
825.737, 736.584
827.014, 77.201
828.292, 787.812
829.569, 568.420
830.847, 99.043
832.124, 419.662
833.401, 79.727
834.677, 60.854
835.954, 411.426
837.230, 42.008
838.506, 332.582
839.782, 116.848
841.057, 423.672
842.333, 464.188
843.608, 15.291
844.883, 285.273
846.158, 315.832
847.433, 63.609
848.707, 366.908
849.981, 372.568
851.255, 197.754
852.529, 218.107
853.803, 81.535
855.076, 608.859
856.350, 140.734
857.623, 309.588
858.895, 339.945
860.168, 279.697
861.441, 370.506
862.713, 99.293
863.985, 150.852
865.257, 321.018
866.528, 51.184
867.800, 511.361
869.071, 271.545
870.342, 81.729
871.613, 341.955
872.884, 167.820
874.154, 302.309
875.425, 327.547
876.695, 332.422
877.965, 232.393
879.234, 97.553
880.504, 572.445
881.773, 232.447
883.042, 97.553
884.311, 212.395
885.580, 142.346
886.848, 382.295
888.117, 142.250
889.385, 192.201
890.653, 180.625
891.920, 162.172
893.188, 92.252
894.455, 202.332
895.722, 132.451
896.989, 662.574
898.256, 382.709
899.523, 102.883
900.789, 543.059
902.055, 33.244
903.321, 383.494
904.587, 453.748
905.852, 294.043
907.118, 614.340
908.383, 534.637
909.648, 354.961
910.913, 405.281
912.177, 65.637
913.442, 575.990
914.706, 216.344
915.970, 276.701
917.233, 707.057
918.497, 267.412
919.760, 577.768
921.024, 248.123
922.287, 528.479
923.550, 758.832
924.812, 99.184
926.075, 449.537
927.337, 489.885
928.599, 39.766
929.861, 980.553
931.122, 160.873
932.384, 921.188
933.645, 661.500
934.906, 301.812
936.167, 762.121
937.428, 162.428
938.688, 662.730
939.948, 543.029
941.208, 453.326
942.468, 633.615
943.728, 403.904
944.987, 744.186
946.247, 854.461
947.506, 654.734
948.765, 645.000
950.023, 715.258
951.282, 325.512
952.540, 825.758
953.798, 186.000
955.056, 486.234
956.314, 756.480
957.572, 456.715
958.829, 1256.945
960.086, 877.109
961.343, 1587.324
962.600, 897.533
963.856, 557.734
965.113, 497.928
966.369, 448.111
967.625, 248.285
968.881, 828.451
970.136, 58.609
971.392, 998.766
972.647, 888.865
973.902, 409.025
975.157, 1429.188
976.411, 468.926
977.666, 1099.094
978.920, 1359.379
980.174, 399.551
981.428, 1449.729
982.682, 879.664
983.935, 729.848
985.188, 1399.314
986.441, 659.104
987.694, 1099.295
988.947, 1159.195
990.199, 679.395
991.452, 1332.131
992.704, 312.699
993.956, 902.912
995.207, 1315.426
996.459, 695.648
997.710, 1415.953
998.961, 1162.055
1000.212, 1072.293
1001.463, 1789.473
1002.714, 709.725
1003.964, 1499.982
1005.214, 1156.707
1006.464, 976.979
1007.714, 1258.293
1008.964, 1147.049
1010.213, 1217.340
1011.462, 1580.117
1012.711, 1170.426
1013.960, 1724.396
1015.209, 1255.627
1016.457, 1435.959
1017.705, 1508.193
1018.954, 1099.008
1020.201, 1129.361
1021.449, 1319.639
1022.697, 840.010
1023.944, 1469.793
1025.191, 1300.207
1026.438, 1479.996
1027.685, 1750.402
1028.931, 1720.326
1030.177, 2014.615
1031.423, 1895.570
1032.669, 2176.016
1033.915, 2860.367
1035.161, 1861.936
1036.406, 2362.406
1037.651, 2602.902
1038.896, 2173.400
1040.141, 2433.918
1041.386, 1904.451
1042.630, 1884.998
1043.874, 1835.350
1045.118, 1321.084
1046.362, 1461.637
1047.606, 1634.293
1048.849, 1305.455
1050.092, 1665.930
1051.336, 1496.980
1052.578, 1867.152
1053.821, 1557.787
1055.064, 1410.449
1056.306, 1681.113
1057.548, 1091.648
1058.790, 1452.277
1060.032, 1812.842
1061.273, 1360.773
1062.515, 1100.805
1063.756, 1641.156
1064.997, 1431.416
1066.237, 2041.684
1067.478, 1271.941
1068.718, 1642.172
1069.959, 1792.402
1071.199, 1342.504
1072.438, 1852.672
1073.678, 1302.770
1074.918, 1522.414
1076.157, 2242.215
1077.396, 1761.988
1078.635, 2099.297
1079.873, 2549.043
1081.112, 2118.773
1082.350, 3148.391
1083.588, 2797.945
1084.826, 3667.461
1086.064, 4336.938
1087.301, 3986.336
1088.539, 4205.695
1089.776, 4065.016
1091.013, 3044.125
1092.250, 3863.195
1093.486, 3432.215
1094.723, 3131.184
1095.959, 3780.105
1097.195, 2678.980
1098.431, 3617.816
1099.666, 2786.605
1100.902, 2895.461
1102.137, 3564.215
1103.372, 2612.879
1104.607, 3285.023
1105.842, 3333.621
1107.076, 2212.191
1108.311, 2670.750
1109.545, 2439.301
1110.779, 1917.836
1112.012, 2016.047
1113.246, 1234.207
1114.479, 1722.297
1115.712, 1400.316
1116.945, 698.336
1118.178, 1796.465
1119.411, 1016.840
1120.643, 1027.598
1121.875, 1488.363
1123.108, 359.141
1124.339, 789.922
1125.571, 830.715
1126.802, 91.527
1128.034, 612.352
1129.265, 233.215
1130.496, 384.125
1131.727, 1044.934
1132.957, 44.234
1134.187, 966.738
1135.418, 637.836
1136.648, 168.789
1137.877, 419.801
1139.107, 250.871
1140.336, 132.070
1141.566, 1023.309
1142.795, 185.465
1144.023, 585.723
1145.252, 206.930
1146.480, 608.312
1147.709, 569.715
1148.937, 121.098
1150.165, 592.527
1151.392, 453.996
1152.620, 304.516
1153.847, 556.980
1155.074, 328.500
1156.301, 90.031
1157.528, 741.430
1158.755, 212.891
1159.981, 514.367
1161.207, 595.832
1162.433, 87.316
1163.659, 1108.766
1164.885, 20.191
1166.110, 151.637
1167.336, 563.105
1168.561, 105.406
1169.786, 476.109
1171.010, 667.656
1172.235, 269.273
1173.459, 960.938
1174.683, 302.660
1175.907, 245.574
1177.131, 766.254
1178.355, 168.141
1179.578, 490.098
1180.801, 482.129
1182.024, 114.246
1183.247, 1036.445
1184.470, 408.742
1185.692, 401.078
1186.915, 1323.523
1188.137, 336.078
1189.359, 668.758
1190.580, 541.578
1191.802, 4.535
1193.023, 677.586
1194.244, 90.703
1195.465, 213.895
1196.686, 716.180
1197.907, 249.492
1199.127, 793.043
1200.347, 1006.324
1201.567, 109.258
1202.787, 1211.828
1204.007, 642.211
1205.226, 314.883
1206.446, 917.789
1207.665, 20.449
1208.884, 615.492
1210.102, 877.219
1211.321, 415.668
1212.539, 1176.387
1213.758, 864.875
1214.976, 679.051
1216.193, 1088.398
1217.411, 367.398
1218.628, 247.055
1219.846, 946.656
1221.063, 240.438
1222.280, 846.012
1223.496, 809.090
1224.713, 325.605
1225.929, 1021.715
1227.145, 847.355
1228.361, 961.566
1229.577, 696.734
1230.793, 527.129
1232.008, 297.340
1233.223, 819.141
1234.438, 359.656
1235.653, 889.375
1236.868, 440.531
1238.082, 439.703
1239.297, 948.293
1240.511, 176.027
1241.725, 1123.660
1242.938, 502.223
1244.152, 211.840
1245.365, 740.594
1246.578, 39.059
1247.791, 48.191
1249.004, 817.379
1250.217, 53.355
1251.429, 969.508
1252.642, 483.121
1253.854, 167.891
1255.066, 1033.910
1256.277, 568.832
1257.489, 312.293
1258.700, 508.266
1259.911, 48.113
1261.122, 788.789
1262.333, 742.973
1263.544, 0.000
##END=



