##NAMES=Fluoro-richterite
##RRUFFID=R040019
##IDEAL CHEMISTRY=Na(NaCa)Mg_5_Si_8_O_22_F_2_
##LOCALITY=Wilberforce, Ontario, Canada
##OWNER=RRUFF
##SOURCE=University of Arizona Mineral Museum
##DESCRIPTION=Brown prismatic crystals
##STATUS=The identification of this mineral has been confirmed by X-ray diffraction and chemical analysis
##URL=rruff.info/R040019
##MEASURED CHEMISTRY=(Na_0.59_K_0.27_[box]_0.14_)_Σ=1_(Ca_1.30_Na_0.70_)_Σ=2_(Mg_4.67_Fe_0.17_Fe^3+^_0.10_Ti_0.03_Mn_0.02_Al_0.01_)_Σ=5_(Si_7.67_Al_0.33_)_Σ=8_(F_1.12_(OH)_0.88_)_Σ=2_; OH estimated by charge balance
##PIN_ID=L00217
##ORIENTATION=Laser parallel to -b* (0 -1 0). Fiducial mark perpendicular to laser is parallel to c [0 0 1]
79.427, 0.000
80.823, 3.615
82.218, 58.045
83.614, 121.364
85.009, 62.121
86.404, 22.664
87.798, 103.146
89.193, 100.801
90.587, 371.170
91.981, 420.218
93.375, 538.188
94.768, 593.503
96.161, 706.362
97.554, 871.923
98.947, 1143.559
100.340, 1369.075
101.732, 1704.299
103.124, 2141.074
104.516, 2569.266
105.908, 3092.754
107.300, 3530.429
108.691, 3851.194
110.082, 4203.964
111.473, 4251.452
112.864, 4322.070
114.254, 4167.241
115.644, 3954.052
117.034, 3691.641
118.424, 3234.964
119.813, 2557.982
121.203, 2036.658
122.592, 1560.936
123.981, 1171.760
125.369, 906.089
126.758, 582.888
128.146, 513.166
129.534, 355.921
130.922, 365.062
132.309, 234.573
133.696, 201.436
135.083, 107.636
136.470, 94.163
137.857, 30.002
139.243, 119.145
140.630, 5.590
142.016, 8.345
143.401, 85.585
144.787, 33.191
146.172, 39.468
147.557, 45.421
148.942, 12.936
150.327, 27.590
151.711, 51.526
153.096, 79.732
154.480, 227.196
155.863, 267.907
157.247, 358.854
158.630, 475.028
160.013, 511.418
161.396, 644.017
162.779, 674.749
164.161, 730.427
165.544, 881.097
166.926, 1008.787
168.308, 1265.516
169.689, 1503.300
171.070, 1722.149
172.452, 2189.074
173.833, 2426.080
175.213, 2803.992
176.594, 3087.651
177.974, 3223.666
179.354, 3455.000
180.734, 3455.436
182.114, 3395.973
183.493, 3311.614
184.872, 3229.363
186.251, 2908.220
187.630, 2843.183
189.008, 2599.253
190.387, 2539.431
191.765, 2443.713
193.143, 2373.101
194.520, 2430.584
195.898, 2387.160
197.275, 2456.834
198.652, 2483.669
200.029, 2571.729
201.405, 2745.188
202.782, 2858.819
204.158, 3054.748
205.534, 3338.947
206.909, 3581.447
208.285, 3788.955
209.660, 3968.454
211.035, 4268.887
212.410, 4533.519
213.784, 4898.260
215.159, 5372.080
216.533, 5881.944
217.907, 6514.848
219.281, 7041.791
220.654, 7892.768
222.027, 8522.782
223.400, 9274.831
224.773, 10126.912
226.146, 10868.030
227.518, 11555.180
228.891, 12255.363
230.263, 12423.573
231.634, 12598.814
233.006, 12570.085
234.377, 11794.382
235.748, 10650.705
237.119, 9500.056
238.490, 8151.428
239.860, 7246.826
241.231, 5864.248
242.601, 5043.689
243.970, 4245.152
245.340, 3604.627
246.709, 3049.084
248.079, 2583.533
249.448, 2266.472
250.816, 1863.821
252.185, 1623.526
253.553, 1346.546
254.921, 1165.847
256.289, 908.401
257.657, 761.188
259.024, 653.187
260.391, 469.384
261.758, 413.762
263.125, 296.309
264.492, 179.013
265.858, 232.868
267.224, 131.865
268.590, 32.996
269.956, 42.745
271.321, 15.367
272.687, 17.874
274.052, 74.263
275.416, 37.457
276.781, 125.263
278.146, 18.161
279.510, 30.163
280.874, 94.280
282.237, 160.507
283.601, 227.327
284.964, 308.273
286.327, 417.809
287.690, 585.443
289.053, 730.162
290.416, 830.963
291.778, 1067.839
293.140, 1132.786
294.502, 1314.802
295.863, 1440.882
297.225, 1716.022
298.586, 1837.220
299.947, 1868.474
301.308, 2158.783
302.668, 2173.146
304.029, 2419.559
305.389, 2648.021
306.749, 2908.533
308.108, 3145.533
309.468, 3389.363
310.827, 3590.685
312.186, 3774.097
313.545, 3896.048
314.903, 3871.280
316.262, 3761.913
317.620, 3662.519
318.978, 3508.169
320.336, 3323.181
321.693, 3084.768
323.051, 2911.523
324.408, 2833.960
325.765, 2576.640
327.121, 2538.872
328.478, 2412.397
329.834, 2387.110
331.190, 2339.705
332.546, 2275.120
333.902, 2160.236
335.257, 2124.119
336.612, 2103.945
337.967, 2007.351
339.322, 1987.840
340.677, 1932.953
342.031, 1921.539
343.385, 1812.909
344.739, 1788.569
346.093, 1791.873
347.446, 1758.717
348.799, 1813.332
350.153, 1876.158
351.505, 2094.744
352.858, 2148.132
354.210, 2265.531
355.563, 2638.941
356.915, 2932.362
358.267, 3304.792
359.618, 3813.231
360.969, 4302.678
362.321, 4801.131
363.672, 5316.593
365.022, 5667.058
366.373, 5901.527
367.723, 5918.997
369.073, 5749.469
370.423, 5557.939
371.773, 5281.407
373.122, 4919.871
374.471, 4689.331
375.821, 4651.784
377.169, 4425.229
378.518, 4521.669
379.866, 4234.100
381.215, 4273.523
382.563, 4290.938
383.910, 4255.344
385.258, 4249.742
386.605, 4238.131
387.952, 4320.511
389.299, 4177.879
390.646, 4321.239
391.992, 4311.588
393.339, 4415.926
394.685, 4426.252
396.031, 4472.568
397.376, 4600.872
398.722, 4524.164
400.067, 4576.443
401.412, 4416.709
402.757, 4375.964
404.101, 4388.202
405.446, 4119.430
406.790, 3865.642
408.134, 3671.873
409.478, 3468.123
410.821, 3309.387
412.165, 2914.662
413.508, 2553.946
414.851, 2477.236
416.193, 2193.534
417.536, 1979.834
418.878, 1829.138
420.220, 1645.443
421.562, 1613.748
422.904, 1419.052
424.245, 1383.354
425.586, 1286.653
426.927, 1295.948
428.268, 1251.239
429.609, 1032.523
430.949, 995.801
432.289, 870.596
433.629, 959.833
434.969, 802.403
436.309, 818.241
437.648, 727.128
438.987, 678.198
440.326, 578.821
441.665, 495.222
443.003, 412.224
444.342, 417.813
445.680, 438.282
447.018, 315.306
448.355, 333.782
449.693, 284.462
451.030, 233.275
452.367, 217.746
453.704, 161.137
455.041, 116.271
456.377, 170.022
457.713, 118.096
459.049, 201.059
460.385, 150.998
461.721, 192.915
463.056, 133.809
464.391, 144.681
465.726, 140.529
467.061, 109.463
468.395, 94.158
469.730, 68.943
471.064, 86.705
472.398, 62.443
473.731, 55.156
475.065, 21.312
476.398, 48.515
477.731, 61.950
479.064, 92.473
480.397, 128.100
481.729, 23.851
483.062, 24.672
484.394, 65.566
485.725, 99.554
487.057, 106.655
488.389, 61.875
489.720, 79.191
491.051, 107.614
492.382, 119.159
493.712, 144.833
495.043, 137.650
496.373, 139.607
497.703, 97.708
499.032, 97.928
500.362, 74.920
501.691, 33.709
503.020, 29.239
504.349, 36.145
505.678, 76.485
507.007, 34.787
508.335, 150.058
509.663, 108.302
510.991, 169.512
512.319, 254.711
513.646, 310.883
514.973, 359.022
516.300, 449.131
517.627, 577.206
518.954, 726.247
520.280, 693.254
521.607, 958.228
522.933, 951.172
524.259, 1096.104
525.584, 1208.009
526.910, 1304.903
528.235, 1431.773
529.560, 1524.618
530.885, 1530.445
532.209, 1449.236
533.534, 1395.020
534.858, 1331.787
536.182, 1249.527
537.506, 1184.251
538.829, 1168.954
540.152, 1090.622
541.476, 1060.262
542.799, 989.873
544.121, 956.447
545.444, 943.005
546.766, 978.524
548.088, 892.006
549.410, 865.449
550.732, 904.854
552.053, 852.219
553.375, 912.545
554.696, 932.833
556.017, 882.080
557.337, 868.285
558.658, 907.449
559.978, 817.572
561.298, 798.652
562.618, 851.690
563.938, 771.688
565.257, 808.642
566.576, 810.555
567.895, 748.425
569.214, 788.253
570.533, 819.038
571.851, 838.779
573.170, 809.478
574.488, 847.133
575.805, 755.743
577.123, 785.311
578.440, 773.834
579.758, 703.312
581.075, 709.748
582.391, 639.138
583.708, 700.482
585.024, 654.783
586.341, 570.039
587.657, 577.249
588.972, 488.414
590.288, 386.534
591.603, 344.611
592.918, 142.642
594.233, 134.614
595.548, 93.532
596.863, 126.380
598.177, 44.165
599.491, 26.865
600.805, 35.472
602.119, 44.991
603.432, 25.424
604.746, 34.764
606.059, 25.014
607.372, 100.171
608.685, 95.258
609.997, 155.274
611.309, 159.230
612.621, 176.129
613.933, 214.970
615.245, 372.758
616.557, 394.742
617.868, 421.762
619.179, 415.467
620.490, 550.687
621.801, 584.327
623.111, 629.343
624.421, 681.443
625.731, 748.397
627.041, 763.301
628.351, 902.255
629.660, 942.966
630.970, 1019.629
632.279, 1159.257
633.588, 1161.563
634.896, 1209.429
636.205, 1220.356
637.513, 1305.554
638.821, 1414.725
640.129, 1514.606
641.437, 1605.277
642.744, 1753.500
644.051, 1771.208
645.358, 1945.332
646.665, 2056.947
647.972, 2276.379
649.278, 2411.030
650.584, 2623.657
651.890, 2770.870
653.196, 3141.282
654.502, 3365.172
655.807, 3860.126
657.113, 4067.926
658.418, 4584.184
659.722, 5189.515
661.027, 5688.275
662.331, 6370.400
663.636, 7371.785
664.940, 8557.082
666.244, 9695.995
667.547, 11517.255
668.851, 13506.870
670.154, 16440.855
671.457, 19633.723
672.760, 23226.623
674.062, 28637.326
675.365, 33982.961
676.667, 40308.648
677.969, 45503.250
679.271, 50518.582
680.572, 52709.949
681.874, 52102.023
683.175, 50236.762
684.476, 45155.523
685.777, 38636.902
687.077, 32166.932
688.378, 26634.191
689.678, 22189.809
690.978, 18098.338
692.278, 14791.407
693.577, 11963.786
694.877, 10430.957
696.176, 8714.607
697.475, 7500.067
698.774, 6332.519
700.072, 5754.517
701.371, 5044.042
702.669, 4379.730
703.967, 3922.089
705.265, 3680.724
706.562, 3387.291
707.860, 3062.615
709.157, 2749.929
710.454, 2694.241
711.751, 2458.277
713.047, 2386.058
714.344, 2210.800
715.640, 2107.506
716.936, 1977.175
718.232, 1928.808
719.527, 1839.404
720.823, 1839.964
722.118, 1725.489
723.413, 1643.977
724.708, 1549.430
726.002, 1496.848
727.297, 1512.231
728.591, 1383.579
729.885, 1479.892
731.179, 1406.171
732.472, 1306.416
733.766, 1252.626
735.059, 1196.804
736.352, 1215.947
737.645, 1167.057
738.937, 1155.134
740.230, 1046.178
741.522, 991.188
742.814, 1026.167
744.106, 1039.113
745.397, 870.027
746.689, 829.909
747.980, 796.651
749.271, 766.002
750.562, 803.146
751.853, 719.250
753.143, 694.130
754.433, 646.415
755.723, 558.878
757.013, 537.698
758.303, 542.888
759.592, 435.154
760.881, 510.821
762.170, 404.991
763.459, 375.912
764.748, 379.655
766.036, 322.695
767.325, 342.768
768.613, 252.052
769.901, 293.672
771.188, 180.925
772.476, 160.237
773.763, 223.525
775.050, 88.789
776.337, 215.022
777.624, 113.231
778.910, 81.412
780.196, 140.562
781.482, 67.687
782.768, 55.781
784.054, 114.847
785.339, 84.887
786.625, 68.898
787.910, 76.009
789.195, 82.849
790.479, 70.814
791.764, 49.781
793.048, 89.759
794.332, 74.759
795.616, 80.753
796.900, 20.743
798.183, 80.737
799.467, 83.749
800.750, 130.778
802.033, 124.816
803.316, 95.869
804.598, 140.942
805.880, 67.042
807.163, 102.171
808.445, 173.330
809.726, 46.522
811.008, 16.266
812.289, 32.954
813.570, 9.814
814.851, 78.413
816.132, 44.357
817.413, 6.166
818.693, 99.000
819.973, 24.901
821.253, 16.840
822.533, 85.813
823.813, 23.855
825.092, 4.065
826.371, 0.043
827.650, 24.531
828.929, 32.533
830.208, 10.471
831.486, 23.257
832.764, 16.981
834.042, 86.254
835.320, 33.595
836.598, 93.977
837.875, 47.431
839.152, 41.933
840.429, 69.477
841.706, 32.922
842.983, 112.702
844.259, 80.403
845.536, 41.165
846.812, 79.965
848.088, 61.825
849.363, 14.735
850.639, 33.673
851.914, 34.644
853.189, 11.352
854.464, 88.671
855.739, 66.248
857.013, 135.151
858.288, 60.041
859.562, 66.915
860.836, 115.774
862.110, 108.619
863.383, 99.449
864.656, 156.265
865.930, 295.069
867.203, 298.865
868.475, 275.653
869.748, 402.440
871.020, 327.220
872.292, 487.991
873.564, 465.755
874.836, 522.536
876.108, 626.321
877.379, 644.114
878.650, 776.898
879.922, 813.691
881.192, 848.512
882.463, 777.341
883.733, 849.167
885.004, 775.999
886.274, 809.821
887.544, 861.639
888.813, 927.454
890.083, 864.270
891.352, 848.079
892.621, 912.903
893.890, 789.722
895.159, 997.567
896.427, 923.405
897.695, 956.237
898.964, 1056.085
900.232, 1109.938
901.499, 1047.784
902.767, 1136.653
904.034, 1166.523
905.301, 1077.400
906.568, 1102.276
907.835, 1129.102
909.102, 1172.602
910.368, 1224.980
911.634, 1295.911
912.900, 1362.864
914.166, 1324.832
915.432, 1443.818
916.697, 1389.808
917.962, 1449.810
919.227, 1618.817
920.492, 1610.823
921.757, 1776.835
923.021, 1801.841
924.285, 2025.599
925.550, 1998.266
926.813, 2213.191
928.077, 2292.550
929.341, 2378.433
930.604, 2431.887
931.867, 2593.209
933.130, 2523.774
934.393, 2545.028
935.655, 2632.227
936.918, 2462.667
938.180, 2584.979
939.442, 2523.216
940.703, 2575.477
941.965, 2668.757
943.226, 2616.976
944.488, 2773.098
945.749, 2815.375
947.009, 2978.580
948.270, 2926.798
949.530, 2997.760
950.791, 3073.969
952.051, 3134.179
953.311, 3054.574
954.570, 2848.935
955.830, 2726.373
957.089, 2453.566
958.348, 2292.647
959.607, 1991.861
960.866, 1787.357
962.124, 1601.305
963.383, 1452.288
964.641, 1400.149
965.899, 1158.418
967.156, 1172.437
968.414, 992.764
969.671, 899.146
970.928, 939.033
972.185, 759.497
973.442, 811.360
974.699, 669.069
975.955, 765.558
977.211, 676.114
978.468, 731.581
979.723, 684.188
980.979, 610.033
982.234, 651.544
983.490, 708.088
984.745, 571.839
986.000, 639.712
987.254, 648.636
988.509, 621.810
989.763, 709.191
991.017, 629.969
992.271, 649.133
993.525, 667.193
994.779, 689.817
996.032, 781.798
997.285, 730.146
998.538, 902.114
999.791, 756.048
1001.044, 944.507
1002.296, 835.498
1003.548, 1057.666
1004.800, 1095.282
1006.052, 1051.459
1007.304, 1214.512
1008.555, 1275.529
1009.807, 1311.557
1011.058, 1392.471
1012.309, 1615.324
1013.559, 1690.136
1014.810, 1733.982
1016.060, 1632.256
1017.310, 1797.021
1018.560, 1944.653
1019.810, 1808.116
1021.060, 1969.784
1022.309, 2084.449
1023.558, 2011.054
1024.807, 2174.294
1026.056, 2196.701
1027.305, 2196.581
1028.553, 2452.034
1029.801, 2532.139
1031.049, 2704.718
1032.297, 2845.734
1033.545, 2885.229
1034.793, 3069.163
1036.040, 3189.347
1037.287, 3266.068
1038.534, 3404.524
1039.781, 3530.395
1041.027, 3742.731
1042.274, 3601.850
1043.520, 3888.479
1044.766, 3975.493
1046.012, 3869.645
1047.257, 4063.902
1048.503, 4221.354
1049.748, 4394.784
1050.993, 4483.962
1052.238, 4761.423
1053.483, 4883.474
1054.727, 4959.737
1055.971, 5177.095
1057.216, 5427.575
1058.459, 5694.078
1059.703, 5971.978
1060.947, 6156.136
1062.190, 6485.137
1063.433, 6665.805
1064.676, 7065.721
1065.919, 7311.376
1067.162, 7476.371
1068.404, 7786.042
1069.646, 7765.599
1070.888, 7754.862
1072.130, 7829.842
1073.372, 7586.788
1074.613, 7370.743
1075.855, 7189.640
1077.096, 6651.857
1078.337, 6310.550
1079.578, 6162.103
1080.818, 5668.958
1082.059, 5373.262
1083.299, 5014.057
1084.539, 4664.508
1085.779, 4408.261
1087.018, 4339.555
1088.258, 3729.046
1089.497, 4033.144
1090.736, 3271.880
1091.975, 2992.502
1093.213, 2700.028
1094.452, 2382.432
1095.690, 2368.092
1096.928, 2057.695
1098.166, 1961.135
1099.404, 1800.602
1100.642, 1720.910
1101.879, 1605.324
1103.116, 1432.320
1104.353, 1410.035
1105.590, 1293.765
1106.827, 1207.167
1108.063, 1239.008
1109.299, 1034.895
1110.536, 1077.743
1111.771, 856.774
1113.007, 988.168
1114.243, 936.694
1115.478, 832.007
1116.713, 786.275
1117.948, 736.408
1119.183, 794.163
1120.418, 632.025
1121.652, 723.149
1122.886, 889.337
1124.120, 852.090
1125.354, 789.245
1126.588, 637.989
1127.821, 494.677
1129.055, 384.060
1130.288, 550.498
1131.521, 476.075
1132.753, 478.180
1133.986, 394.106
1135.218, 438.364
1136.450, 483.422
1137.682, 380.550
1138.914, 364.944
1140.146, 344.762
1141.377, 301.528
1142.609, 307.264
1143.840, 230.888
1145.071, 241.047
1146.301, 246.575
1147.532, 291.866
1148.762, 278.136
1149.992, 184.093
1151.222, 130.161
1152.452, 119.500
1153.682, 85.884
1154.911, 63.974
1156.140, 137.454
1157.369, 56.096
1158.598, 91.485
1159.827, 150.844
1161.055, 151.263
1162.284, 130.159
1163.512, 81.198
1164.740, 29.512
1165.967, 43.470
1167.195, 27.775
1168.422, 35.787
1169.650, 34.165
1170.877, 39.546
1172.103, 87.198
1173.330, 41.866
1174.557, 49.197
1175.783, 50.181
1177.009, 52.394
1178.235, 123.591
1179.461, 53.069
1180.686, 8.360
1181.912, 33.572
1183.137, 67.262
1184.362, 3.693
1185.587, 10.129
1186.811, 16.797
1188.036, 36.600
1189.260, 68.652
1190.484, 3.187
1191.708, 115.083
1192.932, 48.700
1194.155, 32.248
1195.378, 73.461
1196.602, 25.567
1197.825, 31.321
1199.047, 74.167
1200.270, 38.232
1201.492, 14.130
1202.715, 133.523
1203.937, 93.304
1205.159, 83.820
1206.380, 31.357
1207.602, 9.615
1208.823, 6.294
1210.044, 42.707
1211.265, 16.246
1212.486, 37.993
1213.707, 6.548
1214.927, 1.831
1216.147, 38.312
1217.367, 10.780
1218.587, 103.698
1219.807, 15.810
1221.027, 94.406
1222.246, 102.476
1223.465, 57.622
1224.684, 22.891
1225.903, 26.721
1227.121, 21.686
1228.340, 43.621
1229.558, 87.705
1230.776, 121.945
1231.994, 78.971
1233.212, 33.492
1234.429, 97.381
1235.646, 139.781
1236.864, 211.679
1238.081, 223.551
1239.297, 231.132
1240.514, 244.689
1241.730, 167.688
1242.947, 165.340
1244.163, 54.112
1245.378, 14.600
1246.594, 187.152
1247.810, 110.927
1249.025, 100.229
1250.240, 92.354
1251.455, 82.278
1252.670, 113.377
1253.885, 197.647
1255.099, 169.247
1256.313, 160.225
1257.527, 39.411
1258.741, 234.271
1259.955, 185.186
1261.168, 70.472
1262.382, 211.355
1263.595, 227.542
1264.808, 106.806
1266.021, 88.482
1267.233, 182.961
1268.446, 152.191
1269.658, 239.833
1270.870, 49.003
1272.082, 204.159
1273.294, 197.684
1274.505, 85.402
1275.716, 216.823
1276.928, 163.099
1278.139, 88.065
1279.349, 278.105
1280.560, 182.537
1281.770, 211.003
1282.981, 177.928
1284.191, 127.889
1285.401, 212.690
1286.610, 206.126
1287.820, 190.585
1289.029, 200.445
1290.239, 107.843
1291.448, 180.763
1292.656, 78.979
1293.865, 200.472
1295.073, 250.796
1296.282, 199.693
1297.490, 136.935
1298.698, 117.929
1299.906, 141.780
1301.113, 236.303
1302.320, 168.824
1303.528, 10.130
1304.735, 179.085
1305.942, 59.101
1307.148, 140.926
1308.355, 105.048
1309.561, 119.204
1310.767, 145.885
1311.973, 154.572
1313.179, 158.597
1314.384, 164.722
1315.590, 148.251
1316.795, 147.030
1318.000, 110.957
1319.205, 64.505
1320.410, 70.371
1321.614, 58.428
1322.819, 89.628
1324.023, 91.255
1325.227, 56.076
1326.431, 136.358
1327.634, 108.841
1328.838, 140.224
1330.041, 49.116
1331.244, 114.437
1332.447, 86.130
1333.650, 45.141
1334.852, 108.160
1336.055, 102.443
1337.257, 20.868
1338.459, 73.466
1339.661, 18.481
1340.862, 105.090
1342.064, 14.507
1343.265, 22.128
1344.466, 94.196
1345.667, 157.353
1346.868, 57.087
1348.068, 191.518
1349.269, 85.619
1350.469, 104.489
1351.669, 125.758
1352.869, 126.563
1354.069, 108.308
1355.268, 178.182
1356.468, 36.394
1357.667, 120.096
1358.866, 62.335
1360.065, 35.498
1361.263, 128.631
1362.462, 94.703
1363.660, 54.937
1364.858, 101.155
1366.056, 62.217
1367.254, 137.360
1368.451, 90.744
1369.649, 88.527
1370.846, 111.852
1372.043, 81.293
1373.240, 49.634
1374.436, 160.521
1375.633, 178.771
1376.829, 64.614
1378.025, 24.360
1379.221, 47.449
1380.417, 88.276
1381.613, 100.062
1382.808, 132.529
1384.003, 187.815
1385.199, 152.272
1386.393, 199.669
1387.588, 137.004
1388.783, 167.993
1389.977, 116.099
1391.171, 65.017
1392.365, 103.375
1393.559, 110.931
1394.753, 122.827
1395.946, 73.003
1397.140, 206.383
1398.333, 95.688
1399.526, 201.186
1400.719, 115.064
1401.911, 154.885
1403.104, 102.765
1404.296, 216.659
1405.488, 61.878
1406.680, 153.889
1407.872, 95.250
1409.063, 33.300
1410.255, 204.464
1411.446, 42.055
1412.637, 322.925
1413.828, 153.919
1415.018, 114.993
1416.209, 225.137
1417.399, 139.081
1418.589, 115.466
1419.779, 160.220
1420.969, 194.328
1422.159, 124.353
1423.348, 177.413
1424.537, 165.704
1425.726, 263.105
1426.915, 146.066
1428.104, 126.572
1429.293, 152.693
1430.481, 72.992
1431.669, 156.818
1432.857, 133.637
1434.045, 186.641
1435.233, 77.346
1436.420, 256.162
1437.608, 212.305
1438.795, 140.264
1439.982, 197.182
1441.169, 306.160
1442.355, 148.725
1443.542, 158.447
1444.728, 410.254
1445.914, 111.967
1447.100, 242.818
1448.286, 215.559
1449.472, 174.586
1450.657, 30.611
1451.842, 332.598
1453.027, 198.402
1454.212, 135.105
1455.397, 453.271
1456.581, 137.217
1457.766, 223.627
1458.950, 273.463
1460.134, 175.504
1461.318, 322.441
1462.501, 141.811
1463.685, 164.520
1464.868, 380.480
1466.051, 54.061
1467.234, 434.139
1468.417, 221.838
1469.600, 139.787
1470.782, 201.936
1471.965, 240.572
1473.147, 197.221
1474.329, 281.977
1475.510, 147.096
1476.692, 149.348
1477.873, 102.412
1479.055, 224.225
1480.236, 88.426
1481.416, 403.852
1482.597, 241.533
1483.778, 190.238
1484.958, 6.051
1486.138, 15.234
1487.318, 70.471
1488.498, 243.938
