##NAMES=Fluoro-richterite
##RRUFFID=R040019
##IDEAL CHEMISTRY=Na(NaCa)Mg_5_Si_8_O_22_F_2_
##LOCALITY=Wilberforce, Ontario, Canada
##OWNER=RRUFF
##SOURCE=University of Arizona Mineral Museum
##DESCRIPTION=Brown prismatic crystals
##STATUS=The identification of this mineral has been confirmed by X-ray diffraction and chemical analysis
##URL=rruff.info/R040019
##MEASURED CHEMISTRY=(Na_0.59_K_0.27_[box]_0.14_)_Σ=1_(Ca_1.30_Na_0.70_)_Σ=2_(Mg_4.67_Fe_0.17_Fe^3+^_0.10_Ti_0.03_Mn_0.02_Al_0.01_)_Σ=5_(Si_7.67_Al_0.33_)_Σ=8_(F_1.12_(OH)_0.88_)_Σ=2_; OH estimated by charge balance
##PIN_ID=L00217
##ORIENTATION=Laser parallel to -b* (0 -1 0). Fiducial mark perpendicular to laser is parallel to c [0 0 1]
73.842, 0.000
75.239, 77.524
76.635, 73.109
78.031, 47.047
79.427, 15.206
80.823, 22.688
82.218, 94.944
83.614, 225.324
85.009, 230.919
86.404, 266.041
87.798, 303.168
89.193, 378.900
90.587, 554.905
91.981, 575.919
93.375, 720.703
94.768, 844.065
96.161, 895.843
97.554, 1111.892
98.947, 1342.087
100.340, 1545.377
101.732, 1836.687
103.124, 2157.920
104.516, 2473.997
105.908, 2980.848
107.300, 3266.412
108.691, 3592.672
110.082, 3802.511
111.473, 3832.922
112.864, 3836.870
114.254, 3619.322
115.644, 3415.247
117.034, 3070.604
118.424, 2611.352
119.813, 2055.458
121.203, 1734.898
122.592, 1283.658
123.981, 998.810
125.369, 714.690
126.758, 529.108
128.146, 390.737
129.534, 317.577
130.922, 269.637
132.309, 177.916
133.696, 113.406
135.083, 105.100
136.470, 28.992
137.857, 22.075
139.243, 38.344
140.630, 11.792
142.016, 2.415
143.401, 9.207
144.787, 99.163
146.172, 164.279
147.557, 356.551
148.942, 617.973
150.327, 1012.542
151.711, 1569.255
153.096, 2419.108
154.480, 3464.096
155.863, 4473.217
157.247, 5490.425
158.630, 6521.593
160.013, 7210.736
161.396, 7346.876
162.779, 7020.039
164.161, 6575.234
165.544, 6046.473
166.926, 5742.763
168.308, 5541.112
169.689, 5432.522
171.070, 5325.266
172.452, 5500.415
173.833, 5681.209
175.213, 5806.196
176.594, 6039.204
177.974, 6015.625
179.354, 6022.377
180.734, 5887.075
182.114, 5755.015
183.493, 5526.241
184.872, 5356.700
186.251, 5015.376
187.630, 4945.248
189.008, 4661.208
190.387, 4541.241
191.765, 4597.345
193.143, 4517.519
194.520, 4590.759
195.898, 4607.070
197.275, 4749.446
198.652, 4927.891
200.029, 5297.400
201.405, 5402.975
202.782, 5672.615
204.158, 5902.319
205.534, 6184.086
206.909, 6537.915
208.285, 6615.806
209.660, 6925.753
211.035, 7257.758
212.410, 7418.822
213.784, 7805.941
215.159, 8201.116
216.533, 8728.350
217.907, 9341.635
219.281, 9639.973
220.654, 10027.366
222.027, 10203.812
223.400, 10487.311
224.773, 10418.858
226.146, 10328.456
227.518, 10189.104
228.891, 9782.805
230.263, 9468.551
231.634, 9002.343
233.006, 8533.187
234.377, 7890.076
235.748, 7155.010
237.119, 6311.988
238.490, 5506.014
239.860, 4959.407
241.231, 4218.020
242.601, 3617.760
243.970, 3234.865
245.340, 2858.429
246.709, 2502.129
248.079, 2102.076
249.448, 1878.247
250.816, 1532.622
252.185, 1359.183
253.553, 1139.917
254.921, 968.811
256.289, 752.855
257.657, 694.040
259.024, 509.356
260.391, 382.797
261.758, 360.355
263.125, 223.026
264.492, 214.803
265.858, 131.683
267.224, 12.342
268.590, 2.725
269.956, 51.120
271.321, 12.884
272.687, 59.511
274.052, 94.599
275.416, 113.721
276.781, 142.192
278.146, 136.590
279.510, 64.909
280.874, 65.133
282.237, 30.263
283.601, 16.840
284.964, 24.940
286.327, 167.484
287.690, 257.774
289.053, 307.885
290.416, 434.122
291.778, 634.750
293.140, 758.249
294.502, 954.284
295.863, 1033.051
297.225, 1190.649
298.586, 1449.474
299.947, 1710.125
301.308, 1894.882
302.668, 2060.047
304.029, 2315.883
305.389, 2591.757
306.749, 2853.661
308.108, 3135.608
309.468, 3385.591
310.827, 3665.608
312.186, 3793.660
313.545, 3789.745
314.903, 3845.862
316.262, 3660.011
317.620, 3432.192
318.978, 3309.404
320.336, 3010.645
321.693, 2859.917
323.051, 2661.219
324.408, 2526.551
325.765, 2345.913
327.121, 2422.306
328.478, 2225.728
329.834, 2231.181
331.190, 2186.663
332.546, 2111.174
333.902, 2063.959
335.257, 2021.283
336.612, 1869.871
337.967, 1784.477
339.322, 1595.072
340.677, 1509.640
342.031, 1455.216
343.385, 1362.817
344.739, 1338.446
346.093, 1261.102
347.446, 1228.784
348.799, 1208.492
350.153, 1150.223
351.505, 1208.977
352.858, 1180.753
354.210, 1265.552
355.563, 1227.373
356.915, 1340.216
358.267, 1379.080
359.618, 1472.965
360.969, 1524.872
362.321, 1572.798
363.672, 1696.745
365.022, 1817.711
366.373, 1941.697
367.723, 2079.701
369.073, 2219.246
370.423, 2297.767
371.773, 2530.827
373.122, 2662.905
374.471, 2852.001
375.821, 3129.114
377.169, 3213.244
378.518, 3434.391
379.866, 3507.554
381.215, 3705.734
382.563, 3719.929
383.910, 3773.139
385.258, 3634.366
386.605, 3600.607
387.952, 3551.862
389.299, 3391.133
390.646, 3413.416
391.992, 3249.714
393.339, 3147.026
394.685, 3044.350
396.031, 3001.688
397.376, 2839.039
398.722, 2683.401
400.067, 2516.776
401.412, 2316.163
402.757, 2162.583
404.101, 2002.036
405.446, 1770.521
406.790, 1556.037
408.134, 1401.584
409.478, 1152.159
410.821, 1023.760
412.165, 877.385
413.508, 673.034
414.851, 572.706
416.193, 474.400
417.536, 398.115
418.878, 411.850
420.220, 423.604
421.562, 400.378
422.904, 380.169
424.245, 455.979
425.586, 470.804
426.927, 406.646
428.268, 463.504
429.609, 321.220
430.949, 389.097
432.289, 400.050
433.629, 339.799
434.969, 330.558
436.309, 335.428
437.648, 179.584
438.987, 170.307
440.326, 110.583
441.665, 85.375
443.003, 27.446
444.342, 18.303
445.680, 21.992
447.018, 64.673
448.355, 74.641
449.693, 120.608
451.030, 120.113
452.367, 90.284
453.704, 68.328
455.041, 93.612
456.377, 51.956
457.713, 83.338
459.049, 68.770
460.385, 9.246
461.721, 46.262
463.056, 26.771
464.391, 97.280
465.726, 95.791
467.061, 144.307
468.395, 207.826
469.730, 158.349
471.064, 168.876
472.398, 146.408
473.731, 135.400
475.065, 101.488
476.398, 112.033
477.731, 127.585
479.064, 93.142
480.397, 124.705
481.729, 97.278
483.062, 57.861
484.394, 87.445
485.725, 91.040
487.057, 75.637
488.389, 118.255
489.720, 106.872
491.051, 73.491
492.382, 132.118
493.712, 84.744
495.043, 143.378
496.373, 188.021
497.703, 189.666
499.032, 239.333
500.362, 224.012
501.691, 295.701
503.020, 313.409
504.349, 316.127
505.678, 364.870
507.007, 369.622
508.335, 411.381
509.663, 430.147
510.991, 500.917
512.319, 542.692
513.646, 588.331
514.973, 653.168
516.300, 695.040
517.627, 768.824
518.954, 842.618
520.280, 894.406
521.607, 989.189
522.933, 1020.967
524.259, 1087.740
525.584, 1087.507
526.910, 1103.267
528.235, 1087.028
529.560, 1091.782
530.885, 1098.537
532.209, 1058.283
533.534, 1053.025
534.858, 1061.758
536.182, 1062.484
537.506, 1080.208
538.829, 1006.924
540.152, 955.631
541.476, 895.328
542.799, 889.016
544.121, 815.693
545.444, 828.359
546.766, 874.014
548.088, 831.658
549.410, 822.290
550.732, 884.911
552.053, 799.519
553.375, 893.115
554.696, 879.699
556.017, 810.271
557.337, 866.831
558.658, 816.378
559.978, 758.911
561.298, 671.430
562.618, 648.936
563.938, 611.426
565.257, 539.902
566.576, 504.363
567.895, 413.808
569.214, 397.237
570.533, 418.650
571.851, 413.047
573.170, 357.427
574.488, 377.791
575.805, 344.137
577.123, 327.466
578.440, 340.778
579.758, 339.071
581.075, 383.347
582.391, 388.605
583.708, 419.844
585.024, 431.630
586.341, 423.267
587.657, 428.449
588.972, 390.614
590.288, 338.760
591.603, 245.891
592.918, 189.003
594.233, 76.101
595.548, 48.177
596.863, 4.772
598.177, 25.768
599.491, 58.820
600.805, 62.958
602.119, 45.184
603.432, 53.264
604.746, 10.076
606.059, 27.948
607.372, 30.556
608.685, 5.022
609.997, 11.487
611.309, 25.577
612.621, 57.812
613.933, 107.532
615.245, 143.547
616.557, 214.753
617.868, 198.878
619.179, 298.078
620.490, 362.385
621.801, 335.488
623.111, 475.947
624.421, 456.508
625.731, 507.215
627.041, 521.836
628.351, 641.753
629.660, 639.551
630.970, 736.665
632.279, 741.422
633.588, 824.261
634.896, 850.679
636.205, 969.742
637.513, 1081.890
638.821, 1040.380
640.129, 1230.584
641.437, 1266.056
642.744, 1498.883
644.051, 1514.522
645.358, 1623.297
646.665, 1826.630
647.972, 1985.277
649.278, 2211.277
650.584, 2425.623
651.890, 2670.706
653.196, 2995.210
654.502, 3324.815
655.807, 3747.425
657.113, 4077.827
658.418, 4554.277
659.722, 5269.231
661.027, 5889.043
662.331, 6672.116
663.636, 7629.674
664.940, 8795.921
666.244, 10344.170
667.547, 12283.485
668.851, 14197.057
670.154, 17256.309
671.457, 20587.846
672.760, 24686.133
674.062, 30331.959
675.365, 35869.719
676.667, 42616.492
677.969, 47504.043
679.271, 52664.688
680.572, 55199.676
681.874, 54165.148
683.175, 51450.688
684.476, 46587.406
685.777, 39496.945
687.077, 33004.023
688.378, 26856.271
689.678, 22261.086
690.978, 18079.354
692.278, 14879.642
693.577, 11876.334
694.877, 10265.576
696.176, 8584.712
697.475, 7354.636
698.774, 6330.713
700.072, 5622.645
701.371, 4890.370
702.669, 4348.197
703.967, 3878.904
705.265, 3568.439
706.562, 3368.136
707.860, 3038.696
709.157, 2769.251
710.454, 2660.978
711.751, 2421.525
713.047, 2388.139
714.344, 2253.602
715.640, 2187.970
716.936, 2045.199
718.232, 1953.484
719.527, 1959.702
720.823, 1851.841
722.118, 1804.940
723.413, 1823.009
724.708, 1721.049
726.002, 1670.060
727.297, 1741.041
728.591, 1617.993
729.885, 1637.916
731.179, 1624.809
732.472, 1588.674
733.766, 1530.510
735.059, 1514.316
736.352, 1468.094
737.645, 1414.843
738.937, 1334.564
740.230, 1299.256
741.522, 1197.919
742.814, 1099.555
744.106, 1109.162
745.397, 1006.741
746.689, 923.292
747.980, 919.815
749.271, 852.310
750.562, 779.606
751.853, 762.952
753.143, 663.640
754.433, 660.960
755.723, 675.155
757.013, 571.042
758.303, 502.999
759.592, 528.410
760.881, 431.570
762.170, 425.737
763.459, 375.895
764.748, 358.538
766.036, 285.793
767.325, 271.798
768.613, 199.159
769.901, 219.453
771.188, 179.748
772.476, 138.047
773.763, 168.347
775.050, 120.634
776.337, 76.898
777.624, 75.139
778.910, 47.356
780.196, 29.389
781.482, 34.710
782.768, 12.847
784.054, 17.349
785.339, 4.033
786.625, 16.079
787.910, 10.096
789.195, 2.916
790.479, 2.037
791.764, 0.044
793.048, 22.158
794.332, 18.317
795.616, 21.481
796.900, 29.747
798.183, 5.976
799.467, 62.329
800.750, 24.301
802.033, 1.906
803.316, 20.520
804.598, 14.013
805.880, 23.480
807.163, 31.017
808.445, 1.599
809.726, 82.211
811.008, 47.897
812.289, 33.636
813.570, 74.421
814.851, 41.274
816.132, 94.177
817.413, 39.156
818.693, 35.182
819.973, 36.254
821.253, 22.371
822.533, 27.526
823.813, 6.720
825.092, 60.943
826.371, 26.221
827.650, 4.462
828.929, 51.879
830.208, 2.730
831.486, 43.316
832.764, 9.880
834.042, 9.578
835.320, 35.937
836.598, 12.431
837.875, 27.096
839.152, 2.342
840.429, 35.242
841.706, 53.137
842.983, 13.504
844.259, 31.829
845.536, 19.142
846.812, 34.565
848.088, 13.693
849.363, 31.931
850.639, 75.149
851.914, 30.349
853.189, 56.530
854.464, 98.693
855.739, 65.840
857.013, 86.969
858.288, 120.081
859.562, 73.178
860.836, 98.258
862.110, 91.323
863.383, 42.372
864.656, 77.404
865.930, 53.423
867.203, 81.427
868.475, 96.418
869.748, 121.398
871.020, 100.366
872.292, 108.323
873.564, 119.270
874.836, 168.208
876.108, 194.135
877.379, 176.055
878.650, 252.967
879.922, 271.870
881.192, 308.779
882.463, 290.679
883.733, 329.570
885.004, 383.472
886.274, 485.367
887.544, 524.280
888.813, 563.189
890.083, 589.091
891.352, 666.987
892.621, 724.885
893.890, 724.789
895.159, 698.701
896.427, 772.607
897.695, 753.506
898.964, 857.398
900.232, 909.300
901.499, 924.201
902.767, 1023.111
904.034, 1092.028
905.301, 1121.956
906.568, 1192.898
907.835, 1269.861
909.102, 1348.997
910.368, 1480.885
911.634, 1552.939
912.900, 1719.049
914.166, 1852.189
915.432, 2128.351
916.697, 2288.561
917.962, 2482.793
919.227, 2768.033
920.492, 3008.288
921.757, 3366.553
923.021, 3599.815
924.285, 3952.072
925.550, 4292.208
926.813, 4682.462
928.077, 4903.534
929.341, 5086.430
930.604, 5244.316
931.867, 5339.083
933.130, 5136.694
934.393, 5063.369
935.655, 4933.720
936.918, 4528.169
938.180, 4440.274
939.442, 4089.712
940.703, 3928.041
941.965, 3763.771
943.226, 3607.831
944.488, 3484.779
945.749, 3313.358
947.009, 3232.516
948.270, 3187.739
949.530, 3073.900
950.791, 2998.220
952.051, 2924.378
953.311, 2740.947
954.570, 2551.181
955.830, 2479.032
957.089, 2222.509
958.348, 2087.219
959.607, 1832.482
960.866, 1812.617
962.124, 1607.716
963.383, 1501.000
964.641, 1529.205
965.899, 1393.876
967.156, 1321.657
968.414, 1288.147
969.671, 1273.124
970.928, 1223.384
972.185, 1179.609
973.442, 1162.741
974.699, 1128.585
975.955, 1088.721
977.211, 1044.538
978.468, 988.571
979.723, 1039.033
980.979, 1024.529
982.234, 908.982
983.490, 993.637
984.745, 909.154
986.000, 904.303
987.254, 889.928
988.509, 854.453
989.763, 860.771
991.017, 856.392
992.271, 837.128
993.525, 889.822
994.779, 883.909
996.032, 938.510
997.285, 843.057
998.538, 916.166
999.791, 874.687
1001.044, 945.284
1002.296, 923.061
1003.548, 1006.649
1004.800, 1016.344
1006.052, 964.214
1007.304, 1036.944
1008.555, 1013.760
1009.807, 1092.712
1011.058, 1148.464
1012.309, 1159.319
1013.559, 1193.293
1014.810, 1228.187
1016.060, 1250.377
1017.310, 1296.017
1018.560, 1409.873
1019.810, 1393.690
1021.060, 1445.171
1022.309, 1520.899
1023.558, 1532.626
1024.807, 1615.444
1026.056, 1695.112
1027.305, 1781.462
1028.553, 1869.339
1029.801, 2037.423
1031.049, 2059.425
1032.297, 2149.095
1033.545, 2272.998
1034.793, 2567.061
1036.040, 2617.210
1037.287, 2860.169
1038.534, 3014.695
1039.781, 3100.741
1041.027, 3415.759
1042.274, 3420.910
1043.520, 3678.638
1044.766, 3983.007
1046.012, 4138.836
1047.257, 4389.937
1048.503, 4611.849
1049.748, 4943.024
1050.993, 5155.168
1052.238, 5645.683
1053.483, 6005.870
1054.727, 6377.490
1055.971, 6887.086
1057.216, 7574.726
1058.459, 8066.232
1059.703, 8980.937
1060.947, 9595.010
1062.190, 10464.663
1063.433, 11393.526
1064.676, 12356.369
1065.919, 13177.361
1067.162, 13860.282
1068.404, 14847.176
1069.646, 15061.517
1070.888, 15540.284
1072.130, 15870.685
1073.372, 15580.389
1074.613, 15058.254
1075.855, 14662.674
1077.096, 14035.043
1078.337, 13040.699
1079.578, 12322.729
1080.818, 11249.254
1082.059, 10347.866
1083.299, 9406.594
1084.539, 8526.835
1085.779, 7623.158
1087.018, 6897.458
1088.258, 6294.918
1089.497, 5489.426
1090.736, 4845.084
1091.975, 4257.599
1093.213, 3924.182
1094.452, 3459.243
1095.690, 3268.397
1096.928, 2937.581
1098.166, 2710.724
1099.404, 2507.794
1100.642, 2409.957
1101.879, 2101.741
1103.116, 2076.796
1104.353, 1961.571
1105.590, 1793.728
1106.827, 1735.481
1108.063, 1639.741
1109.299, 1538.870
1110.536, 1483.552
1111.771, 1436.690
1113.007, 1481.928
1114.243, 1357.330
1115.478, 1381.903
1116.713, 1288.558
1117.948, 1255.376
1119.183, 1257.223
1120.418, 1123.881
1121.652, 1216.538
1122.886, 1305.289
1124.120, 1423.753
1125.354, 1643.300
1126.588, 1731.499
1127.821, 1434.713
1129.055, 1051.350
1130.288, 1042.478
1131.521, 955.512
1132.753, 975.381
1133.986, 946.322
1135.218, 951.564
1136.450, 911.542
1137.682, 820.286
1138.914, 857.112
1140.146, 732.729
1141.377, 755.600
1142.609, 701.224
1143.840, 654.704
1145.071, 715.427
1146.301, 691.991
1147.532, 572.626
1148.762, 588.412
1149.992, 528.872
1151.222, 577.407
1152.452, 499.241
1153.682, 498.026
1154.911, 474.550
1156.140, 450.427
1157.369, 395.542
1158.598, 345.627
1159.827, 264.558
1161.055, 227.931
1162.284, 198.875
1163.512, 163.701
1164.740, 128.642
1165.967, 153.268
1167.195, 34.933
1168.422, 140.610
1169.650, 61.577
1170.877, 70.587
1172.103, 60.673
1173.330, 98.647
1174.557, 5.948
1175.783, 47.364
1177.009, 9.395
1178.235, 50.589
1179.461, 95.420
1180.686, 40.334
1181.912, 65.886
1183.137, 4.098
1184.362, 95.154
1185.587, 7.597
1186.811, 16.240
1188.036, 19.302
1189.260, 32.739
1190.484, 41.556
1191.708, 51.388
1192.932, 42.649
1194.155, 7.634
1195.378, 29.435
1196.602, 46.932
1197.825, 14.278
1199.047, 51.793
1200.270, 14.389
1201.492, 21.075
1202.715, 76.121
1203.937, 62.505
1205.159, 2.627
1206.380, 45.500
1207.602, 5.156
1208.823, 84.060
1210.044, 39.408
1211.265, 22.914
1212.486, 89.019
1213.707, 24.011
1214.927, 13.580
1216.147, 30.569
1217.367, 21.455
1218.587, 0.413
1219.807, 25.585
1221.027, 6.945
1222.246, 0.119
1223.465, 46.443
1224.684, 35.064
1225.903, 7.361
1227.121, 17.172
1228.340, 50.396
1229.558, 15.873
1230.776, 63.843
1231.994, 3.264
1233.212, 55.101
1234.429, 33.873
1235.646, 27.894
1236.864, 1.616
1238.081, 26.554
1239.297, 21.731
1240.514, 72.109
1241.730, 59.294
1242.947, 53.398
1244.163, 55.371
1245.378, 62.460
1246.594, 48.420
1247.810, 103.330
1249.025, 8.916
1250.240, 95.762
1251.455, 42.249
1252.670, 87.663
1253.885, 31.380
1255.099, 40.085
1256.313, 88.312
1257.527, 12.823
1258.741, 113.989
1259.955, 144.140
1261.168, 100.250
1262.382, 83.324
1263.595, 63.142
1264.808, 57.316
1266.021, 79.174
1267.233, 76.680
1268.446, 62.163
1269.658, 93.215
1270.870, 79.526
1272.082, 141.983
1273.294, 130.817
1274.505, 58.951
1275.716, 136.961
1276.928, 149.719
1278.139, 35.409
1279.349, 153.024
1280.560, 85.512
1281.770, 124.938
1282.981, 35.256
1284.191, 142.517
1285.401, 182.635
1286.610, 113.657
1287.820, 161.568
1289.029, 186.521
1290.239, 117.185
1291.448, 144.860
1292.656, 118.404
1293.865, 87.456
1295.073, 137.766
1296.282, 107.856
1297.490, 135.817
1298.698, 139.963
1299.906, 160.064
1301.113, 148.082
1302.320, 149.661
1303.528, 144.236
1304.735, 168.646
1305.942, 82.026
1307.148, 133.096
1308.355, 155.011
1309.561, 113.502
1310.767, 174.707
1311.973, 150.890
1313.179, 132.483
1314.384, 78.423
1315.590, 81.934
1316.795, 79.116
1318.000, 145.657
1319.205, 120.012
1320.410, 124.573
1321.614, 175.603
1322.819, 41.232
1324.023, 137.979
1325.227, 36.850
1326.431, 159.429
1327.634, 92.625
1328.838, 119.629
1330.041, 129.713
1331.244, 71.322
1332.447, 211.102
1333.650, 45.873
1334.852, 139.327
1336.055, 116.092
1337.257, 119.106
1338.459, 113.553
1339.661, 138.618
1340.862, 159.758
1342.064, 126.520
1343.265, 144.200
1344.466, 133.400
1345.667, 131.938
1346.868, 135.695
1348.068, 126.484
1349.269, 122.122
1350.469, 92.831
1351.669, 186.188
1352.869, 135.068
1354.069, 129.250
1355.268, 179.112
1356.468, 31.886
1357.667, 195.414
1358.866, 48.914
1360.065, 185.488
1361.263, 94.467
1362.462, 126.887
1363.660, 47.439
1364.858, 50.657
1366.056, 80.728
1367.254, 5.069
1368.451, 120.450
1369.649, 79.203
1370.846, 51.474
1372.043, 9.121
1373.240, 5.469
1374.436, 82.805
1375.633, 26.652
1376.829, 69.891
1378.025, 64.126
1379.221, 17.075
1380.417, 17.893
1381.613, 77.143
1382.808, 4.931
1384.003, 51.353
1385.199, 79.409
1386.393, 80.306
1387.588, 91.931
1388.783, 46.999
1389.977, 57.310
1391.171, 50.566
1392.365, 17.031
1393.559, 36.634
1394.753, 92.521
1395.946, 90.114
1397.140, 22.524
1398.333, 15.071
1399.526, 76.006
1400.719, 17.224
1401.911, 48.938
1403.104, 39.133
1404.296, 33.326
1405.488, 27.681
1406.680, 51.624
1407.872, 37.547
1409.063, 14.900
1410.255, 64.205
1411.446, 48.324
1412.637, 130.572
1413.828, 47.644
1415.018, 16.636
1416.209, 118.791
1417.399, 33.214
1418.589, 36.809
1419.779, 71.439
1420.969, 64.473
1422.159, 59.285
1423.348, 68.168
1424.537, 58.087
1425.726, 59.622
1426.915, 49.787
1428.104, 60.647
1429.293, 60.481
1430.481, 64.691
1431.669, 32.756
1432.857, 79.134
1434.045, 54.324
1435.233, 63.505
1436.420, 168.625
1437.608, 74.325
1438.795, 104.675
1439.982, 114.062
1441.169, 46.556
1442.355, 35.388
1443.542, 33.293
1444.728, 115.027
1445.914, 88.755
1447.100, 106.486
1448.286, 89.616
1449.472, 101.877
1450.657, 77.329
1451.842, 118.708
1453.027, 121.005
1454.212, 174.651
1455.397, 151.535
1456.581, 156.071
1457.766, 127.160
1458.950, 136.932
1460.134, 121.911
1461.318, 110.538
1462.501, 113.370
1463.685, 85.182
1464.868, 104.307
1466.051, 68.712
1467.234, 84.273
1468.417, 72.274
1469.600, 102.523
1470.782, 150.742
1471.965, 138.337
1473.147, 44.010
1474.329, 220.564
1475.510, 70.827
1476.692, 89.093
1477.873, 106.881
1479.055, 164.944
1480.236, 141.243
1481.416, 190.363
1482.597, 112.240
1483.778, 109.540
1484.958, 99.715
1486.138, 70.670
1487.318, 79.476
1488.498, 65.983
1489.678, 76.424
