##NAMES=Fluorapatite
##RRUFFID=R060070
##IDEAL CHEMISTRY=Ca_5_(PO_4_)_3_F
##LOCALITY=Panasqueira, Portugal
##OWNER=RRUFF
##SOURCE=Dave Bunk
##DESCRIPTION=Green hexagonal tablet
##STATUS=The identification of this mineral has been confirmed by X-ray diffraction and chemical analysis
##URL=rruff.info/R060070
##MEASURED CHEMISTRY=(Ca_0.99_Mn_0.01_)_5_(P_1.00_O_4_)_3_F_1.00_
##PIN_ID=L01870
##ORIENTATION=Laser parallel to -c* (0 0 -1). Fiducial mark perpendicular to laser is parallel to -a [-1 0 0]
202.7270, 0.0000000E+00
203.9480, 80.59424
205.1690, 108.0952
206.3890, 79.34277
207.6090, 89.02930
208.8290, 46.95996
210.0490, 45.06592
211.2690, 3.596680
212.4890, 21.40137
213.7080, 100.0410
214.9280, 74.99268
216.1470, 75.93604
217.3660, 120.7285
218.5850, 112.8384
219.8030, 86.35303
221.0220, 33.98193
222.2400, 114.6235
223.4590, 69.54736
224.6770, 84.04053
225.8950, 189.1030
227.1120, 67.80566
228.3300, 25.90576
229.5480, 24.96143
230.7650, 11.59863
231.9820, 11.79248
233.1990, 110.7383
234.4160, 64.45801
235.6330, 37.07178
236.8490, 66.93799
238.0660, 8.085938
239.2820, 87.22949
240.4980, 34.71582
241.7140, 101.8022
242.9300, 142.6177
244.1460, 117.6582
245.3610, 18.15967
246.5770, 47.79639
247.7920, 9.559570
249.0070, 47.58545
250.2220, 124.4116
251.4370, 109.4702
252.6510, 61.03662
253.8660, 110.8662
255.0800, 64.75195
256.2940, 118.8765
257.5080, 110.4858
258.7220, 135.2988
259.9360, 143.6553
261.1490, 89.35840
262.3630, 126.0225
263.5760, 135.0747
264.7890, 85.54346
266.0020, 109.8354
267.2150, 57.46436
268.4270, 137.9307
269.6400, 171.3198
270.8520, 96.72803
272.0640, 23.33350
273.2760, 148.6187
274.4880, 69.52295
275.7000, 51.03613
276.9120, 98.41162
278.1230, 126.8916
279.3340, 117.6616
280.5450, 135.2710
281.7560, 107.0957
282.9670, 76.57178
284.1780, 52.69336
285.3880, 114.4678
286.5980, 99.28174
287.8090, 109.5845
289.0190, 185.9399
290.2290, 93.44727
291.4380, 90.59668
292.6480, 22.77930
293.8570, 49.84082
295.0670, 31.84375
296.2760, 98.47363
297.4850, 147.3232
298.6930, 124.2246
299.9020, 34.57666
301.1110, 84.28955
302.3190, 77.91309
303.5270, 50.18896
304.7350, 74.60889
305.9430, 65.27393
307.1510, 121.1562
308.3580, 217.5020
309.5660, 162.1392
310.7730, 139.2393
311.9800, 138.9712
313.1870, 75.17773
314.3940, 262.7935
315.6010, 117.3672
316.8070, 48.87695
318.0130, 161.3813
319.2200, 30.46973
320.4260, 51.77002
321.6310, 193.1680
322.8370, 147.3066
324.0430, 129.7505
325.2480, 66.91943
326.4540, 50.23047
327.6590, 71.15088
328.8640, 29.31982
330.0680, 6.748047
331.2730, 16.48779
332.4780, 56.35352
333.6820, 90.24365
334.8860, 99.15234
336.0900, 45.20850
337.2940, 4.146973
338.4980, 90.14111
339.7010, 39.62793
340.9050, 53.33398
342.1080, 17.69824
343.3110, 27.55713
344.5140, 111.4370
345.7170, 132.1484
346.9200, 25.24219
348.1220, 159.4849
349.3240, 69.00879
350.5270, 101.5024
351.7290, 197.8198
352.9310, 91.93018
354.1320, 139.5884
355.3340, 63.47510
356.5350, 63.56152
357.7370, 145.1929
358.9380, 111.0127
360.1390, 134.8477
361.3400, 29.40039
362.5400, 45.61084
363.7410, 26.10791
364.9410, 74.53320
366.1410, 113.8574
367.3410, 25.11035
368.5410, 79.35156
369.7410, 146.4463
370.9400, 37.27930
372.1400, 151.9155
373.3390, 159.8037
374.5380, 116.1060
375.7370, 17.01758
376.9360, 72.50000
378.1350, 34.11523
379.3330, 103.7988
380.5310, 84.39551
381.7300, 158.9844
382.9280, 35.72461
384.1260, 8.372070
385.3230, 20.62891
386.5210, 111.8936
387.7180, 22.87402
388.9160, 153.9121
390.1130, 13.02441
391.3100, 104.0977
392.5060, 66.53223
393.7030, 25.41699
394.9000, 148.3711
396.0960, 141.8867
397.2920, 104.4424
398.4880, 118.7744
399.6840, 116.3340
400.8800, 111.9912
402.0750, 116.6602
403.2710, 151.8164
404.4660, 129.7900
405.6610, 123.1729
406.8560, 116.1084
408.0510, 75.36621
409.2450, 86.22949
410.4400, 60.81934
411.6340, 41.24414
412.8280, 48.43848
414.0220, 120.1846
415.2160, 54.74219
416.4100, 77.55762
417.6030, 169.1875
418.7970, 111.5439
419.9900, 189.3105
421.1830, 134.6660
422.3760, 68.02930
423.5690, 70.73633
424.7610, 62.47852
425.9540, 37.97168
427.1460, 12.58984
428.3380, 69.53125
429.5300, 247.2471
430.7220, 2.770508
431.9140, 217.7139
433.1050, 85.90625
434.2970, 87.36523
435.4880, 29.48535
436.6790, 126.3350
437.8700, 104.5508
439.0610, 168.0654
440.2510, 136.8281
441.4420, 170.2891
442.6320, 155.3467
443.8220, 273.4268
445.0120, 229.0176
446.2020, 240.6865
447.3910, 145.0059
448.5810, 281.2676
449.7700, 191.9844
450.9600, 95.95508
452.1490, 186.6924
453.3370, 168.0469
454.5260, 8.896484
455.7150, 193.0986
456.9030, 186.7783
458.0910, 214.5342
459.2800, 123.1562
460.4670, 138.8975
461.6550, 171.0693
462.8430, 282.5811
464.0300, 255.1582
465.2180, 178.1611
466.4050, 113.3721
467.5920, 63.79297
468.7790, 56.42383
469.9650, 131.5391
471.1520, 38.34766
472.3380, 126.9658
473.5250, 114.0537
474.7110, 95.86719
475.8970, 161.4912
477.0820, 24.09863
478.2680, 178.9004
479.4540, 245.5635
480.6390, 2.411133
481.8240, 147.7939
483.0090, 31.96387
484.1940, 270.2139
485.3780, 97.87598
486.5630, 180.5410
487.7470, 202.4131
488.9320, 201.0684
490.1160, 175.4482
491.3000, 97.91699
492.4830, 90.32129
493.6670, 117.2578
494.8500, 79.93457
496.0340, 238.4316
497.2170, 169.4209
498.4000, 57.42676
499.5820, 199.5000
500.7650, 139.8398
501.9480, 120.8633
503.1300, 15.04199
504.3120, 30.28516
505.4940, 144.6807
506.6760, 146.6172
507.8580, 154.9150
509.0390, 157.1143
510.2210, 144.8877
511.4020, 164.2080
512.5830, 100.9404
513.7640, 100.2070
514.9450, 145.0039
516.1250, 49.50781
517.3060, 102.8486
518.4860, 17.69727
519.6660, 154.2939
520.8460, 122.6211
522.0260, 116.6436
523.2060, 114.9014
524.3850, 125.1016
525.5650, 133.6797
526.7440, 179.6836
527.9230, 122.1602
529.1020, 114.7021
530.2810, 201.7520
531.4590, 76.85449
532.6380, 71.76172
533.8160, 36.43359
534.9940, 87.78516
536.1720, 74.80176
537.3500, 162.5352
538.5270, 123.1367
539.7050, 172.6357
540.8820, 89.05078
542.0590, 64.43750
543.2360, 51.84082
544.4130, 154.1621
545.5900, 52.75977
546.7660, 172.2979
547.9430, 189.8311
549.1190, 79.62891
550.2950, 151.0391
551.4710, 10.88086
552.6470, 174.6045
553.8220, 40.59570
554.9980, 7.831055
556.1730, 5.584961
557.3480, 211.8838
558.5230, 89.66992
559.6980, 99.72461
560.8730, 206.3389
562.0470, 97.29199
563.2220, 97.52930
564.3960, 30.22266
565.5700, 84.56250
566.7440, 18.08398
567.9170, 168.6338
569.0910, 54.71680
570.2640, 148.0430
571.4380, 162.8506
572.6110, 283.6191
573.7840, 230.8877
574.9570, 87.58496
576.1290, 148.8418
577.3020, 107.5996
578.4740, 50.03027
579.6460, 154.0566
580.8180, 157.4258
581.9900, 257.7471
583.1620, 324.6602
584.3330, 185.5957
585.5040, 116.1689
586.6760, 315.2510
587.8470, 114.8408
589.0180, 139.6875
590.1880, 33.52930
591.3590, 23.11523
592.5290, 71.99512
593.7000, 140.1562
594.8700, 21.33105
596.0400, 121.6074
597.2090, 166.9912
598.3790, 101.1514
599.5490, 188.3779
600.7180, 71.60156
601.8870, 306.1445
603.0560, 58.25586
604.2250, 66.22656
605.3940, 359.2158
606.5620, 20.70410
607.7300, 137.0957
608.8990, 247.8291
610.0670, 97.26172
611.2350, 178.4365
612.4020, 265.4453
613.5700, 29.51465
614.7370, 269.8750
615.9050, 142.1426
617.0720, 165.2549
618.2390, 112.7168
619.4060, 79.06543
620.5720, 138.8721
621.7390, 166.1797
622.9050, 137.9658
624.0710, 127.9678
625.2370, 180.2432
626.4030, 185.2734
627.5690, 229.4873
628.7340, 286.9150
629.9000, 203.3818
631.0650, 85.83887
632.2300, 28.87500
633.3950, 115.4385
634.5600, 223.8721
635.7240, 182.2529
636.8890, 63.20215
638.0530, 203.2705
639.2170, 167.9141
640.3810, 167.1895
641.5450, 190.6650
642.7080, 178.1914
643.8720, 199.6377
645.0350, 194.5273
646.1980, 245.9199
647.3610, 223.3740
648.5240, 267.6582
649.6870, 225.3809
650.8490, 166.8057
652.0120, 115.6572
653.1740, 63.67480
654.3360, 67.71875
655.4980, 129.3018
656.6600, 104.9297
657.8210, 156.0303
658.9830, 87.15137
660.1440, 181.9648
661.3050, 94.07422
662.4660, 237.9961
663.6270, 68.43555
664.7870, 73.74414
665.9480, 125.1914
667.1080, 239.9258
668.2680, 104.3184
669.4280, 83.41797
670.5880, 215.9883
671.7480, 229.2090
672.9070, 229.9902
674.0670, 250.9941
675.2260, 232.3750
676.3850, 204.0898
677.5440, 210.8145
678.7030, 184.9141
679.8610, 201.5605
681.0200, 186.6699
682.1780, 159.1797
683.3360, 163.9121
684.4940, 113.9727
685.6520, 86.64258
686.8090, 67.51367
687.9670, 85.49805
689.1240, 244.8418
690.2810, 133.6953
691.4380, 111.8613
692.5950, 32.32422
693.7520, 348.0605
694.9080, 33.46094
696.0650, 80.82422
697.2210, 259.3633
698.3770, 51.66211
699.5330, 80.23828
700.6880, 69.46680
701.8440, 153.4395
702.9990, 197.4707
704.1550, 69.16797
705.3100, 155.3984
706.4650, 303.6152
707.6190, 114.2539
708.7740, 10.42188
709.9290, 208.4453
711.0830, 85.10742
712.2370, 285.2324
713.3910, 272.8672
714.5450, 122.6406
715.6980, 123.6660
716.8520, 85.11914
718.0050, 137.4688
719.1580, 102.0566
720.3110, 76.24414
721.4640, 177.6875
722.6170, 140.2988
723.7700, 327.1465
724.9220, 143.0508
726.0740, 52.70312
727.2260, 317.4297
728.3780, 197.1914
729.5300, 148.6816
730.6810, 200.8906
731.8330, 204.1445
732.9840, 86.62500
734.1350, 197.4707
735.2860, 94.15820
736.4370, 195.4844
737.5880, 258.5527
738.7380, 220.8887
739.8880, 141.1758
741.0390, 259.4883
742.1890, 146.0566
743.3380, 94.76758
744.4880, 119.4824
745.6380, 72.73438
746.7870, 133.8789
747.9360, 173.7031
749.0850, 81.42188
750.2340, 206.2246
751.3830, 312.5156
752.5310, 220.4629
753.6800, 211.7871
754.8280, 78.04492
755.9760, 53.83008
757.1240, 75.10938
758.2720, 22.08398
759.4190, 160.9980
760.5670, 63.82422
761.7140, 278.5371
762.8610, 107.0703
764.0080, 230.1328
765.1550, 123.7656
766.3020, 88.50781
767.4480, 286.0820
768.5950, 245.0371
769.7410, 247.9629
770.8870, 372.6699
772.0330, 132.0566
773.1780, 152.3574
774.3240, 97.60352
775.4690, 221.6348
776.6140, 177.6797
777.7590, 164.5293
778.9040, 73.22266
780.0490, 228.5059
781.1940, 162.5293
782.3380, 380.2402
783.4820, 233.8477
784.6260, 205.0938
785.7700, 213.5801
786.9140, 140.5410
788.0580, 158.2109
789.2010, 295.3887
790.3450, 173.3652
791.4880, 155.9805
792.6310, 8.242188
793.7730, 108.0469
794.9160, 154.5840
796.0590, 183.7461
797.2010, 47.42773
798.3430, 315.3574
799.4850, 345.2090
800.6270, 192.9902
801.7690, 215.3945
802.9100, 182.4570
804.0520, 143.8750
805.1930, 153.3477
806.3340, 51.37695
807.4750, 156.0938
808.6160, 335.2910
809.7560, 181.4824
810.8970, 220.6074
812.0370, 194.7578
813.1770, 81.76172
814.3170, 212.8438
815.4570, 25.38281
816.5960, 147.1738
817.7360, 178.0859
818.8750, 201.5137
820.0140, 240.7598
821.1530, 250.7656
822.2920, 218.9004
823.4310, 274.6582
824.5690, 244.0703
825.7070, 248.4023
826.8460, 179.6328
827.9840, 134.3281
829.1220, 71.87305
830.2590, 71.83984
831.3970, 45.13477
832.5340, 178.9727
833.6710, 199.1191
834.8080, 117.9609
835.9450, 137.2188
837.0820, 209.6113
838.2190, 141.2871
839.3550, 113.3105
840.4910, 343.4531
841.6270, 149.7871
842.7630, 47.67773
843.8990, 208.1270
845.0350, 181.7227
846.1700, 294.4629
847.3060, 137.3438
848.4410, 80.35547
849.5760, 50.63477
850.7100, 62.49414
851.8450, 201.6602
852.9800, 244.7773
854.1140, 248.6953
855.2480, 73.78516
856.3820, 116.4434
857.5160, 130.5664
858.6500, 128.6289
859.7830, 162.4707
860.9170, 94.03320
862.0500, 300.7637
863.1830, 366.8965
864.3160, 332.2402
865.4480, 213.0312
866.5810, 239.5625
867.7130, 307.2578
868.8460, 291.9141
869.9780, 267.0078
871.1100, 186.5410
872.2410, 93.58594
873.3730, 181.3438
874.5050, 370.0059
875.6360, 173.4590
876.7670, 143.5215
877.8980, 364.5977
879.0290, 250.5723
880.1590, 245.5938
881.2900, 240.3477
882.4200, 163.8867
883.5500, 112.4941
884.6800, 67.30664
885.8100, 29.02539
886.9400, 17.69922
888.0690, 25.40820
889.1990, 7.250000
890.3280, 82.78711
891.4570, 129.6191
892.5860, 231.6836
893.7140, 125.0879
894.8430, 230.1875
895.9710, 352.9922
897.1000, 252.6641
898.2280, 362.7305
899.3560, 67.35938
900.4830, 348.5352
901.6110, 295.2148
902.7380, 116.6484
903.8660, 152.9023
904.9930, 301.9375
906.1200, 202.9355
907.2460, 147.2441
908.3730, 268.7012
909.5000, 221.1582
910.6260, 17.68359
911.7520, 426.9199
912.8780, 293.7812
914.0040, 91.05273
915.1290, 137.8574
916.2550, 68.29102
917.3800, 86.39258
918.5050, 86.76562
919.6300, 60.44531
920.7550, 91.55273
921.8800, 186.6445
923.0040, 194.3828
924.1290, 256.2051
925.2530, 216.5020
926.3770, 37.24414
927.5010, 49.52734
928.6250, 8.345703
929.7480, 38.29492
930.8720, 117.2812
931.9950, 144.7520
933.1180, 159.2344
934.2410, 49.16992
935.3640, 216.1367
936.4860, 117.4629
937.6090, 5.843750
938.7310, 134.4102
939.8530, 34.37500
940.9750, 168.3184
942.0970, 200.4062
943.2180, 415.9766
944.3400, 421.9492
945.4610, 198.4766
946.5820, 408.5117
947.7030, 322.3965
948.8240, 123.6035
949.9450, 282.4883
951.0650, 347.7207
952.1860, 97.25977
953.3060, 392.8887
954.4260, 300.5840
955.5460, 354.4082
956.6650, 249.3262
957.7850, 317.9902
958.9040, 545.8594
960.0230, 691.5664
961.1420, 673.3047
962.2610, 858.7227
963.3800, 1148.918
964.4990, 971.5996
965.6170, 973.2520
966.7350, 929.5156
967.8530, 605.7793
968.9710, 645.4180
970.0890, 468.3730
971.2070, 250.9727
972.3240, 402.2520
973.4410, 194.2188
974.5580, 459.0195
975.6750, 33.35938
976.7920, 147.5039
977.9090, 270.4062
979.0250, 194.4570
980.1410, 184.3730
981.2580, 163.9434
982.3740, 225.6250
983.4890, 100.2539
984.6050, 179.0449
985.7200, 174.9961
986.8360, 109.7188
987.9510, 275.7949
989.0660, 190.7988
990.1810, 66.19922
991.2950, 2.085938
992.4100, 209.4180
993.5240, 137.7207
994.6390, 256.1426
995.7530, 148.1133
996.8660, 31.06836
997.9800, 165.0020
999.0940, 212.9043
1000.207, 361.4238
1001.320, 130.0332
1002.433, 94.86719
1003.546, 329.6562
1004.659, 180.3262
1005.772, 206.6406
1006.884, 98.59375
1007.996, 95.55859
1009.108, 357.1797
1010.220, 243.2617
1011.332, 36.20703
1012.444, 149.7500
1013.555, 5.898438
1014.666, 156.3828
1015.777, 284.6289
1016.888, 210.5430
1017.999, 177.1523
1019.110, 150.1445
1020.220, 328.3008
1021.331, 211.2422
1022.441, 341.6836
1023.551, 177.0742
1024.661, 321.2695
1025.770, 28.94141
1026.880, 229.0234
1027.989, 137.3320
1029.098, 87.56250
1030.207, 40.93750
1031.316, 2.039063
1032.425, 12.08984
1033.533, 99.36328
1034.642, 113.4688
1035.750, 352.5664
1036.858, 422.9844
1037.966, 285.5820
1039.073, 299.6328
1040.181, 176.4297
1041.288, 53.99219
1042.396, 323.0312
1043.503, 112.9180
1044.610, 548.4414
1045.716, 54.55859
1046.823, 211.3984
1047.929, 11.55859
1049.036, 357.8945
1050.142, 340.4844
1051.248, 101.4141
1052.353, 64.35156
1053.459, 94.79297
1054.564, 267.8281
1055.670, 490.4922
1056.775, 6.195313
1057.880, 306.0586
1058.985, 259.8320
1060.089, 7.324219
1061.194, 72.96484
1062.298, 66.72266
1063.402, 49.74219
1064.506, 125.1055
1065.610, 161.5820
1066.713, 310.1367
1067.817, 170.3281
1068.920, 192.1211
1070.023, 106.5078
1071.126, 18.18750
1072.229, 275.6523
1073.332, 98.46484
1074.435, 325.0859
1075.537, 7.859375
1076.639, 36.62109
1077.741, 108.3828
1078.843, 281.1445
1079.945, 207.8984
1081.046, 209.6602
1082.148, 137.1484
1083.249, 380.9102
1084.350, 227.6836
1085.451, 156.0977
1086.551, 200.8789
1087.652, 33.65234
1088.752, 4.570313
1089.853, 90.19531
1090.953, 49.96094
1092.053, 41.32031
1093.152, 100.5000
1094.252, 42.27344
1095.351, 76.04297
1096.451, 200.8242
1097.550, 141.2148
1098.649, 273.3984
1099.748, 137.1992
1100.846, 34.00000
1101.945, 28.21484
1103.043, 25.55859
1104.141, 252.3828
1105.239, 109.2148
1106.337, 196.0508
1107.434, 143.8945
1108.532, 79.89844
1109.629, 94.75000
1110.726, 162.6172
1111.823, 245.4883
1112.920, 36.62891
1114.017, 234.2344
1115.113, 83.10938
1116.210, 340.0195
1117.306, 61.94531
1118.402, 31.11719
1119.498, 117.1875
1120.593, 228.6992
1121.689, 171.5977
1122.784, 178.7188
1123.879, 272.1680
1124.974, 272.1055
1126.069, 239.0469
1127.164, 275.0039
1128.259, 244.1367
1129.353, 257.8906
1130.447, 229.9531
1131.541, 253.4844
1132.635, 290.6211
1133.729, 235.5273
1134.822, 265.5703
1135.916, 262.4375
1137.009, 310.6836
1138.102, 248.7617
1139.195, 319.5039
1140.288, 271.6133
1141.380, 196.7383
1142.473, 157.8750
1143.565, 117.4531
1144.657, 80.62500
1145.749, 119.9648
1146.841, 181.7031
1147.932, 207.9258
1149.024, 189.1641
1150.115, 189.4258
1151.206, 192.7031
1152.297, 89.01172
1153.388, 152.3516
1154.479, 89.73438
1155.569, 328.1445
1156.659, 207.5781
1157.750, 270.5391
1158.839, 15.99219
1159.929, 199.5000
1161.019, 7.738281
1162.108, 72.56641
1163.198, 75.35547
1164.287, 113.8945
1165.376, 248.6328
1166.465, 73.17969
1167.553, 211.7461
1168.642, 170.3359
1169.730, 66.94531
1170.818, 532.7305
1171.906, 393.4727
1172.994, 354.8516
1174.082, 167.6055
1175.170, 605.3359
1176.257, 448.1055
1177.344, 247.4102
1178.431, 236.3008
1179.518, 49.03906
1180.605, 234.0430
1181.691, 106.9414
1182.778, 279.8711
1183.864, 13.70703
1184.950, 157.6992
1186.036, 365.7148
1187.122, 255.7578
1188.207, 270.7695
1189.292, 328.8711
1190.378, 399.9922
1191.463, 1.527344
1192.548, 336.6641
1193.632, 2.105469
1194.717, 159.1641
1195.801, 177.4570
1196.886, 213.7812
1197.970, 565.1328
1199.054, 78.52344
1200.137, 241.9414
1201.221, 81.38281
1202.305, 307.4688
1203.388, 405.9883
1204.471, 156.5469
1205.554, 482.1367
1206.637, 348.0586
1207.719, 406.6992
1208.802, 504.3750
1209.884, 335.0742
1210.966, 418.8086
1212.048, 266.5703
1213.130, 433.3633
1214.212, 251.1875
1215.293, 74.04297
1216.374, 295.9336
1217.456, 244.8555
1218.536, 450.8086
1219.617, 283.7070
1220.698, 392.4219
1221.778, 395.7734
1222.859, 449.8516
1223.939, 290.9648
1225.019, 235.1094
1226.099, 152.2852
1227.178, 194.3555
1228.258, 382.7383
1229.337, 328.0156
1230.417, 347.3203
1231.496, 355.3438
1232.574, 315.7109
1233.653, 390.1172
1234.732, 311.5586
1235.810, 464.0352
1236.888, 27.54688
1237.966, 398.0938
1239.044, 166.6953
1240.122, 339.3320
1241.199, 384.0000
1242.277, 325.7070
1243.354, 643.2500
1244.431, 186.0352
1245.508, 357.8477
1246.585, 463.6992
1247.661, 560.5859
1248.738, 585.0312
1249.814, 247.5352
1250.890, 541.5312
1251.966, 405.5664
1253.042, 334.6680
1254.117, 511.8125
1255.193, 212.0039
1256.268, 229.2266
1257.343, 131.4883
1258.418, 55.83984
1259.493, 263.1367
1260.567, 28.47656
1261.642, 200.9336
1262.716, 103.3867
1263.790, 324.8828
1264.864, 348.4180
1265.938, 523.9922
1267.011, 293.6016
1268.085, 220.2500
1269.158, 308.9805
1270.231, 278.7422
1271.304, 344.5508
1272.377, 5.398438
1273.450, 205.2891
1274.522, 39.22266
1275.594, 3.203125
1276.666, 109.2266
1277.738, 220.2930
1278.810, 165.3945
1279.882, 36.53906
1280.953, 234.7266
1282.025, 54.95703
1283.096, 72.23047
1284.167, 150.5391
1285.238, 53.38281
1286.308, 207.2891
1287.379, 38.73047
1288.449, 195.5820
1289.519, 272.1133
1290.589, 515.4219
1291.659, 184.0820
1292.729, 98.92969
1293.798, 325.1250
1294.868, 15.92578
1295.937, 204.7734
1297.006, 322.6758
1298.075, 126.6250
1299.143, 13.38281
1300.212, 57.34375
1301.280, 215.2773
1302.348, 4.218750
1303.416, 170.8828
1304.484, 248.0352
1305.552, 185.2305
1306.620, 122.5039
1307.687, 34.77344
1308.754, 94.89453
1309.821, 265.4688
1310.888, 282.8789
1311.955, 117.6602
1313.021, 133.8164
1314.088, 135.3438
1315.154, 125.9180
1316.220, 350.5469
1317.286, 458.2305
1318.352, 386.9648
1319.417, 320.7422
1320.483, 350.4141
1321.548, 490.2930
1322.613, 242.0391
1323.678, 627.9844
1324.743, 172.9727
1325.807, 553.0000
1326.872, 233.0664
1327.936, 742.1719
1329.000, 750.3125
1330.064, 753.4922
1331.128, 583.7188
1332.191, 319.9844
1333.255, 215.2852
1334.318, 415.6289
1335.381, 494.0156
1336.444, 553.4414
1337.507, 517.9023
1338.569, 310.4062
1339.632, 789.9531
1340.694, 914.5352
1341.756, 486.1602
1342.818, 390.8281
1343.880, 257.5352
1344.941, 635.2812
1346.003, 523.0742
1347.064, 555.9062
1348.125, 704.7812
1349.186, 604.7070
1350.247, 423.6680
1351.308, 420.6719
1352.368, 414.7188
1353.428, 332.8086
1354.489, 254.9414
1355.549, 531.1172
1356.608, 353.3359
1357.668, 794.5938
1358.727, 396.8984
1359.787, 245.2578
1360.846, 549.6680
1361.905, 401.1211
1362.964, 773.6172
1364.022, 382.1562
1365.081, 373.7422
1366.139, 321.3711
1367.197, 383.0430
1368.255, 278.7617
1369.313, 621.5195
1370.371, 599.3242
1371.428, 340.1875
