##NAMES=Fluorapophyllite-(K)
##RRUFFID=R060554
##IDEAL CHEMISTRY=KCa_4_Si_8_O_20_F&#183;8H_2_O
##LOCALITY=unknown
##OWNER=RRUFF
##SOURCE=Gemological Institute of America
##DESCRIPTION=Colorless polished fragment
##STATUS=The identification of this mineral has been confirmed by X-ray diffraction and chemical analysis
##URL=rruff.info/R060554
##MEASURED CHEMISTRY=(K_0.88_Na_0.12_)Ca_4.00_Si_8.00_O_20_F_1.00_Â·8H2O
##PIN_ID=L00812
##ORIENTATION=Laser parallel to -a* (-1 0 0). Fiducial mark perpendicular to laser is parallel to -c [0 0 -1]
53.91000, 0.0000000E+00
55.14900, 16.69904
56.38700, 25.87653
57.62600, 30.47650
58.86400, 57.98401
60.10300, 73.15860
61.34100, 54.86310
62.57900, 36.98846
63.81700, 1.888916
65.05400, 9.919830
66.29200, 13.26907
67.52900, 27.09924
68.76700, 34.44678
70.00400, 55.27832
71.24100, 74.30481
72.47700, 63.42310
73.71400, 115.5336
74.95100, 172.5510
76.18700, 269.4005
77.42300, 331.0111
78.65900, 423.3164
79.89500, 498.2553
81.13100, 676.7736
82.36700, 752.8452
83.60200, 991.5374
84.83700, 1136.879
86.07200, 1315.798
87.30800, 1569.223
88.54200, 1818.092
89.77700, 2199.356
91.01200, 2704.971
92.24600, 3513.919
93.48000, 4359.188
94.71400, 5679.771
95.94800, 7355.653
97.18200, 9308.810
98.41600, 11208.21
99.64900, 13739.84
100.8830, 17188.68
102.1160, 22274.69
103.3490, 28316.88
104.5820, 34298.23
105.8150, 38319.73
107.0470, 35778.36
108.2800, 28764.13
109.5120, 20341.14
110.7440, 14115.76
111.9760, 10009.39
113.2080, 7352.855
114.4400, 5928.717
115.6710, 4785.548
116.9030, 3996.308
118.1340, 3401.009
119.3650, 3147.654
120.5960, 2896.248
121.8270, 2722.793
123.0580, 2768.294
124.2880, 2844.755
125.5190, 2696.181
126.7490, 2626.574
127.9790, 2613.033
129.2090, 2530.631
130.4390, 2367.345
131.6680, 2290.210
132.8980, 2377.270
134.1270, 2485.470
135.3560, 2692.821
136.5850, 2869.256
137.8140, 3117.700
139.0430, 3122.111
140.2710, 3035.479
141.5000, 2677.808
142.7280, 2425.105
143.9560, 2291.374
145.1840, 2171.615
146.4120, 2163.837
147.6390, 2241.040
148.8670, 2348.227
150.0940, 2527.400
151.3210, 2963.561
152.5490, 3266.712
153.7750, 3788.857
155.0020, 4455.995
156.2290, 5508.129
157.4550, 6536.259
158.6810, 8132.254
159.9080, 9586.513
161.1340, 11978.63
162.3590, 14546.28
163.5850, 17131.49
164.8110, 19205.47
166.0360, 19338.71
167.2610, 17135.61
168.4860, 14397.40
169.7110, 11601.08
170.9360, 9237.234
172.1610, 7459.835
173.3850, 6071.896
174.6100, 5085.792
175.8340, 4261.678
177.0580, 3863.587
178.2820, 3408.517
179.5050, 3192.467
180.7290, 2845.439
181.9520, 2728.434
183.1760, 2602.449
184.3990, 2557.484
185.6220, 2505.536
186.8450, 2591.603
188.0670, 2599.681
189.2900, 2786.773
190.5120, 2910.878
191.7340, 2978.998
192.9560, 3077.133
194.1780, 3027.283
195.4000, 3020.451
196.6220, 2867.638
197.8430, 2697.842
199.0640, 2481.066
200.2860, 2259.403
201.5070, 2154.175
202.7270, 1943.923
203.9480, 1704.878
205.1690, 1437.931
206.3890, 1342.272
207.6090, 1256.982
208.8290, 1194.493
210.0490, 1126.315
211.2690, 1162.775
212.4890, 1130.779
213.7080, 1175.497
214.9280, 1151.838
216.1470, 1264.103
217.3660, 1402.816
218.5850, 1630.761
219.8030, 1611.644
221.0220, 1867.775
222.2400, 2178.422
223.4590, 2539.058
224.6770, 2846.695
225.8950, 3268.393
227.1120, 3528.150
228.3300, 3738.964
229.5480, 3781.831
230.7650, 3512.749
231.9820, 3283.714
233.1990, 2733.725
234.4160, 2430.778
235.6330, 1993.871
236.8490, 1616.004
238.0660, 1371.174
239.2820, 1146.380
240.4980, 1006.621
241.7140, 802.8945
242.9300, 727.2003
244.1460, 657.5371
245.3610, 503.9037
246.5770, 447.2988
247.7920, 388.7224
249.0070, 378.1732
250.2220, 301.6509
251.4370, 264.1545
252.6510, 190.6838
253.8660, 227.2383
255.0800, 252.8174
256.2940, 216.4200
257.5080, 306.0436
258.7220, 264.6335
259.9360, 274.3364
261.1490, 198.0004
262.3630, 203.6758
263.5760, 98.36328
264.7890, 119.0632
266.0020, 121.7760
267.2150, 125.5022
268.4270, 77.24231
269.6400, 35.99634
270.8520, 48.76221
272.0640, 24.54187
273.2760, 27.33203
274.4880, 22.86670
275.7000, 6.065674
276.9120, 71.26160
278.1230, 101.4695
279.3340, 88.69702
280.5450, 160.9414
281.7560, 103.2205
282.9670, 82.52039
284.1780, 132.8361
285.3880, 133.1787
286.5980, 96.54810
287.8090, 83.93481
289.0190, 101.3350
290.2290, 78.75269
291.4380, 15.18188
292.6480, 17.60742
293.8570, 57.97021
295.0670, 51.56445
296.2760, 149.1755
297.4850, 89.80396
298.6930, 142.4500
299.9020, 108.1143
301.1110, 118.7971
302.3190, 186.4990
303.5270, 198.2200
304.7350, 161.9609
305.9430, 228.7217
307.1510, 179.5032
308.3580, 250.3013
309.5660, 231.1125
310.7730, 207.9202
311.9800, 297.7012
313.1870, 247.4243
314.3940, 275.0688
315.6010, 320.6523
316.8070, 406.1736
318.0130, 328.6484
319.2200, 321.1045
320.4260, 346.5754
321.6310, 332.0767
322.8370, 297.6089
324.0430, 286.1726
325.2480, 245.7678
326.4540, 214.6011
327.6590, 102.0547
328.8640, 132.7466
330.0680, 81.47144
331.2730, 21.22925
332.4780, 99.02002
333.6820, 46.84424
334.8860, 47.70264
336.0900, 41.59521
337.2940, 88.52246
338.4980, 122.4849
339.7010, 105.4814
340.9050, 57.51367
342.1080, 11.58154
343.3110, 34.31616
344.5140, 43.18945
345.7170, 20.06079
346.9200, 138.9060
348.1220, 126.7766
349.3240, 74.66577
350.5270, 138.5488
351.7290, 110.4539
352.9310, 164.3669
354.1320, 149.3120
355.3340, 194.2820
356.5350, 128.2932
357.7370, 135.3159
358.9380, 153.3538
360.1390, 151.4131
361.3400, 82.49756
362.5400, 66.57617
363.7410, 42.64209
364.9410, 22.68481
366.1410, 2.697266
367.3410, 2.327148
368.5410, 58.38940
369.7410, 165.4922
370.9400, 290.6355
372.1400, 308.8188
373.3390, 364.0427
374.5380, 461.3071
375.7370, 565.6123
376.9360, 705.2607
378.1350, 827.3438
379.3330, 1065.771
380.5310, 1245.238
381.7300, 1506.747
382.9280, 1866.296
384.1260, 2123.887
385.3230, 2505.519
386.5210, 2922.193
387.7180, 3376.907
388.9160, 3895.664
390.1130, 4400.463
391.3100, 4953.302
392.5060, 5581.186
393.7030, 6109.109
394.9000, 6562.076
396.0960, 6815.087
397.2920, 7135.139
398.4880, 7081.235
399.6840, 6956.374
400.8800, 6676.555
402.0750, 6239.781
403.2710, 5655.050
404.4660, 5173.364
405.6610, 4692.721
406.8560, 4269.124
408.0510, 3809.570
409.2450, 3401.062
410.4400, 2930.599
411.6340, 2721.180
412.8280, 2479.808
414.0220, 2240.096
415.2160, 2160.722
416.4100, 2047.768
417.6030, 1974.967
418.7970, 1956.774
419.9900, 2045.555
421.1830, 2129.852
422.3760, 2428.569
423.5690, 2743.044
424.7610, 3172.496
425.9540, 3581.335
427.1460, 4385.378
428.3380, 5097.734
429.5300, 5885.156
430.7220, 6037.691
431.9140, 5717.010
433.1050, 4626.461
434.2970, 3640.235
435.4880, 2592.561
436.6790, 1885.851
437.8700, 1436.682
439.0610, 1093.570
440.2510, 840.5376
441.4420, 655.5837
442.6320, 498.7036
443.8220, 418.9099
445.0120, 393.1921
446.2020, 270.5471
447.3910, 192.9836
448.5810, 245.4880
449.7700, 128.0627
450.9600, 210.7063
452.1490, 211.4189
453.3370, 323.2175
454.5260, 359.0935
455.7150, 406.0542
456.9030, 530.0938
458.0910, 563.2107
459.2800, 698.4172
460.4670, 839.7092
461.6550, 1020.073
462.8430, 1130.540
464.0300, 1333.082
465.2180, 1576.714
466.4050, 2028.430
467.5920, 2341.237
468.7790, 2831.128
469.9650, 3499.102
471.1520, 4462.158
472.3380, 5388.290
473.5250, 6842.504
474.7110, 8547.793
475.8970, 10505.16
477.0820, 13031.60
478.2680, 15700.11
479.4540, 19194.70
480.6390, 22674.37
481.8240, 26206.10
483.0090, 28209.91
484.1940, 28065.78
485.3780, 25829.71
486.5630, 22342.87
487.7470, 18620.69
488.9320, 14957.70
490.1160, 11986.72
491.3000, 9829.530
492.4830, 8117.182
493.6670, 6792.574
494.8500, 5785.614
496.0340, 5071.840
497.2170, 4456.007
498.4000, 4065.850
499.5820, 3670.404
500.7650, 3527.705
501.9480, 3393.151
503.1300, 3216.832
504.3120, 3046.220
505.4940, 3129.525
506.6760, 3124.036
507.8580, 3082.436
509.0390, 3241.456
510.2210, 3428.616
511.4020, 3521.900
512.5830, 3811.247
513.7640, 3994.654
514.9450, 4268.122
516.1250, 4566.650
517.3060, 4840.239
518.4860, 5296.889
519.6660, 5768.598
520.8460, 6364.367
522.0260, 6897.197
523.2060, 7713.085
524.3850, 8501.033
525.5650, 9438.042
526.7440, 10515.11
527.9230, 11566.23
529.1020, 12743.42
530.2810, 13926.66
531.4590, 15233.96
532.6380, 16226.32
533.8160, 17388.73
534.9940, 18388.21
536.1720, 19073.76
537.3500, 19454.36
538.5270, 19541.03
539.7050, 19480.75
540.8820, 19337.52
542.0590, 18855.37
543.2360, 18191.28
544.4130, 17892.25
545.5900, 17607.28
546.7660, 16957.37
547.9430, 16467.52
549.1190, 15936.73
550.2950, 15842.00
551.4710, 15637.32
552.6470, 15604.71
553.8220, 15554.15
554.9980, 15649.65
556.1730, 15747.36
557.3480, 15882.26
558.5230, 16258.90
559.6980, 16691.90
560.8730, 17316.75
562.0470, 17828.75
563.2220, 18713.88
564.3960, 19523.91
565.5700, 20711.68
566.7440, 21900.39
567.9170, 23667.10
569.0910, 25362.01
570.2640, 27518.15
571.4380, 30258.84
572.6110, 32781.84
573.7840, 35683.67
574.9570, 38948.55
576.1290, 42479.74
577.3020, 45886.45
578.4740, 48557.63
579.6460, 51629.95
580.8180, 53292.43
581.9900, 54412.94
583.1620, 54240.22
584.3330, 52670.54
585.5040, 49869.39
586.6760, 45761.50
587.8470, 41503.74
589.0180, 37160.69
590.1880, 32876.23
591.3590, 28663.51
592.5290, 25041.82
593.7000, 21840.26
594.8700, 18988.49
596.0400, 16633.53
597.2090, 14639.05
598.3790, 12925.24
599.5490, 11530.20
600.7180, 10301.08
601.8870, 9159.765
603.0560, 8226.665
604.2250, 7525.107
605.3940, 6703.197
606.5620, 6175.603
607.7300, 5621.778
608.8990, 5201.884
610.0670, 4834.880
611.2350, 4388.020
612.4020, 4102.061
613.5700, 3906.628
614.7370, 3615.462
615.9050, 3415.708
617.0720, 3098.737
618.2390, 3025.798
619.4060, 2825.590
620.5720, 2727.489
621.7390, 2611.221
622.9050, 2537.450
624.0710, 2387.809
625.2370, 2190.347
626.4030, 2168.186
627.5690, 2063.302
628.7340, 2048.415
629.9000, 1964.531
631.0650, 1831.285
632.2300, 1811.917
633.3950, 1718.103
634.5600, 1636.181
635.7240, 1532.670
636.8890, 1566.714
638.0530, 1522.298
639.2170, 1431.937
640.3810, 1454.681
641.5450, 1381.397
642.7080, 1328.158
643.8720, 1282.960
645.0350, 1347.788
646.1980, 1354.638
647.3610, 1357.506
648.5240, 1239.389
649.6870, 1257.282
650.8490, 1241.182
652.0120, 1306.089
653.1740, 1272.003
654.3360, 1301.921
655.4980, 1200.845
656.6600, 1168.774
657.8210, 1144.707
658.9830, 1204.641
660.1440, 1094.578
661.3050, 1150.516
662.4660, 1057.342
663.6270, 1005.097
664.7870, 877.3340
665.9480, 861.2729
667.1080, 761.2109
668.2680, 660.1472
669.4280, 659.1108
670.5880, 537.0884
671.7480, 516.0173
672.9070, 446.9792
674.0670, 379.4634
675.2260, 305.0786
676.3850, 273.7363
677.5440, 253.3535
678.7030, 234.5076
679.8610, 186.0596
681.0200, 192.1409
682.1780, 182.5720
683.3360, 154.7705
684.4940, 78.03931
685.6520, 70.29468
686.8090, 90.79590
687.9670, 42.60522
689.1240, 72.22217
690.2810, 63.43652
691.4380, 35.85010
692.5950, 15.45752
693.7520, 19.68311
694.9080, 8.095215
696.0650, 14.69360
697.2210, 33.74805
698.3770, 13.03125
699.5330, 1.212646
700.6880, 5.630859
701.8440, 7.786133
702.9990, 21.37036
704.1550, 52.79297
705.3100, 31.08960
706.4650, 28.27637
707.6190, 62.79004
708.7740, 12.35791
709.9290, 52.91309
711.0830, 70.56348
712.2370, 2.723145
713.3910, 47.01733
714.5450, 32.81128
715.6980, 38.65259
716.8520, 43.54028
718.0050, 6.510986
719.1580, 75.46875
720.3110, 73.52344
721.4640, 51.65308
722.6170, 97.84766
723.7700, 56.13232
724.9220, 42.48657
726.0740, 73.90381
727.2260, 19.40234
728.3780, 26.95435
729.5300, 20.56445
730.6810, 19.23120
731.8330, 82.95435
732.9840, 45.76831
734.1350, 72.65479
735.2860, 46.62891
736.4370, 39.67798
737.5880, 81.79907
738.7380, 63.01562
739.8880, 10.31836
741.0390, 123.6804
742.1890, 19.16260
743.3380, 75.71045
744.4880, 47.35449
745.6380, 74.08057
746.7870, 54.97925
747.9360, 35.89062
749.0850, 36.70410
750.2340, 17.87720
751.3830, 40.91479
752.5310, 3.860840
753.6800, 17.42407
754.8280, 12.78125
755.9760, 3.790771
757.1240, 22.69995
758.2720, 7.374634
759.4190, 34.09534
760.5670, 5.407837
761.7140, 22.65637
762.8610, 43.84875
764.0080, 71.99255
765.1550, 32.09436
766.3020, 64.14209
767.4480, 83.14575
768.5950, 71.10779
769.7410, 104.0258
770.8870, 71.90405
772.0330, 80.73755
773.1780, 150.5459
774.3240, 90.29846
775.4690, 242.0077
776.6140, 225.7587
777.7590, 133.3915
778.9040, 212.9845
780.0490, 259.6064
781.1940, 379.1211
782.3380, 439.5962
783.4820, 552.0321
784.6260, 656.9930
785.7700, 783.9250
786.9140, 828.4497
788.0580, 929.8652
789.2010, 1085.221
790.3450, 1131.870
791.4880, 1037.190
792.6310, 1056.446
793.7730, 887.8322
794.9160, 775.0088
796.0590, 703.9983
797.2010, 488.9468
798.3430, 402.8540
799.4850, 379.7202
800.6270, 346.5447
801.7690, 312.3282
802.9100, 245.0707
804.0520, 227.7715
805.1930, 192.4310
806.3340, 164.0493
807.4750, 162.6257
808.6160, 182.1597
809.7560, 164.6522
810.8970, 68.10278
812.0370, 104.4977
813.1770, 101.8448
814.3170, 104.1434
815.4570, 140.3942
816.5960, 107.6013
817.7360, 51.76086
818.8750, 114.8595
820.0140, 76.91162
821.1530, 46.91064
822.2920, 126.8467
823.4310, 107.7379
824.5690, 90.58179
825.7070, 99.37573
826.8460, 74.12158
827.9840, 109.8134
829.1220, 97.45898
830.2590, 72.05615
831.3970, 104.5994
832.5340, 122.9506
833.6710, 143.1194
834.8080, 168.5660
835.9450, 150.6653
837.0820, 88.93298
838.2190, 142.0824
839.3550, 110.1379
840.4910, 137.3307
841.6270, 144.8168
842.7630, 125.4369
843.8990, 168.0844
845.0350, 169.5760
846.1700, 147.8895
847.3060, 190.6949
848.4410, 174.2521
849.5760, 149.9935
850.7100, 181.7313
851.8450, 147.2017
852.9800, 137.1722
854.1140, 217.6921
855.2480, 209.0919
856.3820, 186.3247
857.5160, 183.5411
858.6500, 207.9937
859.7830, 180.4124
860.9170, 179.3176
862.0500, 203.9497
863.1830, 192.4824
864.3160, 165.3105
865.4480, 121.5410
866.5810, 173.0505
867.7130, 81.52295
868.8460, 136.8774
869.9780, 145.4497
871.1100, 116.2202
872.2410, 71.51318
873.3730, 139.1328
874.5050, 97.00195
875.6360, 82.94531
876.7670, 89.09473
877.8980, 105.0288
879.0290, 55.42651
880.1590, 67.18042
881.2900, 32.62207
882.4200, 19.70312
883.5500, 86.03906
884.6800, 4.104248
885.8100, 51.60864
886.9400, 23.42358
888.0690, 43.71509
889.1990, 52.74121
890.3280, 26.35767
891.4570, 41.19336
892.5860, 27.99927
893.7140, 45.07397
894.8430, 45.04395
895.9710, 52.18115
897.1000, 76.82153
898.2280, 49.33276
899.3560, 61.66602
900.4830, 76.69897
901.6110, 36.46606
902.7380, 100.2463
903.8660, 66.35693
904.9930, 24.20898
906.1200, 58.53882
907.2460, 45.33130
908.3730, 0.2619630
909.5000, 24.80493
910.6260, 81.82983
911.7520, 4.653320
912.8780, 16.84912
914.0040, 31.27295
915.1290, 4.249023
916.2550, 3.216309
917.3800, 25.66943
918.5050, 3.111572
919.6300, 26.45776
920.7550, 27.04370
921.8800, 12.64600
923.0040, 9.260742
924.1290, 8.248535
925.2530, 23.52539
926.3770, 11.17725
927.5010, 9.840820
928.6250, 18.51343
929.7480, 10.25610
930.8720, 23.10718
931.9950, 9.404297
933.1180, 21.69385
934.2410, 66.97559
935.3640, 29.25024
936.4860, 75.51807
937.6090, 31.78491
938.7310, 47.04614
939.8530, 54.30518
940.9750, 83.55908
942.0970, 95.64453
943.2180, 170.9814
944.3400, 146.2244
945.4610, 146.4268
946.5820, 199.1045
947.7030, 261.6438
948.8240, 247.1489
949.9450, 335.6863
951.0650, 352.6780
952.1860, 344.2642
953.3060, 384.3206
954.4260, 316.0215
955.5460, 407.9470
956.6650, 419.7935
957.7850, 363.6431
958.9040, 416.2368
960.0230, 437.5117
961.1420, 423.0398
962.2610, 363.8433
963.3800, 411.4958
964.4990, 425.9575
965.6170, 388.7915
966.7350, 435.3914
967.8530, 521.2561
968.9710, 565.3347
970.0890, 633.6238
971.2070, 741.7969
972.3240, 790.1938
973.4410, 906.3171
974.5580, 922.1145
975.6750, 922.2188
976.7920, 841.4297
977.9090, 767.5095
979.0250, 783.8945
980.1410, 670.3086
981.2580, 700.6956
982.3740, 662.1558
983.4890, 650.6450
984.6050, 711.1479
985.7200, 651.6736
986.8360, 624.2190
987.9510, 644.7812
989.0660, 644.3757
990.1810, 650.9888
991.2950, 597.6416
992.4100, 568.3281
993.5240, 558.0432
994.6390, 546.8000
995.7530, 510.5876
996.8660, 477.4033
997.9800, 448.2563
999.0940, 416.1323
1000.207, 450.0344
1001.320, 527.9612
1002.433, 526.9133
1003.546, 542.9077
1004.659, 563.9351
1005.772, 534.0034
1006.884, 554.1064
1007.996, 570.2424
1009.108, 519.4231
1010.220, 486.6445
1011.332, 491.8926
1012.444, 527.1982
1013.555, 497.5342
1014.666, 448.9155
1015.777, 554.3357
1016.888, 543.8772
1017.999, 566.3850
1019.110, 613.7534
1020.220, 612.3364
1021.331, 691.9529
1022.441, 712.6089
1023.551, 769.2935
1024.661, 848.0122
1025.770, 862.7646
1026.880, 1034.546
1027.989, 1099.365
1029.098, 1251.217
1030.207, 1347.093
1031.316, 1604.000
1032.425, 1770.933
1033.533, 1968.889
1034.642, 2172.865
1035.750, 2416.866
1036.858, 2803.889
1037.966, 2938.931
1039.073, 3313.994
1040.181, 3719.075
1041.288, 4298.178
1042.396, 4920.281
1043.503, 5585.426
1044.610, 6514.591
1045.716, 7543.694
1046.823, 9205.896
1047.929, 10870.12
1049.036, 13228.29
1050.142, 15961.54
1051.248, 19725.82
1052.353, 24355.11
1053.459, 29872.85
1054.564, 36461.61
1055.670, 43923.74
1056.775, 51001.97
1057.880, 57355.23
1058.985, 61300.19
1060.089, 61978.43
1061.194, 59302.96
1062.298, 54337.11
1063.402, 47910.44
1064.506, 41183.95
1065.610, 34998.47
1066.713, 29675.01
1067.817, 25349.57
1068.920, 21734.15
1070.023, 18583.92
1071.126, 15983.64
1072.229, 14015.17
1073.332, 12158.95
1074.435, 10786.64
1075.537, 9492.264
1076.639, 8510.991
1077.741, 7589.738
1078.843, 6983.826
1079.945, 6141.620
1081.046, 5677.590
1082.148, 5258.432
1083.249, 4845.296
1084.350, 4517.399
1085.451, 4240.352
1086.551, 3863.099
1087.652, 3649.356
1088.752, 3477.405
1089.853, 3216.429
1090.953, 2966.475
1092.053, 2726.544
1093.152, 2509.236
1094.252, 2195.688
1095.351, 2119.838
1096.451, 2088.245
1097.550, 1760.731
1098.649, 1681.344
1099.748, 1573.594
1100.846, 1450.864
1101.945, 1399.171
1103.043, 1345.500
1104.141, 1210.854
1105.239, 1182.889
1106.337, 1123.288
1107.434, 1072.721
1108.532, 995.1741
1109.629, 979.6475
1110.726, 975.3367
1111.823, 834.1846
1112.920, 831.6777
1114.017, 812.1526
1115.113, 855.9272
1116.210, 853.5605
1117.306, 810.1816
1118.402, 790.8843
1119.498, 800.5466
1120.593, 795.8870
1121.689, 875.1545
1122.784, 852.2332
1123.879, 781.9702
1124.974, 820.7283
1126.069, 742.5034
1127.164, 712.2976
1128.259, 616.1091
1129.353, 569.5151
1130.447, 464.7976
1131.541, 465.6741
1132.635, 405.5723
1133.729, 375.4919
1134.822, 364.4248
1135.916, 379.3733
1137.009, 324.3381
1138.102, 364.3186
1139.195, 336.3167
1140.288, 295.3323
1141.380, 293.3630
1142.473, 213.4106
1143.565, 255.4736
1144.657, 158.5515
1145.749, 225.6475
1146.841, 163.7585
1147.932, 151.8936
1149.024, 129.0479
1150.115, 179.2166
1151.206, 139.3994
1152.297, 155.5989
1153.388, 93.81787
1154.479, 118.0503
1155.569, 178.2996
1156.659, 149.5642
1157.750, 184.8411
1158.839, 136.1313
1159.929, 168.4351
1161.019, 131.9258
1162.108, 166.2549
1163.198, 123.5969
1164.287, 105.9512
1165.376, 109.3188
1166.465, 139.6992
1167.553, 121.0911
1168.642, 193.4951
1169.730, 170.6465
1170.818, 79.35815
1171.906, 150.7986
1172.994, 110.2500
1174.082, 81.64087
1175.170, 70.11621
1176.257, 78.75244
1177.344, 105.2483
1178.431, 107.7542
1179.518, 105.0872
1180.605, 50.79663
1181.691, 88.33154
1182.778, 34.87573
1183.864, 26.42896
1184.950, 24.99414
1186.036, 42.57080
1187.122, 62.15698
1188.207, 10.75293
1189.292, 27.35767
1190.378, 59.97290
1191.463, 9.402344
1192.548, 35.22876
1193.632, 35.86914
1194.717, 72.51807
1195.801, 38.17480
1196.886, 20.83887
1197.970, 65.50977
1199.054, 48.18823
1200.137, 32.12622
1201.221, 3.444336
1202.305, 24.75757
1203.388, 4.023682
1204.471, 2.666504
1205.554, 24.63696
1206.637, 52.05713
1207.719, 11.75732
1208.802, 32.53662
1209.884, 22.16309
1210.966, 87.11377
1212.048, 10.56152
1213.130, 16.24170
1214.212, 5.071777
1215.293, 45.38306
1216.374, 19.05225
1217.456, 6.379883
1218.536, 0.3645020
1219.617, 13.44702
1220.698, 35.12793
1221.778, 17.81274
1222.859, 53.64307
1223.939, 5.973877
1225.019, 10.11426
1226.099, 64.21289
1227.178, 4.272461
1228.258, 6.390137
1229.337, 38.54883
1230.417, 11.19702
1231.496, 22.36133
1232.574, 16.44580
1233.653, 11.40063
1234.732, 9.941406
1235.810, 39.73999
1236.888, 21.90552
1237.966, 18.62134
1239.044, 40.29492
