##NAMES=Fluorapatite
##RRUFFID=R050617
##IDEAL CHEMISTRY=Ca_5_(PO_4_)_3_F
##LOCALITY=Santa Cruz, Sonora, Mexico
##OWNER=RRUFF
##SOURCE=University of Arizona Mineral Museum
##DESCRIPTION=Tan colored hexagonal prism
##STATUS=The identification of this mineral is confirmed by single-crystal X-ray diffraction and chemical analysis.
##URL=rruff.info/R050617
##MEASURED CHEMISTRY=Ca_5.00_(P_1.00_O_4_)_3_(F_0.99_Cl_0.01_)
##PIN_ID=L01712
##ORIENTATION=Laser parallel to c* (0 0 1). Fiducial mark perpendicular to laser is parallel to -b [0 -1 0]
105.8150, 0.0000000E+00
107.0470, 0.3519290
108.2800, 69.62671
109.5120, 47.06519
110.7440, 53.23035
111.9760, 3.907715
113.2080, 37.50488
114.4400, 26.36621
115.6710, 7.598999
116.9030, 11.14404
118.1340, 19.88318
119.3650, 39.98242
120.5960, 59.21570
121.8270, 78.63257
123.0580, 106.2069
124.2880, 107.9189
125.5190, 120.7516
126.7490, 110.7054
127.9790, 131.7588
129.2090, 218.8951
130.4390, 302.0942
131.6680, 271.3507
132.8980, 280.7024
134.1270, 258.1514
135.3560, 306.7238
136.5850, 346.3341
137.8140, 284.9805
139.0430, 335.6620
140.2710, 352.3756
141.5000, 374.1318
142.7280, 354.9291
143.9560, 316.7373
145.1840, 305.5533
146.4120, 295.7091
147.6390, 261.5255
148.8670, 281.4384
150.0940, 274.6409
151.3210, 262.4961
152.5490, 179.3517
153.7750, 280.2087
155.0020, 287.0687
156.2290, 220.9122
157.4550, 288.9142
158.6810, 250.9751
159.9080, 272.3333
161.1340, 294.6246
162.3590, 190.8182
163.5850, 235.5813
164.8110, 176.6421
166.0360, 146.7163
167.2610, 145.9525
168.4860, 121.0297
169.7110, 143.1869
170.9360, 161.3682
172.1610, 98.52954
173.3850, 71.66724
174.6100, 61.95593
175.8340, 64.33020
177.0580, 25.77173
178.2820, 84.37537
179.5050, 54.39697
180.7290, 81.40076
181.9520, 59.39038
183.1760, 28.35767
184.3990, 60.32288
185.6220, 32.27966
186.8450, 2.222412
188.0670, 44.14758
189.2900, 55.05457
190.5120, 75.94238
191.7340, 21.90747
192.9560, 71.90613
194.1780, 3.211426
195.4000, 30.64844
196.6220, 67.83594
197.8430, 40.76416
199.0640, 36.07080
200.2860, 75.69775
201.5070, 82.79517
202.7270, 44.86890
203.9480, 64.39624
205.1690, 48.97754
206.3890, 68.47534
207.6090, 25.95557
208.8290, 69.36426
210.0490, 43.74292
211.2690, 21.17603
212.4890, 8.910400
213.7080, 9.926025
214.9280, 76.90967
216.1470, 0.4763180
217.3660, 11.07202
218.5850, 96.36450
219.8030, 16.25073
221.0220, 83.45337
222.2400, 66.90649
223.4590, 56.39258
224.6770, 91.18555
225.8950, 65.65649
227.1120, 76.26050
228.3300, 49.33179
229.5480, 128.0454
230.7650, 131.2612
231.9820, 132.2227
233.1990, 144.3403
234.4160, 143.0764
235.6330, 123.5154
236.8490, 114.3464
238.0660, 118.9026
239.2820, 155.3416
240.4980, 162.0334
241.7140, 64.68896
242.9300, 103.1482
244.1460, 81.34692
245.3610, 63.19800
246.5770, 55.57690
247.7920, 82.65894
249.0070, 59.60449
250.2220, 56.62622
251.4370, 105.0173
252.6510, 117.6001
253.8660, 107.0806
255.0800, 98.69263
256.2940, 159.3770
257.5080, 158.8330
258.7220, 249.0151
259.9360, 224.5264
261.1490, 235.5962
262.3630, 236.5845
263.5760, 234.4021
264.7890, 271.7793
266.0020, 254.3391
267.2150, 246.7808
268.4270, 281.1777
269.6400, 268.4880
270.8520, 279.8411
272.0640, 268.1223
273.2760, 164.3315
274.4880, 136.7283
275.7000, 140.7969
276.9120, 95.87573
278.1230, 112.7769
279.3340, 88.56494
280.5450, 75.33594
281.7560, 78.10181
282.9670, 110.8359
284.1780, 20.55078
285.3880, 89.24341
286.5980, 75.91431
287.8090, 85.56348
289.0190, 116.1897
290.2290, 78.79395
291.4380, 63.37476
292.6480, 133.9307
293.8570, 138.4641
295.0670, 104.9741
296.2760, 64.45874
297.4850, 82.91919
298.6930, 87.35522
299.9020, 153.7668
301.1110, 160.1543
302.3190, 122.5176
303.5270, 122.8560
304.7350, 125.9844
305.9430, 176.4495
307.1510, 125.7036
308.3580, 165.9312
309.5660, 135.1248
310.7730, 206.2927
311.9800, 152.4336
313.1870, 179.5474
314.3940, 134.6343
315.6010, 127.6936
316.8070, 97.72485
318.0130, 109.7273
319.2200, 149.7014
320.4260, 57.64673
321.6310, 40.84375
322.8370, 69.81958
324.0430, 19.31763
325.2480, 27.65063
326.4540, 34.75098
327.6590, 10.02124
328.8640, 53.29297
330.0680, 32.59644
331.2730, 20.74731
332.4780, 42.94507
333.6820, 5.188477
334.8860, 24.20337
336.0900, 50.48022
337.2940, 58.54883
338.4980, 38.48926
339.7010, 38.55835
340.9050, 31.60596
342.1080, 0.2839360
343.3110, 81.82886
344.5140, 106.7932
345.7170, 63.75732
346.9200, 95.36816
348.1220, 16.57251
349.3240, 49.50684
350.5270, 97.46240
351.7290, 31.49585
352.9310, 36.60791
354.1320, 3.432129
355.3340, 1.086914
356.5350, 2.697510
357.7370, 1.858643
358.9380, 11.44019
360.1390, 30.04150
361.3400, 3.579590
362.5400, 79.91187
363.7410, 66.71631
364.9410, 16.42993
366.1410, 50.01953
367.3410, 66.36621
368.5410, 45.58301
369.7410, 100.9331
370.9400, 30.37305
372.1400, 40.33545
373.3390, 28.46582
374.5380, 59.74609
375.7370, 16.94312
376.9360, 77.85254
378.1350, 34.21362
379.3330, 56.09326
380.5310, 1.135742
381.7300, 102.1030
382.9280, 12.35474
384.1260, 24.63940
385.3230, 93.01855
386.5210, 90.42773
387.7180, 97.32568
388.9160, 119.6023
390.1130, 100.4148
391.3100, 121.5403
392.5060, 72.90723
393.7030, 56.06738
394.9000, 41.57275
396.0960, 64.82910
397.2920, 85.25610
398.4880, 48.48999
399.6840, 24.99072
400.8800, 76.63110
402.0750, 68.01294
403.2710, 66.37036
404.4660, 7.664551
405.6610, 9.890869
406.8560, 28.02832
408.0510, 65.81860
409.2450, 52.76758
410.4400, 79.45825
411.6340, 88.23413
412.8280, 107.0659
414.0220, 94.83081
415.2160, 109.8386
416.4100, 124.5200
417.6030, 77.42773
418.7970, 153.2893
419.9900, 147.9597
421.1830, 187.4683
422.3760, 232.2217
423.5690, 227.3757
424.7610, 209.3618
425.9540, 245.6147
427.1460, 257.4468
428.3380, 278.8201
429.5300, 368.2612
430.7220, 352.6013
431.9140, 413.9363
433.1050, 451.3545
434.2970, 461.5713
435.4880, 518.6785
436.6790, 487.9844
437.8700, 672.2502
439.0610, 645.3979
440.2510, 647.3303
441.4420, 606.2944
442.6320, 737.2324
443.8220, 769.2905
445.0120, 760.3074
446.2020, 743.2566
447.3910, 764.1621
448.5810, 700.1230
449.7700, 652.5354
450.9600, 587.6636
452.1490, 478.4294
453.3370, 428.2559
454.5260, 381.0586
455.7150, 364.5986
456.9030, 327.1980
458.0910, 287.7385
459.2800, 283.2029
460.4670, 247.4958
461.6550, 244.7908
462.8430, 250.1748
464.0300, 162.1719
465.2180, 208.0488
466.4050, 75.99951
467.5920, 108.6865
468.7790, 157.3579
469.9650, 110.0088
471.1520, 102.4644
472.3380, 88.08691
473.5250, 117.5674
474.7110, 76.94629
475.8970, 81.51367
477.0820, 128.5889
478.2680, 58.82275
479.4540, 118.7432
480.6390, 89.05127
481.8240, 79.63428
483.0090, 37.09814
484.1940, 43.40625
485.3780, 35.19580
486.5630, 63.73438
487.7470, 57.57715
488.9320, 64.85400
490.1160, 55.88135
491.3000, 43.82520
492.4830, 33.32324
493.6670, 12.23438
494.8500, 19.87061
496.0340, 0.5224610
497.2170, 105.2515
498.4000, 53.22412
499.5820, 72.03564
500.7650, 6.578125
501.9480, 80.50684
503.1300, 49.29395
504.3120, 22.53516
505.4940, 31.33203
506.6760, 44.48828
507.8580, 12.33057
509.0390, 56.89160
510.2210, 25.92529
511.4020, 70.46387
512.5830, 5.400391
513.7640, 109.5532
514.9450, 42.14502
516.1250, 17.48926
517.3060, 24.82471
518.4860, 84.12158
519.6660, 48.73682
520.8460, 71.70850
522.0260, 24.79492
523.2060, 33.14844
524.3850, 6.447754
525.5650, 7.581543
526.7440, 21.68652
527.9230, 24.09326
529.1020, 15.34131
530.2810, 19.14941
531.4590, 15.44971
532.6380, 45.44189
533.8160, 88.93555
534.9940, 106.1602
536.1720, 11.30566
537.3500, 96.60596
538.5270, 46.88867
539.7050, 84.32666
540.8820, 11.57959
542.0590, 2.328125
543.2360, 21.95947
544.4130, 19.13330
545.5900, 25.35303
546.7660, 30.79736
547.9430, 41.56787
549.1190, 114.6685
550.2950, 67.21875
551.4710, 101.7339
552.6470, 108.8750
553.8220, 67.72510
554.9980, 74.68018
556.1730, 7.229492
557.3480, 75.89551
558.5230, 12.36523
559.6980, 13.64648
560.8730, 50.06592
562.0470, 69.83008
563.2220, 18.88037
564.3960, 102.7788
565.5700, 175.2969
566.7440, 76.97559
567.9170, 200.2261
569.0910, 209.2622
570.2640, 275.1445
571.4380, 406.9424
572.6110, 496.6895
573.7840, 659.4980
574.9570, 724.2705
576.1290, 664.9810
577.3020, 749.7349
578.4740, 694.6953
579.6460, 704.6025
580.8180, 685.9087
581.9900, 765.5186
583.1620, 775.0854
584.3330, 570.4829
585.5040, 535.0415
586.6760, 349.7324
587.8470, 296.1245
589.0180, 359.2725
590.1880, 281.8584
591.3590, 303.5356
592.5290, 281.0610
593.7000, 234.4478
594.8700, 303.4565
596.0400, 254.6909
597.2090, 295.7910
598.3790, 325.2925
599.5490, 374.0049
600.7180, 457.9097
601.8870, 553.3071
603.0560, 524.5391
604.2250, 463.8013
605.3940, 528.9790
606.5620, 595.5210
607.7300, 691.2935
608.8990, 589.6396
610.0670, 453.4170
611.2350, 526.0278
612.4020, 503.4009
613.5700, 343.6152
614.7370, 374.1475
615.9050, 232.2705
617.0720, 331.8628
618.2390, 300.1431
619.4060, 118.0352
620.5720, 191.8813
621.7390, 175.4434
622.9050, 189.6440
624.0710, 197.9995
625.2370, 67.02441
626.4030, 44.08398
627.5690, 108.2012
628.7340, 187.8032
629.9000, 47.74072
631.0650, 109.4316
632.2300, 9.062500
633.3950, 19.35449
634.5600, 5.556641
635.7240, 27.47119
636.8890, 13.30566
638.0530, 10.04004
639.2170, 55.89404
640.3810, 42.35254
641.5450, 33.91553
642.7080, 116.7588
643.8720, 50.75391
645.0350, 58.37061
646.1980, 104.1626
647.3610, 29.73242
648.5240, 123.9258
649.6870, 14.41309
650.8490, 99.03516
652.0120, 46.67041
653.1740, 149.6069
654.3360, 41.97559
655.4980, 75.75049
656.6600, 95.96582
657.8210, 41.54102
658.9830, 133.9458
660.1440, 1.121094
661.3050, 87.29346
662.4660, 79.61572
663.6270, 30.08740
664.7870, 161.4189
665.9480, 80.66748
667.1080, 123.5479
668.2680, 274.0024
669.4280, 99.14648
670.5880, 133.0034
671.7480, 5.900879
672.9070, 132.7485
674.0670, 135.3379
675.2260, 124.6016
676.3850, 59.40186
677.5440, 72.81445
678.7030, 42.03857
679.8610, 35.96484
681.0200, 30.49561
682.1780, 28.15381
683.3360, 34.68701
684.4940, 7.686035
685.6520, 46.11719
686.8090, 53.03613
687.9670, 112.2759
689.1240, 110.9331
690.2810, 11.27832
691.4380, 140.7798
692.5950, 21.95801
693.7520, 2.065430
694.9080, 72.63965
696.0650, 45.12256
697.2210, 92.66504
698.3770, 75.92773
699.5330, 104.2422
700.6880, 37.45557
701.8440, 24.40381
702.9990, 4.493652
704.1550, 81.57520
705.3100, 26.73047
706.4650, 118.5669
707.6190, 157.1460
708.7740, 181.2148
709.9290, 193.1606
711.0830, 192.5010
712.2370, 164.9570
713.3910, 160.6025
714.5450, 162.5654
715.6980, 139.2891
716.8520, 77.10449
718.0050, 77.05566
719.1580, 207.7119
720.3110, 122.1455
721.4640, 119.7510
722.6170, 147.4658
723.7700, 95.85742
724.9220, 51.40918
726.0740, 109.3271
727.2260, 154.6377
728.3780, 36.75000
729.5300, 240.2822
730.6810, 23.90527
731.8330, 43.44629
732.9840, 120.1611
734.1350, 52.52930
735.2860, 70.42676
736.4370, 199.6318
737.5880, 136.5068
738.7380, 76.41992
739.8880, 197.7119
741.0390, 1.133789
742.1890, 36.20508
743.3380, 141.9629
744.4880, 86.80078
745.6380, 124.5635
746.7870, 6.336914
747.9360, 177.1191
749.0850, 155.5361
750.2340, 190.5469
751.3830, 199.7988
752.5310, 143.4102
753.6800, 186.3750
754.8280, 64.33496
755.9760, 185.1357
757.1240, 194.4424
758.2720, 10.23047
759.4190, 41.64160
760.5670, 109.0303
761.7140, 19.94238
762.8610, 89.90918
764.0080, 58.68359
765.1550, 57.03027
766.3020, 159.8965
767.4480, 71.81934
768.5950, 105.0420
769.7410, 121.2432
770.8870, 113.5049
772.0330, 197.0732
773.1780, 116.0820
774.3240, 134.3105
775.4690, 52.93066
776.6140, 194.7158
777.7590, 52.78027
778.9040, 180.5586
780.0490, 177.0010
781.1940, 93.43164
782.3380, 145.3555
783.4820, 41.53418
784.6260, 145.1328
785.7700, 185.5449
786.9140, 147.7979
788.0580, 66.93848
789.2010, 91.40918
790.3450, 174.9609
791.4880, 161.9854
792.6310, 218.6318
793.7730, 71.54590
794.9160, 214.0850
796.0590, 57.53125
797.2010, 34.38281
798.3430, 12.91211
799.4850, 203.1865
800.6270, 159.9287
801.7690, 269.0049
802.9100, 155.6250
804.0520, 125.2988
805.1930, 174.2490
806.3340, 364.2871
807.4750, 119.2285
808.6160, 157.9629
809.7560, 179.8838
810.8970, 27.29785
812.0370, 103.5469
813.1770, 100.6465
814.3170, 259.3730
815.4570, 235.0527
816.5960, 128.5039
817.7360, 145.8271
818.8750, 1.971680
820.0140, 6.890625
821.1530, 162.1025
822.2920, 44.88477
823.4310, 153.7266
824.5690, 68.49512
825.7070, 261.4082
826.8460, 163.2158
827.9840, 111.0674
829.1220, 6.180664
830.2590, 25.43750
831.3970, 138.9082
832.5340, 73.05078
833.6710, 106.9736
834.8080, 89.99512
835.9450, 58.84375
837.0820, 77.75391
838.2190, 128.0742
839.3550, 88.15234
840.4910, 106.3223
841.6270, 140.7578
842.7630, 96.85840
843.8990, 22.23535
845.0350, 133.4658
846.1700, 27.98926
847.3060, 172.6201
848.4410, 114.2002
849.5760, 201.3867
850.7100, 105.9775
851.8450, 144.4736
852.9800, 102.6494
854.1140, 50.59375
855.2480, 100.8252
856.3820, 135.5908
857.5160, 76.09961
858.6500, 30.19531
859.7830, 89.71875
860.9170, 31.84668
862.0500, 162.4141
863.1830, 48.95605
864.3160, 75.56934
865.4480, 194.5352
866.5810, 153.5918
867.7130, 152.3008
868.8460, 65.35059
869.9780, 151.9521
871.1100, 238.9824
872.2410, 148.7529
873.3730, 3.278320
874.5050, 179.3955
875.6360, 102.1533
876.7670, 80.99902
877.8980, 115.4482
879.0290, 34.43555
880.1590, 92.38379
881.2900, 89.51465
882.4200, 65.51855
883.5500, 48.28125
884.6800, 115.7891
885.8100, 192.7383
886.9400, 114.1631
888.0690, 25.29492
889.1990, 141.8721
890.3280, 87.29688
891.4570, 96.29199
892.5860, 12.92480
893.7140, 186.9668
894.8430, 87.99609
895.9710, 52.96777
897.1000, 157.9668
898.2280, 129.4863
899.3560, 25.19043
900.4830, 24.65137
901.6110, 7.003906
902.7380, 35.64844
903.8660, 38.81934
904.9930, 82.56641
906.1200, 80.63770
907.2460, 99.38770
908.3730, 29.23145
909.5000, 144.3369
910.6260, 22.11035
911.7520, 187.5684
912.8780, 144.7803
914.0040, 176.0693
915.1290, 225.3516
916.2550, 49.61523
917.3800, 21.46191
918.5050, 260.7725
919.6300, 2.689453
920.7550, 105.8252
921.8800, 29.85352
923.0040, 107.7324
924.1290, 88.87598
925.2530, 12.99023
926.3770, 197.3672
927.5010, 155.5654
928.6250, 102.2617
929.7480, 186.8691
930.8720, 131.7842
931.9950, 102.5684
933.1180, 259.6719
934.2410, 151.9307
935.3640, 18.17969
936.4860, 95.84863
937.6090, 75.97852
938.7310, 197.7969
939.8530, 153.7764
940.9750, 262.1816
942.0970, 329.6572
943.2180, 391.2480
944.3400, 448.8301
945.4610, 418.7617
946.5820, 540.6094
947.7030, 650.8145
948.8240, 829.6992
949.9450, 863.2529
951.0650, 1079.504
952.1860, 1424.123
953.3060, 1770.281
954.4260, 2463.468
955.5460, 3671.605
956.6650, 5671.063
957.7850, 8023.789
958.9040, 10409.27
960.0230, 11769.02
961.1420, 12994.63
962.2610, 13502.05
963.3800, 13347.28
964.4990, 13350.09
965.6170, 12714.01
966.7350, 10857.48
967.8530, 8162.830
968.9710, 5651.805
970.0890, 4131.273
971.2070, 2615.094
972.3240, 2039.320
973.4410, 1555.248
974.5580, 1360.867
975.6750, 956.8105
976.7920, 607.2559
977.9090, 536.0918
979.0250, 267.7129
980.1410, 191.7910
981.2580, 156.7305
982.3740, 137.9512
983.4890, 179.1504
984.6050, 292.7148
985.7200, 54.92969
986.8360, 322.1230
987.9510, 50.11133
989.0660, 194.5391
990.1810, 171.8789
991.2950, 1.304688
992.4100, 193.2656
993.5240, 3.468750
994.6390, 135.7188
995.7530, 146.4688
996.8660, 211.3945
997.9800, 213.8184
999.0940, 13.20703
1000.207, 142.9316
1001.320, 223.1133
1002.433, 135.8691
1003.546, 293.4023
1004.659, 97.22070
1005.772, 152.8262
1006.884, 75.49414
1007.996, 83.33984
1009.108, 157.5312
1010.220, 57.48438
1011.332, 13.57422
1012.444, 25.32422
1013.555, 211.3105
1014.666, 87.21680
1015.777, 367.7598
1016.888, 41.91016
1017.999, 21.58984
1019.110, 93.50391
1020.220, 228.0566
1021.331, 184.5996
1022.441, 182.6309
1023.551, 137.5410
1024.661, 231.1973
1025.770, 347.2090
1026.880, 370.2520
1027.989, 403.4023
1029.098, 422.3574
1030.207, 620.4355
1031.316, 634.2832
1032.425, 651.1816
1033.533, 580.7715
1034.642, 568.8633
1035.750, 484.0156
1036.858, 556.1934
1037.966, 326.6855
1039.073, 240.0781
1040.181, 45.60742
1041.288, 192.3516
1042.396, 270.0762
1043.503, 214.8379
1044.610, 182.5977
1045.716, 118.5332
1046.823, 172.2520
1047.929, 278.1348
1049.036, 255.2871
1050.142, 226.8438
1051.248, 171.8867
1052.353, 209.6914
1053.459, 291.4785
1054.564, 352.6016
1055.670, 533.1016
1056.775, 541.5254
1057.880, 639.1250
1058.985, 663.1777
1060.089, 658.0020
1061.194, 368.4570
1062.298, 497.7480
1063.402, 261.2285
1064.506, 350.1055
1065.610, 6.468750
1066.713, 136.0840
1067.817, 309.8535
1068.920, 139.3711
1070.023, 113.3379
1071.126, 286.7715
1072.229, 192.6113
1073.332, 353.9668
1074.435, 263.1484
1075.537, 204.7383
1076.639, 497.9414
1077.741, 376.8301
1078.843, 475.1797
1079.945, 189.2090
1081.046, 238.7852
1082.148, 454.3652
1083.249, 240.0586
1084.350, 262.0840
1085.451, 127.5820
1086.551, 84.40234
1087.652, 238.2402
1088.752, 17.77148
1089.853, 39.87891
1090.953, 182.8145
1092.053, 249.2051
1093.152, 215.6406
1094.252, 137.1191
1095.351, 75.81250
1096.451, 146.0000
1097.550, 55.03516
1098.649, 250.3398
1099.748, 189.9668
1100.846, 51.40820
1101.945, 131.6309
1103.043, 51.54883
1104.141, 130.0117
1105.239, 35.51367
1106.337, 20.29688
1107.434, 167.6113
1108.532, 292.6289
1109.629, 370.4824
1110.726, 83.93359
1111.823, 182.2852
1112.920, 15.75391
1114.017, 252.1035
1115.113, 172.9590
1116.210, 146.6406
1117.306, 10.99805
1118.402, 126.4473
1119.498, 347.0996
1120.593, 163.0195
1121.689, 207.9258
1122.784, 102.5938
1123.879, 73.26953
1124.974, 315.0527
1126.069, 125.5605
1127.164, 171.5117
1128.259, 259.0176
1129.353, 140.6875
1130.447, 122.2109
1131.541, 278.5371
1132.635, 342.7383
1133.729, 178.2441
1134.822, 357.3496
1135.916, 350.3887
1137.009, 222.9922
1138.102, 330.4707
1139.195, 82.71094
1140.288, 191.5352
1141.380, 351.1289
1142.473, 100.9609
1143.565, 269.9102
1144.657, 306.0430
1145.749, 50.57812
1146.841, 330.8555
1147.932, 333.8516
1149.024, 237.9102
1150.115, 179.4023
1151.206, 316.3848
1152.297, 20.81055
1153.388, 207.3164
1154.479, 343.8320
1155.569, 324.6055
1156.659, 46.52539
1157.750, 329.4785
1158.839, 231.7344
1159.929, 157.5195
1161.019, 308.9863
1162.108, 207.6621
1163.198, 145.3105
1164.287, 326.6465
1165.376, 184.1465
1166.465, 176.6758
1167.553, 374.1504
1168.642, 280.1504
1169.730, 84.74609
1170.818, 265.6621
1171.906, 206.4434
1172.994, 285.0078
1174.082, 198.5742
1175.170, 284.8945
1176.257, 390.7129
1177.344, 227.9277
1178.431, 44.02930
1179.518, 70.25195
1180.605, 246.6426
1181.691, 139.4629
1182.778, 112.1777
1183.864, 288.2773
1184.950, 232.2871
1186.036, 91.88477
1187.122, 203.7305
1188.207, 360.0215
1189.292, 372.3672
1190.378, 130.4121
1191.463, 393.9336
1192.548, 117.4395
1193.632, 372.7969
1194.717, 198.2324
1195.801, 268.1973
1196.886, 338.5469
1197.970, 170.2168
1199.054, 301.9414
1200.137, 255.3867
1201.221, 336.4648
1202.305, 336.9160
1203.388, 144.1777
1204.471, 270.2441
1205.554, 454.7754
1206.637, 344.7070
1207.719, 201.5059
1208.802, 69.93750
1209.884, 361.3008
1210.966, 444.2168
1212.048, 180.8242
1213.130, 370.3301
1214.212, 265.6094
1215.293, 128.9062
1216.374, 264.7656
1217.456, 236.0938
1218.536, 286.0410
1219.617, 360.9766
1220.698, 375.4961
1221.778, 481.2598
1222.859, 206.7266
1223.939, 410.2285
1225.019, 243.2402
1226.099, 264.1914
1227.178, 22.99414
1228.258, 336.2773
1229.337, 472.2598
1230.417, 492.0840
1231.496, 536.0195
1232.574, 349.3418
1233.653, 376.8633
1234.732, 371.5020
1235.810, 258.5781
1236.888, 403.3535
1237.966, 310.7676
1239.044, 378.5215
1240.122, 451.6191
1241.199, 258.2441
1242.277, 250.2148
1243.354, 213.6738
1244.431, 170.4824
1245.508, 227.4941
1246.585, 153.3477
1247.661, 343.4902
1248.738, 296.7832
1249.814, 415.6562
1250.890, 299.0312
1251.966, 307.7852
1253.042, 41.00781
1254.117, 50.27734
1255.193, 22.86719
1256.268, 187.9023
1257.343, 181.7266
1258.418, 22.24609
1259.493, 28.44141
1260.567, 67.08984
1261.642, 13.01562
1262.716, 379.6484
1263.790, 361.7930
1264.864, 271.3867
1265.938, 393.4531
1267.011, 214.9102
1268.085, 169.3672
1269.158, 49.89453
1270.231, 111.9336
1271.304, 181.4766
1272.377, 294.7422
1273.450, 288.0859
1274.522, 345.2422
1275.594, 270.3242
1276.666, 353.8555
1277.738, 238.0391
1278.810, 313.6406
1279.882, 255.5859
1280.953, 258.7461
1282.025, 29.82031
1283.096, 379.1367
1284.167, 246.9805
