##NAMES=Fluor-buergerite
##RRUFFID=R060132
##IDEAL CHEMISTRY=NaFe^3+^_3_Al_6_(Si_6_O_18_)(BO_3_)_3_O_3_F
##LOCALITY=20 km. south of San Luis Potasi, Mexico
##OWNER=RRUFF
##SOURCE=University of Arizona Mineral Museum
##DESCRIPTION=Brown short prismatic
##STATUS=The identification of this mineral has been confirmed by X-ray diffraction and chemical analysis
##URL=rruff.info/R060132
##MEASURED CHEMISTRY=(Na_0.87_Ca_0.03_[box]_0.10_)(Fe^3+^_0.82_Al_0.12_Mg_0.04_Ti_0.02_)_3_Al_6_(BO_3_)_3_(Si_0.98_Al_0.02_)_6_O_18_(O_0.66_F_0.19_(OH)_0.15_)_4_
##PIN_ID=L01714
##ORIENTATION=Laser parallel to a* (1 0 0). Fiducial mark perpendicular to laser is parallel to -c [0 0 -1]
120.5960, 0.0000000E+00
121.8270, 316.1494
123.0580, 526.1426
124.2880, 698.2061
125.5190, 160.9375
126.7490, 28.56055
127.9790, 18.78418
129.2090, 345.1221
130.4390, 569.7109
131.6680, 403.5361
132.8980, 522.9521
134.1270, 423.7256
135.3560, 559.6797
136.5850, 768.5557
137.8140, 1164.759
139.0430, 1417.443
140.2710, 1740.555
141.5000, 2186.932
142.7280, 2460.831
143.9560, 2980.087
145.1840, 3514.696
146.4120, 4249.641
147.6390, 4860.389
148.8670, 5254.260
150.0940, 5666.356
151.3210, 5850.373
152.5490, 5869.674
153.7750, 5591.248
155.0020, 5050.053
156.2290, 3778.043
157.4550, 2748.181
158.6810, 2087.393
159.9080, 1354.591
161.1340, 817.7070
162.3590, 588.6836
163.5850, 434.4785
164.8110, 424.0488
166.0360, 272.3633
167.2610, 114.3906
168.4860, 56.46191
169.7110, 147.6484
170.9360, 91.42773
172.1610, 87.77539
173.3850, 205.3193
174.6100, 146.8652
175.8340, 75.87012
177.0580, 132.3359
178.2820, 0.2246090
179.5050, 112.5137
180.7290, 56.08203
181.9520, 32.00098
183.1760, 108.7373
184.3990, 793.1152
185.6220, 975.1113
186.8450, 814.7109
188.0670, 620.8955
189.2900, 852.6504
190.5120, 872.9619
191.7340, 1075.817
192.9560, 1383.204
194.1780, 1468.007
195.4000, 1729.905
196.6220, 1976.897
197.8430, 2320.947
199.0640, 2317.145
200.2860, 3010.510
201.5070, 3659.062
202.7270, 4049.816
203.9480, 3797.783
205.1690, 3102.973
206.3890, 2797.396
207.6090, 3012.060
208.8290, 3344.962
210.0490, 3563.110
211.2690, 4082.511
212.4890, 4608.166
213.7080, 5151.086
214.9280, 5733.171
216.1470, 6604.143
217.3660, 7495.852
218.5850, 8416.712
219.8030, 9779.655
221.0220, 11055.79
222.2400, 12671.15
223.4590, 14695.79
224.6770, 16875.70
225.8950, 18764.90
227.1120, 20673.39
228.3300, 22502.18
229.5480, 23435.26
230.7650, 24407.64
231.9820, 24079.36
233.1990, 23424.77
234.4160, 22150.10
235.6330, 20680.45
236.8490, 20041.79
238.0660, 18092.98
239.2820, 16478.09
240.4980, 15173.93
241.7140, 14018.17
242.9300, 12853.64
244.1460, 11716.34
245.3610, 11033.24
246.5770, 10168.34
247.7920, 9842.642
249.0070, 9230.151
250.2220, 9033.870
251.4370, 8823.798
252.6510, 8552.934
253.8660, 8437.278
255.0800, 8129.834
256.2940, 7914.599
257.5080, 7884.572
258.7220, 7894.758
259.9360, 7391.029
261.1490, 7530.753
262.3630, 6494.567
263.5760, 5654.591
264.7890, 5342.826
266.0020, 5009.271
267.2150, 4885.164
268.4270, 4458.250
269.6400, 4246.432
270.8520, 4249.383
272.0640, 4230.889
273.2760, 3943.272
274.4880, 3832.467
275.7000, 3621.427
276.9120, 3340.635
278.1230, 3104.614
279.3340, 2800.809
280.5450, 2449.375
281.7560, 2224.283
282.9670, 1948.528
284.1780, 1829.103
285.3880, 2048.004
286.5980, 1819.225
287.8090, 2198.760
289.0190, 2324.604
290.2290, 3274.751
291.4380, 3556.484
292.6480, 3508.934
293.8570, 4464.749
295.0670, 4065.757
296.2760, 4152.052
297.4850, 4256.600
298.6930, 3840.672
299.9020, 3940.543
301.1110, 3300.925
302.3190, 2857.574
303.5270, 2752.489
304.7350, 1322.664
305.9430, 728.0957
307.1510, 175.7803
308.3580, 168.2861
309.5660, 119.1211
310.7730, 290.7227
311.9800, 252.0156
313.1870, 44.29688
314.3940, 15.75293
315.6010, 112.0322
316.8070, 448.5420
318.0130, 609.2783
319.2200, 1142.851
320.4260, 1190.664
321.6310, 1788.707
322.8370, 2785.484
324.0430, 2622.288
325.2480, 3146.354
326.4540, 3372.794
327.6590, 3569.887
328.8640, 3573.589
330.0680, 3648.500
331.2730, 3530.618
332.4780, 3301.939
333.6820, 3283.463
334.8860, 3408.188
336.0900, 3465.901
337.2940, 3854.232
338.4980, 3954.549
339.7010, 4341.059
340.9050, 4833.046
342.1080, 5119.408
343.3110, 5540.137
344.5140, 6001.045
345.7170, 6439.830
346.9200, 6789.242
348.1220, 7423.871
349.3240, 7750.091
350.5270, 8537.923
351.7290, 9012.491
352.9310, 9505.995
354.1320, 10341.69
355.3340, 10952.47
356.5350, 11453.29
357.7370, 12350.29
358.9380, 13268.79
360.1390, 14055.38
361.3400, 15011.03
362.5400, 16118.26
363.7410, 17485.07
364.9410, 18664.32
366.1410, 19611.76
367.3410, 21123.36
368.5410, 21792.14
369.7410, 22790.10
370.9400, 22920.23
372.1400, 23057.53
373.3390, 22398.00
374.5380, 21389.64
375.7370, 20319.45
376.9360, 19013.44
378.1350, 17604.59
379.3330, 16513.91
380.5310, 15196.38
381.7300, 14037.02
382.9280, 13151.81
384.1260, 12838.75
385.3230, 12017.84
386.5210, 11560.07
387.7180, 11153.45
388.9160, 10706.98
390.1130, 10966.66
391.3100, 10962.48
392.5060, 10736.45
393.7030, 11057.56
394.9000, 10897.83
396.0960, 11129.23
397.2920, 10906.78
398.4880, 11209.48
399.6840, 10678.32
400.8800, 10698.31
402.0750, 9950.450
403.2710, 9953.734
404.4660, 9480.161
405.6610, 8743.736
406.8560, 8030.459
408.0510, 7568.326
409.2450, 6719.340
410.4400, 6031.499
411.6340, 5239.859
412.8280, 4730.419
414.0220, 4190.182
415.2160, 3384.145
416.4100, 2930.311
417.6030, 2379.692
418.7970, 2311.273
419.9900, 1810.052
421.1830, 1523.028
422.3760, 1350.199
423.5690, 1016.566
424.7610, 980.1270
425.9540, 928.8818
427.1460, 697.8301
428.3380, 744.9707
429.5300, 737.3018
430.7220, 706.8271
431.9140, 575.5410
433.1050, 722.4453
434.2970, 526.5420
435.4880, 757.8271
436.6790, 779.0879
437.8700, 901.4531
439.0610, 966.8145
440.2510, 1246.855
441.4420, 1362.085
442.6320, 1527.501
443.8220, 1717.104
445.0120, 1753.894
446.2020, 1995.869
447.3910, 2039.029
448.5810, 2141.314
449.7700, 2440.905
450.9600, 2254.618
452.1490, 2425.338
453.3370, 2390.460
454.5260, 2374.760
455.7150, 2327.535
456.9030, 2035.590
458.0910, 1964.367
459.2800, 2089.355
460.4670, 1806.523
461.6550, 1859.871
462.8430, 1602.424
464.0300, 1678.171
465.2180, 1582.104
466.4050, 1551.227
467.5920, 1606.527
468.7790, 1496.005
469.9650, 1394.665
471.1520, 1206.503
472.3380, 1407.516
473.5250, 1168.705
474.7110, 1088.068
475.8970, 846.6064
477.0820, 1008.316
478.2680, 615.2012
479.4540, 650.2578
480.6390, 255.4883
481.8240, 206.8896
483.0090, 69.46094
484.1940, 43.80762
485.3780, 331.9541
486.5630, 530.0947
487.7470, 463.3145
488.9320, 690.5830
490.1160, 610.9990
491.3000, 658.5283
492.4830, 607.1924
493.6670, 637.9707
494.8500, 473.8750
496.0340, 593.8369
497.2170, 651.9092
498.4000, 550.1152
499.5820, 431.4121
500.7650, 358.7490
501.9480, 80.09766
503.1300, 40.65430
504.3120, 61.54883
505.4940, 16.59570
506.6760, 481.7783
507.8580, 648.1250
509.0390, 911.6328
510.2210, 1393.303
511.4020, 1669.133
512.5830, 1997.124
513.7640, 2182.285
514.9450, 2424.609
516.1250, 2843.098
517.3060, 3263.773
518.4860, 3431.644
519.6660, 3531.706
520.8460, 3528.966
522.0260, 3696.402
523.2060, 3692.016
524.3850, 3685.798
525.5650, 3578.753
526.7440, 3527.877
527.9230, 3494.178
529.1020, 3259.648
530.2810, 3013.286
531.4590, 2975.089
532.6380, 2929.055
533.8160, 2759.181
534.9940, 2903.500
536.1720, 2751.991
537.3500, 2745.688
538.5270, 2919.600
539.7050, 2851.729
540.8820, 2905.057
542.0590, 2915.603
543.2360, 3031.361
544.4130, 3065.349
545.5900, 3105.528
546.7660, 3050.929
547.9430, 3380.542
549.1190, 3261.396
550.2950, 3413.475
551.4710, 3319.775
552.6470, 3396.276
553.8220, 3318.023
554.9980, 3310.010
556.1730, 3318.221
557.3480, 3391.652
558.5230, 3318.303
559.6980, 3481.156
560.8730, 3609.223
562.0470, 3851.529
563.2220, 3749.057
564.3960, 3804.799
565.5700, 4030.756
566.7440, 4279.916
567.9170, 4545.303
569.0910, 4778.883
570.2640, 4925.676
571.4380, 5230.666
572.6110, 5590.859
573.7840, 5697.236
574.9570, 6125.791
576.1290, 6367.546
577.3020, 6636.478
578.4740, 7005.580
579.6460, 7390.834
580.8180, 7753.242
581.9900, 8270.796
583.1620, 8351.497
584.3330, 8655.343
585.5040, 9103.330
586.6760, 9339.462
587.8470, 9642.740
589.0180, 10037.15
590.1880, 10525.70
591.3590, 10833.38
592.5290, 11312.20
593.7000, 11920.17
594.8700, 12113.27
596.0400, 12817.54
597.2090, 13613.95
598.3790, 13747.49
599.5490, 14553.16
600.7180, 14819.95
601.8870, 15402.21
603.0560, 16078.88
604.2250, 16519.02
605.3940, 16997.27
606.5620, 17460.64
607.7300, 18001.11
608.8990, 18183.68
610.0670, 18490.86
611.2350, 18780.16
612.4020, 18911.05
613.5700, 19239.03
614.7370, 19630.12
615.9050, 20109.29
617.0720, 20666.42
618.2390, 21302.33
619.4060, 22074.38
620.5720, 22842.92
621.7390, 23867.55
622.9050, 24905.27
624.0710, 26502.79
625.2370, 28384.21
626.4030, 30055.53
627.5690, 32204.95
628.7340, 34375.78
629.9000, 37028.25
631.0650, 39458.78
632.2300, 41556.98
633.3950, 43872.86
634.5600, 44325.27
635.7240, 44508.99
636.8890, 44034.80
638.0530, 43061.81
639.2170, 41472.03
640.3810, 40007.34
641.5450, 37994.42
642.7080, 36731.65
643.8720, 35014.02
645.0350, 33745.01
646.1980, 32120.69
647.3610, 31001.19
648.5240, 29803.76
649.6870, 28660.41
650.8490, 27895.14
652.0120, 26988.96
653.1740, 26252.06
654.3360, 25407.89
655.4980, 24383.37
656.6600, 23327.47
657.8210, 22173.35
658.9830, 20933.00
660.1440, 19638.70
661.3050, 18369.23
662.4660, 17000.32
663.6270, 15643.08
664.7870, 14750.74
665.9480, 13204.30
667.1080, 12448.87
668.2680, 11210.87
669.4280, 10323.88
670.5880, 9335.253
671.7480, 8447.672
672.9070, 7628.043
674.0670, 6826.497
675.2260, 6075.049
676.3850, 5417.344
677.5440, 4724.445
678.7030, 4151.535
679.8610, 3625.977
681.0200, 3154.068
682.1780, 2763.422
683.3360, 2601.507
684.4940, 2229.470
685.6520, 2310.820
686.8090, 2412.350
687.9670, 2421.537
689.1240, 2578.668
690.2810, 2847.393
691.4380, 3065.139
692.5950, 3364.401
693.7520, 3639.207
694.9080, 4059.867
696.0650, 4554.929
697.2210, 5031.731
698.3770, 5470.465
699.5330, 5873.131
700.6880, 6353.094
701.8440, 6606.492
702.9990, 6964.927
704.1550, 7272.227
705.3100, 7326.763
706.4650, 7343.779
707.6190, 7197.236
708.7740, 6819.875
709.9290, 6370.863
711.0830, 5887.240
712.2370, 5603.236
713.3910, 5043.438
714.5450, 4555.950
715.6980, 4011.930
716.8520, 3610.772
718.0050, 3217.812
719.1580, 2849.814
720.3110, 2629.402
721.4640, 2410.028
722.6170, 2299.747
723.7700, 2214.853
724.9220, 2199.628
726.0740, 2287.326
727.2260, 2319.771
728.3780, 2324.607
729.5300, 2422.764
730.6810, 2286.361
731.8330, 2614.854
732.9840, 2661.205
734.1350, 2608.826
735.2860, 2597.745
736.4370, 2257.945
737.5880, 2289.647
738.7380, 2262.456
739.8880, 2089.854
741.0390, 2077.017
742.1890, 1761.703
743.3380, 1794.039
744.4880, 1805.840
745.6380, 1931.833
746.7870, 1884.219
747.9360, 1918.279
749.0850, 1999.333
750.2340, 2135.967
751.3830, 2191.067
752.5310, 2196.139
753.6800, 2397.536
754.8280, 2299.406
755.9760, 2319.302
757.1240, 2145.851
758.2720, 2133.641
759.4190, 1922.916
760.5670, 1629.532
761.7140, 1556.144
762.8610, 1441.310
764.0080, 1233.230
765.1550, 1168.137
766.3020, 945.0781
767.4480, 982.0420
768.5950, 804.0732
769.7410, 854.1553
770.8870, 947.2979
772.0330, 666.4863
773.1780, 754.7285
774.3240, 801.9893
775.4690, 695.2900
776.6140, 785.6436
777.7590, 514.0283
778.9040, 677.4170
780.0490, 552.7939
781.1940, 588.1025
782.3380, 482.3184
783.4820, 363.4365
784.6260, 361.4648
785.7700, 261.3887
786.9140, 292.2070
788.0580, 228.9189
789.2010, 147.5225
790.3450, 34.01758
791.4880, 63.38867
792.6310, 105.6377
793.7730, 43.23047
794.9160, 80.26562
796.0590, 58.48926
797.2010, 85.89160
798.3430, 3.508789
799.4850, 3.713867
800.6270, 53.84473
801.7690, 21.79395
802.9100, 35.59180
804.0520, 7.240234
805.1930, 34.84668
806.3340, 97.05859
807.4750, 87.24609
808.6160, 162.2871
809.7560, 180.1885
810.8970, 49.05078
812.0370, 28.50293
813.1770, 87.11133
814.3170, 126.9570
815.4570, 139.0596
816.5960, 61.42480
817.7360, 132.0156
818.8750, 116.8701
820.0140, 172.9844
821.1530, 40.38770
822.2920, 139.0156
823.4310, 122.9180
824.5690, 210.0908
825.7070, 158.5830
826.8460, 149.3672
827.9840, 67.44043
829.1220, 228.7627
830.2590, 226.4189
831.3970, 154.4111
832.5340, 142.7021
833.6710, 151.2881
834.8080, 80.17285
835.9450, 120.1943
837.0820, 229.7607
838.2190, 154.5430
839.3550, 137.6348
840.4910, 134.0254
841.6270, 104.5586
842.7630, 174.6914
843.8990, 68.98828
845.0350, 134.5547
846.1700, 75.42480
847.3060, 112.5693
848.4410, 42.00586
849.5760, 12.70215
850.7100, 96.64062
851.8450, 23.86816
852.9800, 10.65332
854.1140, 90.94238
855.2480, 93.16992
856.3820, 162.9033
857.5160, 107.5889
858.6500, 161.0684
859.7830, 193.3555
860.9170, 105.4512
862.0500, 158.3408
863.1830, 233.0332
864.3160, 150.5400
865.4480, 253.8477
866.5810, 222.9697
867.7130, 168.9023
868.8460, 406.6387
869.9780, 219.2051
871.1100, 396.5791
872.2410, 359.7822
873.3730, 210.8096
874.5050, 349.6436
875.6360, 300.2988
876.7670, 405.7734
877.8980, 458.0752
879.0290, 377.2061
880.1590, 337.1631
881.2900, 526.9395
882.4200, 474.5527
883.5500, 507.9961
884.6800, 603.2783
885.8100, 577.4277
886.9400, 624.4180
888.0690, 617.2510
889.1990, 763.9238
890.3280, 636.4521
891.4570, 686.8213
892.5860, 850.0625
893.7140, 848.1523
894.8430, 955.0908
895.9710, 856.8936
897.1000, 841.5459
898.2280, 932.0469
899.3560, 979.4004
900.4830, 1109.615
901.6110, 1048.705
902.7380, 1068.649
903.8660, 1159.493
904.9930, 1139.720
906.1200, 1273.784
907.2460, 1203.208
908.3730, 1230.485
909.5000, 1276.613
910.6260, 1294.612
911.7520, 1392.463
912.8780, 1356.180
914.0040, 1440.759
915.1290, 1475.191
916.2550, 1428.473
917.3800, 1492.764
918.5050, 1519.034
919.6300, 1559.524
920.7550, 1660.299
921.8800, 1751.945
923.0040, 1916.446
924.1290, 1807.819
925.2530, 1852.069
926.3770, 1977.982
927.5010, 1984.105
928.6250, 2159.545
929.7480, 2142.220
930.8720, 2261.519
931.9950, 2412.206
933.1180, 2438.130
934.2410, 2568.135
935.3640, 2612.498
936.4860, 2631.144
937.6090, 2611.809
938.7310, 2828.494
939.8530, 2842.098
940.9750, 2970.184
942.0970, 3090.180
943.2180, 3100.733
944.3400, 3358.148
945.4610, 3289.531
946.5820, 3295.700
947.7030, 3565.834
948.8240, 3535.956
949.9450, 3677.252
951.0650, 3804.470
952.1860, 3773.244
953.3060, 3964.277
954.4260, 3856.955
955.5460, 3951.809
956.6650, 3936.689
957.7850, 4267.089
958.9040, 4099.214
960.0230, 4224.582
961.1420, 4248.912
962.2610, 4117.550
963.3800, 4236.066
964.4990, 4237.199
965.6170, 4268.227
966.7350, 4257.527
967.8530, 4223.326
968.9710, 4254.062
970.0890, 4328.615
971.2070, 4307.143
972.3240, 4461.576
973.4410, 4547.520
974.5580, 4480.320
975.6750, 4420.149
976.7920, 4543.637
977.9090, 4509.533
979.0250, 4536.883
980.1410, 4704.941
981.2580, 4534.539
982.3740, 4592.639
983.4890, 4719.006
984.6050, 4790.059
985.7200, 4855.067
986.8360, 4866.737
987.9510, 5042.807
989.0660, 5105.570
990.1810, 5333.254
991.2950, 5228.236
992.4100, 5471.983
993.5240, 5363.684
994.6390, 5875.800
995.7530, 5805.125
996.8660, 6024.412
997.9800, 6026.834
999.0940, 6158.745
1000.207, 6419.215
1001.320, 6440.121
1002.433, 6471.016
1003.546, 6661.928
1004.659, 6557.447
1005.772, 6642.077
1006.884, 6681.242
1007.996, 6560.311
1009.108, 6564.148
1010.220, 6537.273
1011.332, 6322.508
1012.444, 6144.090
1013.555, 6046.898
1014.666, 5941.115
1015.777, 5687.086
1016.888, 5596.559
1017.999, 5536.789
1019.110, 5460.119
1020.220, 5266.730
1021.331, 4953.168
1022.441, 4854.123
1023.551, 4741.736
1024.661, 4511.046
1025.770, 4409.162
1026.880, 4223.221
1027.989, 4107.160
1029.098, 3998.734
1030.207, 3876.805
1031.316, 3797.005
1032.425, 3676.767
1033.533, 3580.477
1034.642, 3474.942
1035.750, 3424.173
1036.858, 3337.891
1037.966, 3376.342
1039.073, 3369.774
1040.181, 3386.523
1041.288, 3477.468
1042.396, 3261.222
1043.503, 3385.176
1044.610, 3568.809
1045.716, 3806.543
1046.823, 3944.494
1047.929, 4115.102
1049.036, 4262.509
1050.142, 4371.094
1051.248, 4550.139
1052.353, 4607.955
1053.459, 4794.526
1054.564, 5051.506
1055.670, 5163.417
1056.775, 5134.251
1057.880, 5386.296
1058.985, 5295.903
1060.089, 5115.939
1061.194, 5021.709
1062.298, 4924.536
1063.402, 4595.355
1064.506, 4441.180
1065.610, 4504.000
1066.713, 4092.858
1067.817, 4122.069
1068.920, 3709.377
1070.023, 3614.335
1071.126, 3496.238
1072.229, 3244.955
1073.332, 3072.808
1074.435, 2973.540
1075.537, 2862.254
1076.639, 2776.953
1077.741, 2681.633
1078.843, 2554.205
1079.945, 2424.973
1081.046, 2355.386
1082.148, 2246.418
1083.249, 2270.090
1084.350, 2215.877
1085.451, 2131.458
1086.551, 2069.547
1087.652, 1988.448
1088.752, 1959.408
1089.853, 1940.395
1090.953, 2156.432
1092.053, 1955.521
1093.152, 1814.685
1094.252, 1994.909
1095.351, 1775.193
1096.451, 1828.519
1097.550, 2056.926
1098.649, 2030.419
1099.748, 2074.977
1100.846, 2000.599
1101.945, 2178.288
1103.043, 2059.027
1104.141, 2138.827
1105.239, 2051.718
1106.337, 2274.683
1107.434, 2070.714
1108.532, 2067.814
1109.629, 1981.976
1110.726, 1842.219
1111.823, 1840.515
1112.920, 1936.883
1114.017, 1819.306
1115.113, 1985.799
1116.210, 1742.341
1117.306, 1787.925
1118.402, 1730.574
1119.498, 1568.270
1120.593, 1507.005
1121.689, 1442.764
1122.784, 1324.548
1123.879, 1299.351
1124.974, 1212.179
1126.069, 1201.027
1127.164, 1071.895
1128.259, 837.7871
1129.353, 731.7012
1130.447, 725.6338
1131.541, 622.5908
1132.635, 633.5645
1133.729, 530.5586
1134.822, 465.5752
1135.916, 378.6025
1137.009, 387.6514
1138.102, 403.7129
1139.195, 261.7891
1140.288, 214.8867
1141.380, 264.0029
1142.473, 357.1348
1143.565, 274.2812
1144.657, 171.4414
1145.749, 120.6172
1146.841, 80.80957
1147.932, 74.01270
1149.024, 7.771484
1150.115, 119.5498
1151.206, 6.375000
1152.297, 22.80176
1153.388, 168.9873
1154.479, 40.81738
1155.569, 11.36719
1156.659, 115.4424
1157.750, 11.70410
1158.839, 20.85449
1159.929, 45.98828
1161.019, 8.151367
1162.108, 31.29688
1163.198, 102.4492
1164.287, 35.39160
1165.376, 97.24414
1166.465, 32.86426
1167.553, 189.0215
1168.642, 91.99512
1169.730, 9.005859
1170.818, 43.98242
1171.906, 2.977539
1172.994, 18.97559
1174.082, 86.01855
1175.170, 23.95312
1176.257, 83.05273
1177.344, 49.09277
1178.431, 6.146484
1179.518, 18.79980
1180.605, 92.24414
1181.691, 91.32422
1182.778, 28.44043
1183.864, 180.5615
1184.950, 91.76465
1186.036, 10.00293
1187.122, 90.24023
1188.207, 110.5107
1189.292, 68.81055
1190.378, 77.13281
1191.463, 123.4814
1192.548, 56.14062
1193.632, 79.77441
1194.717, 75.42773
1195.801, 94.09375
1196.886, 38.77051
1197.970, 21.53125
1199.054, 23.81152
1200.137, 38.11426
1201.221, 15.67773
1202.305, 11.67773
1203.388, 12.90430
1204.471, 39.62598
1205.554, 78.50586
1206.637, 112.2803
1207.719, 156.0850
1208.802, 215.9180
1209.884, 214.8203
1210.966, 53.66309
1212.048, 239.5654
1213.130, 197.4814
1214.212, 248.4111
1215.293, 439.3525
1216.374, 421.1963
1217.456, 386.2871
1218.536, 490.2900
1219.617, 547.3047
1220.698, 490.3350
1221.778, 581.3828
1222.859, 643.7910
1223.939, 776.5117
1225.019, 818.5938
1226.099, 915.6855
1227.178, 973.7900
1228.258, 1083.903
1229.337, 1175.798
1230.417, 1219.254
1231.496, 1358.310
1232.574, 1552.464
1233.653, 1603.629
1234.732, 1736.003
1235.810, 1997.985
1236.888, 1928.177
1237.966, 2007.377
1239.044, 2128.585
1240.122, 2316.801
1241.199, 2337.024
1242.277, 2611.255
1243.354, 2535.492
1244.431, 2573.735
1245.508, 2690.985
1246.585, 2779.242
1247.661, 2908.504
1248.738, 2986.772
1249.814, 3052.047
1250.890, 2992.325
1251.966, 3147.609
1253.042, 3126.898
1254.117, 3334.193
1255.193, 3376.491
1256.268, 3583.798
1257.343, 3488.106
1258.418, 3659.422
1259.493, 3615.740
1260.567, 3775.064
1261.642, 3819.393
1262.716, 4020.726
1263.790, 3922.061
1264.864, 3915.411
1265.938, 3890.765
1267.011, 3902.122
1268.085, 3883.480
1269.158, 3906.082
1270.231, 3873.208
1271.304, 3937.575
1272.377, 3961.945
1273.450, 3938.317
1274.522, 3965.692
1275.594, 4041.069
1276.666, 4135.375
1277.738, 4322.660
1278.810, 4571.387
1279.882, 4823.645
1280.953, 5061.414
1282.025, 5359.512
1283.096, 5577.904
1284.167, 5862.366
1285.238, 5977.930
1286.308, 6216.852
1287.379, 6124.941
1288.449, 6153.076
1289.519, 6115.241
1290.589, 6100.336
