##NAMES=Fluorite
##RRUFFID=R040099
##IDEAL CHEMISTRY=CaF_2_
##LOCALITY=Rock Candy mine, Grand Forks, British Columbia, Canada
##OWNER=RRUFF
##SOURCE=Bob Downs
##DESCRIPTION=Pale purple fragment
##STATUS=The identification of this mineral has been confirmed by X-ray diffraction and chemical analysis
##URL=rruff.info/R040099
##MEASURED CHEMISTRY=Ca_0.99_F_2.00_
##PIN_ID=L01716
##ORIENTATION=Laser parallel to a* (1 0 0). Fiducial mark perpendicular to laser is parallel to -c [0 0 -1]
83.38800, 0.0000000E+00
84.62600, 34.15674
85.86300, 15.03674
87.10100, 28.61340
88.33800, 2.464722
89.57500, 61.34497
90.81200, 110.3794
92.04900, 102.3870
93.28600, 158.9365
94.52300, 205.1879
95.75900, 228.9121
96.99500, 304.4661
98.23100, 357.5969
99.46700, 347.0708
100.7030, 369.6877
101.9390, 419.2803
103.1740, 476.7085
104.4090, 416.8557
105.6440, 445.6252
106.8790, 479.9387
108.1140, 562.0498
109.3490, 519.0747
110.5830, 525.6196
111.8180, 542.6182
113.0520, 510.9988
114.2860, 588.7004
115.5200, 582.6741
116.7530, 587.8792
117.9870, 610.2822
119.2200, 538.8555
120.4530, 519.5752
121.6860, 491.4192
122.9190, 394.3706
124.1520, 460.4165
125.3850, 433.5483
126.6170, 365.7583
127.8490, 296.0408
129.0810, 317.3906
130.3130, 292.8037
131.5450, 365.5237
132.7770, 287.4841
134.0080, 331.2593
135.2390, 326.0366
136.4710, 473.0842
137.7020, 630.1479
138.9320, 861.1270
140.1630, 1137.997
141.3930, 1417.759
142.6240, 1502.422
143.8540, 1748.994
145.0840, 1910.480
146.3140, 2194.886
147.5440, 2588.218
148.7730, 2449.478
150.0020, 2013.673
151.2320, 1449.806
152.4610, 1012.881
153.6900, 691.9023
154.9180, 390.8738
156.1470, 378.7986
157.3750, 335.6677
158.6040, 205.4626
159.8320, 153.2078
161.0600, 226.9180
162.2870, 185.6035
163.5150, 246.2727
164.7420, 288.9309
165.9700, 246.5825
167.1970, 252.2312
168.4240, 260.8799
169.6510, 228.8320
170.8770, 226.1860
172.1040, 184.8457
173.3300, 99.51074
174.5560, 62.18213
175.7820, 51.85986
177.0080, 4.544922
178.2340, 29.44922
179.4590, 2.104980
180.6850, 22.08643
181.9100, 76.92261
183.1350, 8.924316
184.3600, 7.595703
185.5850, 93.44409
186.8090, 189.0732
188.0340, 195.6929
189.2580, 325.4731
190.4820, 365.5007
191.7060, 428.4790
192.9300, 549.8687
194.1530, 482.8101
195.3770, 500.2415
196.6000, 467.6958
197.8230, 397.1719
199.0460, 384.6694
200.2690, 330.1873
201.4910, 392.7258
202.7140, 420.2834
203.9360, 359.8604
205.1580, 340.4551
206.3800, 306.0427
207.6020, 263.2422
208.8240, 156.2061
210.0450, 194.8000
211.2670, 183.4016
212.4880, 166.0103
213.7090, 244.6260
214.9300, 167.2498
216.1510, 231.8809
217.3710, 250.5203
218.5920, 271.1680
219.8120, 330.8259
221.0320, 345.4949
222.2520, 460.1765
223.4720, 621.8716
224.6910, 803.5815
225.9110, 819.3071
227.1300, 841.0493
228.3490, 865.8076
229.5680, 724.5823
230.7870, 698.0596
232.0050, 564.0105
233.2240, 600.2773
234.4420, 643.7815
235.6600, 600.4744
236.8780, 587.3230
238.0960, 584.3035
239.3140, 645.3970
240.5310, 837.5972
241.7490, 954.8833
242.9660, 1087.254
244.1830, 1153.692
245.4000, 1045.197
246.6160, 837.7583
247.8330, 667.3691
249.0490, 601.3394
250.2660, 389.7253
251.4820, 474.4680
252.6980, 457.2480
253.9130, 415.0605
255.1290, 316.9001
256.3440, 237.7632
257.5600, 230.6467
258.7750, 342.5486
259.9900, 517.4673
261.2040, 854.4014
262.4190, 1151.349
263.6330, 1336.310
264.8480, 1593.283
266.0620, 1027.267
267.2760, 546.2610
268.4900, 238.2646
269.7030, 136.2781
270.9170, 48.30005
272.1300, 6.330322
273.3430, 16.36475
274.5560, 69.59570
275.7690, 78.56934
276.9820, 88.55908
278.1940, 108.5449
279.4070, 99.63574
280.6190, 113.7771
281.8310, 84.93555
283.0430, 113.1230
284.2550, 108.3474
285.4660, 55.46338
286.6770, 100.7446
287.8890, 58.66113
289.1000, 19.79150
290.3110, 70.10229
291.5210, 9.474854
292.7320, 22.14282
293.9420, 18.24365
295.1530, 14.64136
296.3630, 44.95020
297.5730, 14.45874
298.7830, 100.1223
299.9920, 110.7034
301.2020, 125.2834
302.4110, 68.86328
303.6200, 19.44360
304.8290, 145.0220
306.0380, 86.60107
307.2470, 144.1809
308.4550, 192.7612
309.6630, 278.3430
310.8720, 330.9258
312.0800, 380.5095
313.2880, 461.0945
314.4950, 596.6807
315.7030, 791.2686
316.9100, 1053.858
318.1170, 1342.448
319.3240, 1703.041
320.5310, 2095.636
321.7380, 2539.234
322.9450, 2665.833
324.1510, 2664.428
325.3570, 2443.957
326.5630, 1984.898
327.7690, 1627.296
328.9750, 1371.176
330.1810, 1169.316
331.3860, 1009.510
332.5910, 995.6743
333.7960, 833.8064
335.0010, 834.9297
336.2060, 827.0474
337.4110, 753.1626
338.6150, 846.2856
339.8200, 799.4146
341.0240, 858.5525
342.2280, 874.6990
343.4320, 888.8584
344.6350, 1016.029
345.8390, 1045.212
347.0420, 995.4089
348.2450, 1103.618
349.4480, 1162.846
350.6510, 1221.089
351.8540, 1314.379
353.0560, 1338.721
354.2590, 1383.108
355.4610, 1541.532
356.6630, 1534.983
357.8650, 1510.473
359.0670, 1624.008
360.2680, 1691.592
361.4700, 1724.223
362.6710, 1741.899
363.8720, 1731.609
365.0730, 1709.350
366.2740, 1669.115
367.4740, 1655.898
368.6750, 1615.699
369.8750, 1492.519
371.0750, 1490.355
372.2750, 1483.209
373.4750, 1324.079
374.6740, 1304.959
375.8740, 1261.857
377.0730, 1307.770
378.2720, 1115.690
379.4710, 1157.619
380.6700, 1132.554
381.8690, 1070.630
383.0670, 1075.662
384.2660, 997.3850
385.4640, 952.4175
386.6620, 931.9983
387.8600, 842.9583
389.0570, 781.2842
390.2550, 747.3584
391.4520, 679.9248
392.6490, 665.5015
393.8460, 626.4780
395.0430, 582.0925
396.2400, 549.7954
397.4370, 541.0210
398.6330, 483.0322
399.8290, 450.0032
401.0250, 466.9739
402.2210, 442.9443
403.4170, 338.9146
404.6130, 284.8843
405.8080, 298.8535
407.0030, 203.8218
408.1980, 258.7891
409.3930, 239.7556
410.5880, 212.7212
411.7830, 149.6858
412.9770, 79.64893
414.1720, 161.6108
415.3660, 190.5713
416.5600, 89.74390
417.7530, 96.28101
418.9470, 186.5586
420.1410, 128.3293
421.3340, 43.53931
422.5270, 74.58032
423.7200, 40.12622
424.9130, 30.82861
426.1060, 56.18213
427.2980, 42.89722
428.4900, 7.118652
429.6830, 9.806152
430.8750, 20.78979
432.0670, 12.52930
433.2580, 1.304199
434.4500, 34.77441
435.6410, 53.05371
436.8320, 127.6670
438.0240, 58.50732
439.2140, 66.52979
440.4050, 39.47803
441.5960, 82.51318
442.7860, 138.4631
443.9760, 157.4143
445.1670, 148.3660
446.3560, 240.3186
447.5460, 123.8723
448.7360, 223.8262
449.9250, 246.7805
451.1150, 155.7356
452.3040, 164.6909
453.4930, 178.6472
454.6810, 131.6047
455.8700, 158.5635
457.0590, 210.6509
458.2470, 261.6135
459.4350, 179.7542
460.6230, 181.7222
461.8110, 197.9182
462.9980, 282.3203
464.1860, 321.7192
465.3730, 295.8230
466.5600, 408.1521
467.7470, 390.4128
468.9340, 401.8008
470.1210, 437.2705
471.3080, 454.5862
472.4940, 465.2183
473.6800, 488.0364
474.8660, 483.4219
476.0520, 538.9155
477.2380, 479.1501
478.4230, 472.2834
479.6090, 432.8450
480.7940, 495.2295
481.9790, 500.7266
483.1640, 494.3809
484.3490, 476.8687
485.5330, 510.3000
486.7180, 514.4263
487.9020, 543.0286
489.0860, 646.5044
490.2700, 677.0679
491.4540, 664.9216
492.6370, 681.0850
493.8210, 638.2151
495.0040, 687.6873
496.1870, 747.6196
497.3700, 608.3892
498.5530, 603.8745
499.7360, 495.4763
500.9180, 577.1909
502.1000, 482.0854
503.2830, 400.4097
504.4650, 384.1814
505.6460, 333.6155
506.8280, 294.9839
508.0100, 291.9939
509.1910, 229.7634
510.3720, 254.6421
511.5530, 227.8809
512.7340, 156.3550
513.9150, 188.3962
515.0950, 163.6504
516.2760, 120.0151
517.4560, 130.4307
518.6360, 120.6843
519.8160, 132.9292
520.9950, 82.28125
522.1750, 57.51953
523.3540, 11.75439
524.5340, 24.98364
525.7130, 57.79175
526.8920, 30.41138
528.0700, 53.39136
529.2490, 61.78613
530.4270, 46.04126
531.6060, 13.88770
532.7840, 7.255859
533.9620, 18.60840
535.1390, 59.51538
536.3170, 52.36670
537.4940, 23.27100
538.6720, 5.810791
539.8490, 58.88354
541.0260, 102.9492
542.2030, 108.0081
543.3790, 99.05981
544.5560, 155.1042
545.7320, 174.1411
546.9080, 150.1704
548.0840, 133.1917
549.2600, 101.2048
550.4360, 208.2102
551.6110, 175.2065
552.7860, 196.1941
553.9620, 204.1733
555.1370, 204.1431
556.3110, 226.1038
557.4860, 227.0542
558.6610, 297.9995
559.8350, 325.9370
561.0090, 329.8850
562.1830, 338.8455
563.3570, 363.8074
564.5310, 385.8142
565.7040, 403.8254
566.8780, 417.8564
568.0510, 430.9009
569.2240, 386.9646
570.3970, 326.9038
571.5700, 430.9919
572.7420, 493.6987
573.9150, 500.6042
575.0870, 414.6736
576.2590, 446.7891
577.4310, 432.8997
578.6030, 470.9985
579.7740, 529.0938
580.9460, 411.1838
582.1170, 414.2603
583.2880, 340.3313
584.4590, 371.3879
585.6300, 320.4297
586.8010, 301.4570
587.9710, 270.4692
589.1410, 236.4683
590.3110, 282.4524
591.4810, 259.4380
592.6510, 281.4365
593.8210, 258.4644
594.9900, 190.5452
596.1600, 182.7085
597.3290, 137.9673
598.4980, 231.3047
599.6670, 131.7441
600.8350, 186.2751
602.0040, 125.9294
603.1720, 80.67236
604.3400, 85.50977
605.5080, 160.4158
606.6760, 111.1951
607.8440, 132.0430
609.0120, 106.5374
610.1790, 92.71924
611.3460, 137.9746
612.5130, 75.32495
613.6800, 57.74707
614.8470, 12.21216
616.0130, 120.1196
617.1800, 188.7229
618.3460, 219.6433
619.5120, 124.0620
620.6780, 173.3125
621.8440, 153.1555
623.0090, 122.3765
624.1750, 168.7922
625.3400, 49.88257
626.5050, 78.73096
627.6700, 45.37891
628.8350, 59.96680
629.9990, 57.51440
631.1640, 5.979736
632.3280, 27.47095
633.4920, 109.1265
634.6560, 128.8340
635.8200, 102.6631
636.9840, 66.60181
638.1470, 28.63281
639.3100, 76.73657
640.4730, 92.93970
641.6360, 110.2524
642.7990, 99.71997
643.9620, 89.50269
645.1240, 50.89160
646.2870, 32.64258
647.4490, 7.476807
648.6110, 41.61743
649.7730, 39.14429
650.9340, 24.62769
652.0960, 65.53809
653.2570, 39.39136
654.4180, 84.18188
655.5790, 150.9153
656.7400, 149.5996
657.9010, 166.2344
659.0620, 370.8198
660.2220, 337.3652
661.3820, 465.8691
662.5420, 585.3320
663.7020, 699.6179
664.8620, 791.9106
666.0210, 1019.476
667.1810, 1215.693
668.3400, 1278.323
669.4990, 1327.532
670.6580, 1244.336
671.8170, 1268.961
672.9750, 1292.829
674.1340, 1275.255
675.2920, 1308.238
676.4500, 1259.539
677.6080, 1311.707
678.7660, 1422.307
679.9230, 1537.076
681.0810, 1562.839
682.2380, 1757.556
683.3950, 1821.225
684.5520, 1987.847
685.7090, 2246.422
686.8660, 2409.948
688.0220, 2587.180
689.1780, 2753.854
690.3340, 2908.748
691.4900, 3033.566
692.6460, 3193.281
693.8020, 3278.505
694.9570, 3370.256
696.1130, 3384.385
697.2680, 3380.463
698.4230, 3348.490
699.5780, 3497.465
700.7320, 3750.389
701.8870, 3855.260
703.0410, 4086.078
704.1950, 4307.846
705.3490, 4300.559
706.5030, 4596.218
707.6570, 4548.825
708.8110, 4494.378
709.9640, 4596.878
711.1170, 4436.061
712.2700, 4322.597
713.4230, 4165.058
714.5760, 3908.356
715.7280, 3688.609
716.8810, 3387.816
718.0330, 3206.983
719.1850, 2982.729
720.3370, 2802.168
721.4890, 2600.203
722.6400, 2389.186
723.7920, 2222.119
724.9430, 2058.992
726.0940, 1957.807
727.2450, 1905.562
728.3960, 1756.271
729.5460, 1665.410
730.6970, 1528.093
731.8470, 1477.829
732.9970, 1414.556
734.1470, 1416.577
735.2970, 1412.583
736.4460, 1413.807
737.5960, 1398.423
738.7450, 1406.244
739.8940, 1303.457
741.0430, 1415.200
742.1920, 1296.411
743.3410, 1273.590
744.4890, 1329.123
745.6370, 1239.375
746.7850, 1234.729
747.9330, 1216.727
749.0810, 1247.128
750.2290, 1309.451
751.3760, 1393.626
752.5240, 1347.900
753.6710, 1416.519
754.8180, 1530.157
755.9650, 1534.836
757.1110, 1575.627
758.2580, 1563.911
759.4040, 1514.214
760.5510, 1563.317
761.6970, 1495.176
762.8420, 1459.112
763.9880, 1411.017
765.1340, 1416.137
766.2790, 1363.693
767.4240, 1376.285
768.5690, 1385.700
769.7140, 1314.735
770.8590, 1350.370
772.0030, 1478.948
773.1480, 1558.093
774.2920, 1558.686
775.4360, 1438.351
776.5800, 1573.208
777.7240, 1669.857
778.8670, 1783.302
780.0110, 1865.473
781.1540, 1882.123
782.2970, 1940.192
783.4400, 1906.586
784.5830, 1984.906
785.7250, 1999.502
786.8680, 2020.239
788.0100, 2047.773
789.1520, 2162.854
790.2940, 2238.604
791.4360, 2253.691
792.5780, 2404.473
793.7190, 2476.047
794.8600, 2487.476
796.0010, 2534.971
797.1420, 2570.340
798.2830, 2595.584
799.4240, 2626.808
800.5640, 2652.938
801.7050, 2666.978
802.8450, 2834.925
803.9850, 2844.787
805.1250, 2879.559
806.2640, 2900.244
807.4040, 2834.840
808.5430, 2999.349
809.6820, 2946.769
810.8210, 3111.098
811.9600, 3126.338
813.0990, 3142.487
814.2370, 3135.552
815.3760, 3263.530
816.5140, 3348.417
817.6520, 3342.215
818.7900, 3425.921
819.9270, 3573.536
821.0650, 3556.061
822.2020, 3668.493
823.3390, 3674.837
824.4760, 3638.090
825.6130, 3802.253
826.7500, 3886.326
827.8870, 3930.310
829.0230, 4050.204
830.1590, 4240.008
831.2950, 4704.732
832.4310, 5019.375
833.5670, 5759.956
834.7030, 6805.475
835.8380, 7908.928
836.9730, 8646.301
838.1080, 8507.628
839.2430, 8509.904
840.3780, 8961.148
841.5130, 9605.354
842.6470, 10216.51
843.7810, 10222.63
844.9150, 9734.687
846.0490, 8528.684
847.1830, 7667.608
848.3170, 7058.452
849.4500, 6804.369
850.5830, 6887.017
851.7160, 7006.714
852.8490, 6726.921
853.9820, 5810.480
855.1150, 4769.581
856.2470, 3810.597
857.3800, 2919.330
858.5120, 2312.475
859.6440, 1813.760
860.7760, 1288.677
861.9070, 978.5103
863.0390, 816.2612
864.1700, 554.9297
865.3010, 345.5151
866.4320, 248.9839
867.5630, 133.3140
868.6940, 18.47119
869.8240, 98.59033
870.9540, 148.9321
872.0850, 93.57764
873.2150, 180.4966
874.3450, 150.7339
875.4740, 267.2715
876.6040, 148.1699
877.7330, 178.3638
878.8620, 85.86621
879.9910, 74.62646
881.1200, 61.63867
882.2490, 129.8931
883.3770, 98.42334
884.5060, 126.2100
885.6340, 206.2666
886.7620, 133.6323
887.8900, 238.2656
889.0180, 321.2192
890.1450, 216.5303
891.2730, 186.1460
892.4000, 52.95068
893.5270, 165.8867
894.6540, 468.7080
895.7810, 601.4653
896.9070, 845.1606
898.0340, 962.7939
899.1600, 828.3667
900.2860, 711.8838
901.4120, 492.3442
902.5380, 426.7510
903.6630, 388.1055
904.7890, 520.4077
905.9140, 783.6660
907.0390, 1052.877
908.1640, 2080.073
909.2890, 3548.261
910.4130, 6645.435
911.5380, 11403.59
912.6620, 15649.70
913.7860, 15014.81
914.9100, 11402.90
916.0340, 8363.990
917.1580, 6913.072
918.2810, 7062.146
919.4040, 7438.202
920.5280, 8925.241
921.6510, 11438.25
922.7730, 13427.23
923.8960, 12897.19
925.0180, 11264.11
926.1410, 11638.01
927.2630, 14894.88
928.3850, 17948.72
929.5070, 17588.54
930.6280, 14192.32
931.7500, 11274.08
932.8710, 9550.803
933.9920, 8392.497
935.1130, 7571.161
936.2340, 7798.794
937.3550, 10237.40
938.4760, 12568.98
939.5960, 11564.53
940.7160, 8404.062
941.8360, 5917.566
942.9560, 4925.047
944.0760, 5183.508
945.1950, 7037.949
946.3150, 10996.37
947.4340, 18473.77
948.5530, 26476.15
949.6720, 28203.53
950.7900, 21791.88
951.9090, 13803.22
953.0270, 7846.544
954.1460, 4901.860
955.2640, 3562.166
956.3820, 2590.461
957.4990, 2254.749
958.6170, 2045.031
959.7340, 2039.305
960.8520, 2065.576
961.9690, 2190.842
963.0860, 2225.107
964.2020, 2405.370
965.3190, 2391.993
966.4350, 2539.557
967.5520, 2409.550
968.6680, 2460.152
969.7840, 2091.110
970.8990, 1955.691
972.0150, 1720.955
973.1310, 1447.416
974.2460, 1177.955
975.3610, 898.3760
976.4760, 774.6323
977.5910, 538.3979
978.7050, 515.7715
979.8200, 327.5122
980.9340, 224.3242
982.0480, 231.9902
983.1620, 102.3613
984.2760, 27.74121
985.3900, 22.11328
986.5030, 31.47705
987.6160, 7.162109
988.7300, 60.18457
989.8430, 24.53906
990.9550, 47.10596
992.0680, 43.22559
993.1810, 33.56689
994.2930, 165.9160
995.4050, 125.2905
996.5170, 215.6914
997.6290, 215.1206
998.7410, 317.5669
999.8520, 437.5527
1000.964, 493.9668
1002.075, 527.4375
1003.186, 648.6133
1004.297, 720.6084
1005.407, 853.5928
1006.518, 897.2080
1007.628, 1012.145
1008.738, 1124.905
1009.848, 1278.146
1010.958, 1369.058
1012.068, 1652.279
1013.178, 1683.521
1014.287, 1729.691
1015.396, 2101.906
1016.505, 2076.074
1017.614, 2130.465
1018.723, 2404.365
1019.831, 2451.504
1020.940, 2472.475
1022.048, 2780.159
1023.156, 2828.933
1024.264, 3031.584
1025.372, 2958.460
1026.479, 3416.335
1027.587, 3525.302
1028.694, 3818.439
1029.801, 4058.682
1030.908, 4099.030
1032.015, 4256.487
1033.121, 4260.057
1034.228, 4208.739
1035.334, 4162.538
1036.440, 4428.455
1037.546, 4234.492
1038.652, 4284.651
1039.758, 4357.936
1040.863, 4128.342
1041.968, 4472.875
1043.074, 4336.535
1044.178, 4518.322
1045.283, 4595.238
1046.388, 4489.285
1047.492, 4632.461
1048.597, 4661.770
1049.701, 4786.213
1050.805, 4639.789
1051.909, 4504.502
1053.012, 4482.354
1054.116, 4295.343
1055.219, 4384.471
1056.322, 4160.742
1057.425, 4063.155
1058.528, 4004.712
1059.631, 3756.411
1060.733, 3690.256
1061.836, 3445.247
1062.938, 3324.386
1064.040, 3071.672
1065.142, 3047.105
1066.243, 2927.689
1067.345, 2841.425
1068.446, 2747.311
1069.547, 2309.350
1070.648, 2501.541
1071.749, 2204.887
1072.850, 2113.387
1073.951, 2089.045
1075.051, 1918.858
1076.151, 2030.830
1077.251, 1803.959
1078.351, 1737.249
1079.451, 1545.698
1080.550, 1367.309
1081.650, 1259.082
1082.749, 1017.018
1083.848, 894.1162
1084.947, 710.3789
1086.046, 591.8076
1087.144, 568.4023
1088.243, 612.1631
1089.341, 432.0918
1090.439, 346.1885
1091.537, 336.4531
1092.635, 234.8877
1093.732, 135.4932
1094.830, 65.26855
1095.927, 34.21582
1097.024, 92.66504
1098.121, 89.39062
1099.218, 273.9580
1100.314, 261.4053
1101.411, 238.7305
1102.507, 90.92676
1103.603, 386.9629
1104.699, 361.9082
1105.795, 486.7520
1106.890, 424.5312
1107.986, 357.2256
1109.081, 466.8184
1110.176, 259.3359
1111.271, 273.7266
1112.366, 153.9902
1113.461, 25.10156
1114.555, 50.96094
1115.649, 151.0420
1116.744, 54.48730
1117.838, 127.9785
1118.931, 189.0518
1120.025, 218.8711
1121.119, 542.2451
1122.212, 684.8008
1123.305, 917.7363
1124.398, 1261.360
1125.491, 1288.938
1126.584, 1519.985
1127.676, 1664.215
1128.768, 1699.627
1129.861, 1922.221
1130.953, 2051.999
1132.044, 2260.975
1133.136, 2475.163
1134.228, 2857.579
1135.319, 3056.248
1136.410, 3650.199
1137.501, 3891.444
1138.592, 4456.970
1139.683, 4798.797
1140.773, 5145.917
1141.864, 5573.360
1142.954, 6008.094
1144.044, 6220.129
1145.134, 6464.434
1146.224, 6558.009
1147.313, 6958.854
1148.402, 7156.999
1149.492, 7350.452
1150.581, 7253.249
1151.670, 7495.473
1152.758, 7416.156
1153.847, 7010.359
1154.935, 7088.152
1156.024, 6712.512
1157.112, 6388.496
1158.200, 6288.013
1159.287, 6382.061
1160.375, 6397.600
1161.462, 5906.656
1162.550, 6210.185
1163.637, 5902.193
1164.724, 5905.691
1165.810, 5644.651
1166.897, 5472.043
1167.983, 5619.816
1169.070, 5362.932
1170.156, 5239.326
1171.242, 4984.951
1172.327, 4874.788
1173.413, 4624.824
1174.499, 4348.061
1175.584, 4206.506
1176.669, 3784.163
1177.754, 3481.065
1178.839, 3246.221
1179.923, 2803.655
1181.008, 2644.376
1182.092, 2279.386
1183.176, 2081.673
1184.260, 1839.229
1185.344, 1654.046
1186.428, 1669.084
1187.511, 1275.326
1188.595, 1142.759
1189.678, 962.3740
1190.761, 1030.161
1191.843, 1125.116
1192.926, 804.2402
1194.009, 870.5312
1195.091, 455.9883
1196.173, 700.6133
1197.255, 670.4023
1198.337, 382.3584
1199.419, 465.4775
1200.500, 288.7656
1201.582, 275.2236
1202.663, 217.8555
1203.744, 349.6572
1204.825, 356.6289
1205.905, 424.7695
1206.986, 366.0742
1208.066, 273.5391
1209.146, 409.1631
1210.226, 413.9453
1211.306, 593.8867
1212.386, 577.9834
1213.466, 680.2393
1214.545, 756.6504
1215.624, 813.2168
1216.703, 925.9385
1217.782, 998.8145
1218.861, 875.8398
1219.939, 1197.013
1221.018, 1083.323
1222.096, 1219.767
1223.174, 1365.338
1224.252, 1274.028
1225.330, 1527.831
1226.407, 1519.742
1227.485, 1576.396
1228.562, 1737.213
1229.639, 1732.701
1230.716, 1772.678
1231.793, 1972.398
1232.869, 1941.592
1233.946, 1930.194
1235.022, 2080.689
1236.098, 2096.963
1237.174, 2218.899
1238.250, 2337.858
1239.325, 2471.091
1240.401, 2826.397
1241.476, 2856.119
1242.551, 3124.851
1243.626, 3410.807
1244.701, 3425.132
1245.776, 3930.524
1246.850, 4119.986
1247.924, 4370.515
1248.999, 4505.105
1250.073, 4768.762
1251.146, 5134.470
1252.220, 5260.229
1253.293, 5447.049
1254.367, 5803.912
1255.440, 5844.814
1256.513, 6056.747
1257.586, 6031.707
1258.658, 6096.688
1259.731, 6116.691
1260.803, 6125.715
1261.875, 6100.753
1262.947, 6202.805
1264.019, 6161.866
1265.091, 5923.933
1266.162, 5881.006
1267.234, 5919.078
