##NAMES=Fluorophlogopite
##RRUFFID=R040075
##IDEAL CHEMISTRY=KMg_3_(Si_3_Al)O_10_F_2_
##LOCALITY=unknown
##OWNER=RRUFF
##SOURCE=University of Arizona Mineral Museum
##DESCRIPTION=Green hexagonal tablet
##STATUS=The identification of this mineral has been confirmed by X-ray diffraction and chemical analysis
##URL=rruff.info/R040075
##MEASURED CHEMISTRY=(K_0.93_[box]_0.04_Na_0.03_)(Mg_0.66_Fe_0.30_Ti_0.02_)_3_(Si_0.75_Al_0.25_)_4_O_10_(F_0.90_(OH)_0.06_Cl_0.04_)
##PIN_ID=L00311
##ORIENTATION=Laser parallel to a [1 0 0]. Fiducial mark perpendicular to laser is parallel to b* (0 1 0)
138.413, 0.000
139.801, 2.635
141.189, 8.590
142.577, 188.320
143.964, 203.541
145.352, 322.598
146.739, 104.568
148.125, 188.633
149.512, 164.168
150.898, 261.236
152.284, 219.883
153.670, 199.494
155.056, 199.465
156.441, 320.109
157.827, 401.033
159.212, 612.201
160.596, 372.527
161.981, 486.172
163.365, 311.434
164.749, 606.957
166.133, 423.014
167.517, 617.377
168.900, 610.025
170.283, 880.232
171.666, 935.332
173.049, 1039.807
174.431, 1074.541
175.813, 1206.270
177.195, 1369.615
178.577, 1447.875
179.959, 1549.791
181.340, 1536.299
182.721, 1719.338
184.102, 1951.973
185.483, 1999.297
186.863, 1731.232
188.244, 1912.955
189.624, 1376.703
191.003, 1417.545
192.383, 1265.980
193.762, 1270.798
195.141, 1091.074
196.520, 1087.249
197.899, 888.932
199.277, 979.994
200.656, 763.769
202.034, 702.465
203.411, 422.437
204.789, 442.858
206.166, 478.953
207.543, 272.823
208.920, 205.854
210.297, 419.616
211.673, 204.441
213.049, 409.901
214.425, 434.708
215.801, 101.060
217.176, 288.728
218.552, 41.095
219.927, 302.486
221.302, 388.463
222.676, 181.290
224.051, 223.750
225.425, 179.215
226.799, 273.102
228.173, 113.492
229.546, 19.252
230.919, 62.860
232.292, 132.108
233.665, 62.415
235.038, 16.712
236.410, 20.825
237.782, 124.364
239.154, 170.365
240.526, 44.387
241.898, 78.388
243.269, 41.119
244.640, 33.809
246.011, 112.465
247.381, 9.277
248.752, 76.809
250.122, 185.578
251.492, 58.756
252.861, 172.650
254.231, 155.869
255.600, 87.963
256.969, 29.770
258.338, 91.969
259.707, 33.613
261.075, 165.203
262.443, 146.582
263.811, 207.850
265.179, 399.008
266.546, 160.588
267.914, 331.287
269.281, 291.787
270.647, 132.084
272.014, 442.795
273.380, 283.678
274.747, 423.445
276.113, 493.494
277.478, 504.461
278.844, 474.566
280.209, 444.697
281.574, 434.811
282.939, 363.777
284.304, 372.986
285.668, 353.992
287.032, 284.176
288.396, 354.695
289.760, 323.344
291.123, 283.336
292.487, 199.439
293.850, 183.660
295.212, 170.418
296.575, 135.629
297.937, 22.904
299.300, 62.723
300.662, 97.980
302.023, 270.277
303.385, 308.615
304.746, 435.457
306.107, 662.467
307.468, 525.193
308.829, 588.826
310.189, 346.096
311.549, 373.773
312.909, 380.428
314.269, 556.809
315.629, 453.020
316.988, 769.055
318.347, 555.305
319.706, 620.975
321.065, 446.496
322.423, 652.678
323.781, 447.777
325.139, 362.688
326.497, 467.393
327.855, 411.887
329.212, 356.168
330.569, 730.234
331.926, 404.092
333.283, 527.748
334.639, 541.215
335.995, 284.471
337.351, 397.518
338.707, 430.352
340.063, 292.988
341.418, 445.416
342.773, 547.621
344.128, 729.674
345.483, 712.730
346.837, 693.273
348.192, 584.623
349.546, 645.627
350.899, 396.434
352.253, 516.912
353.606, 707.186
354.960, 437.311
356.313, 857.164
357.665, 556.764
359.018, 576.258
360.370, 625.666
361.722, 384.918
363.074, 624.061
364.426, 243.125
365.777, 642.129
367.128, 460.264
368.479, 388.430
369.830, 616.707
371.181, 494.016
372.531, 630.754
373.881, 438.715
375.231, 525.414
376.581, 673.271
377.930, 501.207
379.280, 556.658
380.629, 623.904
381.977, 478.023
383.326, 545.182
384.674, 622.666
386.023, 678.902
387.370, 650.639
388.718, 621.654
390.066, 558.541
391.413, 433.738
392.760, 377.064
394.107, 621.631
395.454, 535.648
396.800, 500.174
398.146, 673.371
399.492, 606.730
400.838, 551.209
402.184, 607.062
403.529, 296.547
404.874, 311.268
406.219, 325.221
407.564, 428.973
408.908, 534.176
410.252, 285.855
411.596, 773.299
412.940, 259.107
414.284, 173.416
415.627, 569.070
416.970, 204.795
418.313, 359.609
419.656, 170.018
420.999, 244.789
422.341, 278.502
423.683, 334.000
425.025, 332.648
426.367, 325.162
427.708, 301.982
429.049, 177.744
430.390, 134.115
431.731, 40.277
433.072, 235.432
434.412, 202.195
435.752, 68.279
437.092, 375.064
438.432, 352.002
439.772, 38.975
441.111, 305.811
442.450, 67.490
443.789, 14.510
445.127, 88.191
446.466, 41.871
447.804, 35.656
449.142, 220.244
450.480, 83.402
451.817, 152.617
453.155, 238.459
454.492, 125.307
455.829, 20.057
457.166, 155.064
458.502, 200.072
459.838, 77.053
461.175, 183.213
462.510, 260.779
463.846, 225.852
465.181, 221.027
466.517, 316.684
467.852, 117.287
469.186, 71.449
470.521, 184.375
471.855, 49.305
473.190, 254.291
474.523, 319.256
475.857, 324.881
477.191, 520.055
478.524, 175.592
479.857, 541.084
481.190, 256.531
482.523, 51.494
483.855, 336.854
485.187, 371.729
486.519, 416.213
487.851, 291.094
489.183, 695.705
490.514, 650.049
491.845, 615.205
493.176, 729.701
494.507, 600.666
495.837, 709.693
497.168, 543.643
498.498, 358.051
499.828, 552.604
501.157, 666.619
502.487, 721.258
503.816, 626.408
505.145, 571.592
506.474, 936.822
507.802, 372.025
509.131, 707.217
510.459, 532.385
511.787, 766.920
513.115, 481.943
514.442, 777.053
515.770, 931.729
517.097, 676.836
518.424, 861.945
519.750, 857.080
521.077, 702.197
522.403, 866.701
523.729, 531.799
525.055, 885.703
526.381, 710.775
527.706, 805.582
529.031, 1030.098
530.356, 945.145
531.681, 920.098
533.006, 625.242
534.330, 940.082
535.654, 745.246
536.978, 620.402
538.302, 865.533
539.625, 800.678
540.949, 865.828
542.272, 830.918
543.595, 946.070
544.917, 1061.219
546.240, 816.363
547.562, 731.506
548.884, 616.646
550.206, 801.781
551.527, 696.809
552.849, 781.625
554.170, 746.818
555.491, 552.059
556.812, 637.305
558.132, 657.361
559.453, 557.836
560.773, 763.158
562.093, 548.482
563.412, 383.332
564.732, 638.264
566.051, 393.268
567.370, 688.631
568.689, 384.035
570.008, 519.031
571.326, 664.484
572.644, 459.449
573.963, 314.076
575.280, 99.531
576.598, 136.152
577.915, 299.732
579.233, 174.418
580.550, 409.428
581.866, 294.602
583.183, 400.014
584.499, 535.430
585.815, 110.820
587.131, 66.115
588.447, 140.895
589.763, 315.492
591.078, 349.701
592.393, 184.736
593.708, 249.631
595.022, 113.973
596.337, 479.410
597.651, 224.840
598.965, 299.057
600.279, 514.389
601.593, 135.199
602.906, 268.068
604.219, 166.973
605.532, 388.812
606.845, 341.066
608.158, 85.973
609.470, 545.295
610.782, 579.924
612.094, 15.082
613.406, 381.684
614.718, 224.832
616.029, 89.488
617.340, 401.674
618.651, 211.635
619.962, 574.984
621.272, 170.148
622.582, 865.178
623.892, 470.191
625.202, 525.510
626.512, 663.215
627.821, 203.840
629.131, 388.730
630.440, 523.062
631.749, 218.266
633.057, 543.572
634.366, 448.879
635.674, 634.188
636.982, 689.092
638.290, 844.396
639.597, 699.656
640.905, 574.068
642.212, 599.367
643.519, 593.330
644.825, 589.975
646.132, 785.473
647.438, 1010.873
648.744, 1231.268
650.050, 1026.754
651.356, 1012.061
652.662, 1357.367
653.967, 873.486
655.272, 1501.195
656.577, 995.041
657.882, 1355.652
659.186, 1842.787
660.490, 1473.748
661.794, 2021.471
663.098, 2063.508
664.402, 2458.809
665.705, 2636.584
667.009, 2733.322
668.312, 2927.156
669.614, 2962.789
670.917, 3088.066
672.219, 3265.340
673.522, 3586.092
674.824, 3805.357
676.125, 3480.045
677.427, 3755.389
678.728, 3361.291
680.030, 2987.961
681.331, 3243.191
682.631, 2739.035
683.932, 2364.256
685.232, 2751.234
686.532, 2026.475
687.832, 2831.678
689.132, 2323.004
690.432, 2258.639
691.731, 2770.562
693.030, 1925.947
694.329, 1931.109
695.628, 2116.262
696.926, 2024.250
698.224, 2119.715
699.522, 2155.387
700.820, 2241.316
702.118, 2666.424
703.415, 2671.824
704.713, 2637.283
706.010, 2422.760
707.307, 2510.648
708.603, 2482.887
709.900, 2738.254
711.196, 2823.297
712.492, 3328.656
713.788, 3390.020
715.083, 3680.979
716.379, 3466.311
717.674, 3661.363
718.969, 3186.342
720.264, 3131.312
721.558, 2786.273
722.853, 2741.225
724.147, 3066.166
725.441, 2031.092
726.735, 2746.010
728.028, 2430.918
729.322, 2476.553
730.615, 2531.441
731.908, 1996.090
733.201, 2130.885
734.493, 1975.738
735.785, 2120.586
737.078, 1975.424
738.370, 1740.252
739.661, 2115.066
740.953, 2149.871
742.244, 1704.736
743.535, 2149.172
744.826, 1723.914
746.117, 1998.676
747.407, 1713.430
748.698, 1498.174
749.988, 1862.908
751.278, 1617.506
752.567, 2082.219
753.857, 1916.922
755.146, 1881.615
756.435, 2156.297
757.724, 2154.639
759.013, 2209.332
760.301, 1614.037
761.590, 1738.750
762.878, 1963.465
764.165, 1657.996
765.453, 2072.715
766.741, 1987.426
768.028, 1571.324
769.315, 2246.051
770.602, 1760.771
771.888, 2035.391
773.175, 1840.146
774.461, 1564.916
775.747, 1439.727
777.033, 1224.523
778.319, 1299.311
779.604, 1344.086
780.889, 1168.848
782.174, 1393.629
783.459, 1408.424
784.744, 763.203
786.028, 837.979
787.312, 752.740
788.596, 737.488
789.880, 532.223
791.164, 786.945
792.447, 931.656
793.730, 486.354
795.013, 851.039
796.296, 585.715
797.579, 530.377
798.861, 765.027
800.143, 179.664
801.425, 204.285
802.707, 50.340
803.989, 185.072
805.270, 301.512
806.551, 305.373
807.832, 140.523
809.113, 5.787
810.394, 103.793
811.674, 211.418
812.954, 4.834
814.234, 376.016
815.514, 165.172
816.794, 234.008
818.073, 319.600
819.352, 6.807
820.631, 436.748
821.910, 250.289
823.189, 143.846
824.467, 437.385
825.745, 0.908
827.023, 55.600
828.301, 32.172
829.578, 118.795
830.856, 204.484
832.133, 67.748
833.410, 10.996
834.687, 314.215
835.963, 77.420
837.240, 500.627
838.516, 3.818
839.792, 216.980
841.068, 410.129
842.343, 386.734
843.618, 116.166
844.894, 78.391
846.169, 170.133
847.443, 311.041
848.718, 350.168
849.992, 17.387
851.266, 140.143
852.540, 87.332
853.814, 25.750
855.088, 257.154
856.361, 143.941
857.634, 126.625
858.907, 119.295
860.180, 521.951
861.453, 504.596
862.725, 137.230
863.997, 639.867
865.269, 132.496
866.541, 245.113
867.812, 12.277
869.084, 130.297
870.355, 192.859
871.626, 385.410
872.897, 487.951
874.167, 490.494
875.438, 443.029
876.708, 575.557
877.978, 218.092
879.248, 340.619
880.517, 363.143
881.787, 25.658
883.056, 298.156
884.325, 340.645
885.594, 213.127
886.862, 665.594
888.130, 368.059
889.399, 770.514
890.667, 552.963
891.934, 405.404
893.202, 597.836
894.469, 140.262
895.737, 542.680
897.004, 665.086
898.270, 407.484
899.537, 819.877
900.803, 662.260
902.070, 644.631
903.336, 996.992
904.601, 679.359
905.867, 721.719
907.132, 354.066
908.398, 726.412
909.663, 648.744
910.928, 641.098
912.192, 823.443
913.457, 475.777
914.721, 358.463
915.985, 596.248
917.249, 747.824
918.512, 817.805
919.776, 561.945
921.039, 726.828
922.302, 761.957
923.565, 374.242
924.827, 1036.520
926.090, 678.789
927.352, 821.043
928.614, 1033.287
929.876, 1185.521
931.138, 687.744
932.399, 779.959
933.660, 612.164
934.922, 544.363
936.182, 696.551
937.443, 598.725
938.704, 750.891
939.964, 813.043
941.224, 685.188
942.484, 837.316
943.744, 619.439
945.003, 911.549
946.262, 613.646
947.521, 615.732
948.780, 727.820
950.039, 569.896
951.298, 761.961
952.556, 583.816
953.814, 735.764
955.072, 1122.709
956.330, 604.551
957.587, 1136.561
958.845, 708.562
960.102, 399.744
961.359, 384.684
962.615, 278.123
963.872, 325.309
965.128, 345.447
966.384, 329.869
967.640, 841.279
968.896, 406.480
970.152, 478.410
971.407, 578.164
972.662, 180.086
973.917, 588.094
975.172, 399.648
976.427, 91.559
977.681, 531.711
978.935, 218.123
980.189, 776.008
981.443, 618.461
982.697, 520.254
983.950, 761.877
985.203, 412.324
986.456, 344.900
987.709, 510.021
988.962, 271.984
990.214, 432.623
991.467, 494.586
992.719, 656.623
993.971, 712.518
995.222, 714.598
996.474, 780.160
997.725, 671.996
998.976, 404.270
1000.227, 348.725
1001.478, 158.777
1002.728, 10.723
1003.978, 503.141
1005.229, 404.586
1006.479, 606.863
1007.728, 470.584
1008.978, 732.486
1010.227, 644.799
1011.476, 377.129
1012.725, 369.398
1013.974, 485.520
1015.223, 108.262
1016.471, 490.449
1017.719, 443.551
1018.967, 473.566
1020.215, 965.975
1021.462, 628.227
1022.710, 540.549
1023.957, 735.713
1025.204, 448.859
1026.451, 911.545
1027.697, 368.410
1028.944, 431.299
1030.190, 435.002
1031.436, 317.707
1032.682, 669.381
1033.928, 942.240
1035.173, 654.646
1036.418, 1007.049
1037.663, 550.275
1038.908, 662.666
1040.153, 626.178
1041.398, 169.355
1042.642, 931.730
1043.886, 494.670
1045.130, 667.289
1046.374, 1149.676
1047.617, 832.607
1048.860, 994.982
1050.104, 717.867
1051.347, 630.225
1052.589, 982.578
1053.832, 317.465
1055.074, 749.801
1056.316, 582.711
1057.558, 416.205
1058.800, 848.520
1060.042, 630.824
1061.283, 793.121
1062.524, 825.408
1063.765, 517.689
1065.006, 889.959
1066.247, 572.219
1067.487, 420.395
1068.728, 532.635
1069.968, 444.865
1071.208, 697.695
1072.447, 899.906
1073.687, 652.109
1074.926, 994.305
1076.165, 846.484
1077.404, 848.660
1078.643, 980.820
1079.881, 553.006
1081.120, 715.938
1082.358, 698.066
1083.596, 861.371
1084.834, 1033.477
1086.071, 755.570
1087.309, 677.654
1088.546, 1169.727
1089.783, 551.789
1091.020, 853.840
1092.256, 505.875
1093.493, 547.900
1094.729, 579.914
1095.965, 161.914
1097.201, 456.240
1098.436, 448.217
1099.672, 530.184
1100.907, 882.281
1102.142, 954.223
1103.377, 326.154
1104.612, 768.096
1105.846, 250.023
1107.081, 212.512
1108.315, 484.705
1109.549, 133.268
1110.782, 338.977
1112.016, 0.889
1113.249, 243.646
1114.483, 745.607
1115.716, 307.658
1116.948, 439.953
1118.181, 252.102
1119.413, 54.234
1120.646, 206.891
1121.878, 141.002
1123.110, 321.641
1124.341, 304.531
1125.573, 76.707
1126.804, 338.701
1128.035, 161.111
1129.266, 233.113
1130.497, 635.699
1131.727, 47.707
1132.957, 210.943
1134.188, 5.488
1135.418, 91.816
1136.647, 248.816
1137.877, 79.006
1139.106, 182.369
1140.335, 364.229
1141.564, 366.047
1142.793, 478.164
1144.022, 16.301
1145.250, 329.316
1146.479, 153.918
1147.707, 48.844
1148.934, 14.471
1150.162, 231.486
1151.390, 80.369
1152.617, 293.477
1153.844, 549.842
1155.071, 18.430
1156.298, 694.322
1157.524, 156.188
1158.751, 247.764
1159.977, 281.402
1161.203, 57.076
1162.428, 155.012
1163.654, 225.410
1164.879, 86.934
1166.105, 470.939
1167.330, 187.791
1168.555, 429.098
1169.779, 441.904
1171.004, 26.848
1172.228, 94.344
1173.452, 206.605
1174.676, 52.275
1175.900, 159.551
1177.123, 21.525
1178.346, 242.490
1179.570, 493.211
1180.793, 225.107
1182.015, 595.973
1183.238, 627.506
1184.460, 138.305
1185.683, 669.064
1186.905, 71.047
1188.126, 151.729
1189.348, 432.812
1190.569, 219.549
1191.791, 240.648
1193.012, 702.438
1194.233, 223.010
1195.453, 733.469
1196.674, 234.639
1197.894, 575.025
1199.114, 515.377
1200.334, 5.693
1201.554, 485.951
1202.774, 226.170
1203.993, 87.160
1205.212, 717.299
1206.431, 427.844
1207.650, 597.910
1208.869, 1067.971
1210.087, 588.205
1211.305, 588.193
1212.524, 738.146
1213.741, 41.936
1214.959, 447.896
1216.177, 487.695
1217.394, 237.459
1218.611, 867.182
1219.828, 507.748
1221.045, 547.426
1222.261, 917.045
1223.478, 436.871
1224.694, 696.420
1225.910, 385.943
1227.126, 205.430
1228.342, 874.865
1229.557, 114.273
1230.772, 723.648
1231.987, 573.002
1233.202, 452.592
1234.417, 771.893
1235.631, 691.172
1236.846, 660.416
1238.060, 979.635
1239.274, 608.826
1240.488, 787.994
1241.701, 457.131
1242.915, 36.502
1244.128, 535.572
1245.341, 454.613
1246.554, 383.748
1247.767, 722.734
1248.979, 821.695
1250.191, 510.619
1251.403, 1009.516
1252.615, 288.383
1253.827, 357.213
1255.039, 405.947
1256.250, 339.215
1257.461, 707.734
1258.672, 235.699
1259.883, 785.475
1261.094, 673.811
1262.304, 381.912
1263.514, 619.928
1264.724, 717.881
1265.934, 305.477
1267.144, 593.336
1268.354, 285.059
1269.563, 222.783
1270.772, 390.418
1271.981, 517.754
1273.190, 335.789
1274.398, 513.295
1275.607, 300.623
1276.815, 677.848
1278.023, 144.617
1279.231, 128.258
1280.439, 258.123
1281.646, 68.709
1282.853, 61.789
1284.060, 114.568
1285.267, 88.723
1286.474, 448.615
1287.681, 385.199
1288.887, 28.268
1290.093, 167.436
1291.299, 3.848
1292.505, 9.988
1293.711, 113.900
1294.916, 490.680
1296.121, 44.684
1297.327, 130.566
1298.531, 3.527
1299.736, 422.906
1300.941, 166.949
1302.145, 372.693
1303.349, 687.947
1304.553, 63.529
1305.757, 459.115
1306.961, 280.486
1308.164, 74.506
1309.367, 400.672
1310.570, 35.209
1311.773, 19.512
1312.976, 905.273
1314.178, 110.422
1315.381, 575.510
1316.583, 607.684
1317.785, 161.822
1318.987, 596.375
1320.188, 236.695
1321.390, 269.055
1322.591, 554.332
1323.792, 91.340
1324.993, 183.236
1326.193, 857.322
1327.394, 251.822
1328.594, 526.283
1329.794, 719.863
1330.994, 134.244
1332.194, 447.455
1333.394, 310.967
1334.593, 34.764
1335.792, 288.908
1336.991, 132.613
1338.190, 396.742
1339.389, 840.654
1340.587, 234.729
1341.786, 998.256
1342.984, 832.270
1344.182, 416.264
1345.379, 857.693
1346.577, 511.645
1347.774, 214.998
1348.972, 707.748
1350.169, 301.652
1351.365, 525.547
1352.562, 885.215
1353.759, 359.100
1354.955, 1122.980
1356.151, 656.855
1357.347, 620.734
1358.543, 898.703
1359.738, 502.611
1360.934, 546.545
1362.129, 999.896
1363.324, 193.498
1364.519, 397.084
1365.713, 501.121
1366.908, 344.633
1368.102, 1038.105
1369.296, 713.646
1370.490, 706.961
1371.684, 907.320
1372.877, 602.531
1374.071, 508.875
1375.264, 595.162
1376.457, 341.395
1377.650, 737.574
1378.843, 1143.699
1380.035, 697.283
1381.227, 1623.117
1382.419, 859.047
1383.611, 1034.920
1384.803, 1179.785
1385.995, 345.064
1387.186, 619.912
1388.377, 755.590
1389.568, 380.982
1390.759, 965.943
1391.950, 840.793
1393.140, 635.105
1394.331, 1230.105
1395.521, 944.865
1396.711, 878.738
1397.900, 957.758
1399.090, 381.824
1400.279, 702.334
1401.469, 646.801
1402.658, 92.066
1403.847, 896.107
1405.035, 432.531
1406.224, 375.004
1407.412, 1232.402
1408.600, 604.141
1409.788, 724.816
1410.976, 837.428
1412.164, 458.152
1413.351, 319.877
1414.538, 490.777
1415.725, 173.807
1416.912, 465.191
1418.099, 475.924
1419.285, 503.791
1420.472, 994.621
1421.658, 555.809
1422.844, 696.051
1424.030, 817.492
1425.215, 218.895
1426.401, 299.396
1427.586, 759.186
1428.771, 60.906
1429.956, 542.578
1431.141, 792.814
1432.325, 537.143
1433.510, 814.072
1434.694, 605.953
1435.878, 647.164
1437.062, 1008.383
1438.245, 529.514
1439.429, 448.840
1440.612, 669.297
1441.795, 70.096
1442.978, 740.807
1444.161, 681.389
1445.343, 371.225
1446.526, 1011.383
1447.708, 481.371
1448.890, 651.133
1450.072, 1220.105
1451.253, 659.430
1452.435, 428.238
1453.616, 767.086
1454.797, 415.684
1455.978, 524.211
1457.159, 743.211
1458.340, 338.762
1459.520, 1038.375
1460.700, 888.672
1461.880, 778.965
1463.060, 1169.309
1464.240, 649.984
1465.420, 839.156
1466.599, 1000.637
1467.778, 212.312
1468.957, 674.031
1470.136, 745.832
1471.315, 455.527
1472.493, 817.586
1473.671, 969.707
1474.849, 541.879
1476.027, 1354.098
1477.205, 496.445
1478.383, 656.484
1479.560, 948.973
1480.737, 81.625
1481.914, 814.492
1483.091, 447.641
1484.268, 231.129
1485.444, 865.004
1486.621, 779.434
1487.797, 624.230
1488.973, 1049.426
1490.149, 745.090
1491.324, 861.145
1492.500, 967.688
1493.675, 85.223
1494.850, 682.430
1496.025, 400.801
1497.200, 413.133
1498.374, 730.758
1499.548, 937.488
1500.723, 629.312
1501.897, 1382.293
1503.071, 506.590
1504.244, 570.285
1505.418, 1143.945
1506.591, 114.895
1507.764, 299.957
1508.937, 926.012
1510.110, 2.043
1511.282, 733.359
1512.455, 0.000
##END=



