##NAMES=Fluorapatite
##RRUFFID=R060421
##IDEAL CHEMISTRY=Ca_5_(PO_4_)_3_F
##LOCALITY=Levant mine, St. Just, Cornwall, England
##OWNER=RRUFF
##SOURCE=Michael Scott
##DESCRIPTION=Brown hexagonal prisms
##STATUS=The identification of this mineral has been confirmed by X-ray diffraction and chemical analysis
##URL=rruff.info/R060421
##MEASURED CHEMISTRY=(Ca_4.93_[box]_0.07_)_Σ=5_((PO_4_)_2.86_(CO_3_)_0.14_)_Σ=3_F_1.00_ ; C not measured but estimated by difference and charge balance
##PIN_ID=M00074
##ORIENTATION=Laser parallel to a* (1 0 0). Fiducial mark perpendicular to laser is parallel to -c [0 0 -1]
127.9790, 0.0000000E+00
129.2090, 62.04248
130.4390, 2.847656
131.6680, 31.50635
132.8980, 1.305420
134.1270, 49.90405
135.3560, 56.04761
136.5850, 28.60449
137.8140, 77.68994
139.0430, 27.98169
140.2710, 25.44629
141.5000, 30.06787
142.7280, 51.83887
143.9560, 2.756836
145.1840, 31.79150
146.4120, 26.97412
147.6390, 0.2285160
148.8670, 69.98145
150.0940, 23.27051
151.3210, 66.63184
152.5490, 60.06543
153.7750, 13.57935
155.0020, 39.17554
156.2290, 37.90259
157.4550, 21.59448
158.6810, 16.59399
159.9080, 25.44409
161.1340, 42.32642
162.3590, 21.22437
163.5850, 29.15210
164.8110, 7.881348
166.0360, 70.11279
167.2610, 5.908691
168.4860, 89.07251
169.7110, 41.08032
170.9360, 62.11743
172.1610, 39.15796
173.3850, 29.22192
174.6100, 72.38843
175.8340, 14.57739
177.0580, 28.74463
178.2820, 80.33813
179.5050, 100.4763
180.7290, 38.90869
181.9520, 47.93872
183.1760, 6.155273
184.3990, 93.40210
185.6220, 106.5378
186.8450, 59.57617
188.0670, 134.4744
189.2900, 4.864990
190.5120, 75.61450
191.7340, 82.54199
192.9560, 69.68872
194.1780, 79.87598
195.4000, 82.11548
196.6220, 77.47119
197.8430, 92.66602
199.0640, 94.28833
200.2860, 125.8694
201.5070, 119.2695
202.7270, 120.7505
203.9480, 154.2305
205.1690, 133.7214
206.3890, 129.4792
207.6090, 194.4924
208.8290, 130.0278
210.0490, 140.4495
211.2690, 146.0532
212.4890, 53.62549
213.7080, 121.1682
214.9280, 115.3796
216.1470, 140.0391
217.3660, 124.0071
218.5850, 107.5066
219.8030, 115.5229
221.0220, 84.07300
222.2400, 139.7371
223.4590, 90.35229
224.6770, 119.0957
225.8950, 98.22607
227.1120, 39.77832
228.3300, 135.6611
229.5480, 161.5669
230.7650, 100.8350
231.9820, 113.0452
233.1990, 55.06592
234.4160, 0.9426270
235.6330, 140.4082
236.8490, 84.16040
238.0660, 79.82812
239.2820, 125.4077
240.4980, 72.63794
241.7140, 84.17236
242.9300, 125.0979
244.1460, 98.03174
245.3610, 111.2083
246.5770, 67.83032
247.7920, 58.38745
249.0070, 72.18896
250.2220, 103.7952
251.4370, 12.79395
252.6510, 24.47412
253.8660, 29.12598
255.0800, 90.07568
256.2940, 111.8000
257.5080, 90.69360
258.7220, 96.50757
259.9360, 101.8491
261.1490, 101.7083
262.3630, 128.1587
263.5760, 83.98120
264.7890, 55.31372
266.0020, 71.96997
267.2150, 123.5574
268.4270, 90.53052
269.6400, 67.48633
270.8520, 71.14282
272.0640, 58.22607
273.2760, 58.63184
274.4880, 101.5659
275.7000, 50.40674
276.9120, 97.27930
278.1230, 64.96021
279.3340, 79.75244
280.5450, 104.6941
281.7560, 161.1924
282.9670, 141.0818
284.1780, 89.67847
285.3880, 112.2952
286.5980, 82.69214
287.8090, 51.14917
289.0190, 70.31006
290.2290, 94.11597
291.4380, 37.77393
292.6480, 64.96021
293.8570, 39.26685
295.0670, 0.6208500
296.2760, 103.8975
297.4850, 75.26099
298.6930, 24.26880
299.9020, 37.32373
301.1110, 102.8733
302.3190, 80.77002
303.5270, 133.6418
304.7350, 27.50000
305.9430, 0.2062990
307.1510, 46.85059
308.3580, 29.40454
309.5660, 24.20581
310.7730, 10.90308
311.9800, 13.01514
313.1870, 50.18799
314.3940, 3.725586
315.6010, 62.50903
316.8070, 91.64600
318.0130, 83.45386
319.2200, 63.87891
320.4260, 83.97852
321.6310, 17.15381
322.8370, 61.80371
324.0430, 98.88086
325.2480, 5.055664
326.4540, 70.81592
327.6590, 41.68726
328.8640, 83.11816
330.0680, 18.88379
331.2730, 102.3464
332.4780, 105.4067
333.6820, 76.75293
334.8860, 133.0010
336.0900, 8.232910
337.2940, 74.03198
338.4980, 59.23730
339.7010, 31.06958
340.9050, 88.69385
342.1080, 67.53247
343.3110, 65.68555
344.5140, 28.16504
345.7170, 50.29639
346.9200, 53.50391
348.1220, 49.27686
349.3240, 60.26123
350.5270, 67.22803
351.7290, 96.39941
352.9310, 57.79688
354.1320, 45.97363
355.3340, 104.6885
356.5350, 23.33594
357.7370, 53.31250
358.9380, 126.6475
360.1390, 35.67090
361.3400, 97.21826
362.5400, 71.36133
363.7410, 7.025879
364.9410, 96.06592
366.1410, 126.8784
367.3410, 67.39795
368.5410, 100.0811
369.7410, 87.49365
370.9400, 106.9233
372.1400, 50.21973
373.3390, 73.67480
374.5380, 76.72217
375.7370, 84.71143
376.9360, 80.81348
378.1350, 80.62061
379.3330, 39.67676
380.5310, 78.10400
381.7300, 96.53955
382.9280, 41.83154
384.1260, 24.89404
385.3230, 77.05908
386.5210, 169.0088
387.7180, 97.93750
388.9160, 138.5464
390.1130, 29.61670
391.3100, 96.38623
392.5060, 112.3110
393.7030, 57.83545
394.9000, 40.45850
396.0960, 74.06836
397.2920, 100.6597
398.4880, 76.16650
399.6840, 179.6182
400.8800, 44.19189
402.0750, 137.4526
403.2710, 38.63721
404.4660, 1.678223
405.6610, 176.2773
406.8560, 77.23975
408.0510, 78.79883
409.2450, 149.8628
410.4400, 27.70947
411.6340, 65.30664
412.8280, 45.16504
414.0220, 121.3105
415.2160, 80.95605
416.4100, 20.57129
417.6030, 106.1401
418.7970, 131.0688
419.9900, 12.73828
421.1830, 160.0845
422.3760, 126.3174
423.5690, 82.35303
424.7610, 179.7690
425.9540, 93.96680
427.1460, 119.7925
428.3380, 121.0308
429.5300, 162.4609
430.7220, 136.4048
431.9140, 195.1392
433.1050, 50.94775
434.2970, 62.13135
435.4880, 14.08350
436.6790, 106.6880
437.8700, 82.68896
439.0610, 86.81836
440.2510, 62.57910
441.4420, 122.9619
442.6320, 97.45312
443.8220, 22.28320
445.0120, 105.3350
446.2020, 96.10986
447.3910, 83.98975
448.5810, 104.3096
449.7700, 102.9702
450.9600, 108.5308
452.1490, 131.5117
453.3370, 146.8970
454.5260, 173.6797
455.7150, 96.41895
456.9030, 133.1333
458.0910, 80.20850
459.2800, 28.05713
460.4670, 148.3486
461.6550, 26.60742
462.8430, 56.66406
464.0300, 38.68945
465.2180, 5.316406
466.4050, 32.00488
467.5920, 36.27100
468.7790, 37.50244
469.9650, 27.83447
471.1520, 0.9257810
472.3380, 21.81104
473.5250, 18.18652
474.7110, 2.770020
475.8970, 42.61475
477.0820, 38.22314
478.2680, 35.94971
479.4540, 63.01709
480.6390, 19.17090
481.8240, 53.17920
483.0090, 17.04541
484.1940, 31.83252
485.3780, 21.50537
486.5630, 17.05322
487.7470, 31.56201
488.9320, 65.65674
490.1160, 2.777344
491.3000, 18.24072
492.4830, 61.65137
493.6670, 8.539063
494.8500, 29.73535
496.0340, 7.764160
497.2170, 48.09766
498.4000, 8.565918
499.5820, 30.51807
500.7650, 56.54492
501.9480, 35.23145
503.1300, 9.443359
504.3120, 45.28711
505.4940, 2.087402
506.6760, 25.10596
507.8580, 89.38916
509.0390, 83.06152
510.2210, 38.15869
511.4020, 63.28418
512.5830, 58.74854
513.7640, 60.85352
514.9450, 17.62549
516.1250, 56.11816
517.3060, 49.52002
518.4860, 15.14893
519.6660, 93.95459
520.8460, 23.94092
522.0260, 85.67725
523.2060, 54.45508
524.3850, 58.20801
525.5650, 99.53564
526.7440, 31.39551
527.9230, 64.95020
529.1020, 55.58105
530.2810, 9.814941
531.4590, 103.1157
532.6380, 11.70117
533.8160, 145.6274
534.9940, 16.52637
536.1720, 53.94434
537.3500, 95.29297
538.5270, 84.70215
539.7050, 83.12793
540.8820, 129.9580
542.0590, 95.92773
543.2360, 121.7227
544.4130, 119.6670
545.5900, 24.50000
546.7660, 122.5918
547.9430, 120.6729
549.1190, 146.2480
550.2950, 2.740234
551.4710, 23.43555
552.6470, 93.31543
553.8220, 2.439453
554.9980, 92.30176
556.1730, 188.5107
557.3480, 156.4658
558.5230, 139.7793
559.6980, 69.66699
560.8730, 53.57324
562.0470, 147.3447
563.2220, 115.2080
564.3960, 149.8428
565.5700, 56.20898
566.7440, 137.8916
567.9170, 179.1328
569.0910, 240.3984
570.2640, 189.5928
571.4380, 248.8809
572.6110, 239.9814
573.7840, 214.2529
574.9570, 358.7510
576.1290, 329.2705
577.3020, 170.1289
578.4740, 260.7295
579.6460, 459.1543
580.8180, 326.5264
581.9900, 359.6846
583.1620, 255.0693
584.3330, 432.2783
585.5040, 380.8662
586.6760, 484.9766
587.8470, 418.9873
589.0180, 510.8799
590.1880, 394.7930
591.3590, 471.6367
592.5290, 536.4414
593.7000, 435.2822
594.8700, 431.1436
596.0400, 485.0479
597.2090, 369.5928
598.3790, 486.2236
599.5490, 321.5713
600.7180, 412.8828
601.8870, 480.3916
603.0560, 395.1494
604.2250, 475.2930
605.3940, 554.0430
606.5620, 445.1846
607.7300, 498.7656
608.8990, 517.2246
610.0670, 488.7393
611.2350, 548.1113
612.4020, 488.7764
613.5700, 464.9814
614.7370, 438.3535
615.9050, 431.9961
617.0720, 413.2139
618.2390, 610.3408
619.4060, 533.4102
620.5720, 602.7715
621.7390, 475.5879
622.9050, 552.6387
624.0710, 454.7656
625.2370, 470.5410
626.4030, 479.1992
627.5690, 339.7861
628.7340, 539.9385
629.9000, 367.8926
631.0650, 396.1699
632.2300, 493.0977
633.3950, 388.9219
634.5600, 403.4424
635.7240, 448.6426
636.8890, 510.1182
638.0530, 431.7422
639.2170, 574.9609
640.3810, 456.6719
641.5450, 389.2969
642.7080, 439.0986
643.8720, 461.2764
645.0350, 426.7178
646.1980, 555.6094
647.3610, 541.5137
648.5240, 462.9131
649.6870, 579.7402
650.8490, 569.0508
652.0120, 651.5166
653.1740, 581.3652
654.3360, 616.1523
655.4980, 410.1592
656.6600, 500.0664
657.8210, 574.2832
658.9830, 448.2910
660.1440, 643.3271
661.3050, 516.7402
662.4660, 608.1973
663.6270, 601.5977
664.7870, 541.8135
665.9480, 569.5752
667.1080, 592.0439
668.2680, 434.5273
669.4280, 566.7500
670.5880, 470.6055
671.7480, 438.8848
672.9070, 533.1943
674.0670, 600.7314
675.2260, 603.6309
676.3850, 376.9375
677.5440, 518.5771
678.7030, 446.6846
679.8610, 489.2969
681.0200, 679.6562
682.1780, 567.2285
683.3360, 521.9014
684.4940, 597.8730
685.6520, 526.5518
686.8090, 616.0166
687.9670, 468.1709
689.1240, 721.1943
690.2810, 644.9873
691.4380, 593.1865
692.5950, 643.9238
693.7520, 597.7578
694.9080, 620.7910
696.0650, 659.8438
697.2210, 504.8369
698.3770, 694.0352
699.5330, 629.2197
700.6880, 533.6826
701.8440, 611.4160
702.9990, 550.8164
704.1550, 556.3008
705.3100, 654.2754
706.4650, 489.3926
707.6190, 544.1875
708.7740, 532.6572
709.9290, 678.9736
711.0830, 605.1846
712.2370, 548.6172
713.3910, 495.5000
714.5450, 648.3057
715.6980, 531.8184
716.8520, 581.2734
718.0050, 665.8135
719.1580, 561.2441
720.3110, 517.0039
721.4640, 641.4727
722.6170, 651.9941
723.7700, 564.4727
724.9220, 570.9141
726.0740, 449.5039
727.2260, 710.2783
728.3780, 643.6553
729.5300, 623.8643
730.6810, 442.7285
731.8330, 695.9873
732.9840, 632.7373
734.1350, 664.9307
735.2860, 639.2363
736.4370, 638.9014
737.5880, 631.4727
738.7380, 440.8750
739.8880, 519.6855
741.0390, 546.9033
742.1890, 316.4980
743.3380, 613.2148
744.4880, 505.2314
745.6380, 622.5293
746.7870, 616.7949
747.9360, 585.3076
749.0850, 568.6670
750.2340, 501.5518
751.3830, 539.9541
752.5310, 580.3408
753.6800, 504.7803
754.8280, 539.1494
755.9760, 507.8740
757.1240, 586.4990
758.2720, 386.7812
759.4190, 509.6865
760.5670, 532.8271
761.7140, 453.7656
762.8610, 669.9258
764.0080, 528.5508
765.1550, 479.9678
766.3020, 513.5039
767.4480, 611.2930
768.5950, 643.7578
769.7410, 541.7998
770.8870, 475.6650
772.0330, 532.0430
773.1780, 435.3691
774.3240, 377.7266
775.4690, 537.0703
776.6140, 546.3340
777.7590, 370.4160
778.9040, 438.1504
780.0490, 682.7246
781.1940, 493.8145
782.3380, 562.7422
783.4820, 522.3965
784.6260, 314.3691
785.7700, 549.6543
786.9140, 420.3574
788.0580, 596.0020
789.2010, 613.7969
790.3450, 360.7910
791.4880, 336.9648
792.6310, 618.4336
793.7730, 352.4082
794.9160, 636.1230
796.0590, 587.1758
797.2010, 526.1113
798.3430, 536.2129
799.4850, 458.4375
800.6270, 429.6914
801.7690, 467.0020
802.9100, 371.6992
804.0520, 360.4238
805.1930, 382.9609
806.3340, 428.2148
807.4750, 423.1934
808.6160, 442.3203
809.7560, 300.5039
810.8970, 400.7266
812.0370, 386.7441
813.1770, 260.4102
814.3170, 298.1562
815.4570, 403.0996
816.5960, 542.9727
817.7360, 136.7734
818.8750, 555.4941
820.0140, 259.1465
821.1530, 173.7207
822.2920, 330.2129
823.4310, 278.6367
824.5690, 338.9844
825.7070, 384.2598
826.8460, 252.4551
827.9840, 424.5781
829.1220, 365.6289
830.2590, 209.6074
831.3970, 271.5078
832.5340, 351.3301
833.6710, 322.0742
834.8080, 245.7441
835.9450, 167.3359
837.0820, 311.8438
838.2190, 43.27734
839.3550, 367.1992
840.4910, 369.4629
841.6270, 386.7188
842.7630, 187.4746
843.8990, 294.5117
845.0350, 182.8164
846.1700, 156.8008
847.3060, 229.5879
848.4410, 155.5195
849.5760, 249.3086
850.7100, 162.1172
851.8450, 190.9219
852.9800, 274.4512
854.1140, 332.7617
855.2480, 246.9727
856.3820, 113.1016
857.5160, 174.1406
858.6500, 95.09375
859.7830, 64.95703
860.9170, 165.7266
862.0500, 52.40820
863.1830, 108.9941
864.3160, 159.4902
865.4480, 185.8984
866.5810, 84.67969
867.7130, 54.91016
868.8460, 31.04492
869.9780, 378.0801
871.1100, 20.96484
872.2410, 214.8652
873.3730, 264.6133
874.5050, 62.27539
875.6360, 166.8457
876.7670, 94.33203
877.8980, 0.7246090
879.0290, 148.8242
880.1590, 97.02148
881.2900, 24.13086
882.4200, 217.1387
883.5500, 148.0605
884.6800, 170.8984
885.8100, 82.65039
886.9400, 134.3125
888.0690, 124.5488
889.1990, 39.37891
890.3280, 112.7695
891.4570, 71.07812
892.5860, 28.70508
893.7140, 100.3848
894.8430, 163.3906
895.9710, 104.3125
897.1000, 41.14453
898.2280, 29.88672
899.3560, 35.10938
900.4830, 48.95117
901.6110, 133.5664
902.7380, 25.35938
903.8660, 69.27344
904.9930, 62.66797
906.1200, 30.47852
907.2460, 103.7441
908.3730, 136.1738
909.5000, 31.22070
910.6260, 43.67188
911.7520, 98.50391
912.8780, 90.40430
914.0040, 22.73633
915.1290, 5.912109
916.2550, 111.1914
917.3800, 23.36914
918.5050, 219.1621
919.6300, 2.908203
920.7550, 37.60938
921.8800, 145.3242
923.0040, 50.66797
924.1290, 70.90039
925.2530, 12.26758
926.3770, 140.7266
927.5010, 7.455078
928.6250, 97.10156
929.7480, 194.5020
930.8720, 150.3633
931.9950, 105.5996
933.1180, 4.482422
934.2410, 31.27930
935.3640, 185.7930
936.4860, 21.11328
937.6090, 13.49023
938.7310, 42.40625
939.8530, 68.18164
940.9750, 13.02344
942.0970, 159.8633
943.2180, 2.339844
944.3400, 110.4512
945.4610, 315.5781
946.5820, 66.06055
947.7030, 128.4160
948.8240, 20.82617
949.9450, 288.9961
951.0650, 446.1953
952.1860, 385.7715
953.3060, 376.6895
954.4260, 532.1426
955.5460, 1003.496
956.6650, 1237.434
957.7850, 1250.965
958.9040, 1536.225
960.0230, 1708.678
961.1420, 2175.262
962.2610, 2363.240
963.3800, 2065.881
964.4990, 1969.219
965.6170, 1692.850
966.7350, 1645.684
967.8530, 1213.797
968.9710, 877.7363
970.0890, 713.2988
971.2070, 663.4824
972.3240, 342.2188
973.4410, 24.98242
974.5580, 510.8418
975.6750, 138.6602
976.7920, 49.49805
977.9090, 271.4258
979.0250, 56.74805
980.1410, 108.5508
981.2580, 174.1973
982.3740, 117.0996
983.4890, 35.64648
984.6050, 52.53516
985.7200, 27.57227
986.8360, 68.56055
987.9510, 96.41406
989.0660, 127.4648
990.1810, 150.6152
991.2950, 191.0352
992.4100, 181.2949
993.5240, 198.9688
994.6390, 199.1934
995.7530, 239.8262
996.8660, 108.2266
997.9800, 237.8789
999.0940, 192.8379
1000.207, 15.12891
1001.320, 124.1562
1002.433, 195.9570
1003.546, 182.1777
1004.659, 224.7129
1005.772, 217.4453
1006.884, 168.2773
1007.996, 211.3867
1009.108, 146.1367
1010.220, 167.7754
1011.332, 125.9180
1012.444, 188.5957
1013.555, 210.6777
1014.666, 215.1562
1015.777, 265.8789
1016.888, 418.5508
1017.999, 369.9082
1019.110, 371.3340
1020.220, 440.4844
1021.331, 317.3770
1022.441, 493.5332
1023.551, 377.5703
1024.661, 350.6016
1025.770, 250.1953
1026.880, 332.8477
1027.989, 331.7754
1029.098, 332.0234
1030.207, 296.9551
1031.316, 344.0117
1032.425, 348.7773
1033.533, 300.0000
1034.642, 295.3535
1035.750, 227.4062
1036.858, 269.2520
1037.966, 473.3477
1039.073, 547.7949
1040.181, 485.3457
1041.288, 554.3125
1042.396, 508.2637
1043.503, 395.1367
1044.610, 475.9551
1045.716, 586.7754
1046.823, 604.7129
1047.929, 726.9297
1049.036, 537.2305
1050.142, 588.9551
1051.248, 668.7715
1052.353, 907.7910
1053.459, 762.4238
1054.564, 640.6738
1055.670, 811.4688
1056.775, 490.2559
1057.880, 447.8281
1058.985, 301.1367
1060.089, 516.2109
1061.194, 454.9336
1062.298, 372.0898
1063.402, 426.4297
1064.506, 487.3633
1065.610, 230.3672
1066.713, 500.1641
1067.817, 561.7793
1068.920, 449.1680
1070.023, 245.6973
1071.126, 401.6426
1072.229, 558.4902
1073.332, 399.4707
1074.435, 566.6699
1075.537, 544.0781
1076.639, 397.1016
1077.741, 346.3594
1078.843, 337.3398
1079.945, 461.4648
1081.046, 414.8750
1082.148, 586.1602
1083.249, 425.1855
1084.350, 668.2168
1085.451, 496.2578
1086.551, 502.3145
1087.652, 383.3887
1088.752, 397.5449
1089.853, 503.5781
1090.953, 498.7500
1092.053, 456.9355
1093.152, 597.1348
1094.252, 273.3477
1095.351, 453.5762
1096.451, 372.8203
1097.550, 554.0801
1098.649, 518.0664
1099.748, 502.6523
1100.846, 517.9609
1101.945, 455.2891
1103.043, 538.6367
1104.141, 777.0078
1105.239, 354.4180
1106.337, 723.2812
1107.434, 416.7383
1108.532, 669.1523
1109.629, 534.0078
1110.726, 566.5273
1111.823, 413.7188
1112.920, 640.1758
1114.017, 551.7656
1115.113, 633.3477
1116.210, 629.6289
1117.306, 634.0430
1118.402, 680.3945
1119.498, 565.9648
1120.593, 683.6953
1121.689, 867.4727
1122.784, 491.2812
1123.879, 700.1172
1124.974, 658.9844
1126.069, 808.8789
1127.164, 539.8125
1128.259, 774.7734
1129.353, 664.7656
1130.447, 588.7930
1131.541, 845.8516
1132.635, 649.4844
1133.729, 754.6094
1134.822, 619.7656
1135.916, 617.9648
1137.009, 751.1953
1138.102, 719.4727
1139.195, 685.2734
1140.288, 802.1289
1141.380, 543.5078
1142.473, 614.9219
1143.565, 558.3711
1144.657, 875.8711
1145.749, 669.4062
1146.841, 629.9766
1147.932, 791.5859
1149.024, 620.2344
1150.115, 700.9141
1151.206, 909.6406
1152.297, 933.3945
1153.388, 671.1914
1154.479, 745.0117
1155.569, 800.8867
1156.659, 774.8008
1157.750, 760.2500
1158.839, 797.7695
1159.929, 794.8242
1161.019, 817.9102
1162.108, 844.7930
1163.198, 638.2070
1164.287, 898.4258
1165.376, 1003.723
1166.465, 1033.344
1167.553, 822.8359
1168.642, 954.3867
1169.730, 821.0000
1170.818, 1168.660
1171.906, 986.3828
1172.994, 1122.207
1174.082, 885.5781
1175.170, 962.5430
1176.257, 782.5625
1177.344, 990.7109
1178.431, 948.8516
1179.518, 895.0508
1180.605, 949.3008
1181.691, 938.3125
1182.778, 915.0156
1183.864, 964.5000
1184.950, 970.1875
1186.036, 909.1992
1187.122, 956.8750
1188.207, 745.8203
1189.292, 717.6328
1190.378, 1036.500
1191.463, 539.4062
1192.548, 837.3633
1193.632, 538.3945
1194.717, 1031.473
1195.801, 754.6406
1196.886, 813.8516
1197.970, 919.1094
1199.054, 964.4297
1200.137, 899.7852
1201.221, 979.0039
1202.305, 825.6484
1203.388, 1023.148
1204.471, 866.6953
1205.554, 870.2930
1206.637, 959.9297
1207.719, 923.9219
1208.802, 896.6484
1209.884, 747.4180
1210.966, 848.2305
1212.048, 776.9180
1213.130, 853.8242
1214.212, 848.7656
1215.293, 936.7461
1216.374, 1070.773
1217.456, 753.8398
1218.536, 709.9414
1219.617, 732.2266
1220.698, 528.8242
1221.778, 671.0430
1222.859, 840.3008
1223.939, 712.5938
1225.019, 629.9297
1226.099, 1085.301
1227.178, 660.7266
1228.258, 646.1953
1229.337, 462.6953
1230.417, 1002.238
1231.496, 666.8164
1232.574, 831.4336
1233.653, 570.0938
1234.732, 712.2812
1235.810, 505.0156
1236.888, 699.7930
1237.966, 499.6055
1239.044, 749.4609
1240.122, 675.3711
1241.199, 578.3203
1242.277, 789.3047
1243.354, 376.3281
1244.431, 508.3906
1245.508, 484.4961
1246.585, 391.7070
1247.661, 830.8867
1248.738, 482.1133
1249.814, 643.3711
1250.890, 512.7734
1251.966, 415.1055
1253.042, 553.6367
1254.117, 284.0469
1255.193, 240.4961
1256.268, 532.3242
1257.343, 579.8438
1258.418, 327.4062
1259.493, 416.0039
1260.567, 538.6367
1261.642, 361.3008
1262.716, 167.0117
1263.790, 371.7539
1264.864, 215.8008
1265.938, 427.3594
1267.011, 206.2109
1268.085, 142.1055
1269.158, 151.0352
1270.231, 226.0000
1271.304, 287.0000
1272.377, 231.0391
1273.450, 332.1094
1274.522, 282.9844
1275.594, 320.4336
1276.666, 249.6172
1277.738, 235.8320
1278.810, 274.0820
1279.882, 137.3672
1280.953, 193.6914
1282.025, 168.0469
1283.096, 49.56250
1284.167, 64.85156
1285.238, 108.3086
1286.308, 226.1992
1287.379, 115.7383
1288.449, 200.7188
1289.519, 15.21094
1290.589, 394.7344
1291.659, 71.29297
1292.729, 118.8867
1293.798, 140.6133
1294.868, 48.12109
1295.937, 230.5586
1297.006, 392.2734
1298.075, 242.0156
1299.143, 332.8008
1300.212, 323.6172
