##NAMES=Fluor-buergerite
##RRUFFID=R060132
##IDEAL CHEMISTRY=NaFe^3+^_3_Al_6_(Si_6_O_18_)(BO_3_)_3_O_3_F
##LOCALITY=20 km. south of San Luis Potasi, Mexico
##OWNER=RRUFF
##SOURCE=University of Arizona Mineral Museum
##DESCRIPTION=Brown short prismatic
##STATUS=The identification of this mineral has been confirmed by X-ray diffraction and chemical analysis
##URL=rruff.info/R060132
##MEASURED CHEMISTRY=(Na_0.87_Ca_0.03_[box]_0.10_)(Fe^3+^_0.82_Al_0.12_Mg_0.04_Ti_0.02_)_3_Al_6_(BO_3_)_3_(Si_0.98_Al_0.02_)_6_O_18_(O_0.66_F_0.19_(OH)_0.15_)_4_
##PIN_ID=L00828
##ORIENTATION=Laser parallel to -c* (0 0 -1). Fiducial mark perpendicular to laser is parallel to -a [-1 0 0]
131.6680, 0.0000000E+00
132.8980, 86.85352
134.1270, 53.71680
135.3560, 6.348633
136.5850, 1.925781
137.8140, 157.1094
139.0430, 341.6621
140.2710, 470.1768
141.5000, 172.8828
142.7280, 10.69336
143.9560, 44.30176
145.1840, 73.59180
146.4120, 198.2783
147.6390, 269.4326
148.8670, 353.5225
150.0940, 464.2432
151.3210, 694.4453
152.5490, 932.3027
153.7750, 802.0967
155.0020, 841.5791
156.2290, 836.5166
157.4550, 816.7959
158.6810, 703.6309
159.9080, 831.0332
161.1340, 764.3369
162.3590, 830.8203
163.5850, 876.7119
164.8110, 1114.209
166.0360, 1234.478
167.2610, 1228.664
168.4860, 1161.897
169.7110, 1388.303
170.9360, 1324.448
172.1610, 1416.304
173.3850, 1464.600
174.6100, 1367.222
175.8340, 1629.332
177.0580, 1627.249
178.2820, 1711.640
179.5050, 1918.501
180.7290, 1889.363
181.9520, 1838.556
183.1760, 2060.112
184.3990, 2043.525
185.6220, 2191.313
186.8450, 2887.306
188.0670, 2905.498
189.2900, 2998.889
190.5120, 3364.473
191.7340, 2078.231
192.9560, 2230.147
194.1780, 2106.206
195.4000, 2279.397
196.6220, 2223.723
197.8430, 2212.188
199.0640, 2964.793
200.2860, 2384.544
201.5070, 2542.441
202.7270, 2626.486
203.9480, 2288.684
205.1690, 1514.046
206.3890, 883.7021
207.6090, 488.9189
208.8290, 407.8018
210.0490, 288.1309
211.2690, 351.7783
212.4890, 339.5996
213.7080, 278.5537
214.9280, 131.6172
216.1470, 287.7852
217.3660, 110.2676
218.5850, 152.4258
219.8030, 18.11133
221.0220, 84.55957
222.2400, 1.919922
223.4590, 116.1953
224.6770, 33.38672
225.8950, 34.49316
227.1120, 95.51855
228.3300, 43.47070
229.5480, 106.3633
230.7650, 26.20410
231.9820, 44.26758
233.1990, 62.74023
234.4160, 23.42676
235.6330, 1.944336
236.8490, 49.37793
238.0660, 230.8770
239.2820, 346.4434
240.4980, 280.0908
241.7140, 236.8340
242.9300, 409.7178
244.1460, 663.7461
245.3610, 698.8525
246.5770, 947.0264
247.7920, 882.2568
249.0070, 1067.500
250.2220, 1127.634
251.4370, 1294.650
252.6510, 1697.579
253.8660, 2129.412
255.0800, 2108.180
256.2940, 2527.899
257.5080, 2934.637
258.7220, 3534.481
259.9360, 3491.163
261.1490, 3898.580
262.3630, 3351.837
263.5760, 3602.235
264.7890, 3399.771
266.0020, 3410.441
267.2150, 3481.245
268.4270, 3385.180
269.6400, 3535.248
270.8520, 3561.454
272.0640, 3831.796
273.2760, 3776.275
274.4880, 3992.893
275.7000, 3989.652
276.9120, 3944.551
278.1230, 3857.815
279.3340, 3668.438
280.5450, 3399.396
281.7560, 3217.897
282.9670, 2957.893
284.1780, 2739.617
285.3880, 2560.168
286.5980, 2422.635
287.8090, 2292.549
289.0190, 2220.989
290.2290, 2129.760
291.4380, 2133.039
292.6480, 2117.645
293.8570, 2102.195
295.0670, 2162.847
296.2760, 2185.521
297.4850, 2328.228
298.6930, 2134.964
299.9020, 1940.727
301.1110, 2108.496
302.3190, 1857.254
303.5270, 1770.988
304.7350, 1729.702
305.9430, 1329.409
307.1510, 1191.118
308.3580, 1097.837
309.5660, 1232.574
310.7730, 1176.337
311.9800, 1333.130
313.1870, 1205.960
314.3940, 1147.831
315.6010, 1379.748
316.8070, 1297.713
318.0130, 1604.730
319.2200, 1747.768
320.4260, 1969.826
321.6310, 2127.812
322.8370, 2269.618
324.0430, 2134.217
325.2480, 2546.646
326.4540, 2342.910
327.6590, 2355.081
328.8640, 2470.163
330.0680, 2401.252
331.2730, 2344.451
332.4780, 2268.760
333.6820, 2158.528
334.8860, 2081.719
336.0900, 1965.348
337.2940, 1898.098
338.4980, 1905.956
339.7010, 1840.925
340.9050, 1876.644
342.1080, 1701.193
343.3110, 2025.494
344.5140, 2017.903
345.7170, 2247.426
346.9200, 2257.447
348.1220, 2400.208
349.3240, 2618.062
350.5270, 2509.449
351.7290, 2518.059
352.9310, 2400.544
354.1320, 2535.537
355.3340, 2226.978
356.5350, 2180.475
357.7370, 1991.074
358.9380, 2078.779
360.1390, 1878.383
361.3400, 1841.296
362.5400, 1773.753
363.7410, 1731.416
364.9410, 1651.104
366.1410, 1468.987
367.3410, 1449.022
368.5410, 1496.628
369.7410, 1330.333
370.9400, 1444.194
372.1400, 1156.762
373.3390, 1341.539
374.5380, 1145.979
375.7370, 1116.104
376.9360, 920.4570
378.1350, 1060.014
379.3330, 929.9199
380.5310, 830.4189
381.7300, 730.2207
382.9280, 894.1035
384.1260, 977.1016
385.3230, 1063.215
386.5210, 1275.442
387.7180, 1235.267
388.9160, 1591.853
390.1130, 1615.431
391.3100, 1949.124
392.5060, 2285.272
393.7030, 2615.351
394.9000, 2948.425
396.0960, 3144.518
397.2920, 3381.498
398.4880, 3464.600
399.6840, 3729.134
400.8800, 3818.795
402.0750, 3978.580
403.2710, 3901.491
404.4660, 4058.527
405.6610, 3896.690
406.8560, 3804.979
408.0510, 3206.395
409.2450, 3181.938
410.4400, 2809.606
411.6340, 2494.403
412.8280, 2222.330
414.0220, 1815.385
415.2160, 1439.570
416.4100, 1145.883
417.6030, 851.3271
418.7970, 576.7412
419.9900, 346.6172
421.1830, 99.44434
422.3760, 25.59180
423.5690, 226.5146
424.7610, 288.3877
425.9540, 351.2305
427.1460, 500.0625
428.3380, 192.9395
429.5300, 288.9082
430.7220, 210.5430
431.9140, 200.2334
433.1050, 67.86914
434.2970, 44.39355
435.4880, 106.2002
436.6790, 19.59668
437.8700, 466.2939
439.0610, 778.7939
440.2510, 927.1357
441.4420, 419.6689
442.6320, 759.3936
443.8220, 1115.210
445.0120, 1301.921
446.2020, 1300.776
447.3910, 1493.776
448.5810, 1671.922
449.7700, 1802.217
450.9600, 2042.659
452.1490, 2263.250
453.3370, 2500.990
454.5260, 2661.732
455.7150, 2779.583
456.9030, 2920.117
458.0910, 2905.463
459.2800, 2918.961
460.4670, 2903.612
461.6550, 2894.418
462.8430, 2759.376
464.0300, 2837.490
465.2180, 2785.762
466.4050, 2687.189
467.5920, 2497.777
468.7790, 2465.524
469.9650, 2301.436
471.1520, 2039.509
472.3380, 1892.115
473.5250, 1657.218
474.7110, 1470.716
475.8970, 1228.449
477.0820, 1079.347
478.2680, 902.4102
479.4540, 799.6396
480.6390, 593.0352
481.8240, 427.5957
483.0090, 545.3223
484.1940, 241.2168
485.3780, 173.2764
486.5630, 149.5020
487.7470, 285.8936
488.9320, 21.54590
490.1160, 8.175781
491.3000, 94.06055
492.4830, 143.8867
493.6670, 76.69922
494.8500, 141.3604
496.0340, 155.8877
497.2170, 0.2822270
498.4000, 31.48828
499.5820, 50.42676
500.7650, 101.5322
501.9480, 213.8076
503.1300, 347.2578
504.3120, 381.8760
505.4940, 532.6748
506.6760, 739.6484
507.8580, 1168.821
509.0390, 1125.214
510.2210, 1420.804
511.4020, 1491.616
512.5830, 1788.632
513.7640, 1835.851
514.9450, 1503.288
516.1250, 1443.928
517.3060, 1428.788
518.4860, 1124.846
519.6660, 1128.107
520.8460, 1061.576
522.0260, 807.2422
523.2060, 703.0986
524.3850, 526.1377
525.5650, 350.3438
526.7440, 296.7178
527.9230, 208.2588
529.1020, 133.0322
530.2810, 8.179688
531.4590, 40.83691
532.6380, 164.0195
533.8160, 28.62891
534.9940, 78.11719
536.1720, 7.550781
537.3500, 26.61816
538.5270, 209.3760
539.7050, 80.53711
540.8820, 416.8633
542.0590, 343.3584
543.2360, 765.0205
544.4130, 700.8496
545.5900, 946.8643
546.7660, 1092.061
547.9430, 1101.471
549.1190, 1450.084
550.2950, 1393.923
551.4710, 1798.012
552.6470, 1787.322
553.8220, 1906.864
554.9980, 1924.649
556.1730, 1976.664
557.3480, 2001.934
558.5230, 1944.448
559.6980, 2086.184
560.8730, 2037.132
562.0470, 2248.309
563.2220, 2010.727
564.3960, 1945.032
565.5700, 2310.241
566.7440, 2197.150
567.9170, 2093.723
569.0910, 1869.627
570.2640, 2412.611
571.4380, 2778.600
572.6110, 2983.771
573.7840, 2533.579
574.9570, 2935.599
576.1290, 2999.015
577.3020, 3050.541
578.4740, 3390.275
579.6460, 3498.018
580.8180, 3588.965
581.9900, 3854.094
583.1620, 4062.408
584.3330, 4237.900
585.5040, 4513.596
586.6760, 4617.457
587.8470, 5352.516
589.0180, 5460.754
590.1880, 5974.203
591.3590, 6239.857
592.5290, 6641.685
593.7000, 7344.697
594.8700, 7683.883
596.0400, 8528.231
597.2090, 9144.745
598.3790, 9874.431
599.5490, 10697.29
600.7180, 11318.32
601.8870, 12340.52
603.0560, 13130.89
604.2250, 14060.42
605.3940, 14941.45
606.5620, 16022.96
607.7300, 16615.97
608.8990, 17557.13
610.0670, 18274.44
611.2350, 19046.91
612.4020, 19705.34
613.5700, 20318.28
614.7370, 20855.17
615.9050, 21440.22
617.0720, 21920.42
618.2390, 22439.76
619.4060, 23124.25
620.5720, 23853.57
621.7390, 24884.64
622.9050, 25552.54
624.0710, 26684.57
625.2370, 27642.74
626.4030, 28626.04
627.5690, 29568.47
628.7340, 30670.42
629.9000, 31692.34
631.0650, 32962.14
632.2300, 34221.10
633.3950, 35529.75
634.5600, 36931.41
635.7240, 37590.42
636.8890, 38243.16
638.0530, 38373.65
639.2170, 37789.33
640.3810, 37191.16
641.5450, 35937.07
642.7080, 34174.12
643.8720, 32865.29
645.0350, 31054.57
646.1980, 29389.97
647.3610, 27669.48
648.5240, 26068.10
649.6870, 25233.84
650.8490, 23803.68
652.0120, 22944.40
653.1740, 21913.66
654.3360, 21264.87
655.4980, 20009.15
656.6600, 19079.52
657.8210, 18196.00
658.9830, 16931.59
660.1440, 16029.28
661.3050, 14870.06
662.4660, 13854.94
663.6270, 12929.93
664.7870, 11733.00
665.9480, 10957.18
667.1080, 10239.44
668.2680, 9368.801
669.4280, 8769.774
670.5880, 8107.189
671.7480, 7408.822
672.9070, 6827.542
674.0670, 6189.013
675.2260, 5343.758
676.3850, 4871.711
677.5440, 4140.471
678.7030, 3553.619
679.8610, 2808.851
681.0200, 2312.439
682.1780, 1817.834
683.3360, 1524.348
684.4940, 1207.963
685.6520, 946.5117
686.8090, 607.0732
687.9670, 681.9697
689.1240, 416.3018
690.2810, 256.5801
691.4380, 365.5762
692.5950, 296.7070
693.7520, 571.8174
694.9080, 561.8486
696.0650, 799.9297
697.2210, 745.2900
698.3770, 761.4189
699.5330, 935.0322
700.6880, 1121.847
701.8440, 864.3672
702.9990, 1138.841
704.1550, 1159.045
705.3100, 1194.126
706.4650, 1416.808
707.6190, 1433.178
708.7740, 1458.933
709.9290, 1416.868
711.0830, 1379.938
712.2370, 1468.738
713.3910, 1450.127
714.5450, 1301.931
715.6980, 1177.981
716.8520, 1140.637
718.0050, 930.3340
719.1580, 997.6768
720.3110, 879.7432
721.4640, 793.3086
722.6170, 872.1221
723.7700, 702.6221
724.9220, 723.6074
726.0740, 649.5605
727.2260, 623.2832
728.3780, 756.1377
729.5300, 583.5176
730.6810, 683.7969
731.8330, 734.7227
732.9840, 832.5010
734.1350, 731.1680
735.2860, 717.6865
736.4370, 730.2939
737.5880, 849.5166
738.7380, 771.0605
739.8880, 741.8760
741.0390, 705.9111
742.1890, 683.0693
743.3380, 941.6182
744.4880, 1093.283
745.6380, 1024.376
746.7870, 1422.586
747.9360, 1453.618
749.0850, 1648.658
750.2340, 1910.703
751.3830, 2098.973
752.5310, 2247.132
753.6800, 2370.193
754.8280, 2433.806
755.9760, 2422.245
757.1240, 2414.145
758.2720, 2308.637
759.4190, 2266.246
760.5670, 2218.690
761.7140, 1892.712
762.8610, 1661.025
764.0080, 1553.168
765.1550, 1343.872
766.3020, 1251.190
767.4480, 1122.033
768.5950, 945.9482
769.7410, 906.6230
770.8870, 798.1621
772.0330, 754.9092
773.1780, 724.7861
774.3240, 642.2217
775.4690, 744.6250
776.6140, 834.7598
777.7590, 1070.281
778.9040, 1133.529
780.0490, 1467.725
781.1940, 1572.865
782.3380, 1833.950
783.4820, 2255.979
784.6260, 2456.947
785.7700, 2735.860
786.9140, 3111.710
788.0580, 3344.500
789.2010, 3616.229
790.3450, 3662.895
791.4880, 3421.497
792.6310, 3079.032
793.7730, 2863.504
794.9160, 2195.908
796.0590, 1826.244
797.2010, 1267.513
798.3430, 1161.711
799.4850, 954.8389
800.6270, 876.8936
801.7690, 819.8770
802.9100, 831.7871
804.0520, 799.6221
805.1930, 771.3828
806.3340, 725.6484
807.4750, 656.5771
808.6160, 604.2295
809.7560, 498.6943
810.8970, 434.0781
812.0370, 358.3848
813.1770, 350.6152
814.3170, 460.7637
815.4570, 350.8311
816.5960, 310.8145
817.7360, 124.7129
818.8750, 165.5195
820.0140, 166.2373
821.1530, 12.86621
822.2920, 45.75098
823.4310, 88.26074
824.5690, 41.07422
825.7070, 123.0547
826.8460, 213.2480
827.9840, 108.7061
829.1220, 138.3730
830.2590, 181.6201
831.3970, 128.4219
832.5340, 220.8008
833.6710, 189.4590
834.8080, 86.38184
835.9450, 58.51855
837.0820, 121.8555
838.2190, 161.4268
839.3550, 157.2578
840.4910, 197.3467
841.6270, 159.7168
842.7630, 165.4004
843.8990, 188.3936
845.0350, 142.4385
846.1700, 189.8848
847.3060, 188.6172
848.4410, 101.6387
849.5760, 155.9043
850.7100, 15.55566
851.8450, 34.16992
852.9800, 169.1104
854.1140, 8.336914
855.2480, 0.7646480
856.3820, 135.6084
857.5160, 120.8291
858.6500, 115.8926
859.7830, 20.79688
860.9170, 253.5088
862.0500, 36.08594
863.1830, 132.4756
864.3160, 27.29492
865.4480, 18.28809
866.5810, 204.5010
867.7130, 102.1416
868.8460, 145.6123
869.9780, 306.9229
871.1100, 258.0986
872.2410, 204.1338
873.3730, 138.0186
874.5050, 128.7363
875.6360, 252.2861
876.7670, 241.6914
877.8980, 148.9482
879.0290, 342.0400
880.1590, 335.0039
881.2900, 306.8320
882.4200, 375.5195
883.5500, 314.0762
884.6800, 392.4922
885.8100, 501.7754
886.9400, 475.9355
888.0690, 386.9707
889.1990, 395.8721
890.3280, 352.6406
891.4570, 457.2754
892.5860, 410.7842
893.7140, 585.1729
894.8430, 555.4395
895.9710, 588.5947
897.1000, 504.6309
898.2280, 610.5488
899.3560, 646.3691
900.4830, 717.0811
901.6110, 621.6748
902.7380, 700.1514
903.8660, 677.5088
904.9930, 727.7822
906.1200, 817.9795
907.2460, 700.0625
908.3730, 663.0498
909.5000, 894.9219
910.6260, 871.6777
911.7520, 995.3174
912.8780, 974.8486
914.0040, 971.2842
915.1290, 1001.603
916.2550, 1004.836
917.3800, 1039.960
918.5050, 1080.975
919.6300, 1067.893
920.7550, 1257.697
921.8800, 1159.385
923.0040, 1134.964
924.1290, 1119.436
925.2530, 1360.794
926.3770, 1105.036
927.5010, 1367.165
928.6250, 1355.178
929.7480, 1296.077
930.8720, 1422.865
931.9950, 1488.542
933.1180, 1395.105
934.2410, 1464.562
935.3640, 1546.904
936.4860, 1672.140
937.6090, 1654.260
938.7310, 1661.275
939.8530, 1641.177
940.9750, 1789.987
942.0970, 1795.685
943.2180, 1776.271
944.3400, 1807.745
945.4610, 1751.107
946.5820, 1910.358
947.7030, 1924.499
948.8240, 1957.527
949.9450, 2145.447
951.0650, 2145.256
952.1860, 2269.953
953.3060, 2270.265
954.4260, 2300.260
955.5460, 2235.067
956.6650, 2343.263
957.7850, 2216.493
958.9040, 2259.676
960.0230, 2342.492
961.1420, 2384.837
962.2610, 2501.200
963.3800, 2453.812
964.4990, 2424.252
965.6170, 2489.674
966.7350, 2725.136
967.8530, 2384.509
968.9710, 2409.564
970.0890, 2566.811
971.2070, 2433.531
972.3240, 2644.006
973.4410, 2551.734
974.5580, 2582.467
975.6750, 2724.431
976.7920, 2651.510
977.9090, 2642.996
979.0250, 2719.806
980.1410, 2577.273
981.2580, 2743.543
982.3740, 2557.682
983.4890, 2744.071
984.6050, 2780.855
985.7200, 2635.190
986.8360, 2464.232
987.9510, 2566.617
989.0660, 2792.913
990.1810, 2778.509
991.2950, 2687.324
992.4100, 2654.588
993.5240, 2644.547
994.6390, 2608.763
995.7530, 2698.435
996.8660, 2489.082
997.9800, 2629.900
999.0940, 2555.525
1000.207, 2694.566
1001.320, 2758.646
1002.433, 2663.017
1003.546, 2810.473
1004.659, 2794.978
1005.772, 2802.566
1006.884, 2810.002
1007.996, 2801.807
1009.108, 2786.125
1010.220, 2828.156
1011.332, 2863.249
1012.444, 2936.823
1013.555, 3022.896
1014.666, 3101.804
1015.777, 3191.225
1016.888, 3362.501
1017.999, 3173.831
1019.110, 3267.080
1020.220, 3392.254
1021.331, 3136.129
1022.441, 3343.041
1023.551, 3236.979
1024.661, 2945.348
1025.770, 3080.160
1026.880, 2883.109
1027.989, 2970.419
1029.098, 2794.391
1030.207, 2621.706
1031.316, 2501.725
1032.425, 2424.359
1033.533, 2468.110
1034.642, 2326.509
1035.750, 2362.611
1036.858, 2319.828
1037.966, 2301.605
1039.073, 2246.623
1040.181, 2220.898
1041.288, 2170.575
1042.396, 2126.387
1043.503, 2057.551
1044.610, 2051.678
1045.716, 2097.726
1046.823, 2140.509
1047.929, 2181.529
1049.036, 2286.937
1050.142, 2318.227
1051.248, 2394.721
1052.353, 2504.415
1053.459, 2659.320
1054.564, 2758.000
1055.670, 2878.110
1056.775, 3003.375
1057.880, 3014.227
1058.985, 3104.922
1060.089, 3144.588
1061.194, 3209.225
1062.298, 2971.833
1063.402, 3020.687
1064.506, 2893.113
1065.610, 2862.640
1066.713, 2700.336
1067.817, 2680.811
1068.920, 2591.174
1070.023, 2452.599
1071.126, 2457.349
1072.229, 2262.726
1073.332, 2241.574
1074.435, 2149.905
1075.537, 1985.214
1076.639, 1926.501
1077.741, 1784.767
1078.843, 1755.013
1079.945, 1695.239
1081.046, 1636.447
1082.148, 1746.636
1083.249, 1645.816
1084.350, 1583.961
1085.451, 1608.099
1086.551, 1439.223
1087.652, 1514.333
1088.752, 1361.429
1089.853, 1434.531
1090.953, 1399.636
1092.053, 1294.777
1093.152, 1379.943
1094.252, 1437.158
1095.351, 1382.449
1096.451, 1525.786
1097.550, 1324.180
1098.649, 1317.645
1099.748, 1359.166
1100.846, 1280.771
1101.945, 1082.451
1103.043, 1267.181
1104.141, 1063.955
1105.239, 1017.790
1106.337, 1205.700
1107.434, 1043.683
1108.532, 1128.750
1109.629, 995.8936
1110.726, 1163.116
1111.823, 1145.426
1112.920, 1189.809
1114.017, 1022.281
1115.113, 938.8408
1116.210, 825.4697
1117.306, 801.1797
1118.402, 849.9287
1119.498, 926.7295
1120.593, 915.6182
1121.689, 842.5537
1122.784, 815.5352
1123.879, 640.5381
1124.974, 537.5645
1126.069, 572.6182
1127.164, 650.7148
1128.259, 483.8252
1129.353, 468.9756
1130.447, 339.1543
1131.541, 379.3887
1132.635, 267.6826
1133.729, 258.5859
1134.822, 311.3438
1135.916, 218.7188
1137.009, 298.1094
1138.102, 264.5176
1139.195, 269.9502
1140.288, 281.4951
1141.380, 247.9131
1142.473, 199.4326
1143.565, 155.9736
1144.657, 38.45215
1145.749, 47.12500
1146.841, 7.719727
1147.932, 2.333984
1149.024, 87.96289
1150.115, 68.61230
1151.206, 45.27734
1152.297, 75.95605
1153.388, 31.65723
1154.479, 16.69824
1155.569, 30.91406
1156.659, 13.17871
1157.750, 53.43066
1158.839, 2.685547
1159.929, 50.92969
1161.019, 7.180664
1162.108, 42.42188
1163.198, 106.6631
1164.287, 51.93848
1165.376, 51.77832
1166.465, 4.492188
1167.553, 153.2471
1168.642, 147.9990
1169.730, 181.3027
1170.818, 11.32227
1171.906, 100.0420
1172.994, 29.43457
1174.082, 17.17578
1175.170, 100.7998
1176.257, 40.56348
1177.344, 92.92871
1178.431, 6.680664
1179.518, 131.6982
1180.605, 33.09570
1181.691, 42.49219
1182.778, 86.87012
1183.864, 1.731445
1184.950, 19.34570
1186.036, 34.02344
1187.122, 41.38770
1188.207, 1.751953
1189.292, 96.89648
1190.378, 115.5596
1191.463, 176.2393
1192.548, 23.93652
1193.632, 7.350586
1194.717, 25.62695
1195.801, 51.10547
1196.886, 34.14648
1197.970, 57.60645
1199.054, 26.61328
1200.137, 23.20508
1201.221, 37.95898
1202.305, 29.88672
1203.388, 101.2480
1204.471, 171.5918
1205.554, 190.4531
1206.637, 70.33105
1207.719, 76.22852
1208.802, 131.1426
1209.884, 15.11621
1210.966, 160.1123
1212.048, 177.1504
1213.130, 76.20801
1214.212, 218.2881
1215.293, 308.3896
1216.374, 152.5098
1217.456, 353.6494
1218.536, 309.3604
1219.617, 347.9922
1220.698, 300.1943
1221.778, 356.7354
1222.859, 453.6689
1223.939, 511.9434
1225.019, 611.2217
1226.099, 674.5566
1227.178, 816.9102
1228.258, 896.2939
1229.337, 1015.076
1230.417, 922.1270
1231.496, 1164.577
1232.574, 1288.045
1233.653, 1331.530
1234.732, 1551.033
1235.810, 1624.554
1236.888, 1897.091
1237.966, 1920.646
1239.044, 2056.217
1240.122, 2379.831
1241.199, 2701.466
1242.277, 2478.115
1243.354, 2709.792
1244.431, 2862.482
1245.508, 2835.188
1246.585, 2835.907
1247.661, 2795.641
1248.738, 2889.388
1249.814, 2852.148
1250.890, 2717.922
1251.966, 2684.710
1253.042, 2787.510
1254.117, 2808.326
1255.193, 2868.155
1256.268, 2855.998
1257.343, 2988.853
1258.418, 3031.720
1259.493, 3054.980
1260.567, 3115.980
1261.642, 3099.396
1262.716, 3162.312
1263.790, 3178.239
1264.864, 3188.178
1265.938, 3239.127
1267.011, 3207.090
1268.085, 3235.062
1269.158, 3236.047
1270.231, 3026.039
1271.304, 3107.043
1272.377, 3076.057
1273.450, 2975.078
1274.522, 2726.760
1275.594, 2805.801
1276.666, 2682.840
1277.738, 2530.845
1278.810, 2811.912
1279.882, 2832.988
1280.953, 2926.072
1282.025, 2896.164
1283.096, 3115.266
1284.167, 3179.373
1285.238, 3288.428
1286.308, 3269.147
1287.379, 3630.203
1288.449, 3451.235
1289.519, 3618.419
1290.589, 3457.354
1291.659, 3603.939
1292.729, 3596.972
1293.798, 3343.128
1294.868, 3341.312
1295.937, 3258.344
1297.006, 3115.543
1298.075, 3052.038
1299.143, 3054.457
