##NAMES=Fluoro-richterite
##RRUFFID=R040019
##IDEAL CHEMISTRY=Na(NaCa)Mg_5_Si_8_O_22_F_2_
##LOCALITY=Wilberforce, Ontario, Canada
##OWNER=RRUFF
##SOURCE=University of Arizona Mineral Museum
##DESCRIPTION=Brown prismatic crystals
##STATUS=The identification of this mineral has been confirmed by X-ray diffraction and chemical analysis
##URL=rruff.info/R040019
##MEASURED CHEMISTRY=(Na_0.59_K_0.27_[box]_0.14_)_Σ=1_(Ca_1.30_Na_0.70_)_Σ=2_(Mg_4.67_Fe_0.17_Fe^3+^_0.10_Ti_0.03_Mn_0.02_Al_0.01_)_Σ=5_(Si_7.67_Al_0.33_)_Σ=8_(F_1.12_(OH)_0.88_)_Σ=2_; OH estimated by charge balance
##PIN_ID=L00352
##ORIENTATION=Laser parallel to a [1 0 0]. Fiducial mark perpendicular to laser is parallel to -b* (0 -1 0)
98.947, 0.000
100.340, 20.960
101.732, 62.734
103.124, 0.708
104.516, 114.118
105.908, 340.151
107.300, 454.772
108.691, 378.352
110.082, 228.643
111.473, 123.151
112.864, 184.568
114.254, 303.326
115.644, 501.283
117.034, 684.128
118.424, 612.048
119.813, 473.915
121.203, 426.119
122.592, 409.369
123.981, 231.421
125.369, 168.130
126.758, 13.452
128.146, 38.350
129.534, 39.792
130.922, 170.750
132.309, 1.800
133.696, 34.123
135.083, 26.502
136.470, 37.310
137.857, 3.457
139.243, 9.121
140.630, 54.221
142.016, 11.370
143.401, 106.618
144.787, 69.532
146.172, 16.009
147.557, 30.858
148.942, 255.969
150.327, 428.333
151.711, 878.942
153.096, 1290.790
154.480, 1888.872
155.863, 2413.185
157.247, 2979.728
158.630, 3370.495
160.013, 3692.487
161.396, 3822.700
162.779, 3659.132
164.161, 3355.780
165.544, 2894.642
166.926, 2628.714
168.308, 2357.995
169.689, 2258.483
171.070, 2051.176
172.452, 2156.069
173.833, 2097.162
175.213, 2018.451
176.594, 2109.934
177.974, 2050.610
179.354, 2042.475
180.734, 2068.527
182.114, 1986.733
183.493, 1888.990
184.872, 1811.284
186.251, 1734.636
187.630, 1714.254
189.008, 1717.895
190.387, 1721.610
191.765, 1834.435
193.143, 1890.043
194.520, 2039.755
195.898, 2017.562
197.275, 2142.469
198.652, 2349.485
200.029, 2627.606
201.405, 2804.841
202.782, 3139.196
204.158, 3304.648
205.534, 3652.176
206.909, 4009.836
208.285, 4370.628
209.660, 4767.553
211.035, 5385.609
212.410, 5864.967
213.784, 6711.115
215.159, 7329.563
216.533, 8598.137
217.907, 10024.844
219.281, 11648.674
220.654, 13836.633
222.027, 16032.713
223.400, 19169.918
224.773, 22447.246
226.146, 25771.695
227.518, 28934.270
228.891, 31680.951
230.263, 33473.762
231.634, 34582.684
233.006, 34420.715
234.377, 32878.871
235.748, 30215.141
237.119, 27493.516
238.490, 23986.010
239.860, 21510.607
241.231, 18627.322
242.601, 16505.141
243.970, 14809.065
245.340, 13420.101
246.709, 12172.234
248.079, 10618.478
249.448, 9547.823
250.816, 8119.270
252.185, 6909.818
253.553, 5870.468
254.921, 4947.214
256.289, 4346.057
257.657, 3596.998
259.024, 3096.033
260.391, 2616.163
261.758, 2219.385
263.125, 1776.699
264.492, 1491.717
265.858, 1393.540
267.224, 1008.303
268.590, 846.399
269.956, 691.456
271.321, 500.638
272.687, 438.938
274.052, 266.347
275.416, 137.858
276.781, 131.461
278.146, 99.139
279.510, 51.929
280.874, 38.182
282.237, 83.187
283.601, 84.570
284.964, 71.358
286.327, 50.264
287.690, 52.272
289.053, 98.029
290.416, 203.000
291.778, 299.715
293.140, 401.682
294.502, 549.677
295.863, 639.463
297.225, 878.938
298.586, 1010.074
299.947, 1220.147
301.308, 1486.617
302.668, 1681.020
304.029, 1950.444
305.389, 2253.263
306.749, 2673.989
308.108, 2856.129
309.468, 3206.112
310.827, 3440.387
312.186, 3503.750
313.545, 3584.200
314.903, 3534.098
316.262, 3478.347
317.620, 3201.041
318.978, 2997.813
320.336, 2603.664
321.693, 2307.591
323.051, 2081.592
324.408, 1761.668
325.765, 1427.817
327.121, 1322.040
328.478, 1084.333
329.834, 974.696
331.190, 876.128
332.546, 793.629
333.902, 771.261
335.257, 826.833
336.612, 802.533
337.967, 799.297
339.322, 895.125
340.677, 880.017
342.031, 1008.970
343.385, 954.983
344.739, 1094.057
346.093, 1181.190
347.446, 1148.382
348.799, 1195.633
350.153, 1190.942
351.505, 1344.310
352.858, 1417.736
354.210, 1462.216
355.563, 1665.737
356.915, 1953.306
358.267, 2278.932
359.618, 2705.613
360.969, 3072.352
362.321, 3537.145
363.672, 3838.994
365.022, 4231.896
366.373, 4484.852
367.723, 4618.862
369.073, 4538.926
370.423, 4483.042
371.773, 4543.209
373.122, 4549.899
374.471, 4598.700
375.821, 4736.019
377.169, 4893.389
378.518, 5111.907
379.866, 5400.273
381.215, 5542.788
382.563, 5728.351
383.910, 5899.959
385.258, 6045.614
386.605, 6125.313
387.952, 6199.059
389.299, 6088.848
390.646, 6292.681
391.992, 6131.557
393.339, 6070.474
394.685, 6227.433
396.031, 6218.433
397.376, 6267.474
398.722, 5862.555
400.067, 5799.673
401.412, 5577.833
402.757, 5063.029
404.101, 5008.262
405.446, 4409.532
406.790, 4144.837
408.134, 3757.179
409.478, 3539.555
410.821, 3259.965
412.165, 3517.410
413.508, 2873.886
414.851, 2834.395
416.193, 3318.935
417.536, 3087.507
418.878, 3150.109
420.220, 3471.741
421.562, 3726.403
422.904, 3964.092
424.245, 4281.812
425.586, 4668.557
426.927, 4850.347
428.268, 5051.719
429.609, 5190.055
430.949, 5254.977
432.289, 5270.942
433.629, 5262.948
434.969, 4707.995
436.309, 4419.082
437.648, 3711.207
438.987, 3269.434
440.326, 2683.832
441.665, 2189.070
443.003, 1833.583
444.342, 1415.040
445.680, 1177.268
447.018, 890.188
448.355, 690.914
449.693, 530.138
451.030, 393.227
452.367, 316.945
453.704, 214.855
455.041, 176.277
456.377, 120.660
457.713, 61.502
459.049, 109.575
460.385, 182.686
461.721, 184.906
463.056, 211.598
464.391, 139.604
465.726, 222.246
467.061, 268.865
468.395, 119.690
469.730, 154.812
471.064, 191.412
472.398, 99.284
473.731, 134.772
475.065, 58.898
476.398, 16.844
477.731, 28.580
479.064, 20.316
480.397, 28.054
481.729, 90.792
483.062, 100.531
484.394, 164.269
485.725, 229.005
487.057, 282.740
488.389, 290.472
489.720, 209.202
491.051, 211.928
492.382, 186.651
493.712, 191.369
495.043, 209.082
496.373, 163.790
497.703, 177.491
499.032, 256.186
500.362, 399.875
501.691, 434.556
503.020, 416.230
504.349, 613.896
505.678, 732.556
507.007, 858.208
508.335, 1032.853
509.663, 1232.765
510.991, 1458.582
512.319, 1732.744
513.646, 2010.365
514.973, 2350.977
516.300, 2710.580
517.627, 3220.171
518.954, 3714.760
520.280, 3967.339
521.607, 4359.910
522.933, 4534.483
524.259, 4571.051
525.584, 4296.619
526.910, 3986.189
528.235, 3520.756
529.560, 2992.321
530.885, 2593.895
532.209, 2115.449
533.534, 1887.986
534.858, 1673.543
536.182, 1538.090
537.506, 1355.652
538.829, 1253.205
540.152, 1109.774
541.476, 1121.335
542.799, 1101.898
544.121, 968.451
545.444, 1025.989
546.766, 988.505
548.088, 928.997
549.410, 966.466
550.732, 984.916
552.053, 995.354
553.375, 975.768
554.696, 937.156
556.017, 921.518
557.337, 985.852
558.658, 1000.158
559.978, 935.438
561.298, 907.688
562.618, 853.910
563.938, 817.102
565.257, 795.263
566.576, 807.395
567.895, 739.495
569.214, 799.565
570.533, 769.603
571.851, 874.610
573.170, 850.583
574.488, 887.524
575.805, 925.432
577.123, 1092.306
578.440, 1185.146
579.758, 1290.953
581.075, 1428.724
582.391, 1539.460
583.708, 1795.161
585.024, 1828.826
586.341, 1913.455
587.657, 1981.047
588.972, 1868.602
590.288, 1636.119
591.603, 1331.599
592.918, 1085.040
594.233, 790.442
595.548, 585.806
596.863, 355.129
598.177, 159.412
599.491, 82.642
600.805, 56.198
602.119, 158.173
603.432, 200.334
604.746, 189.704
606.059, 180.280
607.372, 259.062
608.685, 239.090
609.997, 247.358
611.309, 224.871
612.621, 183.617
613.933, 189.572
615.245, 147.751
616.557, 166.123
617.868, 133.701
619.179, 102.467
620.490, 13.408
621.801, 17.477
623.111, 63.324
624.421, 65.033
625.731, 86.650
627.041, 147.181
628.351, 173.956
629.660, 224.041
630.970, 268.380
632.279, 357.665
633.588, 402.899
634.896, 486.084
636.205, 587.221
637.513, 757.312
638.821, 762.354
640.129, 894.349
641.437, 937.295
642.744, 1111.194
644.051, 1183.045
645.358, 1302.849
646.665, 1461.603
647.972, 1634.310
649.278, 1855.968
650.584, 1996.578
651.890, 2294.139
653.196, 2649.650
654.502, 2925.115
655.807, 3329.531
657.113, 3767.007
658.418, 4143.308
659.722, 4813.836
661.027, 5394.290
662.331, 6115.834
663.636, 7241.454
664.940, 8308.058
666.244, 9669.632
667.547, 11580.471
668.851, 13406.106
670.154, 16648.604
671.457, 19609.977
672.760, 23620.295
674.062, 28949.516
675.365, 33696.602
676.667, 39739.012
677.969, 43881.344
679.271, 48201.715
680.572, 49644.762
681.874, 48285.879
683.175, 45947.238
684.476, 41465.977
685.777, 35474.688
687.077, 29728.766
688.378, 24712.994
689.678, 20670.105
690.978, 16794.971
692.278, 14071.982
693.577, 11245.975
694.877, 9759.049
696.176, 8283.492
697.475, 7244.942
698.774, 6315.890
700.072, 5660.060
701.371, 5012.439
702.669, 4622.261
703.967, 4181.946
705.265, 3952.674
706.562, 3796.287
707.860, 3618.553
709.157, 3463.855
710.454, 3560.465
711.751, 3311.658
713.047, 3508.893
714.344, 3505.995
715.640, 3447.069
716.936, 3631.045
718.232, 3678.968
719.527, 3923.836
720.823, 3892.650
722.118, 4006.412
723.413, 4084.119
724.708, 4089.773
726.002, 4189.375
727.297, 4259.923
728.591, 4133.417
729.885, 4274.859
731.179, 4292.250
732.472, 4160.587
733.766, 3999.874
735.059, 4000.107
736.352, 3986.291
737.645, 3839.421
738.937, 3781.377
740.230, 3614.530
741.522, 3533.509
742.814, 3310.437
744.106, 3150.314
745.397, 3021.142
746.689, 2923.920
747.980, 2694.648
749.271, 2604.327
750.562, 2489.958
751.853, 2316.539
753.143, 2209.012
754.433, 2110.910
755.723, 2072.739
757.013, 1923.604
758.303, 1906.910
759.592, 1788.414
760.881, 1639.436
762.170, 1552.906
763.459, 1446.294
764.748, 1356.807
766.036, 1220.677
767.325, 1166.989
768.613, 1041.487
769.901, 1028.657
771.188, 918.354
772.476, 800.806
773.763, 837.208
775.050, 594.488
776.337, 665.283
777.624, 543.750
778.910, 536.564
780.196, 524.386
781.482, 599.986
782.768, 426.289
784.054, 451.107
785.339, 485.635
786.625, 422.528
787.910, 407.765
789.195, 474.163
790.479, 359.752
791.764, 408.320
793.048, 361.866
794.332, 389.393
795.616, 428.898
796.900, 344.384
798.183, 397.849
799.467, 323.294
800.750, 302.721
802.033, 285.128
803.316, 304.516
804.598, 364.884
805.880, 217.235
807.163, 271.567
808.445, 267.882
809.726, 168.179
811.008, 194.458
812.289, 141.720
813.570, 99.963
814.851, 104.188
816.132, 68.395
817.413, 36.582
818.693, 26.748
819.973, 20.054
821.253, 2.885
822.533, 5.631
823.813, 13.805
825.092, 11.239
826.371, 11.261
827.650, 21.262
828.929, 31.754
830.208, 0.191
831.486, 0.113
832.764, 58.988
834.042, 19.138
835.320, 58.318
836.598, 64.547
837.875, 37.826
839.152, 57.141
840.429, 97.501
841.706, 99.074
842.983, 168.636
844.259, 147.811
845.536, 35.348
846.812, 137.916
848.088, 40.566
849.363, 149.248
850.639, 52.016
851.914, 97.819
853.189, 50.680
854.464, 36.574
855.739, 28.505
857.013, 45.575
858.288, 19.635
859.562, 27.314
860.836, 65.284
862.110, 76.712
863.383, 0.299
864.656, 75.681
865.930, 43.658
867.203, 59.629
868.475, 50.598
869.748, 66.565
871.020, 80.792
872.292, 146.498
873.564, 124.465
874.836, 143.441
876.108, 181.418
877.379, 162.408
878.650, 279.400
879.922, 201.395
881.192, 269.394
882.463, 374.405
883.733, 351.418
885.004, 347.469
886.274, 400.536
887.544, 460.618
888.813, 596.722
890.083, 593.841
891.352, 658.968
892.621, 813.108
893.890, 1048.263
895.159, 1041.021
896.427, 1179.628
897.695, 1137.845
898.964, 1164.090
900.232, 1282.361
901.499, 1296.650
902.767, 1393.966
904.034, 1548.312
905.301, 1437.692
906.568, 1541.107
907.835, 1668.563
909.102, 1744.059
910.368, 1776.634
911.634, 1827.300
912.900, 1998.074
914.166, 1991.951
915.432, 2238.931
916.697, 2259.038
917.962, 2458.262
919.227, 2640.601
920.492, 2897.049
921.757, 3051.591
923.021, 3283.234
924.285, 3582.976
925.550, 3844.812
926.813, 4102.740
928.077, 4278.752
929.341, 4478.817
930.604, 4725.936
931.867, 4767.101
933.130, 5063.307
934.393, 5493.546
935.655, 4741.804
936.918, 4541.084
938.180, 4691.382
939.442, 4489.689
940.703, 4535.007
941.965, 4514.338
943.226, 4492.681
944.488, 4522.033
945.749, 4604.395
947.009, 4793.766
948.270, 4626.145
949.530, 4730.535
950.791, 4599.937
952.051, 4655.346
953.311, 4480.764
954.570, 4169.193
955.830, 4043.631
957.089, 3748.081
958.348, 3465.542
959.607, 3142.011
960.866, 2962.488
962.124, 2656.973
963.383, 2385.467
964.641, 2381.876
965.899, 2255.128
967.156, 2166.419
968.414, 2025.577
969.671, 1957.619
970.928, 1919.635
972.185, 1937.647
973.442, 1929.353
974.699, 1874.215
975.955, 1912.183
977.211, 1919.227
978.468, 1828.285
979.723, 1922.402
980.979, 1843.606
982.234, 1800.450
983.490, 2025.323
984.745, 1824.119
986.000, 1900.197
987.254, 1931.174
988.509, 1915.839
989.763, 2044.097
991.017, 2041.335
992.271, 2120.160
993.525, 2212.053
994.779, 2297.002
996.032, 2417.400
997.285, 2494.115
998.538, 2659.802
999.791, 2716.363
1001.044, 2972.508
1002.296, 2955.601
1003.548, 3301.149
1004.800, 3570.433
1006.052, 3649.457
1007.304, 4027.994
1008.555, 4110.621
1009.807, 4347.157
1011.058, 4606.761
1012.309, 4793.666
1013.559, 4974.487
1014.810, 5047.365
1016.060, 5029.597
1017.310, 5251.779
1018.560, 5332.279
1019.810, 5237.988
1021.060, 5434.623
1022.309, 5478.748
1023.558, 5492.815
1024.807, 5748.164
1026.056, 5730.398
1027.305, 5976.653
1028.553, 6156.808
1029.801, 6505.892
1031.049, 6733.292
1032.297, 7041.176
1033.545, 7351.402
1034.793, 7918.016
1036.040, 8007.990
1037.287, 8394.481
1038.534, 8558.521
1039.781, 8834.778
1041.027, 9107.473
1042.274, 8900.114
1043.520, 8977.172
1044.766, 9064.681
1046.012, 8903.566
1047.257, 9059.561
1048.503, 9011.709
1049.748, 9183.091
1050.993, 9175.540
1052.238, 9449.613
1053.483, 9390.437
1054.727, 9517.907
1055.971, 9633.176
1057.216, 9905.529
1058.459, 9856.716
1059.703, 10200.012
1060.947, 10376.880
1062.190, 10506.668
1063.433, 10684.540
1064.676, 10911.594
1065.919, 11089.617
1067.162, 11188.531
1068.404, 11271.559
1069.646, 11243.695
1070.888, 11177.871
1072.130, 11000.577
1073.372, 10769.902
1074.613, 10458.922
1075.855, 10057.493
1077.096, 9667.997
1078.337, 9192.290
1079.578, 9040.314
1080.818, 8533.678
1082.059, 8330.656
1083.299, 8106.329
1084.539, 7838.151
1085.779, 7489.228
1087.018, 7144.230
1088.258, 6840.493
1089.497, 6384.536
1090.736, 5842.803
1091.975, 5405.927
1093.213, 4952.372
1094.452, 4555.824
1095.690, 4208.951
1096.928, 3879.662
1098.166, 3603.250
1099.404, 3429.777
1100.642, 3201.951
1101.879, 2932.409
1103.116, 2852.689
1104.353, 2563.198
1105.590, 2523.940
1106.827, 2430.373
1108.063, 2323.418
1109.299, 2109.306
1110.536, 2054.130
1111.771, 1915.465
1113.007, 1813.343
1114.243, 1729.259
1115.478, 1689.876
1116.713, 1607.988
1117.948, 1590.718
1119.183, 1483.207
1120.418, 1388.123
1121.652, 1487.792
1122.886, 1651.389
1124.120, 1606.401
1125.354, 1465.963
1126.588, 1320.199
1127.821, 1181.473
1129.055, 1040.368
1130.288, 1116.902
1131.521, 1222.047
1132.753, 1013.995
1133.986, 858.936
1135.218, 940.097
1136.450, 910.059
1137.682, 745.807
1138.914, 799.503
1140.146, 755.544
1141.377, 773.442
1142.609, 721.510
1143.840, 653.239
1145.071, 618.032
1146.301, 610.621
1147.532, 540.291
1148.762, 594.806
1149.992, 526.153
1151.222, 492.705
1152.452, 464.580
1153.682, 517.796
1154.911, 395.119
1156.140, 428.227
1157.369, 447.537
1158.598, 355.717
1159.827, 351.092
1161.055, 316.206
1162.284, 212.219
1163.512, 218.128
1164.740, 211.923
1165.967, 158.719
1167.195, 106.319
1168.422, 139.056
1169.650, 25.671
1170.877, 43.897
1172.103, 25.456
1173.330, 11.935
1174.557, 37.695
1175.783, 38.772
1177.009, 60.564
1178.235, 4.528
1179.461, 26.786
1180.686, 40.677
1181.912, 115.890
1183.137, 40.792
1184.362, 32.105
1185.587, 55.729
1186.811, 26.364
1188.036, 0.378
1189.260, 14.685
1190.484, 20.330
1191.708, 26.606
1192.932, 47.564
1194.155, 48.488
1195.378, 66.028
1196.602, 53.078
1197.825, 21.355
1199.047, 62.427
1200.270, 57.731
1201.492, 83.322
1202.715, 79.497
1203.937, 80.213
1205.159, 45.199
1206.380, 62.315
1207.602, 7.190
1208.823, 21.306
1210.044, 22.125
1211.265, 8.702
1212.486, 38.202
1213.707, 4.212
1214.927, 6.991
1216.147, 14.799
1217.367, 73.597
1218.587, 11.279
1219.807, 17.528
1221.027, 14.647
1222.246, 4.564
1223.465, 10.097
1224.684, 56.255
1225.903, 86.980
1227.121, 23.410
1228.340, 17.703
1229.558, 27.149
1230.776, 105.104
1231.994, 74.438
1233.212, 80.926
1234.429, 236.080
1235.646, 286.291
1236.864, 56.365
1238.081, 66.689
1239.297, 177.660
1240.514, 167.709
1241.730, 157.380
1242.947, 172.474
1244.163, 123.350
1245.378, 126.893
1246.594, 200.611
1247.810, 128.021
1249.025, 157.476
1250.240, 116.731
1251.455, 85.000
1252.670, 118.730
1253.885, 182.386
1255.099, 210.335
1256.313, 215.863
1257.527, 113.817
1258.741, 184.015
1259.955, 166.072
1261.168, 75.239
1262.382, 123.072
1263.595, 179.943
1264.808, 228.475
1266.021, 53.330
1267.233, 164.457
1268.446, 173.902
1269.658, 108.750
1270.870, 161.984
1272.082, 228.843
1273.294, 208.565
1274.505, 103.118
1275.716, 142.051
1276.928, 207.026
1278.139, 89.108
1279.349, 236.750
1280.560, 172.559
1281.770, 211.234
1282.981, 253.976
1284.191, 255.276
1285.401, 164.189
1286.610, 189.101
1287.820, 151.026
1289.029, 200.782
1290.239, 180.520
1291.448, 216.872
1292.656, 191.411
1293.865, 215.616
1295.073, 249.666
1296.282, 188.620
1297.490, 137.312
1298.698, 245.865
1299.906, 206.167
1301.113, 241.448
1302.320, 176.520
1303.528, 191.555
1304.735, 153.182
1305.942, 177.547
1307.148, 183.778
1308.355, 190.411
1309.561, 198.650
1310.767, 179.448
1311.973, 206.108
1313.179, 166.636
1314.384, 171.159
1315.590, 233.029
1316.795, 145.815
1318.000, 163.246
1319.205, 154.570
1320.410, 127.718
1321.614, 92.807
1322.819, 41.822
1324.023, 193.372
1325.227, 93.287
1326.431, 201.897
1327.634, 94.773
1328.838, 117.138
1330.041, 137.836
1331.244, 119.838
1332.447, 190.465
1333.650, 141.502
1334.852, 86.432
1336.055, 135.789
1337.257, 88.541
1338.459, 193.827
1339.661, 110.779
1340.862, 149.428
1342.064, 58.689
1343.265, 113.740
1344.466, 119.016
1345.667, 131.391
1346.868, 135.386
1348.068, 143.592
1349.269, 102.985
1350.469, 97.405
1351.669, 51.549
1352.869, 58.968
1354.069, 28.318
1355.268, 123.433
1356.468, 31.784
1357.667, 86.878
1358.866, 47.521
1360.065, 74.663
1361.263, 59.989
1362.462, 10.011
1363.660, 16.802
1364.858, 83.711
1366.056, 5.648
1367.254, 37.319
1368.451, 25.243
1369.649, 69.188
1370.846, 68.025
1372.043, 15.193
1373.240, 49.729
1374.436, 11.969
1375.633, 30.730
1376.829, 25.027
1378.025, 62.711
1379.221, 17.277
1380.417, 32.848
1381.613, 14.298
1382.808, 34.128
1384.003, 123.877
1385.199, 32.052
1386.393, 80.161
1387.588, 23.398
1388.783, 144.018
1389.977, 85.939
1391.171, 123.120
1392.365, 90.281
1393.559, 6.895
1394.753, 85.423
1395.946, 27.826
1397.140, 165.346
1398.333, 81.142
1399.526, 140.404
1400.719, 53.065
1401.911, 163.670
1403.104, 24.934
1404.296, 114.272
1405.488, 164.413
1406.680, 126.473
1407.872, 25.784
1409.063, 81.400
1410.255, 214.324
1411.446, 9.646
1412.637, 220.106
1413.828, 96.355
1415.018, 155.267
1416.209, 157.166
1417.399, 165.032
1418.589, 100.394
1419.779, 171.094
1420.969, 170.797
1422.159, 41.544
1423.348, 168.061
1424.537, 167.121
1425.726, 116.991
1426.915, 187.742
1428.104, 247.474
1429.293, 212.944
1430.481, 176.110
1431.669, 183.956
1432.857, 156.017
1434.045, 214.322
1435.233, 133.710
1436.420, 168.620
1437.608, 172.031
1438.795, 161.427
1439.982, 180.132
1441.169, 173.534
1442.355, 197.134
1443.542, 168.161
1444.728, 182.094
1445.914, 141.033
1447.100, 181.253
1448.286, 220.922
1449.472, 175.912
1450.657, 211.284
1451.842, 272.266
1453.027, 228.051
1454.212, 239.360
1455.397, 359.297
1456.581, 153.694
1457.766, 236.758
1458.950, 235.065
1460.134, 128.551
1461.318, 291.255
1462.501, 139.441
1463.685, 161.954
1464.868, 240.742
1466.051, 145.133
1467.234, 320.634
1468.417, 74.953
1469.600, 219.812
1470.782, 180.801
1471.965, 273.569
1473.147, 270.787
1474.329, 230.359
1475.510, 228.032
1476.692, 166.615
1477.873, 105.003
1479.055, 150.887
1480.236, 61.166
1481.416, 278.564
1482.597, 128.732
1483.778, 198.140
1484.958, 159.418
1486.138, 93.601
1487.318, 71.748
1488.498, 242.433
1489.678, 142.595
1490.857, 189.757
1492.037, 37.789
1493.216, 106.039
1494.395, 60.290
