##NAMES=Fluorite
##RRUFFID=R050115
##IDEAL CHEMISTRY=CaF_2_
##LOCALITY=Isthak Valley Iskardu, N.A. Gilgit, Pakistan
##OWNER=RRUFF
##SOURCE=Syed Shah
##DESCRIPTION=Colorless fragment
##STATUS=The identification of this mineral has been confirmed by X-ray diffraction and chemical analysis
##URL=rruff.info/R050115
##MEASURED CHEMISTRY=CaF_2_
##PIN_ID=L00441
##ORIENTATION=Laser parallel to -a* (-1 0 0). Fiducial mark perpendicular to laser is parallel to b [0 1 0]
97.628, 0.000
99.023, 20.390
100.418, 1.062
101.812, 3.218
103.206, 70.150
104.600, 23.746
105.994, 129.604
107.387, 156.220
108.781, 168.683
110.174, 132.016
111.566, 192.983
112.959, 305.165
114.351, 184.284
115.744, 291.219
117.136, 204.460
118.527, 159.094
119.919, 201.402
121.310, 142.269
122.701, 148.044
124.092, 137.073
125.482, 230.244
126.873, 189.569
128.263, 249.165
129.653, 261.133
131.042, 331.557
132.432, 429.505
133.821, 519.706
135.210, 805.447
136.599, 1067.999
137.987, 1509.922
139.376, 1861.069
140.764, 2222.884
142.152, 2532.531
143.539, 2920.272
144.927, 3237.058
146.314, 3083.188
147.701, 2817.547
149.088, 2012.781
150.474, 1465.751
151.861, 999.715
153.247, 667.354
154.633, 487.859
156.018, 372.412
157.404, 342.012
158.789, 267.656
160.174, 292.343
161.559, 372.065
162.943, 339.822
164.327, 433.608
165.711, 328.422
167.095, 296.263
168.479, 182.131
169.862, 53.028
171.246, 106.953
172.628, 51.907
174.011, 61.890
175.394, 32.098
176.776, 3.950
178.158, 28.960
179.540, 8.174
180.922, 5.386
182.303, 17.301
183.684, 21.920
185.065, 1.484
186.446, 21.002
187.826, 3.532
189.207, 40.900
190.587, 8.705
191.967, 60.658
193.346, 25.008
194.726, 31.702
196.105, 36.579
197.484, 16.835
198.862, 66.066
200.241, 26.724
201.619, 15.466
202.997, 82.357
204.375, 12.190
205.753, 63.030
207.130, 66.876
208.507, 37.730
209.884, 111.595
211.261, 96.472
212.638, 205.365
214.014, 227.274
215.390, 361.200
216.766, 447.144
218.141, 559.104
219.517, 724.062
220.892, 927.988
222.267, 1174.903
223.642, 1279.795
225.016, 1290.681
226.391, 1199.562
227.765, 1123.416
229.139, 1011.265
230.512, 990.097
231.886, 1007.896
233.259, 1027.708
234.632, 1047.544
236.005, 1171.409
237.377, 1256.303
238.749, 1463.226
240.122, 1646.178
241.493, 1707.156
242.865, 1619.158
244.237, 1430.185
245.608, 1184.236
246.979, 1049.308
248.350, 986.399
249.720, 969.508
251.090, 936.634
252.461, 912.776
253.830, 831.186
255.200, 862.735
256.570, 968.285
257.939, 1178.851
259.308, 1503.506
260.677, 1898.392
262.045, 2049.498
263.414, 1714.165
264.782, 1366.807
266.150, 1098.032
267.517, 1017.204
268.885, 904.514
270.252, 830.010
271.619, 861.333
272.986, 741.703
274.353, 887.007
275.719, 804.199
277.085, 917.310
278.451, 914.467
279.817, 906.459
281.182, 959.699
282.548, 935.665
283.913, 982.697
285.278, 974.620
286.642, 932.600
288.007, 949.629
289.371, 965.481
290.735, 952.325
292.099, 897.167
293.462, 890.250
294.826, 897.090
296.189, 795.933
297.552, 820.021
298.914, 782.815
300.277, 751.702
301.639, 782.578
303.001, 754.537
304.363, 731.167
305.724, 685.730
307.086, 684.279
308.447, 659.777
309.808, 740.219
311.168, 742.668
312.529, 720.076
313.889, 881.467
315.249, 827.872
316.609, 1035.339
317.969, 1085.850
319.328, 1220.426
320.687, 1269.055
322.046, 1192.742
323.405, 1220.486
324.764, 1062.267
326.122, 1023.098
327.480, 870.960
328.838, 871.847
330.196, 760.770
331.553, 753.718
332.910, 764.688
334.267, 705.542
335.624, 788.560
336.981, 719.458
338.337, 720.416
339.693, 776.046
341.049, 797.018
342.405, 786.023
343.760, 775.394
345.116, 802.691
346.471, 783.659
347.826, 722.406
349.180, 844.502
350.535, 779.379
351.889, 885.883
353.243, 803.697
354.597, 778.471
355.950, 847.167
357.304, 766.067
358.657, 870.994
360.010, 760.377
361.362, 788.100
362.715, 778.856
364.067, 767.032
365.419, 752.217
366.771, 720.508
368.123, 704.667
369.474, 689.127
370.825, 638.596
372.176, 598.132
373.527, 572.206
374.877, 540.390
376.228, 522.944
377.578, 478.578
378.928, 480.271
380.277, 455.405
381.627, 429.571
382.976, 431.887
384.325, 410.314
385.674, 410.796
387.023, 377.468
388.371, 386.990
389.719, 302.735
391.067, 306.202
392.415, 315.539
393.762, 230.936
395.110, 256.092
396.457, 181.554
397.804, 210.871
399.150, 117.243
400.497, 149.507
401.843, 148.515
403.189, 71.110
404.535, 147.231
405.881, 28.574
407.226, 30.996
408.571, 12.112
409.916, 22.629
411.261, 51.643
412.605, 3.298
413.950, 40.803
415.294, 2.674
416.638, 11.682
417.981, 64.693
419.325, 8.882
420.668, 8.453
422.011, 28.318
423.354, 45.116
424.697, 28.084
426.039, 96.001
427.381, 15.002
428.723, 45.019
430.065, 14.112
431.406, 8.864
432.748, 16.023
434.089, 5.214
435.430, 20.801
436.770, 47.495
438.111, 64.451
439.451, 52.377
440.791, 89.957
442.131, 30.121
443.471, 124.747
444.810, 76.679
446.149, 118.636
447.488, 81.384
448.827, 65.292
450.166, 109.484
451.504, 105.116
452.842, 105.478
454.180, 46.985
455.518, 105.841
456.855, 111.591
458.193, 53.749
459.530, 149.750
460.867, 103.788
462.203, 93.297
463.540, 58.668
464.876, 147.030
466.212, 157.605
467.548, 169.167
468.883, 159.246
470.219, 193.755
471.554, 193.482
472.889, 199.059
474.224, 204.437
475.558, 218.403
476.892, 251.326
478.227, 272.663
479.561, 305.153
480.894, 340.575
482.228, 361.203
483.561, 424.861
484.894, 439.656
486.227, 496.631
487.559, 536.277
488.892, 564.996
490.224, 607.934
491.556, 627.800
492.888, 632.302
494.220, 643.392
495.551, 592.597
496.882, 630.573
498.213, 571.902
499.544, 588.895
500.874, 531.034
502.205, 524.227
503.535, 374.674
504.865, 413.805
506.194, 361.776
507.524, 363.578
508.853, 411.338
510.182, 327.052
511.511, 411.716
512.840, 339.332
514.168, 406.911
515.496, 307.441
516.824, 314.939
518.152, 392.388
519.480, 329.931
520.807, 299.292
522.134, 284.751
523.461, 248.036
524.788, 245.724
526.114, 251.455
527.441, 239.589
528.767, 210.671
530.093, 207.699
531.418, 176.673
532.744, 143.591
534.069, 205.453
535.394, 172.260
536.719, 165.009
538.044, 149.702
539.368, 128.336
540.693, 188.911
542.017, 236.428
543.340, 208.890
544.664, 194.294
545.987, 147.640
547.311, 181.926
548.634, 127.152
549.956, 192.317
551.279, 221.422
552.601, 205.468
553.923, 261.455
555.245, 186.382
556.567, 219.250
557.889, 204.056
559.210, 227.802
560.531, 286.486
561.852, 144.112
563.173, 254.674
564.493, 199.175
565.813, 177.492
567.133, 247.749
568.453, 149.107
569.773, 266.265
571.092, 252.406
572.412, 240.061
573.731, 292.463
575.049, 124.120
576.368, 166.843
577.686, 152.670
579.005, 173.062
580.323, 194.030
581.640, 196.631
582.958, 237.672
584.275, 222.871
585.593, 252.749
586.909, 259.433
588.226, 234.880
589.543, 284.671
590.859, 140.498
592.175, 277.658
593.491, 296.835
594.807, 156.653
596.122, 376.230
597.438, 190.391
598.753, 236.401
600.068, 164.434
601.382, 109.263
602.697, 188.425
604.011, 182.733
605.325, 205.043
606.639, 183.189
607.952, 58.196
609.266, 103.763
610.579, 46.094
611.892, 112.773
613.205, 83.331
614.518, 24.036
615.830, 139.394
617.142, 67.568
618.454, 146.934
619.766, 103.111
621.078, 112.141
622.389, 110.923
623.700, 91.919
625.011, 185.821
626.322, 127.634
627.632, 91.356
628.943, 154.981
630.253, 45.517
631.563, 72.050
632.872, 10.771
634.182, 137.614
635.491, 64.645
636.800, 148.828
638.109, 98.206
639.418, 115.752
640.726, 118.478
642.035, 41.384
643.343, 92.431
644.651, 24.644
645.958, 6.011
647.266, 44.450
648.573, 2.947
649.880, 8.226
651.187, 33.610
652.494, 64.417
653.800, 22.341
655.106, 117.157
656.412, 67.877
657.718, 124.497
659.024, 116.021
660.329, 174.452
661.634, 369.803
662.939, 394.102
664.244, 727.405
665.549, 781.679
666.853, 839.965
668.157, 938.294
669.461, 699.619
670.765, 764.000
672.069, 567.415
673.372, 468.853
674.675, 482.342
675.978, 369.840
677.281, 457.383
678.583, 366.877
679.886, 559.302
681.188, 717.577
682.490, 756.825
683.792, 1042.084
685.093, 1250.268
686.394, 1349.267
687.696, 1707.230
688.997, 1557.983
690.297, 1990.528
691.598, 1798.260
692.898, 1628.772
694.198, 1523.172
695.498, 1164.427
696.798, 994.511
698.097, 942.769
699.397, 781.143
700.696, 791.322
701.995, 712.359
703.293, 885.120
704.592, 746.944
705.890, 862.458
707.188, 883.165
708.486, 798.913
709.784, 945.515
711.081, 842.271
712.378, 781.632
713.675, 820.052
714.972, 625.328
716.269, 647.625
717.565, 475.087
718.862, 484.875
720.158, 475.046
721.453, 397.906
722.749, 510.598
724.045, 290.505
725.340, 312.919
726.635, 385.746
727.930, 224.436
729.224, 261.988
730.519, 216.678
731.813, 192.497
733.107, 211.485
734.401, 144.325
735.694, 285.152
736.988, 206.989
738.281, 48.753
739.574, 124.564
740.867, 79.787
742.160, 80.781
743.452, 49.742
744.744, 137.562
746.036, 1.554
747.328, 145.321
748.620, 67.672
749.911, 30.159
751.202, 57.712
752.493, 121.737
753.784, 32.105
755.075, 238.698
756.365, 225.605
757.655, 210.951
758.945, 372.889
760.235, 358.703
761.525, 433.630
762.814, 286.299
764.103, 113.586
765.392, 229.325
766.681, 139.235
767.969, 268.893
769.258, 337.104
770.546, 179.324
771.834, 458.034
773.122, 348.804
774.409, 540.439
775.697, 671.507
776.984, 631.616
778.271, 888.637
779.558, 848.348
780.844, 807.978
782.131, 912.996
783.417, 911.488
784.703, 969.667
785.989, 1027.337
787.274, 961.241
788.560, 1133.897
789.845, 1133.502
791.130, 1252.599
792.415, 1301.327
793.699, 1453.151
794.983, 1657.797
796.268, 1518.196
797.552, 1828.363
798.835, 1905.258
800.119, 1974.340
801.402, 2375.282
802.686, 2195.995
803.969, 2314.621
805.251, 2485.516
806.534, 2184.730
807.816, 2447.736
809.098, 2210.875
810.380, 2248.569
811.662, 2336.505
812.944, 2042.217
814.225, 2293.786
815.506, 2107.681
816.787, 2128.110
818.068, 2192.913
819.349, 2146.352
820.629, 2374.791
821.909, 2217.368
823.189, 2478.892
824.469, 2654.240
825.749, 2694.536
827.028, 3132.176
828.307, 3086.438
829.586, 3490.742
830.865, 4333.568
832.144, 5105.096
833.422, 6486.727
834.700, 6930.924
835.978, 6099.935
837.256, 5340.287
838.534, 4517.087
839.811, 4315.265
841.088, 3962.575
842.365, 3937.298
843.642, 4243.803
844.919, 4169.717
846.195, 4854.273
847.472, 5318.779
848.748, 5933.233
850.023, 6404.549
851.299, 7101.997
852.575, 7096.304
853.850, 6990.562
855.125, 6824.772
856.400, 7608.936
857.674, 7633.054
858.949, 8367.124
860.223, 8981.150
861.497, 9555.134
862.771, 10479.070
864.045, 11272.960
865.318, 12146.811
866.591, 13470.615
867.864, 14074.378
869.137, 15278.101
870.410, 15651.778
871.682, 16555.418
872.955, 17179.014
874.227, 17032.580
875.499, 17046.100
876.770, 16759.582
878.042, 16262.778
879.313, 15786.116
880.584, 14919.487
881.855, 14301.982
883.126, 13844.842
884.396, 12747.178
885.667, 12319.187
886.937, 11621.407
888.207, 10652.576
889.476, 10335.532
890.746, 9377.631
892.015, 8986.137
893.284, 8466.763
894.553, 7737.678
895.822, 7437.125
897.090, 6859.821
898.359, 6466.961
899.627, 6242.787
900.895, 5509.363
902.163, 5750.779
903.430, 5504.520
904.698, 5686.511
905.965, 6896.894
907.232, 8284.274
908.499, 12796.691
909.765, 19608.959
911.032, 25421.064
912.298, 23273.848
913.564, 15996.619
914.830, 10849.383
916.095, 7722.122
917.361, 7092.361
918.626, 8594.735
919.891, 11895.652
921.156, 15148.348
922.420, 14681.107
923.685, 12802.970
924.949, 15755.744
926.213, 20138.529
927.477, 22091.312
928.740, 18204.100
930.004, 14316.896
931.267, 13139.697
932.530, 11612.506
933.793, 10145.317
935.056, 11608.139
936.318, 15520.968
937.581, 16093.805
938.843, 12506.655
940.104, 9149.548
941.366, 8182.467
942.628, 9385.443
943.889, 12968.461
945.150, 21671.547
946.411, 34444.684
947.672, 42537.875
948.932, 34341.133
950.193, 21484.418
951.453, 12977.764
952.713, 7421.145
953.973, 5014.557
955.232, 3358.012
956.491, 2571.497
957.751, 2765.015
959.010, 2128.575
960.268, 2152.160
961.527, 1515.778
962.785, 699.419
964.044, 583.087
965.302, 216.780
966.559, 100.500
967.817, 14.224
969.075, 232.085
970.332, 78.537
971.589, 265.062
972.846, 391.743
974.102, 198.641
975.359, 445.661
976.615, 362.919
977.871, 320.374
979.127, 438.003
980.383, 265.859
981.638, 423.859
982.893, 222.072
984.149, 230.405
985.404, 278.858
986.658, 187.450
987.913, 216.139
989.167, 154.933
990.421, 6.194
991.675, 172.681
992.929, 108.362
994.183, 29.440
995.436, 40.530
996.689, 391.641
997.942, 222.788
999.195, 553.977
1000.448, 585.204
1001.700, 636.474
1002.952, 877.786
1004.204, 649.142
1005.456, 770.540
1006.708, 1101.984
1007.959, 803.475
1009.210, 1175.013
1010.461, 1176.600
1011.712, 1238.233
1012.963, 1439.917
1014.213, 1341.652
1015.464, 1423.451
1016.714, 1555.302
1017.964, 1467.207
1019.214, 1709.170
1020.463, 1701.188
1021.712, 1783.262
1022.962, 2185.394
1024.210, 1807.583
1025.459, 2029.831
1026.708, 2122.141
1027.956, 1834.511
1029.204, 2316.943
1030.452, 2039.439
1031.700, 2182.001
1032.948, 2214.629
1034.195, 2137.325
1035.442, 2520.094
1036.689, 2292.934
1037.936, 2275.849
1039.183, 2768.840
1040.429, 2341.903
1041.676, 2715.043
1042.922, 2948.276
1044.168, 2631.593
1045.413, 3175.036
1046.659, 2858.571
1047.904, 3032.227
1049.149, 3346.027
1050.394, 3129.939
1051.639, 3164.000
1052.884, 3168.193
1054.128, 3042.506
1055.372, 3556.947
1056.616, 2991.483
1057.860, 3236.127
1059.104, 3180.854
1060.347, 2885.672
1061.590, 3240.577
1062.833, 2955.567
1064.076, 2930.645
1065.319, 3035.809
1066.561, 2621.062
1067.803, 2856.415
1069.046, 2771.861
1070.287, 2467.408
1071.529, 2713.046
1072.771, 2468.777
1074.012, 2494.605
1075.253, 2790.527
1076.494, 2216.545
1077.735, 2542.657
1078.975, 2348.866
1080.216, 2345.171
1081.456, 2511.574
1082.696, 2278.074
1083.936, 2274.675
1085.175, 2491.374
1086.415, 2248.174
1087.654, 2465.076
1088.893, 2262.081
1090.132, 2129.186
1091.371, 2496.396
1092.609, 2083.709
1093.847, 2211.126
1095.085, 2228.648
1096.323, 2296.276
1097.561, 2384.009
1098.799, 2271.850
1100.036, 2389.795
1101.273, 2397.850
1102.510, 2396.011
1103.747, 2604.281
1104.983, 2692.660
1106.220, 2461.148
1107.456, 2779.745
1108.692, 2488.455
1109.928, 2287.275
1111.163, 2666.207
1112.399, 2345.252
1113.634, 2704.410
1114.869, 2413.682
1116.104, 2511.405
1117.339, 2715.940
1118.573, 2317.285
1119.808, 2377.196
1121.042, 2447.196
1122.276, 2090.138
1123.509, 2564.242
1124.743, 2074.645
1125.976, 2290.193
1127.210, 2328.551
1128.443, 1980.420
1129.675, 2052.349
1130.908, 2265.754
1132.141, 2040.688
1133.373, 2185.462
1134.605, 1957.901
1135.837, 2325.618
1137.068, 2242.084
1138.300, 1982.197
1139.531, 2381.023
1140.762, 2200.813
1141.993, 2193.287
1143.224, 2364.078
1144.455, 2215.559
1145.685, 2328.500
1146.915, 2151.592
1148.145, 2134.838
1149.375, 2368.236
1150.605, 2231.791
1151.834, 2065.501
1153.063, 2179.366
1154.292, 2033.388
1155.521, 2057.564
1156.750, 2141.899
1157.978, 1666.393
1159.207, 2201.043
1160.435, 1785.854
1161.663, 1710.823
1162.891, 1898.604
1164.118, 1643.895
1165.345, 1669.348
1166.573, 1615.601
1167.800, 1501.377
1169.026, 1917.314
1170.253, 1353.418
1171.480, 1369.683
1172.706, 1746.112
1173.932, 1222.707
1175.158, 1379.468
1176.383, 1526.394
1177.609, 983.486
1178.834, 1300.745
1180.059, 1038.172
1181.284, 655.767
1182.509, 1063.528
1183.734, 751.456
1184.958, 939.550
1186.182, 857.809
1187.406, 526.235
1188.630, 944.830
1189.854, 393.591
1191.077, 482.521
1192.301, 651.617
1193.524, 290.884
1194.747, 420.318
1195.969, 739.922
1197.192, 119.694
1198.414, 559.682
1199.636, 379.840
1200.858, 440.167
1202.080, 590.675
1203.302, 111.351
1204.523, 402.197
1205.744, 543.215
1206.966, 254.401
1208.186, 475.759
1209.407, 487.288
1210.628, 288.989
1211.848, 630.886
1213.068, 262.955
1214.288, 345.196
1215.508, 687.617
1216.727, 260.212
1217.947, 492.980
1219.166, 535.921
1220.385, 209.032
1221.604, 742.318
1222.822, 345.776
1224.041, 199.409
1225.259, 693.214
1226.477, 227.191
1227.695, 451.341
1228.913, 445.661
1230.130, 350.155
1231.348, 824.821
1232.565, 279.658
1233.782, 444.670
1234.999, 659.854
1236.215, 365.212
1237.432, 500.738
1238.648, 646.422
1239.864, 392.264
1241.080, 788.264
1242.296, 444.424
1243.511, 490.743
1244.726, 877.224
1245.942, 463.865
1247.156, 800.668
1248.371, 797.635
1249.586, 594.766
1250.800, 1072.059
1252.014, 929.518
1253.228, 727.142
1254.442, 1054.932
1255.656, 882.886
1256.869, 991.005
1258.083, 969.291
1259.296, 807.741
1260.509, 1286.356
1261.722, 605.140
1262.934, 824.098
1264.147, 1113.250
1265.359, 752.650
1266.571, 865.396
1267.783, 1085.268
1268.994, 742.558
1270.206, 1182.821
1271.417, 916.654
1272.628, 773.865
1273.839, 957.023
1275.050, 782.514
1276.260, 697.189
1277.471, 799.258
1278.681, 771.569
1279.891, 874.271
1281.101, 687.084
1282.310, 450.131
1283.520, 873.418
1284.729, 596.932
1285.938, 480.635
1287.147, 654.569
1288.356, 238.675
1289.564, 712.964
1290.773, 567.435
1291.981, 242.078
1293.189, 636.894
1294.397, 341.880
1295.604, 287.038
1296.812, 522.369
1298.019, 87.872
1299.226, 153.547
1300.433, 379.394
1301.640, 75.412
1302.846, 311.604
1304.053, 167.967
1305.259, 14.503
1306.465, 381.212
1307.671, 191.907
1308.876, 445.133
1310.082, 302.347
1311.287, 70.266
1312.492, 357.293
1313.697, 385.027
1314.902, 22.936
1316.106, 681.021
1317.310, 179.285
1318.515, 377.724
1319.719, 876.344
1320.922, 425.142
1322.126, 844.118
1323.329, 743.276
1324.533, 342.578
1325.736, 1021.979
1326.939, 631.406
1328.141, 740.683
1329.344, 1019.925
1330.546, 619.333
1331.748, 968.903
1332.950, 1208.639
1334.152, 828.541
1335.354, 1218.607
1336.555, 1148.838
1337.757, 1039.233
1338.958, 1389.794
1340.159, 1230.518
1341.359, 1331.405
1342.560, 1713.281
1343.760, 1474.491
1344.960, 1935.862
1346.160, 2149.712
1347.360, 1781.400
1348.560, 2483.246
1349.759, 2615.247
1350.959, 2877.401
1352.158, 3849.707
1353.357, 3942.158
1354.555, 4474.764
1355.754, 6033.273
1356.952, 6646.234
1358.151, 9239.379
1359.349, 11573.997
1360.546, 13747.505
1361.744, 13952.041
1362.941, 14814.726
1364.139, 12488.324
1365.336, 10692.086
1366.533, 7596.004
1367.730, 5810.076
1368.926, 4854.021
1370.123, 3308.083
1371.319, 3102.160
1372.515, 2536.322
1373.711, 2250.583
1374.906, 2714.916
1376.102, 2519.699
1377.297, 2734.242
1378.492, 3308.913
1379.687, 2854.428
1380.882, 3318.353
1382.077, 3260.100
1383.271, 2352.102
1384.465, 2814.363
1385.659, 2356.885
1386.853, 2289.665
1388.047, 2712.705
1389.240, 2596.006
1390.434, 3219.568
1391.627, 4183.395
1392.820, 4907.480
1394.013, 6761.832
1395.205, 8836.447
1396.398, 9561.287
1397.590, 10036.265
1398.782, 8301.325
1399.974, 6516.411
1401.166, 4661.576
1402.357, 3006.969
1403.549, 2292.582
1404.740, 1708.417
1405.931, 604.467
1407.122, 790.732
1408.313, 217.210
1409.503, 116.100
1410.693, 120.802
1411.883, 222.089
1413.073, 284.770
1414.263, 107.244
1415.453, 419.513
1416.642, 325.114
1417.831, 127.881
1419.020, 339.592
1420.209, 128.895
1421.398, 107.578
1422.587, 6.456
1423.775, 975.526
1424.963, 1094.786
1426.151, 1744.241
1427.339, 2453.900
1428.526, 2253.765
1429.714, 2203.832
1430.901, 1964.101
1432.088, 994.568
1433.275, 895.161
1434.462, 455.876
1435.648, 206.747
1436.835, 417.808
1438.021, 139.057
1439.207, 280.492
1440.393, 942.026
1441.579, 633.729
1442.764, 1195.595
1443.949, 1787.641
1445.135, 1519.868
1446.320, 2012.277
1447.504, 2094.873
1448.689, 1827.664
1449.873, 2220.647
1451.058, 1573.827
1452.242, 1127.200
1453.426, 1270.874
1454.609, 554.870
1455.793, 559.186
1456.976, 683.814
1458.159, 298.757
1459.342, 754.006
1460.525, 849.562
1461.708, 785.433
1462.890, 1671.631
1464.073, 1778.155
1465.255, 1865.008
1466.437, 2314.314
1467.619, 1683.334
1468.800, 1376.471
1469.982, 1297.713
1471.163, 676.858
1472.344, 741.440
1473.525, 815.758
1474.706, 260.608
1475.886, 575.579
1477.066, 450.659
1478.247, 85.832
1479.427, 491.091
1480.607, 196.422
1481.786, 191.808
1482.966, 437.238
1484.145, 147.309
1485.324, 318.146
1486.503, 393.576
1487.682, 18.950
1488.860, 384.225
1490.039, 399.338
1491.217, 124.224
1492.395, 478.800
1493.573, 132.975
1494.751, 196.822
1495.928, 491.941
1497.106, 27.743
1498.283, 434.006
1499.460, 596.151
1500.637, 88.703
1501.814, 441.707
1502.990, 435.230
1504.166, 205.885
1505.342, 575.890
1506.518, 293.659
1507.694, 341.358
1508.870, 759.092
1510.045, 171.294
