##NAMES=Fluorophlogopite
##RRUFFID=R040039
##IDEAL CHEMISTRY=KMg_3_(Si_3_Al)O_10_F_2_
##LOCALITY=Franklin, Sussex County, New Jersey, USA
##OWNER=RRUFF
##SOURCE=University of Arizona Mineral Museum
##DESCRIPTION=Brown hexagonal sheets
##STATUS=The identification of this mineral has been confirmed by X-ray diffraction and chemical analysis
##URL=rruff.info/R040039
##MEASURED CHEMISTRY=(K_0.92_Na_0.06_[box]_0.02_)_Σ=1_(Mg_2.94_Fe_0.04_Ti_0.02_)_Σ=3_(Si_2.98_Al_1.02_)O_10_(F_1.24_(OH)_0.76_)_Σ=2_; OH estimated by charge balance
##PIN_ID=M00025
##ORIENTATION=Laser parallel to b* (0 1 0). Fiducial mark perpendicular to laser is parallel to c [0 0 1]
80.232, 0.000
81.628, 7.478
83.025, 27.339
84.421, 108.904
85.817, 357.116
87.213, 416.481
88.608, 688.331
90.003, 769.979
91.398, 1101.883
92.793, 1269.208
94.188, 1459.571
95.582, 1757.912
96.976, 1877.397
98.370, 2349.359
99.764, 2592.260
101.157, 3169.653
102.550, 3468.168
103.943, 3668.471
105.336, 3820.286
106.729, 3421.372
108.121, 3007.525
109.513, 2315.567
110.905, 1865.345
112.297, 1505.724
113.688, 1238.592
115.079, 1176.844
116.470, 1061.390
117.861, 950.534
119.251, 840.879
120.642, 770.004
122.032, 652.974
123.422, 465.863
124.811, 500.586
126.201, 412.087
127.590, 452.318
128.979, 367.244
130.367, 365.826
131.756, 277.035
133.144, 192.840
134.532, 250.218
135.920, 67.142
137.307, 166.591
138.695, 96.545
140.082, 175.984
141.469, 122.899
142.856, 46.274
144.242, 99.097
145.628, 11.356
147.014, 83.040
148.400, 31.137
149.786, 88.631
151.171, 45.509
152.556, 45.758
153.941, 111.365
155.325, 64.318
156.710, 222.608
158.094, 137.225
159.478, 183.158
160.862, 481.400
162.245, 309.938
163.629, 503.656
165.012, 510.265
166.395, 733.878
167.777, 735.513
169.160, 1019.225
170.542, 1125.127
171.924, 1301.210
173.306, 1591.446
174.687, 1659.881
176.068, 2305.545
177.449, 2525.347
178.830, 2953.326
180.211, 3683.487
181.591, 4288.811
182.972, 5474.324
184.351, 6579.994
185.731, 8405.849
187.111, 10511.876
188.490, 13558.044
189.869, 17894.375
191.248, 23130.902
192.626, 30237.586
194.005, 37884.422
195.383, 45641.387
196.761, 50478.496
198.139, 50325.828
199.516, 47823.367
200.893, 39251.113
202.271, 31499.049
203.647, 22947.146
205.024, 17385.389
206.400, 13003.887
207.777, 9622.547
209.152, 7731.384
210.528, 6080.394
211.904, 5069.522
213.279, 3848.863
214.654, 3358.397
216.029, 2860.026
217.403, 2309.753
218.778, 1986.567
220.152, 1625.482
221.526, 1469.504
222.900, 1222.621
224.273, 997.845
225.646, 854.185
227.019, 626.615
228.392, 682.160
229.765, 579.826
231.137, 663.577
232.509, 462.446
233.881, 436.410
235.253, 427.455
236.625, 286.649
237.996, 289.905
239.367, 288.252
240.738, 339.682
242.108, 72.171
243.479, 201.727
244.849, 171.330
246.219, 86.345
247.589, 240.204
248.958, 53.483
250.328, 248.323
251.697, 170.174
253.065, 138.632
254.434, 245.630
255.803, 161.098
257.171, 375.768
258.539, 223.036
259.906, 539.617
261.274, 444.551
262.641, 536.782
264.008, 763.118
265.375, 654.886
266.742, 946.070
268.108, 1161.301
269.475, 1646.606
270.840, 2171.251
272.206, 2697.318
273.572, 3918.566
274.937, 5227.748
276.302, 7062.676
277.667, 8792.177
279.032, 9462.437
280.396, 10033.249
281.760, 8803.174
283.125, 7596.478
284.488, 5686.656
285.852, 4557.193
287.215, 3439.204
288.578, 2669.722
289.941, 2404.845
291.304, 1857.569
292.666, 1711.392
294.029, 1433.309
295.391, 1325.318
296.753, 1323.777
298.114, 1127.960
299.476, 1312.539
300.837, 1203.885
302.198, 1514.310
303.558, 1642.891
304.919, 1863.464
306.279, 2412.302
307.639, 2511.015
308.999, 3281.829
310.359, 3623.672
311.718, 4255.577
313.077, 4926.395
314.436, 5078.417
315.795, 5695.696
317.154, 5507.988
318.512, 5975.121
319.870, 5852.853
321.228, 5895.139
322.586, 6172.956
323.943, 5605.335
325.300, 5749.214
326.657, 5013.810
328.014, 4546.316
329.371, 4082.213
330.727, 3454.803
332.083, 3140.020
333.439, 2354.528
334.795, 2284.239
336.150, 1874.399
337.506, 1582.186
338.861, 1502.463
340.215, 1009.594
341.570, 1124.487
342.924, 753.776
344.279, 861.733
345.633, 742.182
346.986, 551.201
348.340, 603.250
349.693, 394.812
351.046, 490.916
352.399, 306.830
353.752, 364.986
355.104, 456.167
356.457, 256.032
357.809, 441.260
359.160, 295.063
360.512, 351.335
361.863, 405.858
363.214, 238.875
364.565, 519.207
365.916, 282.946
367.267, 419.311
368.617, 441.475
369.967, 518.215
371.317, 828.624
372.666, 526.660
374.016, 695.093
375.365, 471.973
376.714, 479.427
378.063, 478.893
379.411, 191.412
380.760, 394.890
382.108, 131.879
383.456, 240.372
384.803, 174.872
386.151, 190.734
387.498, 236.243
388.845, 12.747
390.192, 357.264
391.539, 6.877
392.885, 151.979
394.231, 215.501
395.577, 15.110
396.923, 177.633
398.269, 33.179
399.614, 144.871
400.959, 85.392
402.304, 20.232
403.649, 210.748
404.993, 31.261
406.337, 242.030
407.681, 37.536
409.025, 31.032
410.369, 113.634
411.712, 52.724
413.055, 140.937
414.398, 28.629
415.741, 57.067
417.084, 101.815
418.426, 72.413
419.768, 96.355
421.110, 226.856
422.452, 129.900
423.793, 29.627
425.134, 66.657
426.475, 86.073
427.816, 111.186
429.157, 127.521
430.497, 138.764
431.837, 53.540
433.177, 1.211
434.517, 1.886
435.857, 54.562
437.196, 106.757
438.535, 120.816
439.874, 4.545
441.213, 12.912
442.551, 206.713
443.889, 55.662
445.227, 107.933
446.565, 9.527
447.903, 18.883
449.240, 110.688
450.577, 70.743
451.914, 180.782
453.251, 27.303
454.588, 166.820
455.924, 32.332
457.260, 5.162
458.596, 168.325
459.932, 75.190
461.267, 184.240
462.602, 179.664
463.938, 7.080
465.272, 184.476
466.607, 7.863
467.941, 223.229
469.276, 47.586
470.610, 106.932
471.943, 102.268
473.277, 119.407
474.610, 103.830
475.944, 53.944
477.276, 54.223
478.609, 46.625
479.942, 54.528
481.274, 187.506
482.606, 51.473
483.938, 125.486
485.270, 23.431
486.601, 10.349
487.932, 128.231
489.263, 178.901
490.594, 178.838
491.925, 7.562
493.255, 12.754
494.585, 213.880
495.915, 105.501
497.245, 167.020
498.575, 1.476
499.904, 87.980
501.233, 173.417
502.562, 133.163
503.891, 166.148
505.219, 98.558
506.548, 215.637
507.876, 134.813
509.203, 51.972
510.531, 258.127
511.859, 79.263
513.186, 183.373
514.513, 197.484
515.840, 54.578
517.166, 298.686
518.493, 33.774
519.819, 367.820
521.145, 74.848
522.470, 97.844
523.796, 244.812
525.121, 15.238
526.446, 218.645
527.771, 36.523
529.096, 126.358
530.421, 186.200
531.745, 2.022
533.069, 257.782
534.393, 10.458
535.716, 178.232
537.040, 177.902
538.363, 16.552
539.686, 294.144
541.009, 42.219
542.331, 298.331
543.654, 266.860
544.976, 62.369
546.298, 420.835
547.620, 80.684
548.941, 218.689
550.263, 177.041
551.584, 94.380
552.905, 317.686
554.225, 29.019
555.546, 325.195
556.866, 199.387
558.186, 117.562
559.506, 437.706
560.826, 74.827
562.145, 386.907
563.465, 227.965
564.784, 178.025
566.103, 373.060
567.421, 136.076
568.740, 448.062
570.058, 251.024
571.376, 230.304
572.694, 342.260
574.011, 68.193
575.329, 523.080
576.646, 245.944
577.963, 366.003
579.279, 301.822
580.596, 200.652
581.912, 530.425
583.228, 86.175
584.544, 374.061
585.860, 391.747
587.175, 243.235
588.491, 506.878
589.806, 140.635
591.121, 443.227
592.435, 359.562
593.750, 247.874
595.064, 604.399
596.378, 120.317
597.692, 682.790
599.006, 431.631
600.319, 407.038
601.632, 811.445
602.945, 424.580
604.258, 770.943
605.571, 580.043
606.883, 708.764
608.195, 1007.063
609.507, 619.842
610.819, 950.101
612.131, 827.338
613.442, 1026.554
614.753, 1416.750
616.064, 1015.562
617.375, 1566.493
618.685, 1431.313
619.995, 1771.426
621.306, 1971.519
622.615, 1910.510
623.925, 2650.562
625.235, 2669.399
626.544, 2959.412
627.853, 3589.368
629.162, 3399.342
630.471, 4239.293
631.779, 4200.374
633.087, 4670.289
634.395, 5084.984
635.703, 5024.705
637.011, 5679.615
638.318, 5353.961
639.625, 5573.781
640.932, 5728.104
642.239, 4987.891
643.546, 5676.201
644.852, 5083.826
646.158, 5143.562
647.464, 5179.934
648.770, 4839.638
650.076, 5356.741
651.381, 4642.578
652.686, 4942.236
653.991, 5112.466
655.296, 4732.095
656.600, 5458.256
657.905, 5067.582
659.209, 5327.171
660.513, 5716.363
661.817, 5525.923
663.120, 6266.012
664.423, 6005.547
665.726, 6845.072
667.029, 7289.312
668.332, 7378.812
669.635, 8827.514
670.937, 8871.424
672.239, 10140.886
673.541, 11449.791
674.842, 12289.231
676.144, 15056.105
677.445, 15875.551
678.746, 18123.721
680.047, 20042.414
681.348, 20101.793
682.648, 22275.771
683.948, 21338.891
685.248, 20925.461
686.548, 20651.705
687.848, 18111.029
689.147, 17725.734
690.447, 15149.328
691.746, 13813.190
693.044, 12392.482
694.343, 10031.757
695.641, 9416.978
696.940, 7451.514
698.238, 6563.264
699.535, 5592.506
700.833, 4441.740
702.130, 4338.608
703.427, 3246.101
704.724, 2975.320
706.021, 2654.522
707.318, 2105.925
708.614, 2293.531
709.910, 1565.557
711.206, 1637.646
712.502, 1706.812
713.798, 1077.025
715.093, 1535.011
716.388, 924.158
717.683, 1170.979
718.978, 1110.116
720.272, 844.233
721.567, 1143.100
722.861, 642.741
724.155, 820.918
725.448, 940.029
726.742, 487.559
728.035, 1036.668
729.328, 615.773
730.621, 712.156
731.914, 801.253
733.206, 360.370
734.499, 969.471
735.791, 538.567
737.083, 657.662
738.374, 716.799
739.666, 273.960
740.957, 793.104
742.248, 302.247
743.539, 611.410
744.830, 610.569
746.120, 359.118
747.410, 878.305
748.701, 307.490
749.990, 496.678
751.280, 635.863
752.570, 274.137
753.859, 733.346
755.148, 452.556
756.437, 391.772
757.725, 610.988
759.014, 200.219
760.302, 579.449
761.590, 358.682
762.878, 367.923
764.166, 657.164
765.453, 206.426
766.740, 655.688
768.027, 264.954
769.314, 224.219
770.601, 643.485
771.887, 2.760
773.174, 462.027
774.460, 421.320
775.745, 180.613
777.031, 439.910
778.316, 49.215
779.602, 468.522
780.887, 357.837
782.172, 117.155
783.456, 586.477
784.741, 155.802
786.025, 525.129
787.309, 304.499
788.593, 173.872
789.876, 573.271
791.160, 162.677
792.443, 662.109
793.726, 541.569
795.009, 301.033
796.291, 820.525
797.574, 290.023
798.856, 569.532
800.138, 719.058
801.420, 258.589
802.702, 678.182
803.983, 307.778
805.264, 407.393
806.545, 477.031
807.826, 56.674
809.107, 546.364
810.387, 246.062
811.667, 175.779
812.947, 475.506
814.227, 14.763
815.507, 435.014
816.786, 164.797
818.065, 224.628
819.344, 514.464
820.623, 105.691
821.902, 244.111
823.180, 123.921
824.459, 76.258
825.737, 393.529
827.014, 186.675
828.292, 423.041
829.569, 302.766
830.847, 2.510
832.124, 432.259
833.401, 32.022
834.677, 151.839
835.954, 351.666
837.230, 68.477
838.506, 351.374
839.782, 128.755
841.057, 261.062
842.333, 400.889
843.608, 79.255
844.883, 420.631
846.158, 90.551
847.433, 140.479
848.707, 450.418
849.981, 259.616
851.255, 450.260
852.529, 200.177
853.803, 50.104
855.076, 460.075
856.350, 149.933
857.623, 389.996
858.895, 349.980
860.168, 50.028
861.441, 639.954
862.713, 60.047
863.985, 259.937
865.257, 339.982
866.528, 29.961
867.800, 400.096
869.071, 110.169
870.342, 200.256
871.613, 320.405
872.884, 99.432
874.154, 440.697
875.425, 19.136
876.695, 271.037
877.965, 331.225
879.234, 158.573
880.504, 481.564
881.773, 201.719
883.042, 51.883
884.311, 562.073
885.580, 2.285
886.848, 382.510
888.117, 272.746
889.385, 262.996
890.653, 553.259
891.920, 53.546
893.188, 373.854
894.455, 344.177
895.722, 14.519
896.989, 604.874
898.256, 265.242
899.523, 205.629
900.789, 526.027
902.055, 186.463
903.321, 516.911
904.587, 237.373
905.852, 217.855
907.118, 588.352
908.383, 128.861
909.648, 489.384
910.913, 469.919
912.177, 150.468
913.442, 691.031
914.706, 91.607
915.970, 482.198
917.233, 522.802
918.497, 143.420
919.760, 644.051
921.024, 74.695
922.287, 325.354
923.550, 626.028
924.812, 145.938
926.075, 596.639
927.337, 347.354
928.599, 158.084
929.861, 828.826
931.122, 59.582
932.384, 680.353
933.645, 561.136
934.906, 171.933
936.167, 802.743
937.428, 83.569
938.688, 604.408
939.948, 495.261
941.208, 216.130
942.468, 807.011
943.728, 357.907
944.987, 518.814
946.247, 549.737
947.506, 200.673
948.765, 681.621
950.023, 502.585
951.282, 313.562
952.540, 904.550
953.798, 245.553
955.056, 636.570
956.314, 657.600
957.572, 278.645
958.829, 789.701
960.086, 310.772
961.343, 571.855
962.600, 722.952
963.856, 294.062
965.113, 795.183
966.369, 625.338
967.625, 496.489
968.881, 847.651
970.136, 188.832
971.392, 920.023
972.647, 705.012
973.902, 276.229
975.157, 1267.458
976.411, 434.267
977.666, 545.521
978.920, 955.980
980.174, 387.262
981.428, 1008.556
982.682, 639.833
983.935, 551.153
985.188, 1151.963
986.441, 423.311
987.694, 984.673
988.947, 926.302
990.199, 567.690
991.452, 1241.838
992.704, 463.252
993.956, 964.681
995.207, 1185.790
996.459, 667.253
997.710, 1388.726
998.961, 970.211
1000.212, 1071.710
1001.463, 1804.840
1002.714, 1006.362
1003.964, 1807.898
1005.214, 1517.204
1006.464, 1288.761
1007.714, 1892.055
1008.964, 1483.642
1010.213, 1765.278
1011.462, 2074.623
1012.711, 1586.279
1013.960, 2255.195
1015.209, 1911.359
1016.457, 2033.142
1017.705, 2593.869
1018.954, 2235.817
1020.201, 2697.678
1021.449, 3079.177
1022.697, 2931.057
1023.944, 3957.979
1025.191, 3845.231
1026.438, 4696.641
1027.685, 5858.580
1028.931, 6590.531
1030.177, 8594.066
1031.423, 9616.266
1032.669, 10658.242
1033.915, 12940.244
1035.161, 12304.020
1036.406, 13086.015
1037.651, 12498.069
1038.896, 10740.131
1040.141, 10502.202
1041.386, 8546.555
1042.630, 7338.643
1043.874, 6710.740
1045.118, 5224.170
1046.362, 5136.283
1047.606, 4508.612
1048.849, 3660.861
1050.092, 3963.006
1051.336, 3090.233
1052.578, 3272.395
1053.821, 3084.561
1055.064, 2287.481
1056.306, 2739.660
1057.548, 1951.902
1058.790, 1914.150
1060.032, 2356.402
1061.273, 1668.686
1062.515, 1970.973
1063.756, 1993.266
1064.997, 1405.738
1066.237, 2088.045
1067.478, 1230.357
1068.718, 1542.674
1069.959, 1614.995
1071.199, 987.540
1072.438, 1619.881
1073.678, 992.227
1074.918, 984.874
1076.157, 1447.235
1077.396, 669.601
1078.635, 891.970
1079.873, 1064.344
1081.112, 496.723
1082.350, 1109.104
1083.588, 631.490
1084.826, 624.084
1086.064, 1066.565
1087.301, 389.051
1088.539, 771.541
1089.776, 804.035
1091.013, 226.530
1092.250, 1029.029
1093.486, 321.531
1094.723, 484.037
1095.959, 846.543
1097.195, 239.053
1098.431, 1011.567
1099.666, 624.085
1100.902, 456.603
1102.137, 1169.124
1103.372, 311.647
1104.607, 814.716
1105.842, 957.243
1107.076, 239.770
1108.311, 912.429
1109.545, 594.963
1110.779, 547.498
1112.012, 880.036
1113.246, 82.574
1114.479, 586.058
1115.712, 528.603
1116.945, 91.146
1118.178, 874.637
1119.411, 207.183
1120.643, 279.728
1121.875, 932.305
1123.108, 104.881
1124.339, 747.455
1125.571, 690.051
1126.802, 7.354
1128.034, 735.557
1129.265, 48.190
1130.496, 300.820
1131.727, 643.451
1132.957, 163.922
1134.187, 709.492
1135.418, 322.034
1136.648, 75.429
1137.877, 697.847
1139.107, 50.358
1140.336, 182.898
1141.566, 636.204
1142.795, 231.265
1144.023, 613.190
1145.252, 135.611
1146.480, 118.025
1147.709, 591.440
1148.937, 116.151
1150.165, 416.255
1151.392, 469.043
1152.620, 128.561
1153.847, 673.763
1155.074, 246.078
1156.301, 48.425
1157.528, 741.167
1158.755, 83.498
1159.981, 415.831
1161.207, 599.902
1162.433, 57.767
1163.659, 654.992
1164.885, 219.169
1166.110, 61.438
1167.336, 722.487
1168.561, 135.265
1169.786, 396.889
1171.010, 443.856
1172.235, 63.990
1173.459, 798.104
1174.683, 220.600
1175.907, 152.674
1177.131, 794.949
1178.355, 67.037
1179.578, 549.112
1180.801, 405.256
1182.024, 2.695
1183.247, 849.322
1184.470, 206.896
1185.692, 148.888
1186.915, 800.865
1188.137, 6.896
1189.359, 435.031
1190.580, 507.782
1191.802, 9.682
1193.023, 741.552
1194.244, 105.307
1195.465, 127.146
1196.686, 658.969
1197.907, 48.418
1199.127, 603.329
1200.347, 515.174
1201.567, 26.971
1202.787, 1128.664
1204.007, 283.680
1205.226, 235.343
1206.446, 572.633
1207.665, 193.984
1208.884, 615.602
1210.102, 637.208
1211.321, 149.404
1212.539, 860.975
1213.758, 423.157
1214.976, 304.698
1216.193, 876.224
1217.411, 150.024
1218.628, 491.518
1219.846, 752.998
1221.063, 135.440
1222.280, 906.888
1223.496, 468.331
1224.713, 279.759
1225.929, 891.172
1227.145, 253.190
1228.361, 754.563
1229.577, 725.928
1230.793, 208.528
1232.008, 809.871
1233.223, 631.204
1234.438, 313.229
1235.653, 1024.539
1236.868, 466.094
1238.082, 687.382
1239.297, 858.659
1240.511, 290.237
1241.725, 971.489
1242.938, 552.729
1244.152, 414.961
1245.365, 1116.172
1246.578, 297.366
1247.791, 589.076
1249.004, 1030.244
1250.217, 131.565
1251.429, 1022.705
1252.642, 583.833
1253.854, 236.143
1255.066, 937.239
1256.277, 418.318
1257.489, 439.977
1258.700, 891.025
1259.911, 72.050
1261.122, 843.138
1262.333, 654.126
1263.544, 75.288
1264.754, 876.245
1265.964, 447.130
1267.174, 479.404
1268.384, 1000.134
1269.594, 440.835
1270.803, 802.330
1272.013, 902.947
1273.222, 223.210
1274.431, 1063.762
1275.640, 444.295
1276.848, 595.275
1278.057, 1075.750
1279.265, 86.693
1280.473, 818.020
1281.681, 888.404
1282.888, 104.751
1284.096, 995.548
1285.303, 585.861
1286.510, 106.154
1287.717, 1146.428
1288.924, 22.633
1290.131, 592.802
1291.337, 972.877
1292.543, 62.932
1293.749, 913.801
1294.955, 486.920
1296.161, 186.894
1297.366, 997.604
1298.571, 309.775
1299.777, 349.687
1300.981, 1029.668
1302.186, 120.654
1303.391, 618.966
1304.595, 468.556
1305.799, 301.878
1307.003, 797.841
1308.207, 162.871
1309.411, 12.260
1310.614, 802.271
1311.818, 98.541
1313.021, 600.718
1314.224, 730.313
1315.426, 40.498
1316.629, 858.643
1317.831, 582.425
1319.033, 171.507
1320.235, 961.028
1321.437, 220.040
1322.639, 319.017
1323.840, 967.739
1325.042, 33.339
1326.243, 625.542
1327.444, 782.624
1328.644, 58.563
1329.845, 980.200
1331.045, 458.940
1332.245, 207.657
1333.445, 944.081
1334.645, 72.739
1335.845, 641.360
1337.044, 838.636
1338.244, 2.785
1339.443, 685.572
1340.642, 453.993
1341.840, 82.501
1343.039, 1055.917
1344.237, 244.395
1345.435, 252.860
1346.633, 980.558
1347.831, 191.007
1349.029, 567.366
1350.226, 546.812
1351.424, 64.820
1352.621, 903.524
1353.818, 342.523
1355.014, 130.880
1356.211, 899.075
1357.407, 127.600
1358.604, 506.004
1359.800, 974.835
1360.995, 16.696
1362.191, 821.533
1363.387, 720.938
1364.582, 49.425
1365.777, 1057.660
1366.972, 398.705
1368.167, 457.183
1369.361, 1075.699
1370.556, 147.872
1371.750, 560.438
1372.944, 690.618
1374.138, 319.523
1375.331, 660.421
1376.525, 450.335
1377.718, 130.222
1378.911, 1170.079
1380.104, 239.904
1381.297, 589.697
1382.490, 1299.457
1383.682, 228.595
1384.874, 778.148
1386.066, 867.804
1387.258, 67.424
1388.450, 1145.943
1389.641, 404.411
1390.833, 183.918
1392.024, 1263.383
1393.215, 272.817
1394.406, 621.896
1395.596, 1111.273
1396.787, 40.622
1397.977, 878.973
1399.167, 807.436
1400.357, 176.827
1401.547, 1215.224
1402.736, 362.124
1403.925, 300.275
1405.115, 1379.725
1406.304, 278.687
1407.492, 558.228
1408.681, 1163.709
1409.870, 13.073
1411.058, 1012.386
1412.246, 838.109
1413.434, 74.677
1414.622, 1173.578
1415.809, 485.541
1416.997, 483.871
1418.184, 1022.470
1419.371, 171.375
1420.558, 704.063
1421.744, 1014.326
1422.931, 53.062
1424.117, 941.377
1425.303, 728.795
1426.489, 164.473
1427.675, 1093.203
1428.861, 360.631
1430.046, 349.100
1431.231, 1194.976
1432.416, 253.452
1433.601, 692.436
1434.786, 1119.656
1435.970, 56.804
1437.155, 1115.062
1438.339, 848.994
1439.523, 75.274
1440.707, 1383.354
1441.890, 681.388
1443.074, 238.162
1444.257, 1462.717
1445.440, 299.846
1446.623, 745.384
1447.806, 1251.729
1448.989, 157.814
1450.171, 1084.470
1451.353, 1068.735
1452.535, 63.921
1453.717, 1419.791
1454.899, 775.917
1456.080, 438.963
1457.262, 1433.286
1458.443, 498.957
1459.624, 804.290
1460.805, 1439.166
1461.985, 100.817
1463.166, 1046.808
1464.346, 1050.512
1465.526, 246.690
1466.706, 1231.342
1467.886, 727.487
1469.065, 270.663
1470.245, 1415.109
1471.424, 340.941
1472.603, 746.958
1473.782, 1463.186
1474.960, 216.514
1476.139, 1002.799
1477.317, 956.087
1478.495, 261.782
1479.673, 1009.277
1480.851, 846.857
1482.029, 303.297
1483.206, 1298.002
1484.383, 445.822
1485.560, 393.938
1486.737, 1332.292
1487.914, 248.324
1489.091, 767.314
1490.267, 1326.662
1491.443, 6.441
1492.619, 1266.782
