##NAMES=Fluorapatite
##RRUFFID=R050340
##IDEAL CHEMISTRY=Ca_5_(PO_4_)_3_F
##LOCALITY=Buckingham, Quebec, Canada
##OWNER=RRUFF
##SOURCE=California Institute of Technology
##DESCRIPTION=Blue fragment
##STATUS=The identification of this mineral has been confirmed by X-ray diffraction and chemical analysis
##URL=rruff.info/R050340
##MEASURED CHEMISTRY=Ca_5.00_((P_0.98_Si_0.02_)O_4_)_3_F_1.00_
##PIN_ID=L00565
##ORIENTATION=Laser parallel to -a* (-1 0 0). Fiducial mark perpendicular to laser is parallel to -c [0 0 -1]
108.2800, 0.0000000E+00
109.5120, 170.7852
110.7440, 198.2666
111.9760, 135.4463
113.2080, 14.33057
114.4400, 113.6646
115.6710, 91.46924
116.9030, 102.3716
118.1340, 110.8452
119.3650, 88.48730
120.5960, 118.9805
121.8270, 91.06885
123.0580, 164.5430
124.2880, 243.2373
125.5190, 266.0195
126.7490, 301.7822
127.9790, 436.4277
129.2090, 455.8682
130.4390, 600.0244
131.6680, 752.8281
132.8980, 969.2202
134.1270, 912.1475
135.3560, 989.5659
136.5850, 1186.436
137.8140, 1174.723
139.0430, 1283.409
140.2710, 1137.486
141.5000, 1281.938
142.7280, 1205.747
143.9560, 1070.889
145.1840, 999.3398
146.4120, 864.0693
147.6390, 811.0474
148.8670, 786.2510
150.0940, 606.6631
151.3210, 461.2681
152.5490, 570.0542
153.7750, 590.0093
155.0020, 612.1250
156.2290, 688.3931
157.4550, 658.8057
158.6810, 550.3555
159.9080, 690.0366
161.1340, 621.8433
162.3590, 510.7705
163.5850, 654.8140
164.8110, 665.9678
166.0360, 678.2280
167.2610, 616.6226
168.4860, 603.2456
169.7110, 602.2656
170.9360, 657.1152
172.1610, 619.3818
173.3850, 654.7935
174.6100, 703.2671
175.8340, 832.9175
177.0580, 697.6587
178.2820, 770.4829
179.5050, 755.3506
180.7290, 739.2642
181.9520, 738.2031
183.1760, 690.5396
184.3990, 591.9751
185.6220, 590.8115
186.8450, 569.6436
188.0670, 507.4795
189.2900, 509.3252
190.5120, 467.1870
191.7340, 384.0679
192.9560, 395.9717
194.1780, 297.8999
195.4000, 324.7065
196.6220, 443.8403
197.8430, 418.8545
199.0640, 410.9004
200.2860, 572.9775
201.5070, 489.0869
202.7270, 548.2285
203.9480, 666.4028
205.1690, 688.6104
206.3890, 747.8501
207.6090, 833.1230
208.8290, 808.4287
210.0490, 792.7661
211.2690, 793.1357
212.4890, 768.5366
213.7080, 786.9692
214.9280, 746.7466
216.1470, 650.9258
217.3660, 694.4492
218.5850, 619.0010
219.8030, 625.5811
221.0220, 627.1885
222.2400, 626.8242
223.4590, 665.4868
224.6770, 692.1753
225.8950, 694.6323
227.1120, 746.5962
228.3300, 721.4062
229.5480, 811.2129
230.7650, 861.1694
231.9820, 857.8145
233.1990, 716.2153
234.4160, 765.7085
235.6330, 694.5444
236.8490, 647.3916
238.0660, 634.3608
239.2820, 561.2729
240.4980, 556.2300
241.7140, 488.0742
242.9300, 353.6104
244.1460, 356.0869
245.3610, 383.2358
246.5770, 317.9565
247.7920, 378.9624
249.0070, 366.9810
250.2220, 405.0366
251.4370, 420.1201
252.6510, 438.4507
253.8660, 420.3228
255.0800, 468.7749
256.2940, 483.9824
257.5080, 462.9219
258.7220, 544.0771
259.9360, 630.9219
261.1490, 688.4346
262.3630, 617.0908
263.5760, 845.8770
264.7890, 782.7793
266.0020, 822.7944
267.2150, 923.9126
268.4270, 834.1211
269.6400, 749.4116
270.8520, 892.7798
272.0640, 777.2197
273.2760, 803.7261
274.4880, 872.2949
275.7000, 934.9224
276.9120, 976.6055
278.1230, 939.3403
279.3340, 967.1245
280.5450, 988.9561
281.7560, 1069.831
282.9670, 979.7485
284.1780, 1061.706
285.3880, 1065.702
286.5980, 1028.733
287.8090, 1031.800
289.0190, 1008.899
290.2290, 978.6929
291.4380, 898.1895
292.6480, 907.3774
293.8570, 843.5928
295.0670, 783.8345
296.2760, 878.1006
297.4850, 844.3916
298.6930, 737.7051
299.9020, 710.0410
301.1110, 652.3989
302.3190, 738.7773
303.5270, 657.1763
304.7350, 602.5942
305.9430, 700.0303
307.1510, 687.4854
308.3580, 608.9580
309.5660, 656.4463
310.7730, 648.9521
311.9800, 536.4736
313.1870, 545.0107
314.3940, 551.5615
315.6010, 379.1255
316.8070, 394.7012
318.0130, 325.2886
319.2200, 295.8862
320.4260, 306.4937
321.6310, 223.1104
322.8370, 247.7354
324.0430, 230.3691
325.2480, 303.0103
326.4540, 211.6602
327.6590, 176.3179
328.8640, 174.9824
330.0680, 56.65527
331.2730, 126.3364
332.4780, 95.02539
333.6820, 95.72217
334.8860, 24.42725
336.0900, 185.1401
337.2940, 115.8608
338.4980, 126.5884
339.7010, 61.32422
340.9050, 65.93262
342.1080, 70.80713
343.3110, 8.446289
344.5140, 77.69434
345.7170, 26.94873
346.9200, 21.20020
348.1220, 50.44824
349.3240, 84.69775
350.5270, 8.891602
351.7290, 75.82227
352.9310, 61.30078
354.1320, 44.98389
355.3340, 66.89453
356.5350, 15.19189
357.7370, 54.43652
358.9380, 44.68750
360.1390, 55.94287
361.3400, 98.20508
362.5400, 8.515137
363.7410, 0.1469730
364.9410, 22.85596
366.1410, 0.4145510
367.3410, 46.41699
368.5410, 66.15039
369.7410, 74.98438
370.9400, 4.709473
372.1400, 10.41846
373.3390, 85.87842
374.5380, 27.69775
375.7370, 20.04639
376.9360, 5.980957
378.1350, 86.64990
379.3330, 2.260742
380.5310, 40.83545
381.7300, 29.22803
382.9280, 35.33936
384.1260, 84.90723
385.3230, 108.5669
386.5210, 186.1138
387.7180, 104.6489
388.9160, 99.95117
390.1130, 131.4834
391.3100, 93.72949
392.5060, 176.3560
393.7030, 80.98535
394.9000, 176.5933
396.0960, 129.2207
397.2920, 171.7441
398.4880, 189.2856
399.6840, 175.8345
400.8800, 149.4219
402.0750, 332.1162
403.2710, 249.5601
404.4660, 408.0586
405.6610, 357.6587
406.8560, 394.2646
408.0510, 481.8965
409.2450, 559.9639
410.4400, 550.8604
411.6340, 724.5449
412.8280, 671.1724
414.0220, 986.8691
415.2160, 946.5015
416.4100, 1177.136
417.6030, 1496.773
418.7970, 1732.412
419.9900, 2207.052
421.1830, 2532.691
422.3760, 2988.331
423.5690, 3492.970
424.7610, 4165.610
425.9540, 4555.257
427.1460, 5120.906
428.3380, 5300.555
429.5300, 5327.201
430.7220, 5301.847
431.9140, 4979.494
433.1050, 4459.137
434.2970, 4160.780
435.4880, 3699.419
436.6790, 3338.057
437.8700, 2888.691
439.0610, 2724.323
440.2510, 2573.955
441.4420, 2401.583
442.6320, 2304.208
443.8220, 2206.829
445.0120, 2132.436
446.2020, 2078.060
447.3910, 2043.670
448.5810, 1985.276
449.7700, 1948.878
450.9600, 1652.476
452.1490, 1602.069
453.3370, 1498.662
454.5260, 1291.250
455.7150, 1279.833
456.9030, 1102.411
458.0910, 944.9849
459.2800, 860.5522
460.4670, 836.1313
461.6550, 713.7056
462.8430, 762.2734
464.0300, 670.1084
465.2180, 573.3906
466.4050, 522.9409
467.5920, 489.4858
468.7790, 350.0254
469.9650, 317.5605
471.1520, 350.0908
472.3380, 390.6157
473.5250, 248.1348
474.7110, 361.6484
475.8970, 266.1582
477.0820, 217.6626
478.2680, 90.16113
479.4540, 265.6543
480.6390, 196.1416
481.8240, 151.6216
483.0090, 84.09912
484.1940, 84.94141
485.3780, 149.7529
486.5630, 142.0562
487.7470, 60.58301
488.9320, 165.3149
490.1160, 56.22266
491.3000, 80.97168
492.4830, 24.96289
493.6670, 23.29492
494.8500, 25.55566
496.0340, 33.44531
497.2170, 4.857422
498.4000, 5.141602
499.5820, 64.92676
500.7650, 130.9531
501.9480, 91.43164
503.1300, 90.33691
504.3120, 52.96094
505.4940, 3.216797
506.6760, 61.59473
507.8580, 96.59473
509.0390, 31.30566
510.2210, 105.8535
511.4020, 14.99414
512.5830, 94.13184
513.7640, 122.2461
514.9450, 64.35742
516.1250, 9.993164
517.3060, 62.71484
518.4860, 55.22461
519.6660, 68.35254
520.8460, 55.38379
522.0260, 78.25879
523.2060, 13.27539
524.3850, 81.65137
525.5650, 76.64844
526.7440, 26.70801
527.9230, 77.74219
529.1020, 140.7178
530.2810, 28.94727
531.4590, 67.98926
532.6380, 12.08008
533.8160, 28.98828
534.9940, 28.93262
536.1720, 34.93164
537.3500, 31.15430
538.5270, 84.03613
539.7050, 95.26074
540.8820, 101.1504
542.0590, 14.63965
543.2360, 33.38379
544.4130, 4.299805
545.5900, 3.652344
546.7660, 116.4619
547.9430, 166.4668
549.1190, 62.25488
550.2950, 4.965820
551.4710, 2.136719
552.6470, 54.99609
553.8220, 115.7461
554.9980, 54.64453
556.1730, 163.4102
557.3480, 154.4375
558.5230, 202.3994
559.6980, 231.1338
560.8730, 207.1211
562.0470, 208.8203
563.2220, 280.5088
564.3960, 328.1865
565.5700, 353.0596
566.7440, 425.4131
567.9170, 452.4531
569.0910, 537.7002
570.2640, 556.5869
571.4380, 602.2324
572.6110, 724.1641
573.7840, 965.9062
574.9570, 1169.648
576.1290, 1591.477
577.3020, 1769.046
578.4740, 2116.603
579.6460, 2478.162
580.8180, 2548.495
581.9900, 2784.016
583.1620, 2959.621
584.3330, 3180.207
585.5040, 3365.689
586.6760, 3830.158
587.8470, 4186.939
589.0180, 4447.443
590.1880, 4563.873
591.3590, 4146.575
592.5290, 3487.226
593.7000, 2849.381
594.8700, 2385.088
596.0400, 1859.448
597.2090, 1546.797
598.3790, 1531.448
599.5490, 1453.770
600.7180, 1614.104
601.8870, 1650.530
603.0560, 1675.809
604.2250, 2026.072
605.3940, 2007.449
606.5620, 1814.887
607.7300, 1706.383
608.8990, 1445.972
610.0670, 1237.569
611.2350, 1133.108
612.4020, 894.8408
613.5700, 959.1396
614.7370, 850.7559
615.9050, 722.6387
617.0720, 550.0693
618.2390, 459.6729
619.4060, 415.1660
620.5720, 386.6230
621.7390, 420.9766
622.9050, 335.0225
624.0710, 203.5234
625.2370, 263.8398
626.4030, 229.1309
627.5690, 216.3691
628.7340, 288.7861
629.9000, 297.9004
631.0650, 314.3242
632.2300, 361.2793
633.3950, 246.3105
634.5600, 329.4248
635.7240, 232.6240
636.8890, 216.3057
638.0530, 189.1904
639.2170, 220.3457
640.3810, 113.9971
641.5450, 161.3301
642.7080, 271.5410
643.8720, 144.9375
645.0350, 313.2793
646.1980, 355.3574
647.3610, 342.5537
648.5240, 199.6895
649.6870, 350.5273
650.8490, 224.7002
652.0120, 206.8408
653.1740, 238.9043
654.3360, 222.0303
655.4980, 213.2529
656.6600, 247.8682
657.8210, 290.9395
658.9830, 129.7197
660.1440, 239.7705
661.3050, 124.5840
662.4660, 146.5625
663.6270, 172.9775
664.7870, 109.8389
665.9480, 92.58984
667.1080, 98.19824
668.2680, 141.9141
669.4280, 30.31738
670.5880, 166.3408
671.7480, 149.3984
672.9070, 70.73633
674.0670, 98.51758
675.2260, 84.10449
676.3850, 34.31348
677.5440, 174.9199
678.7030, 56.40723
679.8610, 184.9219
681.0200, 40.40234
682.1780, 76.85547
683.3360, 100.5361
684.4940, 18.63184
685.6520, 148.1279
686.8090, 68.55762
687.9670, 154.9209
689.1240, 135.4990
690.2810, 100.4053
691.4380, 29.00293
692.5950, 111.5439
693.7520, 86.64844
694.9080, 122.3027
696.0650, 57.53711
697.2210, 71.08789
698.3770, 123.7539
699.5330, 60.92578
700.6880, 139.7012
701.8440, 171.0137
702.9990, 182.1602
704.1550, 79.62793
705.3100, 7.930664
706.4650, 5.592773
707.6190, 79.13867
708.7740, 69.22754
709.9290, 126.5332
711.0830, 56.14160
712.2370, 99.07422
713.3910, 96.11230
714.5450, 73.34961
715.6980, 197.2197
716.8520, 191.1592
718.0050, 128.9922
719.1580, 9.805664
720.3110, 149.0059
721.4640, 109.7734
722.6170, 111.5195
723.7700, 234.2471
724.9220, 234.9551
726.0740, 55.64453
727.2260, 119.3105
728.3780, 194.9570
729.5300, 65.58496
730.6810, 75.19043
731.8330, 10.77539
732.9840, 55.33301
734.1350, 175.8701
735.2860, 183.3857
736.4370, 58.88379
737.5880, 211.3584
738.7380, 47.18555
739.8880, 103.2168
741.0390, 178.5977
742.1890, 158.0322
743.3380, 104.6104
744.4880, 87.02344
745.6380, 69.87305
746.7870, 44.63184
747.9360, 40.31738
749.0850, 58.37793
750.2340, 30.06055
751.3830, 113.2471
752.5310, 44.95020
753.6800, 19.21484
754.8280, 77.67676
755.9760, 41.01953
757.1240, 63.74316
758.2720, 72.74707
759.4190, 99.68262
760.5670, 17.19531
761.7140, 63.45508
762.8610, 110.8486
764.0080, 82.77734
765.1550, 172.8359
766.3020, 84.71973
767.4480, 153.8076
768.5950, 41.09473
769.7410, 22.90430
770.8870, 222.8945
772.0330, 220.8887
773.1780, 98.62598
774.3240, 122.4023
775.4690, 257.1211
776.6140, 91.82520
777.7590, 37.51074
778.9040, 83.16992
780.0490, 39.19531
781.1940, 64.38281
782.3380, 6.935547
783.4820, 246.4551
784.6260, 109.1162
785.7700, 23.38281
786.9140, 162.0693
788.0580, 98.51465
789.2010, 78.93555
790.3450, 116.3428
791.4880, 97.72656
792.6310, 70.08887
793.7730, 91.42676
794.9160, 104.7451
796.0590, 68.17676
797.2010, 102.7773
798.3430, 155.7363
799.4850, 111.9834
800.6270, 174.2080
801.7690, 133.4150
802.9100, 164.6006
804.0520, 13.69336
805.1930, 197.7773
806.3340, 25.89258
807.4750, 127.6172
808.6160, 59.69727
809.7560, 54.75488
810.8970, 92.63477
812.0370, 133.6084
813.1770, 18.50000
814.3170, 120.1250
815.4570, 124.0596
816.5960, 70.37598
817.7360, 158.4688
818.8750, 142.9668
820.0140, 60.61035
821.1530, 32.33105
822.2920, 269.5781
823.4310, 135.3379
824.5690, 228.8701
825.7070, 85.58984
826.8460, 138.2881
827.9840, 26.90234
829.1220, 70.17285
830.2590, 88.20312
831.3970, 34.77832
832.5340, 142.7158
833.6710, 61.92871
834.8080, 35.17480
835.9450, 150.6182
837.0820, 18.77734
838.2190, 98.19434
839.3550, 132.5947
840.4910, 50.97559
841.6270, 52.13379
842.7630, 29.97656
843.8990, 23.30762
845.0350, 0.3925780
846.1700, 3.594727
847.3060, 11.62402
848.4410, 178.5234
849.5760, 104.5830
850.7100, 51.61230
851.8450, 225.5244
852.9800, 111.6660
854.1140, 270.7891
855.2480, 195.8809
856.3820, 32.16992
857.5160, 159.2383
858.6500, 241.1934
859.7830, 282.1377
860.9170, 283.1582
862.0500, 242.1611
863.1830, 231.8203
864.3160, 214.2197
865.4480, 213.8740
866.5810, 218.3340
867.7130, 249.0117
868.8460, 231.2129
869.9780, 246.2607
871.1100, 244.6016
872.2410, 208.4678
873.3730, 278.0020
874.5050, 164.8379
875.6360, 181.6406
876.7670, 185.3242
877.8980, 99.12500
879.0290, 59.91113
880.1590, 93.55469
881.2900, 29.10840
882.4200, 90.57324
883.5500, 127.9180
884.6800, 67.77832
885.8100, 30.46387
886.9400, 242.6162
888.0690, 47.89844
889.1990, 81.22754
890.3280, 27.05566
891.4570, 49.30371
892.5860, 59.64746
893.7140, 30.98730
894.8430, 39.43066
895.9710, 49.25977
897.1000, 36.17383
898.2280, 32.87891
899.3560, 202.2266
900.4830, 44.79980
901.6110, 208.4395
902.7380, 46.35938
903.8660, 31.43750
904.9930, 43.42285
906.1200, 33.27051
907.2460, 33.87305
908.3730, 209.0029
909.5000, 79.86133
910.6260, 176.8076
911.7520, 178.9014
912.8780, 197.6982
914.0040, 162.1357
915.1290, 181.1240
916.2550, 119.7168
917.3800, 162.3584
918.5050, 106.0557
919.6300, 42.08398
920.7550, 132.9004
921.8800, 125.7334
923.0040, 80.73926
924.1290, 110.4844
925.2530, 120.0254
926.3770, 232.9727
927.5010, 175.7148
928.6250, 173.3809
929.7480, 186.1279
930.8720, 36.92773
931.9950, 338.5654
933.1180, 298.3408
934.2410, 235.3291
935.3640, 212.1270
936.4860, 358.1016
937.6090, 333.9727
938.7310, 506.9307
939.8530, 542.9131
940.9750, 615.8545
942.0970, 626.0938
943.2180, 805.9189
944.3400, 1108.457
945.4610, 1189.970
946.5820, 1507.634
947.7030, 1792.462
948.8240, 1910.665
949.9450, 2276.426
951.0650, 2840.197
952.1860, 3637.273
953.3060, 4690.170
954.4260, 6150.040
955.5460, 8544.562
956.6650, 11798.90
957.7850, 16482.78
958.9040, 22071.61
960.0230, 28319.47
961.1420, 34863.08
962.2610, 41799.89
963.3800, 46013.18
964.4990, 45935.72
965.6170, 40947.73
966.7350, 33802.08
967.8530, 26419.91
968.9710, 19632.40
970.0890, 14171.75
971.2070, 9776.566
972.3240, 6938.754
973.4410, 4912.388
974.5580, 3543.159
975.6750, 2739.753
976.7920, 1904.186
977.9090, 1293.505
979.0250, 1072.776
980.1410, 887.4805
981.2580, 703.9453
982.3740, 569.0840
983.4890, 539.8750
984.6050, 367.5400
985.7200, 360.9941
986.8360, 272.7920
987.9510, 368.4990
989.0660, 292.2900
990.1810, 173.0811
991.2950, 179.4580
992.4100, 72.24609
993.5240, 75.81250
994.6390, 154.8174
995.7530, 104.6035
996.8660, 172.3867
997.9800, 241.1689
999.0940, 261.5195
1000.207, 251.7275
1001.320, 351.8691
1002.433, 460.6631
1003.546, 472.5879
1004.659, 762.3877
1005.772, 849.1865
1006.884, 973.9824
1007.996, 1064.779
1009.108, 1062.239
1010.220, 1050.692
1011.332, 981.6504
1012.444, 823.3936
1013.555, 689.9746
1014.666, 588.2002
1015.777, 480.2900
1016.888, 368.0088
1017.999, 372.8340
1019.110, 290.8682
1020.220, 420.2256
1021.331, 511.0713
1022.441, 551.3818
1023.551, 566.1074
1024.661, 627.6133
1025.770, 790.2178
1026.880, 857.8613
1027.989, 1125.322
1029.098, 1211.271
1030.207, 1300.623
1031.316, 1537.201
1032.425, 1618.625
1033.533, 1863.494
1034.642, 1847.212
1035.750, 2081.085
1036.858, 2320.706
1037.966, 2455.325
1039.073, 2721.006
1040.181, 2887.671
1041.288, 3052.325
1042.396, 2992.232
1043.503, 2835.095
1044.610, 2874.017
1045.716, 2690.954
1046.823, 2949.895
1047.929, 3039.841
1049.036, 3278.790
1050.142, 3814.768
1051.248, 3985.848
1052.353, 3911.840
1053.459, 3706.615
1054.564, 3608.619
1055.670, 3087.640
1056.775, 2500.663
1057.880, 2385.375
1058.985, 2111.604
1060.089, 1878.820
1061.194, 1745.188
1062.298, 1423.228
1063.402, 1250.444
1064.506, 1128.352
1065.610, 1035.396
1066.713, 1106.444
1067.817, 1086.493
1068.920, 1257.543
1070.023, 1279.595
1071.126, 1294.648
1072.229, 1440.702
1073.332, 1278.843
1074.435, 1451.226
1075.537, 1706.292
1076.639, 1816.382
1077.741, 2116.451
1078.843, 1915.525
1079.945, 1953.600
1081.046, 1739.676
1082.148, 1584.766
1083.249, 1415.857
1084.350, 1265.950
1085.451, 1127.070
1086.551, 935.1904
1087.652, 820.3135
1088.752, 562.4385
1089.853, 512.5830
1090.953, 437.7285
1092.053, 340.8848
1093.152, 388.0430
1094.252, 304.2012
1095.351, 131.4385
1096.451, 338.6035
1097.550, 66.77051
1098.649, 11.96582
1099.748, 191.1797
1100.846, 226.3945
1101.945, 173.6484
1103.043, 192.8691
1104.141, 301.0898
1105.239, 32.68555
1106.337, 141.5303
1107.434, 8.252930
1108.532, 140.9658
1109.629, 139.1875
1110.726, 152.4121
1111.823, 147.6396
1112.920, 156.0508
1114.017, 66.19922
1115.113, 152.5996
1116.210, 174.8457
1117.306, 143.1807
1118.402, 246.4277
1119.498, 399.7559
1120.593, 209.1182
1121.689, 251.3691
1122.784, 298.6758
1123.879, 158.9307
1124.974, 194.2451
1126.069, 24.71191
1127.164, 71.69629
1128.259, 70.95312
1129.353, 93.20898
1130.447, 203.4648
1131.541, 151.7227
1132.635, 10.79688
1133.729, 186.5410
1134.822, 29.20703
1135.916, 176.9375
1137.009, 82.17969
1138.102, 216.4199
1139.195, 110.7441
1140.288, 51.97070
1141.380, 178.5000
1142.473, 30.42773
1143.565, 52.78320
1144.657, 175.0312
1145.749, 0.9453130
1146.841, 90.27344
1147.932, 67.56836
1149.024, 82.38867
1150.115, 16.60547
1151.206, 66.94531
1152.297, 30.29297
1153.388, 88.72656
1154.479, 178.9863
1155.569, 69.24609
1156.659, 215.7148
1157.750, 72.23438
1158.839, 241.5098
1159.929, 323.0371
1161.019, 231.3359
1162.108, 244.6465
1163.198, 207.9590
1164.287, 194.2793
1165.376, 281.5977
1166.465, 167.9883
1167.553, 35.68164
1168.642, 135.7676
1169.730, 159.2734
1170.818, 399.5938
1171.906, 172.9180
1172.994, 90.50781
1174.082, 124.8320
1175.170, 71.06836
1176.257, 174.6680
1177.344, 58.98438
1178.431, 151.2988
1179.518, 225.6094
1180.605, 62.88477
1181.691, 31.47656
1182.778, 247.0684
1183.864, 28.44531
1184.950, 287.1191
1186.036, 69.48242
1187.122, 213.7363
1188.207, 23.01367
1189.292, 62.78320
1190.378, 9.904297
1191.463, 175.8945
1192.548, 171.2070
1193.632, 13.69141
1194.717, 66.39258
1195.801, 208.4727
1196.886, 248.5508
1197.970, 86.62500
1199.054, 119.6953
1200.137, 172.7715
1201.221, 174.8438
1202.305, 253.9121
1203.388, 39.97656
1204.471, 29.96484
1205.554, 191.0723
1206.637, 8.898438
1207.719, 158.1152
1208.802, 183.1289
1209.884, 164.1367
1210.966, 80.14062
1212.048, 82.13867
1213.130, 67.13086
1214.212, 88.12109
1215.293, 200.1055
1216.374, 327.0859
1217.456, 237.2891
1218.536, 278.2598
1219.617, 61.22461
1220.698, 95.93555
1221.778, 159.9492
1222.859, 181.8984
1223.939, 274.8438
1225.019, 53.78125
1226.099, 261.7148
1227.178, 93.64453
1228.258, 217.5664
1229.337, 283.4824
1230.417, 239.3945
1231.496, 65.30078
1232.574, 107.1992
1233.653, 117.0938
1234.732, 174.9824
1235.810, 206.8633
1236.888, 191.7402
1237.966, 201.3379
1239.044, 171.4902
1240.122, 185.1699
1241.199, 84.02148
1242.277, 116.8691
1243.354, 56.71094
1244.431, 40.54492
1245.508, 259.3711
1246.585, 33.80859
1247.661, 175.9805
1248.738, 60.76172
1249.814, 52.67383
1250.890, 120.4395
1251.966, 67.32812
1253.042, 234.1289
1254.117, 66.87695
1255.193, 30.61914
1256.268, 5.351563
1257.343, 125.1465
1258.418, 193.8574
1259.493, 129.5645
1260.567, 230.3438
1261.642, 49.94922
1262.716, 63.35742
1263.790, 133.9980
1264.864, 2.507813
1265.938, 161.1289
1267.011, 225.7441
1268.085, 64.53711
1269.158, 74.22852
1270.231, 22.37500
1271.304, 11.04102
1272.377, 50.52148
1273.450, 76.07812
1274.522, 3.714844
1275.594, 102.1191
1276.666, 65.64648
1277.738, 8.835938
1278.810, 167.6641
1279.882, 60.12109
1280.953, 48.39648
1282.025, 40.04688
1283.096, 109.4785
1284.167, 131.0195
1285.238, 35.43750
1286.308, 23.84766
1287.379, 104.2500
