##NAMES=Fluorapatite
##RRUFFID=R050192
##IDEAL CHEMISTRY=Ca_5_(PO_4_)_3_F
##LOCALITY=Fulford, Eagle County, Colorado, USA
##OWNER=RRUFF
##SOURCE=Dave Bunk Minerals
##DESCRIPTION=Pale green hexagonal prism
##STATUS=The identification of this mineral has been confirmed by X-ray diffraction and chemical analysis
##URL=rruff.info/R050192
##MEASURED CHEMISTRY=Ca_5.00_(P_1.00_O_4_)_3_(F_0.86_Cl_0.13_)
##PIN_ID=L00262
##ORIENTATION=Laser parallel to c* (0 0 1). Fiducial mark perpendicular to laser is parallel to b [0 1 0]
136.5850, 0.0000000E+00
137.8140, 0.2041020
139.0430, 18.27661
140.2710, 77.19922
141.5000, 25.02661
142.7280, 38.93970
143.9560, 84.45068
145.1840, 61.65332
146.4120, 62.25366
147.6390, 51.31274
148.8670, 51.34448
150.0940, 97.57324
151.3210, 33.06323
152.5490, 48.35107
153.7750, 114.4529
155.0020, 120.0151
156.2290, 60.69995
157.4550, 106.1396
158.6810, 64.92114
159.9080, 51.74854
161.1340, 72.15918
162.3590, 16.27490
163.5850, 30.99243
164.8110, 84.31372
166.0360, 3.195557
167.2610, 32.35864
168.4860, 80.74585
169.7110, 88.56860
170.9360, 34.28760
172.1610, 30.52539
173.3850, 25.41650
174.6100, 59.53882
175.8340, 21.70288
177.0580, 44.41211
178.2820, 27.51221
179.5050, 30.17480
180.7290, 2.914795
181.9520, 36.50415
183.1760, 33.15625
184.3990, 6.374023
185.6220, 8.674561
186.8450, 37.93774
188.0670, 36.29370
189.2900, 40.86816
190.5120, 31.41309
191.7340, 33.33887
192.9560, 4.448975
194.1780, 3.000977
195.4000, 26.14429
196.6220, 83.27173
197.8430, 63.38916
199.0640, 119.5579
200.2860, 49.72095
201.5070, 0.1101070
202.7270, 84.04858
203.9480, 62.17334
205.1690, 48.25684
206.3890, 78.55591
207.6090, 52.33472
208.8290, 33.76343
210.0490, 50.61157
211.2690, 45.07300
212.4890, 80.19238
213.7080, 53.46802
214.9280, 64.26782
216.1470, 6.946045
217.3660, 42.82104
218.5850, 0.1545410
219.8030, 30.22681
221.0220, 19.96191
222.2400, 39.14038
223.4590, 14.13013
224.6770, 37.15576
225.8950, 50.32446
227.1120, 65.70215
228.3300, 90.00391
229.5480, 95.56665
230.7650, 69.41772
231.9820, 74.64282
233.1990, 78.68408
234.4160, 88.41748
235.6330, 95.54932
236.8490, 98.97070
238.0660, 111.3809
239.2820, 106.9998
240.4980, 110.5342
241.7140, 110.5654
242.9300, 54.69507
244.1460, 79.72632
245.3610, 66.89795
246.5770, 91.27808
247.7920, 84.60181
249.0070, 116.0151
250.2220, 143.6650
251.4370, 92.55737
252.6510, 140.3833
253.8660, 137.1604
255.0800, 156.0188
256.2940, 234.8545
257.5080, 253.7493
258.7220, 241.6555
259.9360, 279.9429
261.1490, 253.2864
262.3630, 245.8337
263.5760, 225.6179
264.7890, 257.4678
266.0020, 266.3943
267.2150, 248.6633
268.4270, 220.9724
269.6400, 182.9407
270.8520, 203.7168
272.0640, 236.5730
273.2760, 237.1396
274.4880, 178.5676
275.7000, 115.2048
276.9120, 178.6702
278.1230, 132.6797
279.3340, 144.2913
280.5450, 127.2288
281.7560, 181.9629
282.9670, 159.0811
284.1780, 76.28394
285.3880, 156.2141
286.5980, 74.07666
287.8090, 72.86597
289.0190, 109.5806
290.2290, 142.2146
291.4380, 176.7690
292.6480, 195.5447
293.8570, 172.6489
295.0670, 224.9766
296.2760, 165.2151
297.4850, 166.3188
298.6930, 123.3689
299.9020, 189.3508
301.1110, 71.25830
302.3190, 194.0977
303.5270, 155.8713
304.7350, 177.5693
305.9430, 195.1875
307.1510, 90.73438
308.3580, 155.9858
309.5660, 122.2798
310.7730, 120.6099
311.9800, 92.80566
313.1870, 130.8201
314.3940, 161.0090
315.6010, 106.1589
316.8070, 95.05469
318.0130, 77.09009
319.2200, 127.8315
320.4260, 66.79980
321.6310, 90.43237
322.8370, 62.49487
324.0430, 41.38623
325.2480, 33.10376
326.4540, 15.68848
327.6590, 23.69263
328.8640, 34.57959
330.0680, 46.25000
331.2730, 41.95947
332.4780, 122.7563
333.6820, 55.63232
334.8860, 65.46558
336.0900, 118.0144
337.2940, 27.50049
338.4980, 17.15894
339.7010, 6.274170
340.9050, 73.15967
342.1080, 51.85034
343.3110, 51.89551
344.5140, 35.98608
345.7170, 95.64233
346.9200, 67.89746
348.1220, 37.79858
349.3240, 54.59058
350.5270, 61.28564
351.7290, 58.07983
352.9310, 99.57520
354.1320, 5.899170
355.3340, 113.6604
356.5350, 33.12231
357.7370, 14.84741
358.9380, 24.17822
360.1390, 6.437256
361.3400, 46.61987
362.5400, 93.65332
363.7410, 29.18457
364.9410, 55.23413
366.1410, 61.09277
367.3410, 26.11548
368.5410, 41.01953
369.7410, 45.90918
370.9400, 32.81201
372.1400, 28.79736
373.3390, 9.932861
374.5380, 60.07568
375.7370, 79.23901
376.9360, 1.018066
378.1350, 41.68823
379.3330, 4.248779
380.5310, 107.1682
381.7300, 48.15845
382.9280, 35.68774
384.1260, 85.12402
385.3230, 9.114990
386.5210, 90.36621
387.7180, 15.08447
388.9160, 29.47241
390.1130, 21.03369
391.3100, 14.90942
392.5060, 25.04810
393.7030, 55.19019
394.9000, 71.64111
396.0960, 42.91992
397.2920, 28.33325
398.4880, 69.60742
399.6840, 100.9048
400.8800, 59.03711
402.0750, 36.20361
403.2710, 3.435059
404.4660, 63.38867
405.6610, 100.2998
406.8560, 94.15918
408.0510, 124.2505
409.2450, 118.8618
410.4400, 121.4897
411.6340, 108.4058
412.8280, 75.31006
414.0220, 76.43018
415.2160, 156.6372
416.4100, 216.9082
417.6030, 121.3867
418.7970, 43.00049
419.9900, 145.0132
421.1830, 144.8882
422.3760, 190.1665
423.5690, 294.6440
424.7610, 145.5811
425.9540, 210.2588
427.1460, 178.8911
428.3380, 244.3193
429.5300, 234.6616
430.7220, 263.2788
431.9140, 303.5430
433.1050, 328.5610
434.2970, 404.6665
435.4880, 458.7832
436.6790, 434.8535
437.8700, 459.8784
439.0610, 570.8633
440.2510, 534.8037
441.4420, 682.7012
442.6320, 638.3940
443.8220, 629.2109
445.0120, 760.6021
446.2020, 696.3311
447.3910, 657.9897
448.5810, 634.6597
449.7700, 619.2671
450.9600, 539.5171
452.1490, 513.2100
453.3370, 427.6929
454.5260, 384.9790
455.7150, 355.0659
456.9030, 420.2666
458.0910, 302.7861
459.2800, 289.7905
460.4670, 191.7051
461.6550, 319.4980
462.8430, 221.4609
464.0300, 266.1216
465.2180, 158.8359
466.4050, 179.3857
467.5920, 183.8018
468.7790, 124.1357
469.9650, 122.3008
471.1520, 138.4844
472.3380, 106.6909
473.5250, 132.8984
474.7110, 149.0474
475.8970, 110.5049
477.0820, 116.6973
478.2680, 165.9136
479.4540, 32.33838
480.6390, 46.38623
481.8240, 159.3330
483.0090, 41.63232
484.1940, 69.94678
485.3780, 93.38623
486.5630, 37.82812
487.7470, 84.86768
488.9320, 46.33740
490.1160, 45.03125
491.3000, 41.31348
492.4830, 42.44287
493.6670, 40.19727
494.8500, 77.19678
496.0340, 43.44873
497.2170, 42.77588
498.4000, 51.83789
499.5820, 17.48145
500.7650, 72.75195
501.9480, 92.01172
503.1300, 106.4009
504.3120, 106.9502
505.4940, 109.1934
506.6760, 72.63721
507.8580, 92.32617
509.0390, 70.14062
510.2210, 50.77930
511.4020, 80.29932
512.5830, 80.78369
513.7640, 66.97510
514.9450, 45.41553
516.1250, 38.99561
517.3060, 8.344727
518.4860, 6.109375
519.6660, 103.3667
520.8460, 129.0825
522.0260, 40.04297
523.2060, 92.92236
524.3850, 47.12207
525.5650, 52.39941
526.7440, 10.91943
527.9230, 91.79736
529.1020, 47.65820
530.2810, 63.50684
531.4590, 6.109375
532.6380, 50.09668
533.8160, 117.8931
534.9940, 87.42676
536.1720, 39.45996
537.3500, 34.68164
538.5270, 30.62109
539.7050, 53.91992
540.8820, 38.52344
542.0590, 68.60449
543.2360, 50.08740
544.4130, 24.54590
545.5900, 76.62500
546.7660, 77.13477
547.9430, 79.47021
549.1190, 91.15332
550.2950, 59.64160
551.4710, 85.42969
552.6470, 24.68213
553.8220, 17.95605
554.9980, 66.73975
556.1730, 19.65088
557.3480, 21.35498
558.5230, 87.56836
559.6980, 47.57959
560.8730, 150.6084
562.0470, 205.9180
563.2220, 86.21484
564.3960, 40.33691
565.5700, 143.7534
566.7440, 218.6802
567.9170, 219.0254
569.0910, 182.0073
570.2640, 398.1968
571.4380, 404.2559
572.6110, 415.2075
573.7840, 554.0430
574.9570, 602.7759
576.1290, 751.6074
577.3020, 700.2734
578.4740, 726.7485
579.6460, 813.2192
580.8180, 640.0176
581.9900, 698.8057
583.1620, 568.8188
584.3330, 340.4580
585.5040, 489.9766
586.6760, 410.2231
587.8470, 406.2397
589.0180, 269.7529
590.1880, 357.1362
591.3590, 286.5200
592.5290, 223.9087
593.7000, 230.1172
594.8700, 265.8569
596.0400, 288.2466
597.2090, 305.3691
598.3790, 219.9316
599.5490, 337.3750
600.7180, 393.4067
601.8870, 396.1074
603.0560, 585.0537
604.2250, 689.5459
605.3940, 593.9961
606.5620, 505.1846
607.7300, 564.6333
608.8990, 496.6606
610.0670, 532.6982
611.2350, 399.7383
612.4020, 506.4897
613.5700, 482.2178
614.7370, 372.7271
615.9050, 278.2256
617.0720, 262.3325
618.2390, 254.5161
619.4060, 245.8921
620.5720, 237.7134
621.7390, 230.5811
622.9050, 111.9595
624.0710, 184.6851
625.2370, 181.6499
626.4030, 108.3452
627.5690, 175.3472
628.7340, 119.6211
629.9000, 71.76270
631.0650, 35.65039
632.2300, 121.7480
633.3950, 248.8335
634.5600, 86.56494
635.7240, 98.69434
636.8890, 56.64502
638.0530, 165.0508
639.2170, 108.5684
640.3810, 188.3091
641.5450, 197.1313
642.7080, 117.7373
643.8720, 194.3662
645.0350, 113.9365
646.1980, 163.7104
647.3610, 65.29785
648.5240, 268.0415
649.6870, 263.1167
650.8490, 296.3940
652.0120, 321.3169
653.1740, 133.3584
654.3360, 229.6499
655.4980, 185.4834
656.6600, 51.89355
657.8210, 249.6855
658.9830, 130.1191
660.1440, 145.9727
661.3050, 256.9351
662.4660, 146.5054
663.6270, 129.2065
664.7870, 145.3228
665.9480, 166.7690
667.1080, 30.08545
668.2680, 126.5010
669.4280, 102.4453
670.5880, 251.9727
671.7480, 176.9688
672.9070, 88.71973
674.0670, 173.4014
675.2260, 109.1973
676.3850, 67.50879
677.5440, 9.348633
678.7030, 153.5273
679.8610, 172.8447
681.0200, 76.22949
682.1780, 163.5410
683.3360, 133.3623
684.4940, 109.5459
685.6520, 120.9287
686.8090, 8.392578
687.9670, 153.7773
689.1240, 15.28711
690.2810, 56.39746
691.4380, 173.7744
692.5950, 141.3896
693.7520, 86.78125
694.9080, 47.70312
696.0650, 64.47656
697.2210, 46.67578
698.3770, 14.46387
699.5330, 23.05664
700.6880, 44.85547
701.8440, 34.68945
702.9990, 107.8301
704.1550, 61.76172
705.3100, 82.39453
706.4650, 34.09668
707.6190, 76.75488
708.7740, 66.34277
709.9290, 85.35645
711.0830, 99.17188
712.2370, 115.0928
713.3910, 127.6611
714.5450, 91.55957
715.6980, 118.4814
716.8520, 151.7695
718.0050, 12.31543
719.1580, 49.18945
720.3110, 38.41309
721.4640, 210.5723
722.6170, 37.86914
723.7700, 64.72949
724.9220, 117.1074
726.0740, 30.07422
727.2260, 27.90723
728.3780, 46.12109
729.5300, 33.20117
730.6810, 18.93945
731.8330, 48.22461
732.9840, 11.57617
734.1350, 216.6094
735.2860, 84.35742
736.4370, 93.64746
737.5880, 163.7520
738.7380, 10.53418
739.8880, 27.09863
741.0390, 5.482422
742.1890, 79.40918
743.3380, 97.66504
744.4880, 62.62207
745.6380, 7.316406
746.7870, 99.68848
747.9360, 38.49512
749.0850, 12.78613
750.2340, 85.04297
751.3830, 46.24023
752.5310, 111.3086
753.6800, 116.3584
754.8280, 157.9033
755.9760, 132.2764
757.1240, 121.5361
758.2720, 106.4834
759.4190, 95.26465
760.5670, 71.83301
761.7140, 99.02441
762.8610, 55.37695
764.0080, 135.9590
765.1550, 231.1484
766.3020, 198.3320
767.4480, 175.8086
768.5950, 219.4219
769.7410, 150.3213
770.8870, 138.4492
772.0330, 206.3877
773.1780, 147.4492
774.3240, 140.9629
775.4690, 17.10938
776.6140, 6.561523
777.7590, 129.1416
778.9040, 153.8877
780.0490, 210.5303
781.1940, 203.8828
782.3380, 205.0117
783.4820, 143.1768
784.6260, 135.8613
785.7700, 112.9785
786.9140, 19.68750
788.0580, 177.3115
789.2010, 225.4893
790.3450, 71.42578
791.4880, 157.6982
792.6310, 15.62598
793.7730, 69.77148
794.9160, 159.3887
796.0590, 75.55371
797.2010, 10.58887
798.3430, 200.3408
799.4850, 189.7529
800.6270, 5.124023
801.7690, 278.8750
802.9100, 266.3525
804.0520, 186.3398
805.1930, 201.8086
806.3340, 174.6641
807.4750, 112.2334
808.6160, 158.0195
809.7560, 136.3975
810.8970, 78.33984
812.0370, 246.5371
813.1770, 57.37500
814.3170, 74.93945
815.4570, 113.7773
816.5960, 253.5117
817.7360, 204.2354
818.8750, 233.1709
820.0140, 74.95996
821.1530, 184.2314
822.2920, 171.3105
823.4310, 134.3418
824.5690, 135.8193
825.7070, 99.81836
826.8460, 144.1523
827.9840, 87.56543
829.1220, 190.3760
830.2590, 218.9600
831.3970, 109.2236
832.5340, 134.6035
833.6710, 86.63379
834.8080, 89.64258
835.9450, 109.5986
837.0820, 127.1982
838.2190, 154.7920
839.3550, 181.2432
840.4910, 166.0420
841.6270, 82.27441
842.7630, 121.6338
843.8990, 112.6885
845.0350, 72.95215
846.1700, 81.47949
847.3060, 170.6592
848.4410, 109.0742
849.5760, 87.56641
850.7100, 229.8691
851.8450, 204.9551
852.9800, 100.5586
854.1140, 171.5703
855.2480, 249.3271
856.3820, 297.3086
857.5160, 293.2412
858.6500, 180.0869
859.7830, 146.5713
860.9170, 180.4639
862.0500, 56.76855
863.1830, 232.6191
864.3160, 153.3711
865.4480, 171.4209
866.5810, 233.9766
867.7130, 271.3652
868.8460, 278.7842
869.9780, 295.8340
871.1100, 153.7188
872.2410, 243.7451
873.3730, 211.9248
874.5050, 88.20215
875.6360, 120.7314
876.7670, 144.1240
877.8980, 233.2549
879.0290, 134.4756
880.1590, 186.6221
881.2900, 228.9873
882.4200, 54.42480
883.5500, 12.50879
884.6800, 42.60938
885.8100, 35.56934
886.9400, 32.64648
888.0690, 123.1426
889.1990, 188.8379
890.3280, 47.06055
891.4570, 97.34961
892.5860, 95.42773
893.7140, 140.3594
894.8430, 151.1240
895.9710, 173.8105
897.1000, 14.77344
898.2280, 136.6309
899.3560, 62.44531
900.4830, 62.49414
901.6110, 106.6172
902.7380, 199.7412
903.8660, 99.98047
904.9930, 22.34570
906.1200, 226.5791
907.2460, 140.3672
908.3730, 106.4893
909.5000, 61.45020
910.6260, 79.25879
911.7520, 79.35742
912.8780, 27.55176
914.0040, 37.41504
915.1290, 44.72070
916.2550, 142.0449
917.3800, 4.054688
918.5050, 48.62988
919.6300, 127.3467
920.7550, 75.37793
921.8800, 88.63086
923.0040, 73.16797
924.1290, 81.41699
925.2530, 87.02344
926.3770, 68.36621
927.5010, 217.3105
928.6250, 335.8174
929.7480, 305.5146
930.8720, 350.1680
931.9950, 282.9023
933.1180, 252.2930
934.2410, 225.5488
935.3640, 103.3135
936.4860, 208.9932
937.6090, 269.4961
938.7310, 392.8926
939.8530, 361.0742
940.9750, 341.6133
942.0970, 370.3066
943.2180, 471.2754
944.3400, 625.0195
945.4610, 511.0156
946.5820, 718.5957
947.7030, 851.0820
948.8240, 871.7910
949.9450, 1192.045
951.0650, 1519.992
952.1860, 2065.977
953.3060, 2579.600
954.4260, 3604.229
955.5460, 4975.570
956.6650, 6734.068
957.7850, 8341.383
958.9040, 10212.28
960.0230, 11694.18
961.1420, 12762.82
962.2610, 12885.33
963.3800, 12316.45
964.4990, 10840.20
965.6170, 9237.961
966.7350, 7568.322
967.8530, 5926.932
968.9710, 4569.643
970.0890, 3717.592
971.2070, 2802.055
972.3240, 2194.609
973.4410, 1620.344
974.5580, 1267.848
975.6750, 919.5879
976.7920, 838.9336
977.9090, 593.8105
979.0250, 429.5625
980.1410, 478.8652
981.2580, 288.4258
982.3740, 348.2637
983.4890, 89.25195
984.6050, 115.8145
985.7200, 348.5332
986.8360, 42.14258
987.9510, 140.4160
989.0660, 165.9160
990.1810, 236.9746
991.2950, 214.6582
992.4100, 145.1504
993.5240, 71.53125
994.6390, 179.0977
995.7530, 109.4883
996.8660, 236.1465
997.9800, 103.9805
999.0940, 62.39648
1000.207, 107.6641
1001.320, 109.5391
1002.433, 107.9863
1003.546, 208.6914
1004.659, 180.0469
1005.772, 165.6543
1006.884, 115.0703
1007.996, 137.4961
1009.108, 137.4258
1010.220, 161.4707
1011.332, 177.4863
1012.444, 206.1602
1013.555, 216.1973
1014.666, 343.0293
1015.777, 245.5762
1016.888, 161.5098
1017.999, 72.78711
1019.110, 280.0938
1020.220, 297.6738
1021.331, 371.3828
1022.441, 363.4004
1023.551, 514.9688
1024.661, 459.7480
1025.770, 542.9590
1026.880, 684.1094
1027.989, 590.8887
1029.098, 440.0781
1030.207, 705.8730
1031.316, 506.1953
1032.425, 288.7871
1033.533, 287.2246
1034.642, 340.7969
1035.750, 282.9316
1036.858, 236.6328
1037.966, 225.2617
1039.073, 176.1426
1040.181, 247.0234
1041.288, 204.4336
1042.396, 139.7832
1043.503, 22.76367
1044.610, 330.8730
1045.716, 375.1074
1046.823, 255.3848
1047.929, 22.36914
1049.036, 175.4453
1050.142, 497.3867
1051.248, 295.3945
1052.353, 412.1973
1053.459, 246.7305
1054.564, 303.8203
1055.670, 216.6016
1056.775, 590.9082
1057.880, 406.9785
1058.985, 422.1152
1060.089, 338.4922
1061.194, 251.0703
1062.298, 318.5781
1063.402, 229.2617
1064.506, 260.4688
1065.610, 410.1641
1066.713, 161.3672
1067.817, 244.0039
1068.920, 243.7402
1070.023, 105.7500
1071.126, 334.6953
1072.229, 70.01562
1073.332, 532.3398
1074.435, 102.1387
1075.537, 513.0801
1076.639, 265.3027
1077.741, 161.1113
1078.843, 179.0996
1079.945, 108.1074
1081.046, 89.53125
1082.148, 184.9316
1083.249, 67.66797
1084.350, 145.3672
1085.451, 158.8262
1086.551, 164.8789
1087.652, 291.2656
1088.752, 100.5000
1089.853, 108.8633
1090.953, 26.74805
1092.053, 12.07031
1093.152, 27.84961
1094.252, 26.90625
1095.351, 31.52344
1096.451, 9.791016
1097.550, 133.6875
1098.649, 2.482422
1099.748, 72.92578
1100.846, 7.716797
1101.945, 111.6094
1103.043, 37.02930
1104.141, 198.6602
1105.239, 160.2539
1106.337, 217.7402
1107.434, 123.1230
1108.532, 110.5605
1109.629, 238.3711
1110.726, 4.523438
1111.823, 71.41992
1112.920, 22.65234
1114.017, 201.4473
1115.113, 90.70898
1116.210, 132.7715
1117.306, 37.03906
1118.402, 188.0195
1119.498, 12.39844
1120.593, 126.3223
1121.689, 73.93750
1122.784, 160.2891
1123.879, 177.0742
1124.974, 83.49805
1126.069, 217.0098
1127.164, 67.53125
1128.259, 79.65625
1129.353, 164.1992
1130.447, 158.0723
1131.541, 184.5156
1132.635, 91.44531
1133.729, 189.0352
1134.822, 347.5312
1135.916, 184.3633
1137.009, 194.9785
1138.102, 86.44727
1139.195, 244.8594
1140.288, 291.7188
1141.380, 113.8184
1142.473, 196.9297
1143.565, 105.9766
1144.657, 370.0078
1145.749, 207.1953
1146.841, 292.3809
1147.932, 232.3711
1149.024, 237.0996
1150.115, 310.1211
1151.206, 204.6426
1152.297, 143.0820
1153.388, 164.7051
1154.479, 90.56641
1155.569, 93.93555
1156.659, 63.42578
1157.750, 57.80469
1158.839, 117.0488
1159.929, 58.18555
1161.019, 104.8184
1162.108, 140.1055
1163.198, 84.73242
1164.287, 240.2168
1165.376, 34.78711
1166.465, 95.32227
1167.553, 206.5527
1168.642, 154.1680
1169.730, 99.66602
1170.818, 177.2383
1171.906, 180.5879
1172.994, 202.8242
1174.082, 154.5527
1175.170, 129.0703
1176.257, 103.2285
1177.344, 39.86523
1178.431, 70.25781
1179.518, 56.16992
1180.605, 136.3730
1181.691, 340.0762
1182.778, 251.4434
1183.864, 161.8555
1184.950, 70.44531
1186.036, 364.4043
1187.122, 205.5293
1188.207, 357.4102
1189.292, 378.7129
1190.378, 253.6133
1191.463, 344.0859
1192.548, 213.1562
1193.632, 350.7344
1194.717, 244.6602
1195.801, 277.0488
1196.886, 354.5645
1197.970, 187.4355
1199.054, 251.0723
1200.137, 271.7852
1201.221, 99.52148
1202.305, 362.6992
1203.388, 272.8633
1204.471, 118.4180
1205.554, 421.7812
1206.637, 312.8887
1207.719, 151.4238
1208.802, 420.8730
1209.884, 367.7695
1210.966, 368.1445
1212.048, 226.0098
1213.130, 298.3711
1214.212, 82.54883
1215.293, 373.5801
1216.374, 160.0469
1217.456, 298.1055
1218.536, 313.3398
1219.617, 263.5332
1220.698, 237.3027
1221.778, 184.2207
1222.859, 148.5508
1223.939, 124.4941
1225.019, 105.2383
1226.099, 148.5391
1227.178, 212.5371
1228.258, 214.3965
1229.337, 274.5508
1230.417, 214.7480
1231.496, 166.4453
1232.574, 135.6934
1233.653, 395.6602
1234.732, 302.0723
1235.810, 268.8184
1236.888, 534.5469
1237.966, 85.35938
1239.044, 280.8359
1240.122, 274.7734
1241.199, 245.0625
1242.277, 317.9102
1243.354, 521.4102
1244.431, 319.4570
1245.508, 448.5234
1246.585, 212.5156
1247.661, 446.0977
1248.738, 326.2656
1249.814, 344.3828
1250.890, 87.27344
1251.966, 30.25000
1253.042, 68.39062
1254.117, 64.10938
1255.193, 91.30078
1256.268, 282.7070
1257.343, 254.9883
1258.418, 398.4766
1259.493, 337.8789
1260.567, 419.9609
1261.642, 169.7461
1262.716, 418.0391
1263.790, 262.4414
1264.864, 355.9727
1265.938, 252.7656
1267.011, 242.7578
1268.085, 167.8320
1269.158, 81.78516
1270.231, 361.7305
1271.304, 325.5195
1272.377, 391.0000
1273.450, 373.9297
1274.522, 76.57422
1275.594, 198.3555
1276.666, 100.1602
1277.738, 61.44531
1278.810, 78.87500
1279.882, 325.3516
1280.953, 273.8359
1282.025, 330.2148
1283.096, 363.1055
1284.167, 313.7695
1285.238, 250.4102
1286.308, 185.1328
1287.379, 277.6602
1288.449, 4.199219
1289.519, 356.1680
1290.589, 219.2188
1291.659, 0.0000000E+00
##END=



