##NAMES=Fluor-buergerite
##RRUFFID=R060132
##IDEAL CHEMISTRY=NaFe^3+^_3_Al_6_(Si_6_O_18_)(BO_3_)_3_O_3_F
##LOCALITY=20 km. south of San Luis Potasi, Mexico
##OWNER=RRUFF
##SOURCE=University of Arizona Mineral Museum
##DESCRIPTION=Brown short prismatic
##STATUS=The identification of this mineral has been confirmed by X-ray diffraction and chemical analysis
##URL=rruff.info/R060132
##MEASURED CHEMISTRY=(Na_0.87_Ca_0.03_[box]_0.10_)(Fe^3+^_0.82_Al_0.12_Mg_0.04_Ti_0.02_)_3_Al_6_(BO_3_)_3_(Si_0.98_Al_0.02_)_6_O_18_(O_0.66_F_0.19_(OH)_0.15_)_4_
##PIN_ID=L00828
##ORIENTATION=Laser parallel to -c* (0 0 -1). Fiducial mark perpendicular to laser is parallel to -a [-1 0 0]
131.6680, 0.0000000E+00
132.8980, 2.078125
134.1270, 37.51758
135.3560, 9.553711
136.5850, 91.59766
137.8140, 76.26758
139.0430, 253.0645
140.2710, 303.2246
141.5000, 370.5625
142.7280, 647.3115
143.9560, 478.7578
145.1840, 53.62207
146.4120, 197.9424
147.6390, 448.0957
148.8670, 221.3633
150.0940, 442.3281
151.3210, 511.7578
152.5490, 921.5977
153.7750, 979.3115
155.0020, 932.0811
156.2290, 918.0967
157.4550, 908.0879
158.6810, 792.7344
159.9080, 772.3574
161.1340, 688.3496
162.3590, 881.0615
163.5850, 916.7803
164.8110, 1145.750
166.0360, 1307.183
167.2610, 1258.258
168.4860, 1161.136
169.7110, 1392.973
170.9360, 1484.935
172.1610, 1539.162
173.3850, 1381.860
174.6100, 1535.602
175.8340, 1678.201
177.0580, 1630.153
178.2820, 1800.628
179.5050, 2069.153
180.7290, 2154.396
181.9520, 2081.812
183.1760, 2304.616
184.3990, 2364.869
185.6220, 2267.235
186.8450, 2501.284
188.0670, 2221.582
189.2900, 2376.131
190.5120, 2232.922
191.7340, 2327.934
192.9560, 2413.146
194.1780, 2334.536
195.4000, 2380.092
196.6220, 2327.812
197.8430, 2311.702
199.0640, 2235.767
200.2860, 2445.006
201.5070, 2648.425
202.7270, 2671.024
203.9480, 2251.809
205.1690, 1616.792
206.3890, 1215.084
207.6090, 684.9844
208.8290, 560.5000
210.0490, 500.5049
211.2690, 507.9980
212.4890, 418.7695
213.7080, 320.6904
214.9280, 282.7588
216.1470, 87.96777
217.3660, 141.3125
218.5850, 178.7871
219.8030, 46.61523
221.0220, 63.89941
222.2400, 18.07031
223.4590, 19.12891
224.6770, 86.07715
225.8950, 41.91602
227.1120, 133.6504
228.3300, 82.29102
229.5480, 124.8516
230.7650, 113.3477
231.9820, 115.7832
233.1990, 80.15332
234.4160, 32.59570
235.6330, 70.68652
236.8490, 100.1602
238.0660, 194.0869
239.2820, 276.0977
240.4980, 469.2148
241.7140, 439.4688
242.9300, 572.8789
244.1460, 638.4824
245.3610, 759.2266
246.5770, 917.9766
247.7920, 1029.237
249.0070, 1327.848
250.2220, 1327.621
251.4370, 1675.308
252.6510, 1870.877
253.8660, 2264.307
255.0800, 2609.601
256.2940, 2981.817
257.5080, 3314.027
258.7220, 3875.370
259.9360, 3909.985
261.1490, 4360.512
262.3630, 4022.318
263.5760, 4039.305
264.7890, 4038.458
266.0020, 4017.768
267.2150, 4076.044
268.4270, 4085.480
269.6400, 4215.649
270.8520, 4174.596
272.0640, 4310.709
273.2760, 4400.985
274.4880, 4614.428
275.7000, 4726.035
276.9120, 4610.812
278.1230, 4491.551
279.3340, 4293.556
280.5450, 3981.156
281.7560, 3647.459
282.9670, 3406.198
284.1780, 3156.521
285.3880, 2887.869
286.5980, 2758.901
287.8090, 2627.409
289.0190, 2571.430
290.2290, 2544.873
291.4380, 2568.707
292.6480, 2503.603
293.8570, 2475.025
295.0670, 2404.985
296.2760, 2398.135
297.4850, 2304.318
298.6930, 2307.536
299.9020, 2363.782
301.1110, 2409.034
302.3190, 2239.270
303.5270, 1884.473
304.7350, 1848.643
305.9430, 1619.797
307.1510, 1476.946
308.3580, 1175.103
309.5660, 1456.273
310.7730, 1404.470
311.9800, 1302.697
313.1870, 1427.964
314.3940, 1525.274
315.6010, 1586.635
316.8070, 1770.050
318.0130, 1844.523
319.2200, 1934.055
320.4260, 2220.543
321.6310, 2429.925
322.8370, 2412.109
324.0430, 2530.104
325.2480, 2728.878
326.4540, 2765.436
327.6590, 2723.786
328.8640, 2724.027
330.0680, 2707.249
331.2730, 2591.597
332.4780, 2537.847
333.6820, 2512.688
334.8860, 2300.429
336.0900, 2225.302
337.2940, 2031.303
338.4980, 2076.436
339.7010, 2020.698
340.9050, 2236.092
342.1080, 2193.617
343.3110, 2332.271
344.5140, 2474.058
345.7170, 2467.975
346.9200, 2618.428
348.1220, 2871.078
349.3240, 2875.769
350.5270, 2879.652
351.7290, 2906.385
352.9310, 2765.691
354.1320, 2831.338
355.3340, 2574.089
356.5350, 2568.733
357.7370, 2460.797
358.9380, 2193.074
360.1390, 2352.236
361.3400, 2062.469
362.5400, 1855.435
363.7410, 1952.512
364.9410, 1738.040
366.1410, 1524.853
367.3410, 1786.646
368.5410, 1630.678
369.7410, 1550.086
370.9400, 1286.361
372.1400, 1379.582
373.3390, 1257.113
374.5380, 1237.454
375.7370, 1191.773
376.9360, 1108.252
378.1350, 1161.920
379.3330, 1187.426
380.5310, 1010.113
381.7300, 878.7988
382.9280, 995.4736
384.1260, 979.4912
385.3230, 1307.644
386.5210, 1354.933
387.7180, 1466.356
388.9160, 1654.917
390.1130, 1877.974
391.3100, 2219.494
392.5060, 2439.760
393.7030, 2865.936
394.9000, 3128.184
396.0960, 3364.571
397.2920, 3921.101
398.4880, 3985.773
399.6840, 4311.592
400.8800, 4453.555
402.0750, 4528.667
403.2710, 4553.925
404.4660, 4556.332
405.6610, 4368.885
406.8560, 4277.586
408.0510, 3961.439
409.2450, 3735.438
410.4400, 3294.589
411.6340, 3112.890
412.8280, 2775.341
414.0220, 2062.943
415.2160, 1792.697
416.4100, 1324.604
417.6030, 873.6621
418.7970, 666.8750
419.9900, 581.2412
421.1830, 225.7637
422.3760, 52.43164
423.5690, 249.7471
424.7610, 352.8604
425.9540, 293.9385
427.1460, 330.3926
428.3380, 330.0986
429.5300, 210.8906
430.7220, 225.7471
431.9140, 340.5244
433.1050, 125.2578
434.2970, 136.8750
435.4880, 48.61914
436.6790, 231.2754
437.8700, 417.0928
439.0610, 685.0713
440.2510, 674.2129
441.4420, 733.5186
442.6320, 928.9883
443.8220, 1109.623
445.0120, 1532.426
446.2020, 1623.396
447.3910, 1635.533
448.5810, 2098.842
449.7700, 2291.318
450.9600, 2459.969
452.1490, 2600.791
453.3370, 2761.787
454.5260, 2970.958
455.7150, 3183.302
456.9030, 3231.822
458.0910, 3109.521
459.2800, 3282.395
460.4670, 3070.445
461.6550, 3091.677
462.8430, 3099.085
464.0300, 3063.415
465.2180, 3068.443
466.4050, 3029.396
467.5920, 3006.534
468.7790, 2784.857
469.9650, 2651.369
471.1520, 2386.070
472.3380, 2174.964
473.5250, 1868.049
474.7110, 1764.325
475.8970, 1298.794
477.0820, 1234.455
478.2680, 1060.310
479.4540, 799.3574
480.6390, 826.5967
481.8240, 428.0293
483.0090, 388.6562
484.1940, 344.4756
485.3780, 176.4883
486.5630, 266.6943
487.7470, 54.09473
488.9320, 21.31250
490.1160, 72.53027
491.3000, 69.57129
492.4830, 112.2236
493.6670, 102.1270
494.8500, 119.6484
496.0340, 195.0029
497.2170, 162.2080
498.4000, 34.25586
499.5820, 94.11621
500.7650, 141.1973
501.9480, 192.7070
503.1300, 438.4111
504.3120, 449.3311
505.4940, 706.4580
506.6760, 1051.788
507.8580, 1111.357
509.0390, 1269.173
510.2210, 1577.219
511.4020, 1759.498
512.5830, 1920.025
513.7640, 1995.789
514.9450, 1854.810
516.1250, 1660.077
517.3060, 1744.598
518.4860, 1456.369
519.6660, 1369.393
520.8460, 1051.656
522.0260, 848.1504
523.2060, 698.8828
524.3850, 572.8213
525.5650, 494.9541
526.7440, 367.3408
527.9230, 325.8037
529.1020, 187.5205
530.2810, 147.4297
531.4590, 115.5332
532.6380, 74.16895
533.8160, 24.68945
534.9940, 123.0215
536.1720, 94.81738
537.3500, 21.84961
538.5270, 201.0742
539.7050, 130.4922
540.8820, 354.1025
542.0590, 673.9170
543.2360, 763.9248
544.4130, 986.2148
545.5900, 994.5840
546.7660, 1323.246
547.9430, 1449.152
549.1190, 1664.312
550.2950, 1930.747
551.4710, 1830.432
552.6470, 2094.396
553.8220, 2275.629
554.9980, 2292.146
556.1730, 2254.946
557.3480, 2206.029
558.5230, 2279.381
559.6980, 2224.013
560.8730, 2457.938
562.0470, 2344.137
563.2220, 2473.608
564.3960, 2395.352
565.5700, 2354.857
566.7440, 2302.395
567.9170, 2568.688
569.0910, 2567.787
570.2640, 2726.217
571.4380, 2916.766
572.6110, 2986.078
573.7840, 3156.085
574.9570, 3234.777
576.1290, 3371.393
577.3020, 3681.066
578.4740, 3855.991
579.6460, 3989.172
580.8180, 4116.578
581.9900, 4457.191
583.1620, 4559.018
584.3330, 4805.059
585.5040, 5361.318
586.6760, 5418.793
587.8470, 6032.477
589.0180, 6376.385
590.1880, 6761.520
591.3590, 7311.860
592.5290, 7809.404
593.7000, 8373.159
594.8700, 9098.113
596.0400, 9854.265
597.2090, 10513.61
598.3790, 11446.15
599.5490, 12238.89
600.7180, 13070.82
601.8870, 14247.95
603.0560, 15360.26
604.2250, 16314.25
605.3940, 17292.45
606.5620, 18275.32
607.7300, 19258.37
608.8990, 20080.60
610.0670, 21111.00
611.2350, 21963.59
612.4020, 22390.34
613.5700, 23181.27
614.7370, 23940.37
615.9050, 24362.63
617.0720, 25422.06
618.2390, 25966.65
619.4060, 26605.41
620.5720, 27777.32
621.7390, 28426.39
622.9050, 29460.62
624.0710, 30427.01
625.2370, 31263.54
626.4030, 32449.23
627.5690, 34053.07
628.7340, 34801.07
629.9000, 36783.80
631.0650, 38016.61
632.2300, 39064.66
633.3950, 40880.80
634.5600, 41924.34
635.7240, 43176.60
636.8890, 43783.78
638.0530, 44211.12
639.2170, 43533.83
640.3810, 42882.39
641.5450, 41086.94
642.7080, 39847.64
643.8720, 37570.46
645.0350, 35673.43
646.1980, 34081.52
647.3610, 31929.75
648.5240, 30409.11
649.6870, 28888.59
650.8490, 27589.20
652.0120, 26180.94
653.1740, 25645.80
654.3360, 24130.79
655.4980, 23181.91
656.6600, 22427.14
657.8210, 21129.48
658.9830, 19892.95
660.1440, 18767.53
661.3050, 17267.22
662.4660, 15811.04
663.6270, 14760.96
664.7870, 13448.99
665.9480, 12706.13
667.1080, 11858.38
668.2680, 10673.74
669.4280, 10184.20
670.5880, 9043.761
671.7480, 8455.434
672.9070, 7959.155
674.0670, 7134.730
675.2260, 6503.632
676.3850, 5544.701
677.5440, 4940.865
678.7030, 4166.127
679.8610, 3386.481
681.0200, 2811.172
682.1780, 2206.712
683.3360, 1727.413
684.4940, 1336.074
685.6520, 1032.248
686.8090, 789.3877
687.9670, 663.5703
689.1240, 744.0557
690.2810, 551.5029
691.4380, 431.0352
692.5950, 615.2471
693.7520, 523.1084
694.9080, 696.8672
696.0650, 835.0049
697.2210, 778.6982
698.3770, 1008.204
699.5330, 986.7871
700.6880, 1205.487
701.8440, 1313.834
702.9990, 1244.771
704.1550, 1449.981
705.3100, 1460.140
706.4650, 1573.116
707.6190, 1556.188
708.7740, 1523.197
709.9290, 1583.368
711.0830, 1584.116
712.2370, 1452.328
713.3910, 1527.837
714.5450, 1398.758
715.6980, 1181.896
716.8520, 1205.436
718.0050, 1191.705
719.1580, 1202.809
720.3110, 1073.586
721.4640, 878.0986
722.6170, 1005.755
723.7700, 773.0820
724.9220, 703.2012
726.0740, 762.8398
727.2260, 884.1582
728.3780, 831.4707
729.5300, 963.7490
730.6810, 920.1025
731.8330, 1011.246
732.9840, 954.2197
734.1350, 968.4873
735.2860, 835.0752
736.4370, 1023.051
737.5880, 1282.720
738.7380, 1096.277
739.8880, 891.1562
741.0390, 1015.616
742.1890, 763.4375
743.3380, 968.4229
744.4880, 1067.379
745.6380, 1308.910
746.7870, 1491.705
747.9360, 1853.243
749.0850, 1882.010
750.2340, 2079.066
751.3830, 2511.189
752.5310, 2425.017
753.6800, 2672.863
754.8280, 2797.943
755.9760, 2641.287
757.1240, 2700.935
758.2720, 2630.306
759.4190, 2461.570
760.5670, 2191.436
761.7140, 2099.283
762.8610, 2008.572
764.0080, 1721.278
765.1550, 1550.520
766.3020, 1402.726
767.4480, 1428.937
768.5950, 1070.856
769.7410, 877.6875
770.8870, 962.4746
772.0330, 854.2803
773.1780, 810.9814
774.3240, 701.6396
775.4690, 771.2637
776.6140, 948.8467
777.7590, 1280.375
778.9040, 1243.852
780.0490, 1596.267
781.1940, 1681.618
782.3380, 2039.905
783.4820, 2358.127
784.6260, 2793.283
785.7700, 3172.371
786.9140, 3386.389
788.0580, 3661.338
789.2010, 3918.215
790.3450, 4018.019
791.4880, 3929.751
792.6310, 3551.406
793.7730, 3215.987
794.9160, 2531.492
796.0590, 2019.919
797.2010, 1585.267
798.3430, 1456.535
799.4850, 1237.722
800.6270, 1061.826
801.7690, 883.8486
802.9100, 1012.787
804.0520, 759.6396
805.1930, 666.4062
806.3340, 775.0850
807.4750, 601.6758
808.6160, 546.1758
809.7560, 456.5869
810.8970, 430.9131
812.0370, 358.1465
813.1770, 366.2988
814.3170, 287.3564
815.4570, 298.3184
816.5960, 262.1836
817.7360, 51.95117
818.8750, 207.5967
820.0140, 73.13965
821.1530, 72.43945
822.2920, 21.78613
823.4310, 85.13672
824.5690, 128.2676
825.7070, 191.6318
826.8460, 106.2656
827.9840, 214.1250
829.1220, 172.2725
830.2590, 225.6865
831.3970, 219.3994
832.5340, 220.9600
833.6710, 161.7217
834.8080, 202.3057
835.9450, 247.1836
837.0820, 181.3857
838.2190, 171.8770
839.3550, 161.6543
840.4910, 82.71582
841.6270, 237.0234
842.7630, 22.65625
843.8990, 163.5068
845.0350, 110.6514
846.1700, 157.0635
847.3060, 162.7705
848.4410, 150.8350
849.5760, 120.0762
850.7100, 139.6562
851.8450, 92.53027
852.9800, 64.67285
854.1140, 74.07129
855.2480, 28.26660
856.3820, 158.3945
857.5160, 100.8721
858.6500, 100.1230
859.7830, 56.70508
860.9170, 93.08594
862.0500, 111.2725
863.1830, 41.27148
864.3160, 23.05762
865.4480, 133.6201
866.5810, 171.9961
867.7130, 80.19531
868.8460, 241.1904
869.9780, 185.0195
871.1100, 218.6689
872.2410, 251.1465
873.3730, 177.4561
874.5050, 217.8027
875.6360, 228.1055
876.7670, 239.3125
877.8980, 273.9170
879.0290, 326.3691
880.1590, 330.6582
881.2900, 360.7881
882.4200, 344.7607
883.5500, 364.5732
884.6800, 350.2275
885.8100, 496.7207
886.9400, 332.0684
888.0690, 526.2520
889.1990, 524.3027
890.3280, 497.2090
891.4570, 584.9688
892.5860, 548.5957
893.7140, 581.0801
894.8430, 593.4209
895.9710, 649.6621
897.1000, 648.7959
898.2280, 776.7979
899.3560, 671.6680
900.4830, 776.3994
901.6110, 778.0000
902.7380, 769.4648
903.8660, 832.7949
904.9930, 895.9980
906.1200, 913.0684
907.2460, 842.0176
908.3730, 1008.833
909.5000, 941.5166
910.6260, 891.0957
911.7520, 968.5576
912.8780, 993.9277
914.0040, 1141.166
915.1290, 1157.291
916.2550, 1248.282
917.3800, 1224.143
918.5050, 1288.882
919.6300, 1314.489
920.7550, 1261.967
921.8800, 1279.312
923.0040, 1371.526
924.1290, 1352.622
925.2530, 1308.587
926.3770, 1436.445
927.5010, 1481.199
928.6250, 1457.842
929.7480, 1487.388
930.8720, 1525.670
931.9950, 1557.104
933.1180, 1611.274
934.2410, 1674.313
935.3640, 1718.223
936.4860, 1785.945
937.6090, 1845.661
938.7310, 1906.190
939.8530, 1942.590
940.9750, 1982.860
942.0970, 1877.004
943.2180, 2083.018
944.3400, 2178.904
945.4610, 2033.663
946.5820, 2516.295
947.7030, 2278.800
948.8240, 2343.178
949.9450, 2354.431
951.0650, 2299.557
952.1860, 2462.557
953.3060, 2496.189
954.4260, 2431.938
955.5460, 2513.492
956.6650, 2520.053
957.7850, 2599.062
958.9040, 2591.068
960.0230, 2817.996
961.1420, 2718.580
962.2610, 2779.412
963.3800, 2784.619
964.4990, 2738.355
965.6170, 2813.398
966.7350, 2735.503
967.8530, 2717.182
968.9710, 2751.689
970.0890, 2731.228
971.2070, 2793.575
972.3240, 2833.504
973.4410, 2883.739
974.5580, 2914.692
975.6750, 2969.603
976.7920, 2969.917
977.9090, 3001.422
979.0250, 3041.827
980.1410, 3036.298
981.2580, 3097.607
982.3740, 2995.320
983.4890, 3163.549
984.6050, 3003.481
985.7200, 3212.965
986.8360, 2993.193
987.9510, 3113.961
989.0660, 3184.938
990.1810, 2903.019
991.2950, 2990.363
992.4100, 3047.909
993.5240, 2895.246
994.6390, 2932.848
995.7530, 2998.591
996.8660, 2955.748
997.9800, 2970.158
999.0940, 3175.504
1000.207, 2948.818
1001.320, 3129.985
1002.433, 2992.293
1003.546, 2982.696
1004.659, 3176.734
1005.772, 3222.380
1006.884, 3203.563
1007.996, 3172.979
1009.108, 3231.710
1010.220, 3251.662
1011.332, 3348.880
1012.444, 3406.646
1013.555, 3532.374
1014.666, 3701.040
1015.777, 3663.085
1016.888, 3703.750
1017.999, 3835.590
1019.110, 3685.119
1020.220, 3800.276
1021.331, 3775.281
1022.441, 3862.898
1023.551, 3696.012
1024.661, 3516.809
1025.770, 3436.469
1026.880, 3186.523
1027.989, 3204.762
1029.098, 3094.336
1030.207, 3123.744
1031.316, 3022.555
1032.425, 2966.712
1033.533, 2860.288
1034.642, 2859.771
1035.750, 2661.540
1036.858, 2647.209
1037.966, 2694.396
1039.073, 2532.269
1040.181, 2415.168
1041.288, 2308.942
1042.396, 2267.686
1043.503, 2262.708
1044.610, 2385.491
1045.716, 2383.385
1046.823, 2370.979
1047.929, 2531.513
1049.036, 2799.012
1050.142, 2784.673
1051.248, 2943.508
1052.353, 2913.893
1053.459, 3010.404
1054.564, 3084.715
1055.670, 3051.990
1056.775, 3266.053
1057.880, 3491.260
1058.985, 3558.843
1060.089, 3455.676
1061.194, 3600.286
1062.298, 3583.188
1063.402, 3380.960
1064.506, 3403.723
1065.610, 3342.447
1066.713, 3155.393
1067.817, 3066.307
1068.920, 2972.684
1070.023, 2911.212
1071.126, 2816.040
1072.229, 2626.840
1073.332, 2458.614
1074.435, 2558.361
1075.537, 2384.082
1076.639, 2391.778
1077.741, 2137.451
1078.843, 2116.100
1079.945, 2169.725
1081.046, 2051.328
1082.148, 1937.910
1083.249, 1943.471
1084.350, 1730.012
1085.451, 1812.532
1086.551, 1720.048
1087.652, 1889.545
1088.752, 1659.037
1089.853, 1648.559
1090.953, 1701.086
1092.053, 1628.652
1093.152, 1692.267
1094.252, 1540.950
1095.351, 1548.681
1096.451, 1492.487
1097.550, 1321.362
1098.649, 1468.320
1099.748, 1384.361
1100.846, 1470.487
1101.945, 1296.685
1103.043, 1290.963
1104.141, 1208.339
1105.239, 1152.794
1106.337, 1176.528
1107.434, 1045.940
1108.532, 1210.610
1109.629, 1246.379
1110.726, 1245.193
1111.823, 1145.091
1112.920, 1074.057
1114.017, 1220.106
1115.113, 1045.241
1116.210, 1133.461
1117.306, 1188.757
1118.402, 998.1357
1119.498, 1170.586
1120.593, 1319.100
1121.689, 953.6836
1122.784, 804.3096
1123.879, 840.9590
1124.974, 847.6377
1126.069, 768.3496
1127.164, 557.1006
1128.259, 592.8867
1129.353, 560.7051
1130.447, 364.5684
1131.541, 381.4834
1132.635, 391.4297
1133.729, 332.4043
1134.822, 298.4199
1135.916, 293.4590
1137.009, 185.5254
1138.102, 153.6201
1139.195, 295.7373
1140.288, 209.8867
1141.380, 178.0654
1142.473, 64.27148
1143.565, 71.49512
1144.657, 24.73633
1145.749, 50.98926
1146.841, 17.26367
1147.932, 144.5586
1149.024, 191.8750
1150.115, 106.2139
1151.206, 140.5752
1152.297, 89.95215
1153.388, 62.64453
1154.479, 34.74805
1155.569, 53.15820
1156.659, 58.41504
1157.750, 171.0049
1158.839, 48.44043
1159.929, 177.1084
1161.019, 137.7236
1162.108, 37.38770
1163.198, 13.05078
1164.287, 66.29297
1165.376, 16.34863
1166.465, 70.01660
1167.553, 19.39453
1168.642, 37.21289
1169.730, 34.17773
1170.818, 54.41797
1171.906, 1.977539
1172.994, 84.38574
1174.082, 127.1914
1175.170, 79.81250
1176.257, 177.4492
1177.344, 4.844727
1178.431, 92.84766
1179.518, 52.43652
1180.605, 86.73633
1181.691, 65.94922
1182.778, 51.35352
1183.864, 3.326172
1184.950, 86.00684
1186.036, 9.377930
1187.122, 70.23535
1188.207, 50.14062
1189.292, 117.4678
1190.378, 122.1074
1191.463, 102.7852
1192.548, 156.4688
1193.632, 22.20801
1194.717, 22.92383
1195.801, 22.63184
1196.886, 14.69824
1197.970, 52.04492
1199.054, 14.58984
1200.137, 20.20117
1201.221, 114.1982
1202.305, 23.61621
1203.388, 112.0537
1204.471, 52.51562
1205.554, 26.99609
1206.637, 179.4971
1207.719, 110.0166
1208.802, 266.5762
1209.884, 91.16504
1210.966, 149.7949
1212.048, 54.44629
1213.130, 245.1328
1214.212, 357.8691
1215.293, 275.6250
1216.374, 391.4033
1217.456, 400.2139
1218.536, 261.0469
1219.617, 437.9033
1220.698, 402.7793
1221.778, 483.6787
1222.859, 744.6162
1223.939, 724.5889
1225.019, 741.5840
1226.099, 719.6191
1227.178, 838.6719
1228.258, 870.7461
1229.337, 1124.843
1230.417, 1257.957
1231.496, 1406.732
1232.574, 1562.250
1233.653, 1758.425
1234.732, 1787.629
1235.810, 1999.851
1236.888, 2108.091
1237.966, 2336.348
1239.044, 2608.623
1240.122, 2762.914
1241.199, 2962.223
1242.277, 3040.545
1243.354, 3212.884
1244.431, 3237.732
1245.508, 3189.623
1246.585, 3267.021
1247.661, 3218.440
1248.738, 3236.876
1249.814, 3225.326
1250.890, 3264.790
1251.966, 3217.268
1253.042, 3128.758
1254.117, 3288.267
1255.193, 3234.786
1256.268, 3445.320
1257.343, 3281.868
1258.418, 3316.430
1259.493, 3289.006
1260.567, 3666.592
1261.642, 3583.188
1262.716, 3707.799
1263.790, 3794.420
1264.864, 3911.052
1265.938, 3819.695
1267.011, 3656.349
1268.085, 3509.013
1269.158, 3585.687
1270.231, 3417.372
1271.304, 3428.065
1272.377, 3581.770
1273.450, 3643.674
1274.522, 3663.881
1275.594, 3535.112
1276.666, 3663.816
1277.738, 3258.564
1278.810, 3145.321
1279.882, 3276.085
1280.953, 3315.855
1282.025, 3383.636
1283.096, 3504.024
1284.167, 3643.819
1285.238, 3801.620
1286.308, 3943.212
1287.379, 4102.028
1288.449, 4155.051
1289.519, 4224.369
1290.589, 4198.369
1291.659, 4185.900
1292.729, 4156.323
1293.798, 3981.184
1294.868, 3846.516
1295.937, 3735.391
1297.006, 3716.272
1298.075, 3414.845
1299.143, 3441.740
1300.212, 3129.569
