##NAMES=Fluorapatite
##RRUFFID=R060333
##IDEAL CHEMISTRY=Ca_5_(PO_4_)_3_F
##LOCALITY=Lovozero Massif, Kola Peninsula, U.S.S.R.
##OWNER=RRUFF
##SOURCE=Michael Scott
##DESCRIPTION=Colorless fragment associated with red villiaumite
##STATUS=The identification of this mineral has been confirmed by X-ray diffraction and chemical analysis
##URL=rruff.info/R060333
##MEASURED CHEMISTRY=(Ca_4.29_Sr_0.47_Na_0.12_Ce_0.07_La_0.06_)_Σ=5_((P_0.99_Si_0.01_)_Σ=1_O_4_)_3_F_1.00_
##PIN_ID=L01212
##ORIENTATION=Laser parallel to a* (1 0 0). Fiducial mark perpendicular to laser is parallel to -c [0 0 -1]
164.2210, 0.0000000E+00
165.4520, 7.191162
166.6830, 44.43872
167.9140, 15.59229
169.1450, 73.23389
170.3760, 8.520264
171.6060, 40.97986
172.8360, 63.49158
174.0660, 29.82751
175.2960, 32.83838
176.5260, 12.41833
177.7550, 67.49902
178.9840, 62.02173
180.2130, 100.9314
181.4420, 98.17358
182.6710, 86.69690
183.9000, 115.4557
185.1280, 131.7094
186.3560, 185.5626
187.5840, 205.9077
188.8120, 231.4585
190.0400, 291.2109
191.2670, 305.1403
192.4950, 419.2241
193.7220, 537.4502
194.9490, 618.7927
196.1750, 668.2239
197.4020, 805.7190
198.6280, 906.2593
199.8540, 1016.828
201.0800, 1247.413
202.3060, 1356.005
203.5320, 1448.601
204.7570, 1543.212
205.9830, 1604.880
207.2080, 1574.669
208.4330, 1506.610
209.6570, 1365.758
210.8820, 1219.029
212.1060, 1075.522
213.3310, 1032.216
214.5550, 816.9661
215.7780, 790.7042
217.0020, 700.4700
218.2260, 533.2151
219.4490, 543.9409
220.6720, 503.7218
221.8950, 521.5720
223.1180, 435.3674
224.3400, 455.0688
225.5630, 388.6799
226.7850, 402.1869
228.0070, 380.5941
229.2290, 385.9058
230.4500, 401.1262
231.6720, 424.2584
232.8930, 388.3060
234.1140, 379.2720
235.3350, 409.1597
236.5560, 355.9709
237.7770, 285.7164
238.9970, 351.4209
240.2170, 306.0847
241.4370, 158.7035
242.6570, 201.4703
243.8770, 161.4249
245.0960, 167.1407
246.3160, 95.89111
247.5350, 126.8722
248.7540, 157.0538
249.9730, 96.38000
251.1910, 95.07288
252.4100, 85.16858
253.6280, 104.6855
254.8460, 90.16077
256.0640, 95.56860
257.2810, 73.85498
258.4990, 133.2487
259.7160, 163.9299
260.9330, 109.5790
262.1500, 138.2666
263.3670, 124.1886
264.5840, 166.7469
265.8000, 119.8872
267.0170, 145.8469
268.2330, 184.8805
269.4490, 219.0631
270.6640, 232.5035
271.8800, 202.7380
273.0950, 270.8490
274.3100, 264.1588
275.5260, 306.6152
276.7400, 310.0365
277.9550, 359.2112
279.1690, 348.5640
280.3840, 347.6587
281.5980, 364.2285
282.8120, 404.6608
284.0260, 430.2205
285.2390, 476.8274
286.4530, 448.8459
287.6660, 486.7979
288.8790, 503.7351
290.0920, 489.6572
291.3040, 546.5614
292.5170, 595.4480
293.7290, 543.3151
294.9410, 587.1630
296.1530, 613.9915
297.3650, 589.8002
298.5770, 587.5896
299.7880, 575.3594
301.0000, 550.2142
302.2110, 536.5603
303.4220, 499.5553
304.6320, 486.2498
305.8430, 457.9886
307.0530, 418.5831
308.2630, 378.2229
309.4730, 303.8444
310.6830, 252.3960
311.8930, 218.9630
313.1030, 219.5162
314.3120, 213.0057
315.5210, 168.5316
316.7300, 115.5712
317.9390, 108.1481
319.1470, 68.74231
320.3560, 113.3492
321.5640, 66.96606
322.7720, 67.58960
323.9800, 97.21716
325.1880, 68.84692
326.3950, 16.47644
327.6030, 21.10315
328.8100, 0.3074950
330.0170, 62.34033
331.2240, 7.050415
332.4300, 14.54736
333.6370, 13.13623
334.8430, 0.7150880
336.0490, 11.28125
337.2550, 19.83569
338.4610, 8.622681
339.6660, 41.09863
340.8720, 7.398682
342.0770, 21.11902
343.2820, 13.34058
344.4870, 16.78479
345.6920, 3.786621
346.8960, 19.62329
348.1010, 14.98242
349.3050, 31.54102
350.5090, 40.15381
351.7130, 1.222900
352.9160, 0.6905520
354.1200, 24.27344
355.3230, 10.64648
356.5260, 71.11230
357.7290, 7.679565
358.9320, 5.812622
360.1350, 58.12891
361.3370, 28.46619
362.5390, 39.70422
363.7410, 25.00879
364.9430, 60.27673
366.1450, 10.35059
367.3470, 14.79590
368.5480, 12.98853
369.7490, 23.22742
370.9500, 29.73340
372.1510, 45.50269
373.3520, 50.64490
374.5520, 0.8314210
375.7530, 42.91821
376.9530, 18.21338
378.1530, 55.96143
379.3520, 48.94788
380.5520, 45.07666
381.7510, 11.11560
382.9510, 11.84241
384.1500, 31.93481
385.3490, 29.03833
386.5480, 42.85938
387.7460, 18.35095
388.9440, 21.20398
390.1430, 6.428101
391.3410, 15.41602
392.5390, 21.39258
393.7360, 28.00977
394.9340, 37.67883
396.1310, 81.23193
397.3280, 71.29688
398.5250, 94.68408
399.7220, 82.12598
400.9190, 63.50366
402.1150, 85.55225
403.3120, 51.47998
404.5080, 84.02368
405.7040, 119.3811
406.8990, 164.5120
408.0950, 195.9688
409.2900, 288.0103
410.4860, 275.2834
411.6810, 297.3354
412.8760, 352.6626
414.0700, 436.6694
415.2650, 508.6895
416.4590, 592.2490
417.6540, 598.6577
418.8480, 749.5845
420.0420, 831.4819
421.2350, 866.3555
422.4290, 1061.198
423.6220, 1169.015
424.8150, 1277.818
426.0080, 1405.608
427.2010, 1524.387
428.3940, 1617.154
429.5860, 1539.909
430.7790, 1551.654
431.9710, 1450.390
433.1630, 1347.115
434.3540, 1331.830
435.5460, 1281.535
436.7370, 1257.230
437.9290, 1223.917
439.1200, 1191.594
440.3110, 1149.262
441.5010, 1210.919
442.6920, 1222.567
443.8820, 1279.206
445.0730, 1395.834
446.2630, 1489.453
447.4530, 1616.062
448.6420, 1658.496
449.8320, 1696.267
451.0210, 1729.855
452.2100, 1705.435
453.3990, 1715.004
454.5880, 1627.560
455.7770, 1501.104
456.9660, 1444.634
458.1540, 1314.153
459.3420, 1225.658
460.5300, 1068.158
461.7180, 929.6438
462.9050, 866.0173
464.0930, 756.4756
465.2800, 687.8096
466.4670, 644.1299
467.6540, 584.5459
468.8410, 476.8389
470.0280, 456.8530
471.2140, 414.8865
472.4000, 366.5132
473.5870, 395.7090
474.7720, 328.8396
475.9580, 343.7551
477.1440, 265.6372
478.3290, 195.1860
479.5140, 299.0049
480.6990, 221.8889
481.8840, 298.7815
483.0690, 219.6123
484.2540, 228.2944
485.4380, 167.3330
486.6220, 155.0598
487.8060, 190.8057
488.9900, 168.8635
490.1740, 147.5999
491.3570, 103.9883
492.5410, 108.2739
493.7240, 101.2026
494.9070, 74.46777
496.0900, 41.67627
497.2720, 87.34106
498.4550, 122.0347
499.6370, 53.67554
500.8190, 32.40967
502.0010, 68.75366
503.1830, 42.51660
504.3650, 88.74609
505.5460, 51.38770
506.7280, 54.92261
507.9090, 24.62720
509.0900, 70.93188
510.2710, 54.32324
511.4510, 37.67310
512.6320, 80.11548
513.8120, 23.14233
514.9920, 40.70337
516.1720, 25.26880
517.3520, 43.16748
518.5310, 90.67554
519.7110, 9.354004
520.8900, 49.89429
522.0690, 11.40112
523.2480, 83.89185
524.4270, 40.99219
525.6050, 4.200684
526.7840, 15.59058
527.9620, 37.51392
529.1400, 58.92993
530.3180, 46.50830
531.4960, 45.92603
532.6730, 5.151611
533.8510, 6.9091998E-02
535.0280, 60.11548
536.2050, 41.37036
537.3820, 63.82007
538.5590, 23.36279
539.7350, 3.235596
540.9120, 65.37769
542.0880, 2.957031
543.2640, 46.54761
544.4400, 114.0698
545.6150, 8.582275
546.7910, 41.74097
547.9660, 93.47168
549.1410, 62.46021
550.3170, 46.04712
551.4910, 42.73804
552.6660, 107.3740
553.8410, 18.25317
555.0150, 100.8472
556.1890, 83.73071
557.3630, 94.50488
558.5370, 78.12939
559.7110, 91.19727
560.8840, 121.1042
562.0570, 136.4985
563.2310, 210.3020
564.4040, 281.8276
565.5760, 358.5850
566.7490, 328.1143
567.9220, 346.6748
569.0940, 400.3872
570.2660, 454.1008
571.4380, 496.4407
572.6100, 561.4290
573.7820, 612.8904
574.9530, 710.2278
576.1240, 796.7971
577.2960, 888.3098
578.4670, 1055.954
579.6370, 1129.708
580.8080, 1292.230
581.9790, 1556.594
583.1490, 1933.994
584.3190, 2422.456
585.4890, 2984.858
586.6590, 3700.285
587.8280, 4455.584
588.9980, 5308.536
590.1670, 5645.162
591.3360, 5498.538
592.5050, 4982.067
593.6740, 4441.351
594.8430, 3666.418
596.0110, 3073.006
597.1790, 2691.231
598.3480, 2269.825
599.5160, 2092.126
600.6830, 2128.533
601.8510, 2245.907
603.0180, 2649.008
604.1860, 3033.392
605.3530, 3233.594
606.5200, 2994.015
607.6870, 2656.126
608.8530, 2106.557
610.0200, 1719.589
611.1860, 1364.458
612.3520, 1165.842
613.5180, 926.9807
614.6840, 848.5146
615.8500, 678.4546
617.0150, 594.4702
618.1800, 468.5493
619.3450, 482.4165
620.5100, 437.4312
621.6750, 386.4727
622.8400, 368.4565
624.0040, 325.3489
625.1690, 196.2295
626.3330, 209.1416
627.4970, 160.1506
628.6610, 133.0051
629.8240, 138.7681
630.9880, 80.69653
632.1510, 90.56250
633.3140, 41.41919
634.4770, 156.3835
635.6400, 100.0610
636.8020, 142.0793
637.9650, 54.08911
639.1270, 105.3782
640.2890, 68.03833
641.4510, 125.2883
642.6130, 97.91553
643.7750, 177.4338
644.9360, 130.3425
646.0980, 172.9890
647.2590, 133.2373
648.4200, 156.1912
649.5810, 166.9136
650.7410, 152.4016
651.9020, 188.4646
653.0620, 231.9841
654.2220, 191.4468
655.3820, 179.9673
656.5420, 255.7654
657.7020, 243.0310
658.8610, 197.1311
660.0200, 219.3806
661.1800, 248.7327
662.3390, 162.1040
663.4970, 186.7686
664.6560, 169.5837
665.8150, 182.6511
666.9730, 183.7883
668.1310, 130.0542
669.2890, 182.5139
670.4470, 86.27686
671.6050, 118.0171
672.7620, 85.99780
673.9200, 119.8933
675.0770, 113.6804
676.2340, 82.87354
677.3910, 101.4285
678.5470, 121.6597
679.7040, 90.66406
680.8600, 82.86353
682.0160, 57.76245
683.1720, 92.72363
684.3280, 57.81885
685.4840, 6.399902
686.6390, 66.35938
687.7950, 12.86694
688.9500, 26.41992
690.1050, 77.39502
691.2600, 87.04492
692.4150, 28.13770
693.5690, 92.64062
694.7240, 20.36865
695.8780, 47.21826
697.0320, 80.12256
698.1860, 3.802979
699.3400, 83.56592
700.4930, 29.36987
701.6470, 26.97119
702.8000, 93.22388
703.9530, 35.06543
705.1060, 87.01636
706.2590, 76.62549
707.4110, 37.38867
708.5640, 33.77368
709.7160, 46.93555
710.8680, 37.43091
712.0200, 85.84961
713.1720, 111.9958
714.3230, 53.24243
715.4750, 63.42969
716.6260, 28.75000
717.7770, 6.784424
718.9280, 50.78491
720.0790, 84.75708
721.2300, 72.76782
722.3800, 43.68604
723.5300, 75.67871
724.6810, 55.84717
725.8300, 82.68188
726.9800, 18.51050
728.1300, 6.255371
729.2790, 53.19141
730.4290, 13.89893
731.5780, 67.57666
732.7270, 115.3235
733.8760, 3.083740
735.0240, 69.75464
736.1730, 1.622314
737.3210, 44.15674
738.4700, 11.70752
739.6180, 19.75977
740.7650, 81.20239
741.9130, 12.66284
743.0610, 49.34912
744.2080, 5.022949
745.3550, 63.37012
746.5020, 2.823242
747.6490, 74.22852
748.7960, 109.4648
749.9430, 2.969971
751.0890, 38.57080
752.2350, 32.27954
753.3810, 78.82031
754.5270, 57.18701
755.6730, 38.35864
756.8190, 85.65674
757.9640, 47.06250
759.1090, 37.80688
760.2540, 49.03467
761.3990, 70.16333
762.5440, 69.38184
763.6890, 63.08643
764.8330, 36.04541
765.9780, 71.02539
767.1220, 2.350342
768.2660, 55.97681
769.4100, 51.87793
770.5530, 64.29150
771.6970, 32.71289
772.8400, 71.31836
773.9830, 9.209473
775.1260, 16.79004
776.2690, 9.114014
777.4120, 56.61475
778.5540, 130.9324
779.6970, 73.51855
780.8390, 68.90503
781.9810, 24.27563
783.1230, 19.06006
784.2650, 3.302002
785.4060, 10.42212
786.5480, 33.79126
787.6890, 68.97461
788.8300, 4.129883
789.9710, 32.74951
791.1120, 35.31689
792.2520, 34.35400
793.3930, 25.63770
794.5330, 89.32031
795.6730, 26.74805
796.8130, 53.13232
797.9530, 34.01562
799.0930, 53.21777
800.2320, 53.48340
801.3710, 5.186523
802.5110, 68.82227
803.6500, 58.43164
804.7880, 49.01318
805.9270, 20.56738
807.0660, 90.09082
808.2040, 11.55908
809.3420, 72.87549
810.4800, 1.852051
811.6180, 4.523438
812.7560, 35.83838
813.8930, 7.993652
815.0310, 13.19434
816.1680, 21.44873
817.3050, 44.54541
818.4420, 47.97607
819.5790, 70.48145
820.7150, 75.50098
821.8520, 63.34668
822.9880, 93.63916
824.1240, 4.466797
825.2600, 112.0366
826.3960, 57.96826
827.5320, 87.75391
828.6670, 8.445313
829.8020, 85.06641
830.9380, 97.82275
832.0730, 22.75000
833.2080, 41.73730
834.3420, 5.665527
835.4770, 61.54102
836.6110, 45.08594
837.7450, 86.37695
838.8790, 16.36816
840.0130, 15.11816
841.1470, 3.333008
842.2810, 56.73389
843.4140, 13.06494
844.5470, 96.20459
845.6800, 2.696289
846.8130, 55.42383
847.9460, 66.47803
849.0790, 124.7090
850.2110, 94.02637
851.3440, 101.0742
852.4760, 62.14014
853.6080, 123.0356
854.7400, 222.7837
855.8710, 168.7266
857.0030, 106.7886
858.1340, 166.7778
859.2650, 96.62305
860.3960, 47.57812
861.5270, 142.4263
862.6580, 137.3647
863.7890, 151.6128
864.9190, 69.15674
866.0490, 130.9111
867.1790, 122.4756
868.3090, 92.25977
869.4390, 82.22266
870.5690, 95.62988
871.6980, 41.35986
872.8270, 146.7109
873.9570, 2.683594
875.0860, 143.7866
876.2140, 109.2690
877.3430, 97.98877
878.4720, 36.38916
879.6000, 31.93506
880.7280, 102.2246
881.8560, 69.78906
882.9840, 72.99658
884.1120, 151.5674
885.2390, 35.26660
886.3670, 4.415039
887.4940, 125.7744
888.6210, 130.7031
889.7480, 31.19629
890.8750, 70.57812
892.0020, 32.86279
893.1280, 1.325195
894.2540, 9.395020
895.3810, 27.82031
896.5070, 44.06348
897.6320, 15.37598
898.7580, 28.33398
899.8840, 62.89111
901.0090, 18.01416
902.1340, 76.80420
903.2590, 6.554688
904.3840, 26.50391
905.5090, 44.47363
906.6340, 86.55176
907.7580, 147.4302
908.8820, 69.54346
910.0060, 81.96240
911.1300, 95.63477
912.2540, 84.10840
913.3780, 136.3682
914.5010, 49.12207
915.6250, 111.0225
916.7480, 85.89160
917.8710, 7.560059
918.9940, 66.30078
920.1160, 77.42383
921.2390, 88.68115
922.3610, 89.34277
923.4840, 96.43652
924.6060, 111.5566
925.7280, 110.0762
926.8490, 145.7100
927.9710, 184.3467
929.0930, 213.6079
930.2140, 229.4575
931.3350, 260.2476
932.4560, 343.3228
933.5770, 307.0376
934.6980, 367.5400
935.8180, 390.0195
936.9380, 512.1494
938.0590, 648.8438
939.1790, 641.4858
940.2990, 788.0786
941.4180, 996.5366
942.5380, 1214.283
943.6570, 1520.087
944.7770, 1751.032
945.8960, 2258.730
947.0150, 2729.805
948.1340, 3221.284
949.2520, 4007.506
950.3710, 5177.850
951.4890, 6593.248
952.6070, 8370.736
953.7260, 10806.23
954.8430, 14198.81
955.9610, 19115.40
957.0790, 25249.94
958.1960, 33282.60
959.3130, 41641.70
960.4310, 48752.43
961.5480, 53430.94
962.6640, 54117.56
963.7810, 51871.92
964.8970, 46748.53
966.0140, 40160.19
967.1300, 34148.66
968.2460, 28024.07
969.3620, 22980.62
970.4780, 18244.12
971.5930, 14531.54
972.7090, 11385.14
973.8240, 8576.043
974.9390, 6754.331
976.0540, 4936.475
977.1690, 3666.930
978.2830, 2862.199
979.3980, 1981.815
980.5120, 1453.624
981.6260, 1243.068
982.7400, 914.5571
983.8540, 774.2886
984.9680, 636.8901
986.0820, 508.5195
987.1950, 423.9849
988.3080, 374.7026
989.4210, 340.4229
990.5340, 440.1392
991.6470, 375.7856
992.7600, 320.4966
993.8720, 441.1094
994.9850, 332.5063
996.0970, 500.2056
997.2090, 399.1416
998.3210, 496.8652
999.4320, 574.3896
1000.544, 767.3931
1001.655, 650.4521
1002.767, 729.1582
1003.878, 808.8442
1004.989, 935.4946
1006.100, 897.9536
1007.210, 977.6348
1008.321, 925.9082
1009.431, 974.2378
1010.541, 888.2153
1011.651, 879.9761
1012.761, 821.2637
1013.871, 714.1724
1014.980, 692.9023
1016.090, 622.6631
1017.199, 582.3804
1018.308, 577.0869
1019.417, 604.5181
1020.526, 606.9365
1021.635, 740.6743
1022.743, 710.6875
1023.852, 868.1362
1024.960, 754.7490
1026.068, 828.2046
1027.176, 925.5366
1028.283, 979.5752
1029.391, 968.1445
1030.498, 1164.791
1031.606, 1150.315
1032.713, 1238.193
1033.820, 1351.914
1034.927, 1584.456
1036.033, 1643.333
1037.140, 1768.647
1038.246, 1847.099
1039.353, 2012.187
1040.459, 2127.889
1041.564, 2389.048
1042.670, 2684.395
1043.776, 2941.104
1044.881, 3352.078
1045.987, 3581.958
1047.092, 4133.959
1048.197, 4601.700
1049.302, 4956.956
1050.406, 5296.910
1051.511, 5555.307
1052.615, 5509.303
1053.720, 5384.108
1054.824, 5265.185
1055.928, 4833.922
1057.031, 4464.216
1058.135, 4035.211
1059.238, 3720.538
1060.342, 3511.135
1061.445, 3123.879
1062.548, 2878.427
1063.651, 2637.047
1064.754, 2376.805
1065.856, 2243.679
1066.959, 2115.716
1068.061, 2036.239
1069.163, 2006.159
1070.265, 2052.332
1071.367, 2073.225
1072.469, 2215.055
1073.570, 2465.050
1074.671, 2808.839
1075.773, 2982.624
1076.874, 3384.514
1077.975, 3392.594
1079.075, 3457.640
1080.176, 3227.452
1081.276, 3044.518
1082.377, 2924.304
1083.477, 2666.307
1084.577, 2267.870
1085.677, 2219.649
1086.777, 1908.427
1087.876, 1700.206
1088.975, 1607.004
1090.075, 1415.778
1091.174, 1283.548
1092.273, 1180.409
1093.372, 1016.398
1094.470, 940.9487
1095.569, 758.8682
1096.667, 654.6479
1097.765, 566.3184
1098.863, 580.1587
1099.961, 466.2036
1101.059, 368.0308
1102.157, 321.0371
1103.254, 244.0132
1104.351, 206.5996
1105.449, 304.5142
1106.546, 157.4062
1107.642, 176.1553
1108.739, 179.1147
1109.836, 88.07031
1110.932, 271.0576
1112.028, 234.4126
1113.124, 162.5752
1114.220, 86.64209
1115.316, 128.7559
1116.412, 243.9546
1117.507, 152.9331
1118.603, 199.0205
1119.698, 74.73145
1120.793, 93.43652
1121.888, 163.5444
1122.983, 116.2383
1124.077, 95.75781
1125.172, 52.47900
1126.266, 74.21338
1127.360, 104.0527
1128.454, 0.7211910
1129.548, 22.54590
1130.642, 50.38184
1131.735, 2.979980
1132.829, 46.11768
1133.922, 32.44971
1135.015, 27.32080
1136.108, 50.19971
1137.201, 104.2109
1138.294, 81.70605
1139.386, 41.54736
1140.478, 64.04639
1141.571, 0.5854490
1142.663, 34.37256
1143.755, 36.89941
1144.846, 2.203125
1145.938, 49.26270
1147.030, 10.01270
1148.121, 39.06152
1149.212, 95.05859
1150.303, 82.27246
1151.394, 53.89160
1152.485, 90.90527
1153.575, 21.64062
1154.666, 159.1455
1155.756, 168.4961
1156.846, 96.12500
1157.936, 83.75781
1159.026, 66.41992
1160.116, 58.13086
1161.205, 59.07324
1162.295, 60.08105
1163.384, 172.2822
1164.473, 61.74902
1165.562, 118.3301
1166.651, 90.90234
1167.739, 27.79883
1168.828, 109.7041
1169.916, 61.09570
1171.005, 152.3682
1172.093, 2.628906
1173.181, 6.805664
1174.268, 92.77051
1175.356, 38.45801
1176.443, 57.15137
1177.531, 33.36230
1178.618, 56.98438
1179.705, 1.743164
1180.792, 25.83398
1181.879, 125.3086
1182.965, 21.68164
1184.052, 79.80566
1185.138, 21.91797
1186.224, 129.2383
1187.310, 2.325195
1188.396, 42.39453
1189.482, 39.54980
1190.567, 55.77930
1191.653, 126.4336
1192.738, 16.61230
1193.823, 1.685547
1194.908, 159.2510
1195.993, 79.17578
1197.077, 105.0869
1198.162, 170.9971
1199.246, 79.88379
1200.331, 20.13379
1201.415, 86.99219
1202.499, 101.9492
1203.582, 62.80762
1204.666, 164.6260
1205.750, 141.4297
1206.833, 89.22070
1207.916, 43.02539
1208.999, 52.65039
1210.082, 108.5342
1211.165, 48.39941
1212.248, 178.1367
1213.330, 133.8594
1214.412, 124.5684
1215.495, 160.2637
1216.577, 158.9834
1217.658, 184.0361
1218.740, 113.4414
1219.822, 214.2979
1220.903, 129.9229
1221.985, 98.59375
1223.066, 118.1914
1224.147, 166.7754
1225.228, 83.34375
1226.308, 117.8311
1227.389, 172.4365
1228.469, 129.1377
1229.550, 55.71094
1230.630, 107.3252
1231.710, 0.8955080
1232.790, 72.62988
1233.869, 162.0781
1234.949, 167.5127
1236.028, 92.93457
1237.108, 196.3389
1238.187, 77.05664
1239.266, 77.43066
1240.344, 69.81250
1241.423, 13.69922
1242.502, 28.04590
1243.580, 50.68262
1244.658, 38.96484
1245.736, 23.23047
1246.814, 69.47754
1247.892, 42.70410
1248.970, 188.9150
1250.047, 151.1094
1251.125, 35.47363
1252.202, 152.6338
1253.279, 10.77734
1254.356, 125.0996
1255.433, 121.4062
1256.509, 95.86719
1257.586, 150.9355
1258.662, 118.7490
1259.738, 67.81641
1260.814, 140.8564
1261.890, 82.82324
1262.966, 7.873047
1264.042, 72.35645
1265.117, 69.16016
1266.193, 146.0371
1267.268, 39.85938
1268.343, 15.25879
1269.418, 157.3721
1270.492, 169.5605
1271.567, 17.13672
1272.642, 109.0830
1273.716, 5.259766
1274.790, 120.5225
1275.864, 51.17578
1276.938, 108.3467
1278.012, 63.19824
1279.085, 74.19531
1280.159, 75.34375
1281.232, 39.25098
1282.305, 44.22168
1283.378, 96.40625
1284.451, 182.8389
1285.524, 63.25684
1286.597, 60.77539
1287.669, 52.39746
1288.741, 3.105469
1289.813, 6.380859
1290.885, 81.78320
1291.957, 43.64941
1293.029, 94.90527
1294.101, 65.52441
1295.172, 67.12988
1296.243, 163.0977
1297.315, 78.29590
1298.386, 106.0615
1299.456, 164.1777
1300.527, 150.3008
1301.598, 58.97266
1302.668, 55.12207
1303.738, 30.16992
1304.809, 27.96484
1305.879, 176.1289
1306.948, 33.85938
1308.018, 17.66602
1309.088, 76.52734
1310.157, 254.2441
1311.226, 77.17383
1312.296, 195.0420
1313.365, 230.8369
1314.433, 82.53613
1315.502, 146.5146
1316.571, 138.8701
1317.639, 192.4424
1318.707, 192.3369
1319.776, 194.9092
1320.844, 189.9199
1321.911, 169.6797
1322.979, 165.7412
1324.047, 160.7383
1325.114, 178.3516
1326.181, 132.2656
1327.249, 214.9717
1328.316, 44.68750
1329.382, 223.2393
1330.449, 107.7988
1331.516, 128.6260
