##NAMES=Fluorite
##RRUFFID=R050115
##IDEAL CHEMISTRY=CaF_2_
##LOCALITY=Isthak Valley Iskardu, N.A. Gilgit, Pakistan
##OWNER=RRUFF
##SOURCE=Syed Shah
##DESCRIPTION=Colorless fragment
##STATUS=The identification of this mineral has been confirmed by X-ray diffraction and chemical analysis
##URL=rruff.info/R050115
##MEASURED CHEMISTRY=CaF_2_
##PIN_ID=L00441
##ORIENTATION=Laser parallel to -a* (-1 0 0). Fiducial mark perpendicular to laser is parallel to b [0 1 0]
101.812, 0.000
103.206, 6.581
104.600, 1.439
105.994, 22.427
107.387, 67.228
108.781, 67.346
110.174, 65.843
111.566, 116.377
112.959, 294.208
114.351, 132.102
115.744, 240.423
117.136, 179.592
118.527, 163.326
119.919, 205.638
121.310, 176.348
122.701, 189.656
124.092, 162.251
125.482, 183.373
126.873, 224.672
128.263, 247.601
129.653, 337.459
131.042, 426.119
132.432, 502.750
133.821, 742.494
135.210, 1033.468
136.599, 1452.550
137.987, 1994.161
139.376, 2587.989
140.764, 3075.354
142.152, 3445.608
143.539, 4109.054
144.927, 4666.451
146.314, 4492.923
147.701, 4008.308
149.088, 2880.990
150.474, 2013.692
151.861, 1382.148
153.247, 936.171
154.633, 662.064
156.018, 424.520
157.404, 464.044
158.789, 371.635
160.174, 423.290
161.559, 486.005
162.943, 516.772
164.327, 575.588
165.711, 534.447
167.095, 398.342
168.479, 226.271
169.862, 92.232
171.246, 43.229
172.628, 8.259
174.011, 15.667
175.394, 58.572
176.776, 10.566
178.158, 7.742
179.540, 20.954
180.922, 26.787
182.303, 38.560
183.684, 10.977
185.065, 30.406
186.446, 52.254
187.826, 30.008
189.207, 104.167
190.587, 6.277
191.967, 46.331
193.346, 24.664
194.726, 55.296
196.105, 3.788
197.484, 8.917
198.862, 46.911
200.241, 26.296
201.619, 32.536
202.997, 67.810
204.375, 90.390
205.753, 64.411
207.130, 123.733
208.507, 115.062
209.884, 145.396
211.261, 200.961
212.638, 300.093
214.014, 320.462
215.390, 438.849
216.766, 522.254
218.141, 733.679
219.517, 897.118
220.892, 1137.533
222.267, 1520.876
223.642, 1582.212
225.016, 1677.527
226.391, 1638.819
227.765, 1486.111
229.139, 1382.330
230.512, 1285.524
231.886, 1300.647
233.259, 1473.852
234.632, 1447.021
236.005, 1565.222
237.377, 1747.454
238.749, 2131.724
240.122, 2295.028
241.493, 2538.366
242.865, 2378.741
244.237, 2002.149
245.608, 1749.590
246.979, 1436.060
248.350, 1345.562
249.720, 1349.087
251.090, 1295.635
252.461, 1356.206
253.830, 1101.799
255.200, 1284.409
256.570, 1365.168
257.939, 1798.103
259.308, 2343.366
260.677, 2949.315
262.045, 2974.714
263.414, 2552.020
264.782, 1998.403
266.150, 1632.430
267.517, 1458.719
268.885, 1283.115
270.252, 1168.862
271.619, 1164.097
272.986, 1103.539
274.353, 1231.019
275.719, 1116.366
277.085, 1282.648
278.451, 1251.967
279.817, 1349.023
281.182, 1336.005
282.548, 1351.956
283.913, 1374.877
285.278, 1368.768
286.642, 1351.238
288.007, 1405.745
289.371, 1288.505
290.735, 1289.666
292.099, 1259.733
293.462, 1275.887
294.826, 1198.550
296.189, 1206.517
297.552, 1155.213
298.914, 1065.906
300.277, 1023.819
301.639, 1032.667
303.001, 936.445
304.363, 951.799
305.724, 934.078
307.086, 883.264
308.447, 916.398
309.808, 854.736
311.168, 838.838
312.529, 888.795
313.889, 860.729
315.249, 844.662
316.609, 842.662
317.969, 827.719
319.328, 861.842
320.687, 791.021
322.046, 819.293
323.405, 904.640
324.764, 854.022
326.122, 834.463
327.480, 829.944
328.838, 745.473
330.196, 895.024
331.553, 799.596
332.910, 874.197
334.267, 831.568
335.624, 814.645
336.981, 939.535
338.337, 884.078
339.693, 956.048
341.049, 885.405
342.405, 885.727
343.760, 924.750
345.116, 948.149
346.471, 1002.426
347.826, 915.007
349.180, 972.458
350.535, 963.835
351.889, 1107.100
353.243, 1008.193
354.597, 1000.490
355.950, 1038.560
357.304, 973.822
358.657, 1116.271
360.010, 1025.289
361.362, 1039.442
362.715, 965.796
364.067, 972.509
365.419, 972.126
366.771, 860.191
368.123, 931.383
369.474, 835.436
370.825, 697.618
372.176, 780.998
373.527, 655.479
374.877, 739.701
376.228, 683.343
377.578, 716.487
378.928, 696.779
380.277, 547.418
381.627, 542.765
382.976, 510.188
384.325, 512.785
385.674, 533.208
387.023, 473.376
388.371, 446.698
389.719, 377.988
391.067, 445.504
392.415, 295.961
393.762, 301.842
395.110, 306.104
396.457, 235.195
397.804, 209.885
399.150, 142.015
400.497, 167.466
401.843, 128.298
403.189, 137.431
404.535, 95.211
405.881, 120.969
407.226, 123.014
408.571, 66.417
409.916, 62.484
411.261, 67.215
412.605, 24.139
413.950, 38.097
415.294, 31.613
416.638, 72.516
417.981, 44.881
419.325, 0.090
420.668, 15.380
422.011, 113.026
423.354, 40.084
424.697, 8.348
426.039, 42.932
427.381, 41.248
428.723, 45.655
430.065, 34.134
431.406, 14.774
432.748, 37.774
434.089, 43.431
435.430, 34.784
436.770, 65.223
438.111, 78.791
439.451, 66.058
440.791, 123.383
442.131, 141.836
443.471, 199.227
444.810, 150.869
446.149, 212.566
447.488, 130.977
448.827, 82.853
450.166, 187.097
451.504, 44.863
452.842, 61.636
454.180, 35.000
455.518, 146.980
456.855, 75.780
458.193, 138.087
459.530, 137.058
460.867, 93.419
462.203, 106.265
463.540, 102.208
464.876, 172.708
466.212, 184.543
467.548, 209.730
468.883, 188.921
470.219, 142.443
471.554, 172.268
472.889, 242.480
474.224, 228.688
475.558, 298.782
476.892, 282.034
478.227, 371.048
479.561, 481.667
480.894, 387.569
482.228, 482.312
483.561, 569.728
484.894, 567.992
486.227, 695.926
487.559, 693.058
488.892, 782.551
490.224, 771.075
491.556, 894.574
492.888, 776.651
494.220, 819.312
495.551, 887.228
496.882, 708.650
498.213, 728.431
499.544, 728.025
500.874, 636.898
502.205, 628.552
503.535, 515.519
504.865, 547.085
506.194, 506.568
507.524, 511.984
508.853, 565.342
510.182, 403.646
511.511, 503.882
512.840, 391.053
514.168, 526.189
515.496, 349.265
516.824, 409.287
518.152, 503.246
519.480, 423.280
520.807, 445.126
522.134, 369.067
523.461, 300.797
524.788, 330.459
526.114, 259.054
527.441, 251.577
528.767, 259.029
530.093, 265.411
531.418, 216.721
532.744, 190.957
534.069, 251.119
535.394, 149.207
536.719, 266.218
538.044, 229.156
539.368, 144.020
540.693, 211.804
542.017, 191.512
543.340, 147.142
544.664, 186.692
545.987, 245.164
547.311, 205.559
548.634, 210.875
549.956, 154.112
551.279, 165.511
552.601, 300.341
553.923, 206.338
555.245, 244.254
556.567, 337.090
557.889, 228.848
559.210, 154.525
560.531, 293.118
561.852, 217.630
563.173, 298.061
564.493, 299.410
565.813, 226.679
567.133, 375.863
568.453, 212.924
569.773, 289.255
571.092, 239.920
572.412, 231.413
573.731, 355.998
575.049, 224.082
576.368, 352.557
577.686, 200.426
579.005, 335.903
580.323, 302.785
581.640, 212.473
582.958, 260.540
584.275, 336.286
585.593, 282.450
586.909, 311.457
588.226, 275.383
589.543, 234.161
590.859, 264.183
592.175, 254.237
593.491, 252.125
594.807, 249.500
596.122, 250.169
597.438, 286.907
598.753, 283.847
600.068, 265.495
601.382, 269.724
602.697, 236.578
604.011, 226.170
605.325, 256.655
606.639, 196.974
607.952, 149.021
609.266, 203.465
610.579, 32.052
611.892, 133.563
613.205, 163.833
614.518, 7.557
615.830, 131.033
617.142, 155.311
618.454, 48.545
619.766, 80.219
621.078, 69.896
622.389, 187.415
623.700, 152.101
625.011, 214.707
626.322, 118.225
627.632, 168.587
628.943, 66.626
630.253, 78.355
631.563, 78.397
632.872, 92.628
634.182, 159.055
635.491, 107.715
636.800, 133.581
638.109, 90.666
639.418, 231.948
640.726, 163.504
642.035, 18.294
643.343, 109.246
644.651, 33.406
645.958, 71.735
647.266, 46.748
648.573, 45.094
649.880, 3.697
651.187, 86.360
652.494, 67.286
653.800, 37.080
655.106, 219.736
656.412, 144.277
657.718, 197.696
659.024, 211.997
660.329, 285.186
661.634, 536.285
662.939, 629.321
664.244, 1081.322
665.549, 1188.312
666.853, 1374.313
668.157, 1239.361
669.461, 1120.433
670.765, 976.570
672.069, 840.758
673.372, 547.784
674.675, 638.091
675.978, 485.392
677.281, 566.769
678.583, 473.134
679.886, 685.365
681.188, 905.347
682.490, 883.397
683.792, 1364.127
685.093, 1608.803
686.394, 1844.451
687.696, 2070.107
688.997, 2135.473
690.297, 2440.636
691.598, 2215.953
692.898, 2140.740
694.198, 1815.927
695.498, 1380.855
696.798, 1295.322
698.097, 1128.968
699.397, 1018.424
700.696, 906.591
701.995, 950.818
703.293, 883.186
704.592, 972.284
705.890, 945.300
707.188, 1088.974
708.486, 1042.592
709.784, 1316.672
711.081, 1040.254
712.378, 923.891
713.675, 987.814
714.972, 768.182
716.269, 816.109
717.565, 662.540
718.862, 626.553
720.158, 549.799
721.453, 584.949
722.749, 471.693
724.045, 410.959
725.340, 354.442
726.635, 305.344
727.930, 161.518
729.224, 286.727
730.519, 237.344
731.813, 309.291
733.107, 181.681
734.401, 98.303
735.694, 222.340
736.988, 134.117
738.281, 118.398
739.574, 77.741
740.867, 22.760
742.160, 4.708
743.452, 37.741
744.744, 133.158
746.036, 48.086
747.328, 168.110
748.620, 83.561
749.911, 4.646
751.202, 88.408
752.493, 128.213
753.784, 56.983
755.075, 315.536
756.365, 303.828
757.655, 312.048
758.945, 439.883
760.235, 387.533
761.525, 535.341
762.814, 362.551
764.103, 239.261
765.392, 456.313
766.681, 381.227
767.969, 457.417
769.258, 463.859
770.546, 297.354
771.834, 533.207
773.122, 519.268
774.409, 819.807
775.697, 874.733
776.984, 929.431
778.271, 1125.441
779.558, 1190.988
780.844, 1257.057
782.131, 1351.992
783.417, 1237.471
784.703, 1361.519
785.989, 1419.053
787.274, 1356.463
788.560, 1622.861
789.845, 1644.978
791.130, 1820.205
792.415, 1863.703
793.699, 2039.790
794.983, 2296.914
796.268, 2198.238
797.552, 2598.588
798.835, 2713.141
800.119, 2802.373
801.402, 3179.115
802.686, 3011.703
803.969, 3254.189
805.251, 3384.973
806.534, 3168.044
807.816, 3280.738
809.098, 3182.803
810.380, 3157.391
811.662, 3101.055
812.944, 3057.217
814.225, 3170.038
815.506, 3038.552
816.787, 3021.669
818.068, 3121.536
819.349, 2987.037
820.629, 3357.632
821.909, 3336.503
823.189, 3559.709
824.469, 3868.345
825.749, 3872.538
827.028, 4311.629
828.307, 4385.621
829.586, 4982.303
830.865, 6087.786
832.144, 7152.777
833.422, 9026.559
834.700, 9443.491
835.978, 8579.447
837.256, 7422.732
838.534, 6256.279
839.811, 5960.839
841.088, 5464.910
842.365, 5442.562
843.642, 6008.876
844.919, 5854.715
846.195, 6869.429
847.472, 7506.570
848.748, 8401.145
850.023, 8955.238
851.299, 9970.089
852.575, 9824.461
853.850, 9828.762
855.125, 9883.003
856.400, 10867.179
857.674, 11001.286
858.949, 11895.338
860.223, 12919.319
861.497, 13753.241
862.771, 15237.104
864.045, 16110.903
865.318, 17354.643
866.591, 19508.316
867.864, 20281.939
869.137, 21765.502
870.410, 22299.012
871.682, 23812.459
872.955, 24545.854
874.227, 24519.184
875.499, 24472.469
876.770, 23905.693
878.042, 23238.791
879.313, 22761.457
880.584, 21373.668
881.855, 20443.732
883.126, 19745.617
884.396, 18066.842
885.667, 17438.930
886.937, 16329.144
888.207, 15177.406
889.476, 14778.213
890.746, 13407.276
892.015, 12865.891
893.284, 11993.240
894.553, 11205.428
895.822, 10768.672
897.090, 9839.768
898.359, 9394.812
899.627, 8905.130
900.895, 8117.861
902.163, 8215.849
903.430, 7959.332
904.698, 8176.936
905.965, 9775.392
907.232, 11831.459
908.499, 17993.289
909.765, 26674.979
911.032, 34156.789
912.298, 30728.977
913.564, 21091.150
914.830, 14443.312
916.095, 10455.406
917.361, 9786.250
918.626, 12058.383
919.891, 16860.510
921.156, 20802.633
922.420, 20134.754
923.685, 18146.438
924.949, 23238.562
926.213, 30120.684
927.477, 32572.828
928.740, 26314.975
930.004, 21357.131
931.267, 19509.287
932.530, 17351.443
933.793, 15233.598
935.056, 18325.758
936.318, 24187.922
937.581, 24590.109
938.843, 18682.324
940.104, 13254.588
941.366, 11416.899
942.628, 12709.272
943.889, 17611.707
945.150, 28874.197
946.411, 45266.738
947.672, 50269.359
948.932, 43422.070
950.193, 27384.812
951.453, 16677.617
952.713, 9800.454
953.973, 6383.348
955.232, 4336.269
956.491, 3279.217
957.751, 3442.202
959.010, 2885.215
960.268, 2718.256
961.527, 1861.328
962.785, 874.424
964.044, 797.547
965.302, 230.692
966.559, 93.857
967.817, 17.006
969.075, 109.897
970.332, 216.909
971.589, 314.076
972.846, 461.441
974.102, 369.073
975.359, 636.924
976.615, 395.125
977.871, 483.551
979.127, 572.244
980.383, 271.245
981.638, 610.405
982.893, 249.883
984.149, 419.505
985.404, 479.346
986.658, 99.432
987.913, 239.586
989.167, 249.867
990.421, 90.275
991.675, 270.740
992.929, 38.664
994.183, 68.076
995.436, 77.508
996.689, 336.969
997.942, 26.473
999.195, 715.992
1000.448, 845.559
1001.700, 685.176
1002.952, 1014.842
1004.204, 764.561
1005.456, 874.330
1006.708, 1164.154
1007.959, 874.035
1009.210, 1243.975
1010.461, 1273.973
1011.712, 1434.027
1012.963, 1694.145
1014.213, 1734.322
1015.464, 1534.574
1016.714, 1904.893
1017.964, 1675.273
1019.214, 2285.734
1020.463, 2066.260
1021.712, 2136.855
1022.962, 2687.523
1024.210, 2208.264
1025.459, 2499.076
1026.708, 2629.963
1027.956, 2270.926
1029.204, 2921.963
1030.452, 2593.080
1031.700, 2794.281
1032.948, 2945.578
1034.195, 2686.961
1035.442, 2958.434
1036.689, 2879.994
1037.936, 2911.652
1039.183, 3523.420
1040.429, 3085.279
1041.676, 3297.248
1042.922, 3519.322
1044.168, 3291.516
1045.413, 4193.848
1046.659, 3646.312
1047.904, 3768.926
1049.149, 4151.715
1050.394, 3894.652
1051.639, 4297.775
1052.884, 4041.061
1054.128, 3784.490
1055.372, 4568.086
1056.616, 3971.805
1057.860, 4145.654
1059.104, 4179.613
1060.347, 3763.686
1061.590, 4137.863
1062.833, 3812.152
1064.076, 3816.551
1065.319, 3901.059
1066.561, 3315.682
1067.803, 3700.422
1069.046, 3605.277
1070.287, 3410.250
1071.529, 3535.338
1072.771, 3150.545
1074.012, 3235.873
1075.253, 3511.318
1076.494, 2926.887
1077.735, 3352.576
1078.975, 3028.389
1080.216, 3024.324
1081.456, 3360.385
1082.696, 3056.572
1083.936, 2982.887
1085.175, 3189.328
1086.415, 2945.898
1087.654, 3362.600
1088.893, 2959.434
1090.132, 2646.395
1091.371, 3453.490
1092.609, 2650.719
1093.847, 2918.082
1095.085, 3035.578
1096.323, 2953.211
1097.561, 3090.979
1098.799, 3028.883
1100.036, 3086.924
1101.273, 3155.102
1102.510, 2963.422
1103.747, 3231.879
1104.983, 3440.477
1106.220, 3099.217
1107.456, 3518.098
1108.692, 3197.123
1109.928, 3186.293
1111.163, 3515.605
1112.399, 2945.064
1113.634, 3364.670
1114.869, 3124.104
1116.104, 3160.443
1117.339, 3423.607
1118.573, 2910.145
1119.808, 3071.145
1121.042, 3147.152
1122.276, 2714.980
1123.509, 3138.629
1124.743, 2676.998
1125.976, 3049.928
1127.210, 2998.152
1128.443, 2571.629
1129.675, 2792.553
1130.908, 2694.734
1132.141, 2667.645
1133.373, 2981.715
1134.605, 2362.906
1135.837, 2935.191
1137.068, 2880.260
1138.300, 2625.191
1139.531, 3269.227
1140.762, 2823.875
1141.993, 2915.068
1143.224, 3057.727
1144.455, 2910.988
1145.685, 3065.504
1146.915, 2807.723
1148.145, 2912.643
1149.375, 3097.764
1150.605, 3003.090
1151.834, 2648.621
1153.063, 2984.355
1154.292, 2740.299
1155.521, 2666.447
1156.750, 3023.254
1157.978, 2089.820
1159.207, 2916.596
1160.435, 2493.582
1161.663, 2580.777
1162.891, 2500.861
1164.118, 2258.482
1165.345, 2126.316
1166.573, 2246.389
1167.800, 2074.652
1169.026, 2613.129
1170.253, 2072.168
1171.480, 2001.078
1172.706, 2260.207
1173.932, 1819.557
1175.158, 1809.123
1176.383, 2018.908
1177.609, 1488.918
1178.834, 1819.148
1180.059, 1509.598
1181.284, 1120.271
1182.509, 1641.164
1183.734, 1142.275
1184.958, 1263.605
1186.182, 1445.158
1187.406, 876.936
1188.630, 1468.932
1189.854, 661.150
1191.077, 903.596
1192.301, 1106.262
1193.524, 589.154
1194.747, 642.270
1195.969, 1045.613
1197.192, 329.176
1198.414, 1023.018
1199.636, 677.080
1200.858, 681.371
1202.080, 1095.914
1203.302, 440.680
1204.523, 765.672
1205.744, 960.895
1206.966, 476.344
1208.186, 872.025
1209.407, 707.936
1210.628, 644.076
1211.848, 960.455
1213.068, 427.066
1214.288, 693.908
1215.508, 1190.996
1216.727, 448.316
1217.947, 725.867
1219.166, 943.650
1220.385, 611.666
1221.604, 1119.914
1222.822, 608.393
1224.041, 567.104
1225.259, 1276.047
1226.477, 625.221
1227.695, 844.627
1228.913, 614.266
1230.130, 524.139
1231.348, 1264.238
1232.565, 574.584
1233.782, 585.150
1234.999, 895.926
1236.215, 576.910
1237.432, 798.104
1238.648, 879.510
1239.864, 731.127
1241.080, 1122.959
1242.296, 595.006
1243.511, 947.266
1244.726, 1139.744
1245.942, 702.438
1247.156, 1145.350
1248.371, 1278.480
1249.586, 881.832
1250.800, 1445.406
1252.014, 1159.199
1253.228, 963.215
1254.442, 1507.453
1255.656, 1001.912
1256.869, 1326.592
1258.083, 1321.496
1259.296, 1146.625
1260.509, 1631.975
1261.722, 877.551
1262.934, 1323.375
1264.147, 1489.461
1265.359, 965.834
1266.571, 1163.529
1267.783, 1420.555
1268.994, 1070.746
1270.206, 1529.373
1271.417, 1061.375
1272.628, 919.123
1273.839, 1169.637
1275.050, 1135.609
1276.260, 792.105
1277.471, 932.086
1278.681, 1092.389
1279.891, 1063.043
1281.101, 814.072
1282.310, 565.383
1283.520, 1027.004
1284.729, 598.943
1285.938, 451.156
1287.147, 813.693
1288.356, 226.479
1289.564, 689.508
1290.773, 712.777
1291.981, 226.277
1293.189, 600.029
1294.397, 364.014
1295.604, 348.230
1296.812, 732.680
1298.019, 147.365
1299.226, 212.281
1300.433, 207.432
1301.640, 57.186
1302.846, 238.430
1304.053, 184.275
1305.259, 90.357
1306.465, 386.674
1307.671, 216.775
1308.876, 269.998
1310.082, 157.008
1311.287, 175.744
1312.492, 501.734
1313.697, 199.451
1314.902, 42.592
1316.106, 845.607
1317.310, 114.049
1318.515, 382.732
1319.719, 931.664
1320.922, 290.840
1322.126, 1010.264
1323.329, 669.920
1324.533, 399.545
1325.736, 1349.133
1326.939, 668.732
1328.141, 718.348
1329.344, 1238.197
1330.546, 818.273
1331.748, 1138.576
1332.950, 1239.111
1334.152, 939.873
1335.354, 1490.863
1336.555, 1302.078
1337.757, 1123.523
1338.958, 1645.193
1340.159, 1497.090
1341.359, 1719.213
1342.560, 2102.512
1343.760, 1835.080
1344.960, 2667.871
1346.160, 2805.988
1347.360, 2469.219
1348.560, 3632.662
1349.759, 3776.318
1350.959, 3980.182
1352.158, 5445.055
1353.357, 5679.389
1354.555, 6493.982
1355.754, 8770.828
1356.952, 9925.930
1358.151, 13841.289
1359.349, 17020.053
1360.546, 20245.551
1361.744, 20347.182
1362.941, 21447.051
1364.139, 18013.035
1365.336, 15169.199
1366.533, 11015.574
1367.730, 8262.016
1368.926, 6508.391
1370.123, 4674.914
1371.319, 4311.586
1372.515, 3628.436
1373.711, 3135.373
1374.906, 3492.484
1376.102, 3481.977
1377.297, 3647.270
1378.492, 4569.639
1379.687, 3902.350
1380.882, 4475.414
1382.077, 4318.830
1383.271, 3262.594
1384.465, 3856.715
1385.659, 3221.184
1386.853, 3196.008
1388.047, 3811.188
1389.240, 3626.723
1390.434, 4362.617
1391.627, 6068.863
1392.820, 6935.469
1394.013, 9832.426
1395.205, 12809.668
1396.398, 14007.055
1397.590, 14324.504
1398.782, 11852.059
1399.974, 8949.846
1401.166, 6737.938
1402.357, 4216.334
1403.549, 3185.031
1404.740, 2544.021
1405.931, 973.305
1407.122, 1012.881
1408.313, 312.744
1409.503, 47.107
1410.693, 113.330
1411.883, 396.545
1413.073, 345.549
1414.263, 147.885
1415.453, 536.373
1416.642, 357.377
1417.831, 225.830
1419.020, 473.537
1420.209, 139.020
1421.398, 221.840
1422.587, 174.922
1423.775, 1408.277
1424.963, 1611.910
1426.151, 2505.820
1427.339, 3510.006
1428.526, 3224.467
1429.714, 3149.195
1430.901, 2934.199
1432.088, 1519.311
1433.275, 1354.648
1434.462, 710.203
1435.648, 386.014
1436.835, 502.057
1438.021, 98.334
1439.207, 424.832
1440.393, 1071.516
1441.579, 918.439
1442.764, 1585.602
1443.949, 2403.006
1445.135, 1860.658
1446.320, 2528.561
1447.504, 2716.717
1448.689, 2255.105
1449.873, 2873.916
1451.058, 1993.174
1452.242, 1372.879
1453.426, 1593.021
1454.609, 773.600
1455.793, 734.613
1456.976, 946.053
1458.159, 457.920
1459.342, 1080.229
1460.525, 1122.986
1461.708, 1286.203
1462.890, 2299.873
1464.073, 2493.998
1465.255, 2485.938
1466.437, 2967.363
1467.619, 2167.984
1468.800, 1759.432
1469.982, 1732.938
1471.163, 874.234
1472.344, 955.746
1473.525, 937.451
1474.706, 369.338
1475.886, 621.389
1477.066, 463.594
1478.247, 85.941
1479.427, 778.412
1480.607, 270.990
1481.786, 83.652
1482.966, 536.371
1484.145, 160.881
1485.324, 301.846
1486.503, 464.482
1487.682, 43.053
1488.860, 349.145
1490.039, 370.967
1491.217, 132.283
1492.395, 613.016
1493.573, 57.705
1494.751, 297.662
1495.928, 529.312
1497.106, 51.549
1498.283, 444.422
1499.460, 638.008
1500.637, 62.412
1501.814, 387.506
1502.990, 447.363
1504.166, 208.836
