##NAMES=Fluoro-richterite
##RRUFFID=R040019
##IDEAL CHEMISTRY=Na(NaCa)Mg_5_Si_8_O_22_F_2_
##LOCALITY=Wilberforce, Ontario, Canada
##OWNER=RRUFF
##SOURCE=University of Arizona Mineral Museum
##DESCRIPTION=Brown prismatic crystals
##STATUS=The identification of this mineral has been confirmed by X-ray diffraction and chemical analysis
##URL=rruff.info/R040019
##MEASURED CHEMISTRY=(Na_0.59_K_0.27_[box]_0.14_)_Σ=1_(Ca_1.30_Na_0.70_)_Σ=2_(Mg_4.67_Fe_0.17_Fe^3+^_0.10_Ti_0.03_Mn_0.02_Al_0.01_)_Σ=5_(Si_7.67_Al_0.33_)_Σ=8_(F_1.12_(OH)_0.88_)_Σ=2_; OH estimated by charge balance
##PIN_ID=L00352
##ORIENTATION=Laser parallel to a [1 0 0]. Fiducial mark perpendicular to laser is parallel to -b* (0 -1 0)
78.031, 0.000
79.427, 16.311
80.823, 7.867
82.218, 262.021
83.614, 461.372
85.009, 528.846
86.404, 403.700
87.798, 222.786
89.193, 277.269
90.587, 696.866
91.981, 816.778
93.375, 722.489
94.768, 919.769
96.161, 850.935
97.554, 852.056
98.947, 1103.097
100.340, 1328.014
101.732, 1591.753
103.124, 1890.275
104.516, 2388.687
105.908, 3183.047
107.300, 3758.249
108.691, 3945.191
110.082, 4272.196
111.473, 4312.796
112.864, 4575.411
114.254, 4679.649
115.644, 4651.485
117.034, 4448.871
118.424, 3846.765
119.813, 3064.127
121.203, 2586.913
122.592, 2054.082
123.981, 1577.604
125.369, 1111.455
126.758, 826.612
128.146, 672.510
129.534, 520.810
130.922, 630.426
132.309, 554.589
133.696, 331.780
135.083, 286.012
136.470, 197.294
137.857, 144.628
139.243, 79.284
140.630, 215.480
142.016, 4.989
143.401, 187.382
144.787, 148.695
146.172, 51.926
147.557, 84.927
148.942, 6.863
150.327, 204.885
151.711, 632.992
153.096, 1023.184
154.480, 1793.461
155.863, 2397.822
157.247, 3135.269
158.630, 3729.798
160.013, 4372.411
161.396, 4727.073
162.779, 4586.666
164.161, 4145.236
165.544, 3408.810
166.926, 2803.402
168.308, 2435.028
169.689, 2221.695
171.070, 2110.412
172.452, 2288.180
173.833, 2329.006
175.213, 2503.892
176.594, 2730.653
177.974, 2938.821
179.354, 3151.330
180.734, 3350.291
182.114, 3518.958
183.493, 3385.781
184.872, 3267.278
186.251, 3003.289
187.630, 2695.523
189.008, 2308.933
190.387, 2179.470
191.765, 2130.126
193.143, 1969.894
194.520, 2064.666
195.898, 2097.502
197.275, 2240.443
198.652, 2464.498
200.029, 2784.673
201.405, 2946.962
202.782, 3381.355
204.158, 3614.847
205.534, 4166.435
206.909, 4421.123
208.285, 4591.908
209.660, 4871.779
211.035, 5089.734
212.410, 5017.765
213.784, 5275.865
215.159, 5317.033
216.533, 5810.267
217.907, 6424.564
219.281, 7014.924
220.654, 8053.348
222.027, 9213.830
223.400, 10821.374
224.773, 12500.975
226.146, 14415.638
227.518, 16220.351
228.891, 17713.121
230.263, 18945.945
231.634, 19946.824
233.006, 19877.752
234.377, 18992.732
235.748, 17733.760
237.119, 16040.840
238.490, 14312.966
239.860, 12688.136
241.231, 10909.351
242.601, 9946.613
243.970, 8821.373
245.340, 7936.371
246.709, 7289.236
248.079, 6491.764
249.448, 6092.644
250.816, 5334.824
252.185, 4941.264
253.553, 4368.928
254.921, 3433.792
256.289, 3008.835
257.657, 2724.042
259.024, 2452.398
260.391, 2035.881
261.758, 1885.475
263.125, 1582.174
264.492, 1317.973
265.858, 982.868
267.224, 750.854
268.590, 566.929
269.956, 315.087
271.321, 255.325
272.687, 127.637
274.052, 92.979
275.416, 182.544
276.781, 95.295
278.146, 94.004
279.510, 193.641
280.874, 196.196
282.237, 186.663
283.601, 168.035
284.964, 136.402
286.327, 221.436
287.690, 99.494
289.053, 24.435
290.416, 103.091
291.778, 40.543
293.140, 112.826
294.502, 258.498
295.863, 444.980
297.225, 525.302
298.586, 692.000
299.947, 817.485
301.308, 978.833
302.668, 1168.283
304.029, 1377.715
305.389, 1595.979
306.749, 1877.261
308.108, 2062.640
309.468, 2320.629
310.827, 2548.895
312.186, 2627.225
313.545, 2652.584
314.903, 2730.052
316.262, 2573.938
317.620, 2416.036
318.978, 2260.337
320.336, 2127.551
321.693, 1843.816
323.051, 1720.907
324.408, 1637.798
325.765, 1279.586
327.121, 1236.366
328.478, 1151.022
329.834, 1101.858
331.190, 1060.090
332.546, 988.254
333.902, 972.807
335.257, 939.595
336.612, 959.557
337.967, 937.524
339.322, 992.283
340.677, 1068.030
342.031, 1125.713
343.385, 1052.327
344.739, 1135.846
346.093, 1189.297
347.446, 1072.674
348.799, 1234.034
350.153, 1314.414
351.505, 1414.813
352.858, 1453.231
354.210, 1652.666
355.563, 1740.116
356.915, 1980.583
358.267, 2268.064
359.618, 2552.562
360.969, 2946.072
362.321, 3359.598
363.672, 3591.136
365.022, 3983.687
366.373, 4207.248
367.723, 4355.823
369.073, 4445.406
370.423, 4629.000
371.773, 4675.605
373.122, 4712.218
374.471, 4894.838
375.821, 5193.468
377.169, 5154.106
378.518, 5491.750
379.866, 5413.403
381.215, 5738.062
382.563, 5820.725
383.910, 5875.396
385.258, 5817.075
386.605, 5975.757
387.952, 5791.444
389.299, 5693.134
390.646, 5772.830
391.992, 5616.527
393.339, 5644.230
394.685, 5650.935
396.031, 5664.641
397.376, 5626.350
398.722, 5442.060
400.067, 5331.770
401.412, 5128.480
402.757, 4775.193
404.101, 4713.903
405.446, 4263.613
406.790, 3842.340
408.134, 3642.086
409.478, 3450.846
410.821, 3074.618
412.165, 2768.400
413.508, 2417.190
414.851, 2358.987
416.193, 2097.789
417.536, 2089.595
418.878, 2168.404
420.220, 2208.215
421.562, 2338.026
422.904, 2463.214
424.245, 2633.651
425.586, 2761.461
426.927, 2851.270
428.268, 2964.075
429.609, 2870.878
430.949, 2835.676
432.289, 2999.469
433.629, 2914.257
434.969, 2605.041
436.309, 2355.694
437.648, 2002.894
438.987, 1714.534
440.326, 1441.479
441.665, 1157.760
443.003, 839.252
444.342, 773.921
445.680, 509.188
447.018, 269.506
448.355, 277.696
449.693, 131.447
451.030, 47.947
452.367, 17.285
453.704, 31.401
455.041, 47.237
456.377, 35.061
457.713, 6.637
459.049, 32.263
460.385, 59.396
461.721, 116.334
463.056, 114.074
464.391, 145.332
465.726, 161.177
467.061, 315.422
468.395, 308.479
469.730, 308.806
471.064, 336.156
472.398, 323.402
473.731, 334.507
475.065, 239.950
476.398, 150.588
477.731, 109.801
479.064, 80.946
480.397, 101.699
481.729, 98.586
483.062, 149.431
484.394, 206.237
485.725, 240.004
487.057, 250.734
488.389, 289.426
489.720, 255.081
491.051, 169.697
492.382, 194.271
493.712, 192.805
495.043, 226.295
496.373, 260.745
497.703, 275.388
499.032, 336.431
500.362, 343.852
501.691, 443.142
503.020, 526.394
504.349, 564.608
505.678, 808.784
507.007, 977.925
508.335, 1158.028
509.663, 1226.094
510.991, 1543.122
512.319, 1861.114
513.646, 2076.069
514.973, 2492.985
516.300, 2786.865
517.627, 3161.708
518.954, 3414.519
520.280, 3439.294
521.607, 3665.036
522.933, 3691.742
524.259, 3539.412
525.584, 3554.058
526.910, 3233.624
528.235, 2874.250
529.560, 2583.801
530.885, 2344.325
532.209, 2090.828
533.534, 1996.321
534.858, 1838.802
536.182, 1815.260
537.506, 1629.708
538.829, 1553.135
540.152, 1465.551
541.476, 1496.955
542.799, 1399.334
544.121, 1376.691
545.444, 1390.019
546.766, 1327.303
548.088, 1294.552
549.410, 1290.758
550.732, 1268.639
552.053, 1265.955
553.375, 1284.113
554.696, 1293.139
556.017, 1335.119
557.337, 1409.053
558.658, 1398.937
559.978, 1322.773
561.298, 1329.561
562.618, 1242.298
563.938, 1206.986
565.257, 1221.623
566.576, 1262.209
567.895, 1179.744
569.214, 1252.228
570.533, 1292.660
571.851, 1206.040
573.170, 1140.368
574.488, 1268.643
575.805, 1187.865
577.123, 1239.034
578.440, 1271.150
579.758, 1247.212
581.075, 1358.221
582.391, 1353.176
583.708, 1384.076
585.024, 1351.922
586.341, 1423.712
587.657, 1399.449
588.972, 1252.130
590.288, 1033.756
591.603, 839.326
592.918, 611.841
594.233, 494.300
595.548, 365.717
596.863, 180.102
598.177, 81.427
599.491, 51.332
600.805, 88.211
602.119, 115.234
603.432, 190.415
604.746, 151.797
606.059, 134.369
607.372, 164.529
608.685, 242.040
609.997, 128.369
611.309, 199.068
612.621, 73.518
613.933, 162.434
615.245, 109.263
616.557, 93.025
617.868, 11.252
619.179, 18.667
620.490, 36.663
621.801, 9.500
623.111, 128.287
624.421, 220.026
625.731, 163.971
627.041, 210.833
628.351, 326.621
629.660, 345.340
630.970, 371.994
632.279, 522.583
633.588, 468.029
634.896, 561.021
636.205, 636.767
637.513, 793.276
638.821, 816.840
640.129, 900.317
641.437, 985.933
642.744, 1119.713
644.051, 1205.561
645.358, 1334.255
646.665, 1518.289
647.972, 1600.981
649.278, 1786.242
650.584, 1954.534
651.890, 2171.747
653.196, 2585.029
654.502, 2815.383
655.807, 3172.725
657.113, 3459.237
658.418, 3988.695
659.722, 4607.435
661.027, 5041.793
662.331, 5737.228
663.636, 6729.075
664.940, 7717.697
666.244, 8863.898
667.547, 10656.454
668.851, 12414.044
670.154, 15185.693
671.457, 18110.945
672.760, 21786.688
674.062, 26747.184
675.365, 31499.926
676.667, 36946.383
677.969, 41411.133
679.271, 45778.586
680.572, 47645.316
681.874, 47131.738
683.175, 45394.316
684.476, 41215.051
685.777, 35709.504
687.077, 30237.387
688.378, 25317.303
689.678, 21314.168
690.978, 17420.252
692.278, 14506.103
693.577, 11775.450
694.877, 10340.984
696.176, 8642.162
697.475, 7726.259
698.774, 6747.099
700.072, 6065.605
701.371, 5432.931
702.669, 4830.283
703.967, 4588.906
705.265, 4261.595
706.562, 4107.037
707.860, 3894.804
709.157, 3623.656
710.454, 3701.381
711.751, 3481.284
713.047, 3577.695
714.344, 3525.923
715.640, 3555.272
716.936, 3598.599
718.232, 3585.380
719.527, 3670.242
720.823, 3744.050
722.118, 3781.803
723.413, 3912.502
724.708, 3908.146
726.002, 4052.737
727.297, 4135.274
728.591, 4111.760
729.885, 4370.191
731.179, 4477.571
732.472, 4363.896
733.766, 4432.175
735.059, 4326.399
736.352, 4349.572
737.645, 4243.695
738.937, 4250.768
740.230, 3957.791
741.522, 3832.764
742.814, 3627.686
744.106, 3340.562
745.397, 3283.387
746.689, 3052.164
747.980, 2835.893
749.271, 2653.573
750.562, 2546.851
751.853, 2429.531
753.143, 2319.604
754.433, 2208.370
755.723, 2162.281
757.013, 1986.788
758.303, 1923.515
759.592, 1745.439
760.881, 1724.710
762.170, 1579.001
763.459, 1511.327
764.748, 1450.723
766.036, 1255.193
767.325, 1288.172
768.613, 1107.065
769.901, 1155.457
771.188, 966.251
772.476, 883.054
773.763, 862.964
775.050, 716.664
776.337, 757.178
777.624, 718.119
778.910, 692.416
780.196, 634.256
781.482, 609.229
782.768, 514.905
784.054, 529.522
785.339, 585.192
786.625, 556.948
787.910, 496.310
789.195, 576.420
790.479, 524.898
791.764, 471.560
793.048, 496.205
794.332, 493.831
795.616, 528.438
796.900, 519.997
798.183, 524.247
799.467, 516.146
800.750, 514.677
802.033, 500.455
803.316, 486.766
804.598, 459.153
805.880, 443.389
807.163, 405.739
808.445, 365.475
809.726, 331.881
811.008, 295.270
812.289, 253.641
813.570, 168.994
814.851, 244.326
816.132, 210.641
817.413, 96.938
818.693, 135.212
819.973, 220.466
821.253, 120.704
822.533, 96.920
823.813, 67.116
825.092, 147.292
826.371, 15.448
827.650, 57.581
828.929, 26.307
830.208, 35.772
831.486, 30.171
832.764, 8.851
834.042, 7.149
835.320, 69.176
836.598, 33.254
837.875, 13.366
839.152, 55.505
840.429, 65.688
841.706, 86.917
842.983, 137.202
844.259, 126.570
845.536, 91.013
846.812, 134.512
848.088, 107.089
849.363, 135.729
850.639, 136.447
851.914, 100.241
853.189, 96.092
854.464, 75.311
855.739, 2.053
857.013, 41.912
858.288, 17.904
859.562, 11.917
860.836, 65.055
862.110, 28.300
863.383, 42.976
864.656, 0.077
865.930, 85.861
867.203, 113.794
868.475, 68.725
869.748, 144.653
871.020, 88.582
872.292, 200.508
873.564, 191.436
874.836, 196.371
876.108, 277.307
877.379, 252.261
878.650, 312.225
879.922, 328.216
881.192, 385.243
882.463, 411.277
883.733, 488.334
885.004, 500.404
886.274, 576.510
887.544, 589.634
888.813, 722.770
890.083, 762.934
891.352, 955.133
892.621, 973.350
893.890, 1104.576
895.159, 1215.815
896.427, 1214.063
897.695, 1302.334
898.964, 1476.626
900.232, 1462.937
901.499, 1503.254
902.767, 1565.615
904.034, 1715.993
905.301, 1635.384
906.568, 1823.792
907.835, 1889.247
909.102, 1892.767
910.368, 1856.356
911.634, 1975.023
912.900, 2078.789
914.166, 2058.672
915.432, 2309.635
916.697, 2270.688
917.962, 2459.879
919.227, 2716.151
920.492, 2749.523
921.757, 2962.966
923.021, 3151.499
924.285, 3433.104
925.550, 3600.782
926.813, 3796.520
928.077, 3958.299
929.341, 4134.122
930.604, 4150.997
931.867, 4255.893
933.130, 4142.804
934.393, 4033.739
935.655, 4163.688
936.918, 3816.648
938.180, 3914.619
939.442, 3717.599
940.703, 3591.589
941.965, 3641.590
943.226, 3521.598
944.488, 3480.611
945.749, 3533.630
947.009, 3455.655
948.270, 3470.685
949.530, 3332.723
950.791, 3305.768
952.051, 3241.817
953.311, 3125.870
954.570, 2996.930
955.830, 3082.991
957.089, 2880.279
958.348, 2753.921
959.607, 2621.207
960.866, 2394.287
962.124, 2288.370
963.383, 2152.460
964.641, 2173.551
965.899, 2091.309
967.156, 2050.393
968.414, 2012.352
969.671, 2063.844
970.928, 2082.509
972.185, 1974.541
973.442, 2065.167
974.699, 2022.701
975.955, 2107.120
977.211, 2193.886
978.468, 2047.109
979.723, 2146.521
980.979, 2046.640
982.234, 2017.979
983.490, 2056.979
984.745, 1937.228
986.000, 2050.137
987.254, 1976.304
988.509, 1858.261
989.763, 2041.011
991.017, 1945.981
992.271, 2022.474
993.525, 1945.866
994.779, 2075.260
996.032, 2037.380
997.285, 2126.673
998.538, 2167.420
999.791, 2104.917
1001.044, 2336.719
1002.296, 2298.543
1003.548, 2616.577
1004.800, 2536.911
1006.052, 2546.587
1007.304, 2668.431
1008.555, 2822.700
1009.807, 3039.151
1011.058, 3033.038
1012.309, 3227.835
1013.559, 3323.300
1014.810, 3389.043
1016.060, 3376.242
1017.310, 3556.488
1018.560, 3534.940
1019.810, 3518.414
1021.060, 3612.042
1022.309, 3727.539
1023.558, 3723.353
1024.807, 3788.446
1026.056, 3851.947
1027.305, 3911.296
1028.553, 4072.657
1029.801, 4317.918
1031.049, 4515.431
1032.297, 4685.862
1033.545, 4939.539
1034.793, 5196.769
1036.040, 5412.375
1037.287, 5581.310
1038.534, 5806.514
1039.781, 5937.696
1041.027, 6193.488
1042.274, 6150.226
1043.520, 6338.862
1044.766, 6305.973
1046.012, 6281.384
1047.257, 6287.244
1048.503, 6356.338
1049.748, 6462.688
1050.993, 6353.703
1052.238, 6653.866
1053.483, 6751.474
1054.727, 6734.793
1055.971, 6831.392
1057.216, 7019.183
1058.459, 7148.264
1059.703, 7291.987
1060.947, 7431.222
1062.190, 7591.637
1063.433, 7738.321
1064.676, 7898.849
1065.919, 8078.667
1067.162, 8237.553
1068.404, 8360.408
1069.646, 8230.062
1070.888, 8076.499
1072.130, 7984.284
1073.372, 7783.656
1074.613, 7617.272
1075.855, 7414.105
1077.096, 7136.578
1078.337, 6700.683
1079.578, 6581.671
1080.818, 6196.575
1082.059, 5981.426
1083.299, 5784.135
1084.539, 5669.704
1085.779, 5340.433
1087.018, 5139.157
1088.258, 4980.700
1089.497, 4727.980
1090.736, 4250.249
1091.975, 3984.688
1093.213, 3607.271
1094.452, 3390.840
1095.690, 3229.238
1096.928, 2991.847
1098.166, 2819.646
1099.404, 2635.233
1100.642, 2487.529
1101.879, 2284.562
1103.116, 2159.044
1104.353, 2005.690
1105.590, 1903.045
1106.827, 1799.958
1108.063, 1720.671
1109.299, 1634.971
1110.536, 1587.618
1111.771, 1481.802
1113.007, 1381.234
1114.243, 1383.554
1115.478, 1349.102
1116.713, 1234.854
1117.948, 1247.120
1119.183, 1251.059
1120.418, 1133.299
1121.652, 1249.193
1122.886, 1527.936
1124.120, 1404.567
1125.354, 1263.578
1126.588, 1084.196
1127.821, 940.517
1129.055, 816.103
1130.288, 770.906
1131.521, 807.448
1132.753, 705.326
1133.986, 702.826
1135.218, 574.104
1136.450, 721.361
1137.682, 649.477
1138.914, 633.778
1140.146, 616.073
1141.377, 514.091
1142.609, 511.623
1143.840, 522.464
1145.071, 435.472
1146.301, 457.156
1147.532, 435.004
1148.762, 412.746
1149.992, 396.121
1151.222, 375.978
1152.452, 373.807
1153.682, 324.128
1154.911, 267.649
1156.140, 329.301
1157.369, 259.608
1158.598, 203.935
1159.827, 137.687
1161.055, 185.735
1162.284, 138.795
1163.512, 215.801
1164.740, 73.660
1165.967, 57.113
1167.195, 12.206
1168.422, 54.770
1169.650, 36.482
1170.877, 15.163
1172.103, 20.201
1173.330, 43.923
1174.557, 57.920
1175.783, 25.327
1177.009, 86.486
1178.235, 121.113
1179.461, 6.529
1180.686, 72.654
1181.912, 19.807
1183.137, 119.168
1184.362, 43.924
1185.587, 15.656
1186.811, 78.334
1188.036, 103.308
1189.260, 38.094
1190.484, 3.927
1191.708, 10.941
1192.932, 1.027
1194.155, 53.346
1195.378, 40.278
1196.602, 27.929
1197.825, 13.286
1199.047, 119.570
1200.270, 14.662
1201.492, 6.493
1202.715, 60.872
1203.937, 48.314
1205.159, 4.825
1206.380, 15.518
1207.602, 19.594
1208.823, 6.894
1210.044, 92.832
1211.265, 59.841
1212.486, 26.635
1213.707, 79.604
1214.927, 23.062
1216.147, 37.495
1217.367, 7.977
1218.587, 25.749
1219.807, 73.147
1221.027, 42.485
1222.246, 10.912
1223.465, 30.515
1224.684, 5.911
1225.903, 23.388
1227.121, 120.471
1228.340, 123.891
1229.558, 31.835
1230.776, 184.596
1231.994, 137.917
1233.212, 134.037
1234.429, 171.077
1235.646, 57.746
1236.864, 57.487
1238.081, 169.804
1239.297, 126.491
1240.514, 127.407
1241.730, 154.607
1242.947, 113.640
1244.163, 85.323
1245.378, 97.570
1246.594, 151.782
1247.810, 185.217
1249.025, 103.753
1250.240, 254.772
1251.455, 107.418
1252.670, 166.471
1253.885, 162.304
1255.099, 119.110
1256.313, 193.163
1257.527, 100.536
1258.741, 220.675
1259.955, 233.970
1261.168, 166.540
1262.382, 130.003
1263.595, 206.697
1264.808, 271.166
1266.021, 184.976
1267.233, 252.801
1268.446, 275.697
1269.658, 287.396
1270.870, 182.768
1272.082, 261.109
1273.294, 122.184
1274.505, 237.837
1275.716, 172.321
1276.928, 218.635
1278.139, 147.513
1279.349, 199.144
1280.560, 236.078
1281.770, 228.583
1282.981, 247.217
1284.191, 186.609
1285.401, 175.292
1286.610, 225.875
1287.820, 328.589
1289.029, 245.012
1290.239, 193.826
1291.448, 257.188
1292.656, 206.762
1293.865, 218.352
1295.073, 294.088
1296.282, 176.098
1297.490, 172.404
1298.698, 264.628
1299.906, 199.736
1301.113, 168.303
1302.320, 210.543
1303.528, 187.778
1304.735, 125.948
1305.942, 204.627
1307.148, 185.308
1308.355, 179.804
1309.561, 90.183
1310.767, 249.019
1311.973, 132.540
1313.179, 182.492
1314.384, 151.729
1315.590, 142.030
1316.795, 133.753
1318.000, 178.863
1319.205, 160.938
1320.410, 220.262
1321.614, 160.450
1322.819, 47.384
1324.023, 137.296
1325.227, 96.656
1326.431, 191.017
1327.634, 206.396
1328.838, 95.983
1330.041, 201.039
1331.244, 161.649
1332.447, 176.050
1333.650, 119.636
1334.852, 104.069
1336.055, 108.405
1337.257, 34.396
1338.459, 115.544
1339.661, 19.029
1340.862, 102.071
1342.064, 96.658
1343.265, 88.383
1344.466, 83.841
1345.667, 50.729
1346.868, 108.802
1348.068, 177.126
1349.269, 208.260
1350.469, 59.696
1351.669, 68.975
1352.869, 143.125
1354.069, 35.589
1355.268, 198.580
1356.468, 36.521
1357.667, 119.046
1358.866, 100.369
1360.065, 24.596
1361.263, 86.315
1362.462, 43.305
1363.660, 88.294
1364.858, 119.562
1366.056, 6.946
1367.254, 114.674
1368.451, 20.315
1369.649, 67.857
1370.846, 94.687
1372.043, 45.205
1373.240, 12.469
1374.436, 54.500
1375.633, 28.380
1376.829, 19.347
1378.025, 2.151
1379.221, 36.283
1380.417, 1.207
1381.613, 42.880
1382.808, 18.017
1384.003, 25.804
1385.199, 119.249
1386.393, 30.333
1387.588, 176.108
1388.783, 67.369
1389.977, 59.253
1391.171, 140.404
1392.365, 22.824
1393.559, 175.620
1394.753, 233.458
1395.946, 26.712
1397.140, 38.026
1398.333, 43.382
1399.526, 131.096
1400.719, 131.957
1401.911, 1.716
1403.104, 103.583
1404.296, 58.142
1405.488, 54.795
1406.680, 123.273
1407.872, 141.713
1409.063, 73.841
1410.255, 223.410
1411.446, 40.097
1412.637, 179.853
1413.828, 56.083
1415.018, 188.445
1416.209, 214.729
1417.399, 275.492
1418.589, 78.271
1419.779, 277.548
1420.969, 111.027
1422.159, 118.581
1423.348, 244.468
1424.537, 91.896
1425.726, 238.148
1426.915, 256.775
1428.104, 147.386
1429.293, 127.159
1430.481, 289.964
1431.669, 95.844
1432.857, 183.208
1434.045, 251.915
1435.233, 161.197
1436.420, 356.090
1437.608, 279.426
1438.795, 172.138
1439.982, 295.266
1441.169, 267.581
1442.355, 176.638
1443.542, 201.154
1444.728, 292.626
1445.914, 178.262
1447.100, 349.175
1448.286, 312.778
1449.472, 296.195
1450.657, 236.255
1451.842, 445.310
1453.027, 213.831
1454.212, 225.502
1455.397, 406.110
1456.581, 190.173
1457.766, 306.383
1458.950, 390.593
1460.134, 307.287
1461.318, 388.260
1462.501, 215.571
1463.685, 195.508
1464.868, 392.735
1466.051, 120.903
1467.234, 409.192
1468.417, 132.711
1469.600, 139.771
1470.782, 282.262
1471.965, 295.426
1473.147, 193.396
1474.329, 302.064
1475.510, 322.645
