##NAMES=Fluoro-richterite
##RRUFFID=R040019
##IDEAL CHEMISTRY=Na(NaCa)Mg_5_Si_8_O_22_F_2_
##LOCALITY=Wilberforce, Ontario, Canada
##OWNER=RRUFF
##SOURCE=University of Arizona Mineral Museum
##DESCRIPTION=Brown prismatic crystals
##STATUS=The identification of this mineral has been confirmed by X-ray diffraction and chemical analysis
##URL=rruff.info/R040019
##MEASURED CHEMISTRY=(Na_0.59_K_0.27_[box]_0.14_)_Σ=1_(Ca_1.30_Na_0.70_)_Σ=2_(Mg_4.67_Fe_0.17_Fe^3+^_0.10_Ti_0.03_Mn_0.02_Al_0.01_)_Σ=5_(Si_7.67_Al_0.33_)_Σ=8_(F_1.12_(OH)_0.88_)_Σ=2_; OH estimated by charge balance
##PIN_ID=L00117
##ORIENTATION=Laser parallel to [-1 0 -1]. Fiducial mark perpendicular to laser is parallel to -b* (0 -1 0)
86.404, 0.000
87.798, 2.118
89.193, 25.362
90.587, 126.964
91.981, 162.150
93.375, 154.433
94.768, 170.815
96.161, 225.822
97.554, 183.019
98.947, 347.652
100.340, 430.411
101.732, 510.723
103.124, 760.334
104.516, 1042.227
105.908, 1484.356
107.300, 2091.346
108.691, 2199.188
110.082, 2431.251
111.473, 2735.844
112.864, 2884.955
114.254, 3132.259
115.644, 3168.416
117.034, 3088.566
118.424, 2472.598
119.813, 1809.458
121.203, 1309.099
122.592, 941.480
123.981, 478.560
125.369, 268.302
126.758, 31.673
128.146, 68.360
129.534, 66.843
130.922, 26.177
132.309, 25.662
133.696, 7.582
135.083, 72.085
136.470, 22.360
137.857, 52.270
139.243, 109.176
140.630, 52.972
142.016, 68.107
143.401, 23.430
144.787, 73.351
146.172, 239.450
147.557, 406.878
148.942, 673.631
150.327, 1116.697
151.711, 1720.067
153.096, 2629.728
154.480, 3844.670
155.863, 5030.884
157.247, 6339.361
158.630, 7517.092
160.013, 8579.072
161.396, 9103.288
162.779, 8551.733
164.161, 7434.408
165.544, 5957.295
166.926, 4751.396
168.308, 4027.701
169.689, 3624.147
171.070, 3339.574
172.452, 3488.018
173.833, 3585.498
175.213, 3839.032
176.594, 4075.631
177.974, 4260.300
179.354, 4590.048
180.734, 4689.881
182.114, 4797.850
183.493, 4495.917
184.872, 4286.078
186.251, 3889.276
187.630, 3396.583
189.008, 2935.012
190.387, 2655.555
191.765, 2451.307
193.143, 2270.293
194.520, 2273.425
195.898, 2137.664
197.275, 2276.026
198.652, 2400.504
200.029, 2752.102
201.405, 2810.821
202.782, 3018.694
204.158, 3225.885
205.534, 3554.401
206.909, 3876.208
208.285, 3978.245
209.660, 4267.429
211.035, 4543.715
212.410, 4540.091
213.784, 4864.556
215.159, 5213.108
216.533, 5663.748
217.907, 6385.473
219.281, 7271.283
220.654, 8168.175
222.027, 9485.151
223.400, 10979.205
224.773, 12723.339
226.146, 14478.552
227.518, 16284.842
228.891, 17987.207
230.263, 19002.650
231.634, 19917.162
233.006, 19770.750
234.377, 18938.404
235.748, 17168.129
237.119, 15413.917
238.490, 13467.774
239.860, 11838.696
241.231, 10141.683
242.601, 8897.729
243.970, 7981.836
245.340, 7085.003
246.709, 6310.227
248.079, 5490.510
249.448, 4775.937
250.816, 4020.238
252.185, 3509.460
253.553, 2911.052
254.921, 2509.280
256.289, 2166.905
257.657, 1819.863
259.024, 1424.107
260.391, 1156.604
261.758, 845.332
263.125, 711.260
264.492, 545.371
265.858, 460.649
267.224, 272.089
268.590, 224.683
269.956, 136.425
271.321, 102.311
272.687, 157.273
274.052, 62.315
275.416, 61.304
276.781, 0.259
278.146, 1.897
279.510, 15.618
280.874, 1.710
282.237, 14.131
283.601, 139.153
284.964, 130.356
286.327, 174.744
287.690, 376.312
289.053, 422.353
290.416, 485.287
291.778, 674.582
293.140, 760.033
294.502, 930.744
295.863, 967.078
297.225, 1198.094
298.586, 1432.020
299.947, 1556.437
301.308, 1795.050
302.668, 1884.023
304.029, 2060.351
305.389, 2396.545
306.749, 2714.814
308.108, 2963.818
309.468, 3196.224
310.827, 3378.694
312.186, 3499.227
313.545, 3571.819
314.903, 3519.510
316.262, 3427.905
317.620, 3239.720
318.978, 3145.782
320.336, 2894.791
321.693, 2690.875
323.051, 2452.956
324.408, 2343.389
325.765, 2082.275
327.121, 2159.750
328.478, 1913.846
329.834, 1917.640
331.190, 1952.808
332.546, 2026.142
333.902, 2089.538
335.257, 2322.758
336.612, 2297.104
337.967, 2554.486
339.322, 2721.903
340.677, 2871.354
342.031, 3103.840
343.385, 3132.361
344.739, 3364.914
346.093, 3513.499
347.446, 3452.115
348.799, 3456.762
350.153, 3298.440
351.505, 3313.148
352.858, 3246.887
354.210, 3248.652
355.563, 3190.446
356.915, 3313.267
358.267, 3523.113
359.618, 3746.983
360.969, 3899.878
362.321, 4339.798
363.672, 4452.738
365.022, 4770.702
366.373, 4867.687
367.723, 4773.691
369.073, 4577.715
370.423, 4445.754
371.773, 4256.809
373.122, 3986.879
374.471, 3814.963
375.821, 3904.061
377.169, 3735.173
378.518, 3999.297
379.866, 3923.433
381.215, 4040.583
382.563, 4086.741
383.910, 4105.914
385.258, 4186.095
386.605, 4111.288
387.952, 4319.489
389.299, 4184.698
390.646, 4351.918
391.992, 4291.145
393.339, 4476.378
394.685, 4534.619
396.031, 4561.866
397.376, 4751.118
398.722, 4584.376
400.067, 4593.639
401.412, 4411.905
402.757, 4281.175
404.101, 4203.449
405.446, 3779.726
406.790, 3499.003
408.134, 3178.283
409.478, 2989.563
410.821, 2768.845
412.165, 2386.126
413.508, 2212.407
414.851, 2106.716
416.193, 1907.052
417.536, 1834.410
418.878, 1821.790
420.220, 1894.188
421.562, 1962.605
422.904, 1936.038
424.245, 2049.485
425.586, 2145.947
426.927, 2245.421
428.268, 2316.906
429.609, 2220.402
430.949, 2283.908
432.289, 2247.422
433.629, 2242.944
434.969, 1940.473
436.309, 1786.364
437.648, 1540.908
438.987, 1385.132
440.326, 1118.422
441.665, 868.017
443.003, 580.111
444.342, 552.710
445.680, 435.388
447.018, 272.051
448.355, 146.207
449.693, 12.884
451.030, 4.791
452.367, 7.105
453.704, 20.231
455.041, 142.412
456.377, 12.069
457.713, 104.300
459.049, 12.768
460.385, 31.095
461.721, 56.687
463.056, 72.595
464.391, 32.859
465.726, 168.304
467.061, 277.297
468.395, 287.429
469.730, 232.773
471.064, 365.543
472.398, 196.187
473.731, 258.524
475.065, 106.517
476.398, 20.483
477.731, 22.589
479.064, 87.721
480.397, 195.948
481.729, 67.328
483.062, 96.795
484.394, 52.367
485.725, 137.020
487.057, 16.801
488.389, 8.648
489.720, 15.442
491.051, 35.482
492.382, 180.477
493.712, 201.436
495.043, 227.363
496.373, 353.255
497.703, 381.114
499.032, 518.941
500.362, 750.734
501.691, 804.495
503.020, 947.223
504.349, 1087.917
505.678, 1382.579
507.007, 1568.205
508.335, 1967.797
509.663, 2218.355
510.991, 2534.883
512.319, 2979.376
513.646, 3641.833
514.973, 3806.264
516.300, 3954.671
517.627, 4267.042
518.954, 4329.376
520.280, 4156.679
521.607, 4090.942
522.933, 3963.181
524.259, 3846.382
525.584, 3516.547
526.910, 3286.681
528.235, 3045.795
529.560, 2784.893
530.885, 2572.984
532.209, 2222.066
533.534, 2090.129
534.858, 1891.188
536.182, 1800.226
537.506, 1684.248
538.829, 1513.257
540.152, 1458.247
541.476, 1429.220
542.799, 1279.175
544.121, 1190.099
545.444, 1294.987
546.766, 1221.831
548.088, 1183.631
549.410, 1203.389
550.732, 1261.106
552.053, 1209.777
553.375, 1186.401
554.696, 1191.980
556.017, 1140.514
557.337, 1261.999
558.658, 1278.435
559.978, 1242.821
561.298, 1212.157
562.618, 1195.441
563.938, 1110.673
565.257, 1072.853
566.576, 1093.750
567.895, 1154.053
569.214, 1153.072
570.533, 1173.039
571.851, 1204.951
573.170, 1172.809
574.488, 1138.612
575.805, 1251.360
577.123, 1173.054
578.440, 1313.691
579.758, 1246.271
581.075, 1340.796
582.391, 1339.264
583.708, 1414.675
585.024, 1329.028
586.341, 1342.324
587.657, 1297.562
588.972, 1174.740
590.288, 986.860
591.603, 798.922
592.918, 571.925
594.233, 472.868
595.548, 321.749
596.863, 126.560
598.177, 40.278
599.491, 32.124
600.805, 55.685
602.119, 110.111
603.432, 126.539
604.746, 157.486
606.059, 148.854
607.372, 144.443
608.685, 156.548
609.997, 51.599
611.309, 119.039
612.621, 39.456
613.933, 92.077
615.245, 51.677
616.557, 12.004
617.868, 105.754
619.179, 69.315
620.490, 175.978
621.801, 116.593
623.111, 290.909
624.421, 232.358
625.731, 355.731
627.041, 301.032
628.351, 433.260
629.660, 458.421
630.970, 526.515
632.279, 664.543
633.588, 671.580
634.896, 743.623
636.205, 750.681
637.513, 845.209
638.821, 885.780
640.129, 1008.435
641.437, 990.021
642.744, 1261.177
644.051, 1334.880
645.358, 1397.026
646.665, 1612.445
647.972, 1759.120
649.278, 1996.475
650.584, 2183.570
651.890, 2465.053
653.196, 2770.324
654.502, 3130.672
655.807, 3572.177
657.113, 3975.789
658.418, 4209.314
659.722, 4945.064
661.027, 5423.683
662.331, 6026.192
663.636, 7064.548
664.940, 8027.175
666.244, 9096.694
667.547, 10723.708
668.851, 12620.274
670.154, 15413.766
671.457, 18348.457
672.760, 21673.379
674.062, 26604.764
675.365, 31360.988
676.667, 37024.676
677.969, 41451.801
679.271, 45985.211
680.572, 47768.203
681.874, 47154.508
683.175, 45147.797
684.476, 40920.582
685.777, 35125.301
687.077, 29343.385
688.378, 24219.658
689.678, 20262.867
690.978, 16624.346
692.278, 13843.125
693.577, 11068.107
694.877, 9955.799
696.176, 8186.303
697.475, 7248.725
698.774, 6287.100
700.072, 5551.344
701.371, 4942.922
702.669, 4510.907
703.967, 4109.676
705.265, 3780.843
706.562, 3668.144
707.860, 3500.753
709.157, 3232.134
710.454, 3260.682
711.751, 3001.126
713.047, 3141.199
714.344, 3105.101
715.640, 3139.717
716.936, 3192.070
718.232, 3171.362
719.527, 3397.396
720.823, 3477.368
722.118, 3523.280
723.413, 3624.133
724.708, 3638.926
726.002, 3817.659
727.297, 4018.333
728.591, 3908.949
729.885, 4192.506
731.179, 4422.003
732.472, 4360.444
733.766, 4388.827
735.059, 4482.152
736.352, 4370.419
737.645, 4472.629
738.937, 4255.783
740.230, 3954.880
741.522, 3615.921
742.814, 3448.906
744.106, 3231.836
745.397, 3105.711
746.689, 2777.532
747.980, 2515.296
749.271, 2359.008
750.562, 2306.310
751.853, 2069.910
753.143, 2041.752
754.433, 1951.473
755.723, 1741.876
757.013, 1613.695
758.303, 1543.993
759.592, 1385.163
760.881, 1384.297
762.170, 1270.885
763.459, 1198.668
764.748, 1130.632
766.036, 937.112
767.325, 1024.306
768.613, 856.432
769.901, 791.489
771.188, 616.060
772.476, 673.783
773.763, 605.302
775.050, 461.653
776.337, 530.824
777.624, 491.587
778.910, 455.111
780.196, 473.031
781.482, 460.754
782.768, 414.209
784.054, 381.180
785.339, 398.220
786.625, 408.507
787.910, 339.080
789.195, 427.620
790.479, 348.133
791.764, 415.630
793.048, 367.129
794.332, 321.661
795.616, 334.188
796.900, 347.722
798.183, 342.745
799.467, 329.797
800.750, 349.330
802.033, 370.849
803.316, 335.349
804.598, 391.824
805.880, 259.271
807.163, 301.687
808.445, 268.072
809.726, 215.427
811.008, 190.749
812.289, 164.039
813.570, 111.294
814.851, 127.514
816.132, 138.699
817.413, 159.851
818.693, 79.969
819.973, 91.052
821.253, 1.900
822.533, 49.105
823.813, 52.075
825.092, 23.991
826.371, 49.106
827.650, 31.717
828.929, 54.504
830.208, 6.742
831.486, 49.969
832.764, 48.353
834.042, 49.266
835.320, 3.148
836.598, 30.602
837.875, 78.104
839.152, 94.678
840.429, 134.331
841.706, 123.082
842.983, 91.926
844.259, 145.845
845.536, 88.865
846.812, 109.958
848.088, 123.132
849.363, 95.392
850.639, 117.726
851.914, 108.140
853.189, 54.627
854.464, 42.163
855.739, 17.258
857.013, 51.658
858.288, 8.968
859.562, 16.621
860.836, 39.698
862.110, 77.998
863.383, 21.277
864.656, 29.538
865.930, 101.778
867.203, 126.002
868.475, 178.209
869.748, 224.600
871.020, 222.583
872.292, 306.761
873.564, 369.930
874.836, 402.109
876.108, 370.290
877.379, 446.336
878.650, 446.187
879.922, 526.871
881.192, 518.085
882.463, 522.292
883.733, 614.502
885.004, 740.722
886.274, 626.934
887.544, 726.153
888.813, 810.369
890.083, 831.611
891.352, 973.849
892.621, 1011.110
893.890, 987.388
895.159, 1115.680
896.427, 1117.971
897.695, 1115.289
898.964, 1407.627
900.232, 1392.968
901.499, 1430.304
902.767, 1498.671
904.034, 1644.036
905.301, 1547.411
906.568, 1676.798
907.835, 1648.254
909.102, 1758.755
910.368, 1696.307
911.634, 1783.924
912.900, 1798.636
914.166, 1721.448
915.432, 1857.340
916.697, 1875.308
917.962, 1888.376
919.227, 2112.506
920.492, 2092.711
921.757, 2281.968
923.021, 2339.285
924.285, 2647.653
925.550, 2773.096
926.813, 2982.473
928.077, 3102.916
929.341, 3236.366
930.604, 3319.829
931.867, 3439.292
933.130, 3458.756
934.393, 3345.218
935.655, 3465.678
936.918, 3293.136
938.180, 3367.590
939.442, 3208.038
940.703, 3220.345
941.965, 3269.776
943.226, 3220.118
944.488, 3129.535
945.749, 3314.942
947.009, 3436.169
948.270, 3291.446
949.530, 3348.775
950.791, 3262.079
952.051, 3300.323
953.311, 3134.643
954.570, 2893.979
955.830, 2861.229
957.089, 2561.544
958.348, 2375.464
959.607, 2108.554
960.866, 1922.495
962.124, 1721.208
963.383, 1575.815
964.641, 1424.301
965.899, 1319.137
967.156, 1211.872
968.414, 1178.224
969.671, 1093.654
970.928, 1078.738
972.185, 1063.320
973.442, 1043.857
974.699, 1051.334
975.955, 1059.260
977.211, 1018.910
978.468, 1038.254
979.723, 1067.598
980.979, 1065.457
982.234, 1038.312
983.490, 1058.493
984.745, 896.643
986.000, 1050.473
987.254, 1081.908
988.509, 1053.296
989.763, 1235.128
991.017, 1186.929
992.271, 1274.485
993.525, 1288.721
994.779, 1368.020
996.032, 1368.397
997.285, 1594.924
998.538, 1579.522
999.791, 1650.540
1001.044, 1853.028
1002.296, 1871.825
1003.548, 2118.774
1004.800, 2207.160
1006.052, 2369.299
1007.304, 2627.636
1008.555, 2706.385
1009.807, 2970.343
1011.058, 3053.094
1012.309, 3163.059
1013.559, 3331.441
1014.810, 3459.130
1016.060, 3528.592
1017.310, 3762.571
1018.560, 3754.398
1019.810, 3777.113
1021.060, 3977.654
1022.309, 4040.544
1023.558, 4012.366
1024.807, 4179.057
1026.056, 4194.875
1027.305, 4307.604
1028.553, 4394.266
1029.801, 4688.844
1031.049, 4793.375
1032.297, 4914.061
1033.545, 5314.634
1034.793, 5541.771
1036.040, 5678.177
1037.287, 5867.655
1038.534, 6125.670
1039.781, 6264.630
1041.027, 6472.512
1042.274, 6360.677
1043.520, 6411.084
1044.766, 6664.619
1046.012, 6478.781
1047.257, 6523.748
1048.503, 6606.823
1049.748, 6816.445
1050.993, 6698.791
1052.238, 7042.449
1053.483, 7006.755
1054.727, 6942.842
1055.971, 7089.260
1057.216, 7377.121
1058.459, 7492.346
1059.703, 7717.385
1060.947, 7872.038
1062.190, 7902.120
1063.433, 8177.881
1064.676, 8234.444
1065.919, 8382.188
1067.162, 8419.015
1068.404, 8682.317
1069.646, 8472.044
1070.888, 8409.413
1072.130, 8459.111
1073.372, 8039.703
1074.613, 7869.676
1075.855, 7658.125
1077.096, 7179.705
1078.337, 7017.271
1079.578, 6814.027
1080.818, 6383.957
1082.059, 6275.027
1083.299, 5863.713
1084.539, 5863.357
1085.779, 5419.205
1087.018, 5309.182
1088.258, 5071.539
1089.497, 4777.526
1090.736, 4429.816
1091.975, 4090.132
1093.213, 3838.255
1094.452, 3459.547
1095.690, 3244.593
1096.928, 2916.623
1098.166, 2808.375
1099.404, 2665.930
1100.642, 2497.460
1101.879, 2272.560
1103.116, 2218.562
1104.353, 2035.624
1105.590, 1900.473
1106.827, 1834.198
1108.063, 1834.977
1109.299, 1563.667
1110.536, 1618.619
1111.771, 1484.092
1113.007, 1464.537
1114.243, 1362.935
1115.478, 1403.334
1116.713, 1284.283
1117.948, 1255.174
1119.183, 1266.939
1120.418, 1496.018
1121.652, 1248.804
1122.886, 1311.555
1124.120, 1460.058
1125.354, 1247.556
1126.588, 1114.089
1127.821, 907.785
1129.055, 802.182
1130.288, 783.015
1131.521, 730.923
1132.753, 788.989
1133.986, 668.743
1135.218, 589.302
1136.450, 658.068
1137.682, 538.974
1138.914, 548.788
1140.146, 499.117
1141.377, 516.414
1142.609, 501.658
1143.840, 402.609
1145.071, 516.573
1146.301, 434.223
1147.532, 387.950
1148.762, 465.969
1149.992, 309.953
1151.222, 193.198
1152.452, 343.036
1153.682, 305.855
1154.911, 145.023
1156.140, 319.862
1157.369, 157.927
1158.598, 158.645
1159.827, 15.970
1161.055, 192.786
1162.284, 64.010
1163.512, 125.022
1164.740, 73.584
1165.967, 132.177
1167.195, 212.086
1168.422, 59.754
1169.650, 20.360
1170.877, 41.404
1172.103, 60.807
1173.330, 30.482
1174.557, 60.256
1175.783, 10.216
1177.009, 56.899
1178.235, 71.001
1179.461, 52.851
1180.686, 23.028
1181.912, 47.604
1183.137, 100.404
1184.362, 36.157
1185.587, 7.169
1186.811, 106.750
1188.036, 18.492
1189.260, 93.334
1190.484, 65.102
1191.708, 51.069
1192.932, 3.032
1194.155, 105.281
1195.378, 75.104
1196.602, 4.147
1197.825, 60.989
1199.047, 116.246
1200.270, 59.087
1201.492, 11.557
1202.715, 37.069
1203.937, 135.686
1205.159, 51.519
1206.380, 69.016
1207.602, 57.941
1208.823, 67.922
1210.044, 54.685
1211.265, 13.696
1212.486, 90.625
1213.707, 53.816
1214.927, 13.966
1216.147, 12.249
1217.367, 20.354
1218.587, 67.322
1219.807, 76.239
1221.027, 33.939
1222.246, 79.789
1223.465, 14.530
1224.684, 57.780
1225.903, 161.061
1227.121, 132.223
1228.340, 108.525
1229.558, 147.296
1230.776, 144.474
1231.994, 112.423
1233.212, 94.944
1234.429, 165.982
1235.646, 238.910
1236.864, 154.941
1238.081, 142.708
1239.297, 157.099
1240.514, 128.448
1241.730, 148.597
1242.947, 141.530
1244.163, 166.446
1245.378, 191.948
1246.594, 179.075
1247.810, 263.174
1249.025, 101.188
1250.240, 233.580
1251.455, 100.504
1252.670, 273.246
1253.885, 239.104
1255.099, 239.065
1256.313, 167.464
1257.527, 95.732
1258.741, 231.988
1259.955, 222.500
1261.168, 200.239
1262.382, 286.116
1263.595, 277.263
1264.808, 284.746
1266.021, 188.339
1267.233, 233.859
1268.446, 221.233
1269.658, 257.337
1270.870, 236.444
1272.082, 206.490
1273.294, 170.836
1274.505, 195.010
1275.716, 130.812
1276.928, 261.386
1278.139, 89.988
1279.349, 250.193
1280.560, 271.512
1281.770, 199.465
1282.981, 170.979
1284.191, 171.214
1285.401, 233.152
1286.610, 221.402
1287.820, 213.497
1289.029, 260.548
1290.239, 236.591
1291.448, 288.069
1292.656, 245.983
1293.865, 181.258
1295.073, 173.093
1296.282, 129.563
1297.490, 164.785
1298.698, 152.362
1299.906, 216.305
1301.113, 260.588
1302.320, 193.030
1303.528, 221.022
1304.735, 279.385
1305.942, 169.803
1307.148, 110.943
1308.355, 243.729
1309.561, 145.795
1310.767, 268.381
1311.973, 89.001
1313.179, 195.644
1314.384, 1.621
1315.590, 141.484
1316.795, 121.573
1318.000, 273.601
1319.205, 107.098
1320.410, 182.397
1321.614, 190.474
1322.819, 20.343
1324.023, 186.963
1325.227, 133.128
1326.431, 191.353
1327.634, 99.474
1328.838, 60.031
1330.041, 53.211
1331.244, 131.562
1332.447, 197.677
1333.650, 30.584
1334.852, 137.920
1336.055, 129.723
1337.257, 32.108
1338.459, 115.569
1339.661, 138.938
1340.862, 130.913
1342.064, 84.053
1343.265, 104.180
1344.466, 31.707
1345.667, 89.302
1346.868, 148.824
1348.068, 59.730
1349.269, 131.914
1350.469, 72.503
1351.669, 17.052
1352.869, 68.035
1354.069, 138.355
1355.268, 87.255
1356.468, 83.918
1357.667, 134.463
1358.866, 67.860
1360.065, 5.838
1361.263, 99.824
1362.462, 11.847
1363.660, 11.457
1364.858, 69.746
1366.056, 36.877
1367.254, 50.367
1368.451, 82.450
1369.649, 4.070
1370.846, 112.572
1372.043, 19.727
1373.240, 42.877
1374.436, 83.051
1375.633, 89.703
1376.829, 52.013
1378.025, 46.356
1379.221, 0.283
1380.417, 115.831
1381.613, 125.701
1382.808, 156.021
1384.003, 91.451
1385.199, 158.869
1386.393, 181.043
1387.588, 25.199
1388.783, 148.270
1389.977, 54.213
1391.171, 41.562
1392.365, 33.979
1393.559, 66.914
1394.753, 98.822
1395.946, 96.670
1397.140, 215.092
1398.333, 143.047
1399.526, 229.709
1400.719, 213.260
1401.911, 166.721
1403.104, 97.580
1404.296, 188.193
1405.488, 122.957
1406.680, 230.883
1407.872, 119.521
1409.063, 260.803
1410.255, 226.377
1411.446, 56.041
1412.637, 206.768
1413.828, 25.975
1415.018, 144.006
1416.209, 219.787
1417.399, 206.988
1418.589, 240.953
1419.779, 234.346
1420.969, 174.059
1422.159, 208.328
1423.348, 122.910
1424.537, 155.588
1425.726, 205.406
1426.915, 208.154
1428.104, 230.484
1429.293, 287.957
1430.481, 274.291
1431.669, 212.496
1432.857, 271.887
1434.045, 224.074
1435.233, 212.506
1436.420, 248.764
1437.608, 370.539
1438.795, 223.688
1439.982, 346.236
1441.169, 258.229
1442.355, 382.135
1443.542, 264.076
1444.728, 347.568
1445.914, 213.959
1447.100, 301.041
1448.286, 384.764
1449.472, 253.348
1450.657, 135.094
1451.842, 511.492
1453.027, 392.445
1454.212, 278.832
1455.397, 443.590
1456.581, 298.137
1457.766, 403.027
1458.950, 428.496
1460.134, 238.248
1461.318, 510.217
1462.501, 334.004
1463.685, 259.305
1464.868, 451.578
1466.051, 401.240
1467.234, 461.590
1468.417, 163.363
1469.600, 240.404
1470.782, 336.037
1471.965, 430.568
1473.147, 439.246
1474.329, 492.029
1475.510, 408.354
1476.692, 307.027
1477.873, 195.998
1479.055, 385.004
1480.236, 173.455
1481.416, 518.877
1482.597, 251.256
