##NAMES=Fluorapatite
##RRUFFID=R050192
##IDEAL CHEMISTRY=Ca_5_(PO_4_)_3_F
##LOCALITY=Fulford, Eagle County, Colorado, USA
##OWNER=RRUFF
##SOURCE=Dave Bunk Minerals
##DESCRIPTION=Pale green hexagonal prism
##STATUS=The identification of this mineral has been confirmed by X-ray diffraction and chemical analysis
##URL=rruff.info/R050192
##MEASURED CHEMISTRY=Ca_5.00_(P_1.00_O_4_)_3_(F_0.86_Cl_0.13_)
##PIN_ID=L00428
##ORIENTATION=Laser parallel to a* (1 0 0). Fiducial mark perpendicular to laser is parallel to -c [0 0 -1]
103.3490, 0.0000000E+00
104.5820, 22.55200
105.8150, 59.06714
107.0470, 0.9687500
108.2800, 94.15308
109.5120, 112.6431
110.7440, 63.06470
111.9760, 44.22021
113.2080, 5.979492
114.4400, 40.24878
115.6710, 12.04785
116.9030, 45.02808
118.1340, 31.42505
119.3650, 87.10376
120.5960, 84.03540
121.8270, 38.19775
123.0580, 90.57153
124.2880, 42.13672
125.5190, 70.87354
126.7490, 130.7639
127.9790, 41.79077
129.2090, 97.93921
130.4390, 77.19531
131.6680, 157.5500
132.8980, 116.9998
134.1270, 228.5442
135.3560, 168.1838
136.5850, 230.9165
137.8140, 192.7437
139.0430, 193.6655
140.2710, 228.6748
141.5000, 163.7625
142.7280, 179.9177
143.9560, 170.1318
145.1840, 113.3960
146.4120, 125.7029
147.6390, 111.0461
148.8670, 127.4207
150.0940, 115.8208
151.3210, 111.2429
152.5490, 109.6829
153.7750, 175.1372
155.0020, 58.60303
156.2290, 196.0767
157.4550, 123.5669
158.6810, 152.0786
159.9080, 128.6399
161.1340, 166.2449
162.3590, 110.9436
163.5850, 117.6873
164.8110, 198.4829
166.0360, 105.3867
167.2610, 126.3193
168.4860, 91.30762
169.7110, 124.3491
170.9360, 144.4568
172.1610, 113.7290
173.3850, 124.0198
174.6100, 180.2993
175.8340, 127.5881
177.0580, 165.8994
178.2820, 228.1865
179.5050, 204.4453
180.7290, 180.6819
181.9520, 214.8928
183.1760, 215.0774
184.3990, 229.2332
185.6220, 196.3594
186.8450, 257.4573
188.0670, 114.5273
189.2900, 185.5708
190.5120, 199.5881
191.7340, 127.5801
192.9560, 155.5469
194.1780, 119.4897
195.4000, 130.4243
196.6220, 136.3032
197.8430, 184.1746
199.0640, 211.0222
200.2860, 274.8462
201.5070, 293.6462
202.7270, 294.4229
203.9480, 282.1750
205.1690, 292.9036
206.3890, 356.6079
207.6090, 318.2876
208.8290, 351.9426
210.0490, 394.8293
211.2690, 389.8860
212.4890, 404.1709
213.7080, 348.0896
214.9280, 371.8499
216.1470, 308.6396
217.3660, 232.2065
218.5850, 237.7927
219.8030, 207.0188
221.0220, 212.3606
222.2400, 174.5596
223.4590, 225.9023
224.6770, 301.3828
225.8950, 187.3281
227.1120, 179.2417
228.3300, 353.3828
229.5480, 251.9734
230.7650, 290.2791
231.9820, 286.5688
233.1990, 244.2542
234.4160, 192.3896
235.6330, 169.0364
236.8490, 260.1660
238.0660, 167.4504
239.2820, 161.2197
240.4980, 190.7942
241.7140, 134.0762
242.9300, 129.1318
244.1460, 103.2971
245.3610, 116.7954
246.5770, 124.2007
247.7920, 81.07739
249.0070, 105.1819
250.2220, 109.8623
251.4370, 160.4465
252.6510, 118.2053
253.8660, 75.62134
255.0800, 97.92310
256.2940, 166.7551
257.5080, 153.3333
258.7220, 156.8008
259.9360, 178.1628
261.1490, 135.7812
262.3630, 214.8215
263.5760, 145.2146
264.7890, 127.4734
266.0020, 197.6318
267.2150, 175.9072
268.4270, 145.0781
269.6400, 165.2463
270.8520, 218.4109
272.0640, 114.5701
273.2760, 171.7231
274.4880, 181.8708
275.7000, 282.0132
276.9120, 230.1475
278.1230, 236.2734
279.3340, 191.3909
280.5450, 276.4998
281.7560, 274.5974
282.9670, 266.6831
284.1780, 253.7561
285.3880, 318.8154
286.5980, 300.8596
287.8090, 245.8879
289.0190, 316.8994
290.2290, 324.8940
291.4380, 296.8711
292.6480, 305.8296
293.8570, 201.7698
295.0670, 273.6912
296.2760, 305.5935
297.4850, 243.4763
298.6930, 311.3396
299.9020, 276.1829
301.1110, 280.0059
302.3190, 220.8083
303.5270, 173.5898
304.7350, 196.3511
305.9430, 285.0906
307.1510, 266.8083
308.3580, 213.5037
309.5660, 241.1763
310.7730, 154.8254
311.9800, 143.4512
313.1870, 192.0525
314.3940, 145.6292
315.6010, 88.18066
316.8070, 167.7058
318.0130, 55.20508
319.2200, 139.6758
320.4260, 100.1196
321.6310, 54.53564
322.8370, 66.93994
324.0430, 20.41284
325.2480, 36.05493
326.4540, 28.84351
327.6590, 17.89746
328.8640, 31.57495
330.0680, 53.85205
331.2730, 57.46680
332.4780, 22.44824
333.6820, 32.13477
334.8860, 28.15112
336.0900, 44.45361
337.2940, 72.37036
338.4980, 5.793457
339.7010, 79.05127
340.9050, 31.73145
342.1080, 80.44043
343.3110, 34.09741
344.5140, 48.69067
345.7170, 95.42163
346.9200, 30.06201
348.1220, 47.52441
349.3240, 27.00293
350.5270, 43.44824
351.7290, 3.096191
352.9310, 12.29370
354.1320, 34.63086
355.3340, 55.09424
356.5350, 47.38818
357.7370, 17.07373
358.9380, 29.04199
360.1390, 19.21924
361.3400, 10.27783
362.5400, 92.72119
363.7410, 30.81250
364.9410, 31.25488
366.1410, 12.02148
367.3410, 78.17432
368.5410, 30.33691
369.7410, 8.399902
370.9400, 1.369141
372.1400, 48.40234
373.3390, 28.48584
374.5380, 39.19434
375.7370, 26.17871
376.9360, 60.72119
378.1350, 12.96631
379.3330, 29.56299
380.5310, 62.20361
381.7300, 33.07227
382.9280, 67.49951
384.1260, 206.9272
385.3230, 60.50293
386.5210, 109.0820
387.7180, 16.18164
388.9160, 9.741211
390.1130, 74.24463
391.3100, 3.606934
392.5060, 47.89941
393.7030, 63.82861
394.9000, 99.33398
396.0960, 65.57666
397.2920, 151.6064
398.4880, 183.5811
399.6840, 52.58203
400.8800, 118.3955
402.0750, 149.2505
403.2710, 178.0186
404.4660, 119.6938
405.6610, 170.3931
406.8560, 178.0576
408.0510, 211.6030
409.2450, 295.4575
410.4400, 210.0869
411.6340, 293.5479
412.8280, 342.9521
414.0220, 269.3481
415.2160, 411.3384
416.4100, 415.4717
417.6030, 609.9028
418.7970, 696.4683
419.9900, 761.5654
421.1830, 853.7129
422.3760, 1047.894
423.5690, 1204.144
424.7610, 1285.871
425.9540, 1532.520
427.1460, 1749.214
428.3380, 1823.558
429.5300, 1970.856
430.7220, 2030.987
431.9140, 2050.942
433.1050, 1826.982
434.2970, 1757.859
435.4880, 1546.694
436.6790, 1246.485
437.8700, 1066.234
439.0610, 963.9424
440.2510, 871.6079
441.4420, 852.2305
442.6320, 817.8115
443.8220, 776.3477
445.0120, 761.0962
446.2020, 760.2930
447.3910, 702.6987
448.5810, 706.0601
449.7700, 641.3760
450.9600, 653.6489
452.1490, 613.8750
453.3370, 631.0576
454.5260, 597.1958
455.7150, 538.2886
456.9030, 483.3462
458.0910, 375.3589
459.2800, 393.1387
460.4670, 353.0630
461.6550, 393.6035
462.8430, 353.4321
464.0300, 326.0571
465.2180, 271.4390
466.4050, 248.8232
467.5920, 201.9595
468.7790, 259.1079
469.9650, 231.1738
471.1520, 174.1416
472.3380, 39.10938
473.5250, 176.1074
474.7110, 82.31592
475.8970, 146.0894
477.0820, 132.8218
478.2680, 148.7300
479.4540, 68.02197
480.6390, 81.22119
481.8240, 71.17578
483.0090, 104.5762
484.1940, 91.53760
485.3780, 97.83789
486.5630, 106.8242
487.7470, 68.04932
488.9320, 113.4536
490.1160, 86.04443
491.3000, 106.7925
492.4830, 101.8535
493.6670, 94.91309
494.8500, 102.5464
496.0340, 24.37891
497.2170, 72.04346
498.4000, 117.0181
499.5820, 37.49121
500.7650, 130.1943
501.9480, 107.6597
503.1300, 127.7363
504.3120, 36.77490
505.4940, 104.0737
506.6760, 131.1680
507.8580, 46.48193
509.0390, 44.09961
510.2210, 43.71143
511.4020, 26.69775
512.5830, 53.21973
513.7640, 56.15967
514.9450, 51.97852
516.1250, 95.06787
517.3060, 99.40186
518.4860, 36.33301
519.6660, 6.063477
520.8460, 73.46924
522.0260, 49.75049
523.2060, 134.3286
524.3850, 141.4414
525.5650, 85.52930
526.7440, 25.50635
527.9230, 20.23438
529.1020, 114.4912
530.2810, 109.4971
531.4590, 119.0542
532.6380, 24.58447
533.8160, 25.95068
534.9940, 99.48535
536.1720, 192.1895
537.3500, 17.66553
538.5270, 48.70410
539.7050, 53.34717
540.8820, 39.34473
542.0590, 74.23096
543.2360, 55.81006
544.4130, 68.82275
545.5900, 82.38965
546.7660, 69.77686
547.9430, 69.41943
549.1190, 88.98535
550.2950, 16.19775
551.4710, 51.87158
552.6470, 35.10889
553.8220, 88.37207
554.9980, 81.56396
556.1730, 169.3838
557.3480, 125.9673
558.5230, 45.43213
559.6980, 13.77441
560.8730, 106.2783
562.0470, 84.71289
563.2220, 67.53320
564.3960, 46.77197
565.5700, 162.4019
566.7440, 172.3076
567.9170, 151.5127
569.0910, 226.0840
570.2640, 235.6333
571.4380, 265.5903
572.6110, 301.6782
573.7840, 268.1299
574.9570, 329.0068
576.1290, 422.9307
577.3020, 386.4976
578.4740, 692.4897
579.6460, 725.5562
580.8180, 935.2100
581.9900, 994.9937
583.1620, 1060.700
584.3330, 1064.118
585.5040, 1106.925
586.6760, 1313.236
587.8470, 1464.272
589.0180, 1706.484
590.1880, 2009.496
591.3590, 2225.679
592.5290, 2098.348
593.7000, 1896.676
594.8700, 1307.678
596.0400, 1019.507
597.2090, 828.7256
598.3790, 608.4019
599.5490, 569.2480
600.7180, 445.3813
601.8870, 479.6465
603.0560, 504.6729
604.2250, 500.3418
605.3940, 490.5581
606.5620, 559.3560
607.7300, 700.3955
608.8990, 665.5557
610.0670, 595.7573
611.2350, 538.8633
612.4020, 421.1904
613.5700, 348.7476
614.7370, 247.0171
615.9050, 301.7759
617.0720, 318.8979
618.2390, 239.4453
619.4060, 159.6982
620.5720, 195.9097
621.7390, 277.0117
622.9050, 126.3789
624.0710, 170.6592
625.2370, 124.5112
626.4030, 139.4463
627.5690, 83.10059
628.7340, 72.60449
629.9000, 125.3726
631.0650, 153.8599
632.2300, 26.24316
633.3950, 46.87354
634.5600, 186.4937
635.7240, 9.875000
636.8890, 137.1587
638.0530, 249.9873
639.2170, 109.3730
640.3810, 121.7725
641.5450, 63.56543
642.7080, 129.6235
643.8720, 102.5771
645.0350, 124.1152
646.1980, 96.95361
647.3610, 143.7852
648.5240, 104.0103
649.6870, 216.3721
650.8490, 214.4946
652.0120, 226.3745
653.1740, 125.0342
654.3360, 148.4292
655.4980, 126.9902
656.6600, 159.1514
657.8210, 88.22070
658.9830, 124.4404
660.1440, 268.6826
661.3050, 89.18750
662.4660, 193.5410
663.6270, 144.5898
664.7870, 108.2930
665.9480, 207.2012
667.1080, 119.1240
668.2680, 26.06055
669.4280, 142.1914
670.5880, 150.0117
671.7480, 121.0078
672.9070, 123.0000
674.0670, 63.60547
675.2260, 24.61328
676.3850, 100.5020
677.5440, 155.3486
678.7030, 82.00586
679.8610, 13.77734
681.0200, 132.9863
682.1780, 18.41309
683.3360, 9.023438
684.4940, 49.63477
685.6520, 21.99414
686.8090, 127.9814
687.9670, 109.2998
689.1240, 107.3086
690.2810, 6.569336
691.4380, 119.5693
692.5950, 13.60156
693.7520, 68.32812
694.9080, 142.1953
696.0650, 184.7461
697.2210, 198.4297
698.3770, 212.4971
699.5330, 158.6973
700.6880, 160.8721
701.8440, 53.69043
702.9990, 46.53711
704.1550, 68.71680
705.3100, 2.014648
706.4650, 140.7402
707.6190, 38.46875
708.7740, 72.61133
709.9290, 156.9404
711.0830, 111.8086
712.2370, 12.61719
713.3910, 13.46191
714.5450, 111.1748
715.6980, 182.6562
716.8520, 67.59668
718.0050, 36.41016
719.1580, 121.0830
720.3110, 75.72070
721.4640, 79.96875
722.6170, 135.0000
723.7700, 27.73730
724.9220, 131.7861
726.0740, 183.7588
727.2260, 127.0205
728.3780, 160.4648
729.5300, 104.9375
730.6810, 214.0518
731.8330, 42.79980
732.9840, 105.3584
734.1350, 131.8398
735.2860, 42.24609
736.4370, 138.8408
737.5880, 86.40820
738.7380, 2.974609
739.8880, 195.8066
741.0390, 238.5498
742.1890, 69.90430
743.3380, 163.6650
744.4880, 5.654297
745.6380, 149.1934
746.7870, 58.46582
747.9360, 91.12207
749.0850, 72.07227
750.2340, 186.2480
751.3830, 205.5713
752.5310, 173.4639
753.6800, 185.9062
754.8280, 148.2041
755.9760, 26.07617
757.1240, 100.4189
758.2720, 12.99414
759.4190, 35.84180
760.5670, 186.4785
761.7140, 2.513672
762.8610, 56.68555
764.0080, 25.63965
765.1550, 84.86230
766.3020, 65.19531
767.4480, 34.59473
768.5950, 61.42676
769.7410, 90.13281
770.8870, 149.6416
772.0330, 92.37500
773.1780, 40.78516
774.3240, 52.78027
775.4690, 107.2432
776.6140, 2.558594
777.7590, 131.7012
778.9040, 130.0029
780.0490, 27.45898
781.1940, 57.61328
782.3380, 45.13184
783.4820, 36.13379
784.6260, 51.12109
785.7700, 103.9834
786.9140, 54.78125
788.0580, 12.58105
789.2010, 30.29492
790.3450, 188.6084
791.4880, 239.0947
792.6310, 185.3428
793.7730, 72.73242
794.9160, 81.63379
796.0590, 191.6504
797.2010, 76.94824
798.3430, 143.9004
799.4850, 137.2529
800.6270, 129.7568
801.7690, 110.3574
802.9100, 145.2139
804.0520, 138.5957
805.1930, 106.5283
806.3340, 147.1260
807.4750, 199.4355
808.6160, 151.8262
809.7560, 34.30176
810.8970, 113.2725
812.0370, 73.89355
813.1770, 175.2451
814.3170, 219.8135
815.4570, 48.51270
816.5960, 244.8018
817.7360, 105.7070
818.8750, 69.00879
820.0140, 236.7275
821.1530, 204.9775
822.2920, 27.63574
823.4310, 85.06641
824.5690, 221.8525
825.7070, 56.47070
826.8460, 131.9805
827.9840, 218.9746
829.1220, 222.3496
830.2590, 40.20605
831.3970, 218.1895
832.5340, 122.3906
833.6710, 143.6680
834.8080, 135.9072
835.9450, 42.11328
837.0820, 69.77930
838.2190, 112.8262
839.3550, 86.10645
840.4910, 158.8379
841.6270, 250.0176
842.7630, 121.7988
843.8990, 87.14941
845.0350, 94.97656
846.1700, 156.1719
847.3060, 90.50391
848.4410, 11.43945
849.5760, 39.35254
850.7100, 114.6768
851.8450, 131.9814
852.9800, 12.93262
854.1140, 18.38477
855.2480, 28.17480
856.3820, 256.6797
857.5160, 91.27539
858.6500, 123.5752
859.7830, 175.1133
860.9170, 79.79199
862.0500, 78.55957
863.1830, 229.4727
864.3160, 165.9648
865.4480, 139.5859
866.5810, 7.1289003E-02
867.7130, 35.08594
868.8460, 299.2090
869.9780, 297.3926
871.1100, 174.7100
872.2410, 106.0596
873.3730, 21.84961
874.5050, 191.1973
875.6360, 106.1807
876.7670, 108.0635
877.8980, 181.7412
879.0290, 63.38281
880.1590, 228.0947
881.2900, 77.08887
882.4200, 121.7275
883.5500, 23.39941
884.6800, 5.036133
885.8100, 81.83398
886.9400, 33.49219
888.0690, 9.177734
889.1990, 138.8623
890.3280, 6.091797
891.4570, 60.97656
892.5860, 94.58496
893.7140, 177.0400
894.8430, 126.5381
895.9710, 236.5312
897.1000, 215.4492
898.2280, 190.8730
899.3560, 181.5654
900.4830, 110.4023
901.6110, 27.37988
902.7380, 33.82812
903.8660, 122.6992
904.9930, 159.2363
906.1200, 56.79004
907.2460, 27.48828
908.3730, 5.839844
909.5000, 93.86230
910.6260, 94.83203
911.7520, 220.9238
912.8780, 98.47754
914.0040, 25.52930
915.1290, 0.3291020
916.2550, 9.351563
917.3800, 34.21387
918.5050, 25.88574
919.6300, 22.91992
920.7550, 30.98242
921.8800, 27.95801
923.0040, 19.37402
924.1290, 2.348633
925.2530, 36.99805
926.3770, 25.62109
927.5010, 54.86328
928.6250, 16.51367
929.7480, 92.58789
930.8720, 18.65039
931.9950, 162.0078
933.1180, 127.4453
934.2410, 307.4004
935.3640, 156.5859
936.4860, 232.2793
937.6090, 154.3965
938.7310, 116.9492
939.8530, 351.3672
940.9750, 315.5508
942.0970, 237.8086
943.2180, 442.1816
944.3400, 369.2578
945.4610, 535.7656
946.5820, 647.5078
947.7030, 874.9961
948.8240, 918.8145
949.9450, 1106.729
951.0650, 1229.830
952.1860, 1583.662
953.3060, 2053.822
954.4260, 2862.732
955.5460, 4135.617
956.6650, 5556.010
957.7850, 7091.742
958.9040, 8636.793
960.0230, 10661.86
961.1420, 13024.50
962.2610, 15786.46
963.3800, 18219.58
964.4990, 18673.94
965.6170, 16626.55
966.7350, 13357.96
967.8530, 9972.717
968.9710, 7372.574
970.0890, 5709.611
971.2070, 4315.289
972.3240, 3387.465
973.4410, 2681.213
974.5580, 2027.238
975.6750, 1355.648
976.7920, 864.2578
977.9090, 802.2441
979.0250, 518.6035
980.1410, 395.9531
981.2580, 467.5918
982.3740, 464.9512
983.4890, 401.9434
984.6050, 374.1523
985.7200, 329.6191
986.8360, 222.8984
987.9510, 202.1035
989.0660, 135.8926
990.1810, 123.4863
991.2950, 114.4922
992.4100, 154.2363
993.5240, 149.1582
994.6390, 222.8203
995.7530, 281.3340
996.8660, 276.7012
997.9800, 297.7676
999.0940, 276.2500
1000.207, 230.4609
1001.320, 187.0645
1002.433, 205.2266
1003.546, 231.3477
1004.659, 202.4590
1005.772, 303.7715
1006.884, 217.4727
1007.996, 145.4590
1009.108, 294.7969
1010.220, 247.2168
1011.332, 337.8301
1012.444, 393.8711
1013.555, 205.8867
1014.666, 65.23047
1015.777, 159.8418
1016.888, 274.4336
1017.999, 306.3340
1019.110, 442.8105
1020.220, 344.7051
1021.331, 429.5703
1022.441, 199.1016
1023.551, 164.0820
1024.661, 398.9531
1025.770, 326.5117
1026.880, 401.7070
1027.989, 519.5957
1029.098, 399.3438
1030.207, 658.9160
1031.316, 692.9492
1032.425, 500.0938
1033.533, 925.2148
1034.642, 666.2129
1035.750, 740.5508
1036.858, 895.2715
1037.966, 930.8086
1039.073, 1243.400
1040.181, 1423.242
1041.288, 1346.945
1042.396, 1401.229
1043.503, 1740.146
1044.610, 1722.879
1045.716, 1808.484
1046.823, 2321.221
1047.929, 2360.428
1049.036, 2591.717
1050.142, 2697.586
1051.248, 2631.824
1052.353, 2291.273
1053.459, 1958.756
1054.564, 1605.320
1055.670, 1310.307
1056.775, 920.5879
1057.880, 996.7656
1058.985, 750.8086
1060.089, 929.5586
1061.194, 825.3672
1062.298, 655.7754
1063.402, 543.0293
1064.506, 603.5391
1065.610, 397.4238
1066.713, 574.6602
1067.817, 471.8398
1068.920, 562.3184
1070.023, 410.3984
1071.126, 674.8262
1072.229, 695.8574
1073.332, 696.1113
1074.435, 950.8359
1075.537, 1022.107
1076.639, 917.3340
1077.741, 1062.332
1078.843, 1025.252
1079.945, 953.9062
1081.046, 923.7129
1082.148, 787.8789
1083.249, 786.3867
1084.350, 710.8457
1085.451, 623.6250
1086.551, 582.7461
1087.652, 463.7852
1088.752, 288.6582
1089.853, 245.3691
1090.953, 204.9355
1092.053, 134.9785
1093.152, 227.3203
1094.252, 202.5586
1095.351, 229.0059
1096.451, 390.0391
1097.550, 363.9629
1098.649, 140.2578
1099.748, 364.2070
1100.846, 144.8301
1101.945, 108.8340
1103.043, 98.22461
1104.141, 60.05859
1105.239, 235.0840
1106.337, 59.87695
1107.434, 319.0137
1108.532, 77.21289
1109.629, 45.59180
1110.726, 82.88477
1111.823, 78.23633
1112.920, 167.9551
1114.017, 155.8613
1115.113, 319.6504
1116.210, 244.0723
1117.306, 223.2715
1118.402, 318.1133
1119.498, 184.3887
1120.593, 501.4609
1121.689, 155.4688
1122.784, 243.9688
1123.879, 149.4492
1124.974, 117.9121
1126.069, 311.3965
1127.164, 225.6973
1128.259, 47.52539
1129.353, 158.9746
1130.447, 236.3867
1131.541, 99.54102
1132.635, 190.4844
1133.729, 93.04883
1134.822, 116.5801
1135.916, 236.1094
1137.009, 59.41016
1138.102, 175.0234
1139.195, 179.1738
1140.288, 43.92383
1141.380, 391.1777
1142.473, 145.9023
1143.565, 101.1836
1144.657, 361.3984
1145.749, 178.7285
1146.841, 174.0059
1147.932, 429.9434
1149.024, 216.4590
1150.115, 91.17383
1151.206, 90.61719
1152.297, 62.09961
1153.388, 295.3789
1154.479, 28.50781
1155.569, 35.87500
1156.659, 63.05469
1157.750, 95.13281
1158.839, 160.3418
1159.929, 142.4551
1161.019, 245.6172
1162.108, 133.9883
1163.198, 100.2949
1164.287, 242.5098
1165.376, 421.6445
1166.465, 84.69727
1167.553, 297.6484
1168.642, 249.5254
1169.730, 255.3418
1170.818, 313.1309
1171.906, 272.8750
1172.994, 311.0996
1174.082, 278.1738
1175.170, 304.7090
1176.257, 204.1094
1177.344, 104.7012
1178.431, 134.2520
1179.518, 176.0957
1180.605, 155.1699
1181.691, 369.2266
1182.778, 423.1836
1183.864, 463.0293
1184.950, 277.7812
1186.036, 200.4453
1187.122, 240.0137
1188.207, 302.5801
1189.292, 164.3613
1190.378, 413.1777
1191.463, 196.5684
1192.548, 194.6875
1193.632, 334.9473
1194.717, 366.1094
1195.801, 184.9863
1196.886, 95.94336
1197.970, 173.4414
1199.054, 471.1582
1200.137, 290.7051
1201.221, 345.3887
1202.305, 432.1289
1203.388, 298.9746
1204.471, 368.5801
1205.554, 435.3457
1206.637, 295.3789
1207.719, 20.48828
1208.802, 342.8145
1209.884, 122.8184
1210.966, 463.5723
1212.048, 205.7070
1213.130, 339.4473
1214.212, 107.9805
1215.293, 179.7754
1216.374, 319.3906
1217.456, 345.4941
1218.536, 328.8809
1219.617, 317.4258
1220.698, 329.0234
1221.778, 125.5938
1222.859, 303.7715
1223.939, 507.2285
1225.019, 177.1895
1226.099, 337.5527
1227.178, 370.0215
1228.258, 131.1562
1229.337, 185.6406
1230.417, 284.7539
1231.496, 116.6445
1232.574, 256.1953
1233.653, 117.0156
1234.732, 395.3086
1235.810, 266.3555
1236.888, 375.8984
1237.966, 320.0352
1239.044, 240.5078
1240.122, 311.5703
1241.199, 370.7305
1242.277, 457.1016
1243.354, 226.7383
1244.431, 456.7617
1245.508, 264.7188
1246.585, 531.8359
1247.661, 431.6875
1248.738, 319.5039
1249.814, 384.2812
1250.890, 58.15234
1251.966, 407.7930
1253.042, 89.84766
1254.117, 71.91797
1255.193, 96.16406
1256.268, 16.16016
1257.343, 43.51562
1258.418, 96.87891
1259.493, 93.73828
1260.567, 147.5508
1261.642, 76.30078
1262.716, 239.0508
1263.790, 198.8125
1264.864, 443.7500
1265.938, 150.4805
1267.011, 418.4570
1268.085, 370.9883
1269.158, 245.3047
1270.231, 95.84375
1271.304, 260.4922
1272.377, 247.1602
1273.450, 66.62109
1274.522, 357.5977
1275.594, 38.48828
1276.666, 247.2852
1277.738, 13.94922
1278.810, 176.5234
1279.882, 169.5273
1280.953, 312.9883
1282.025, 132.0000
1283.096, 1.640625
