##NAMES=Fluorapatite
##RRUFFID=R060421
##IDEAL CHEMISTRY=Ca_5_(PO_4_)_3_F
##LOCALITY=Levant mine, St. Just, Cornwall, England
##OWNER=RRUFF
##SOURCE=Michael Scott
##DESCRIPTION=Brown hexagonal prisms
##STATUS=The identification of this mineral has been confirmed by X-ray diffraction and chemical analysis
##URL=rruff.info/R060421
##MEASURED CHEMISTRY=(Ca_4.93_[box]_0.07_)_Σ=5_((PO_4_)_2.86_(CO_3_)_0.14_)_Σ=3_F_1.00_ ; C not measured but estimated by difference and charge balance
##PIN_ID=M00074
##ORIENTATION=Laser parallel to a* (1 0 0). Fiducial mark perpendicular to laser is parallel to -c [0 0 -1]
124.2880, 0.0000000E+00
125.5190, 46.47095
126.7490, 0.4276120
127.9790, 88.83447
129.2090, 67.37463
130.4390, 50.91980
131.6680, 70.92859
132.8980, 78.28894
134.1270, 63.91309
135.3560, 58.74268
136.5850, 1.040039
137.8140, 74.42773
139.0430, 82.95654
140.2710, 18.57397
141.5000, 34.23364
142.7280, 64.94116
143.9560, 56.79468
145.1840, 84.60718
146.4120, 39.44336
147.6390, 49.94751
148.8670, 34.27661
150.0940, 85.31128
151.3210, 87.21802
152.5490, 58.19434
153.7750, 48.46069
155.0020, 95.90088
156.2290, 56.94702
157.4550, 66.03467
158.6810, 129.1470
159.9080, 63.25635
161.1340, 80.64111
162.3590, 34.81519
163.5850, 25.36768
164.8110, 55.74854
166.0360, 76.87427
167.2610, 80.02051
168.4860, 48.26099
169.7110, 40.96631
170.9360, 11.79492
172.1610, 17.45044
173.3850, 14.34204
174.6100, 48.26147
175.8340, 32.38721
177.0580, 83.54980
178.2820, 56.83105
179.5050, 43.33154
180.7290, 57.14404
181.9520, 44.83179
183.1760, 40.47363
184.3990, 55.49927
185.6220, 31.92822
186.8450, 54.02466
188.0670, 69.68628
189.2900, 56.30054
190.5120, 63.72925
191.7340, 86.70044
192.9560, 80.90112
194.1780, 130.7996
195.4000, 67.41626
196.6220, 52.04761
197.8430, 80.12451
199.0640, 83.07300
200.2860, 79.25977
201.5070, 52.35254
202.7270, 69.88428
203.9480, 154.9722
205.1690, 61.42700
206.3890, 120.6692
207.6090, 98.56274
208.8290, 83.33887
210.0490, 103.1541
211.2690, 79.44849
212.4890, 88.26074
213.7080, 47.69214
214.9280, 107.1738
216.1470, 39.31323
217.3660, 107.5879
218.5850, 31.95728
219.8030, 85.63501
221.0220, 108.1333
222.2400, 41.81152
223.4590, 88.74121
224.6770, 80.92676
225.8950, 143.8489
227.1120, 108.7476
228.3300, 63.32227
229.5480, 71.80005
230.7650, 95.01221
231.9820, 120.0312
233.1990, 102.1643
234.4160, 92.97510
235.6330, 68.88818
236.8490, 96.59375
238.0660, 20.53174
239.2820, 72.21436
240.4980, 90.04883
241.7140, 80.27954
242.9300, 161.9351
244.1460, 126.2468
245.3610, 77.26782
246.5770, 174.6252
247.7920, 107.9470
249.0070, 166.0132
250.2220, 108.3237
251.4370, 92.05884
252.6510, 47.83447
253.8660, 152.8027
255.0800, 95.02637
256.2940, 126.9260
257.5080, 70.66553
258.7220, 87.00220
259.9360, 118.9719
261.1490, 117.1711
262.3630, 117.6499
263.5760, 148.5437
264.7890, 84.00244
266.0020, 91.16138
267.2150, 77.35107
268.4270, 87.68921
269.6400, 55.74878
270.8520, 45.77930
272.0640, 38.55615
273.2760, 70.97949
274.4880, 68.55127
275.7000, 128.1101
276.9120, 144.5215
278.1230, 58.76270
279.3340, 139.9399
280.5450, 129.9829
281.7560, 72.92261
282.9670, 119.8401
284.1780, 68.68140
285.3880, 68.28271
286.5980, 88.75562
287.8090, 67.31421
289.0190, 100.7021
290.2290, 94.53833
291.4380, 26.97388
292.6480, 38.69800
293.8570, 24.39917
295.0670, 25.23120
296.2760, 37.26880
297.4850, 76.07153
298.6930, 57.12061
299.9020, 116.4902
301.1110, 16.59351
302.3190, 57.83398
303.5270, 11.17358
304.7350, 50.21069
305.9430, 72.36353
307.1510, 24.49121
308.3580, 40.70654
309.5660, 25.78052
310.7730, 13.99780
311.9800, 31.84619
313.1870, 70.07544
314.3940, 68.66357
315.6010, 58.34351
316.8070, 98.71558
318.0130, 90.90796
319.2200, 26.22705
320.4260, 72.86572
321.6310, 11.57666
322.8370, 43.17236
324.0430, 157.0105
325.2480, 80.55908
326.4540, 128.4646
327.6590, 40.72998
328.8640, 9.444336
330.0680, 1.575684
331.2730, 104.6743
332.4780, 13.79468
333.6820, 124.9231
334.8860, 71.90137
336.0900, 52.80713
337.2940, 68.52759
338.4980, 79.12695
339.7010, 72.60034
340.9050, 42.96655
342.1080, 74.26929
343.3110, 88.51245
344.5140, 92.36108
345.7170, 40.25659
346.9200, 110.6023
348.1220, 54.10742
349.3240, 49.59082
350.5270, 66.32178
351.7290, 88.22949
352.9310, 61.33301
354.1320, 44.64746
355.3340, 27.33447
356.5350, 125.9160
357.7370, 94.59326
358.9380, 35.02783
360.1390, 39.03662
361.3400, 37.32178
362.5400, 131.6660
363.7410, 100.8081
364.9410, 1.597168
366.1410, 62.82520
367.3410, 66.63867
368.5410, 55.80713
369.7410, 68.49170
370.9400, 60.98486
372.1400, 11.15967
373.3390, 38.51172
374.5380, 71.68457
375.7370, 140.3247
376.9360, 78.99121
378.1350, 73.19287
379.3330, 125.6494
380.5310, 69.37988
381.7300, 67.84521
382.9280, 98.54590
384.1260, 2.348145
385.3230, 78.54492
386.5210, 49.88818
387.7180, 44.42041
388.9160, 99.70410
390.1130, 51.80225
391.3100, 149.1328
392.5060, 179.4644
393.7030, 88.37158
394.9000, 170.1147
396.0960, 47.15820
397.2920, 36.52100
398.4880, 102.8472
399.6840, 123.8438
400.8800, 84.72559
402.0750, 129.2397
403.2710, 157.2686
404.4660, 124.1416
405.6610, 227.7944
406.8560, 115.3042
408.0510, 26.56787
409.2450, 120.5283
410.4400, 131.6973
411.6340, 139.1870
412.8280, 148.6099
414.0220, 145.3188
415.2160, 131.2935
416.4100, 141.4194
417.6030, 164.3535
418.7970, 158.3340
419.9900, 182.3359
421.1830, 213.2002
422.3760, 218.1377
423.5690, 239.3003
424.7610, 252.4194
425.9540, 227.6265
427.1460, 251.6914
428.3380, 296.0283
429.5300, 313.4321
430.7220, 279.8892
431.9140, 306.8403
433.1050, 186.1680
434.2970, 267.9131
435.4880, 185.0059
436.6790, 175.3828
437.8700, 269.6753
439.0610, 156.8950
440.2510, 102.6685
441.4420, 267.3867
442.6320, 175.2935
443.8220, 222.9736
445.0120, 174.0757
446.2020, 134.3491
447.3910, 190.2036
448.5810, 145.8442
449.7700, 135.1562
450.9600, 97.25928
452.1490, 110.6758
453.3370, 72.32764
454.5260, 111.3491
455.7150, 64.26318
456.9030, 160.2515
458.0910, 119.9131
459.2800, 151.4116
460.4670, 180.2314
461.6550, 56.49463
462.8430, 2.954590
464.0300, 64.98828
465.2180, 76.70361
466.4050, 100.9048
467.5920, 3.250000
468.7790, 128.1367
469.9650, 49.41406
471.1520, 125.8911
472.3380, 47.01514
473.5250, 30.45312
474.7110, 118.6514
475.8970, 32.74756
477.0820, 22.92041
478.2680, 21.68408
479.4540, 33.32910
480.6390, 37.38086
481.8240, 35.92236
483.0090, 50.95361
484.1940, 34.34326
485.3780, 5.890625
486.5630, 73.74121
487.7470, 57.71680
488.9320, 128.0693
490.1160, 64.64844
491.3000, 74.79346
492.4830, 25.77295
493.6670, 6.893555
494.8500, 98.50146
496.0340, 5.998047
497.2170, 50.85107
498.4000, 10.06299
499.5820, 104.1182
500.7650, 97.37939
501.9480, 33.90771
503.1300, 60.34131
504.3120, 83.64893
505.4940, 24.41016
506.6760, 1.162598
507.8580, 25.27295
509.0390, 63.16797
510.2210, 29.01270
511.4020, 67.61768
512.5830, 117.1860
513.7640, 29.05029
514.9450, 19.66992
516.1250, 57.32324
517.3060, 49.27832
518.4860, 50.10107
519.6660, 41.66553
520.8460, 20.70410
522.0260, 55.23682
523.2060, 111.7217
524.3850, 7.971191
525.5650, 24.70312
526.7440, 23.04248
527.9230, 36.18701
529.1020, 25.98828
530.2810, 35.44141
531.4590, 19.10840
532.6380, 11.39600
533.8160, 105.7046
534.9940, 35.87744
536.1720, 20.96973
537.3500, 108.3594
538.5270, 8.958008
539.7050, 16.64258
540.8820, 47.06641
542.0590, 69.75684
543.2360, 74.17773
544.4130, 58.31934
545.5900, 71.76660
546.7660, 30.40820
547.9430, 33.90820
549.1190, 77.30664
550.2950, 57.50684
551.4710, 20.24219
552.6470, 108.9150
553.8220, 108.5234
554.9980, 16.07129
556.1730, 118.4990
557.3480, 41.76953
558.5230, 109.9785
559.6980, 55.18359
560.8730, 81.26367
562.0470, 102.3447
563.2220, 36.45703
564.3960, 154.4912
565.5700, 181.5215
566.7440, 75.59277
567.9170, 128.4736
569.0910, 223.2627
570.2640, 179.1504
571.4380, 159.0166
572.6110, 230.6543
573.7840, 146.3174
574.9570, 250.4424
576.1290, 71.80566
577.3020, 225.8857
578.4740, 202.7139
579.6460, 192.9102
580.8180, 282.5947
581.9900, 304.8672
583.1620, 212.7549
584.3330, 297.0586
585.5040, 306.7295
586.6760, 278.1367
587.8470, 297.0137
589.0180, 363.0391
590.1880, 288.8877
591.3590, 313.5186
592.5290, 318.1904
593.7000, 217.2744
594.8700, 321.3516
596.0400, 339.5498
597.2090, 329.3965
598.3790, 377.1211
599.5490, 376.1201
600.7180, 310.3789
601.8870, 406.4746
603.0560, 264.8711
604.2250, 379.6875
605.3940, 186.0029
606.5620, 284.3438
607.7300, 431.7490
608.8990, 432.0264
610.0670, 222.3994
611.2350, 295.2383
612.4020, 303.6396
613.5700, 460.3438
614.7370, 335.1572
615.9050, 371.1670
617.0720, 428.9971
618.2390, 304.2617
619.4060, 282.7783
620.5720, 449.9980
621.7390, 272.1826
622.9050, 357.3018
624.0710, 211.4756
625.2370, 361.4980
626.4030, 373.8926
627.5690, 266.4141
628.7340, 333.7588
629.9000, 392.4307
631.0650, 249.7529
632.2300, 327.1562
633.3950, 279.6738
634.5600, 393.2354
635.7240, 364.0010
636.8890, 475.5566
638.0530, 371.3955
639.2170, 427.6797
640.3810, 314.8574
641.5450, 532.8857
642.7080, 418.6279
643.8720, 518.5244
645.0350, 315.1201
646.1980, 336.9561
647.3610, 355.6748
648.5240, 263.9668
649.6870, 560.7324
650.8490, 459.1924
652.0120, 394.6699
653.1740, 305.3779
654.3360, 475.5195
655.4980, 427.7871
656.6600, 396.9912
657.8210, 485.1816
658.9830, 414.6543
660.1440, 393.3877
661.3050, 320.5615
662.4660, 346.5312
663.6270, 442.8418
664.7870, 359.0459
665.9480, 387.6221
667.1080, 296.8252
668.2680, 326.5430
669.4280, 487.3477
670.5880, 394.4141
671.7480, 439.5518
672.9070, 311.2900
674.0670, 406.2607
675.2260, 499.4980
676.3850, 350.1201
677.5440, 491.9209
678.7030, 461.3750
679.8610, 368.6865
681.0200, 410.2900
682.1780, 370.8740
683.3360, 495.3047
684.4940, 343.1494
685.6520, 524.5078
686.8090, 373.5605
687.9670, 244.8184
689.1240, 387.6445
690.2810, 555.4980
691.4380, 427.0459
692.5950, 436.1660
693.7520, 390.9541
694.9080, 445.5156
696.0650, 449.3945
697.2210, 418.7842
698.3770, 470.8740
699.5330, 425.8867
700.6880, 450.9102
701.8440, 416.5029
702.9990, 366.3623
704.1550, 391.4541
705.3100, 341.4805
706.4650, 339.0107
707.6190, 553.5967
708.7740, 378.7949
709.9290, 490.3311
711.0830, 445.7822
712.2370, 418.4160
713.3910, 348.9795
714.5450, 351.6523
715.6980, 313.5166
716.8520, 342.7090
718.0050, 327.3242
719.1580, 315.6113
720.3110, 338.4453
721.4640, 335.4414
722.6170, 361.6602
723.7700, 301.7695
724.9220, 295.1201
726.0740, 424.3350
727.2260, 530.5625
728.3780, 345.7002
729.5300, 480.9141
730.6810, 414.6963
731.8330, 484.9775
732.9840, 514.0762
734.1350, 522.6943
735.2860, 382.1152
736.4370, 254.0469
737.5880, 591.3301
738.7380, 320.8047
739.8880, 378.8076
741.0390, 586.8320
742.1890, 274.9668
743.3380, 659.5771
744.4880, 420.3623
745.6380, 437.1279
746.7870, 276.8496
747.9360, 445.2197
749.0850, 395.5059
750.2340, 335.7422
751.3830, 408.2148
752.5310, 307.4697
753.6800, 442.0898
754.8280, 345.0059
755.9760, 430.1270
757.1240, 308.3926
758.2720, 391.4180
759.4190, 422.0332
760.5670, 501.0566
761.7140, 529.4824
762.8610, 536.8613
764.0080, 310.7617
765.1550, 335.9336
766.3020, 334.8359
767.4480, 333.4551
768.5950, 363.9434
769.7410, 316.7910
770.8870, 497.6504
772.0330, 347.6426
773.1780, 215.0957
774.3240, 496.1504
775.4690, 388.9004
776.6140, 459.1055
777.7590, 345.1680
778.9040, 361.2598
780.0490, 325.5840
781.1940, 335.3867
782.3380, 432.9180
783.4820, 323.3848
784.6260, 452.9043
785.7700, 421.7480
786.9140, 310.3906
788.0580, 302.0723
789.2010, 367.8125
790.3450, 371.0625
791.4880, 381.6641
792.6310, 309.3008
793.7730, 419.0293
794.9160, 302.0820
796.0590, 219.3770
797.2010, 215.1113
798.3430, 570.0898
799.4850, 339.7285
800.6270, 440.1758
801.7690, 467.2695
802.9100, 294.2695
804.0520, 405.9277
805.1930, 365.4141
806.3340, 318.2129
807.4750, 262.4688
808.6160, 437.6172
809.7560, 265.0137
810.8970, 369.8418
812.0370, 165.9668
813.1770, 269.1328
814.3170, 125.7793
815.4570, 257.5254
816.5960, 363.8906
817.7360, 270.1816
818.8750, 292.3926
820.0140, 318.5215
821.1530, 310.5703
822.2920, 215.4707
823.4310, 297.3906
824.5690, 487.2324
825.7070, 155.5176
826.8460, 352.1992
827.9840, 341.7988
829.1220, 115.3223
830.2590, 147.7559
831.3970, 288.1016
832.5340, 334.3672
833.6710, 352.5508
834.8080, 246.6543
835.9450, 195.6797
837.0820, 204.6152
838.2190, 117.4688
839.3550, 159.2305
840.4910, 83.37305
841.6270, 252.9551
842.7630, 250.5332
843.8990, 274.8516
845.0350, 78.72656
846.1700, 307.9609
847.3060, 35.10938
848.4410, 115.1582
849.5760, 222.2285
850.7100, 319.2734
851.8450, 325.0430
852.9800, 284.5371
854.1140, 222.6172
855.2480, 275.0352
856.3820, 352.6777
857.5160, 301.9336
858.6500, 270.0879
859.7830, 156.1836
860.9170, 311.0391
862.0500, 10.08984
863.1830, 314.9004
864.3160, 181.8066
865.4480, 303.9316
866.5810, 184.5781
867.7130, 299.4043
868.8460, 226.9043
869.9780, 431.4102
871.1100, 252.9570
872.2410, 161.9746
873.3730, 303.5762
874.5050, 125.3359
875.6360, 280.0215
876.7670, 167.3887
877.8980, 195.0859
879.0290, 191.4609
880.1590, 187.6348
881.2900, 250.0488
882.4200, 175.3711
883.5500, 214.0645
884.6800, 262.1914
885.8100, 18.33789
886.9400, 39.38867
888.0690, 62.16797
889.1990, 71.52734
890.3280, 112.0840
891.4570, 31.45703
892.5860, 85.35938
893.7140, 87.23633
894.8430, 271.3477
895.9710, 1.416016
897.1000, 217.4668
898.2280, 156.7441
899.3560, 93.83203
900.4830, 244.8945
901.6110, 35.96680
902.7380, 50.90625
903.8660, 29.71680
904.9930, 169.5195
906.1200, 115.0293
907.2460, 24.85156
908.3730, 148.2539
909.5000, 6.001953
910.6260, 118.4766
911.7520, 48.70117
912.8780, 155.0410
914.0040, 73.61133
915.1290, 34.78125
916.2550, 151.5000
917.3800, 6.728516
918.5050, 82.22266
919.6300, 80.15039
920.7550, 222.5098
921.8800, 168.6543
923.0040, 256.2441
924.1290, 6.289063
925.2530, 127.6914
926.3770, 49.67578
927.5010, 185.9746
928.6250, 13.11719
929.7480, 3.898438
930.8720, 6.685547
931.9950, 39.79102
933.1180, 29.76172
934.2410, 59.82227
935.3640, 66.00195
936.4860, 146.5898
937.6090, 76.20703
938.7310, 208.0000
939.8530, 77.18359
940.9750, 5.902344
942.0970, 90.68359
943.2180, 237.9434
944.3400, 155.8574
945.4610, 207.6387
946.5820, 179.4434
947.7030, 144.9844
948.8240, 228.8750
949.9450, 193.9727
951.0650, 276.6270
952.1860, 506.7305
953.3060, 397.3262
954.4260, 528.9453
955.5460, 516.5996
956.6650, 594.1523
957.7850, 683.2324
958.9040, 857.3887
960.0230, 1202.635
961.1420, 1308.248
962.2610, 1626.623
963.3800, 1879.887
964.4990, 1790.951
965.6170, 1235.219
966.7350, 1209.053
967.8530, 898.0137
968.9710, 566.9844
970.0890, 653.4473
971.2070, 476.6289
972.3240, 195.7852
973.4410, 208.3340
974.5580, 28.83203
975.6750, 254.1660
976.7920, 91.21484
977.9090, 300.1914
979.0250, 43.20898
980.1410, 117.8848
981.2580, 273.9121
982.3740, 127.8184
983.4890, 64.71680
984.6050, 46.20898
985.7200, 71.04688
986.8360, 83.14648
987.9510, 4.345703
989.0660, 171.5039
990.1810, 13.17578
991.2950, 86.38867
992.4100, 168.6836
993.5240, 58.20508
994.6390, 39.23047
995.7530, 83.65625
996.8660, 6.328125
997.9800, 178.7344
999.0940, 14.39844
1000.207, 34.03125
1001.320, 90.91602
1002.433, 28.51758
1003.546, 22.59961
1004.659, 78.50977
1005.772, 89.47852
1006.884, 146.8652
1007.996, 57.05469
1009.108, 115.7031
1010.220, 55.45312
1011.332, 168.6504
1012.444, 30.05664
1013.555, 20.86523
1014.666, 100.2266
1015.777, 166.6465
1016.888, 47.43164
1017.999, 68.72656
1019.110, 19.94727
1020.220, 172.6230
1021.331, 104.8926
1022.441, 284.7441
1023.551, 52.79883
1024.661, 117.3945
1025.770, 89.72656
1026.880, 15.76758
1027.989, 211.1758
1029.098, 2.089844
1030.207, 163.8613
1031.316, 267.4922
1032.425, 111.4590
1033.533, 325.4414
1034.642, 84.11914
1035.750, 212.5176
1036.858, 20.38672
1037.966, 87.53320
1039.073, 258.6719
1040.181, 343.0254
1041.288, 268.9590
1042.396, 183.8145
1043.503, 376.8535
1044.610, 403.2617
1045.716, 394.0410
1046.823, 219.9727
1047.929, 353.4551
1049.036, 290.7344
1050.142, 405.8613
1051.248, 315.9590
1052.353, 336.7129
1053.459, 348.4297
1054.564, 464.8164
1055.670, 184.9512
1056.775, 352.4805
1057.880, 246.8750
1058.985, 226.6719
1060.089, 225.6914
1061.194, 263.9414
1062.298, 151.0137
1063.402, 243.6973
1064.506, 165.0664
1065.610, 87.92969
1066.713, 220.4609
1067.817, 340.0312
1068.920, 253.8203
1070.023, 372.1250
1071.126, 194.1289
1072.229, 413.5938
1073.332, 548.8438
1074.435, 505.8242
1075.537, 244.4609
1076.639, 238.1250
1077.741, 207.4688
1078.843, 12.05078
1079.945, 475.5391
1081.046, 358.9102
1082.148, 336.6562
1083.249, 289.2891
1084.350, 5.226563
1085.451, 411.1680
1086.551, 311.1172
1087.652, 112.0742
1088.752, 381.0391
1089.853, 21.00781
1090.953, 327.9922
1092.053, 290.9805
1093.152, 532.9805
1094.252, 110.9883
1095.351, 347.0078
1096.451, 246.0352
1097.550, 88.08203
1098.649, 512.1445
1099.748, 337.2188
1100.846, 397.3086
1101.945, 410.4141
1103.043, 477.5312
1104.141, 579.6680
1105.239, 574.8203
1106.337, 494.9961
1107.434, 543.7305
1108.532, 310.9492
1109.629, 386.0273
1110.726, 313.2852
1111.823, 602.0195
1112.920, 418.3320
1114.017, 424.6680
1115.113, 578.0547
1116.210, 356.3516
1117.306, 412.5508
1118.402, 290.9766
1119.498, 631.4609
1120.593, 396.4219
1121.689, 678.9648
1122.784, 681.0977
1123.879, 473.6953
1124.974, 790.3203
1126.069, 744.0547
1127.164, 732.7227
1128.259, 626.1055
1129.353, 619.9570
1130.447, 923.6562
1131.541, 552.9922
1132.635, 813.8438
1133.729, 720.4531
1134.822, 716.3398
1135.916, 907.1641
1137.009, 583.9023
1138.102, 575.1133
1139.195, 919.2070
1140.288, 339.5664
1141.380, 529.7617
1142.473, 571.4258
1143.565, 504.7070
1144.657, 660.8867
1145.749, 753.6172
1146.841, 712.0547
1147.932, 929.5391
1149.024, 700.3867
1150.115, 792.9648
1151.206, 892.1602
1152.297, 552.8594
1153.388, 728.6172
1154.479, 723.4336
1155.569, 609.3125
1156.659, 693.1602
1157.750, 622.9062
1158.839, 741.9805
1159.929, 780.0898
1161.019, 756.0391
1162.108, 867.2734
1163.198, 682.5703
1164.287, 799.9805
1165.376, 778.5898
1166.465, 845.0156
1167.553, 826.6328
1168.642, 792.3477
1169.730, 862.1250
1170.818, 981.9648
1171.906, 784.8711
1172.994, 1009.848
1174.082, 1076.887
1175.170, 962.0039
1176.257, 861.1797
1177.344, 867.3008
1178.431, 936.7930
1179.518, 759.2344
1180.605, 804.7656
1181.691, 671.3594
1182.778, 588.0352
1183.864, 924.7734
1184.950, 825.5820
1186.036, 1030.453
1187.122, 900.7305
1188.207, 728.7305
1189.292, 683.8164
1190.378, 1059.023
1191.463, 1064.301
1192.548, 1129.645
1193.632, 1147.070
1194.717, 1003.586
1195.801, 721.1875
1196.886, 867.8633
1197.970, 787.6211
1199.054, 834.4531
1200.137, 896.3594
1201.221, 868.3281
1202.305, 776.3711
1203.388, 955.4805
1204.471, 724.6602
1205.554, 812.9336
1206.637, 1103.273
1207.719, 1047.688
1208.802, 1115.016
1209.884, 820.7148
1210.966, 1045.336
1212.048, 948.0273
1213.130, 849.7852
1214.212, 1007.605
1215.293, 765.5000
1216.374, 633.4648
1217.456, 784.4961
1218.536, 689.5938
1219.617, 959.7656
1220.698, 658.0039
1221.778, 820.3086
1222.859, 802.6914
1223.939, 794.1406
1225.019, 886.4648
1226.099, 850.2539
1227.178, 881.9141
1228.258, 864.6484
1229.337, 634.4531
1230.417, 626.3320
1231.496, 702.2812
1232.574, 913.3008
1233.653, 478.3984
1234.732, 929.5664
1235.810, 721.8086
1236.888, 684.1211
1237.966, 686.5273
1239.044, 631.0078
1240.122, 782.5625
1241.199, 853.1914
1242.277, 786.8984
1243.354, 733.5273
1244.431, 586.8828
1245.508, 529.8125
1246.585, 556.2773
1247.661, 675.8984
1248.738, 579.0625
1249.814, 753.3320
1250.890, 603.4648
1251.966, 452.8984
1253.042, 570.4141
1254.117, 547.0000
1255.193, 558.6641
1256.268, 598.2812
1257.343, 606.2734
1258.418, 616.1680
1259.493, 567.1953
1260.567, 548.3477
1261.642, 457.5859
1262.716, 368.8945
1263.790, 567.3086
1264.864, 395.7969
1265.938, 640.3867
1267.011, 484.0781
1268.085, 628.8672
1269.158, 439.7344
1270.231, 294.4844
1271.304, 435.5234
1272.377, 239.6602
1273.450, 218.9961
1274.522, 445.2969
1275.594, 248.6836
1276.666, 214.1484
1277.738, 22.30859
1278.810, 122.3242
1279.882, 197.0312
1280.953, 86.82031
1282.025, 26.69531
1283.096, 162.6445
1284.167, 246.6680
1285.238, 291.7695
1286.308, 34.01562
1287.379, 308.2891
1288.449, 329.6719
1289.519, 560.1406
1290.589, 231.6953
1291.659, 278.3320
1292.729, 208.0508
1293.798, 179.5820
1294.868, 396.4805
1295.937, 320.4570
1297.006, 67.55469
