##NAMES=Fluorapatite
##RRUFFID=R050274
##IDEAL CHEMISTRY=Ca_5_(PO_4_)_3_F
##LOCALITY=Minas Gerais, Brazil
##OWNER=RRUFF
##SOURCE=Marcus Origlieri
##DESCRIPTION=Aggregate of blue crystal fragments separated by veins of quartz
##STATUS=The identification of this mineral has been confirmed by X-ray diffraction and chemical analysis
##URL=rruff.info/R050274
##MEASURED CHEMISTRY=Ca_5.00_((P_0.97_Si_0.02_S_0.01_)O_4_)_3_(F_0.90_Cl_0.10_)
##PIN_ID=L00850
##ORIENTATION=Laser parallel to c* (0 0 1). Fiducial mark perpendicular to laser is parallel to b [0 1 0]
110.7440, 0.0000000E+00
111.9760, 27.48340
113.2080, 1.591309
114.4400, 54.47424
115.6710, 31.83215
116.9030, 55.89880
118.1340, 44.27942
119.3650, 70.70276
120.5960, 44.98340
121.8270, 73.97144
123.0580, 113.5486
124.2880, 129.6282
125.5190, 100.1504
126.7490, 135.0559
127.9790, 141.2964
129.2090, 288.8896
130.4390, 308.7349
131.6680, 308.8113
132.8980, 360.0830
134.1270, 347.5330
135.3560, 532.1582
136.5850, 492.9460
137.8140, 501.9031
139.0430, 500.0486
140.2710, 410.2993
141.5000, 429.6541
142.7280, 401.1094
143.9560, 308.6641
145.1840, 362.3242
146.4120, 328.8323
147.6390, 328.6228
148.8670, 344.4746
150.0940, 338.3789
151.3210, 350.4512
152.5490, 394.4326
153.7750, 402.4536
155.0020, 328.5474
156.2290, 290.6892
157.4550, 358.8743
158.6810, 277.0942
159.9080, 263.8975
161.1340, 265.1250
162.3590, 154.7573
163.5850, 237.5957
164.8110, 192.3950
166.0360, 152.2029
167.2610, 65.67847
168.4860, 107.2043
169.7110, 129.7490
170.9360, 112.4185
172.1610, 56.12866
173.3850, 69.89404
174.6100, 89.66724
175.8340, 52.44995
177.0580, 109.6055
178.2820, 70.77393
179.5050, 40.67261
180.7290, 15.40479
181.9520, 55.60547
183.1760, 9.433594
184.3990, 38.23096
185.6220, 47.00903
186.8450, 15.78174
188.0670, 10.52466
189.2900, 37.23950
190.5120, 2.076660
191.7340, 18.57666
192.9560, 39.19336
194.1780, 43.76172
195.4000, 64.39331
196.6220, 65.11011
197.8430, 54.98242
199.0640, 57.32520
200.2860, 59.34766
201.5070, 33.06909
202.7270, 51.01807
203.9480, 88.28467
205.1690, 52.06226
206.3890, 34.96851
207.6090, 5.244873
208.8290, 91.95728
210.0490, 48.19922
211.2690, 54.60669
212.4890, 14.80249
213.7080, 33.13135
214.9280, 119.3425
216.1470, 0.6933590
217.3660, 62.54761
218.5850, 11.58057
219.8030, 16.51099
221.0220, 58.00024
222.2400, 87.57495
223.4590, 68.05322
224.6770, 74.10718
225.8950, 130.1738
227.1120, 97.01489
228.3300, 109.2603
229.5480, 95.70728
230.7650, 100.8206
231.9820, 113.5757
233.1990, 106.1199
234.4160, 140.4172
235.6330, 114.5793
236.8490, 104.5544
238.0660, 124.3801
239.2820, 133.2754
240.4980, 129.7393
241.7140, 62.15820
242.9300, 117.9019
244.1460, 145.6326
245.3610, 68.73315
246.5770, 99.20801
247.7920, 157.6062
249.0070, 100.4729
250.2220, 143.0950
251.4370, 120.7966
252.6510, 106.7896
253.8660, 162.7153
255.0800, 179.9656
256.2940, 188.5903
257.5080, 292.8452
258.7220, 321.3318
259.9360, 258.2104
261.1490, 288.6255
262.3630, 396.5679
263.5760, 309.6199
264.7890, 443.1099
266.0020, 286.1125
267.2150, 320.1599
268.4270, 298.7598
269.6400, 327.5459
270.8520, 288.1853
272.0640, 194.9016
273.2760, 247.3750
274.4880, 298.5247
275.7000, 202.5784
276.9120, 199.2756
278.1230, 161.9373
279.3340, 159.4788
280.5450, 138.0750
281.7560, 128.0327
282.9670, 72.06055
284.1780, 114.1533
285.3880, 109.3818
286.5980, 103.3884
287.8090, 138.3486
289.0190, 116.2622
290.2290, 165.1274
291.4380, 129.9448
292.6480, 81.70923
293.8570, 155.4229
295.0670, 127.0859
296.2760, 96.69751
297.4850, 129.2556
298.6930, 143.7612
299.9020, 126.2131
301.1110, 121.6113
302.3190, 129.9543
303.5270, 130.9702
304.7350, 178.4739
305.9430, 170.6475
307.1510, 141.7649
308.3580, 196.8235
309.5660, 133.8247
310.7730, 172.7659
311.9800, 76.64307
313.1870, 92.45874
314.3940, 25.21313
315.6010, 112.2085
316.8070, 14.97021
318.0130, 133.2849
319.2200, 38.26929
320.4260, 144.6550
321.6310, 50.13330
322.8370, 78.39648
324.0430, 37.17480
325.2480, 96.10547
326.4540, 2.948730
327.6590, 18.19238
328.8640, 9.375000
330.0680, 38.60400
331.2730, 18.89404
332.4780, 8.983887
333.6820, 25.11768
334.8860, 27.95654
336.0900, 29.96143
337.2940, 69.77539
338.4980, 31.33057
339.7010, 56.88184
340.9050, 77.23340
342.1080, 44.97119
343.3110, 11.81934
344.5140, 28.54150
345.7170, 24.39062
346.9200, 56.29248
348.1220, 111.8784
349.3240, 19.88623
350.5270, 74.06250
351.7290, 17.18506
352.9310, 9.495605
354.1320, 14.71484
355.3340, 4.633789
356.5350, 3.291016
357.7370, 12.31787
358.9380, 29.46631
360.1390, 23.30078
361.3400, 41.41406
362.5400, 44.20801
363.7410, 45.71680
364.9410, 47.90771
366.1410, 37.68701
367.3410, 36.99951
368.5410, 4.758301
369.7410, 62.47412
370.9400, 1.611328
372.1400, 96.87207
373.3390, 2.667969
374.5380, 123.0200
375.7370, 11.81299
376.9360, 42.50342
378.1350, 15.24316
379.3330, 102.8535
380.5310, 34.86816
381.7300, 39.38770
382.9280, 105.6167
384.1260, 24.09375
385.3230, 80.24072
386.5210, 19.11914
387.7180, 153.5913
388.9160, 14.48779
390.1130, 106.4087
391.3100, 5.219238
392.5060, 103.7012
393.7030, 105.3486
394.9000, 69.31982
396.0960, 69.41602
397.2920, 47.15918
398.4880, 82.02734
399.6840, 116.3086
400.8800, 44.45312
402.0750, 143.4678
403.2710, 7.608887
404.4660, 28.26318
405.6610, 76.23828
406.8560, 65.05762
408.0510, 177.9805
409.2450, 72.91943
410.4400, 67.58057
411.6340, 153.5015
412.8280, 107.0415
414.0220, 139.1426
415.2160, 117.6484
416.4100, 171.2837
417.6030, 244.7358
418.7970, 262.5029
419.9900, 342.2876
421.1830, 345.1411
422.3760, 367.6069
423.5690, 347.9697
424.7610, 279.8618
425.9540, 447.0195
427.1460, 480.6934
428.3380, 402.3818
429.5300, 568.0713
430.7220, 561.1558
431.9140, 513.2856
433.1050, 727.2217
434.2970, 682.2632
435.4880, 727.0547
436.6790, 880.5439
437.8700, 825.2407
439.0610, 981.7212
440.2510, 1035.972
441.4420, 1042.256
442.6320, 1048.500
443.8220, 1162.569
445.0120, 935.5205
446.2020, 969.4028
447.3910, 994.1895
448.5810, 861.0752
449.7700, 825.8242
450.9600, 828.3511
452.1490, 611.5376
453.3370, 643.9561
454.5260, 574.4844
455.7150, 549.3301
456.9030, 477.1387
458.0910, 397.5635
459.2800, 439.2466
460.4670, 292.4204
461.6550, 356.9785
462.8430, 246.0322
464.0300, 209.4209
465.2180, 245.3018
466.4050, 190.1890
467.5920, 206.1919
468.7790, 225.4053
469.9650, 207.4971
471.1520, 181.6831
472.3380, 154.7192
473.5250, 123.7632
474.7110, 155.6099
475.8970, 128.5029
477.0820, 161.9419
478.2680, 135.8599
479.4540, 152.6294
480.6390, 198.2588
481.8240, 60.89844
483.0090, 134.6084
484.1940, 105.2510
485.3780, 80.03027
486.5630, 86.25293
487.7470, 62.40771
488.9320, 136.9912
490.1160, 147.7700
491.3000, 115.2119
492.4830, 164.0771
493.6670, 105.2686
494.8500, 44.72314
496.0340, 19.06299
497.2170, 40.94678
498.4000, 36.46533
499.5820, 69.67920
500.7650, 63.06738
501.9480, 67.40283
503.1300, 16.73779
504.3120, 68.01172
505.4940, 74.29346
506.6760, 42.68652
507.8580, 26.34961
509.0390, 4.183594
510.2210, 152.8174
511.4020, 141.9834
512.5830, 55.64160
513.7640, 49.62695
514.9450, 22.54492
516.1250, 72.85938
517.3060, 49.12451
518.4860, 50.00732
519.6660, 50.43701
520.8460, 35.85156
522.0260, 105.4336
523.2060, 26.09863
524.3850, 81.00488
525.5650, 102.5781
526.7440, 34.93652
527.9230, 36.47070
529.1020, 98.84180
530.2810, 5.483887
531.4590, 147.3735
532.6380, 60.11816
533.8160, 131.9443
534.9940, 7.572266
536.1720, 76.22266
537.3500, 47.73535
538.5270, 18.49902
539.7050, 51.14844
540.8820, 143.7773
542.0590, 13.08594
543.2360, 161.7822
544.4130, 13.20508
545.5900, 145.1865
546.7660, 95.40039
547.9430, 109.3857
549.1190, 65.41211
550.2950, 52.19531
551.4710, 78.24902
552.6470, 11.28418
553.8220, 63.71191
554.9980, 140.7344
556.1730, 43.36914
557.3480, 205.1270
558.5230, 25.97070
559.6980, 128.0498
560.8730, 101.0732
562.0470, 62.86719
563.2220, 126.7510
564.3960, 124.2480
565.5700, 190.3047
566.7440, 330.3594
567.9170, 366.0693
569.0910, 380.4043
570.2640, 350.8027
571.4380, 499.9570
572.6110, 534.1582
573.7840, 866.9189
574.9570, 1047.272
576.1290, 1167.805
577.3020, 1245.632
578.4740, 1424.501
579.6460, 1389.973
580.8180, 1172.317
581.9900, 938.4639
583.1620, 936.9531
584.3330, 666.4941
585.5040, 671.3408
586.6760, 603.1953
587.8470, 649.8652
589.0180, 495.2676
590.1880, 490.9932
591.3590, 605.8447
592.5290, 330.1562
593.7000, 425.5811
594.8700, 413.2715
596.0400, 531.8291
597.2090, 572.2451
598.3790, 511.5791
599.5490, 666.5469
600.7180, 710.8867
601.8870, 702.9521
603.0560, 788.4570
604.2250, 890.8271
605.3940, 1012.441
606.5620, 991.2725
607.7300, 754.4902
608.8990, 794.8223
610.0670, 709.5957
611.2350, 756.9697
612.4020, 658.0713
613.5700, 616.0957
614.7370, 710.1602
615.9050, 510.9141
617.0720, 494.7383
618.2390, 577.6201
619.4060, 365.4912
620.5720, 411.3877
621.7390, 343.4600
622.9050, 323.5410
624.0710, 331.6250
625.2370, 239.1025
626.4030, 305.7334
627.5690, 314.7432
628.7340, 179.0391
629.9000, 218.2119
631.0650, 244.8887
632.2300, 204.1689
633.3950, 212.4346
634.5600, 300.5264
635.7240, 151.6084
636.8890, 189.3340
638.0530, 279.8613
639.2170, 221.8340
640.3810, 299.5146
641.5450, 314.2617
642.7080, 305.4902
643.8720, 328.8203
645.0350, 269.2432
646.1980, 310.8975
647.3610, 266.8535
648.5240, 265.5146
649.6870, 278.7773
650.8490, 256.6914
652.0120, 256.5947
653.1740, 257.6035
654.3360, 355.3594
655.4980, 390.1182
656.6600, 272.1543
657.8210, 420.2646
658.9830, 287.9004
660.1440, 236.4980
661.3050, 285.6611
662.4660, 141.3193
663.6270, 304.6602
664.7870, 218.7246
665.9480, 229.3652
667.1080, 321.6396
668.2680, 168.7939
669.4280, 306.7383
670.5880, 260.0996
671.7480, 185.1377
672.9070, 350.8818
674.0670, 157.4912
675.2260, 125.5039
676.3850, 322.7725
677.5440, 234.8555
678.7030, 182.8135
679.8610, 230.2822
681.0200, 119.4434
682.1780, 277.1562
683.3360, 117.7314
684.4940, 100.7051
685.6520, 292.2549
686.8090, 201.3135
687.9670, 142.8760
689.1240, 72.10645
690.2810, 98.02930
691.4380, 201.2803
692.5950, 152.1006
693.7520, 312.7686
694.9080, 173.8652
696.0650, 97.44824
697.2210, 106.6699
698.3770, 97.88086
699.5330, 103.9219
700.6880, 213.1543
701.8440, 169.6338
702.9990, 259.7334
704.1550, 320.6289
705.3100, 236.1035
706.4650, 219.8838
707.6190, 289.1582
708.7740, 209.4277
709.9290, 288.6270
711.0830, 269.1416
712.2370, 354.4727
713.3910, 193.0107
714.5450, 413.5215
715.6980, 278.9326
716.8520, 249.1348
718.0050, 84.54688
719.1580, 334.6465
720.3110, 379.6689
721.4640, 270.5557
722.6170, 238.0410
723.7700, 145.4834
724.9220, 363.3965
726.0740, 149.4961
727.2260, 193.8672
728.3780, 336.2939
729.5300, 286.6006
730.6810, 156.1719
731.8330, 347.6748
732.9840, 264.9893
734.1350, 277.2812
735.2860, 309.2109
736.4370, 276.0469
737.5880, 288.5254
738.7380, 220.8154
739.8880, 359.9590
741.0390, 299.6602
742.1890, 203.4131
743.3380, 336.3740
744.4880, 300.8682
745.6380, 457.3125
746.7870, 346.5752
747.9360, 240.8018
749.0850, 300.0342
750.2340, 320.2422
751.3830, 293.6396
752.5310, 235.0557
753.6800, 322.0195
754.8280, 259.9082
755.9760, 279.5498
757.1240, 244.2080
758.2720, 257.8291
759.4190, 250.8105
760.5670, 304.4707
761.7140, 395.4072
762.8610, 252.3779
764.0080, 394.3887
765.1550, 297.4219
766.3020, 499.2891
767.4480, 286.5547
768.5950, 441.6387
769.7410, 211.4473
770.8870, 256.7832
772.0330, 219.8027
773.1780, 332.1074
774.3240, 315.4551
775.4690, 253.7656
776.6140, 287.7734
777.7590, 235.3301
778.9040, 308.3574
780.0490, 243.5234
781.1940, 144.2070
782.3380, 195.4824
783.4820, 344.2246
784.6260, 253.0781
785.7700, 203.3438
786.9140, 371.7441
788.0580, 332.0098
789.2010, 258.9883
790.3450, 358.0840
791.4880, 351.5059
792.6310, 322.9375
793.7730, 284.1992
794.9160, 261.1367
796.0590, 361.7188
797.2010, 319.2266
798.3430, 427.2773
799.4850, 398.8281
800.6270, 313.6660
801.7690, 171.1270
802.9100, 412.6426
804.0520, 299.7637
805.1930, 315.1992
806.3340, 219.9355
807.4750, 212.3555
808.6160, 216.1582
809.7560, 161.7578
810.8970, 272.9785
812.0370, 187.3203
813.1770, 261.4570
814.3170, 233.3535
815.4570, 287.8125
816.5960, 115.0000
817.7360, 289.3145
818.8750, 150.0977
820.0140, 428.4766
821.1530, 300.1270
822.2920, 132.6504
823.4310, 184.9004
824.5690, 300.6973
825.7070, 315.1836
826.8460, 344.3047
827.9840, 291.6816
829.1220, 291.9980
830.2590, 140.2676
831.3970, 103.1367
832.5340, 88.34766
833.6710, 103.1680
834.8080, 108.9492
835.9450, 174.6230
837.0820, 280.2480
838.2190, 67.26172
839.3550, 205.0176
840.4910, 234.0820
841.6270, 53.67188
842.7630, 196.0996
843.8990, 95.72656
845.0350, 333.5684
846.1700, 303.0020
847.3060, 88.30273
848.4410, 112.1562
849.5760, 51.89258
850.7100, 273.0625
851.8450, 50.02930
852.9800, 75.74609
854.1140, 251.9453
855.2480, 68.77539
856.3820, 70.56445
857.5160, 90.47656
858.6500, 168.9219
859.7830, 162.4688
860.9170, 50.00781
862.0500, 19.53516
863.1830, 129.8828
864.3160, 98.42188
865.4480, 110.2773
866.5810, 269.0078
867.7130, 140.1406
868.8460, 46.47852
869.9780, 34.67969
871.1100, 112.5547
872.2410, 117.8066
873.3730, 185.5488
874.5050, 213.2656
875.6360, 31.06641
876.7670, 80.92773
877.8980, 3.732422
879.0290, 55.69727
880.1590, 82.28125
881.2900, 77.59180
882.4200, 105.1152
883.5500, 97.37891
884.6800, 80.08594
885.8100, 71.43750
886.9400, 40.91797
888.0690, 30.66602
889.1990, 78.06836
890.3280, 79.75391
891.4570, 139.9004
892.5860, 13.66992
893.7140, 162.6895
894.8430, 54.86523
895.9710, 71.20312
897.1000, 84.53906
898.2280, 72.58594
899.3560, 7.041016
900.4830, 35.83398
901.6110, 52.22461
902.7380, 18.02734
903.8660, 85.14648
904.9930, 24.26953
906.1200, 68.35156
907.2460, 60.37891
908.3730, 61.87891
909.5000, 108.7754
910.6260, 139.5312
911.7520, 65.96094
912.8780, 87.45898
914.0040, 31.33594
915.1290, 1.076172
916.2550, 5.228516
917.3800, 26.76953
918.5050, 56.82617
919.6300, 56.43945
920.7550, 120.4355
921.8800, 73.92578
923.0040, 101.0469
924.1290, 129.9316
925.2530, 84.44141
926.3770, 34.30078
927.5010, 152.0547
928.6250, 72.61914
929.7480, 3.943359
930.8720, 59.09180
931.9950, 168.5918
933.1180, 217.8516
934.2410, 131.4473
935.3640, 385.9219
936.4860, 430.2852
937.6090, 272.6992
938.7310, 476.0664
939.8530, 697.9082
940.9750, 427.7578
942.0970, 707.1504
943.2180, 893.4590
944.3400, 1034.725
945.4610, 1257.262
946.5820, 1284.104
947.7030, 1621.084
948.8240, 1977.324
949.9450, 2183.387
951.0650, 2958.627
952.1860, 3697.215
953.3060, 4835.348
954.4260, 6373.852
955.5460, 8293.719
956.6650, 10595.74
957.7850, 13273.01
958.9040, 16029.41
960.0230, 18447.22
961.1420, 20075.04
962.2610, 19292.02
963.3800, 17350.69
964.4990, 14536.53
965.6170, 11885.66
966.7350, 9432.551
967.8530, 7177.152
968.9710, 5913.756
970.0890, 4193.242
971.2070, 3434.943
972.3240, 2661.033
973.4410, 1817.176
974.5580, 1494.836
975.6750, 1254.566
976.7920, 765.8750
977.9090, 741.3398
979.0250, 493.6504
980.1410, 568.6875
981.2580, 459.4512
982.3740, 388.2578
983.4890, 360.4336
984.6050, 291.5508
985.7200, 257.9941
986.8360, 23.41602
987.9510, 13.45312
989.0660, 187.7285
990.1810, 1.869141
991.2950, 125.4590
992.4100, 145.8086
993.5240, 69.44141
994.6390, 5.001953
995.7530, 158.9648
996.8660, 204.6328
997.9800, 182.9082
999.0940, 230.2324
1000.207, 190.3359
1001.320, 183.0625
1002.433, 325.2090
1003.546, 235.8320
1004.659, 306.4102
1005.772, 227.3164
1006.884, 394.3633
1007.996, 359.4922
1009.108, 199.6934
1010.220, 316.9277
1011.332, 108.4941
1012.444, 65.90234
1013.555, 169.9902
1014.666, 274.4336
1015.777, 275.8184
1016.888, 470.2832
1017.999, 63.67969
1019.110, 430.9648
1020.220, 553.1758
1021.331, 281.0918
1022.441, 583.8867
1023.551, 659.9336
1024.661, 596.9531
1025.770, 565.0898
1026.880, 839.1074
1027.989, 894.7305
1029.098, 839.0781
1030.207, 777.3652
1031.316, 739.1914
1032.425, 423.9180
1033.533, 436.1191
1034.642, 443.3496
1035.750, 262.6816
1036.858, 371.6914
1037.966, 317.4863
1039.073, 172.9863
1040.181, 329.9727
1041.288, 454.1992
1042.396, 489.4062
1043.503, 474.9355
1044.610, 431.3809
1045.716, 281.5332
1046.823, 372.7891
1047.929, 205.8457
1049.036, 182.7734
1050.142, 286.0176
1051.248, 530.6699
1052.353, 421.5625
1053.459, 519.4297
1054.564, 415.6426
1055.670, 851.6328
1056.775, 542.7480
1057.880, 619.4941
1058.985, 656.5645
1060.089, 353.0977
1061.194, 542.1855
1062.298, 251.0840
1063.402, 318.1328
1064.506, 207.6934
1065.610, 459.9316
1066.713, 184.6504
1067.817, 385.7559
1068.920, 110.7969
1070.023, 366.7812
1071.126, 512.7090
1072.229, 226.5742
1073.332, 581.3828
1074.435, 230.1289
1075.537, 292.8145
1076.639, 440.4434
1077.741, 172.0078
1078.843, 307.5137
1079.945, 279.9570
1081.046, 306.3477
1082.148, 345.6953
1083.249, 162.9922
1084.350, 132.2461
1085.451, 365.4688
1086.551, 169.6680
1087.652, 80.81250
1088.752, 326.9805
1089.853, 215.4453
1090.953, 382.3828
1092.053, 452.3125
1093.152, 276.1484
1094.252, 116.2344
1095.351, 123.4570
1096.451, 65.73828
1097.550, 68.12891
1098.649, 75.28516
1099.748, 113.7578
1100.846, 114.0898
1101.945, 232.5195
1103.043, 182.2109
1104.141, 209.6602
1105.239, 346.8672
1106.337, 405.6797
1107.434, 183.8828
1108.532, 286.0977
1109.629, 360.3633
1110.726, 44.77344
1111.823, 95.34766
1112.920, 274.9609
1114.017, 381.5938
1115.113, 257.2383
1116.210, 104.4883
1117.306, 246.3008
1118.402, 467.0977
1119.498, 20.09766
1120.593, 409.7109
1121.689, 101.4336
1122.784, 278.3906
1123.879, 444.3750
1124.974, 247.3828
1126.069, 252.4023
1127.164, 237.4570
1128.259, 231.5664
1129.353, 393.6836
1130.447, 49.76562
1131.541, 169.1680
1132.635, 276.1680
1133.729, 440.1367
1134.822, 308.0664
1135.916, 74.97266
1137.009, 412.8477
1138.102, 88.30078
1139.195, 537.2266
1140.288, 102.2266
1141.380, 376.0039
1142.473, 264.9648
1143.565, 247.7617
1144.657, 322.9023
1145.749, 363.6016
1146.841, 160.3633
1147.932, 342.7188
1149.024, 133.1758
1150.115, 468.7266
1151.206, 497.3438
1152.297, 303.6602
1153.388, 263.3477
1154.479, 135.2305
1155.569, 147.3203
1156.659, 317.4648
1157.750, 531.2617
1158.839, 390.1641
1159.929, 510.5820
1161.019, 147.8945
1162.108, 463.7734
1163.198, 341.5586
1164.287, 253.8633
1165.376, 488.5156
1166.465, 321.9492
1167.553, 13.74219
1168.642, 207.4219
1169.730, 210.4688
1170.818, 230.2617
1171.906, 184.7227
1172.994, 295.8633
1174.082, 261.0273
1175.170, 243.8828
1176.257, 225.3555
1177.344, 186.1055
1178.431, 194.3359
1179.518, 81.19922
1180.605, 185.5859
1181.691, 261.8555
1182.778, 240.6289
1183.864, 47.29297
1184.950, 270.5234
1186.036, 43.26562
1187.122, 161.2227
1188.207, 3.433594
1189.292, 166.2734
1190.378, 253.2031
1191.463, 0.0000000E+00
##END=



