##NAMES=Fluoro-richterite
##RRUFFID=R040019
##IDEAL CHEMISTRY=Na(NaCa)Mg_5_Si_8_O_22_F_2_
##LOCALITY=Wilberforce, Ontario, Canada
##OWNER=RRUFF
##SOURCE=University of Arizona Mineral Museum
##DESCRIPTION=Brown prismatic crystals
##STATUS=The identification of this mineral has been confirmed by X-ray diffraction and chemical analysis
##URL=rruff.info/R040019
##MEASURED CHEMISTRY=(Na_0.59_K_0.27_[box]_0.14_)_Σ=1_(Ca_1.30_Na_0.70_)_Σ=2_(Mg_4.67_Fe_0.17_Fe^3+^_0.10_Ti_0.03_Mn_0.02_Al_0.01_)_Σ=5_(Si_7.67_Al_0.33_)_Σ=8_(F_1.12_(OH)_0.88_)_Σ=2_; OH estimated by charge balance
##PIN_ID=L00205
##ORIENTATION=Laser parallel to c [0 0 1]. Fiducial mark perpendicular to laser is parallel to -b* (0 -1 0)
128.1460, 0.0000000E+00
129.5340, 45.93164
130.9220, 160.3857
132.3090, 77.68896
133.6960, 164.2236
135.0830, 66.76025
136.4700, 174.5845
137.8570, 152.7500
139.2430, 78.11230
140.6300, 123.8628
142.0160, 8.781250
143.4010, 32.29443
144.7870, 49.53271
146.1720, 21.08105
147.5570, 73.93750
148.9420, 282.4653
150.3270, 453.3896
151.7110, 832.5898
153.0960, 1373.959
154.4800, 2024.405
155.8630, 2561.851
157.2470, 3129.227
158.6300, 3676.475
160.0130, 4074.542
161.3960, 4026.384
162.7790, 3892.959
164.1610, 3458.232
165.5440, 2943.169
166.9260, 2633.968
168.3080, 2298.666
169.6890, 2188.956
171.0700, 2033.748
172.4520, 1984.005
173.8330, 2012.698
175.2130, 1909.800
176.5940, 1983.294
177.9740, 1906.174
179.3540, 1898.422
180.7340, 1696.030
182.1140, 1739.986
183.4930, 1578.282
184.8720, 1602.909
186.2510, 1595.859
187.6300, 1471.125
189.0080, 1556.700
190.3870, 1586.579
191.7650, 1626.754
193.1430, 1709.220
194.5200, 1846.246
195.8980, 1971.000
197.2750, 2197.781
198.6520, 2369.876
200.0290, 2577.714
201.4050, 2835.809
202.7820, 3003.159
204.1580, 3262.261
205.5340, 3597.700
206.9090, 3956.295
208.2850, 4267.514
209.6600, 4803.848
211.0350, 5351.415
212.4100, 5927.082
213.7840, 6838.846
215.1590, 7834.696
216.5330, 9025.630
217.9070, 10689.65
219.2810, 12552.70
220.6540, 14915.84
222.0270, 17575.12
223.4000, 20816.62
224.7730, 24502.31
226.1460, 28203.13
227.5180, 31906.10
228.8910, 34960.22
230.2630, 36906.48
231.6340, 37999.90
233.0060, 37839.46
234.3770, 35720.17
235.7480, 32653.04
237.1190, 29614.04
238.4900, 25939.20
239.8600, 22895.51
241.2310, 19993.96
242.6010, 17767.56
243.9700, 16110.31
245.3400, 14395.20
246.7090, 13032.24
248.0790, 11499.41
249.4480, 10287.73
250.8160, 8685.187
252.1850, 7438.779
253.5530, 6317.504
254.9210, 5324.365
256.2890, 4548.357
257.6570, 3953.480
259.0240, 3269.734
260.3910, 2844.117
261.7580, 2428.625
263.1250, 1928.261
264.4920, 1646.021
265.8580, 1387.905
267.2240, 1041.910
268.5900, 815.0361
269.9560, 617.2808
271.3210, 402.6040
272.6870, 326.1230
274.0520, 128.7163
275.4160, 80.42285
276.7810, 63.24170
278.1460, 38.82910
279.5100, 84.79199
280.8740, 117.6470
282.2370, 108.3960
283.6010, 11.04150
284.9640, 131.5830
286.3270, 123.9985
287.6900, 61.87598
289.0530, 94.20117
290.4160, 99.01855
291.7780, 334.3149
293.1400, 399.1489
294.5020, 512.0132
295.8630, 577.8662
297.2250, 834.6426
298.5860, 1055.423
299.9470, 1304.989
301.3080, 1597.777
302.6680, 1810.195
304.0290, 2217.752
305.3890, 2536.043
306.7490, 2886.320
308.1080, 3133.161
309.4680, 3566.975
310.8270, 3668.302
312.1860, 3977.644
313.5450, 3963.161
314.9030, 3967.908
316.2620, 3676.384
317.6200, 3463.202
318.9780, 3196.399
320.3360, 2905.696
321.6930, 2514.133
323.0510, 2161.706
324.4080, 1925.409
325.7650, 1554.242
327.1210, 1420.200
328.4780, 1175.279
329.8340, 1136.477
331.1900, 1078.788
332.5460, 1006.209
333.9020, 996.4565
335.2570, 977.3696
336.6120, 999.1045
337.9670, 1096.939
339.3220, 1179.872
340.6770, 1286.902
342.0310, 1498.026
343.3850, 1620.242
344.7390, 1651.549
346.0930, 1672.946
347.4460, 1817.431
348.7990, 1814.001
350.1530, 1819.656
351.5050, 1945.395
352.8580, 1992.214
354.2100, 2084.114
355.5630, 2310.093
356.9150, 2569.148
358.2670, 2808.280
359.6180, 3265.486
360.9690, 3656.767
362.3210, 4275.117
363.6720, 4655.540
365.0220, 4809.032
366.3730, 5128.592
367.7230, 5192.207
369.0730, 5225.858
370.4230, 5315.560
371.7730, 5075.310
373.1220, 5133.126
374.4710, 5203.004
375.8210, 5365.944
377.1690, 5437.947
378.5180, 5829.011
379.8660, 5906.137
381.2150, 6141.324
382.5630, 6384.573
383.9100, 6404.882
385.2580, 6493.252
386.6050, 6535.679
387.9520, 6712.165
389.2990, 6536.707
390.6460, 6746.305
391.9920, 6615.959
393.3390, 6649.667
394.6850, 6702.430
396.0310, 6692.245
397.3760, 6777.112
398.7220, 6430.031
400.0670, 6254.999
401.4120, 5968.017
402.7570, 5527.084
404.1010, 5451.199
405.4460, 4844.361
406.7900, 4363.569
408.1340, 4023.823
409.4780, 3762.121
410.8210, 3467.463
412.1650, 3266.849
413.5080, 3115.275
414.8510, 3117.743
416.1930, 3144.254
417.5360, 3182.802
418.8780, 3487.389
420.2200, 3843.015
421.5620, 4161.679
422.9040, 4245.380
424.2450, 4744.114
425.5860, 4997.885
426.9270, 5255.690
428.2680, 5706.528
429.6090, 5663.400
430.9490, 5833.304
432.2890, 5834.237
433.6290, 5757.203
434.9690, 5210.199
436.3090, 4857.222
437.6480, 4080.274
438.9870, 3573.466
440.3260, 2987.010
441.6650, 2430.487
443.0030, 1896.392
444.3420, 1722.786
445.6800, 1210.077
447.0180, 979.6455
448.3550, 756.7744
449.6930, 509.3945
451.0300, 410.4688
452.3670, 355.0088
453.7040, 231.5078
455.0410, 196.1357
456.3770, 124.8994
457.7130, 134.5684
459.0490, 143.1987
460.3850, 175.5884
461.7210, 167.2051
463.0560, 185.6021
464.3910, 179.7651
465.7260, 186.1343
467.0610, 222.1787
468.3950, 185.4863
469.7300, 151.2505
471.0640, 166.6055
472.3980, 47.11621
473.7310, 74.13770
475.0650, 83.12256
476.3980, 69.22168
477.7310, 102.5918
479.0640, 47.98340
480.3970, 26.61865
481.7290, 46.22656
483.0620, 99.83838
484.3940, 123.4541
485.7250, 180.1792
487.0570, 179.3301
488.3890, 250.3140
489.7200, 200.9355
491.0510, 131.5566
492.3820, 190.1768
493.7120, 108.7949
495.0430, 239.4111
496.3730, 192.0239
497.7030, 295.6338
499.0320, 310.2397
500.3620, 437.8423
501.6910, 511.4409
503.0200, 641.0352
504.3490, 709.6250
505.6780, 930.2090
507.0070, 1020.788
508.3350, 1191.382
509.6630, 1406.969
510.9910, 1542.547
512.3190, 1991.129
513.6460, 2216.748
514.9730, 2916.267
516.3000, 2896.820
517.6270, 3508.361
518.9540, 3931.891
520.2800, 4252.407
521.6070, 4730.916
522.9330, 4967.424
524.2590, 4914.941
525.5840, 4668.468
526.9100, 4382.021
528.2350, 4046.585
529.5600, 3464.163
530.8850, 3386.759
532.2090, 2619.348
533.5340, 2129.957
534.8580, 1984.566
536.1820, 1776.173
537.5060, 1554.795
538.8290, 1461.418
540.1520, 1261.049
541.4760, 1194.821
542.7990, 1118.280
544.1210, 1098.867
545.4440, 1088.430
546.7660, 1094.968
548.0880, 1007.481
549.4100, 1025.968
550.7320, 1059.430
552.0530, 967.8623
553.3750, 1050.267
554.6960, 940.6416
556.0170, 965.9868
557.3370, 946.3003
558.6580, 888.5830
559.9780, 905.8325
561.2980, 795.0498
562.6180, 865.2339
563.9380, 831.3838
565.2570, 748.4990
566.5760, 810.5796
567.8950, 745.6250
569.2140, 692.6338
570.5330, 856.6055
571.8510, 799.5410
573.1700, 724.4380
574.4880, 878.2974
575.8050, 950.1191
577.1230, 964.9014
578.4400, 1160.644
579.7580, 1256.347
581.0750, 1401.009
582.3910, 1613.631
583.7080, 1832.211
585.0240, 1884.750
586.3410, 1965.246
587.6570, 2043.700
588.9720, 1981.111
590.2880, 1723.479
591.6030, 1435.803
592.9180, 1090.083
594.2330, 749.3179
595.5480, 565.5073
596.8630, 398.6519
598.1770, 254.7495
599.4910, 51.79492
600.8050, 31.25000
602.1190, 209.4282
603.4320, 202.8350
604.7460, 182.4731
606.0590, 314.3257
607.3720, 200.4644
608.6850, 221.8374
609.9970, 259.4575
611.3090, 241.3457
612.6210, 211.4922
613.9330, 208.5952
615.2450, 143.5195
616.5570, 157.3662
617.8680, 88.43115
619.1790, 51.67920
620.4900, 37.09180
621.8010, 9.663086
623.1110, 70.62207
624.4210, 79.79980
625.7310, 163.8745
627.0410, 116.8706
628.3510, 336.7734
629.6600, 305.6172
630.9700, 427.3989
632.2790, 499.1240
633.5880, 457.7334
634.8960, 551.7168
636.2050, 626.4600
637.5130, 699.1870
638.8210, 841.3716
640.1290, 921.7690
641.4370, 1108.112
642.7440, 1234.400
644.0510, 1367.634
645.3580, 1490.926
646.6650, 1735.049
647.9720, 1881.119
649.2780, 2156.249
650.5840, 2353.207
651.8900, 2632.512
653.1960, 3040.359
654.5020, 3295.494
655.8070, 3773.519
657.1130, 4411.800
658.4180, 4780.044
659.7220, 5522.197
661.0270, 6175.477
662.3310, 6927.699
663.6360, 8095.009
664.9400, 11728.54
666.2440, 13185.62
667.5470, 15249.63
668.8510, 14772.72
670.1540, 17870.72
671.4570, 21335.55
672.7600, 25154.19
674.0620, 30794.78
675.3650, 36331.36
676.6670, 42483.99
677.9690, 47113.07
679.2710, 51856.37
680.5720, 53527.04
681.8740, 52358.21
683.1750, 50003.35
684.4760, 45145.34
685.7770, 38617.29
687.0770, 32424.93
688.3780, 26872.62
689.6780, 22435.49
690.9780, 18507.10
692.2780, 15208.09
693.5770, 12459.77
694.8770, 10741.95
696.1760, 9142.677
697.4750, 7912.955
698.7740, 6844.662
700.0720, 6279.221
701.3710, 5524.458
702.6690, 4996.698
703.9670, 4522.674
705.2650, 4242.495
706.5620, 4255.484
707.8600, 3791.171
709.1570, 3727.750
710.4540, 3702.108
711.7510, 3570.529
713.0470, 3779.602
714.3440, 3739.716
715.6400, 3816.660
716.9360, 3790.540
718.2320, 3911.527
719.5270, 4241.279
720.8230, 4241.969
722.1180, 4349.596
723.4130, 4360.157
724.7080, 4344.657
726.0020, 4474.095
727.2970, 4467.469
728.5910, 4436.343
729.8850, 4433.031
731.1790, 4297.220
732.4720, 4237.345
733.7660, 4098.410
735.0590, 4027.413
736.3520, 4006.355
737.6450, 3839.235
738.9370, 3774.056
740.2300, 3708.817
741.5220, 3475.517
742.8140, 3295.157
744.1060, 3223.738
745.3970, 3126.261
746.6890, 2892.723
747.9800, 2780.128
749.2710, 2603.475
750.5620, 2516.763
751.8530, 2537.993
753.1430, 2352.054
754.4330, 2266.433
755.7230, 2129.286
757.0130, 1978.132
758.3030, 2001.614
759.5920, 1858.335
760.8810, 1823.166
762.1700, 1584.560
763.4590, 1469.945
764.7480, 1512.844
766.0360, 1223.242
767.3250, 1281.644
768.6130, 1037.795
769.9010, 1069.011
771.1880, 913.2002
772.4760, 801.4165
773.7630, 790.8599
775.0500, 613.5161
776.3370, 620.9985
777.6240, 601.1167
778.9100, 520.5361
780.1960, 509.8101
781.4820, 495.7266
782.7680, 428.7251
784.0540, 408.1313
785.3390, 377.3682
786.6250, 409.0762
787.9100, 412.0464
789.1950, 441.8252
790.4790, 362.8462
791.7640, 364.8530
793.0480, 337.8374
794.3320, 345.7935
795.6160, 319.7217
796.9000, 341.6230
798.1830, 375.4971
799.4670, 238.3438
800.7500, 291.1631
802.0330, 306.9565
803.3160, 231.7231
804.5980, 269.4624
805.8800, 159.1768
807.1630, 267.8618
808.4450, 169.5215
809.7260, 184.1538
811.0080, 99.75879
812.2890, 96.33398
813.5700, 103.8799
814.8510, 57.39746
816.1320, 55.88428
817.4130, 19.34180
818.6930, 62.23291
819.9730, 43.12012
821.2530, 44.44385
822.5330, 29.26025
823.8130, 12.98242
825.0920, 39.19385
826.3710, 70.37695
827.6500, 63.52393
828.9290, 51.66504
830.2080, 23.76807
831.4860, 5.155762
832.7640, 49.11475
834.0420, 73.12988
835.3200, 99.21289
836.5980, 148.3760
837.8750, 100.6445
839.1520, 117.9922
840.4290, 131.4277
841.7060, 34.95752
842.9830, 155.5298
844.2590, 74.20605
845.5360, 65.94287
846.8120, 143.7354
848.0880, 90.62256
849.3630, 117.5757
850.6390, 62.60840
851.9140, 33.69043
853.1890, 2.808105
854.4640, 29.04932
855.7390, 9.887695
857.0130, 54.70459
858.2880, 73.50537
859.5620, 15.29199
860.8360, 69.06348
862.1100, 76.82031
863.3830, 111.5630
864.6560, 78.29639
865.9300, 159.0190
867.2030, 115.7354
868.4750, 146.4434
869.7480, 136.1460
871.0200, 91.84375
872.2920, 159.5347
873.5640, 170.2222
874.8360, 273.9111
876.1080, 215.6162
877.3790, 164.3218
878.6500, 332.0405
879.9220, 342.7578
881.1920, 309.4971
882.4630, 322.2368
883.7330, 408.9824
885.0040, 434.7451
886.2740, 453.5078
887.5440, 534.2720
888.8130, 589.6001
890.0830, 696.8296
891.3520, 761.6880
892.6210, 871.3657
893.8900, 1035.422
895.1590, 1101.328
896.4270, 1242.245
897.6950, 1374.187
898.9640, 1465.151
900.2320, 1608.155
901.4990, 1606.178
902.7670, 1812.229
904.0340, 1811.302
905.3010, 1882.402
906.5680, 1984.535
907.8350, 2077.714
909.1020, 2260.922
910.3680, 2246.191
911.6340, 2306.567
912.9000, 2576.068
914.1660, 2527.673
915.4320, 2870.427
916.6970, 2828.292
917.9620, 3069.263
919.2270, 3284.352
920.4920, 3528.555
921.7570, 3780.287
923.0210, 4060.275
924.2850, 4278.774
925.5500, 4538.371
926.8130, 4748.046
928.0770, 5021.789
929.3410, 5156.602
930.6040, 5254.875
931.8670, 5446.389
933.1300, 5347.339
934.3930, 5401.313
935.6550, 5449.315
936.9180, 5193.329
938.1800, 5242.352
939.4420, 5138.384
940.7030, 5054.423
941.9650, 5237.472
943.2260, 5188.526
944.4880, 5157.586
945.7490, 5216.649
947.0090, 5341.717
948.2700, 5351.787
949.5300, 5350.863
950.7910, 5379.941
952.0510, 5345.911
953.3110, 5109.995
954.5700, 4882.083
955.8300, 4852.057
957.0890, 4366.151
958.3480, 4233.846
959.6070, 3900.947
960.8660, 3769.709
962.1240, 3479.545
963.3830, 3322.039
964.6410, 3187.529
965.8990, 3108.062
967.1560, 3100.413
968.4140, 3060.768
969.6710, 3039.982
970.9280, 3030.918
972.1850, 3006.250
973.4420, 3067.598
974.6990, 3021.808
975.9550, 3087.046
977.2110, 3062.578
978.4680, 3041.896
979.7230, 3044.364
980.9790, 2998.790
982.2340, 3019.102
983.4900, 3230.898
984.7450, 2980.406
986.0000, 3052.478
987.2540, 3256.983
988.5090, 3575.479
989.7630, 3245.048
991.0170, 3065.611
992.2710, 3251.412
993.5250, 3198.106
994.7790, 3293.566
996.0320, 3772.219
997.2850, 3883.437
998.5380, 3715.907
999.7910, 3581.807
1001.044, 3967.113
1002.296, 4006.801
1003.548, 4308.000
1004.800, 4445.285
1006.052, 4775.937
1007.304, 4929.437
1008.555, 5094.553
1009.807, 5279.929
1011.058, 5524.288
1012.309, 5830.673
1013.559, 5863.976
1014.810, 6060.971
1016.060, 6117.978
1017.310, 6276.359
1018.560, 6258.666
1019.810, 6228.111
1021.060, 6481.788
1022.309, 6451.173
1023.558, 6435.944
1024.807, 6664.660
1026.056, 6578.692
1027.305, 6840.996
1028.553, 7004.109
1029.801, 7220.238
1031.049, 7528.089
1032.297, 7653.427
1033.545, 8230.442
1034.793, 8547.172
1036.040, 8860.212
1037.287, 9220.424
1038.534, 9481.733
1039.781, 9647.340
1041.027, 9926.068
1042.274, 9757.452
1043.520, 9805.610
1044.766, 10019.76
1046.012, 9776.832
1047.257, 9926.544
1048.503, 9963.915
1049.748, 9980.332
1050.993, 9941.733
1052.238, 10302.88
1053.483, 10286.05
1054.727, 10363.24
1055.971, 10349.52
1057.216, 10523.25
1058.459, 10744.11
1059.703, 10859.80
1060.947, 11202.22
1062.190, 11361.54
1063.433, 11553.83
1064.676, 11805.07
1065.919, 12070.67
1067.162, 12173.62
1068.404, 12439.91
1069.646, 12141.28
1070.888, 12189.48
1072.130, 12070.30
1073.372, 11491.05
1074.613, 11257.24
1075.855, 10865.58
1077.096, 10528.75
1078.337, 9903.325
1079.578, 9729.984
1080.818, 9272.505
1082.059, 8981.464
1083.299, 8547.578
1084.539, 8348.662
1085.779, 7931.158
1087.018, 7610.466
1088.258, 7298.621
1089.497, 6846.261
1090.736, 6324.444
1091.975, 5828.262
1093.213, 5412.338
1094.452, 4809.709
1095.690, 4613.161
1096.928, 4124.668
1098.166, 3940.033
1099.404, 3678.335
1100.642, 3452.605
1101.879, 3184.734
1103.116, 2980.845
1104.353, 2803.750
1105.590, 2664.820
1106.827, 2465.784
1108.063, 2419.973
1109.299, 2242.861
1110.536, 2125.201
1111.771, 2094.113
1113.007, 1946.628
1114.243, 1971.210
1115.478, 1755.399
1116.713, 1736.876
1117.948, 1638.342
1119.183, 1602.682
1120.418, 1454.720
1121.652, 1581.945
1122.886, 1765.083
1124.120, 1662.417
1125.354, 1542.385
1126.588, 1430.618
1127.821, 1333.434
1129.055, 1258.849
1130.288, 1131.879
1131.521, 1104.829
1132.753, 990.7104
1133.986, 945.4526
1135.218, 849.7671
1136.450, 871.8389
1137.682, 810.2046
1138.914, 810.8462
1140.146, 747.9541
1141.377, 737.9272
1142.609, 765.3101
1143.840, 637.4673
1145.071, 681.9053
1146.301, 642.8652
1147.532, 628.1445
1148.762, 617.3545
1149.992, 521.6973
1151.222, 547.9219
1152.452, 459.1128
1153.682, 385.9111
1154.911, 409.6279
1156.140, 313.4971
1157.369, 276.9058
1158.598, 229.2021
1159.827, 282.5107
1161.055, 317.3179
1162.284, 192.4062
1163.512, 162.2803
1164.740, 144.0410
1165.967, 138.4868
1167.195, 133.6035
1168.422, 82.25586
1169.650, 114.5903
1170.877, 65.85596
1172.103, 16.20361
1173.330, 70.28418
1174.557, 2.879395
1175.783, 53.38184
1177.009, 10.60889
1178.235, 78.78467
1179.461, 0.8022460
1180.686, 15.42725
1181.912, 57.67529
1183.137, 31.40576
1184.362, 18.41650
1185.587, 14.06592
1186.811, 113.4546
1188.036, 98.59717
1189.260, 60.00098
1190.484, 39.60693
1191.708, 86.40430
1192.932, 20.62451
1194.155, 61.58154
1195.378, 55.40039
1196.602, 119.2446
1197.825, 38.43994
1199.047, 65.67383
1200.270, 49.38623
1201.492, 64.88867
1202.715, 81.74609
1203.937, 116.1411
1205.159, 40.56201
1206.380, 5.277344
1207.602, 0.5888670
1208.823, 78.17529
1210.044, 13.79004
1211.265, 44.63867
1212.486, 16.94580
1213.707, 59.63477
1214.927, 36.55225
1216.147, 31.54932
1217.367, 40.59766
1218.587, 81.62354
1219.807, 87.93506
1221.027, 13.39746
1222.246, 40.78369
1223.465, 16.14014
1224.684, 8.425293
1225.903, 28.18164
1227.121, 9.429688
1228.340, 56.14111
1229.558, 47.61963
1230.776, 48.38818
1231.994, 88.63379
1233.212, 106.3193
1234.429, 119.8677
1235.646, 66.45801
1236.864, 106.7212
1238.081, 144.9019
1239.297, 108.9521
1240.514, 219.8188
1241.730, 188.5889
1242.947, 163.3818
1244.163, 185.1509
1245.378, 187.4292
1246.594, 182.8613
1247.810, 203.6860
1249.025, 200.0337
1250.240, 236.4951
1251.455, 182.7295
1252.670, 195.4658
1253.885, 149.7559
1255.099, 186.2441
1256.313, 119.1289
1257.527, 163.6172
1258.741, 233.1836
1259.955, 202.5029
1261.168, 110.8433
1262.382, 198.9229
1263.595, 186.9053
1264.808, 202.9497
1266.021, 264.3950
1267.233, 204.7495
1268.446, 210.1333
1269.658, 167.8369
1270.870, 221.6377
1272.082, 655.0249
1273.294, 427.7285
1274.505, 338.9985
1275.716, 840.0249
1276.928, 797.8735
1278.139, 660.6128
1279.349, 528.0200
1280.560, 362.3066
1281.770, 297.8984
1282.981, 218.7959
1284.191, 168.0503
1285.401, 256.0996
1286.610, 276.9795
1287.820, 179.6738
1289.029, 205.1504
1290.239, 160.4531
1291.448, 219.5264
1292.656, 165.5654
1293.865, 104.4580
1295.073, 236.9678
1296.282, 148.5508
1297.490, 142.6797
1298.698, 179.0654
1299.906, 177.7412
1301.113, 183.6768
1302.320, 156.3232
1303.528, 192.9619
1304.735, 179.1553
1305.942, 116.4385
1307.148, 180.6201
1308.355, 193.2139
1309.561, 193.2881
1310.767, 230.1846
1311.973, 169.8066
1313.179, 124.2031
1314.384, 96.22852
1315.590, 182.2422
1316.795, 207.7266
1318.000, 192.0664
1319.205, 259.8916
1320.410, 205.6680
1321.614, 125.5928
1322.819, 152.7168
1324.023, 98.93164
1325.227, 138.4717
1326.431, 196.1729
1327.634, 131.9473
1328.838, 18.77344
1330.041, 166.1357
1331.244, 135.7578
1332.447, 206.8896
1333.650, 44.70898
1334.852, 86.68848
1336.055, 85.69922
1337.257, 98.52832
1338.459, 30.24609
1339.661, 120.1328
1340.862, 97.17480
1342.064, 37.97949
1343.265, 85.62207
1344.466, 37.33105
1345.667, 21.83594
1346.868, 78.13672
1348.068, 112.1680
1349.269, 65.83496
1350.469, 46.32715
1351.669, 39.76758
1352.869, 45.96484
1354.069, 29.10254
1355.268, 162.0977
1356.468, 28.00879
1357.667, 38.37988
1358.866, 76.69434
1360.065, 19.76074
1361.263, 42.02344
1362.462, 78.58398
1363.660, 13.42480
1364.858, 59.38477
1366.056, 43.90625
1367.254, 38.06055
1368.451, 71.84863
1369.649, 55.59375
1370.846, 9.839844
1372.043, 12.42285
1373.240, 2.912109
1374.436, 24.76562
1375.633, 49.23633
1376.829, 103.4697
1378.025, 104.1191
1379.221, 79.13086
1380.417, 106.0527
1381.613, 93.75684
1382.808, 92.65527
1384.003, 98.69922
1385.199, 77.73730
1386.393, 85.86621
1387.588, 57.13281
1388.783, 105.5801
1389.977, 64.37207
1391.171, 104.4014
1392.365, 20.28027
1393.559, 83.17383
1394.753, 189.7031
1395.946, 61.89160
1397.140, 103.8672
1398.333, 53.40137
1399.526, 123.3184
1400.719, 179.1787
1401.911, 121.1904
1403.104, 141.3457
1404.296, 97.05176
1405.488, 117.6963
1406.680, 101.0967
1407.872, 63.67676
1409.063, 148.4531
1410.255, 127.4658
1411.446, 80.09570
1412.637, 203.1172
1413.828, 136.9473
1415.018, 191.9717
1416.209, 76.27246
1417.399, 122.6709
1418.589, 139.7178
1419.779, 135.5430
1420.969, 118.9463
1422.159, 152.2637
1423.348, 136.3115
1424.537, 35.49219
1425.726, 137.9219
1426.915, 270.0654
1428.104, 578.2441
1429.293, 475.3096
1430.481, 866.7695
