##NAMES=Fluoro-richterite
##RRUFFID=R040019
##IDEAL CHEMISTRY=Na(NaCa)Mg_5_Si_8_O_22_F_2_
##LOCALITY=Wilberforce, Ontario, Canada
##OWNER=RRUFF
##SOURCE=University of Arizona Mineral Museum
##DESCRIPTION=Brown prismatic crystals
##STATUS=The identification of this mineral has been confirmed by X-ray diffraction and chemical analysis
##URL=rruff.info/R040019
##MEASURED CHEMISTRY=(Na_0.59_K_0.27_[box]_0.14_)_Σ=1_(Ca_1.30_Na_0.70_)_Σ=2_(Mg_4.67_Fe_0.17_Fe^3+^_0.10_Ti_0.03_Mn_0.02_Al_0.01_)_Σ=5_(Si_7.67_Al_0.33_)_Σ=8_(F_1.12_(OH)_0.88_)_Σ=2_; OH estimated by charge balance
##PIN_ID=L00217
##ORIENTATION=Laser parallel to -b* (0 -1 0). Fiducial mark perpendicular to laser is parallel to c [0 0 1]
76.635, 0.000
78.031, 63.693
79.427, 5.792
80.823, 0.770
82.218, 41.196
83.614, 54.834
85.009, 119.208
86.404, 159.906
87.798, 244.244
89.193, 317.447
90.587, 422.943
91.981, 511.294
93.375, 604.154
94.768, 770.206
96.161, 882.160
97.554, 1091.805
98.947, 1318.956
100.340, 1636.451
101.732, 1863.181
103.124, 2247.130
104.516, 2635.197
105.908, 3120.260
107.300, 3640.222
108.691, 3901.998
110.082, 4267.913
111.473, 4228.097
112.864, 4214.912
114.254, 4057.309
115.644, 3911.245
117.034, 3588.684
118.424, 3059.595
119.813, 2465.934
121.203, 1975.657
122.592, 1561.733
123.981, 1218.137
125.369, 912.960
126.758, 639.673
128.146, 522.274
129.534, 401.284
130.922, 320.444
132.309, 259.767
133.696, 144.261
135.083, 57.924
136.470, 86.751
137.857, 85.739
139.243, 72.882
140.630, 52.178
142.016, 7.377
143.401, 2.786
144.787, 71.947
146.172, 193.819
147.557, 319.826
148.942, 560.965
150.327, 862.232
151.711, 1404.625
153.096, 2137.139
154.480, 2986.773
155.863, 3900.524
157.247, 4844.389
158.630, 5712.366
160.013, 6300.410
161.396, 6456.392
162.779, 6217.338
164.161, 5782.281
165.544, 5311.237
166.926, 5036.221
168.308, 4896.242
169.689, 4807.308
171.070, 4819.427
172.452, 4979.603
173.833, 5020.853
175.213, 5178.702
176.594, 5293.303
177.974, 5353.457
179.354, 5421.508
180.734, 5350.978
182.114, 5084.997
183.493, 4816.238
184.872, 4845.716
186.251, 4549.455
187.630, 4405.408
189.008, 4216.480
190.387, 4087.656
191.765, 4045.905
193.143, 4021.484
194.520, 4049.614
195.898, 4159.073
197.275, 4317.601
198.652, 4515.197
200.029, 4677.860
201.405, 5005.588
202.782, 5323.382
204.158, 5489.608
205.534, 5684.168
206.909, 5980.158
208.285, 5948.209
209.660, 6380.319
211.035, 6585.486
212.410, 6763.705
213.784, 7179.978
215.159, 7666.303
216.533, 8133.681
217.907, 8684.108
219.281, 9061.590
220.654, 9403.118
222.027, 9515.697
223.400, 9859.324
224.773, 9883.998
226.146, 9832.721
227.518, 9599.488
228.891, 9289.302
230.263, 8895.162
231.634, 8450.718
233.006, 7927.044
234.377, 7340.005
235.748, 6688.040
237.119, 5962.115
238.490, 5190.233
239.860, 4653.391
241.231, 3923.587
242.601, 3445.440
243.970, 3039.106
245.340, 2715.629
246.709, 2350.165
248.079, 2058.043
249.448, 1819.215
250.816, 1473.647
252.185, 1208.312
253.553, 1071.186
254.921, 879.253
256.289, 715.496
257.657, 548.901
259.024, 433.401
260.391, 362.154
261.758, 257.982
263.125, 210.932
264.492, 130.306
265.858, 67.176
267.224, 7.457
268.590, 61.165
269.956, 96.701
271.321, 94.161
272.687, 93.549
274.052, 163.869
275.416, 144.134
276.781, 94.337
278.146, 118.460
279.510, 145.497
280.874, 62.152
282.237, 74.979
283.601, 10.021
284.964, 20.427
286.327, 131.611
287.690, 262.396
289.053, 362.919
290.416, 473.439
291.778, 632.950
293.140, 713.106
294.502, 816.893
295.863, 988.394
297.225, 1177.428
298.586, 1340.067
299.947, 1510.581
301.308, 1677.300
302.668, 1967.299
304.029, 2067.333
305.389, 2381.400
306.749, 2651.448
308.108, 2876.547
309.468, 3184.708
310.827, 3288.900
312.186, 3450.120
313.545, 3484.370
314.903, 3453.648
316.262, 3341.954
317.620, 3318.287
318.978, 3120.647
320.336, 2816.032
321.693, 2632.445
323.051, 2530.882
324.408, 2415.344
325.765, 2226.831
327.121, 2274.344
328.478, 2099.882
329.834, 2109.446
331.190, 2055.548
332.546, 2114.162
333.902, 2005.801
335.257, 1953.464
336.612, 1843.152
337.967, 1716.831
339.322, 1602.495
340.677, 1549.109
342.031, 1447.702
343.385, 1261.275
344.739, 1318.855
346.093, 1192.462
347.446, 1183.092
348.799, 1149.746
350.153, 1180.421
351.505, 1198.118
352.858, 1220.835
354.210, 1218.572
355.563, 1208.329
356.915, 1307.104
358.267, 1391.898
359.618, 1449.712
360.969, 1467.543
362.321, 1634.393
363.672, 1699.260
365.022, 1826.144
366.373, 1960.044
367.723, 1988.962
369.073, 2125.895
370.423, 2249.845
371.773, 2418.810
373.122, 2499.790
374.471, 2728.786
375.821, 2891.874
377.169, 3121.820
378.518, 3262.858
379.866, 3308.910
381.215, 3423.975
382.563, 3480.054
383.910, 3515.146
385.258, 3456.249
386.605, 3408.366
387.952, 3362.494
389.299, 3168.634
390.646, 3105.786
391.992, 3028.949
393.339, 2909.123
394.685, 2912.307
396.031, 2704.502
397.376, 2791.707
398.722, 2485.922
400.067, 2455.146
401.412, 2240.380
402.757, 2121.622
404.101, 1976.874
405.446, 1663.154
406.790, 1458.465
408.134, 1340.808
409.478, 1179.175
410.821, 1005.567
412.165, 891.982
413.508, 680.419
414.851, 585.875
416.193, 535.351
417.536, 468.844
418.878, 458.356
420.220, 448.883
421.562, 414.192
422.904, 441.984
424.245, 380.556
425.586, 484.141
426.927, 485.739
428.268, 490.350
429.609, 446.971
430.949, 410.136
432.289, 425.109
433.629, 429.173
434.969, 352.252
436.309, 312.712
437.648, 296.632
438.987, 238.536
440.326, 166.648
441.665, 99.513
443.003, 30.416
444.342, 1.357
445.680, 23.028
447.018, 47.244
448.355, 55.008
449.693, 82.476
451.030, 25.993
452.367, 145.057
453.704, 52.780
455.041, 113.707
456.377, 38.273
457.713, 46.952
459.049, 19.330
460.385, 24.604
461.721, 1.130
463.056, 58.121
464.391, 55.372
465.726, 82.623
467.061, 121.876
468.395, 138.130
469.730, 137.386
471.064, 189.649
472.398, 144.913
473.731, 189.183
475.065, 84.453
476.398, 109.726
477.731, 123.002
479.064, 108.292
480.397, 139.593
481.729, 99.901
483.062, 68.217
484.394, 120.541
485.725, 125.875
487.057, 84.218
488.389, 80.562
489.720, 89.914
491.051, 40.263
492.382, 112.616
493.712, 150.965
495.043, 102.323
496.373, 124.676
497.703, 111.025
499.032, 203.389
500.362, 240.762
501.691, 207.137
503.020, 228.510
504.349, 251.895
505.678, 325.293
507.007, 338.688
508.335, 362.097
509.663, 377.518
510.991, 364.942
512.319, 459.361
513.646, 470.776
514.973, 583.190
516.300, 590.601
517.627, 701.006
518.954, 815.410
520.280, 782.806
521.607, 909.194
522.933, 990.577
524.259, 1037.954
525.584, 1063.328
526.910, 1065.451
528.235, 1064.062
529.560, 1014.418
530.885, 982.769
532.209, 946.111
533.534, 920.444
534.858, 943.767
536.182, 933.080
537.506, 964.382
538.829, 892.674
540.152, 869.954
541.476, 823.223
542.799, 833.479
544.121, 800.724
545.444, 803.957
546.766, 775.177
548.088, 776.384
549.410, 768.578
550.732, 774.758
552.053, 775.925
553.375, 762.320
554.696, 761.216
556.017, 734.341
557.337, 716.450
558.658, 699.125
559.978, 693.626
561.298, 663.690
562.618, 646.738
563.938, 585.771
565.257, 521.786
566.576, 441.785
567.895, 402.766
569.214, 368.729
570.533, 363.675
571.851, 388.603
573.170, 358.513
574.488, 368.404
575.805, 325.277
577.123, 284.131
578.440, 256.965
579.758, 356.780
581.075, 392.576
582.391, 378.352
583.708, 389.108
585.024, 387.844
586.341, 408.559
587.657, 417.254
588.972, 353.928
590.288, 329.589
591.603, 252.241
592.918, 200.884
594.233, 80.518
595.548, 59.142
596.863, 6.252
598.177, 55.699
599.491, 53.221
600.805, 19.813
602.119, 91.472
603.432, 56.177
604.746, 73.314
606.059, 19.045
607.372, 26.369
608.685, 2.574
609.997, 32.526
611.309, 77.510
612.621, 81.862
613.933, 119.900
615.245, 148.636
616.557, 188.158
617.868, 193.277
619.179, 240.494
620.490, 280.991
621.801, 317.917
623.111, 433.010
624.421, 470.441
625.731, 527.495
627.041, 437.008
628.351, 620.564
629.660, 622.934
630.970, 732.222
632.279, 780.417
633.588, 841.915
634.896, 870.940
636.205, 903.288
637.513, 988.918
638.821, 1025.703
640.129, 1128.871
641.437, 1204.985
642.744, 1329.690
644.051, 1462.686
645.358, 1548.585
646.665, 1757.691
647.972, 1894.620
649.278, 2037.566
650.584, 2248.352
651.890, 2487.858
653.196, 2781.519
654.502, 3110.335
655.807, 3445.118
657.113, 3801.927
658.418, 4181.575
659.722, 4907.575
661.027, 5404.870
662.331, 6162.517
663.636, 7146.217
664.940, 8269.764
666.244, 9329.293
667.547, 11604.489
668.851, 13225.844
670.154, 16035.767
671.457, 18990.867
672.760, 22958.771
674.062, 28006.158
675.365, 33193.355
676.667, 38981.543
677.969, 43969.566
679.271, 48532.059
680.572, 50651.473
681.874, 49482.680
683.175, 47388.199
684.476, 42556.973
685.777, 36181.039
687.077, 30414.422
688.378, 24897.564
689.678, 20543.422
690.978, 16616.068
692.278, 13731.819
693.577, 10969.595
694.877, 9585.219
696.176, 7906.885
697.475, 6800.153
698.774, 5835.531
700.072, 5213.895
701.371, 4491.413
702.669, 4175.696
703.967, 3648.858
705.265, 3358.081
706.562, 3228.167
707.860, 2884.319
709.157, 2565.304
710.454, 2509.527
711.751, 2226.332
713.047, 2220.291
714.344, 2090.235
715.640, 2014.064
716.936, 1898.736
718.232, 1796.465
719.527, 1851.040
720.823, 1788.584
722.118, 1728.098
723.413, 1671.581
724.708, 1615.034
726.002, 1610.458
727.297, 1600.850
728.591, 1511.213
729.885, 1550.546
731.179, 1577.849
732.472, 1462.122
733.766, 1450.365
735.059, 1422.579
736.352, 1389.763
737.645, 1315.918
738.937, 1250.044
740.230, 1187.917
741.522, 1154.208
742.814, 1067.247
744.106, 1020.257
745.397, 1009.238
746.689, 903.191
747.980, 801.115
749.271, 779.011
750.562, 752.700
751.853, 763.713
753.143, 630.649
754.433, 637.432
755.723, 640.323
757.013, 518.264
758.303, 559.663
759.592, 461.269
760.881, 496.845
762.170, 375.931
763.459, 417.679
764.748, 382.429
766.036, 330.688
767.325, 336.541
768.613, 266.556
769.901, 220.151
771.188, 236.820
772.476, 138.486
773.763, 148.131
775.050, 42.755
776.337, 108.361
777.624, 62.940
778.910, 20.494
780.196, 62.017
781.482, 12.514
782.768, 9.021
784.054, 16.403
785.339, 6.203
786.625, 24.151
787.910, 5.477
789.195, 4.230
790.479, 41.975
791.764, 31.310
793.048, 18.630
794.332, 25.527
795.616, 25.472
796.900, 35.721
798.183, 25.293
799.467, 8.599
800.750, 28.727
802.033, 14.097
803.316, 36.107
804.598, 22.642
805.880, 38.636
807.163, 32.035
808.445, 8.679
809.726, 61.703
811.008, 47.148
812.289, 13.647
813.570, 4.183
814.851, 57.750
816.132, 64.376
817.413, 0.063
818.693, 64.779
819.973, 65.556
821.253, 29.395
822.533, 19.725
823.813, 11.179
825.092, 15.116
826.371, 13.085
827.650, 0.086
828.929, 20.113
830.208, 14.826
831.486, 46.741
832.764, 9.366
834.042, 8.502
835.320, 25.664
836.598, 13.862
837.875, 20.556
839.152, 1.346
840.429, 13.628
841.706, 7.938
842.983, 13.727
844.259, 55.369
845.536, 23.990
846.812, 9.590
848.088, 37.168
849.363, 18.725
850.639, 106.261
851.914, 71.779
853.189, 67.277
854.464, 21.756
855.739, 70.215
857.013, 90.655
858.288, 68.077
859.562, 92.480
860.836, 68.866
862.110, 100.234
863.383, 35.584
864.656, 126.917
865.930, 82.235
867.203, 77.537
868.475, 96.825
869.748, 126.101
871.020, 104.365
872.292, 167.617
873.564, 155.858
874.836, 204.091
876.108, 254.313
877.379, 189.528
878.650, 253.746
879.922, 331.954
881.192, 344.175
882.463, 335.385
883.733, 375.595
885.004, 391.804
886.274, 454.003
887.544, 477.204
888.813, 582.412
890.083, 577.628
891.352, 664.856
892.621, 691.091
893.890, 698.332
895.159, 753.579
896.427, 695.823
897.695, 772.078
898.964, 826.326
900.232, 833.575
901.499, 921.818
902.767, 974.522
904.034, 1065.293
905.301, 1112.535
906.568, 1165.791
907.835, 1217.079
909.102, 1282.394
910.368, 1458.735
911.634, 1523.115
912.900, 1764.523
914.166, 1749.973
915.432, 1987.454
916.697, 2134.958
917.962, 2339.484
919.227, 2613.032
920.492, 2796.583
921.757, 3003.134
923.021, 3394.680
924.285, 3678.222
925.550, 4002.572
926.813, 4269.956
928.077, 4482.862
929.341, 4707.066
930.604, 4844.075
931.867, 4914.719
933.130, 4818.718
934.393, 4740.241
935.655, 4538.697
936.918, 4288.314
938.180, 4090.983
939.442, 3871.718
940.703, 3697.120
941.965, 3622.965
943.226, 3441.458
944.488, 3296.641
945.749, 3137.635
947.009, 3194.218
948.270, 3145.824
949.530, 3055.808
950.791, 2884.469
952.051, 2871.199
953.311, 2698.690
954.570, 2561.327
955.830, 2386.404
957.089, 2234.122
958.348, 2109.091
959.607, 1921.874
960.866, 1735.471
962.124, 1590.077
963.383, 1489.624
964.641, 1374.302
965.899, 1351.593
967.156, 1290.559
968.414, 1272.140
969.671, 1117.640
970.928, 1183.260
972.185, 1007.866
973.442, 1125.775
974.699, 964.488
975.955, 1058.602
977.211, 1045.508
978.468, 955.569
979.723, 1024.121
980.979, 960.815
982.234, 847.496
983.490, 1006.309
984.745, 836.615
986.000, 882.958
987.254, 889.476
988.509, 802.642
989.763, 863.525
991.017, 724.082
992.271, 761.287
993.525, 831.692
994.779, 832.346
996.032, 834.172
997.285, 850.868
998.538, 886.500
999.791, 860.246
1001.044, 954.912
1002.296, 874.941
1003.548, 964.824
1004.800, 937.687
1006.052, 1021.355
1007.304, 960.223
1008.555, 1040.171
1009.807, 1147.022
1011.058, 1070.972
1012.309, 1133.819
1013.559, 1227.801
1014.810, 1194.836
1016.060, 1186.029
1017.310, 1287.409
1018.560, 1325.819
1019.810, 1366.759
1021.060, 1481.731
1022.309, 1442.540
1023.558, 1521.622
1024.807, 1623.884
1026.056, 1632.093
1027.305, 1761.609
1028.553, 1825.483
1029.801, 1986.446
1031.049, 2070.593
1032.297, 2184.688
1033.545, 2206.544
1034.793, 2410.091
1036.040, 2523.205
1037.287, 2635.248
1038.534, 2811.199
1039.781, 2943.067
1041.027, 3243.642
1042.274, 3271.324
1043.520, 3574.451
1044.766, 3782.593
1046.012, 3957.679
1047.257, 4170.922
1048.503, 4460.122
1049.748, 4796.164
1050.993, 4929.341
1052.238, 5377.424
1053.483, 5684.586
1054.727, 6101.579
1055.971, 6539.727
1057.216, 7175.323
1058.459, 7697.167
1059.703, 8417.846
1060.947, 9038.840
1062.190, 9781.862
1063.433, 10743.868
1064.676, 11597.360
1065.919, 12355.174
1067.162, 13097.604
1068.404, 14029.587
1069.646, 14178.352
1070.888, 14655.255
1072.130, 14863.194
1073.372, 14603.549
1074.613, 14282.264
1075.855, 13972.041
1077.096, 12997.698
1078.337, 12201.530
1079.578, 11369.187
1080.818, 10556.803
1082.059, 9677.410
1083.299, 8865.402
1084.539, 8033.872
1085.779, 7238.112
1087.018, 6514.630
1088.258, 5791.187
1089.497, 5157.359
1090.736, 4570.974
1091.975, 4157.330
1093.213, 3690.645
1094.452, 3309.660
1095.690, 3074.839
1096.928, 2750.982
1098.166, 2536.065
1099.404, 2331.284
1100.642, 2215.275
1101.879, 1939.370
1103.116, 1938.838
1104.353, 1757.615
1105.590, 1743.370
1106.827, 1559.359
1108.063, 1588.957
1109.299, 1467.124
1110.536, 1437.349
1111.771, 1404.579
1113.007, 1294.268
1114.243, 1277.883
1115.478, 1286.774
1116.713, 1164.843
1117.948, 1167.924
1119.183, 1163.750
1120.418, 1144.968
1121.652, 1132.708
1122.886, 1241.409
1124.120, 1167.718
1125.354, 1203.162
1126.588, 1021.350
1127.821, 947.657
1129.055, 920.868
1130.288, 898.521
1131.521, 838.746
1132.753, 914.867
1133.986, 768.904
1135.218, 799.657
1136.450, 823.744
1137.682, 760.014
1138.914, 863.808
1140.146, 665.495
1141.377, 692.396
1142.609, 620.321
1143.840, 651.095
1145.071, 640.453
1146.301, 589.053
1147.532, 572.859
1148.762, 589.516
1149.992, 530.000
1151.222, 467.554
1152.452, 504.320
1153.682, 430.732
1154.911, 425.812
1156.140, 398.892
1157.369, 312.361
1158.598, 342.512
1159.827, 313.779
1161.055, 263.704
1162.284, 187.133
1163.512, 240.864
1164.740, 151.732
1165.967, 141.314
1167.195, 33.972
1168.422, 55.616
1169.650, 73.736
1170.877, 37.250
1172.103, 4.101
1173.330, 10.648
1174.557, 6.004
1175.783, 46.092
1177.009, 62.078
1178.235, 81.420
1179.461, 59.926
1180.686, 30.273
1181.912, 22.881
1183.137, 21.926
1184.362, 30.028
1185.587, 60.037
1186.811, 56.734
1188.036, 71.026
1189.260, 54.866
1190.484, 45.760
1191.708, 45.759
1192.932, 12.795
1194.155, 62.915
1195.378, 5.200
1196.602, 27.340
1197.825, 6.917
1199.047, 16.874
1200.270, 12.775
1201.492, 25.477
1202.715, 5.565
1203.937, 3.438
1205.159, 38.673
1206.380, 20.482
1207.602, 17.173
1208.823, 11.959
1210.044, 25.536
1211.265, 33.266
1212.486, 5.834
1213.707, 31.599
1214.927, 56.389
1216.147, 5.134
1217.367, 7.313
1218.587, 10.222
1219.807, 1.286
1221.027, 28.828
1222.246, 19.200
1223.465, 31.882
1224.684, 12.539
1225.903, 27.084
1227.121, 29.554
1228.340, 19.076
1229.558, 24.890
1230.776, 1.617
1231.994, 2.514
1233.212, 29.406
1234.429, 24.167
1235.646, 67.320
1236.864, 16.964
1238.081, 39.939
1239.297, 43.297
1240.514, 87.851
1241.730, 56.226
1242.947, 58.721
1244.163, 64.189
1245.378, 46.534
1246.594, 72.823
1247.810, 56.962
1249.025, 20.118
1250.240, 107.008
1251.455, 108.348
1252.670, 6.519
1253.885, 136.992
1255.099, 35.562
1256.313, 1.724
1257.527, 27.875
1258.741, 91.122
1259.955, 101.783
1261.168, 54.281
1262.382, 34.302
1263.595, 32.337
1264.808, 59.545
1266.021, 26.412
1267.233, 66.441
1268.446, 68.090
1269.658, 135.297
1270.870, 94.527
1272.082, 147.880
1273.294, 110.765
1274.505, 124.813
1275.716, 49.918
1276.928, 82.483
1278.139, 148.047
1279.349, 130.569
1280.560, 189.151
1281.770, 100.604
1282.981, 69.802
1284.191, 152.189
1285.401, 167.378
1286.610, 106.398
1287.820, 92.044
1289.029, 115.691
1290.239, 39.140
1291.448, 134.437
1292.656, 84.832
1293.865, 97.956
1295.073, 127.995
1296.282, 98.935
1297.490, 66.789
1298.698, 108.658
1299.906, 176.417
1301.113, 164.041
1302.320, 78.540
1303.528, 122.154
1304.735, 90.788
1305.942, 151.018
1307.148, 59.197
1308.355, 171.280
1309.561, 125.127
1310.767, 38.621
1311.973, 146.850
1313.179, 134.531
1314.384, 56.580
1315.590, 135.219
1316.795, 70.594
1318.000, 98.753
1319.205, 125.813
1320.410, 47.601
1321.614, 125.773
1322.819, 65.710
1324.023, 66.613
1325.227, 149.332
1326.431, 223.967
1327.634, 102.984
1328.838, 62.220
1330.041, 56.417
1331.244, 153.600
1332.447, 113.857
1333.650, 63.093
1334.852, 111.351
1336.055, 108.930
1337.257, 90.393
1338.459, 88.809
1339.661, 37.960
1340.862, 13.052
1342.064, 15.724
1343.265, 107.342
1344.466, 27.220
1345.667, 104.153
1346.868, 123.900
1348.068, 126.410
1349.269, 77.334
1350.469, 121.902
1351.669, 142.522
1352.869, 91.721
1354.069, 138.949
1355.268, 169.078
1356.468, 10.521
1357.667, 132.613
1358.866, 111.059
1360.065, 67.621
1361.263, 148.303
1362.462, 15.881
1363.660, 54.560
1364.858, 148.306
1366.056, 78.673
1367.254, 4.769
1368.451, 96.687
1369.649, 64.282
1370.846, 61.903
1372.043, 63.374
1373.240, 79.662
1374.436, 44.424
1375.633, 48.479
1376.829, 71.655
1378.025, 20.373
1379.221, 72.269
1380.417, 73.661
1381.613, 20.476
1382.808, 107.065
1384.003, 50.439
1385.199, 67.792
1386.393, 39.716
1387.588, 32.830
1388.783, 38.712
1389.977, 33.907
1391.171, 42.852
1392.365, 31.114
1393.559, 52.719
1394.753, 6.986
1395.946, 9.972
1397.140, 89.178
1398.333, 52.134
1399.526, 124.191
1400.719, 106.017
1401.911, 63.737
1403.104, 183.844
1404.296, 16.159
1405.488, 57.968
1406.680, 82.054
1407.872, 43.649
1409.063, 43.774
1410.255, 17.595
1411.446, 48.310
1412.637, 124.990
1413.828, 98.792
1415.018, 51.179
1416.209, 136.692
1417.399, 76.281
1418.589, 46.906
1419.779, 146.332
1420.969, 0.405
1422.159, 110.729
1423.348, 74.201
1424.537, 83.479
1425.726, 120.920
1426.915, 53.778
1428.104, 78.985
1429.293, 97.534
1430.481, 164.372
1431.669, 138.375
1432.857, 162.969
1434.045, 183.489
1435.233, 131.757
1436.420, 229.388
1437.608, 193.718
1438.795, 179.522
1439.982, 171.191
1441.169, 143.401
1442.355, 145.932
1443.542, 157.113
1444.728, 168.319
1445.914, 112.545
1447.100, 85.876
1448.286, 207.664
1449.472, 147.271
1450.657, 69.516
1451.842, 198.019
1453.027, 126.527
1454.212, 184.103
1455.397, 296.495
1456.581, 59.711
1457.766, 231.111
1458.950, 155.549
1460.134, 127.403
1461.318, 138.047
1462.501, 103.275
1463.685, 154.230
1464.868, 252.283
1466.051, 64.245
1467.234, 228.333
1468.417, 112.843
1469.600, 99.411
1470.782, 146.787
1471.965, 313.860
1473.147, 169.025
1474.329, 219.117
1475.510, 135.720
1476.692, 81.846
1477.873, 125.971
1479.055, 151.540
1480.236, 114.038
1481.416, 239.703
1482.597, 119.777
1483.778, 223.815
1484.958, 41.503
1486.138, 159.684
1487.318, 41.713
1488.498, 315.454
1489.678, 90.854
1490.857, 124.812
1492.037, 135.279
1493.216, 131.509
