##NAMES=Fluorapatite
##RRUFFID=R050122
##IDEAL CHEMISTRY=Ca_5_(PO_4_)_3_F
##LOCALITY=Cruziero mine, San Jose, Minas Gerais, Brazil
##OWNER=RRUFF
##SOURCE=Carlos and Paulo Vasconcelos
##DESCRIPTION=Green fragment
##STATUS=The identification of this mineral has been confirmed by X-ray diffraction and chemical analysis
##URL=rruff.info/R050122
##MEASURED CHEMISTRY=(Ca_4.99_Mn_0.01_)_Î£=5_(P_1.00_O_4_)_3_F_1.00_; trace amounts of Fe
##PIN_ID=L00501
##ORIENTATION=Laser parallel to c* (0 0 1). Fiducial mark perpendicular to laser is parallel to a [1 0 0]
148.250, 0.000
149.635, 0.408
151.019, 76.949
152.403, 1.649
153.788, 99.701
155.171, 198.009
156.555, 295.772
157.939, 299.384
159.322, 234.768
160.705, 201.476
162.088, 221.250
163.470, 185.490
164.853, 187.887
166.235, 135.396
167.617, 259.163
168.998, 173.137
170.380, 143.078
171.761, 175.211
173.142, 88.635
174.523, 119.526
175.904, 93.792
177.284, 138.344
178.664, 24.007
180.044, 79.443
181.424, 125.816
182.803, 62.673
184.183, 124.729
185.562, 92.875
186.940, 88.236
188.319, 1.233
189.698, 18.091
191.076, 44.515
192.454, 28.450
193.831, 153.332
195.209, 25.627
196.586, 151.705
197.963, 83.504
199.340, 115.145
200.717, 140.932
202.093, 84.334
203.470, 127.451
204.846, 72.342
206.221, 162.672
207.597, 86.033
208.972, 83.326
210.347, 227.571
211.722, 114.864
213.097, 158.206
214.472, 140.576
215.846, 155.350
217.220, 42.854
218.594, 78.409
219.967, 155.608
221.341, 47.318
222.714, 130.528
224.087, 35.203
225.460, 120.349
226.832, 127.148
228.204, 46.018
229.577, 127.500
230.948, 131.537
232.320, 278.405
233.692, 105.269
235.063, 172.125
236.434, 127.914
237.805, 206.283
239.175, 169.894
240.545, 128.339
241.916, 359.064
243.286, 16.380
244.655, 242.224
246.025, 179.596
247.394, 83.544
248.763, 170.565
250.132, 181.114
251.501, 201.298
252.869, 71.599
254.237, 154.098
255.605, 106.015
256.973, 112.457
258.340, 276.876
259.708, 1.519
261.075, 280.828
262.442, 190.684
263.808, 358.346
265.175, 448.702
266.541, 302.757
267.907, 415.515
269.273, 320.898
270.639, 232.823
272.004, 291.916
273.369, 206.470
274.734, 286.137
276.099, 195.562
277.463, 201.462
278.828, 77.687
280.192, 118.631
281.556, 190.388
282.919, 55.551
284.283, 198.469
285.646, 62.203
287.009, 177.417
288.372, 175.242
289.734, 106.085
291.097, 168.275
292.459, 62.708
293.821, 208.077
295.183, 58.553
296.544, 108.793
297.905, 151.964
299.266, 122.062
300.627, 159.084
301.988, 44.031
303.348, 146.899
304.709, 187.688
306.069, 182.806
307.428, 128.670
308.788, 154.296
310.147, 189.858
311.507, 75.328
312.865, 13.329
314.224, 171.928
315.583, 90.169
316.941, 128.544
318.299, 26.649
319.657, 155.205
321.015, 103.745
322.372, 111.685
323.729, 51.224
325.086, 28.383
326.443, 226.425
327.800, 5.045
329.156, 92.411
330.512, 100.666
331.868, 32.078
333.224, 255.810
334.579, 43.525
335.935, 121.312
337.290, 79.052
338.645, 105.492
339.999, 153.471
341.354, 60.650
342.708, 117.580
344.062, 17.409
345.416, 274.366
346.769, 182.312
348.123, 189.005
349.476, 225.757
350.829, 63.084
352.182, 109.293
353.534, 76.389
354.887, 182.589
356.239, 277.032
357.591, 53.485
358.942, 219.140
360.294, 47.339
361.645, 162.757
362.996, 29.235
364.347, 106.591
365.698, 221.822
367.048, 49.920
368.398, 175.487
369.748, 52.037
371.098, 117.610
372.448, 143.419
373.797, 39.462
375.146, 145.548
376.495, 58.659
377.844, 137.237
379.192, 132.333
380.540, 77.991
381.889, 112.494
383.236, 19.598
384.584, 230.641
385.932, 56.083
387.279, 112.443
388.626, 226.699
389.973, 12.587
391.319, 107.019
392.666, 97.770
394.012, 112.843
395.358, 117.072
396.704, 32.108
398.049, 177.261
399.394, 98.455
400.740, 166.852
402.084, 111.169
403.429, 176.293
404.774, 190.383
406.118, 84.400
407.462, 208.954
408.806, 23.007
410.150, 26.949
411.493, 160.924
412.836, 34.818
414.179, 208.169
415.522, 60.763
416.865, 204.117
418.207, 86.663
419.549, 219.158
420.891, 291.824
422.233, 16.455
423.575, 356.074
424.916, 28.540
426.257, 270.909
427.598, 203.220
428.939, 235.613
430.279, 468.015
431.619, 210.132
432.959, 203.002
434.299, 294.985
435.639, 356.899
436.978, 508.717
438.318, 320.802
439.657, 864.086
440.996, 545.311
442.334, 626.533
443.673, 838.561
445.011, 599.367
446.349, 901.144
447.687, 901.856
449.024, 942.969
450.361, 904.017
451.699, 654.713
453.036, 895.606
454.372, 456.000
455.709, 496.944
457.045, 507.203
458.381, 387.614
459.717, 488.847
461.053, 279.200
462.388, 311.167
463.724, 151.072
465.059, 142.152
466.394, 369.042
467.728, 179.394
469.063, 340.972
470.397, 311.709
471.731, 371.896
473.065, 209.631
474.398, 118.872
475.732, 231.338
477.065, 120.962
478.398, 241.262
479.731, 121.992
481.063, 111.507
482.396, 241.955
483.728, 157.938
485.060, 461.431
486.391, 171.685
487.723, 61.447
489.054, 280.701
490.385, 79.529
491.716, 298.078
493.047, 129.206
494.377, 138.243
495.708, 108.642
497.038, 107.060
498.368, 426.184
499.697, 56.118
501.027, 204.312
502.356, 203.540
503.685, 18.034
505.014, 219.153
506.342, 29.127
507.671, 257.179
508.999, 216.284
510.327, 74.629
511.655, 191.759
512.982, 50.694
514.310, 247.708
515.637, 170.129
516.964, 237.836
518.291, 345.870
519.617, 4.675
520.944, 491.100
522.270, 179.378
523.596, 35.926
524.921, 463.057
526.247, 1.016
527.572, 307.010
528.897, 94.406
530.222, 290.871
531.547, 217.271
532.871, 174.620
534.196, 150.135
535.520, 207.305
536.844, 159.235
538.167, 335.425
539.491, 111.943
540.814, 407.295
542.137, 11.564
543.460, 466.271
544.783, 193.305
546.105, 19.004
547.427, 464.092
548.749, 71.070
550.071, 295.928
551.393, 57.289
552.714, 178.596
554.035, 373.268
555.356, 129.473
556.677, 124.592
557.998, 300.443
559.318, 67.910
560.638, 263.869
561.958, 58.355
563.278, 283.846
564.597, 128.164
565.917, 143.992
567.236, 248.238
568.555, 182.949
569.874, 236.594
571.192, 240.510
572.511, 354.857
573.829, 428.736
575.147, 313.051
576.464, 689.104
577.782, 682.240
579.099, 916.361
580.416, 1280.766
581.733, 1242.711
583.050, 1387.223
584.366, 660.369
585.683, 845.330
586.999, 408.410
588.315, 392.893
589.630, 676.432
590.946, 249.559
592.261, 643.600
593.576, 476.666
594.891, 531.348
596.206, 364.510
597.520, 77.445
598.834, 421.500
600.148, 444.426
601.462, 308.002
602.776, 741.039
604.089, 344.154
605.402, 908.385
606.715, 960.965
608.028, 1066.420
609.341, 1089.213
610.653, 701.586
611.965, 765.365
613.277, 487.592
614.589, 529.895
615.901, 712.189
617.212, 284.199
618.523, 637.357
619.834, 89.076
621.145, 451.582
622.456, 265.893
623.766, 53.455
625.076, 465.256
626.386, 96.602
627.696, 307.895
629.006, 469.098
630.315, 0.223
631.624, 442.172
632.933, 147.906
634.242, 422.553
635.551, 286.412
636.859, 66.459
638.167, 477.059
639.475, 166.434
640.783, 237.057
642.090, 285.105
643.398, 45.482
644.705, 359.707
646.012, 78.314
647.318, 408.600
648.625, 487.770
649.931, 32.770
651.237, 646.799
652.543, 26.064
653.849, 434.441
655.155, 203.895
656.460, 53.352
657.765, 562.203
659.070, 100.652
660.375, 329.859
661.679, 445.891
662.984, 74.166
664.288, 411.260
665.592, 154.445
666.895, 352.459
668.199, 460.477
669.502, 68.236
670.805, 555.258
672.108, 185.660
673.411, 711.594
674.713, 130.217
676.016, 98.047
677.318, 493.727
678.620, 122.691
679.921, 349.586
681.223, 295.469
682.524, 193.277
683.825, 718.537
685.126, 238.557
686.427, 304.709
687.727, 388.143
689.028, 164.672
690.328, 490.941
691.628, 168.369
692.927, 284.629
694.227, 352.061
695.526, 249.154
696.825, 534.879
698.124, 87.418
699.423, 486.877
700.721, 144.146
702.020, 260.934
703.318, 445.193
704.616, 96.529
705.913, 301.367
707.211, 37.193
708.508, 173.174
709.805, 578.346
711.102, 74.822
712.399, 189.646
713.695, 174.375
714.992, 400.703
716.288, 95.010
717.584, 370.674
718.879, 178.350
720.175, 513.477
721.470, 43.883
722.765, 608.273
724.060, 84.189
725.355, 329.555
726.649, 424.127
727.944, 160.750
729.238, 565.676
730.532, 181.555
731.825, 36.168
733.119, 811.244
734.412, 336.559
735.705, 321.502
736.998, 246.373
738.291, 311.188
739.584, 255.928
740.876, 91.385
742.168, 665.984
743.460, 130.369
744.752, 665.490
746.043, 389.889
747.334, 143.615
748.626, 477.879
749.916, 102.076
751.207, 626.197
752.498, 649.910
753.788, 192.678
755.078, 477.322
756.368, 271.166
757.658, 390.377
758.947, 354.104
760.237, 67.326
761.526, 630.912
762.815, 14.432
764.104, 360.875
765.392, 774.330
766.680, 87.635
767.969, 471.217
769.257, 404.387
770.544, 388.441
771.832, 501.486
773.119, 143.768
774.406, 377.271
775.693, 198.604
776.980, 1.385
778.267, 653.293
779.553, 60.555
780.839, 242.057
782.125, 392.994
783.411, 364.756
784.697, 627.092
785.982, 46.098
787.267, 648.232
788.552, 337.818
789.837, 20.230
791.122, 661.211
792.406, 131.420
793.690, 393.318
794.974, 203.934
796.258, 424.785
797.542, 375.877
798.825, 194.240
800.108, 626.879
801.391, 216.725
802.674, 257.943
803.957, 529.336
805.239, 165.205
806.522, 226.490
807.804, 455.334
809.085, 106.404
810.367, 456.457
811.649, 125.680
812.930, 506.703
814.211, 176.176
815.492, 256.562
816.772, 817.404
818.053, 446.613
819.333, 42.775
820.613, 606.662
821.893, 196.885
823.173, 717.508
824.452, 346.391
825.732, 66.928
827.011, 622.369
828.290, 72.807
829.568, 491.830
830.847, 290.674
832.125, 121.033
833.403, 389.949
834.681, 359.773
835.959, 339.346
837.236, 248.797
838.514, 21.051
839.791, 878.143
841.068, 82.424
842.345, 437.250
843.621, 416.441
844.898, 16.316
846.174, 664.969
847.450, 17.232
848.726, 256.566
850.001, 355.463
851.277, 145.172
852.552, 545.984
853.827, 216.479
855.102, 64.791
856.376, 363.613
857.651, 56.816
858.925, 831.199
860.199, 580.605
861.473, 241.930
862.746, 636.160
864.020, 186.055
865.293, 393.666
866.566, 551.746
867.839, 89.732
869.112, 498.629
870.384, 206.262
871.656, 35.025
872.928, 792.820
874.200, 78.223
875.472, 708.641
876.744, 37.598
878.015, 84.859
879.286, 993.115
880.557, 178.260
881.828, 669.086
883.098, 137.668
884.369, 455.041
885.639, 691.203
886.909, 229.686
888.178, 317.629
889.448, 505.480
890.717, 432.990
891.987, 1040.746
893.256, 108.244
894.524, 465.021
895.793, 703.283
897.061, 80.459
898.330, 578.658
899.598, 236.578
900.865, 453.445
902.133, 411.562
903.401, 648.211
904.668, 746.279
905.935, 194.318
907.202, 81.279
908.468, 749.264
909.735, 93.500
911.001, 594.143
912.267, 491.609
913.533, 327.859
914.799, 895.660
916.064, 39.512
917.330, 247.865
918.595, 725.562
919.860, 181.756
921.124, 1039.402
922.389, 36.877
923.653, 594.504
924.918, 862.074
926.182, 118.396
927.445, 865.676
928.709, 592.195
929.972, 446.137
931.236, 823.602
932.499, 223.805
933.761, 820.484
935.024, 367.793
936.286, 264.965
937.549, 752.363
938.811, 588.191
940.073, 986.406
941.334, 563.523
942.596, 196.680
943.857, 794.059
945.118, 560.281
946.379, 977.680
947.640, 1324.191
948.900, 991.523
950.161, 1278.738
951.421, 1241.066
952.681, 1388.355
953.940, 1984.891
955.200, 1311.590
956.459, 2518.840
957.719, 2615.172
958.978, 3261.754
960.236, 5718.996
961.495, 8915.070
962.753, 14692.430
964.012, 23198.578
965.270, 24935.781
966.527, 21684.258
967.785, 14240.938
969.043, 8108.105
970.300, 5925.270
971.557, 3097.496
972.814, 2675.438
974.071, 1691.848
975.327, 978.965
976.583, 1566.129
977.840, 531.984
979.095, 979.145
980.351, 956.156
981.607, 523.305
982.862, 671.871
984.117, 698.066
985.372, 355.203
986.627, 803.484
987.882, 120.586
989.136, 607.305
990.390, 682.555
991.644, 349.660
992.898, 921.180
994.152, 78.262
995.405, 225.340
996.659, 555.109
997.912, 247.816
999.165, 557.773
1000.417, 351.617
1001.670, 368.684
1002.922, 805.410
1004.174, 2.492
1005.426, 549.133
1006.678, 369.902
1007.930, 247.090
1009.181, 949.520
1010.432, 76.699
1011.683, 424.035
1012.934, 1105.086
1014.185, 42.410
1015.435, 969.254
1016.685, 329.309
1017.935, 616.691
1019.185, 1153.605
1020.435, 198.609
1021.684, 888.215
1022.934, 821.953
1024.183, 389.242
1025.432, 1370.531
1026.680, 169.551
1027.929, 955.672
1029.177, 1112.000
1030.425, 859.277
1031.673, 1934.465
1032.921, 1482.926
1034.169, 1149.500
1035.416, 1746.793
1036.663, 245.570
1037.911, 1222.551
1039.157, 580.496
1040.404, 647.766
1041.650, 1415.047
1042.897, 423.094
1044.143, 1069.715
1045.389, 1157.035
1046.634, 125.102
1047.880, 1381.531
1049.125, 549.371
1050.371, 836.531
1051.615, 1533.906
1052.860, 412.820
1054.105, 1130.191
1055.349, 1197.559
1056.593, 764.555
1057.837, 1181.078
1059.081, 1298.438
1060.325, 1189.781
1061.568, 1717.129
1062.812, 634.477
1064.055, 1311.820
1065.298, 1039.168
1066.540, 453.516
1067.783, 1290.777
1069.025, 608.125
1070.267, 1025.117
1071.509, 1052.457
1072.751, 149.320
1073.993, 1006.660
1075.234, 903.992
1076.475, 430.734
1077.716, 1408.055
1078.957, 705.496
1080.198, 1252.836
1081.438, 1060.176
1082.679, 268.000
1083.919, 1155.402
1085.159, 642.797
1086.398, 680.465
1087.638, 1397.898
1088.877, 25.328
1090.116, 1252.758
1091.355, 1000.176
1092.594, 837.445
1093.833, 1404.867
1095.071, 212.281
1096.309, 891.770
1097.547, 1169.164
1098.785, 286.559
1100.023, 1113.938
1101.260, 711.379
1102.498, 389.453
1103.735, 1106.867
1104.972, 454.273
1106.208, 1072.508
1107.445, 969.898
1108.681, 367.277
1109.918, 935.047
1111.154, 222.414
1112.389, 440.945
1113.625, 848.301
1114.860, 34.359
1116.096, 632.945
1117.331, 610.238
1118.566, 427.520
1119.800, 994.781
1121.035, 82.051
1122.269, 600.277
1123.503, 1137.516
1124.737, 244.742
1125.971, 1004.125
1127.205, 961.328
1128.438, 38.504
1129.671, 1437.547
1130.904, 215.312
1132.137, 523.641
1133.370, 1131.652
1134.602, 18.641
1135.834, 926.445
1137.066, 893.031
1138.298, 49.949
1139.530, 1730.016
1140.762, 76.941
1141.993, 474.543
1143.224, 1422.426
1144.455, 70.695
1145.686, 1528.883
1146.917, 672.520
1148.147, 140.695
1149.377, 1477.266
1150.607, 223.953
1151.837, 1091.527
1153.067, 1168.258
1154.296, 245.133
1155.526, 1633.457
1156.755, 729.891
1157.984, 436.309
1159.213, 1112.512
1160.441, 508.887
1161.670, 695.398
1162.898, 1081.383
1164.126, 2.262
1165.354, 1444.035
1166.581, 332.320
1167.809, 348.547
1169.036, 1118.324
1170.263, 494.992
1171.490, 601.133
1172.717, 1279.195
1173.943, 35.289
1175.170, 1321.680
1176.396, 459.832
1177.622, 645.840
1178.848, 1388.359
1180.073, 185.141
1181.299, 1441.098
1182.524, 1049.105
1183.749, 115.035
1184.974, 1750.945
1186.199, 319.379
1187.423, 995.266
1188.648, 1393.156
1189.872, 300.742
1191.096, 456.586
1192.320, 993.363
1193.543, 319.188
1194.767, 1304.711
1195.990, 410.309
1197.213, 666.090
1198.436, 1542.199
1199.659, 160.133
1200.881, 755.875
1202.104, 1382.227
1203.326, 677.938
1204.548, 1393.641
1205.770, 1081.887
1206.991, 1147.559
1208.213, 1583.242
1209.434, 651.008
1210.655, 1136.664
1211.876, 1324.570
1213.096, 630.184
1214.317, 2355.789
1215.537, 892.160
1216.757, 1127.730
1217.977, 1653.285
1219.197, 462.289
1220.417, 1707.559
1221.636, 1293.059
1222.855, 618.895
1224.074, 2164.359
1225.293, 562.105
1226.512, 987.613
1227.731, 1703.000
1228.949, 478.215
1230.167, 1053.547
1231.385, 1848.859
1232.603, 566.707
1233.820, 1991.961
1235.038, 1087.805
1236.255, 653.055
1237.472, 2278.004
1238.689, 653.379
1239.906, 1338.203
1241.122, 1732.840
1242.338, 147.383
1243.555, 1511.660
1244.771, 1115.754
1245.986, 901.277
1247.202, 1825.270
1248.417, 499.230
1249.633, 1353.145
1250.848, 1477.008
1252.063, 462.359
1253.277, 1916.094
1254.492, 949.785
1255.706, 576.879
1256.920, 2240.461
1258.134, 393.855
1259.348, 988.879
1260.562, 2202.039
1261.775, 733.027
1262.988, 1086.078
1264.201, 1569.082
1265.414, 752.445
1266.627, 1665.332
1267.839, 457.344
1269.052, 811.801
1270.264, 1894.469
1271.476, 176.945
1272.688, 1580.543
1273.899, 1312.988
1275.111, 254.316
1276.322, 2306.602
1277.533, 237.020
1278.744, 460.316
1279.955, 2032.059
1281.165, 502.555
1282.376, 1264.172
1283.586, 895.664
1284.796, 56.043
1286.006, 1598.289
1287.215, 558.594
1288.425, 369.754
1289.634, 1190.836
1290.843, 117.754
1292.052, 879.109
1293.261, 1059.934
1294.469, 406.570
1295.678, 1327.328
1296.886, 507.281
1298.094, 82.371
1299.302, 1177.836
1300.509, 266.801
1301.717, 873.582
1302.924, 1403.449
1304.131, 556.742
1305.338, 995.750
1306.545, 704.887
1307.752, 236.055
1308.958, 774.387
1310.164, 880.379
1311.370, 248.938
1312.576, 1017.234
1313.782, 35.164
1314.987, 613.285
1316.193, 941.379
1317.398, 269.098
1318.603, 978.629
1319.807, 634.332
1321.012, 231.676
1322.216, 1395.910
1323.421, 15.543
1324.625, 558.094
1325.829, 1232.859
1327.032, 266.066
1328.236, 1090.066
1329.439, 813.895
1330.642, 188.305
1331.845, 1511.969
1333.048, 295.730
1334.251, 368.273
1335.453, 1672.422
1336.656, 73.465
1337.858, 1230.594
1339.060, 1524.617
1340.261, 211.418
1341.463, 1742.508
1342.664, 726.387
1343.866, 289.676
1345.067, 1793.449
1346.267, 667.184
1347.468, 950.730
1348.669, 1673.676
1349.869, 237.160
1351.069, 1620.188
1352.269, 1093.449
1353.469, 336.660
1354.668, 2289.832
1355.868, 300.289
1357.067, 1183.371
1358.266, 1695.555
1359.465, 668.566
1360.664, 1200.406
1361.862, 1492.801
1363.061, 164.047
1364.259, 1996.879
1365.457, 1189.719
1366.655, 792.555
1367.852, 2323.961
1369.050, 336.754
1370.247, 866.309
1371.444, 2036.227
1372.641, 23.902
1373.838, 1197.398
1375.035, 1468.945
1376.231, 63.180
1377.427, 2068.453
1378.623, 768.801
1379.819, 707.074
1381.015, 2027.672
1382.211, 778.289
1383.406, 1721.648
1384.601, 1955.242
1385.796, 715.469
1386.991, 1735.926
1388.185, 1779.633
1389.380, 416.059
1390.574, 2289.395
1391.768, 858.520
1392.962, 974.840
1394.156, 2579.871
1395.350, 396.742
1396.543, 1734.945
1397.736, 2130.340
1398.929, 84.445
1400.122, 1969.285
1401.315, 1604.445
1402.507, 378.668
1403.700, 2281.605
1404.892, 807.695
1406.084, 1149.129
1407.276, 2193.785
1408.467, 633.316
1409.659, 1068.688
1410.850, 2138.320
1412.041, 326.926
1413.232, 2008.895
1414.423, 1762.523
1415.614, 475.980
1416.804, 2407.453
1417.994, 832.664
1419.184, 1073.727
1420.374, 2374.000
1421.564, 333.434
1422.753, 1589.184
1423.943, 1523.934
1425.132, 660.289
1426.321, 1958.707
1427.510, 1409.188
1428.698, 165.754
1429.887, 2424.285
1431.075, 807.703
1432.263, 866.926
1433.451, 2270.684
1434.639, 541.426
1435.827, 1350.781
1437.014, 1939.770
1438.201, 6.195
1439.388, 1685.367
1440.575, 1482.906
1441.762, 684.004
1442.949, 2360.980
1444.135, 570.906
1445.321, 1341.207
1446.507, 2271.512
1447.693, 1.887
1448.879, 1773.539
1450.064, 1759.062
1451.250, 280.109
1452.435, 1760.273
1453.620, 1452.137
1454.805, 593.230
1455.989, 2376.844
1457.174, 656.297
1458.358, 654.488
1459.542, 2249.270
1460.726, 263.547
1461.910, 1293.934
1463.093, 2187.945
1464.277, 5.012
1465.460, 0.000
##END=



