##NAMES=Fluorite
##RRUFFID=R050046
##IDEAL CHEMISTRY=CaF_2_
##LOCALITY=Shangbao, Lei Yang, Hunan Province, China
##OWNER=RRUFF
##SOURCE=Eugene Schlepp
##DESCRIPTION=Pale purple crystal
##STATUS=The identification of this mineral has been confirmed by X-ray diffraction and chemical analysis
##URL=rruff.info/R050046
##MEASURED CHEMISTRY=Ca_1.000_ F_2.000_
##PIN_ID=L01404
##ORIENTATION=Laser parallel to c* (0 0 1). Fiducial mark perpendicular to laser is parallel to b [0 1 0]
168.1040, 0.0000000E+00
169.3320, 2.7344000E-02
170.5590, 257.1133
171.7860, 104.8223
173.0130, 64.35742
174.2400, 78.71582
175.4670, 315.9883
176.6930, 128.4375
177.9200, 181.9365
179.1460, 205.3672
180.3720, 57.62500
181.5980, 10.37109
182.8230, 27.69238
184.0490, 106.5918
185.2740, 125.4248
186.5000, 185.7637
187.7250, 205.5664
188.9500, 229.7939
190.1740, 211.4141
191.3990, 242.3916
192.6230, 403.7031
193.8480, 335.3223
195.0720, 382.2900
196.2960, 675.5215
197.5200, 633.0000
198.7430, 711.7148
199.9670, 707.6562
201.1900, 745.8145
202.4130, 655.1836
203.6360, 628.7510
204.8590, 699.5146
206.0820, 490.4590
207.3050, 323.5732
208.5270, 294.8408
209.7490, 127.2529
210.9710, 363.7998
212.1930, 452.4746
213.4150, 502.2734
214.6370, 497.1904
215.8580, 366.2207
217.0790, 419.3613
218.3010, 338.6084
219.5210, 409.9590
220.7420, 519.5059
221.9630, 528.0283
223.1830, 496.6455
224.4040, 387.3555
225.6240, 537.1611
226.8440, 565.0674
228.0640, 411.0732
229.2840, 267.1836
230.5030, 350.3965
231.7230, 414.7031
232.9420, 444.1025
234.1610, 428.5957
235.3800, 470.7979
236.5990, 454.8506
237.8170, 503.6123
239.0360, 522.4600
240.2540, 542.7344
241.4720, 552.4082
242.6900, 521.4404
243.9080, 474.4941
245.1250, 427.5645
246.3430, 367.6523
247.5600, 230.7627
248.7770, 406.8652
249.9940, 450.9854
251.2110, 452.1387
252.4280, 232.2041
253.6450, 350.8682
254.8610, 409.5674
256.0770, 411.5254
257.2930, 186.7012
258.5090, 254.8086
259.7250, 205.5742
260.9400, 151.5713
262.1560, 261.0273
263.3710, 69.38574
264.5860, 176.3242
265.8010, 164.1328
267.0160, 206.5117
268.2310, 130.8408
269.4450, 91.68262
270.6600, 170.7031
271.8740, 25.37695
273.0880, 22.51660
274.3020, 11.41406
275.5150, 110.3242
276.7290, 49.30566
277.9420, 120.3242
279.1550, 102.3838
280.3680, 44.48242
281.5810, 240.6992
282.7940, 56.03516
284.0070, 124.5078
285.2190, 102.0938
286.4310, 76.71680
287.6430, 224.3730
288.8550, 346.0605
290.0670, 180.3340
291.2790, 379.1250
292.4900, 466.9434
293.7020, 553.8145
294.9130, 549.7402
296.1240, 601.7168
297.3350, 679.7461
298.5450, 549.8633
299.7560, 635.0098
300.9660, 595.1738
302.1760, 619.3633
303.3860, 534.5879
304.5960, 667.3457
305.8060, 769.3105
307.0150, 991.7070
308.2250, 1211.148
309.4340, 1529.652
310.6430, 1893.178
311.8520, 2375.523
313.0610, 2820.320
314.2700, 3528.684
315.4780, 4048.816
316.6860, 4723.928
317.8940, 5339.936
319.1020, 5815.783
320.3100, 5989.732
321.5180, 5910.625
322.7250, 5423.598
323.9330, 4603.646
325.1400, 4134.766
326.3470, 3138.826
327.5540, 2660.021
328.7600, 2309.486
329.9670, 1758.854
331.1730, 1486.279
332.3800, 1378.754
333.5860, 1073.283
334.7920, 999.8594
335.9970, 801.4805
337.2030, 933.1484
338.4080, 747.8574
339.6140, 768.6133
340.8190, 747.4062
342.0240, 874.2402
343.2290, 816.1133
344.4330, 827.2695
345.6380, 813.1660
346.8420, 776.9453
348.0460, 733.9609
349.2500, 696.0078
350.4540, 678.0918
351.6580, 708.2031
352.8610, 738.3477
354.0650, 713.5215
355.2680, 589.7266
356.4710, 801.9570
357.6740, 632.2207
358.8760, 846.5098
360.0790, 708.8281
361.2810, 628.1719
362.4840, 762.5430
363.6860, 688.9375
364.8880, 617.3594
366.0900, 607.8203
367.2910, 587.8867
368.4930, 563.7793
369.6940, 568.2148
370.8950, 555.8164
372.0960, 578.3770
373.2970, 598.9629
374.4980, 616.5762
375.6980, 666.2090
376.8980, 481.8730
378.0990, 307.5938
379.2990, 399.3320
380.4980, 540.0938
381.6980, 476.9219
382.8980, 549.7188
384.0970, 508.0449
385.2960, 461.3652
386.4950, 418.2168
387.6940, 370.0840
388.8930, 375.9648
390.0920, 306.0293
391.2900, 492.9473
392.4880, 383.4473
393.6860, 525.2578
394.8840, 134.2207
396.0820, 211.9668
397.2800, 282.2090
398.4770, 272.5605
399.6750, 239.7988
400.8720, 389.9375
402.0690, 213.1309
403.2660, 227.3008
404.4620, 177.3770
405.6590, 240.9512
406.8550, 81.24219
408.0510, 20.35938
409.2480, 36.51367
410.4430, 57.57617
411.6390, 146.7227
412.8350, 175.8828
414.0300, 132.1680
415.2250, 93.34961
416.4200, 156.5020
417.6150, 145.1250
418.8100, 123.5117
420.0050, 185.7324
421.1990, 135.0938
422.3940, 132.5391
423.5880, 69.78516
424.7820, 13.16211
425.9750, 71.01172
427.1690, 121.6562
428.3630, 200.5039
429.5560, 166.7832
430.7490, 289.0664
431.9420, 478.3535
433.1350, 361.8770
434.3280, 234.1777
435.5200, 338.6172
436.7130, 529.1562
437.9050, 394.4805
439.0970, 349.5352
440.2890, 517.6582
441.4810, 507.0703
442.6720, 614.4453
443.8640, 482.1562
445.0550, 568.4180
446.2460, 605.0645
447.4370, 615.1836
448.6280, 400.7773
449.8180, 750.6094
451.0090, 425.0859
452.1990, 371.5527
453.3890, 642.9004
454.5790, 511.5039
455.7690, 378.8145
456.9590, 386.3066
458.1480, 424.2188
459.3380, 386.5566
460.5270, 265.5977
461.7160, 335.9688
462.9050, 314.4961
464.0940, 428.8477
465.2820, 421.4219
466.4700, 582.9082
467.6590, 410.3047
468.8470, 351.7344
470.0350, 255.1758
471.2220, 485.6250
472.4100, 227.0859
473.5970, 438.5625
474.7850, 414.0742
475.9720, 429.5879
477.1590, 481.1465
478.3460, 512.7031
479.5320, 720.2891
480.7190, 842.8789
481.9050, 601.4727
483.0910, 800.0723
484.2770, 752.6914
485.4630, 853.3359
486.6490, 726.9824
487.8340, 793.6406
489.0200, 980.3105
490.2050, 1134.982
491.3900, 1005.688
492.5750, 1197.395
493.7600, 989.1309
494.9440, 781.8867
496.1290, 881.6484
497.3130, 798.4336
498.4970, 799.2148
499.6810, 608.0059
500.8650, 585.7949
502.0480, 400.5801
503.2320, 359.3633
504.4150, 292.1445
505.5980, 387.9258
506.7810, 325.7129
507.9640, 151.4961
509.1460, 223.7500
510.3290, 372.5391
511.5110, 264.3105
512.6930, 134.1953
513.8750, 195.9531
515.0570, 125.0605
516.2390, 77.73242
517.4210, 114.0156
518.6020, 32.27734
519.7830, 205.6582
520.9640, 47.44922
522.1450, 127.3008
523.3260, 29.00391
524.5060, 127.6973
525.6870, 83.61328
526.8670, 69.05664
528.0470, 72.72461
529.2270, 102.3809
530.4070, 179.4473
531.5870, 15.66602
532.7660, 194.2891
533.9450, 52.09766
535.1240, 151.5195
536.3030, 117.9707
537.4820, 100.5527
538.6610, 7.863281
539.8390, 219.7363
541.0180, 19.53711
542.1960, 20.20508
543.3740, 40.03125
544.5520, 51.25195
545.7290, 111.4570
546.9070, 0.3515630
548.0840, 35.82227
549.2620, 99.97852
550.4390, 112.1230
551.6160, 79.19336
552.7920, 148.8750
553.9690, 118.9297
555.1450, 62.85742
556.3220, 419.9883
557.4980, 50.99414
558.6740, 87.01758
559.8490, 78.90625
561.0250, 135.8125
562.2000, 68.70312
563.3760, 76.42773
564.5510, 208.3789
565.7260, 75.16797
566.9010, 101.0625
568.0750, 86.62891
569.2500, 12.30078
570.4240, 187.9531
571.5980, 144.5820
572.7720, 178.1934
573.9460, 58.78516
575.1200, 114.3574
576.2930, 82.90820
577.4670, 37.56055
578.6400, 129.0820
579.8130, 11.30469
580.9860, 7.666016
582.1590, 98.99805
583.3310, 108.3477
584.5040, 49.70312
585.6760, 28.94727
586.8480, 60.35547
588.0200, 57.33398
589.1920, 68.94922
590.3630, 42.20703
591.5350, 93.43750
592.7060, 3.644531
593.8770, 8.816406
595.0480, 1.955078
596.2190, 158.0566
597.3900, 95.21289
598.5600, 112.7324
599.7310, 140.3711
600.9010, 39.30469
602.0710, 136.2148
603.2410, 102.3789
604.4100, 260.7129
605.5800, 176.3828
606.7490, 87.90820
607.9190, 202.4863
609.0880, 278.1641
610.2570, 340.6855
611.4250, 165.2539
612.5940, 214.9199
613.7620, 433.6680
614.9310, 684.6738
616.0990, 578.5781
617.2670, 506.9688
618.4340, 679.5254
619.6020, 503.5176
620.7690, 931.2480
621.9370, 538.9883
623.1040, 803.2207
624.2710, 799.5410
625.4380, 714.1211
626.6040, 662.8145
627.7710, 596.5078
628.9370, 700.2129
630.1030, 554.4375
631.2690, 634.9453
632.4350, 610.5703
633.6010, 375.4902
634.7660, 395.7559
635.9320, 332.6094
637.0970, 523.1602
638.2620, 336.0527
639.4270, 436.2793
640.5920, 521.0957
641.7560, 489.8750
642.9210, 536.6172
644.0850, 463.3223
645.2490, 498.6250
646.4130, 474.3008
647.5770, 484.8926
648.7400, 178.4473
649.9040, 258.9570
651.0670, 313.4277
652.2300, 235.8574
653.3930, 351.2480
654.5560, 198.5996
655.7190, 142.9102
656.8810, 178.1699
658.0440, 104.3867
659.2060, 60.45312
660.3680, 252.5918
661.5300, 236.5996
662.6910, 415.5625
663.8530, 300.4355
665.0140, 584.3125
666.1750, 487.1543
667.3360, 616.9531
668.4970, 548.7070
669.6580, 414.4238
670.8190, 367.0957
671.9790, 282.5605
673.1390, 391.1484
674.2990, 335.1289
675.4590, 379.3711
676.6190, 403.2324
677.7790, 507.8906
678.9380, 531.0234
680.0970, 654.0176
681.2570, 826.0996
682.4160, 953.2539
683.5740, 993.3242
684.7330, 1111.135
685.8920, 1122.523
687.0500, 1162.129
688.2080, 1255.986
689.3660, 1096.992
690.5240, 1232.953
691.6820, 1348.924
692.8390, 1566.805
693.9960, 1080.643
695.1540, 1439.324
696.3110, 1326.078
697.4680, 1575.611
698.6240, 1514.576
699.7810, 1640.131
700.9370, 1576.715
702.0940, 1591.170
703.2500, 1601.055
704.4060, 1614.883
705.5610, 1606.178
706.7170, 1714.678
707.8720, 1777.924
709.0280, 1550.639
710.1830, 1789.889
711.3380, 1792.096
712.4920, 1216.264
713.6470, 1499.158
714.8020, 1147.236
715.9560, 1240.137
717.1100, 1110.896
718.2640, 991.7480
719.4180, 881.9160
720.5720, 717.2559
721.7250, 661.1152
722.8780, 809.0020
724.0320, 726.5098
725.1850, 672.2656
726.3380, 589.6133
727.4900, 621.7148
728.6430, 541.0117
729.7950, 463.0312
730.9470, 551.3594
732.1000, 515.6543
733.2510, 560.0273
734.4030, 533.0938
735.5550, 128.4141
736.7060, 387.5000
737.8570, 73.12305
739.0090, 230.2812
740.1600, 203.6934
741.3100, 169.7383
742.4610, 153.5957
743.6110, 83.58398
744.7620, 51.04883
745.9120, 47.96875
747.0620, 17.14844
748.2120, 83.55078
749.3610, 125.1895
750.5110, 215.7812
751.6600, 37.33008
752.8090, 41.19141
753.9580, 154.1797
755.1070, 80.49414
756.2560, 353.0684
757.4050, 17.04688
758.5530, 138.5293
759.7010, 302.7188
760.8490, 167.8301
761.9970, 86.13672
763.1450, 71.13477
764.2920, 281.3086
765.4400, 236.0137
766.5870, 216.0488
767.7340, 359.5508
768.8810, 71.01367
770.0280, 313.3633
771.1740, 81.65234
772.3210, 151.8281
773.4670, 272.9160
774.6130, 117.9434
775.7590, 567.8711
776.9050, 213.7480
778.0510, 576.5527
779.1960, 382.3066
780.3420, 426.0098
781.4870, 456.6680
782.6320, 285.2715
783.7770, 216.8203
784.9210, 434.3008
786.0660, 580.7344
787.2100, 496.6426
788.3540, 481.9609
789.4980, 533.2480
790.6420, 605.3672
791.7860, 480.5586
792.9300, 620.3477
794.0730, 533.5176
795.2160, 605.0293
796.3590, 692.5059
797.5020, 605.8125
798.6450, 557.6523
799.7880, 584.3789
800.9300, 552.2051
802.0720, 566.7344
803.2150, 620.7207
804.3560, 615.4141
805.4980, 751.0625
806.6400, 820.6719
807.7810, 764.2383
808.9230, 876.7617
810.0640, 706.2480
811.2050, 774.6875
812.3460, 948.1035
813.4860, 799.5156
814.6270, 727.8887
815.7670, 816.2480
816.9070, 862.5684
818.0470, 966.9102
819.1870, 759.2109
820.3270, 817.4805
821.4670, 789.7148
822.6060, 1041.910
823.7450, 946.0703
824.8840, 1007.195
826.0230, 1215.668
827.1620, 938.3398
828.3010, 1521.359
829.4390, 1512.363
830.5770, 1493.336
831.7150, 1542.271
832.8530, 1790.174
833.9910, 1798.043
835.1290, 1890.879
836.2660, 1715.707
837.4030, 1329.504
838.5410, 1020.270
839.6780, 867.0020
840.8140, 695.7266
841.9510, 610.4219
843.0870, 550.0879
844.2240, 587.7520
845.3600, 534.3066
846.4960, 548.9941
847.6320, 523.5742
848.7680, 571.1250
849.9030, 581.6484
851.0380, 587.1445
852.1740, 446.6133
853.3090, 441.9277
854.4440, 136.4922
855.5780, 266.9258
856.7130, 165.3379
857.8470, 36.27539
858.9820, 3.986328
860.1160, 31.22070
861.2500, 197.3652
862.3830, 22.49805
863.5170, 45.44922
864.6500, 206.5234
865.7840, 342.4766
866.9170, 398.4121
868.0500, 585.3262
869.1830, 707.2246
870.3150, 721.1113
871.4480, 1218.982
872.5800, 1319.758
873.7120, 1719.594
874.8440, 2258.303
875.9760, 2605.139
877.1080, 2975.955
878.2390, 3004.473
879.3710, 3497.781
880.5020, 3497.717
881.6330, 3125.758
882.7640, 2760.699
883.8940, 2304.506
885.0250, 1995.432
886.1550, 1344.268
887.2850, 1230.969
888.4160, 627.5508
889.5450, 470.8359
890.6750, 177.1836
891.8050, 71.18750
892.9340, 150.3984
894.0630, 235.3320
895.1930, 527.1172
896.3220, 301.0898
897.4500, 503.6855
898.5790, 357.5352
899.7070, 431.7852
900.8360, 135.2988
901.9640, 403.8945
903.0920, 6.644531
904.2200, 537.0391
905.3470, 1173.408
906.4750, 1945.629
907.6020, 2559.521
908.7290, 3365.037
909.8560, 4449.666
910.9830, 4717.104
912.1100, 5204.906
913.2360, 4782.342
914.3630, 3984.160
915.4890, 3736.986
916.6150, 3939.820
917.7410, 4083.668
918.8670, 4863.891
919.9920, 5839.715
921.1180, 7204.598
922.2430, 8093.492
923.3680, 8524.404
924.4930, 8947.332
925.6180, 9902.277
926.7420, 9999.238
927.8670, 10080.23
928.9910, 9201.230
930.1150, 8243.258
931.2390, 7505.305
932.3630, 6590.396
933.4860, 5961.551
934.6100, 5700.740
935.7330, 5163.951
936.8560, 5332.227
937.9790, 5141.562
939.1020, 4680.922
940.2250, 4162.344
941.3470, 4457.797
942.4700, 5257.275
943.5920, 5733.822
944.7140, 6479.408
945.8360, 7528.020
946.9570, 9588.691
948.0790, 8899.391
949.2000, 7844.129
950.3220, 5858.918
951.4430, 4289.738
952.5640, 3021.588
953.6840, 1856.471
954.8050, 1204.389
955.9250, 961.3379
957.0460, 845.3242
958.1660, 919.3438
959.2860, 835.4004
960.4050, 675.4922
961.5250, 807.6230
962.6440, 868.7910
963.7640, 703.9980
964.8830, 872.2441
966.0020, 955.5312
967.1210, 999.8555
968.2390, 836.2246
969.3580, 975.6367
970.4760, 780.0879
971.5940, 608.5840
972.7120, 530.1250
973.8300, 350.7090
974.9480, 412.3398
976.0650, 479.0156
977.1830, 577.7383
978.3000, 134.5039
979.4170, 379.3242
980.5340, 223.1875
981.6500, 381.1016
982.7670, 296.0664
983.8830, 331.0781
985.0000, 33.14062
986.1160, 43.25781
987.2320, 173.4258
988.3470, 80.64844
989.4630, 143.5117
990.5780, 98.32812
991.6940, 195.4297
992.8090, 293.7422
993.9240, 378.0781
995.0380, 409.4688
996.1530, 247.0781
997.2680, 382.7305
998.3820, 282.1758
999.4960, 282.9648
1000.610, 679.8164
1001.724, 619.7305
1002.837, 380.7031
1003.951, 884.7422
1005.064, 810.8438
1006.177, 591.0078
1007.291, 918.2461
1008.403, 725.5469
1009.516, 841.9258
1010.629, 1046.371
1011.741, 1114.883
1012.853, 952.4648
1013.965, 1476.121
1015.077, 1338.852
1016.189, 1566.664
1017.300, 1715.559
1018.412, 1754.555
1019.523, 1857.625
1020.634, 2326.777
1021.745, 2553.000
1022.856, 2988.316
1023.966, 3682.738
1025.077, 3799.234
1026.187, 4300.492
1027.297, 4325.469
1028.407, 4543.762
1029.517, 4912.477
1030.627, 4554.312
1031.736, 4317.988
1032.845, 3756.000
1033.955, 3539.852
1035.064, 3342.223
1036.172, 2746.297
1037.281, 2862.945
1038.390, 2362.680
1039.498, 2424.551
1040.606, 2086.531
1041.714, 2357.641
1042.822, 2268.871
1043.930, 2240.215
1045.037, 2311.684
1046.145, 2459.262
1047.252, 2163.957
1048.359, 2216.754
1049.466, 2067.664
1050.573, 2097.684
1051.679, 2117.805
1052.786, 1915.043
1053.892, 2269.395
1054.998, 1864.863
1056.104, 1980.438
1057.210, 1785.121
1058.315, 1957.152
1059.421, 1712.059
1060.526, 1945.363
1061.631, 1813.492
1062.736, 1429.734
1063.841, 1776.090
1064.946, 1719.492
1066.050, 1933.867
1067.154, 1839.488
1068.258, 1850.293
1069.362, 2073.973
1070.466, 2095.367
1071.570, 2463.512
1072.674, 2688.238
1073.777, 3019.992
1074.880, 2857.910
1075.983, 2952.156
1077.086, 2866.809
1078.189, 2472.629
1079.291, 2015.195
1080.394, 1887.242
1081.496, 1708.438
1082.598, 1604.559
1083.700, 1514.957
1084.802, 1389.012
1085.903, 1400.043
1087.005, 1080.766
1088.106, 1050.602
1089.207, 659.5547
1090.308, 647.6172
1091.409, 449.7969
1092.509, 497.0898
1093.610, 524.5000
1094.710, 348.0234
1095.810, 561.6602
1096.910, 197.4102
1098.010, 341.2812
1099.110, 262.2617
1100.209, 272.3594
1101.309, 324.5742
1102.408, 226.9062
1103.507, 397.3516
1104.606, 447.2656
1105.704, 351.5938
1106.803, 725.3867
1107.901, 999.2969
1108.999, 1242.320
1110.097, 1210.465
1111.195, 1088.723
1112.293, 1900.102
1113.391, 2133.590
1114.488, 2845.199
1115.585, 3531.926
1116.682, 4560.766
1117.779, 5565.723
1118.876, 6629.188
1119.973, 7598.980
1121.069, 8664.289
1122.165, 9517.715
1123.261, 9842.254
1124.357, 9929.723
1125.453, 10099.73
1126.549, 9158.680
1127.644, 8015.773
1128.739, 7086.980
1129.835, 6266.336
1130.930, 5447.840
1132.024, 4827.461
1133.119, 4396.199
1134.214, 4058.047
1135.308, 3997.016
1136.402, 3404.094
1137.496, 3230.285
1138.590, 3518.594
1139.684, 3285.793
1140.777, 3294.547
1141.871, 3355.188
1142.964, 3239.949
1144.057, 3105.816
1145.150, 3387.805
1146.243, 3191.902
1147.335, 3219.121
1148.428, 3299.461
1149.520, 3096.965
1150.612, 3172.633
1151.704, 3208.523
1152.796, 3151.598
1153.887, 3073.848
1154.979, 2859.332
1156.070, 2585.090
1157.161, 2946.105
1158.252, 2750.398
1159.343, 2956.977
1160.433, 2547.914
1161.524, 2844.305
1162.614, 2666.070
1163.704, 2417.180
1164.794, 2210.578
1165.884, 2475.367
1166.974, 2020.371
1168.063, 2118.703
1169.153, 2293.219
1170.242, 2086.883
1171.331, 1863.660
1172.420, 1814.559
1173.508, 1721.570
1174.597, 1449.688
1175.685, 1381.957
1176.774, 1246.359
1177.862, 1092.902
1178.950, 937.5781
1180.037, 906.4023
1181.125, 830.3477
1182.212, 688.5117
1183.300, 521.2617
1184.387, 465.9180
1185.474, 254.3164
1186.560, 220.8125
1187.647, 465.3984
1188.733, 17.92578
1189.820, 125.8359
1190.906, 78.31250
1191.992, 146.6055
1193.078, 329.6172
1194.163, 63.71094
1195.249, 142.1094
1196.334, 52.87109
1197.419, 140.5586
1198.504, 82.80859
1199.589, 313.7344
1200.674, 302.2773
1201.758, 31.18750
1202.843, 303.2695
1203.927, 26.71875
1205.011, 29.09375
1206.095, 305.3906
1207.179, 98.68750
1208.262, 119.0742
1209.345, 249.0859
1210.429, 175.7695
1211.512, 59.29688
1212.595, 163.2969
1213.677, 195.7461
1214.760, 45.85938
1215.842, 88.04688
1216.925, 186.3125
1218.007, 381.6484
1219.089, 131.0547
1220.171, 386.5430
1221.252, 423.0977
1222.334, 363.7227
1223.415, 623.4258
1224.496, 400.1914
1225.577, 704.0273
1226.658, 387.9375
1227.738, 742.9102
1228.819, 598.9570
1229.899, 503.0664
1230.979, 357.2422
1232.060, 533.4844
1233.139, 368.7891
1234.219, 549.1602
1235.299, 552.5898
1236.378, 833.0820
1237.457, 551.6289
1238.536, 395.2305
1239.615, 619.8789
1240.694, 440.5781
1241.772, 594.3242
1242.851, 854.1094
1243.929, 627.9375
1245.007, 657.8086
1246.085, 892.7148
1247.163, 1027.656
1248.240, 1192.641
1249.318, 1135.656
1250.395, 1281.539
1251.472, 1330.422
1252.549, 1443.887
1253.626, 1515.027
1254.703, 1638.195
1255.779, 1859.387
1256.855, 1743.605
1257.931, 2084.852
1259.007, 1963.121
1260.083, 2202.410
1261.159, 2068.723
1262.234, 2157.055
1263.310, 1984.402
1264.385, 2186.770
1265.460, 2231.156
1266.535, 2225.559
1267.610, 3287.969
1268.684, 2991.398
1269.758, 2781.832
1270.833, 2762.281
1271.907, 2334.738
1272.981, 2300.207
1274.054, 2216.684
1275.128, 2384.953
1276.201, 2540.648
1277.275, 2393.547
1278.348, 2400.836
1279.421, 2606.113
1280.493, 2805.430
1281.566, 2864.570
1282.638, 2788.004
1283.711, 2936.156
1284.783, 2871.082
1285.855, 3060.617
1286.927, 2955.223
1287.998, 3218.723
1289.070, 3429.758
1290.141, 3278.043
1291.212, 3416.883
1292.283, 3697.984
1293.354, 3848.879
1294.425, 3866.281
1295.495, 4113.648
1296.566, 4050.184
1297.636, 4130.176
1298.706, 4015.945
1299.776, 4184.598
1300.845, 4064.957
1301.915, 3899.758
1302.984, 4051.035
1304.054, 3951.914
1305.123, 3634.035
1306.191, 3462.785
1307.260, 3751.613
1308.329, 3778.379
1309.397, 3625.523
1310.465, 3454.484
1311.534, 3607.090
1312.602, 3498.035
1313.669, 3567.168
1314.737, 3532.301
1315.804, 3345.027
1316.872, 3399.188
1317.939, 3284.559
1319.006, 3241.789
1320.073, 3176.102
1321.139, 3153.223
1322.206, 3157.332
1323.272, 3087.430
1324.338, 2987.582
1325.404, 2911.859
1326.470, 2779.988
1327.536, 2890.035
1328.601, 2411.305
1329.667, 2378.953
1330.732, 2304.293
1331.797, 1822.465
1332.862, 2049.039
1333.926, 1997.551
1334.991, 1564.820
1336.055, 2280.789
1337.120, 1619.676
1338.184, 1486.902
1339.248, 1491.742
1340.311, 1455.523
1341.375, 1262.477
1342.438, 1196.250
