##NAMES=Fluorophlogopite
##RRUFFID=R040075
##IDEAL CHEMISTRY=KMg_3_(Si_3_Al)O_10_F_2_
##LOCALITY=unknown
##OWNER=RRUFF
##SOURCE=University of Arizona Mineral Museum
##DESCRIPTION=Green hexagonal tablet
##STATUS=The identification of this mineral has been confirmed by X-ray diffraction and chemical analysis
##URL=rruff.info/R040075
##MEASURED CHEMISTRY=(K_0.93_[box]_0.04_Na_0.03_)(Mg_0.66_Fe_0.30_Ti_0.02_)_3_(Si_0.75_Al_0.25_)_4_O_10_(F_0.90_(OH)_0.06_Cl_0.04_)
##PIN_ID=L00287
##ORIENTATION=Laser parallel to c [0 0 1]. Fiducial mark perpendicular to laser is parallel to -b* (0 -1 0)
165.611, 0.000
166.996, 2.787
168.381, 53.553
169.767, 120.488
171.152, 219.353
172.536, 204.297
173.921, 351.117
175.305, 338.859
176.689, 426.473
178.073, 512.415
179.456, 624.582
180.839, 665.615
182.222, 815.562
183.605, 863.695
184.988, 998.618
186.370, 1143.102
187.752, 1139.919
189.134, 1238.377
190.516, 1182.834
191.898, 1181.758
193.279, 1075.637
194.660, 1012.084
196.041, 952.736
197.421, 811.129
198.801, 756.207
200.182, 703.295
201.561, 641.970
202.941, 633.965
204.321, 515.310
205.700, 483.878
207.079, 359.259
208.457, 391.714
209.836, 377.184
211.214, 378.215
212.592, 328.543
213.970, 306.572
215.348, 268.100
216.725, 193.739
218.102, 197.644
219.479, 136.326
220.856, 117.843
222.232, 103.016
223.608, 76.521
224.984, 107.298
226.360, 90.840
227.736, 163.496
229.111, 16.500
230.486, 54.260
231.861, 64.730
233.236, 3.215
234.610, 91.526
235.984, 24.189
237.358, 18.140
238.732, 0.719
240.105, 26.892
241.479, 20.701
242.852, 79.149
244.224, 12.393
245.597, 107.126
246.969, 11.705
248.342, 42.290
249.713, 27.738
251.085, 6.057
252.457, 7.257
253.828, 14.649
255.199, 43.646
256.570, 87.720
257.940, 32.141
259.310, 21.050
260.681, 72.278
262.050, 7.534
263.420, 78.804
264.790, 105.079
266.159, 207.350
267.528, 162.605
268.896, 182.834
270.265, 227.027
271.633, 252.176
273.001, 240.274
274.369, 224.311
275.737, 257.892
277.104, 315.169
278.471, 328.985
279.838, 365.730
281.205, 445.392
282.572, 413.961
283.938, 342.440
285.304, 241.818
286.670, 384.062
288.035, 229.157
289.401, 298.104
290.766, 357.937
292.131, 274.688
293.495, 293.396
294.860, 296.026
296.224, 311.614
297.588, 216.168
298.952, 293.705
300.315, 248.228
301.679, 311.777
303.042, 272.702
304.405, 356.801
305.767, 366.704
307.130, 361.793
308.492, 415.168
309.854, 389.287
311.216, 453.998
312.578, 482.170
313.939, 452.350
315.300, 520.744
316.661, 418.325
318.021, 521.710
319.382, 542.492
320.742, 492.589
322.102, 548.008
323.462, 508.981
324.821, 515.956
326.181, 461.931
327.540, 408.908
328.899, 479.886
330.257, 395.992
331.616, 410.767
332.974, 408.713
334.332, 371.595
335.690, 376.003
337.047, 397.054
338.405, 362.596
339.762, 384.000
341.119, 409.253
342.475, 426.352
343.832, 433.494
345.188, 427.060
346.544, 427.665
347.900, 442.103
349.255, 414.369
350.610, 497.454
351.965, 484.357
353.320, 481.083
354.675, 433.625
356.029, 448.983
357.384, 493.149
358.738, 521.124
360.091, 475.933
361.445, 436.571
362.798, 480.055
364.151, 439.367
365.504, 495.486
366.857, 510.454
368.209, 472.151
369.561, 456.603
370.913, 491.800
372.265, 464.115
373.617, 495.814
374.968, 473.673
376.319, 451.167
377.670, 486.504
379.021, 427.657
380.371, 456.494
381.721, 449.348
383.071, 434.731
384.421, 455.974
385.770, 515.095
387.120, 533.915
388.469, 416.137
389.818, 521.194
391.166, 445.923
392.515, 514.671
393.863, 426.319
395.211, 420.159
396.559, 474.103
397.906, 415.332
399.254, 505.541
400.601, 564.724
401.948, 453.142
403.294, 453.529
404.641, 449.672
405.987, 446.171
407.333, 494.246
408.679, 471.040
410.025, 478.771
411.370, 431.768
412.715, 466.627
414.060, 433.604
415.405, 427.391
416.749, 337.811
418.093, 342.262
419.437, 333.158
420.781, 264.239
422.125, 270.632
423.468, 248.733
424.811, 224.547
426.154, 241.967
427.497, 185.094
428.839, 202.634
430.182, 190.490
431.524, 191.939
432.866, 164.347
434.207, 144.119
435.549, 122.396
436.890, 103.609
438.231, 65.966
439.572, 110.565
440.912, 15.177
442.252, 98.784
443.593, 58.390
444.932, 51.994
446.272, 58.595
447.611, 24.477
448.951, 17.443
450.290, 27.200
451.628, 29.626
452.967, 73.038
454.305, 115.566
455.644, 31.033
456.981, 79.493
458.319, 115.969
459.657, 24.778
460.994, 39.284
462.331, 82.949
463.668, 23.477
465.004, 71.043
466.341, 64.591
467.677, 51.152
469.013, 68.277
470.348, 51.295
471.684, 53.108
473.019, 16.538
474.354, 41.784
475.689, 26.072
477.024, 103.331
478.358, 104.571
479.692, 166.788
481.026, 163.999
482.360, 139.209
483.694, 208.426
485.027, 228.649
486.360, 211.879
487.693, 389.115
489.026, 353.357
490.358, 388.607
491.691, 405.838
493.023, 341.052
494.354, 426.247
495.686, 422.424
497.017, 389.583
498.349, 431.726
499.680, 495.852
501.010, 475.960
502.341, 525.937
503.671, 531.761
505.001, 555.205
506.331, 536.266
507.661, 505.315
508.990, 484.353
510.319, 481.564
511.648, 489.661
512.977, 516.482
514.306, 528.521
515.634, 619.576
516.962, 634.635
518.290, 596.716
519.618, 608.803
520.945, 537.896
522.273, 631.991
523.600, 706.100
524.927, 666.227
526.253, 631.385
527.580, 674.544
528.906, 591.717
530.232, 695.897
531.558, 677.104
532.883, 689.323
534.208, 702.565
535.534, 770.836
536.858, 704.135
538.183, 768.461
539.508, 749.816
540.832, 782.199
542.156, 697.611
543.480, 790.045
544.803, 719.500
546.127, 848.969
547.450, 828.452
548.773, 740.947
550.096, 893.459
551.418, 777.980
552.741, 864.518
554.063, 675.069
555.385, 705.639
556.706, 794.229
558.028, 706.831
559.349, 683.446
560.670, 708.088
561.991, 641.747
563.312, 743.420
564.632, 586.117
565.952, 603.854
567.272, 471.605
568.592, 439.403
569.911, 482.222
571.231, 451.070
572.550, 326.943
573.869, 359.834
575.187, 295.746
576.506, 342.671
577.824, 250.608
579.142, 232.555
580.460, 292.527
581.778, 180.512
583.095, 167.507
584.412, 236.517
585.729, 215.536
587.046, 118.563
588.363, 278.597
589.679, 121.638
590.995, 137.685
592.311, 140.793
593.627, 169.740
594.942, 184.682
596.258, 186.324
597.573, 134.959
598.888, 152.052
600.202, 141.402
601.517, 149.267
602.831, 119.101
604.145, 134.917
605.459, 166.771
606.772, 100.494
608.086, 154.198
609.399, 97.747
610.712, 158.201
612.024, 137.170
613.337, 129.500
614.649, 200.940
615.961, 128.593
617.273, 182.986
618.585, 170.767
619.896, 133.888
621.208, 197.448
622.519, 88.334
623.829, 322.706
625.140, 265.514
626.450, 242.145
627.761, 268.228
629.071, 239.894
630.380, 317.937
631.690, 303.222
632.999, 331.241
634.308, 344.207
635.617, 363.958
636.926, 380.640
638.235, 424.865
639.543, 423.096
640.851, 465.333
642.159, 467.577
643.466, 478.568
644.774, 494.081
646.081, 512.341
647.388, 538.607
648.695, 599.879
650.002, 639.157
651.308, 633.439
652.614, 614.728
653.920, 807.023
655.226, 663.324
656.531, 856.629
657.837, 793.942
659.142, 870.316
660.447, 1009.055
661.752, 1008.385
663.056, 1147.999
664.360, 1208.340
665.664, 1367.906
666.968, 1480.371
668.272, 1643.956
669.575, 1659.456
670.879, 1941.030
672.182, 2067.531
673.484, 2306.795
674.787, 2366.345
676.089, 2784.342
677.392, 2733.115
678.694, 2833.598
679.995, 3032.870
681.297, 3008.987
682.598, 2866.959
683.899, 2778.933
685.200, 2565.266
686.501, 2468.688
687.802, 2332.603
689.102, 2252.292
690.402, 2118.154
691.702, 1960.375
693.002, 1830.884
694.301, 1833.125
695.600, 1653.673
696.899, 1726.504
698.198, 1729.573
699.497, 1802.061
700.795, 1730.532
702.093, 1841.467
703.391, 1840.183
704.689, 1870.963
705.987, 2084.457
707.284, 2085.024
708.581, 2131.441
709.878, 2311.857
711.175, 2506.698
712.472, 2427.110
713.768, 2519.593
715.064, 2471.000
716.360, 2611.614
717.656, 2656.017
718.951, 2663.417
720.247, 2811.813
721.542, 2619.208
722.837, 2709.599
724.131, 2641.987
725.426, 2668.372
726.720, 2553.752
728.014, 2469.129
729.308, 2458.503
730.601, 2422.871
731.895, 2187.237
733.188, 2254.598
734.481, 2083.954
735.774, 2217.307
737.067, 2054.653
738.359, 1855.996
739.651, 1740.335
740.943, 1829.667
742.235, 1700.996
743.526, 1664.319
744.818, 1699.638
746.109, 1623.951
747.400, 1611.259
748.691, 1610.562
749.981, 1465.860
751.271, 1527.153
752.562, 1522.440
753.851, 1639.723
755.141, 1595.002
756.431, 1604.276
757.720, 1657.545
759.009, 1644.811
760.298, 1684.071
761.587, 1627.327
762.875, 1698.578
764.163, 1745.825
765.451, 1719.074
766.739, 1772.325
768.027, 1791.589
769.314, 1721.876
770.601, 1680.166
771.888, 1785.469
773.175, 1702.795
774.462, 1682.121
775.748, 1656.451
777.034, 1570.802
778.320, 1524.141
779.606, 1417.495
780.892, 1316.859
782.177, 1231.228
783.462, 1133.590
784.747, 1069.958
786.032, 1076.320
787.317, 1034.680
788.601, 829.033
789.885, 870.381
791.169, 770.722
792.453, 676.056
793.736, 679.382
795.019, 527.702
796.303, 829.014
797.585, 499.320
798.868, 570.618
800.151, 364.909
801.433, 318.192
802.715, 451.468
803.997, 283.736
805.279, 224.997
806.560, 225.250
807.841, 206.495
809.122, 140.733
810.403, 194.962
811.684, 90.185
812.964, 70.399
814.245, 10.604
815.525, 124.798
816.804, 5.018
818.084, 141.146
819.363, 34.302
820.643, 60.447
821.922, 130.417
823.201, 55.632
824.479, 39.671
825.758, 64.301
827.036, 28.326
828.314, 80.387
829.592, 23.509
830.869, 19.664
832.147, 1.150
833.424, 43.056
834.701, 56.306
835.977, 101.605
837.254, 12.021
838.530, 27.368
839.807, 3.207
841.082, 68.237
842.358, 16.737
843.634, 51.267
844.909, 72.846
846.184, 61.483
847.459, 57.175
848.734, 62.107
850.008, 50.713
851.283, 54.558
852.557, 29.451
853.831, 13.380
855.105, 13.666
856.378, 22.697
857.651, 18.716
858.925, 1.723
860.197, 52.710
861.470, 150.688
862.743, 96.656
864.015, 4.381
865.287, 94.560
866.559, 68.492
867.831, 86.415
869.102, 35.330
870.373, 115.234
871.645, 156.131
872.915, 200.020
874.186, 100.900
875.457, 194.772
876.727, 125.637
877.997, 188.493
879.267, 178.341
880.536, 157.182
881.806, 280.015
883.075, 152.839
884.344, 303.657
885.613, 204.466
886.882, 223.268
888.150, 303.063
889.419, 272.851
890.687, 239.631
891.954, 330.404
893.222, 288.170
894.490, 389.929
895.757, 280.679
897.024, 315.426
898.291, 386.166
899.557, 329.898
900.824, 321.624
902.090, 412.342
903.356, 422.054
904.622, 347.758
905.888, 449.462
907.153, 419.159
908.418, 390.848
909.683, 411.532
910.948, 503.208
912.213, 446.878
913.477, 475.541
914.741, 490.202
916.005, 492.856
917.269, 519.510
918.533, 491.158
919.796, 483.799
921.060, 581.434
922.323, 497.062
923.585, 614.684
924.848, 422.299
926.111, 525.907
927.373, 596.508
928.635, 451.103
929.897, 436.691
931.158, 540.273
932.420, 480.847
933.681, 496.415
934.942, 545.976
936.203, 523.531
937.463, 509.077
938.724, 519.619
939.984, 501.153
941.244, 502.874
942.504, 551.202
943.764, 508.717
945.023, 511.225
946.282, 534.728
947.541, 473.224
948.800, 550.713
950.059, 514.197
951.317, 546.675
952.575, 513.146
953.833, 518.613
955.091, 466.072
956.349, 433.526
957.606, 359.976
958.864, 495.417
960.121, 440.854
961.377, 378.286
962.634, 456.710
963.891, 403.130
965.147, 410.487
966.403, 490.481
967.659, 355.884
968.914, 420.003
970.170, 481.396
971.425, 338.564
972.680, 489.835
973.935, 390.986
975.190, 403.224
976.444, 302.389
977.698, 349.626
978.952, 377.103
980.206, 398.293
981.460, 393.037
982.713, 389.148
983.967, 419.271
985.220, 337.744
986.473, 411.375
987.725, 363.151
988.978, 409.930
990.230, 390.350
991.482, 464.684
992.734, 446.510
993.986, 404.612
995.237, 489.664
996.488, 308.208
997.739, 418.484
998.990, 441.031
1000.241, 296.271
1001.492, 325.230
1002.742, 363.221
1003.992, 376.528
1005.242, 366.450
1006.492, 251.313
1007.741, 331.402
1008.990, 273.430
1010.239, 302.747
1011.488, 339.996
1012.737, 281.394
1013.986, 202.433
1015.234, 339.420
1016.482, 245.834
1017.730, 295.203
1018.978, 241.670
1020.225, 275.932
1021.473, 396.413
1022.720, 281.900
1023.967, 363.390
1025.213, 343.894
1026.460, 367.401
1027.706, 453.912
1028.953, 358.428
1030.198, 361.947
1031.444, 434.471
1032.690, 428.414
1033.935, 450.076
1035.180, 531.095
1036.425, 474.647
1037.670, 517.521
1038.915, 429.964
1040.159, 470.373
1041.403, 495.040
1042.647, 504.814
1043.891, 460.371
1045.135, 480.954
1046.378, 522.365
1047.621, 451.956
1048.864, 449.552
1050.107, 553.153
1051.350, 488.778
1052.592, 523.479
1053.835, 532.116
1055.077, 485.037
1056.318, 536.714
1057.560, 511.380
1058.802, 571.050
1060.043, 483.727
1061.284, 542.408
1062.525, 502.093
1063.765, 642.849
1065.006, 482.542
1066.246, 534.301
1067.486, 547.016
1068.726, 478.053
1069.966, 586.772
1071.205, 499.495
1072.445, 542.239
1073.684, 597.986
1074.923, 545.739
1076.161, 601.497
1077.400, 624.259
1078.638, 536.025
1079.876, 625.795
1081.114, 564.573
1082.352, 610.355
1083.590, 608.143
1084.827, 525.934
1086.064, 564.729
1087.301, 578.529
1088.538, 552.348
1089.775, 655.175
1091.011, 514.008
1092.247, 559.874
1093.483, 631.718
1094.719, 578.565
1095.955, 609.418
1097.190, 535.275
1098.425, 508.210
1099.660, 502.075
1100.895, 448.945
1102.130, 472.958
1103.364, 510.836
1104.598, 342.719
1105.833, 404.606
1107.066, 352.497
1108.300, 411.391
1109.534, 340.290
1110.767, 265.193
1112.000, 273.105
1113.233, 242.018
1114.466, 258.934
1115.698, 163.860
1116.930, 190.792
1118.163, 162.734
1119.394, 130.681
1120.626, 281.632
1121.858, 225.588
1123.089, 203.588
1124.320, 152.593
1125.551, 132.603
1126.782, 74.639
1128.013, 89.692
1129.243, 200.777
1130.473, 52.877
1131.703, 205.991
1132.933, 88.115
1134.163, 19.262
1135.392, 114.698
1136.621, 55.095
1137.850, 79.542
1139.079, 116.000
1140.308, 13.722
1141.536, 111.917
1142.765, 59.310
1143.993, 28.770
1145.221, 137.582
1146.448, 60.174
1147.676, 64.584
1148.903, 61.208
1150.130, 18.184
1151.357, 129.451
1152.584, 31.018
1153.810, 80.640
1155.037, 89.308
1156.263, 11.267
1157.489, 147.078
1158.715, 10.332
1159.940, 6.821
1161.166, 31.304
1162.391, 1.426
1163.616, 57.069
1164.841, 2.037
1166.065, 48.302
1167.290, 25.839
1168.514, 28.194
1169.738, 18.202
1170.962, 18.265
1172.185, 68.639
1173.409, 14.251
1174.632, 51.969
1175.855, 22.911
1177.078, 31.413
1178.301, 49.022
1179.523, 21.290
1180.746, 120.671
1181.968, 50.053
1183.190, 34.646
1184.412, 15.857
1185.633, 105.648
1186.855, 78.946
1188.076, 53.560
1189.297, 8.409
1190.518, 20.893
1191.738, 19.502
1192.959, 27.844
1194.179, 59.844
1195.399, 17.519
1196.619, 27.417
1197.838, 44.680
1199.058, 2.963
1200.277, 17.570
1201.496, 33.074
1202.715, 2.632
1203.934, 75.217
1205.152, 43.858
1206.371, 66.044
1207.589, 84.633
1208.807, 53.204
1210.024, 27.214
1211.242, 64.356
1212.459, 32.913
1213.677, 91.501
1214.894, 94.165
1216.110, 72.541
1217.327, 47.911
1218.543, 109.184
1219.760, 30.612
1220.976, 75.658
1222.192, 59.170
1223.407, 132.517
1224.623, 37.180
1225.838, 125.516
1227.053, 55.919
1228.268, 52.411
1229.483, 78.912
1230.697, 136.325
1231.912, 42.938
1233.126, 110.350
1234.340, 103.380
1235.554, 123.600
1236.767, 109.429
1237.981, 36.191
1239.194, 108.763
1240.407, 52.149
1241.620, 54.624
1242.832, 201.040
1244.045, 29.326
1245.257, 82.796
1246.469, 91.121
1247.681, 16.641
1248.893, 193.124
1250.104, 118.404
1251.315, 135.684
1252.527, 88.962
1253.738, 105.252
1254.948, 117.527
1256.159, 138.802
1257.369, 56.194
1258.579, 112.661
1259.789, 67.929
1260.999, 92.055
1262.209, 157.482
1263.418, 98.738
1264.628, 124.022
1265.837, 125.266
1267.046, 107.486
1268.254, 90.904
1269.463, 97.106
1270.671, 89.953
1271.879, 99.639
1273.087, 96.665
1274.295, 121.850
1275.502, 128.941
1276.710, 132.024
1277.917, 110.086
1279.124, 74.166
1280.331, 13.213
1281.537, 30.585
1282.744, 21.218
1283.950, 23.247
1285.156, 33.966
1286.362, 9.217
1287.568, 53.463
1288.773, 43.421
1289.978, 56.664
1291.184, 26.485
1292.389, 76.328
1293.593, 32.160
1294.798, 42.208
1296.002, 40.746
1297.206, 70.536
1298.410, 41.702
1299.614, 2.546
1300.818, 11.161
1302.021, 18.848
1303.225, 5.521
1304.428, 18.866
1305.631, 4.191
1306.833, 32.792
1308.036, 56.386
1309.238, 69.068
1310.440, 73.565
1311.642, 86.244
1312.844, 10.306
1314.045, 15.121
1315.247, 84.526
1316.448, 18.083
1317.649, 71.283
1318.850, 46.634
1320.051, 19.964
1321.251, 110.345
1322.451, 73.630
1323.651, 7.103
1324.851, 8.136
1326.051, 8.354
1327.251, 78.581
1328.450, 108.760
1329.649, 98.603
1330.848, 10.746
1332.047, 72.870
1333.245, 29.974
1334.444, 114.054
1335.642, 74.117
1336.840, 63.159
1338.038, 52.355
1339.236, 55.357
1340.433, 26.341
1341.630, 53.693
1342.828, 10.235
1344.025, 88.074
1345.221, 39.036
1346.418, 43.534
1347.614, 70.334
1348.810, 56.133
1350.006, 68.043
1351.202, 67.673
1352.398, 71.416
1353.593, 68.141
1354.789, 66.782
1355.984, 37.473
1357.179, 10.238
1358.373, 42.411
1359.568, 106.043
1360.762, 113.661
1361.956, 39.737
1363.150, 90.834
1364.344, 16.392
1365.538, 68.935
1366.731, 138.466
1367.924, 39.986
1369.117, 116.495
1370.310, 6.995
1371.503, 70.393
1372.695, 66.975
1373.888, 87.454
1375.080, 44.931
1376.272, 85.277
1377.464, 35.247
1378.655, 11.936
1379.847, 25.843
1381.038, 30.572
1382.229, 49.217
1383.420, 89.036
1384.610, 68.669
1385.801, 83.219
1386.991, 118.896
1388.181, 71.561
1389.371, 107.211
1390.561, 60.840
1391.750, 70.458
1392.940, 219.051
1394.129, 307.629
1395.318, 195.190
1396.507, 118.735
1397.696, 127.264
1398.884, 149.776
1400.072, 95.274
1401.260, 77.754
1402.448, 189.677
1403.636, 24.566
1404.824, 86.489
1406.011, 164.560
1407.198, 105.101
1408.385, 187.098
1409.572, 206.923
1410.758, 76.875
1411.945, 185.976
1413.131, 149.773
1414.317, 122.150
1415.503, 182.803
1416.689, 93.675
1417.874, 141.536
1419.060, 169.854
1420.245, 175.266
1421.430, 102.604
1422.615, 134.727
1423.799, 121.454
1424.984, 108.816
1426.168, 129.244
1427.352, 66.534
1428.536, 152.644
1429.720, 47.822
1430.903, 170.794
1432.087, 155.127
1433.270, 43.058
1434.453, 131.745
1435.635, 168.521
1436.818, 42.326
1438.001, 170.104
1439.183, 103.550
1440.365, 147.807
1441.547, 195.027
1442.728, 138.089
1443.910, 150.621
1445.091, 123.066
1446.272, 149.061
1447.453, 170.358
1448.634, 165.509
1449.815, 71.822
1450.995, 162.618
1452.176, 124.699
1453.356, 11.373
1454.535, 160.787
1455.715, 141.644
1456.895, 139.928
1458.074, 120.062
1459.253, 120.070
1460.432, 184.002
1461.611, 170.080
1462.790, 50.711
1463.968, 223.870
1465.146, 193.253
1466.324, 70.197
1467.502, 177.595
1468.680, 56.905
1469.858, 153.284
1471.035, 151.849
1472.212, 90.291
1473.389, 181.812
1474.566, 183.746
1475.742, 164.229
1476.919, 234.562
1478.095, 131.148
1479.271, 67.826
1480.447, 207.201
1481.623, 186.592
1482.798, 134.116
1483.974, 169.615
1485.149, 100.080
1486.324, 72.667
1487.499, 223.767
1488.674, 128.269
1489.848, 187.753
1491.022, 77.189
1492.196, 105.285
1493.370, 216.791
1494.544, 69.320
1495.718, 107.686
1496.891, 175.214
1498.064, 104.750
1499.237, 111.355
1500.410, 99.042
1501.583, 61.776
1502.755, 49.527
1503.928, 140.295
1505.100, 120.497
1506.272, 189.793
1507.443, 116.242
1508.615, 81.844
1509.786, 135.643
1510.958, 174.677
1512.129, 6.999
1513.300, 27.695
1514.470, 125.782
1515.641, 73.364
1516.811, 173.537
1517.981, 2.337
1519.151, 93.576
1520.321, 0.000
##END=



