##NAMES=Fluorapatite
##RRUFFID=R050122
##IDEAL CHEMISTRY=Ca_5_(PO_4_)_3_F
##LOCALITY=Cruziero mine, San Jose, Minas Gerais, Brazil
##OWNER=RRUFF
##SOURCE=Carlos and Paulo Vasconcelos
##DESCRIPTION=Green fragment
##STATUS=The identification of this mineral has been confirmed by X-ray diffraction and chemical analysis
##URL=rruff.info/R050122
##MEASURED CHEMISTRY=(Ca_4.99_Mn_0.01_)_Î£=5_(P_1.00_O_4_)_3_F_1.00_; trace amounts of Fe
##PIN_ID=L00501
##ORIENTATION=Laser parallel to c* (0 0 1). Fiducial mark perpendicular to laser is parallel to a [1 0 0]
148.250, 0.000
149.635, 0.760
151.019, 88.217
152.403, 59.032
153.788, 65.597
155.171, 196.582
156.555, 161.345
157.939, 257.613
159.322, 266.780
160.705, 229.995
162.088, 251.957
163.470, 79.217
164.853, 88.164
166.235, 76.883
167.617, 175.390
168.998, 143.917
170.380, 164.333
171.761, 202.024
173.142, 74.966
174.523, 217.584
175.904, 167.602
177.284, 149.573
178.664, 51.705
180.044, 105.535
181.424, 92.508
182.803, 15.144
184.183, 155.938
185.562, 37.055
186.940, 100.427
188.319, 77.828
189.698, 119.128
191.076, 29.817
192.454, 81.583
193.831, 69.800
195.209, 9.356
196.586, 87.503
197.963, 19.501
199.340, 143.892
200.717, 35.667
202.093, 101.444
203.470, 111.583
204.846, 151.422
206.221, 132.341
207.597, 3.195
208.972, 131.960
210.347, 174.653
211.722, 5.325
213.097, 193.580
214.472, 38.298
215.846, 151.918
217.220, 109.171
218.594, 104.167
219.967, 160.568
221.341, 66.253
222.714, 94.158
224.087, 3.218
225.460, 172.079
226.832, 3.050
228.204, 19.050
229.577, 113.394
230.948, 23.600
232.320, 269.135
233.692, 80.973
235.063, 119.549
236.434, 175.958
237.805, 276.069
239.175, 196.878
240.545, 124.646
241.916, 293.371
243.286, 79.977
244.655, 309.340
246.025, 139.188
247.394, 126.124
248.763, 189.807
250.132, 183.570
251.501, 140.471
252.869, 87.537
254.237, 160.176
255.605, 137.851
256.973, 93.068
258.340, 334.803
259.708, 109.328
261.075, 219.651
262.442, 190.548
263.808, 298.151
265.175, 258.966
266.541, 216.328
267.907, 447.366
269.273, 269.945
270.639, 287.499
272.004, 198.832
273.369, 281.976
274.734, 279.379
276.099, 133.368
277.463, 229.295
278.828, 49.179
280.192, 142.663
281.556, 186.417
282.919, 135.906
284.283, 326.182
285.646, 6.256
287.009, 250.946
288.372, 69.481
289.734, 220.892
291.097, 266.999
292.459, 19.479
293.821, 194.343
295.183, 11.333
296.544, 154.393
297.905, 145.058
299.266, 108.651
300.627, 204.164
301.988, 65.604
303.348, 206.965
304.709, 80.235
306.069, 162.874
307.428, 231.396
308.788, 15.389
310.147, 213.398
311.507, 11.487
312.865, 68.564
314.224, 127.106
315.583, 155.200
316.941, 294.184
318.299, 22.372
319.657, 151.225
321.015, 120.150
322.372, 98.312
323.729, 72.521
325.086, 19.799
326.443, 188.758
327.800, 37.586
329.156, 85.072
330.512, 3.963
331.868, 41.433
333.224, 289.733
334.579, 109.277
335.935, 77.700
337.290, 176.388
338.645, 34.169
339.999, 305.060
341.354, 22.454
342.708, 230.036
344.062, 111.968
345.416, 224.685
346.769, 63.151
348.123, 139.971
349.476, 117.406
350.829, 65.436
352.182, 132.754
353.534, 40.338
354.887, 224.947
356.239, 192.455
357.591, 99.322
358.942, 225.884
360.294, 113.619
361.645, 198.322
362.996, 36.542
364.347, 53.461
365.698, 159.259
367.048, 126.413
368.398, 162.516
369.748, 149.584
371.098, 215.299
372.448, 122.152
373.797, 119.940
375.146, 285.612
376.495, 62.003
377.844, 218.047
379.192, 143.630
380.540, 90.316
381.889, 195.746
383.236, 119.067
384.584, 294.016
385.932, 80.217
387.279, 206.285
388.626, 241.083
389.973, 79.529
391.319, 193.062
392.666, 111.672
394.012, 197.173
395.358, 172.086
396.704, 27.561
398.049, 223.065
399.394, 11.904
400.740, 223.772
402.084, 108.399
403.429, 93.720
404.774, 238.548
406.118, 43.545
407.462, 318.046
408.806, 47.552
410.150, 96.424
411.493, 140.937
412.836, 4.343
414.179, 189.081
415.522, 97.550
416.865, 225.802
418.207, 128.941
419.549, 51.815
420.891, 254.964
422.233, 32.228
423.575, 380.784
424.916, 83.738
426.257, 366.626
427.598, 119.460
428.939, 132.581
430.279, 405.312
431.619, 137.981
432.959, 351.266
434.299, 273.810
435.639, 396.387
436.978, 628.802
438.318, 260.900
439.657, 834.118
440.996, 695.932
442.334, 698.052
443.673, 911.138
445.011, 622.779
446.349, 1035.539
447.687, 885.863
449.024, 857.638
450.361, 1038.732
451.699, 700.396
453.036, 772.004
454.372, 472.594
455.709, 594.047
457.045, 583.576
458.381, 404.663
459.717, 456.493
461.053, 287.274
462.388, 400.448
463.724, 300.931
465.059, 232.241
466.394, 335.446
467.728, 156.159
469.063, 398.369
470.397, 159.058
471.731, 349.787
473.065, 280.607
474.398, 131.057
475.732, 395.475
477.065, 175.830
478.398, 357.100
479.731, 187.968
481.063, 157.928
482.396, 328.970
483.728, 59.871
485.060, 509.448
486.391, 188.911
487.723, 109.469
489.054, 459.665
490.385, 78.869
491.716, 388.383
493.047, 181.082
494.377, 10.691
495.708, 112.969
497.038, 62.215
498.368, 231.870
499.697, 18.902
501.027, 300.288
502.356, 219.769
503.685, 129.009
505.014, 449.725
506.342, 19.912
507.671, 357.829
508.999, 157.020
510.327, 65.155
511.655, 182.991
512.982, 111.823
514.310, 339.135
515.637, 118.876
516.964, 246.751
518.291, 245.265
519.617, 64.231
520.944, 641.516
522.270, 20.470
523.596, 127.556
524.921, 444.309
526.247, 102.604
527.572, 339.519
528.897, 97.989
530.222, 306.074
531.547, 123.170
532.871, 20.220
534.196, 276.880
535.520, 195.120
536.844, 192.014
538.167, 359.739
539.491, 87.207
540.814, 353.171
542.137, 80.191
543.460, 415.640
544.783, 123.229
546.105, 59.639
547.427, 465.575
548.749, 16.182
550.071, 399.762
551.393, 12.816
552.714, 123.818
554.035, 359.357
555.356, 156.227
556.677, 171.701
557.998, 288.176
559.318, 111.920
560.638, 348.420
561.958, 143.990
563.278, 268.797
564.597, 144.516
565.917, 322.330
567.236, 317.445
568.555, 359.223
569.874, 253.615
571.192, 187.793
572.511, 451.760
573.829, 396.002
575.147, 442.898
576.464, 618.438
577.782, 772.189
579.099, 1006.721
580.416, 1281.857
581.733, 1403.199
583.050, 1467.990
584.366, 721.805
585.683, 1048.654
586.999, 371.824
588.315, 542.154
589.630, 646.199
590.946, 299.553
592.261, 714.861
593.576, 438.271
594.891, 565.729
596.206, 549.393
597.520, 242.512
598.834, 417.443
600.148, 410.877
601.462, 204.441
602.776, 618.031
604.089, 261.652
605.402, 847.656
606.715, 920.711
608.028, 1156.637
609.341, 1150.672
610.653, 743.502
611.965, 597.637
613.277, 450.680
614.589, 533.332
615.901, 616.578
617.212, 269.105
618.523, 772.287
619.834, 44.195
621.145, 616.928
622.456, 399.953
623.766, 11.375
625.076, 484.457
626.386, 165.645
627.696, 267.473
629.006, 478.393
630.315, 49.871
631.624, 366.482
632.933, 173.119
634.242, 439.047
635.551, 290.990
636.859, 121.922
638.167, 553.182
639.475, 163.301
640.783, 94.707
642.090, 479.076
643.398, 39.830
644.705, 271.900
646.012, 171.211
647.318, 452.309
648.625, 212.305
649.931, 7.463
651.237, 572.977
652.543, 1.502
653.849, 330.273
655.155, 309.939
656.460, 229.047
657.765, 488.479
659.070, 97.711
660.375, 377.107
661.679, 395.572
662.984, 105.131
664.288, 462.490
665.592, 229.143
666.895, 437.352
668.199, 435.691
669.502, 243.855
670.805, 522.660
672.108, 128.127
673.411, 699.404
674.713, 207.395
676.016, 205.297
677.318, 572.951
678.620, 142.066
679.921, 378.242
681.223, 475.680
682.524, 194.094
683.825, 501.010
685.126, 125.990
686.427, 182.646
687.727, 507.998
689.028, 374.607
690.328, 440.164
691.628, 208.494
692.927, 285.184
694.227, 223.953
695.526, 191.215
696.825, 507.732
698.124, 104.037
699.423, 525.027
700.721, 202.559
702.020, 249.158
703.318, 564.416
704.616, 32.639
705.913, 285.342
707.211, 51.986
708.508, 130.236
709.805, 455.562
711.102, 91.820
712.399, 207.146
713.695, 192.465
714.992, 278.691
716.288, 143.621
717.584, 229.494
718.879, 375.604
720.175, 281.002
721.470, 3.033
722.765, 562.410
724.060, 70.855
725.355, 377.209
726.649, 452.184
727.944, 152.309
729.238, 497.980
730.532, 404.010
731.825, 159.568
733.119, 725.107
734.412, 161.703
735.705, 227.104
736.998, 222.598
738.291, 377.871
739.584, 313.074
740.876, 28.631
742.168, 503.678
743.460, 51.689
744.752, 544.148
746.043, 378.949
747.334, 103.004
748.626, 567.662
749.916, 2.156
751.207, 556.654
752.498, 481.088
753.788, 115.014
755.078, 499.186
756.368, 403.188
757.658, 377.049
758.947, 351.150
760.237, 14.328
761.526, 648.275
762.815, 12.160
764.104, 176.309
765.392, 700.033
766.680, 113.693
767.969, 358.029
769.257, 431.475
770.544, 278.920
771.832, 432.316
773.119, 254.812
774.406, 448.080
775.693, 319.232
776.980, 142.377
778.267, 485.160
779.553, 115.398
780.839, 368.350
782.125, 489.967
783.411, 391.953
784.697, 634.740
785.982, 34.504
787.267, 777.664
788.552, 195.979
789.837, 28.338
791.122, 670.012
792.406, 140.922
793.690, 363.240
794.974, 204.209
796.258, 414.834
797.542, 537.014
798.825, 152.934
800.108, 648.174
801.391, 258.812
802.674, 150.572
803.957, 731.271
805.239, 109.033
806.522, 220.730
807.804, 428.961
809.085, 69.957
810.367, 500.814
811.649, 18.711
812.930, 662.723
814.211, 242.535
815.492, 353.494
816.772, 744.486
818.053, 414.215
819.333, 84.600
820.613, 665.477
821.893, 206.381
823.173, 697.234
824.452, 127.242
825.732, 238.172
827.011, 467.406
828.290, 378.246
829.568, 457.928
830.847, 177.561
832.125, 218.287
833.403, 467.584
834.681, 267.836
835.959, 328.441
837.236, 327.844
838.514, 91.635
839.791, 817.348
841.068, 103.467
842.345, 436.830
843.621, 358.607
844.898, 48.676
846.174, 647.762
847.450, 3.918
848.726, 375.139
850.001, 214.029
851.277, 64.070
852.552, 543.752
853.827, 227.199
855.102, 136.039
856.376, 385.045
857.651, 45.283
858.925, 812.881
860.199, 322.424
861.473, 229.512
862.746, 588.688
864.020, 421.557
865.293, 369.535
866.566, 387.977
867.839, 196.328
869.112, 555.012
870.384, 320.797
871.656, 39.217
872.928, 818.213
874.200, 36.785
875.472, 662.186
876.744, 28.541
878.015, 99.004
879.286, 937.822
880.557, 233.072
881.828, 654.568
883.098, 143.527
884.369, 432.164
885.639, 679.748
886.909, 28.844
888.178, 416.377
889.448, 254.158
890.717, 331.895
891.987, 1020.256
893.256, 188.318
894.524, 414.410
895.793, 593.051
897.061, 45.090
898.330, 683.678
899.598, 431.896
900.865, 558.941
902.133, 357.455
903.401, 432.227
904.668, 860.691
905.935, 149.133
907.202, 246.129
908.468, 754.521
909.735, 72.682
911.001, 570.711
912.267, 258.615
913.533, 394.027
914.799, 902.303
916.064, 167.604
917.330, 334.699
918.595, 692.902
919.860, 69.703
921.124, 947.502
922.389, 64.404
923.653, 692.982
924.918, 650.998
926.182, 338.258
927.445, 786.275
928.709, 573.783
929.972, 430.545
931.236, 718.516
932.499, 285.150
933.761, 812.832
935.024, 470.762
936.286, 228.523
937.549, 726.426
938.811, 358.812
940.073, 937.309
941.334, 564.324
942.596, 220.543
943.857, 908.441
945.118, 425.203
946.379, 772.887
947.640, 979.910
948.900, 917.773
950.161, 1055.922
951.421, 1311.418
952.681, 1139.246
953.940, 1796.488
955.200, 1153.262
956.459, 2351.070
957.719, 2387.691
958.978, 3244.773
960.236, 5622.867
961.495, 8519.328
962.753, 14497.109
964.012, 22681.320
965.270, 24299.094
966.527, 21572.262
967.785, 13899.902
969.043, 7837.645
970.300, 5855.539
971.557, 3065.746
972.814, 2593.953
974.071, 1470.973
975.327, 928.676
976.583, 1475.844
977.840, 602.996
979.095, 920.734
980.351, 799.328
981.607, 527.059
982.862, 647.816
984.117, 784.977
985.372, 372.699
986.627, 901.047
987.882, 288.672
989.136, 546.301
990.390, 562.965
991.644, 400.707
992.898, 781.004
994.152, 41.262
995.405, 186.453
996.659, 469.770
997.912, 182.492
999.165, 643.031
1000.417, 272.465
1001.670, 509.707
1002.922, 826.391
1004.174, 75.812
1005.426, 731.547
1006.678, 570.246
1007.930, 88.102
1009.181, 914.770
1010.432, 62.617
1011.683, 150.609
1012.934, 773.105
1014.185, 78.906
1015.435, 1099.082
1016.685, 178.191
1017.935, 446.176
1019.185, 1003.824
1020.435, 167.848
1021.684, 830.082
1022.934, 886.848
1024.183, 294.770
1025.432, 1131.535
1026.680, 170.789
1027.929, 915.633
1029.177, 1022.742
1030.425, 830.715
1031.673, 1623.211
1032.921, 1422.504
1034.169, 949.824
1035.416, 1617.801
1036.663, 96.699
1037.911, 1083.551
1039.157, 461.797
1040.404, 709.633
1041.650, 1207.641
1042.897, 426.414
1044.143, 833.996
1045.389, 1052.117
1046.634, 11.641
1047.880, 1528.797
1049.125, 468.496
1050.371, 796.750
1051.615, 1405.004
1052.860, 354.391
1054.105, 1012.660
1055.349, 1110.926
1056.593, 929.023
1057.837, 1197.203
1059.081, 1135.461
1060.325, 1462.934
1061.568, 1611.184
1062.812, 489.438
1064.055, 1297.707
1065.298, 935.980
1066.540, 253.902
1067.783, 1202.180
1069.025, 310.457
1070.267, 1177.988
1071.509, 906.262
1072.751, 380.559
1073.993, 978.836
1075.234, 707.105
1076.475, 435.375
1077.716, 1383.633
1078.957, 672.840
1080.198, 1141.113
1081.438, 1039.379
1082.679, 328.098
1083.919, 1076.398
1085.159, 614.691
1086.398, 693.051
1087.638, 1531.414
1088.877, 49.801
1090.116, 1218.176
1091.355, 646.555
1092.594, 895.766
1093.833, 1254.137
1095.071, 402.508
1096.309, 783.133
1097.547, 1191.496
1098.785, 139.844
1100.023, 988.191
1101.260, 526.586
1102.498, 236.422
1103.735, 1034.797
1104.972, 343.164
1106.208, 1172.160
1107.445, 780.516
1108.681, 158.871
1109.918, 777.438
1111.154, 375.789
1112.389, 515.367
1113.625, 593.723
1114.860, 127.938
1116.096, 400.340
1117.331, 368.605
1118.566, 206.859
1119.800, 875.785
1121.035, 134.039
1122.269, 813.250
1123.503, 1051.500
1124.737, 139.738
1125.971, 769.738
1127.205, 1047.949
1128.438, 56.141
1129.671, 1606.031
1130.904, 75.816
1132.137, 293.922
1133.370, 1122.809
1134.602, 40.879
1135.834, 760.598
1137.066, 508.629
1138.298, 123.359
1139.530, 1495.211
1140.762, 183.191
1141.993, 472.535
1143.224, 1440.488
1144.455, 131.570
1145.686, 1483.781
1146.917, 602.680
1148.147, 19.496
1149.377, 1396.293
1150.607, 314.074
1151.837, 1111.887
1153.067, 1073.727
1154.296, 8.570
1155.526, 1486.094
1156.755, 373.941
1157.984, 471.559
1159.213, 994.379
1160.441, 401.852
1161.670, 929.449
1162.898, 901.641
1164.126, 139.840
1165.354, 1467.336
1166.581, 376.145
1167.809, 333.574
1169.036, 1036.406
1170.263, 414.117
1171.490, 551.449
1172.717, 1280.703
1173.943, 107.965
1175.170, 1346.195
1176.396, 484.633
1177.622, 761.793
1178.848, 1531.434
1180.073, 129.680
1181.299, 1306.781
1182.524, 935.469
1183.749, 232.492
1184.974, 1589.230
1186.199, 403.633
1187.423, 990.539
1188.648, 1499.223
1189.872, 287.055
1191.096, 533.871
1192.320, 886.906
1193.543, 163.691
1194.767, 1239.840
1195.990, 187.332
1197.213, 844.066
1198.436, 1460.781
1199.659, 269.465
1200.881, 1016.148
1202.104, 1173.578
1203.326, 470.234
1204.548, 1456.875
1205.770, 955.172
1206.991, 1111.785
1208.213, 1678.375
1209.434, 597.125
1210.655, 1073.688
1211.876, 1232.633
1213.096, 699.320
1214.317, 1655.820
1215.537, 693.262
1216.757, 1169.723
1217.977, 1746.164
1219.197, 644.762
1220.417, 1721.176
1221.636, 1287.570
1222.855, 794.000
1224.074, 2160.344
1225.293, 378.660
1226.512, 876.195
1227.731, 1872.473
1228.949, 517.074
1230.167, 1293.309
1231.385, 1819.504
1232.603, 763.988
1233.820, 1570.125
1235.038, 977.281
1236.255, 873.258
1237.472, 2199.242
1238.689, 455.418
1239.906, 1501.336
1241.122, 1527.180
1242.338, 142.812
1243.555, 1548.414
1244.771, 1033.930
1245.986, 680.863
1247.202, 1955.949
1248.417, 331.008
1249.633, 1295.957
1250.848, 1380.871
1252.063, 537.141
1253.277, 1731.961
1254.492, 876.730
1255.706, 645.520
1256.920, 2000.113
1258.134, 404.656
1259.348, 1291.672
1260.562, 1916.066
1261.775, 714.426
1262.988, 1008.723
1264.201, 1492.758
1265.414, 546.387
1266.627, 1550.059
1267.839, 483.184
1269.052, 963.207
1270.264, 1896.691
1271.476, 299.633
1272.688, 1404.078
1273.899, 1307.348
1275.111, 319.684
1276.322, 2062.816
1277.533, 342.094
1278.744, 546.375
1279.955, 1949.270
1281.165, 341.105
1282.376, 1113.734
1283.586, 1156.066
1284.796, 57.883
1286.006, 1792.137
1287.215, 423.684
1288.425, 285.613
1289.634, 1217.453
1290.843, 7.625
1292.052, 1224.844
1293.261, 1276.406
1294.469, 333.906
1295.678, 1050.379
1296.886, 741.379
1298.094, 7.633
1299.302, 1253.238
1300.509, 157.688
1301.717, 624.074
1302.924, 1434.492
1304.131, 455.191
1305.338, 1057.238
1306.545, 787.184
1307.752, 12.969
1308.958, 607.871
1310.164, 776.184
1311.370, 445.523
1312.576, 1034.875
1313.782, 133.645
1314.987, 682.578
1316.193, 1141.402
1317.398, 300.129
1318.603, 1039.355
1319.807, 526.395
1321.012, 65.367
1322.216, 1404.926
1323.421, 212.824
1324.625, 510.605
1325.829, 968.555
1327.032, 386.090
1328.236, 1043.301
1329.439, 1039.477
1330.642, 3.871
1331.845, 1337.898
1333.048, 338.477
1334.251, 543.055
1335.453, 1568.246
1336.656, 298.141
1337.858, 1155.113
1339.060, 1228.621
1340.261, 366.754
1341.463, 1777.484
1342.664, 822.008
1343.866, 336.484
1345.067, 1860.902
1346.267, 635.262
1347.468, 929.570
1348.669, 1313.828
1349.869, 428.035
1351.069, 1662.191
1352.269, 1115.191
1353.469, 318.691
1354.668, 2222.578
1355.868, 296.230
1357.067, 809.816
1358.266, 1612.332
1359.465, 625.801
1360.664, 1096.414
1361.862, 1669.750
1363.061, 341.195
1364.259, 1934.418
1365.457, 1196.777
1366.655, 859.598
1367.852, 2350.996
1369.050, 403.945
1370.247, 586.934
1371.444, 1818.945
1372.641, 20.535
1373.838, 1363.352
1375.035, 1613.629
1376.231, 136.094
1377.427, 1844.266
1378.623, 655.809
1379.819, 786.031
1381.015, 2002.789
1382.211, 853.180
1383.406, 1652.617
1384.601, 2053.410
1385.796, 961.457
1386.991, 1943.133
1388.185, 1862.605
1389.380, 405.305
1390.574, 2106.906
1391.768, 917.312
1392.962, 1072.918
1394.156, 2460.797
1395.350, 465.461
1396.543, 1594.973
1397.736, 2171.570
1398.929, 59.023
1400.122, 2014.125
1401.315, 1701.844
1402.507, 248.531
1403.700, 2203.668
1404.892, 979.652
1406.084, 1137.156
1407.276, 2001.996
1408.467, 685.203
1409.659, 1152.027
1410.850, 2004.207
1412.041, 41.352
1413.232, 1900.625
1414.423, 1906.012
1415.614, 435.922
1416.804, 2614.305
1417.994, 746.047
1419.184, 909.730
1420.374, 2257.410
1421.564, 380.004
1422.753, 1766.957
1423.943, 1695.234
1425.132, 912.848
1426.321, 1970.141
1427.510, 1305.227
1428.698, 98.707
1429.887, 2227.711
1431.075, 804.914
1432.263, 962.078
1433.451, 2163.988
1434.639, 392.363
1435.827, 1245.340
1437.014, 1832.586
1438.201, 6.977
1439.388, 1619.211
1440.575, 1224.621
1441.762, 660.121
1442.949, 2297.758
1444.135, 245.988
1445.321, 1131.781
1446.507, 2071.746
1447.693, 36.293
1448.879, 1593.352
1450.064, 2016.516
1451.250, 261.465
1452.435, 1709.086
1453.620, 1212.480
1454.805, 425.527
1455.989, 2242.074
1457.174, 500.625
1458.358, 701.922
1459.542, 2322.395
1460.726, 322.238
1461.910, 1198.105
1463.093, 2105.988
1464.277, 21.027
1465.460, 1956.039
1466.643, 1295.324
1467.826, 135.398
1469.009, 2714.676
1470.191, 600.164
1471.373, 664.180
1472.556, 2157.199
1473.738, 4.289
1474.919, 0.000
##END=



