##NAMES=Fluorapophyllite-(K)
##RRUFFID=R060554
##IDEAL CHEMISTRY=KCa_4_Si_8_O_20_F&#183;8H_2_O
##LOCALITY=unknown
##OWNER=RRUFF
##SOURCE=Gemological Institute of America
##DESCRIPTION=Colorless polished fragment
##STATUS=The identification of this mineral has been confirmed by X-ray diffraction and chemical analysis
##URL=rruff.info/R060554
##MEASURED CHEMISTRY=(K_0.88_Na_0.12_)Ca_4.00_Si_8.00_O_20_F_1.00_Â·8H2O
##PIN_ID=L01258
##ORIENTATION=Laser parallel to c* (0 0 1). Fiducial mark perpendicular to laser is parallel to a [1 0 0]
53.91000, 0.0000000E+00
55.14900, 71.54272
56.38700, 134.3575
57.62600, 232.6349
58.86400, 277.8070
60.10300, 356.5903
61.34100, 361.1845
62.57900, 231.8998
63.81700, 100.8104
65.05400, 4.247070
66.29200, 87.89667
67.52900, 115.7756
68.76700, 91.47205
70.00400, 29.52625
71.24100, 42.56726
72.47700, 102.3572
73.71400, 394.4219
74.95100, 806.3462
76.18700, 1432.741
77.42300, 2141.265
78.65900, 3063.646
79.89500, 4310.671
81.13100, 5756.142
82.36700, 7482.876
83.60200, 9545.693
84.83700, 11402.42
86.07200, 13432.91
87.30800, 15600.00
88.54200, 17553.56
89.77700, 18670.47
91.01200, 19408.60
92.24600, 18989.79
93.48000, 17860.85
94.71400, 16528.61
95.94800, 15539.98
97.18200, 15087.84
98.41600, 14523.11
99.64900, 14674.76
100.8830, 15755.82
102.1160, 17964.37
103.3490, 21252.43
104.5820, 25145.96
105.8150, 28854.94
107.0470, 31504.29
108.2800, 32611.94
109.5120, 29553.81
110.7440, 24106.86
111.9760, 19254.02
113.2080, 15342.25
114.4400, 13217.51
115.6710, 12254.75
116.9030, 12401.94
118.1340, 12686.03
119.3650, 12186.99
120.5960, 12939.78
121.8270, 14062.39
123.0580, 15037.78
124.2880, 15756.92
125.5190, 15857.79
126.7490, 15576.36
127.9790, 14952.47
129.2090, 14355.65
130.4390, 13937.89
131.6680, 12833.15
132.8980, 11712.45
134.1270, 10211.74
135.3560, 8356.105
136.5850, 6611.795
137.8140, 5353.762
139.0430, 4377.001
140.2710, 4053.533
141.5000, 3599.376
142.7280, 3554.623
143.9560, 3567.671
145.1840, 3690.870
146.4120, 4123.479
147.6390, 4917.642
148.8670, 5892.342
150.0940, 7127.466
151.3210, 8727.812
152.5490, 10054.18
153.7750, 12074.18
155.0020, 13978.67
156.2290, 16717.55
157.4550, 19516.67
158.6810, 22472.96
159.9080, 25160.44
161.1340, 26463.11
162.3590, 26219.97
163.5850, 24477.02
164.8110, 21688.26
166.0360, 17673.69
167.2610, 14170.30
168.4860, 11333.11
169.7110, 9018.111
170.9360, 7775.305
172.1610, 7210.689
173.3850, 7516.267
174.6100, 8092.033
175.8340, 9397.988
177.0580, 10742.13
178.2820, 12720.46
179.5050, 15152.97
180.7290, 18431.67
181.9520, 22013.54
183.1760, 25018.59
184.3990, 26760.81
185.6220, 27940.21
186.8450, 26890.78
188.0670, 24613.51
189.2900, 21932.42
190.5120, 18991.48
191.7340, 16810.70
192.9560, 15456.09
194.1780, 15004.63
195.4000, 15452.33
196.6220, 16420.18
197.8430, 18245.18
199.0640, 20610.33
200.2860, 23553.63
201.5070, 27007.36
202.7270, 30719.83
203.9480, 35311.04
205.1690, 40718.91
206.3890, 45659.70
207.6090, 50006.74
208.8290, 53498.73
210.0490, 54867.21
211.2690, 54452.44
212.4890, 51593.61
213.7080, 48201.58
214.9280, 43720.24
216.1470, 39518.88
217.3660, 36419.36
218.5850, 33563.60
219.8030, 31601.51
221.0220, 30038.99
222.2400, 29156.99
223.4590, 28593.50
224.6770, 27950.49
225.8950, 27542.95
227.1120, 26962.87
228.3300, 25598.21
229.5480, 24044.96
230.7650, 22044.17
231.9820, 19567.60
233.1990, 17074.89
234.4160, 14843.18
235.6330, 12492.63
236.8490, 10439.97
238.0660, 8860.387
239.2820, 7310.918
240.4980, 6158.044
241.7140, 5341.754
242.9300, 4479.460
244.1460, 3924.270
245.3610, 3373.944
246.5770, 3141.801
247.7920, 2836.430
249.0070, 2536.597
250.2220, 2468.556
251.4370, 2407.650
252.6510, 2292.825
253.8660, 2650.516
255.0800, 2664.221
256.2940, 2998.849
257.5080, 3613.653
258.7220, 4275.660
259.9360, 4729.175
261.1490, 5011.863
262.3630, 5659.718
263.5760, 6033.731
264.7890, 6789.902
266.0020, 7168.226
267.2150, 7225.699
268.4270, 6957.317
269.6400, 6403.076
270.8520, 5790.970
272.0640, 5095.001
273.2760, 4455.161
274.4880, 4118.450
275.7000, 3691.866
276.9120, 3486.411
278.1230, 3411.083
279.3340, 3452.884
280.5450, 3714.812
281.7560, 4121.869
282.9670, 4512.048
284.1780, 5173.354
285.3880, 5975.783
286.5980, 7013.334
287.8090, 8203.004
289.0190, 9324.794
290.2290, 10935.70
291.4380, 12288.71
292.6480, 14076.83
293.8570, 15258.04
295.0670, 16651.34
296.2760, 17553.73
297.4850, 17900.20
298.6930, 17766.73
299.9020, 16562.34
301.1110, 15122.01
302.3190, 13522.75
303.5270, 11771.56
304.7350, 10019.43
305.9430, 8594.366
307.1510, 7457.366
308.3580, 6580.426
309.5660, 5864.549
310.7730, 5108.734
311.9800, 4774.979
313.1870, 4371.285
314.3940, 4206.652
315.6010, 3999.076
316.8070, 3867.560
318.0130, 3835.101
319.2200, 3997.699
320.4260, 4072.354
321.6310, 4349.066
322.8370, 4567.832
324.0430, 4757.653
325.2480, 5118.528
326.4540, 5508.455
327.6590, 5970.436
328.8640, 6556.468
330.0680, 7025.551
331.2730, 7567.683
332.4780, 8087.862
333.6820, 8312.093
334.8860, 8711.370
336.0900, 8727.692
337.2940, 8850.061
338.4980, 8575.477
339.7010, 8078.933
340.9050, 7400.436
342.1080, 6653.979
343.3110, 5739.565
344.5140, 4909.193
345.7170, 4109.861
346.9200, 3394.964
348.1220, 2577.541
349.3240, 2129.554
350.5270, 1634.685
351.7290, 1135.934
352.9310, 1051.304
354.1320, 653.7949
355.3340, 410.4048
356.5350, 270.1348
357.7370, 116.9897
358.9380, 25.97363
360.1390, 69.92627
361.3400, 72.75830
362.5400, 40.53662
363.7410, 43.74512
364.9410, 113.1094
366.1410, 130.5586
367.3410, 169.7314
368.5410, 183.6992
369.7410, 188.3862
370.9400, 204.1479
372.1400, 205.9819
373.3390, 106.8857
374.5380, 156.1421
375.7370, 241.1978
376.9360, 390.3247
378.1350, 482.5967
379.3330, 578.0635
380.5310, 669.0039
381.7300, 712.3696
382.9280, 791.1001
384.1260, 775.7803
385.3230, 777.8154
386.5210, 787.2080
387.7180, 730.5596
388.9160, 653.0659
390.1130, 615.4688
391.3100, 571.1606
392.5060, 506.1211
393.7030, 360.3193
394.9000, 236.6880
396.0960, 104.1660
397.2920, 163.6938
398.4880, 122.3003
399.6840, 60.96729
400.8800, 16.33105
402.0750, 62.62891
403.2710, 117.9453
404.4660, 160.2969
405.6610, 220.5269
406.8560, 278.6138
408.0510, 335.5625
409.2450, 426.0527
410.4400, 479.5771
411.6340, 601.1338
412.8280, 849.7227
414.0220, 1095.343
415.2160, 1298.994
416.4100, 1677.676
417.6030, 2359.388
418.7970, 3228.130
419.9900, 4288.899
421.1830, 5923.700
422.3760, 7642.525
423.5690, 9876.381
424.7610, 12125.26
425.9540, 15078.17
427.1460, 18705.11
428.3380, 22631.06
429.5300, 26598.05
430.7220, 29393.06
431.9140, 30563.10
433.1050, 29318.15
434.2970, 25904.24
435.4880, 21074.36
436.6790, 16536.50
437.8700, 12359.69
439.0610, 9408.905
440.2510, 7057.177
441.4420, 5513.522
442.6320, 4380.917
443.8220, 3585.378
445.0120, 2938.911
446.2020, 2466.507
447.3910, 2242.180
448.5810, 2111.929
449.7700, 1969.755
450.9600, 2036.671
452.1490, 1935.675
453.3370, 2130.778
454.5260, 2400.981
455.7150, 2665.286
456.9030, 2760.678
458.0910, 3260.162
459.2800, 3448.745
460.4670, 3720.413
461.6550, 3845.172
462.8430, 3934.002
464.0300, 3785.911
465.2180, 3685.886
466.4050, 3240.904
467.5920, 2802.984
468.7790, 2470.096
469.9650, 2150.231
471.1520, 1761.390
472.3380, 1587.562
473.5250, 1365.750
474.7110, 1286.952
475.8970, 1210.168
477.0820, 1245.399
478.2680, 1338.643
479.4540, 1614.900
480.6390, 1838.171
481.8240, 2076.456
483.0090, 2082.752
484.1940, 2171.062
485.3780, 2073.385
486.5630, 1959.720
487.7470, 1761.067
488.9320, 1378.427
490.1160, 1173.797
491.3000, 924.1787
492.4830, 725.5703
493.6670, 599.9722
494.8500, 478.3828
496.0340, 362.8018
497.2170, 304.2285
498.4000, 288.0859
499.5820, 255.1040
500.7650, 321.5518
501.9480, 361.9541
503.1300, 365.5532
504.3120, 379.9224
505.4940, 363.5137
506.6760, 317.9868
507.8580, 342.4639
509.0390, 382.9458
510.2210, 399.4316
511.4020, 447.6035
512.5830, 644.4126
513.7640, 560.9082
514.9450, 719.4053
516.1250, 832.9053
517.3060, 806.3599
518.4860, 1016.980
519.6660, 1152.123
520.8460, 1367.626
522.0260, 1553.311
523.2060, 1637.454
524.3850, 1820.854
525.5650, 2006.455
526.7440, 2204.777
527.9230, 2557.820
529.1020, 2734.167
530.2810, 3140.699
531.4590, 3459.654
532.6380, 3758.705
533.8160, 4101.257
534.9940, 4314.537
536.1720, 4563.285
537.3500, 4672.149
538.5270, 4861.181
539.7050, 4878.937
540.8820, 4772.911
542.0590, 4822.190
543.2360, 4706.515
544.4130, 4578.856
545.5900, 4610.898
546.7660, 4515.975
547.9430, 4476.089
549.1190, 4585.237
550.2950, 4696.424
551.4710, 4810.644
552.6470, 5004.899
553.8220, 5125.190
554.9980, 5045.517
556.1730, 5410.878
557.3480, 5566.273
558.5230, 5648.704
559.6980, 6014.167
560.8730, 6344.667
562.0470, 6798.198
563.2220, 7398.765
564.3960, 8094.362
565.5700, 8490.998
566.7440, 9522.663
567.9170, 10171.36
569.0910, 11123.09
570.2640, 12247.86
571.4380, 13374.66
572.6110, 14973.49
573.7840, 16343.94
574.9570, 17919.45
576.1290, 19522.48
577.3020, 21349.78
578.4740, 22642.39
579.6460, 24031.81
580.8180, 24940.19
581.9900, 25825.84
583.1620, 25560.53
584.3330, 25326.16
585.5040, 24432.00
586.6760, 23377.88
587.8470, 21832.05
589.0180, 20263.59
590.1880, 18237.53
591.3590, 16516.37
592.5290, 14741.17
593.7000, 13239.82
594.8700, 11953.63
596.0400, 10647.50
597.2090, 9869.562
598.3790, 8842.865
599.5490, 7978.348
600.7180, 7295.188
601.8870, 6634.229
603.0560, 6332.245
604.2250, 5728.027
605.3940, 5497.246
606.5620, 5239.205
607.7300, 4912.450
608.8990, 4880.062
610.0670, 4581.054
611.2350, 4714.980
612.4020, 4499.513
613.5700, 4424.050
614.7370, 4450.598
615.9050, 4455.150
617.0720, 4518.708
618.2390, 4557.275
619.4060, 4485.846
620.5720, 4510.425
621.7390, 4609.008
622.9050, 4664.599
624.0710, 4824.194
625.2370, 4863.795
626.4030, 5014.403
627.5690, 5104.016
628.7340, 5086.634
629.9000, 5130.256
631.0650, 5185.886
632.2300, 5315.518
633.3950, 5431.158
634.5600, 5502.800
635.7240, 5854.449
636.8890, 5934.102
638.0530, 6203.757
639.2170, 6475.420
640.3810, 6800.086
641.5450, 7029.758
642.7080, 7465.438
643.8720, 7931.148
645.0350, 8537.886
646.1980, 9003.638
647.3610, 9721.406
648.5240, 10357.18
649.6870, 11230.97
650.8490, 11888.77
652.0120, 12782.05
653.1740, 13727.42
654.3360, 14554.27
655.4980, 15515.13
656.6600, 16368.00
657.8210, 17131.92
658.9830, 17755.93
660.1440, 18296.04
661.3050, 18832.29
662.4660, 18974.71
663.6270, 18663.30
664.7870, 18471.10
665.9480, 17857.11
667.1080, 16710.31
668.2680, 15896.73
669.4280, 14918.36
670.5880, 13867.19
671.7480, 12580.19
672.9070, 11468.36
674.0670, 10429.69
675.2260, 9501.160
676.3850, 8623.739
677.5440, 7609.394
678.7030, 6902.094
679.8610, 6179.854
681.0200, 5566.663
682.1780, 4968.507
683.3360, 4430.657
684.4940, 3992.241
685.6520, 3521.112
686.8090, 3165.979
687.9670, 2857.846
689.1240, 2486.710
690.2810, 2281.569
691.4380, 2057.427
692.5950, 1852.281
693.7520, 1535.131
694.9080, 1390.977
696.0650, 1083.818
697.2210, 1040.654
698.3770, 1019.486
699.5330, 740.3125
700.6880, 748.1338
701.8440, 490.9487
702.9990, 561.7578
704.1550, 340.5605
705.3100, 425.3569
706.4650, 296.1460
707.6190, 248.9282
708.7740, 218.7026
709.9290, 180.4692
711.0830, 143.2285
712.2370, 47.97900
713.3910, 50.71387
714.5450, 19.43311
715.6980, 85.12891
716.8520, 44.18848
718.0050, 15.43701
719.1580, 68.96631
720.3110, 150.4419
721.4640, 53.03418
722.6170, 113.6938
723.7700, 146.4517
724.9220, 97.32861
726.0740, 163.2988
727.2260, 151.3975
728.3780, 155.6201
729.5300, 199.9697
730.6810, 197.4707
731.8330, 241.1221
732.9840, 241.9487
734.1350, 241.3813
735.2860, 195.1299
736.4370, 213.4609
737.5880, 230.9561
738.7380, 187.6240
739.8880, 205.5977
741.0390, 124.4224
742.1890, 167.5210
743.3380, 109.7612
744.4880, 25.11328
745.6380, 92.53369
746.7870, 13.94238
747.9360, 59.37061
749.0850, 63.76904
750.2340, 259.1382
751.3830, 395.4941
752.5310, 401.8359
753.6800, 579.1631
754.8280, 772.4771
755.9760, 900.7769
757.1240, 1197.063
758.2720, 1516.335
759.4190, 1694.594
760.5670, 1955.839
761.7140, 2189.070
762.8610, 2447.286
764.0080, 2542.490
765.1550, 2712.680
766.3020, 2694.856
767.4480, 2637.019
768.5950, 2603.168
769.7410, 2350.304
770.8870, 2259.426
772.0330, 1952.534
773.1780, 1900.628
774.3240, 1595.709
775.4690, 1472.776
776.6140, 1572.830
777.7590, 1374.871
778.9040, 1503.026
780.0490, 1577.039
781.1940, 1658.553
782.3380, 1889.538
783.4820, 2169.516
784.6260, 2499.240
785.7700, 2964.568
786.9140, 3186.690
788.0580, 3587.687
789.2010, 3786.191
790.3450, 3988.764
791.4880, 3910.680
792.6310, 3612.430
793.7730, 3228.293
794.9160, 2846.115
796.0590, 2537.918
797.2010, 2148.708
798.3430, 1874.100
799.4850, 1507.955
800.6270, 1309.739
801.7690, 1194.585
802.9100, 1019.969
804.0520, 831.9175
805.1930, 864.5713
806.3340, 724.2026
807.4750, 723.8105
808.6160, 716.3931
809.7560, 686.9502
810.8970, 723.4805
812.0370, 765.9839
813.1770, 708.4600
814.3170, 731.9077
815.4570, 729.3276
816.5960, 838.7183
817.7360, 845.0801
818.8750, 872.4126
820.0140, 1053.716
821.1530, 973.9893
822.2920, 1083.233
823.4310, 1153.448
824.5690, 1217.633
825.7070, 1273.789
826.8460, 1370.915
827.9840, 1392.011
829.1220, 1547.078
830.2590, 1595.116
831.3970, 1692.124
832.5340, 1734.103
833.6710, 1776.052
834.8080, 1734.972
835.9450, 1759.863
837.0820, 1778.933
838.2190, 1897.557
839.3550, 1795.359
840.4910, 1874.134
841.6270, 1821.879
842.7630, 1837.594
843.8990, 1740.282
845.0350, 1828.939
846.1700, 1684.569
847.3060, 1683.169
848.4410, 1716.741
849.5760, 1530.688
850.7100, 1488.599
851.8450, 1491.973
852.9800, 1469.099
854.1140, 1400.898
855.2480, 1376.911
856.3820, 1297.949
857.5160, 1200.725
858.6500, 1193.471
859.7830, 1118.269
860.9170, 1136.872
862.0500, 990.4238
863.1830, 1012.704
864.3160, 898.6045
865.4480, 845.1172
866.5810, 700.7271
867.7130, 712.3809
868.8460, 612.1846
869.9780, 621.8335
871.1100, 576.4214
872.2410, 490.8198
873.3730, 569.9819
874.5050, 504.9644
875.6360, 384.5908
876.7670, 415.0195
877.8980, 402.4790
879.0290, 421.1797
880.1590, 224.4482
881.2900, 346.9751
882.4200, 324.2192
883.5500, 214.0977
884.6800, 314.5996
885.8100, 307.1812
886.9400, 199.1602
888.0690, 299.1685
889.1990, 282.1895
890.3280, 304.2114
891.4570, 382.2314
892.5860, 431.2622
893.7140, 294.3057
894.8430, 279.3579
895.9710, 321.4077
897.1000, 215.4795
898.2280, 300.5527
899.3560, 276.6362
900.4830, 281.7554
901.6110, 345.8765
902.7380, 186.0098
903.8660, 276.1523
904.9930, 225.2993
906.1200, 300.4463
907.2460, 107.6006
908.3730, 149.7544
909.5000, 62.90625
910.6260, 123.0557
911.7520, 121.2036
912.8780, 41.34912
914.0040, 2.506836
915.1290, 43.63135
916.2550, 45.22412
917.3800, 47.90332
918.5050, 6.166016
919.6300, 26.20361
920.7550, 13.71387
921.8800, 60.59668
923.0040, 58.50293
924.1290, 68.67090
925.2530, 70.36475
926.3770, 58.32764
927.5010, 55.31104
928.6250, 3.701172
929.7480, 60.71582
930.8720, 94.27002
931.9950, 19.71484
933.1180, 71.29248
934.2410, 37.32764
935.3640, 1.625488
936.4860, 38.42285
937.6090, 25.48438
938.7310, 10.55664
939.8530, 48.36768
940.9750, 17.29248
942.0970, 87.21680
943.2180, 105.1406
944.3400, 147.0635
945.4610, 154.9873
946.5820, 223.9102
947.7030, 351.8345
948.8240, 315.7573
949.9450, 413.6802
951.0650, 315.6050
952.1860, 391.5322
953.3060, 397.4604
954.4260, 462.3896
955.5460, 495.3203
956.6650, 426.2510
957.7850, 558.1836
958.9040, 573.3228
960.0230, 617.0527
961.1420, 729.9888
962.2610, 790.9268
963.3800, 920.8662
964.4990, 915.8081
965.6170, 1097.752
966.7350, 1146.698
967.8530, 1349.646
968.9710, 1505.596
970.0890, 1501.548
971.2070, 1497.503
972.3240, 1381.461
973.4410, 1186.421
974.5580, 1004.385
975.6750, 898.3511
976.7920, 805.3208
977.9090, 735.6919
979.0250, 705.4077
980.1410, 692.2495
981.2580, 721.2319
982.3740, 761.2183
983.4890, 847.2080
984.6050, 871.2051
985.7200, 829.2095
986.8360, 1043.225
987.9510, 1038.246
989.0660, 1075.296
990.1810, 1309.359
991.2950, 1314.459
992.4100, 1472.616
993.5240, 1578.805
994.6390, 1780.043
995.7530, 1961.341
996.8660, 2198.085
997.9800, 2396.092
999.0940, 2776.560
1000.207, 3065.092
1001.320, 3457.698
1002.433, 3771.380
1003.546, 3933.147
1004.659, 4293.003
1005.772, 4368.945
1006.884, 4453.963
1007.996, 4375.061
1009.108, 3916.246
1010.220, 3686.638
1011.332, 3324.300
1012.444, 2771.190
1013.555, 2557.656
1014.666, 2290.178
1015.777, 2069.732
1016.888, 1914.337
1017.999, 1881.406
1019.110, 1908.215
1020.220, 1832.395
1021.331, 1988.127
1022.441, 1901.915
1023.551, 2056.636
1024.661, 2064.000
1025.770, 2230.072
1026.880, 2207.789
1027.989, 2578.630
1029.098, 2679.684
1030.207, 2872.433
1031.316, 3128.495
1032.425, 3389.465
1033.533, 3624.611
1034.642, 3999.500
1035.750, 4344.919
1036.858, 4668.618
1037.966, 4960.083
1039.073, 5284.647
1040.181, 5979.926
1041.288, 6409.147
1042.396, 7072.461
1043.503, 7941.465
1044.610, 8996.692
1045.716, 10233.72
1046.823, 11729.71
1047.929, 13641.62
1049.036, 15980.33
1050.142, 18700.16
1051.248, 22014.10
1052.353, 26360.65
1053.459, 30985.00
1054.564, 36160.83
1055.670, 41629.91
1056.775, 46812.59
1057.880, 50365.99
1058.985, 52698.52
1060.089, 52314.91
1061.194, 49707.88
1062.298, 44632.79
1063.402, 38463.08
1064.506, 32603.05
1065.610, 26824.14
1066.713, 22038.44
1067.817, 18350.62
1068.920, 15142.73
1070.023, 12802.35
1071.126, 10695.54
1072.229, 8974.431
1073.332, 7665.570
1074.435, 6370.562
1075.537, 5362.570
1076.639, 4608.326
1077.741, 3956.559
1078.843, 3489.374
1079.945, 3101.526
1081.046, 2683.287
1082.148, 2398.048
1083.249, 2126.480
1084.350, 1885.773
1085.451, 1720.710
1086.551, 1609.670
1087.652, 1463.692
1088.752, 1315.551
1089.853, 1231.590
1090.953, 1132.493
1092.053, 1125.311
1093.152, 1003.196
1094.252, 865.0835
1095.351, 890.9873
1096.451, 823.8936
1097.550, 799.8247
1098.649, 827.6377
1099.748, 777.4824
1100.846, 768.3477
1101.945, 932.1401
1103.043, 990.0723
1104.141, 972.9165
1105.239, 1139.723
1106.337, 1217.547
1107.434, 1329.312
1108.532, 1558.205
1109.629, 1735.039
1110.726, 1967.775
1111.823, 2200.516
1112.920, 2271.248
1114.017, 2328.977
1115.113, 2381.701
1116.210, 2300.422
1117.306, 2135.233
1118.402, 1825.956
1119.498, 1799.674
1120.593, 1502.396
1121.689, 1366.111
1122.784, 1261.825
1123.879, 1213.548
1124.974, 1017.262
1126.069, 835.9707
1127.164, 739.6743
1128.259, 510.3716
1129.353, 433.1724
1130.447, 326.9556
1131.541, 281.6333
1132.635, 159.3037
1133.729, 146.9658
1134.822, 100.6401
1135.916, 112.2856
1137.009, 84.97998
1138.102, 87.60840
1139.195, 92.23047
1140.288, 119.8418
1141.380, 41.44238
1142.473, 7.032715
1143.565, 16.37305
1144.657, 330.0864
1145.749, 412.0527
1146.841, 702.4390
1147.932, 816.9946
1149.024, 4.542480
1150.115, 23.93066
1151.206, 3.562500
1152.297, 116.9658
1153.388, 53.57812
1154.479, 4.159668
1155.569, 2.158203
1156.659, 40.55371
1157.750, 50.31104
1158.839, 35.84326
1159.929, 23.32129
1161.019, 81.19092
1162.108, 6.063965
1163.198, 35.99805
1164.287, 133.9780
1165.376, 1.990234
1166.465, 41.95459
1167.553, 30.08594
1168.642, 10.02002
1169.730, 4.771973
1170.818, 22.32422
1171.906, 18.40332
1172.994, 12.33594
1174.082, 49.02393
1175.170, 20.71826
1176.257, 45.42578
1177.344, 58.06250
1178.431, 45.84131
1179.518, 10.55957
1180.605, 15.25830
1181.691, 75.93799
1182.778, 23.30029
1183.864, 43.18018
1184.950, 31.80566
1186.036, 24.47705
1187.122, 25.09521
1188.207, 65.43652
1189.292, 15.93945
1190.378, 17.69385
1191.463, 41.58789
1192.548, 5.747070
1193.632, 30.51758
1194.717, 10.24854
1195.801, 12.03613
1196.886, 96.23096
1197.970, 35.76025
1199.054, 50.90088
1200.137, 150.0171
1201.221, 113.1172
1202.305, 52.76855
1203.388, 57.01025
1204.471, 88.21240
1205.554, 85.22266
1206.637, 147.5039
1207.719, 49.20654
1208.802, 135.2119
1209.884, 60.70020
1210.966, 157.8315
1212.048, 183.9873
1213.130, 32.83203
1214.212, 45.08594
1215.293, 111.8750
1216.374, 106.7183
1217.456, 92.81592
1218.536, 133.2734
1219.617, 90.96338
1220.698, 123.9375
1221.778, 144.8047
1222.859, 129.6270
1223.939, 129.8550
1225.019, 126.6460
1226.099, 126.5273
1227.178, 121.8345
1228.258, 150.3237
1229.337, 143.3125
1230.417, 139.1064
1231.496, 156.7866
1232.574, 123.2964
1233.653, 144.8643
1234.732, 154.9888
1235.810, 150.8188
1236.888, 165.5464
1237.966, 135.0542
1239.044, 149.4199
1240.122, 197.0347
