##NAMES=Forsterite
##RRUFFID=R040018
##IDEAL CHEMISTRY=Mg_2_SiO_4_
##LOCALITY=Trudy's mine, San Carlos, Gila County, Arizona, USA
##OWNER=RRUFF
##SOURCE=Bob Downs
##DESCRIPTION=Green fragments from xenoliths in a basalt flow
##STATUS=The identification of this mineral has been confirmed by X-ray diffraction and chemical analysis
##URL=rruff.info/R040018
##MEASURED CHEMISTRY=(Mg_1.81_Fe_0.18_Ni_0.01_)_Î£=2_Si_1.00_O_4_; trace amounts of Mn and Ca
##PIN_ID=M00002
##ORIENTATION=Laser parallel to -b* (0 -1 0). Fiducial mark perpendicular to laser is parallel to c [0 0 1]
49.365, 0.000
50.765, 41.391
52.166, 71.887
53.566, 105.242
54.966, 76.157
56.365, 160.751
57.765, 185.945
59.164, 235.985
60.563, 315.831
61.962, 377.124
63.360, 379.868
64.758, 393.540
66.157, 416.874
67.554, 417.844
68.952, 367.260
70.349, 321.471
71.747, 289.113
73.144, 255.640
74.540, 243.485
75.937, 192.685
77.333, 170.658
78.729, 132.836
80.125, 72.382
81.521, 29.764
82.916, 14.239
84.311, 7.808
85.706, 15.547
87.101, 20.636
88.496, 39.885
89.890, 5.996
91.284, 11.853
92.678, 9.245
94.071, 6.716
95.465, 3.260
96.858, 44.828
98.251, 23.977
99.644, 89.182
101.036, 95.442
102.428, 97.752
103.820, 102.108
105.212, 109.502
106.604, 156.928
107.995, 148.381
109.387, 199.851
110.777, 315.334
112.168, 346.024
113.559, 344.721
114.949, 448.162
116.339, 304.811
117.729, 248.806
119.119, 252.550
120.508, 249.303
121.897, 232.879
123.286, 238.469
124.675, 181.074
126.063, 222.693
127.452, 198.325
128.840, 182.970
130.228, 200.629
131.615, 201.300
133.003, 219.008
134.390, 217.471
135.777, 226.729
137.164, 223.717
138.550, 220.778
139.937, 241.895
141.323, 223.073
142.709, 251.301
144.094, 226.556
145.480, 222.848
146.865, 244.144
148.250, 249.417
149.635, 253.644
151.019, 227.064
152.403, 268.331
153.788, 238.697
155.171, 286.920
156.555, 250.232
157.939, 222.605
159.322, 238.722
160.705, 226.031
162.088, 210.967
163.470, 181.330
164.853, 227.314
166.235, 193.363
167.617, 197.246
168.998, 185.088
170.380, 163.937
171.761, 202.796
173.142, 189.667
174.523, 171.556
175.904, 148.465
177.284, 138.387
178.664, 152.325
180.044, 126.271
181.424, 155.221
182.803, 132.177
184.183, 112.137
185.562, 127.102
186.940, 121.091
188.319, 146.085
189.698, 119.083
191.076, 170.085
192.454, 165.093
193.831, 215.114
195.209, 176.142
196.586, 189.175
197.963, 198.212
199.340, 204.253
200.717, 230.296
202.093, 196.342
203.470, 222.392
204.846, 254.446
206.221, 236.504
207.597, 276.566
208.972, 282.632
210.347, 354.703
211.722, 364.778
213.097, 470.858
214.472, 538.942
215.846, 616.086
217.220, 796.154
218.594, 825.169
219.967, 1009.948
221.341, 1057.538
222.714, 1157.183
224.087, 1246.534
225.460, 1204.070
226.832, 1102.037
228.204, 927.167
229.577, 820.790
230.948, 716.241
232.320, 621.327
233.692, 560.259
235.063, 452.832
236.434, 473.148
237.805, 379.646
239.175, 332.196
240.545, 275.494
241.916, 258.354
243.286, 213.425
244.655, 180.857
246.025, 160.899
247.394, 138.459
248.763, 135.785
250.132, 142.972
251.501, 74.895
252.869, 134.571
254.237, 74.111
255.605, 97.847
256.973, 49.396
258.340, 75.059
259.708, 77.584
261.075, 39.746
262.442, 85.871
263.808, 56.777
265.175, 50.315
266.541, 71.896
267.907, 69.498
269.273, 99.131
270.639, 13.807
272.004, 71.692
273.369, 98.552
274.734, 27.638
276.099, 60.773
277.463, 60.911
278.828, 99.052
280.192, 49.194
281.556, 129.339
282.919, 76.485
284.283, 133.764
285.646, 132.923
287.009, 135.076
288.372, 174.427
289.734, 166.538
291.097, 238.871
292.459, 264.334
293.821, 349.658
295.183, 478.000
296.544, 557.251
297.905, 816.239
299.266, 1032.455
300.627, 1272.285
301.988, 1507.651
303.348, 1631.930
304.709, 1690.069
306.069, 1462.279
307.428, 1267.559
308.788, 993.871
310.147, 769.044
311.507, 625.327
312.865, 494.498
314.224, 477.668
315.583, 382.836
316.941, 414.109
318.299, 423.356
319.657, 475.523
321.015, 543.675
322.372, 540.847
323.729, 711.084
325.086, 766.254
326.443, 872.430
327.800, 884.802
329.156, 827.980
330.512, 826.253
331.868, 729.585
333.224, 786.776
334.579, 751.910
335.935, 792.117
337.290, 940.594
338.645, 857.884
339.999, 939.184
341.354, 847.479
342.708, 776.752
344.062, 613.039
345.416, 544.271
346.769, 450.505
348.123, 343.638
349.476, 333.826
350.829, 266.091
352.182, 197.350
353.534, 192.543
354.887, 144.818
356.239, 196.093
357.591, 95.373
358.942, 147.651
360.294, 158.946
361.645, 78.246
362.996, 128.548
364.347, 95.868
365.698, 149.185
367.048, 94.519
368.398, 106.851
369.748, 141.189
371.098, 78.536
372.448, 158.881
373.797, 104.232
375.146, 118.585
376.495, 96.938
377.844, 60.289
379.192, 82.626
380.540, 39.963
381.889, 57.286
383.236, 61.594
384.584, 2.897
385.932, 28.186
387.279, 10.531
388.626, 21.737
389.973, 10.006
391.319, 15.239
392.666, 11.474
394.012, 54.301
395.358, 20.891
396.704, 22.923
398.049, 20.750
399.394, 3.589
400.740, 45.309
402.084, 5.179
403.429, 22.942
404.774, 0.319
406.118, 16.428
407.462, 69.787
408.806, 55.895
410.150, 51.089
411.493, 144.221
412.836, 145.340
414.179, 196.400
415.522, 236.541
416.865, 287.661
418.207, 336.799
419.549, 307.744
420.891, 330.812
422.233, 263.899
423.575, 201.840
424.916, 214.978
426.257, 139.001
427.598, 159.998
428.939, 93.086
430.279, 116.165
431.619, 125.339
432.959, 83.187
434.299, 148.277
435.639, 110.442
436.978, 127.346
438.318, 96.387
439.657, 132.427
440.996, 121.575
442.334, 59.562
443.673, 76.700
445.011, 21.798
446.349, 50.925
447.687, 62.048
449.024, 6.166
450.361, 70.277
451.699, 11.383
453.036, 1.517
454.372, 9.574
455.709, 10.660
457.045, 32.738
458.381, 28.189
459.717, 41.862
461.053, 9.092
462.388, 5.942
463.724, 26.968
465.059, 14.011
466.394, 42.995
467.728, 25.995
469.063, 17.989
470.397, 54.975
471.731, 23.957
473.065, 54.932
474.398, 72.901
475.732, 63.864
477.065, 24.835
478.398, 30.786
479.731, 57.159
481.063, 28.902
482.396, 48.013
483.728, 35.719
485.060, 52.622
486.391, 65.683
487.723, 4.581
489.054, 50.586
490.385, 28.977
491.716, 15.190
493.047, 57.548
494.377, 8.858
495.708, 52.758
497.038, 2.621
498.368, 32.443
499.697, 34.565
501.027, 28.306
502.356, 42.106
503.685, 28.676
505.014, 75.460
506.342, 53.898
507.671, 58.942
508.999, 73.371
510.327, 43.369
511.655, 107.991
512.982, 100.312
514.310, 91.496
515.637, 120.381
516.964, 99.258
518.291, 146.964
519.617, 124.921
520.944, 171.870
522.270, 150.383
523.596, 169.915
524.921, 230.952
526.247, 198.619
527.572, 202.262
528.897, 224.684
530.222, 193.741
531.547, 270.357
532.871, 270.677
534.196, 312.128
535.520, 425.876
536.844, 488.584
538.167, 714.151
539.491, 787.151
540.814, 1040.615
542.137, 1179.142
543.460, 1292.104
544.783, 1343.386
546.105, 1027.367
547.427, 911.343
548.749, 636.675
550.071, 433.815
551.393, 378.102
552.714, 239.365
554.035, 242.760
555.356, 132.044
556.677, 94.904
557.998, 173.315
559.318, 51.414
560.638, 129.285
561.958, 51.310
563.278, 41.545
564.597, 96.672
565.917, 31.867
567.236, 111.219
568.555, 55.560
569.874, 70.872
571.192, 110.196
572.511, 52.511
573.829, 92.818
575.147, 50.115
576.464, 95.402
577.782, 116.680
579.099, 99.951
580.416, 140.212
581.733, 150.465
583.050, 225.709
584.366, 231.945
585.683, 279.172
586.999, 304.391
588.315, 274.601
589.630, 358.802
590.946, 364.994
592.261, 336.178
593.576, 366.354
594.891, 300.520
596.206, 323.679
597.520, 277.829
598.834, 264.971
600.148, 319.104
601.462, 300.228
602.776, 410.344
604.089, 412.320
605.402, 491.410
606.715, 502.500
608.028, 515.386
609.341, 518.489
610.653, 467.350
611.965, 459.107
613.277, 446.975
614.589, 376.840
615.901, 340.789
617.212, 252.996
618.523, 259.969
619.834, 221.320
621.145, 164.127
622.456, 188.016
623.766, 122.035
625.076, 143.975
626.386, 83.838
627.696, 113.661
629.006, 130.614
630.315, 56.448
631.624, 88.387
632.933, 76.319
634.242, 40.243
635.551, 62.055
636.859, 11.884
638.167, 90.784
639.475, 41.689
640.783, 13.433
642.090, 60.365
643.398, 3.779
644.705, 34.060
646.012, 17.695
647.318, 6.515
648.625, 10.084
649.931, 26.118
651.237, 1.657
652.543, 0.479
653.849, 22.218
655.155, 61.681
656.460, 24.675
657.765, 3.055
659.070, 26.521
660.375, 64.850
661.679, 24.659
662.984, 31.702
664.288, 6.870
665.592, 0.545
666.895, 25.955
668.199, 4.481
669.502, 47.929
670.805, 1.586
672.108, 7.091
673.411, 10.410
674.713, 42.073
676.016, 60.447
677.318, 13.009
678.620, 6.588
679.921, 61.178
681.223, 20.191
682.524, 58.445
683.825, 14.881
685.126, 23.796
686.427, 34.493
687.727, 28.784
689.028, 23.942
690.328, 10.687
691.628, 0.557
692.927, 0.795
694.227, 24.027
695.526, 53.743
696.825, 12.454
698.124, 5.648
699.423, 23.159
700.721, 39.017
702.020, 26.808
703.318, 49.351
704.616, 38.510
705.913, 3.332
707.211, 26.824
708.508, 2.979
709.805, 36.133
711.102, 20.303
712.399, 12.527
713.695, 71.641
714.992, 0.812
716.288, 53.857
717.584, 42.039
718.879, 35.108
720.175, 62.146
721.470, 12.334
722.765, 110.269
724.060, 81.457
725.355, 76.562
726.649, 111.732
727.944, 58.920
729.238, 122.018
730.532, 93.206
731.825, 69.299
733.119, 172.488
734.412, 44.682
735.705, 123.877
736.998, 114.072
738.291, 100.269
739.584, 149.466
740.876, 72.665
742.168, 155.866
743.460, 148.068
744.752, 97.271
746.043, 191.476
747.334, 120.683
748.626, 183.892
749.916, 170.103
751.207, 151.316
752.498, 195.532
753.788, 178.749
755.078, 218.971
756.368, 247.195
757.658, 151.423
758.947, 248.656
760.237, 202.892
761.526, 258.136
762.815, 252.384
764.104, 215.635
765.392, 311.899
766.680, 257.167
767.969, 275.440
769.257, 372.719
770.544, 287.003
771.832, 345.293
773.119, 329.598
774.406, 357.908
775.693, 438.232
776.980, 362.560
778.267, 431.902
779.553, 375.256
780.839, 395.615
782.125, 499.990
783.411, 459.370
784.697, 538.756
785.982, 482.151
787.267, 478.552
788.552, 586.960
789.837, 534.360
791.122, 618.780
792.406, 620.792
793.690, 665.239
794.974, 744.703
796.258, 714.378
797.542, 861.855
798.825, 854.185
800.108, 898.679
801.391, 1041.065
802.674, 1063.079
803.957, 1197.272
805.239, 1382.321
806.522, 1433.136
807.804, 1724.925
809.085, 1906.474
810.367, 2155.063
811.649, 2539.352
812.930, 2937.030
814.211, 3468.650
815.492, 4082.510
816.772, 5223.161
818.053, 6690.157
819.333, 8159.558
820.613, 11026.576
821.893, 13512.025
823.173, 16108.857
824.452, 17662.986
825.732, 16870.264
827.011, 15857.839
828.290, 13554.421
829.568, 11482.177
830.847, 10065.687
832.125, 8442.201
833.403, 7855.155
834.681, 7282.720
835.959, 6891.531
837.236, 7063.338
838.514, 6910.171
839.791, 7481.230
841.068, 7902.656
842.345, 8491.527
843.621, 9867.694
844.898, 10864.731
846.174, 12972.478
847.450, 15260.263
848.726, 18468.197
850.001, 23242.695
851.277, 28460.654
852.552, 36158.613
853.827, 43465.168
855.102, 48763.164
856.376, 54289.562
857.651, 52437.594
858.925, 48785.621
860.199, 42993.516
861.473, 33761.566
862.746, 28099.639
864.020, 22448.619
865.293, 17686.721
866.566, 14744.291
867.839, 11712.421
869.112, 9950.552
870.384, 8408.710
871.656, 6792.879
872.928, 6134.065
874.200, 5149.265
875.472, 4642.480
876.744, 4132.708
878.015, 3585.950
879.286, 3602.208
880.557, 3173.479
881.828, 2998.764
883.098, 2899.064
884.369, 2562.380
885.639, 2508.710
886.909, 2194.835
888.178, 1940.192
889.448, 1850.564
890.717, 1589.953
891.987, 1604.353
893.256, 1349.767
894.524, 1227.240
895.793, 1281.683
897.061, 1136.156
898.330, 1113.644
899.598, 1079.146
900.865, 949.665
902.133, 995.199
903.401, 927.748
904.668, 947.311
905.935, 936.890
907.202, 906.756
908.468, 940.364
909.735, 958.986
911.001, 962.211
912.267, 1119.863
913.533, 1078.494
914.799, 1321.175
916.064, 1503.870
917.330, 1733.601
918.595, 2264.326
919.860, 2456.065
921.124, 2578.025
922.389, 2331.792
923.653, 1925.936
924.918, 1722.459
926.182, 1414.270
927.445, 1283.437
928.709, 1180.277
929.972, 1059.913
931.236, 1154.409
932.499, 1099.291
933.761, 1176.710
935.024, 1241.621
936.286, 1176.544
937.549, 1363.415
938.811, 1382.366
940.073, 1440.716
941.334, 1674.696
942.596, 1640.689
943.857, 1844.388
945.118, 2060.306
946.379, 2159.923
947.640, 2545.119
948.900, 2731.188
950.161, 2978.748
951.421, 3428.850
952.681, 3637.966
953.940, 4359.380
955.200, 4648.526
956.459, 5228.169
957.719, 5933.354
958.978, 6158.555
960.236, 6865.288
961.495, 7000.519
962.753, 6821.761
964.012, 6862.556
965.270, 6040.840
966.527, 5734.531
967.785, 5128.311
969.043, 4200.655
970.300, 3961.765
971.557, 3145.438
972.814, 2646.836
974.071, 2229.094
975.327, 1713.530
976.583, 1566.994
977.840, 1294.477
979.095, 1034.973
980.351, 969.486
981.607, 726.012
982.862, 628.568
984.117, 580.459
985.372, 447.056
986.627, 481.683
987.882, 320.322
989.136, 298.990
990.390, 302.079
991.644, 206.780
992.898, 261.503
994.152, 144.237
995.405, 161.994
996.659, 197.796
997.912, 88.583
999.165, 174.383
1000.417, 142.193
1001.670, 68.035
1002.922, 198.887
1004.174, 79.750
1005.426, 71.632
1006.678, 149.524
1007.930, 11.435
1009.181, 59.358
1010.432, 35.290
1011.683, 14.237
1012.934, 86.196
1014.185, 34.835
1015.435, 31.138
1016.685, 67.119
1017.935, 27.114
1019.185, 96.125
1020.435, 10.146
1021.684, 27.177
1022.934, 83.219
1024.183, 30.270
1025.432, 105.340
1026.680, 9.419
1027.929, 59.508
1029.177, 86.605
1030.425, 20.712
1031.673, 54.826
1032.921, 77.956
1034.169, 2.093
1035.416, 61.241
1036.663, 27.604
1037.911, 30.553
1039.157, 30.718
1040.404, 1.892
1041.650, 88.075
1042.897, 50.268
1044.143, 2.485
1045.389, 83.728
1046.634, 25.372
1047.880, 84.600
1049.125, 82.837
1050.371, 22.728
1051.615, 55.978
1052.860, 56.240
1054.105, 22.508
1055.349, 123.782
1056.593, 9.937
1057.837, 17.346
1059.081, 41.636
1060.325, 17.069
1061.568, 64.226
1062.812, 24.472
1064.055, 9.827
1065.298, 57.131
1066.540, 43.560
1067.783, 69.736
1069.025, 16.038
1070.267, 5.656
1071.509, 60.652
1072.751, 9.035
1073.993, 16.721
1075.234, 55.590
1076.475, 28.095
1077.716, 36.213
1078.957, 35.476
1080.198, 13.176
1081.438, 74.121
1082.679, 47.577
1083.919, 43.706
1085.159, 15.992
1086.398, 17.716
1087.638, 63.570
1088.877, 6.142
1090.116, 27.147
1091.355, 41.438
1092.594, 62.268
1093.833, 77.999
1095.071, 8.733
1096.309, 0.533
1097.547, 32.800
1098.785, 41.932
1100.023, 9.318
1101.260, 27.571
1102.498, 54.174
1103.735, 61.055
1104.972, 4.714
1106.208, 20.643
1107.445, 57.873
1108.681, 22.895
1109.918, 32.412
1111.154, 51.632
1112.389, 22.146
1113.625, 38.560
1114.860, 36.225
1116.096, 1.745
1117.331, 44.533
1118.566, 24.275
1119.800, 1.920
1121.035, 37.103
1122.269, 7.713
1123.503, 129.524
1124.737, 76.703
1125.971, 79.072
1127.205, 101.251
1128.438, 15.430
1129.671, 91.880
1130.904, 60.057
1132.137, 4.234
1133.370, 98.344
1134.602, 28.514
1135.834, 57.750
1137.066, 128.994
1138.298, 4.160
1139.530, 129.033
1140.762, 33.208
1141.993, 60.365
1143.224, 119.443
1144.455, 17.595
1145.686, 107.240
1146.917, 155.878
1148.147, 67.022
1149.377, 144.335
1150.607, 93.587
1151.837, 98.721
1153.067, 133.380
1154.296, 84.508
1155.526, 133.049
1156.755, 135.437
1157.984, 62.554
1159.213, 187.462
1160.441, 110.077
1161.670, 125.262
1162.898, 214.060
1164.126, 75.157
1165.354, 165.249
1166.581, 135.206
1167.809, 61.290
1169.036, 121.528
1170.263, 94.071
1171.490, 79.140
1172.717, 205.690
1173.943, 41.928
1175.170, 136.982
1176.396, 123.195
1177.622, 75.238
1178.848, 176.305
1180.073, 73.892
1181.299, 80.917
1182.524, 149.387
1183.749, 63.522
1184.974, 130.746
1186.199, 73.163
1187.423, 42.253
1188.648, 117.602
1189.872, 41.218
1191.096, 35.193
1192.320, 103.505
1193.543, 31.080
1194.767, 84.844
1195.990, 95.029
1197.213, 16.939
1198.436, 111.918
1199.659, 62.997
1200.881, 81.879
1202.104, 156.756
1203.326, 48.779
1204.548, 119.365
1205.770, 136.218
1206.991, 78.062
1208.213, 158.310
1209.434, 77.641
1210.655, 96.498
1211.876, 182.312
1213.096, 56.185
1214.317, 126.962
1215.537, 116.777
1216.757, 128.561
1217.977, 203.130
1219.197, 122.898
1220.417, 62.297
1221.636, 164.323
1222.855, 108.157
1224.074, 138.552
1225.293, 131.279
1226.512, 103.337
1227.731, 175.419
1228.949, 90.282
1230.167, 145.454
1231.385, 196.141
1232.603, 80.084
1233.820, 122.823
1235.038, 145.487
1236.255, 99.829
1237.472, 232.478
1238.689, 88.122
1239.906, 104.258
1241.122, 193.890
1242.338, 91.935
1243.555, 110.411
1244.771, 187.026
1245.986, 60.443
1247.202, 137.047
1248.417, 106.642
1249.633, 70.264
1250.848, 164.846
1252.063, 30.939
1253.277, 100.523
1254.492, 144.082
1255.706, 34.132
1256.920, 127.677
1258.134, 80.208
1259.348, 12.428
1260.562, 151.944
1261.775, 19.056
1262.988, 33.103
1264.201, 113.588
1265.414, 45.323
1266.627, 87.953
1267.839, 76.406
1269.052, 38.802
1270.264, 128.239
1271.476, 3.338
1272.688, 90.210
1273.899, 90.611
1275.111, 20.994
1276.322, 120.444
1277.533, 70.794
1278.744, 15.127
1279.955, 96.239
1281.165, 40.547
1282.376, 38.934
1283.586, 92.223
1284.796, 5.091
1286.006, 53.560
1287.215, 95.804
1288.425, 1.038
1289.634, 70.296
1290.843, 11.469
1292.052, 11.664
1293.261, 70.868
1294.469, 2.956
1295.678, 36.221
1296.886, 111.372
1298.094, 10.514
1299.302, 86.843
1300.509, 14.967
1301.717, 23.082
1302.924, 88.187
1304.131, 3.283
1305.338, 11.367
1306.545, 42.440
1307.752, 8.503
1308.958, 80.643
1310.164, 74.691
1311.370, 14.270
1312.576, 92.753
1313.782, 32.765
1314.987, 12.767
1316.193, 82.756
1317.398, 24.264
1318.603, 30.696
1319.807, 68.647
1321.012, 32.576
1322.216, 95.495
1323.421, 56.405
1324.625, 9.721
1325.829, 78.127
1327.032, 12.965
1328.236, 37.790
1329.439, 109.604
1330.642, 14.411
1331.845, 41.206
1333.048, 16.991
1334.251, 5.763
1335.453, 118.522
1336.656, 7.775
1337.858, 11.960
1339.060, 124.270
1340.261, 19.981
1341.463, 72.682
1342.664, 40.725
1343.866, 6.593
1345.067, 124.073
1346.267, 59.728
1347.468, 29.374
1348.669, 106.009
1349.869, 65.636
1351.069, 74.253
1352.269, 112.936
1353.469, 5.538
1354.668, 97.130
1355.868, 83.718
1357.067, 43.299
1358.266, 68.872
1359.465, 53.813
1360.664, 60.381
1361.862, 144.942
1363.061, 68.521
1364.259, 85.072
1365.457, 126.619
1366.655, 37.161
1367.852, 122.698
1369.050, 70.238
1370.247, 31.752
1371.444, 143.269
1372.641, 26.791
1373.838, 68.297
1375.035, 133.809
1376.231, 16.353
1377.427, 111.863
1378.623, 88.624
1379.819, 40.882
1381.015, 127.948
1382.211, 62.017
1383.406, 38.093
1384.601, 152.162
1385.796, 63.240
1386.991, 94.320
1388.185, 127.269
1389.380, 15.344
1390.574, 144.329
1391.768, 102.863
1392.962, 12.616
1394.156, 163.591
1395.350, 70.638
1396.543, 57.622
1397.736, 165.301
1398.929, 57.316
1400.122, 62.005
1401.315, 93.718
1402.507, 10.396
1403.700, 120.467
1404.892, 128.531
1406.084, 69.330
1407.276, 142.625
1408.467, 75.904
1409.659, 30.843
1410.850, 141.336
1412.041, 4.365
1413.232, 99.109
1414.423, 118.203
1415.614, 24.093
1416.804, 147.858
1417.994, 97.061
1419.184, 32.911
1420.374, 132.136
1421.564, 35.532
1422.753, 38.935
1423.943, 116.265
1425.132, 25.193
1426.321, 105.587
1427.510, 104.383
1428.698, 8.412
1429.887, 119.794
1431.075, 82.594
1432.263, 33.687
1433.451, 147.162
1434.639, 42.639
1435.827, 35.855
1437.014, 131.318
1438.201, 35.925
1439.388, 63.362
1440.575, 131.676
1441.762, 5.051
1442.949, 165.461
1444.135, 104.864
1445.321, 50.092
1446.507, 118.254
1447.693, 113.326
1448.879, 118.692
1450.064, 177.528
1451.250, 18.721
1452.435, 138.036
1453.620, 124.142
1454.805, 64.392
1455.989, 176.005
1457.174, 126.187
1458.358, 86.638
1459.542, 188.718
1460.726, 125.790
1461.910, 84.879
1463.093, 165.004
1464.277, 53.013
1465.460, 106.014
1466.643, 164.708
1467.826, 27.489
1469.009, 165.928
1470.191, 125.734
1471.373, 77.365
1472.556, 193.944
1473.738, 96.561
1474.919, 120.420
1476.101, 187.676
1477.283, 44.458
1478.464, 75.384
1479.645, 165.211
1480.826, 19.035
1482.007, 148.190
1483.187, 144.984
1484.368, 49.746
1485.548, 135.477
1486.728, 80.845
1487.908, 35.498
1489.088, 134.118
1490.268, 37.716
1491.447, 48.286
1492.626, 175.872
1493.805, 0.519
1494.984, 65.386
1496.163, 137.364
1497.341, 51.366
1498.520, 126.398
1499.698, 108.477
1500.876, 8.428
1502.054, 144.652
1503.232, 58.847
1504.409, 11.108
1505.586, 143.461
1506.763, 44.922
1507.940, 39.733
1509.117, 128.381
1510.294, 21.140
1511.470, 62.883
1512.647, 111.259
1513.823, 16.181
1514.999, 156.428
