##NAMES=Forsterite
##RRUFFID=R060535
##IDEAL CHEMISTRY=Mg_2_SiO_4_
##LOCALITY=unknown
##OWNER=RRUFF
##SOURCE=Gemological Institute of America
##DESCRIPTION=Transparent brown gemstone
##STATUS=The identification of this mineral has been confirmed by X-ray diffraction and chemical analysis
##URL=rruff.info/R060535
##MEASURED CHEMISTRY=(Mg_1.81_Fe_0.18_Ni_0.01_)_Î£=2_Si_1.00_O_4_
##PIN_ID=L01269
##ORIENTATION=Laser parallel to a* (1 0 0). Fiducial mark perpendicular to laser is parallel to b [0 1 0]
207.6110, 0.0000000E+00
208.8360, 0.9382320
210.0610, 8.554077
211.2860, 44.59485
212.5100, 105.9292
213.7350, 143.1406
214.9590, 267.4812
216.1830, 392.0458
217.4070, 472.2314
218.6310, 541.4561
219.8540, 647.3474
221.0780, 718.5536
222.3010, 783.3987
223.5240, 801.9248
224.7470, 820.3616
225.9690, 777.5981
227.1920, 747.3474
228.4140, 689.6973
229.6360, 644.9211
230.8580, 607.7716
232.0800, 525.5270
233.3020, 488.5378
234.5230, 413.4823
235.7440, 381.1862
236.9650, 311.4188
238.1860, 318.8120
239.4070, 269.9126
240.6280, 211.4331
241.8480, 147.7017
243.0680, 163.1593
244.2880, 97.58728
245.5080, 204.2457
246.7280, 126.8529
247.9470, 100.8495
249.1660, 34.42834
250.3860, 28.91406
251.6040, 31.56921
252.8230, 7.140015
254.0420, 46.71069
255.2600, 4.836670
256.4790, 4.235840
257.6970, 18.76245
258.9150, 63.68506
260.1320, 75.54626
261.3500, 30.31348
262.5670, 32.98657
263.7840, 5.428223
265.0010, 37.07556
266.2180, 14.50330
267.4350, 9.140137
268.6510, 16.84778
269.8680, 49.38562
271.0840, 8.561035
272.3000, 4.320923
273.5160, 41.74231
274.7310, 4.753418
275.9470, 45.71472
277.1620, 36.62854
278.3770, 36.49658
279.5920, 51.32092
280.8070, 54.10986
282.0210, 72.88928
283.2360, 70.09216
284.4500, 74.43958
285.6640, 65.96387
286.8780, 74.98462
288.0920, 71.75378
289.3050, 99.51904
290.5180, 113.2794
291.7320, 155.0344
292.9450, 157.7806
294.1570, 167.0139
295.3700, 225.4070
296.5830, 325.0149
297.7950, 344.4612
299.0070, 497.4260
300.2190, 526.6091
301.4310, 530.3442
302.6420, 607.6383
303.8540, 610.5024
305.0650, 565.5164
306.2760, 577.3369
307.4870, 446.7402
308.6980, 441.2100
309.9080, 444.8976
311.1190, 491.7334
312.3290, 506.1282
313.5390, 561.8857
314.7490, 652.6489
315.9580, 697.4194
317.1680, 741.1968
318.3770, 737.9806
319.5860, 866.7699
320.7950, 957.5645
322.0040, 1014.364
323.2130, 1150.166
324.4210, 1286.973
325.6290, 1380.781
326.8380, 1420.590
328.0460, 1443.501
329.2530, 1386.344
330.4610, 1321.263
331.6680, 1233.189
332.8760, 1199.017
334.0830, 1172.797
335.2890, 1123.572
336.4960, 1124.340
337.7030, 1079.104
338.9090, 1010.861
340.1150, 855.6127
341.3210, 735.3582
342.5270, 638.0972
343.7330, 530.8301
344.9380, 412.5564
346.1440, 397.2764
347.3490, 282.9894
348.5540, 233.6957
349.7590, 240.3951
350.9630, 234.0874
352.1680, 192.7727
353.3720, 194.2875
354.5760, 189.9414
355.7800, 164.6879
356.9840, 183.4827
358.1870, 184.3013
359.3910, 183.1320
360.5940, 169.9667
361.7970, 212.7957
363.0000, 213.6188
364.2030, 176.4281
365.4050, 236.2158
366.6080, 173.9818
367.8100, 253.7246
369.0120, 302.4473
370.2140, 316.1494
371.4150, 279.8307
372.6170, 219.5002
373.8180, 211.1664
375.0190, 156.7642
376.2200, 119.2789
377.4210, 120.7725
378.6220, 71.27319
379.8220, 61.78064
381.0230, 74.27515
382.2230, 47.78015
383.4230, 21.24121
384.6220, 4.706543
385.8220, 7.837524
387.0220, 14.64233
388.2210, 51.91809
389.4200, 7.463623
390.6190, 17.00574
391.8180, 4.442017
393.0160, 28.11182
394.2150, 22.67572
395.4130, 6.254883
396.6110, 43.12921
397.8090, 39.78192
399.0060, 41.62097
400.2040, 13.66687
401.4010, 0.4464110
402.5980, 5.226440
403.7950, 5.886230
404.9920, 63.43872
406.1890, 55.75000
407.3860, 64.06213
408.5820, 49.64148
409.7780, 56.93671
410.9740, 39.14673
412.1700, 22.43390
413.3650, 75.21814
414.5610, 42.46252
415.7560, 79.55640
416.9510, 110.0806
418.1460, 126.2916
419.3410, 175.2886
420.5360, 219.1823
421.7300, 284.6559
422.9240, 338.8198
424.1180, 392.9814
425.3120, 475.1335
426.5060, 602.2762
427.7000, 638.4092
428.8930, 704.5325
430.0860, 707.7611
431.2790, 748.7501
432.4720, 660.8442
433.6650, 552.9283
434.8580, 508.0027
436.0500, 371.0669
437.2420, 342.1211
438.4340, 256.1632
439.6260, 171.1923
440.8180, 160.1982
442.0090, 152.1642
443.2010, 139.0754
444.3920, 127.1188
445.5830, 90.77863
446.7740, 115.5571
447.9640, 103.2768
449.1550, 129.9751
450.3450, 95.64441
451.5350, 102.3040
452.7250, 114.9537
453.9150, 83.59302
455.1050, 102.2203
456.2940, 132.8379
457.4830, 133.4490
458.6720, 118.0532
459.8610, 157.6506
461.0500, 146.2408
462.2390, 169.8243
463.4270, 153.4006
464.6150, 163.9698
465.8040, 176.5316
466.9910, 220.0863
468.1790, 228.6334
469.3670, 218.1731
470.5540, 237.7051
471.7410, 243.9712
472.9280, 235.7455
474.1150, 271.2537
475.3020, 284.7537
476.4890, 300.5437
477.6750, 285.7299
478.8610, 329.2064
480.0470, 325.6753
481.2330, 361.1365
482.4190, 372.5896
483.6040, 378.0352
484.7900, 371.4729
485.9750, 392.9026
487.1600, 400.3243
488.3450, 425.7383
489.5290, 405.1445
490.7140, 420.5426
491.8980, 458.9329
493.0820, 434.3151
494.2660, 442.6893
495.4500, 455.0557
496.6340, 460.4519
497.8170, 417.8481
499.0010, 450.8180
500.1840, 424.1960
501.3670, 476.9534
502.5500, 455.2197
503.7320, 447.7271
504.9150, 472.8752
506.0970, 476.3936
507.2790, 456.7935
508.4610, 468.5989
509.6430, 437.8888
510.8250, 464.0228
512.0060, 485.7888
513.1870, 435.0479
514.3680, 460.8005
515.5490, 496.1622
516.7300, 494.9380
517.9110, 514.5721
519.0910, 575.7402
520.2710, 566.2129
521.4510, 596.4155
522.6310, 654.1851
523.8110, 682.6852
524.9910, 694.1233
526.1700, 766.0037
527.3490, 793.4434
528.5280, 876.7405
529.7070, 1009.726
530.8860, 1083.805
532.0650, 1181.831
533.2430, 1338.673
534.4210, 1573.512
535.5990, 1770.385
536.7770, 1919.017
537.9550, 2141.613
539.1320, 2305.894
540.3100, 2690.185
541.4870, 2784.833
542.6640, 2879.988
543.8410, 2756.451
545.0170, 2517.487
546.1940, 2247.528
547.3700, 1786.139
548.5470, 1565.789
549.7230, 1221.181
550.8980, 1047.635
552.0740, 899.1334
553.2500, 770.4519
554.4250, 715.5247
555.6000, 709.0950
556.7750, 633.4299
557.9500, 661.9868
559.1250, 612.6421
560.2990, 574.2830
561.4730, 597.9099
562.6480, 577.5228
563.8220, 595.1208
564.9950, 608.7051
566.1690, 586.2747
567.3430, 583.8300
568.5160, 597.3708
569.6890, 615.8977
570.8620, 629.4102
572.0350, 600.9086
573.2070, 640.3928
574.3800, 656.8633
575.5520, 645.3198
576.7240, 674.7622
577.8960, 732.1909
579.0680, 746.6057
580.2400, 787.0071
581.4110, 839.3943
582.5830, 839.7684
583.7540, 841.1290
584.9250, 892.4764
586.0950, 887.8110
587.2660, 929.0474
588.4370, 933.0898
589.6070, 971.6204
590.7770, 925.9058
591.9470, 879.1135
593.1170, 840.9982
594.2860, 781.5878
595.4560, 754.7107
596.6250, 686.9006
597.7940, 623.1156
598.9630, 609.3191
600.1320, 685.5115
601.3000, 660.6921
602.4690, 694.8618
603.6370, 751.0201
604.8050, 752.1674
605.9730, 689.3032
607.1410, 706.4285
608.3090, 722.5425
609.4760, 703.6455
610.6430, 694.7379
611.8100, 646.7626
612.9770, 583.8904
614.1440, 531.9509
615.3110, 507.0009
616.4770, 462.0404
617.6430, 401.0695
618.8090, 348.0883
619.9750, 335.0968
621.1410, 282.0952
622.3070, 257.0835
623.4720, 234.7119
624.6370, 238.0304
625.8020, 200.9891
626.9670, 191.9381
628.1320, 195.8776
629.2970, 132.8075
630.4610, 148.7280
631.6250, 100.6392
632.7890, 84.54102
633.9530, 84.43359
635.1170, 105.3173
636.2810, 51.19177
637.4440, 47.05701
638.6070, 12.91296
639.7700, 42.75330
640.9330, 16.58447
642.0960, 4.402222
643.2590, 23.20142
644.4210, 4.989746
645.5830, 19.76062
646.7450, 0.4797360
647.9070, 9.260376
649.0690, 28.98621
650.2310, 1.703247
651.3920, 7.403198
652.5530, 24.08899
653.7140, 10.23352
654.8750, 36.57849
656.0360, 27.95935
657.1970, 42.37122
658.3570, 3.821045
659.5170, 41.28833
660.6770, 39.79248
661.8370, 34.33142
662.9970, 61.90186
664.1570, 48.51794
665.3160, 46.17126
666.4750, 47.85889
667.6340, 58.57861
668.7930, 77.33215
669.9520, 53.39844
671.1110, 56.91113
672.2690, 16.78638
673.4270, 28.63916
674.5850, 30.51050
675.7430, 6.392334
676.9010, 38.27271
678.0590, 38.17236
679.2160, 36.08130
680.3730, 43.04150
681.5300, 17.92725
682.6870, 31.86707
683.8440, 31.82251
685.0010, 17.79114
686.1570, 23.23511
687.3130, 53.74036
688.4690, 33.74524
689.6250, 10.23096
690.7810, 15.20679
691.9370, 38.18201
693.0920, 26.15784
694.2470, 12.13525
695.4020, 33.11230
696.5570, 49.09021
697.7120, 25.06787
698.8670, 40.04517
700.0210, 79.02222
701.1750, 79.99915
702.3290, 69.97644
703.4830, 123.9537
704.6370, 94.93164
705.7910, 115.9102
706.9440, 106.8894
708.0970, 185.8698
709.2510, 124.8511
710.4030, 181.8337
711.5560, 170.8180
712.7090, 188.8040
713.8610, 244.7915
715.0140, 261.7812
716.1660, 314.7729
717.3180, 344.3132
718.4690, 359.7638
719.6210, 388.7632
720.7730, 423.7651
721.9240, 406.7703
723.0750, 463.7786
724.2260, 497.7902
725.3770, 561.8053
726.5270, 622.8242
727.6780, 673.8472
728.8280, 731.8741
729.9780, 783.9053
731.1280, 895.9412
732.2780, 874.9813
733.4280, 995.0264
734.5770, 1029.076
735.7260, 1030.132
736.8760, 1169.192
738.0250, 1236.258
739.1730, 1269.329
740.3220, 1349.405
741.4700, 1594.487
742.6190, 1670.575
743.7670, 1814.669
744.9150, 2017.773
746.0630, 2181.885
747.2100, 2299.004
748.3580, 2516.130
749.5050, 2722.265
750.6520, 2804.405
751.7990, 2856.553
752.9460, 2849.708
754.0930, 2821.871
755.2390, 2828.041
756.3860, 2720.219
757.5320, 2547.405
758.6780, 2410.600
759.8240, 2175.803
760.9690, 2053.017
762.1150, 1780.241
763.2600, 1580.478
764.4060, 1467.726
765.5510, 1294.984
766.6950, 1233.250
767.8400, 1078.526
768.9850, 998.8113
770.1290, 932.1067
771.2730, 895.4115
772.4170, 935.7300
773.5610, 915.0591
774.7050, 866.3572
775.8480, 945.6538
776.9920, 924.3743
778.1350, 910.6844
779.2780, 975.6138
780.4210, 931.0425
781.5640, 971.2277
782.7060, 952.7703
783.8490, 956.9404
784.9910, 973.2274
786.1330, 904.1099
787.2750, 931.5145
788.4170, 951.0735
789.5580, 925.0056
790.7000, 971.4453
791.8410, 1078.404
792.9820, 1058.757
794.1230, 1099.698
795.2640, 1334.792
796.4040, 1353.359
797.5450, 1491.624
798.6850, 1611.042
799.8250, 1804.857
800.9650, 2009.995
802.1050, 2291.040
803.2450, 2519.290
804.3840, 2814.496
805.5230, 3278.090
806.6630, 3725.573
807.8020, 4396.628
808.9400, 5103.532
810.0790, 5979.021
811.2170, 7157.843
812.3560, 8610.610
813.4940, 10730.96
814.6320, 13159.37
815.7700, 16240.85
816.9070, 20013.54
818.0450, 24361.85
819.1820, 29243.81
820.3190, 34152.97
821.4560, 38682.21
822.5930, 41637.40
823.7300, 42124.56
824.8670, 40158.64
826.0030, 36077.05
827.1390, 31138.30
828.2750, 26094.57
829.4110, 21348.88
830.5470, 17496.19
831.6820, 14527.55
832.8180, 12495.93
833.9530, 10834.33
835.0880, 9552.766
836.2230, 8904.216
837.3580, 8152.693
838.4920, 7609.189
839.6270, 7195.710
840.7610, 7142.253
841.8950, 7172.818
843.0290, 7433.404
844.1630, 7727.012
845.2960, 8514.640
846.4300, 9341.290
847.5630, 10658.96
848.6960, 12281.65
849.8290, 13911.36
850.9620, 15863.10
852.0940, 17781.86
853.2270, 19512.64
854.3590, 20793.43
855.4910, 20957.25
856.6230, 20043.09
857.7550, 18492.96
858.8870, 16276.84
860.0180, 13695.75
861.1500, 11627.67
862.2810, 9840.620
863.4120, 8119.589
864.5430, 6925.582
865.6730, 5754.595
866.8040, 4852.631
867.9340, 4138.688
869.0640, 3577.766
870.1940, 3071.868
871.3240, 2633.989
872.4540, 2267.132
873.5830, 1972.297
874.7130, 1690.484
875.8420, 1574.692
876.9710, 1459.922
878.1000, 1365.176
879.2290, 1242.451
880.3570, 1218.447
881.4860, 1066.889
882.6140, 916.5815
883.7420, 892.0688
884.8700, 777.4841
885.9980, 679.8888
887.1250, 620.3146
888.2530, 538.7617
889.3800, 508.2445
890.5070, 428.7346
891.6340, 342.2458
892.7610, 343.7866
893.8880, 362.4478
895.0140, 275.0303
896.1400, 287.1172
897.2670, 208.9999
898.3930, 241.7450
899.5180, 252.6638
900.6440, 204.3469
901.7700, 253.0968
902.8950, 254.8198
904.0200, 264.6508
905.1450, 292.4192
906.2700, 289.2046
907.3950, 354.8022
908.5190, 449.6990
909.6440, 559.6064
910.7680, 685.4749
911.8920, 903.3638
913.0160, 1223.277
914.1400, 1459.337
915.2630, 1813.661
916.3870, 2209.643
917.5100, 2566.682
918.6330, 2677.710
919.7560, 2520.760
920.8790, 2189.233
922.0010, 1711.196
923.1240, 1309.315
924.2460, 930.6344
925.3680, 732.2288
926.4900, 542.1841
927.6120, 404.3020
928.7340, 298.0736
929.8550, 211.5986
930.9760, 297.4608
932.0980, 244.1632
933.2190, 275.6221
934.3390, 313.7761
935.4600, 290.6375
936.5810, 285.1016
937.7010, 327.5531
938.8210, 342.3386
939.9410, 403.4629
941.0610, 408.7444
942.1810, 463.8239
943.3010, 496.7632
944.4200, 601.1860
945.5390, 666.9668
946.6580, 824.8806
947.7770, 855.4126
948.8960, 1004.695
950.0150, 1120.538
951.1330, 1349.181
952.2510, 1493.077
953.3690, 1651.302
954.4870, 1881.914
955.6050, 2025.071
956.7230, 2369.375
957.8400, 2522.672
958.9580, 2746.368
960.0750, 2833.812
961.1920, 2916.580
962.3090, 2826.378
963.4250, 2755.870
964.5420, 2530.990
965.6580, 2338.875
966.7740, 2159.223
967.8900, 1899.386
969.0060, 1651.750
970.1220, 1412.934
971.2380, 1207.819
972.3530, 1067.028
973.4680, 878.9878
974.5830, 739.5206
975.6980, 599.7640
976.8130, 537.2101
977.9280, 421.4762
979.0420, 350.7534
980.1560, 281.0415
981.2710, 218.3407
982.3850, 220.6503
983.4980, 208.1851
984.6120, 162.6183
985.7260, 132.9591
986.8390, 115.3102
987.9520, 127.6711
989.0650, 68.08386
990.1780, 73.46436
991.2910, 79.85437
992.4030, 56.28833
993.5160, 36.69702
994.6280, 43.11487
995.7400, 21.54175
996.8520, 64.97742
997.9640, 58.42175
999.0750, 57.11841
1000.187, 11.57959
1001.298, 51.04919
1002.409, 41.52686
1003.520, 28.03833
1004.631, 45.53174
1005.741, 60.03271
1006.852, 54.54126
1007.962, 49.50208
1009.072, 49.39490
1010.182, 17.15796
1011.292, 25.23132
1012.402, 9.775024
1013.511, 30.65088
1014.621, 9.101196
1015.730, 19.04980
1016.839, 8.989868
1017.948, 2.428833
1019.056, 8.137451
1020.165, 15.70959
1021.273, 47.28699
1022.382, 0.1301270
1023.490, 23.45776
1024.598, 25.05066
1025.706, 0.6484380
1026.813, 6.650146
1027.921, 0.9554440
1029.028, 19.55994
1030.135, 12.36987
1031.242, 33.21570
1032.349, 11.61230
1033.456, 1.992188
1034.562, 2.399902
1035.668, 14.21082
1036.775, 4.175171
1037.881, 1.440918
1038.987, 36.05981
1040.092, 22.31812
1041.198, 2.701294
1042.303, 2.082886
1043.408, 37.53699
1044.514, 47.15942
1045.618, 14.78845
1046.723, 3.580444
1047.828, 46.94495
1048.932, 42.67664
1050.037, 0.2998050
1051.141, 20.92346
1052.245, 33.54919
1053.349, 7.823730
1054.452, 34.19958
1055.556, 19.40820
1056.659, 20.98315
1057.762, 6.385376
1058.865, 46.79187
1059.968, 14.22290
1061.071, 6.662842
1062.174, 36.10840
1063.276, 23.57410
1064.378, 2.053955
1065.480, 31.53906
1066.582, 8.042847
1067.684, 1.554565
1068.786, 44.07166
1069.887, 9.616943
1070.988, 14.17322
1072.090, 1.743164
1073.191, 20.31836
1074.291, 31.91125
1075.392, 28.52844
1076.493, 2.168823
1077.593, 39.81775
1078.693, 10.50342
1079.793, 1.180542
1080.893, 4.124756
1081.993, 20.42151
1083.092, 0.2850340
1084.192, 21.99963
1085.291, 10.28040
1086.390, 13.44666
1087.489, 21.19287
1088.588, 12.03687
1089.686, 5.738281
1090.785, 5.185425
1091.883, 22.33411
1092.981, 5.835815
1094.079, 5.993896
1095.177, 4.860474
1096.275, 33.26672
1097.373, 41.61145
1098.470, 0.5278320
1099.567, 32.53882
1100.664, 15.40051
1101.761, 39.63464
1102.858, 10.66357
1103.954, 36.68054
1105.051, 10.69104
1106.147, 22.41040
1107.243, 70.67627
1108.339, 27.65771
1109.435, 79.63037
1110.531, 58.59631
1111.626, 45.55542
1112.722, 61.50806
1113.817, 59.45361
1114.912, 30.39221
1116.007, 36.32129
1117.101, 75.24219
1118.196, 95.15564
1119.290, 55.06177
1120.385, 42.96057
1121.479, 89.85107
1122.573, 56.73438
1123.666, 45.61011
1124.760, 51.48303
1125.853, 55.34790
1126.947, 78.20544
1128.040, 122.0551
1129.133, 64.89673
1130.226, 37.73022
1131.318, 94.55310
1132.411, 74.36804
1133.503, 92.17517
1134.596, 52.97400
1135.688, 93.76416
1136.780, 103.5458
1137.871, 78.31873
1138.963, 102.0831
1140.054, 53.83887
1141.146, 91.58545
1142.237, 33.32324
1143.328, 107.0470
1144.419, 58.76221
1145.509, 81.76941
1146.600, 119.3439
1147.690, 82.67993
1148.780, 138.2341
1149.870, 70.87231
1150.960, 104.5337
1152.050, 124.1860
1153.139, 104.8354
1154.229, 98.46204
1155.318, 103.0931
1156.407, 123.7151
1157.496, 57.32080
1158.585, 108.8177
1159.674, 112.4054
1160.762, 108.5005
1161.850, 174.8115
1162.939, 122.2725
1164.027, 118.5710
1165.114, 134.1171
1166.202, 131.6079
1167.290, 123.1368
1168.377, 186.5693
1169.464, 115.0756
1170.551, 123.5760
1171.638, 168.2753
1172.725, 156.6868
1173.812, 130.0980
1174.898, 181.5602
1175.984, 116.0254
1177.071, 171.4681
1178.157, 137.7467
1179.242, 140.0994
1180.328, 134.5129
1181.414, 146.8806
1182.499, 136.4597
1183.584, 142.8727
1184.669, 151.7284
1185.754, 153.4977
1186.839, 164.8585
1187.924, 168.0430
1189.008, 162.9507
1190.092, 140.5333
1191.177, 105.9460
1192.260, 142.7719
1193.344, 162.9446
1194.428, 196.8679
1195.512, 117.7814
1196.595, 131.1741
1197.678, 116.8978
1198.761, 192.8663
1199.844, 144.1177
1200.927, 120.4072
1202.009, 134.3875
1203.092, 116.6995
1204.174, 167.2357
1205.256, 175.0059
1206.338, 159.9417
1207.420, 226.7437
1208.502, 148.8792
1209.583, 183.9357
1210.665, 169.4216
1211.746, 159.1030
1212.827, 165.4004
1213.908, 137.4158
1214.988, 168.5957
1216.069, 216.4131
1217.149, 201.9957
1218.230, 206.9114
1219.310, 213.4175
1220.390, 209.4069
1221.470, 227.1266
1222.549, 222.3376
1223.629, 233.7296
1224.708, 229.4565
1225.787, 221.7478
1226.866, 222.7911
1227.945, 194.1577
1229.024, 199.9880
1230.103, 217.0067
1231.181, 178.8314
1232.259, 197.8409
1233.337, 218.3419
1234.415, 207.3385
1235.493, 257.6576
1236.571, 201.3407
1237.648, 225.3184
1238.726, 192.0986
1239.803, 174.0636
1240.880, 213.0225
1241.957, 212.0378
1243.034, 229.9844
1244.110, 219.9332
1245.187, 257.6531
1246.263, 179.4788
1247.339, 220.4010
1248.415, 152.3171
1249.491, 207.2274
1250.566, 152.0897
1251.642, 183.0682
1252.717, 185.9609
1253.793, 209.0421
1254.868, 180.9231
1255.943, 143.9028
1257.017, 113.7723
1258.092, 120.0280
1259.166, 124.4940
1260.241, 130.1029
1261.315, 143.0228
1262.389, 121.9813
1263.462, 157.8171
1264.536, 79.62158
1265.610, 155.4464
1266.683, 163.2661
1267.756, 117.0803
1268.829, 150.8893
1269.902, 132.6454
1270.975, 148.4438
1272.048, 142.7010
1273.120, 170.4955
1274.192, 144.3209
1275.264, 153.1572
1276.336, 104.9781
1277.408, 124.7528
1278.480, 109.5237
1279.551, 103.2902
1280.623, 123.0519
1281.694, 121.2810
1282.765, 86.09680
1283.836, 138.8451
1284.907, 93.58875
1285.977, 182.6184
1287.048, 127.2870
1288.118, 138.0677
1289.188, 123.8679
1290.258, 88.59363
1291.328, 90.42859
1292.398, 125.1593
1293.467, 107.8877
1294.537, 105.6130
1295.606, 125.3351
1296.675, 50.05298
1297.744, 79.76782
1298.813, 96.47913
1299.882, 61.18665
1300.950, 70.89453
1302.018, 59.59924
1303.086, 43.30225
1304.155, 8.998657
1305.222, 63.68762
1306.290, 8.629883
1307.358, 13.95886
1308.425, 33.70813
1309.492, 54.37085
1310.559, 8.030151
1311.626, 24.68347
1312.693, 10.33228
1313.760, 42.97729
1314.826, 29.62781
1315.893, 27.27539
1316.959, 31.92566
1318.025, 24.48767
1319.091, 30.23242
1320.157, 19.89026
1321.222, 10.54724
1322.288, 5.546265
1323.353, 31.87610
1324.418, 3.540527
1325.483, 3.209473
1326.548, 7.878174
1327.612, 59.54565
1328.677, 35.22046
1329.741, 33.89697
1330.806, 6.426758
1331.870, 48.24731
1332.934, 37.92676
1333.997, 44.61499
1335.061, 1.689331
1336.124, 56.00623
1337.188, 19.71338
1338.251, 14.41821
1339.314, 33.12415
1340.377, 4.830811
1341.439, 7.465210
1342.502, 15.23767
1343.564, 36.93835
1344.627, 5.639160
1345.689, 83.34509
1346.751, 8.941284
1347.813, 49.76208
1348.874, 22.46899
1349.936, 67.17737
1350.997, 23.89490
1352.058, 40.61304
1353.119, 72.33301
1354.180, 39.05786
1355.241, 10.78125
1356.301, 26.51917
1357.362, 32.26135
1358.422, 73.00146
1359.482, 59.74963
1360.542, 0.4965820
1361.602, 53.23450
1362.662, 11.97058
1363.721, 41.70642
1364.781, 49.44177
1365.840, 45.17542
1366.899, 44.90784
1367.958, 52.63892
1369.017, 12.36853
1370.075, 42.09631
1371.134, 24.82288
1372.192, 56.54785
1373.250, 54.27258
1374.308, 72.99683
