##NAMES=Forsterite
##RRUFFID=R060539
##IDEAL CHEMISTRY=Mg_2_SiO_4_
##LOCALITY=Sri Lanka
##OWNER=RRUFF
##SOURCE=Gemological Institute of America
##DESCRIPTION=Brown cut gemstone
##STATUS=The identification of this mineral has been confirmed by X-ray diffraction and chemical analysis
##URL=rruff.info/R060539
##MEASURED CHEMISTRY=(Mg_1.67_Fe_0.33_)_Î£=2_Si_1.00_O_4_; trace amounts of Mn and Ca
##PIN_ID=L01564
##ORIENTATION=Laser parallel to -b* (0 -1 0). Fiducial mark perpendicular to laser is parallel to c [0 0 1]
138.5980, 0.0000000E+00
139.8290, 14.75073
141.0600, 26.86780
142.2910, 13.00500
143.5220, 42.18713
144.7530, 36.60522
145.9830, 60.57483
147.2130, 56.10278
148.4440, 70.91736
149.6730, 130.4382
150.9030, 118.0382
152.1330, 55.19666
153.3630, 84.91467
154.5920, 34.51733
155.8210, 53.07227
157.0500, 25.06934
158.2790, 43.72119
159.5080, 2.158325
160.7360, 63.85864
161.9650, 42.62805
163.1930, 50.45825
164.4210, 23.34119
165.6490, 33.26990
166.8770, 35.25317
168.1040, 26.31189
169.3320, 19.40063
170.5590, 31.53918
171.7860, 10.27026
173.0130, 13.02014
174.2400, 15.71704
175.4670, 11.62903
176.6930, 45.01001
177.9200, 45.41992
179.1460, 3.145752
180.3720, 40.31006
181.5980, 55.78333
182.8230, 45.27087
184.0490, 99.76965
185.2740, 66.27490
186.5000, 145.7844
187.7250, 173.2959
188.9500, 140.8077
190.1740, 215.3185
191.3990, 218.8273
192.6230, 259.3326
193.8480, 217.1031
195.0720, 283.7704
196.2960, 297.1160
197.5200, 309.6858
198.7430, 323.1981
199.9670, 410.7892
201.1900, 434.7029
202.4130, 533.6361
203.6360, 530.5042
204.8590, 601.5461
206.0820, 661.6750
207.3050, 755.7994
208.5270, 760.9014
209.7490, 834.9658
210.9710, 915.9886
212.1930, 936.9700
213.4150, 958.9314
214.6370, 989.8748
215.8580, 1014.799
217.0790, 944.7075
218.3010, 913.5997
219.5210, 847.4766
220.7420, 765.3535
221.9630, 725.2148
223.1830, 717.0532
224.4040, 631.8750
225.6240, 619.6818
226.8440, 499.4716
228.0640, 460.2439
229.2840, 449.9808
230.5030, 469.6781
231.7230, 392.3593
232.9420, 401.0198
234.1610, 326.6641
235.3800, 301.2921
236.5990, 271.9044
237.8170, 254.5012
239.0360, 186.0825
240.2540, 135.6490
241.4720, 131.2012
242.6900, 93.74097
243.9080, 87.27539
245.1250, 86.78040
246.3430, 70.27905
247.5600, 53.76318
248.7770, 23.23230
249.9940, 31.68665
251.2110, 50.12732
252.4280, 1.374023
253.6450, 34.23486
254.8610, 41.19666
256.0770, 65.36633
257.2930, 54.73169
258.5090, 96.18506
259.7250, 127.5541
260.9400, 88.03760
262.1560, 97.07947
263.3710, 38.36963
264.5860, 73.84875
265.8010, 41.98950
267.0160, 103.8485
268.2310, 81.95862
269.4450, 77.94019
270.6600, 113.8928
271.8740, 121.3815
273.0880, 93.15161
274.3020, 114.5916
275.5150, 183.1427
276.7290, 186.8922
277.9420, 171.0256
279.1550, 184.0013
280.3680, 193.3336
281.5810, 216.1512
282.7940, 253.8364
284.0070, 300.5134
285.2190, 353.9613
286.4310, 395.4347
287.6430, 549.9126
288.8550, 603.3845
290.0670, 732.8459
291.2790, 804.2906
292.4900, 881.7205
293.7020, 1011.160
294.9130, 1068.761
296.1240, 1181.114
297.3350, 1208.632
298.5450, 1206.062
299.7560, 1171.574
300.9660, 1122.889
302.1760, 966.3677
303.3860, 997.7014
304.5960, 864.2512
305.8060, 665.1339
307.0150, 669.4360
308.2250, 583.7821
309.4340, 568.1216
310.6430, 594.5356
311.8520, 519.8405
313.0610, 562.0371
314.2700, 543.3730
315.4780, 585.5103
316.6860, 603.8384
317.8940, 594.1914
319.1020, 625.3855
320.3100, 604.2751
321.5180, 583.5028
322.7250, 576.7192
323.9330, 545.8345
325.1400, 536.6921
326.3470, 581.7939
327.5540, 545.8889
328.7600, 554.9771
329.9670, 591.0581
331.1730, 555.1317
332.3800, 592.1982
333.5860, 573.2577
334.7920, 580.3096
335.9970, 595.3539
337.2030, 518.3907
338.4080, 459.4200
339.6140, 428.4406
340.8190, 408.5117
342.0240, 352.5122
343.2290, 331.5585
344.4330, 331.6736
345.6380, 249.7947
346.8420, 256.8196
348.0460, 235.7759
349.2500, 281.8682
350.4540, 203.8040
351.6580, 209.7288
352.8610, 184.7267
354.0650, 162.6293
355.2680, 172.5417
356.4710, 155.3616
357.6740, 136.2927
358.8760, 142.1521
360.0790, 124.0007
361.2810, 103.8386
362.4840, 110.6660
363.6860, 94.48254
364.8880, 101.2883
366.0900, 79.08325
367.2910, 93.86707
368.4930, 49.63989
369.6940, 53.40112
370.8950, 92.15063
372.0960, 8.889282
373.2970, 36.61475
374.4980, 14.32837
375.6980, 12.02930
376.8980, 28.71729
378.0990, 1.393799
379.2990, 1.942627
380.4980, 3.292969
381.6980, 12.73999
382.8980, 15.02747
384.0970, 9.416748
385.2960, 5.810181
386.4950, 9.791748
387.6940, 10.39124
388.8930, 11.29553
390.0920, 3.406738
391.2900, 5.197144
392.4880, 9.186768
393.6860, 15.66614
394.8840, 52.11145
396.0820, 5.492432
397.2800, 1.834351
398.4770, 44.62866
399.6750, 61.08655
400.8720, 4.474121
402.0690, 6.028320
403.2660, 12.43298
404.4620, 20.09668
405.6590, 20.39539
406.8550, 30.07812
408.0510, 66.44519
409.2480, 38.88586
410.4430, 33.23328
411.6390, 4.638306
412.8350, 72.02124
414.0300, 85.38647
415.2250, 54.71680
416.4200, 126.0321
417.6150, 57.33276
418.8100, 34.62073
420.0050, 65.89771
421.1990, 135.1616
422.3940, 88.43640
423.5880, 140.7064
424.7820, 149.9760
425.9750, 151.8795
427.1690, 169.6371
428.3630, 164.7697
429.5560, 168.0206
430.7490, 147.2590
431.9420, 133.4852
433.1350, 186.6986
434.3280, 122.8992
435.5200, 135.0872
436.7130, 113.2628
437.9050, 69.42554
439.0970, 148.5778
440.2890, 77.71729
441.4810, 95.84253
442.6720, 73.95422
443.8640, 2.051392
445.0550, 63.12659
446.2460, 85.18713
447.4370, 43.23389
448.6280, 123.2651
449.8180, 92.28516
451.0090, 81.29150
452.1990, 82.28381
453.3890, 62.26172
454.5790, 89.22510
455.7690, 114.1744
456.9590, 80.11047
458.1480, 149.0320
459.3380, 79.94055
460.5270, 149.8345
461.7160, 164.7188
462.9050, 153.5941
464.0940, 172.4611
465.2820, 100.3148
466.4700, 206.1544
467.6590, 134.9808
468.8470, 173.7952
470.0350, 127.5961
471.2220, 138.3833
472.4100, 155.1573
473.5970, 129.9178
474.7850, 143.6646
475.9720, 149.0129
477.1590, 165.1176
478.3460, 161.8235
479.5320, 137.5159
480.7190, 127.1946
481.9050, 137.8595
483.0910, 109.5107
484.2770, 131.1475
485.4630, 110.7705
486.6490, 92.37927
487.8340, 88.97302
489.0200, 109.5518
490.2050, 155.1160
491.3900, 88.66614
492.5750, 144.2013
493.7600, 155.7225
494.9440, 103.2299
496.1290, 159.7223
497.3130, 118.2009
498.4970, 153.6653
499.6810, 141.1157
500.8650, 125.5520
502.0480, 151.9745
503.2320, 172.3829
504.4150, 137.7761
505.5980, 170.1565
506.7810, 197.4802
507.9640, 204.8169
509.1460, 247.0455
510.3290, 220.3209
511.5110, 230.3960
512.6930, 209.4714
513.8750, 301.6940
515.0570, 270.3765
516.2390, 273.3186
517.4210, 339.0403
518.6020, 258.7170
519.7830, 342.6764
520.9640, 348.2991
522.1450, 435.6995
523.3260, 401.7358
524.5060, 363.2775
525.6870, 392.0913
526.8670, 428.5787
528.0470, 506.9719
529.2270, 531.7427
530.4070, 623.0840
531.5870, 664.3127
532.7660, 753.9675
533.9450, 836.2246
535.1240, 889.2697
536.3030, 910.8413
537.4820, 927.4539
538.6610, 948.3568
539.8390, 871.5818
541.0180, 849.1450
542.1960, 738.0643
543.3740, 649.8235
544.5520, 535.4509
545.7290, 463.8157
546.9070, 368.0852
548.0840, 332.0835
549.2620, 296.2163
550.4390, 217.9897
551.6160, 273.4777
552.7920, 220.4893
553.9690, 181.4084
555.1450, 242.1772
556.3220, 172.9229
557.4980, 183.7731
558.6740, 170.9635
559.8490, 173.4688
561.0250, 230.1772
562.2000, 215.7573
563.3760, 224.2971
564.5510, 198.9114
565.7260, 223.9885
566.9010, 211.8395
568.0750, 196.4297
569.2500, 239.8933
570.4240, 250.7124
571.5980, 253.2537
572.7720, 268.8164
573.9460, 230.3251
575.1200, 309.8175
576.2930, 237.2968
577.4670, 327.8007
578.6400, 332.2170
579.8130, 318.1685
580.9860, 327.5802
582.1590, 338.7974
583.3310, 345.0737
584.5040, 308.2417
585.6760, 326.5815
586.8480, 325.6713
588.0200, 322.8370
589.1920, 360.7798
590.3630, 331.0651
591.5350, 320.2120
592.7060, 334.2969
593.8770, 397.3700
595.0480, 369.3435
596.2190, 446.4141
597.3900, 456.5734
598.5600, 435.5745
599.7310, 534.7373
600.9010, 534.7067
602.0710, 504.8397
603.2410, 577.9578
604.4100, 510.0610
605.5800, 517.1497
606.7490, 534.1282
607.9190, 424.1875
609.0880, 463.2319
610.2570, 423.2621
611.4250, 459.2777
612.5940, 430.2791
613.7620, 398.2659
614.9310, 397.2385
616.0990, 408.1973
617.2670, 420.1418
618.4340, 421.0724
619.6020, 401.9890
620.7690, 484.8918
621.9370, 496.7809
623.1040, 535.6560
624.2710, 530.4587
625.4380, 487.3068
626.6040, 488.0879
627.7710, 378.7786
628.9370, 303.4418
630.1030, 290.1781
631.2690, 274.9600
632.4350, 230.5830
633.6010, 196.3390
634.7660, 218.0820
635.9320, 202.7284
637.0970, 212.4463
638.2620, 201.1306
639.4270, 232.8235
640.5920, 257.5042
641.7560, 256.1726
642.9210, 313.8289
644.0850, 290.4731
645.2490, 311.1057
646.4130, 344.7266
647.5770, 309.3362
648.7400, 336.9342
649.9040, 281.5214
651.0670, 249.0975
652.2300, 223.6638
653.3930, 198.2201
654.5560, 198.7659
655.7190, 154.3036
656.8810, 117.8322
658.0440, 133.3528
659.2060, 52.86548
660.3680, 40.36877
661.5300, 38.86401
662.6910, 6.352417
663.8530, 3.826538
665.0140, 16.28845
666.1750, 25.25586
667.3360, 20.82825
668.4970, 17.42664
669.6580, 27.05225
670.8190, 41.70959
671.9790, 41.40613
673.1390, 77.13904
674.2990, 70.92834
675.4590, 54.76721
676.6190, 70.64502
677.7790, 6.440063
678.9380, 18.48352
680.0970, 7.430176
681.2570, 46.38159
682.4160, 28.35327
683.5740, 5.647461
684.7330, 55.36145
685.8920, 3.407104
687.0500, 4.533203
688.2080, 1.528809
689.3660, 13.39648
690.5240, 23.68555
691.6820, 1.791382
692.8390, 54.90906
693.9960, 44.06433
695.1540, 9.746582
696.3110, 16.44910
697.4680, 18.66296
698.6240, 22.10315
699.7810, 3.135742
700.9370, 2.616333
702.0940, 75.63794
703.2500, 15.94031
704.4060, 38.25818
705.5610, 35.60364
706.7170, 23.02576
707.8720, 31.34937
709.0280, 4.746704
710.1830, 22.84814
711.3380, 5.439209
712.4920, 45.02625
713.6470, 30.60950
714.8020, 8.189453
715.9560, 0.7662350
717.1100, 39.33887
718.2640, 19.09143
719.4180, 37.46826
720.5720, 90.02527
721.7250, 36.58081
722.8780, 26.13452
724.0320, 74.68689
725.1850, 38.24219
726.3380, 96.79651
727.4900, 76.34998
728.6430, 80.90356
729.7950, 71.45581
730.9470, 85.49158
732.1000, 112.5588
733.2510, 123.1101
734.4030, 132.0686
735.5550, 138.5143
736.7060, 139.7646
737.8570, 135.3168
739.0090, 133.8689
740.1600, 126.0424
741.3100, 138.3958
742.4610, 124.5406
743.6110, 133.4602
744.7620, 146.6583
745.9120, 147.2189
747.0620, 150.7805
748.2120, 163.3433
749.3610, 171.9075
750.5110, 183.4733
751.6600, 127.0408
752.8090, 183.6100
753.9580, 149.1812
755.1070, 161.7544
756.2560, 218.3301
757.4050, 181.9081
758.5530, 204.4886
759.7010, 243.0721
760.8490, 281.6583
761.9970, 254.2477
763.1450, 268.8403
764.2920, 298.4364
765.4400, 267.0361
766.5870, 338.6400
767.7340, 309.2485
768.8810, 379.8621
770.0280, 345.4799
771.1740, 371.1025
772.3210, 374.7292
773.4670, 381.3647
774.6130, 417.0059
775.7590, 325.6584
776.9050, 413.3164
778.0510, 404.9822
779.1960, 454.6536
780.3420, 482.3459
781.4870, 467.0496
782.6320, 504.7676
783.7770, 593.4917
784.9210, 572.2258
786.0660, 605.9663
787.2100, 618.7170
788.3540, 729.4917
789.4980, 700.2878
790.6420, 796.1086
791.7860, 830.9392
792.9300, 780.7915
794.0730, 908.6602
795.2160, 914.5486
796.3590, 984.4539
797.5020, 1019.252
798.6450, 1069.019
799.7880, 1211.810
800.9300, 1315.874
802.0720, 1388.841
803.2150, 1584.394
804.3560, 1721.618
805.4980, 1958.163
806.6400, 2240.957
807.7810, 2620.185
808.9230, 3096.530
810.0640, 3556.932
811.2050, 4392.130
812.3460, 5098.759
813.4860, 6153.444
814.6270, 7442.179
815.7670, 8833.764
816.9070, 10369.86
818.0470, 11789.70
819.1870, 12880.14
820.3270, 13735.76
821.4670, 14155.53
822.6060, 13810.55
823.7450, 12951.88
824.8840, 12069.74
826.0230, 10983.29
827.1620, 10083.41
828.3010, 9250.662
829.4390, 8675.343
830.5770, 8269.738
831.7150, 8057.875
832.8530, 7907.085
833.9910, 8140.061
835.1290, 8507.960
836.2660, 8894.295
837.4030, 9607.285
838.5410, 10543.59
839.6780, 11600.14
840.8140, 13198.51
841.9510, 15177.52
843.0870, 17319.77
844.2240, 20209.27
845.3600, 23415.90
846.4960, 26623.18
847.6320, 30698.74
848.7680, 34433.27
849.9030, 37587.86
851.0380, 40188.47
852.1740, 41742.09
853.3090, 41876.69
854.4440, 40239.35
855.5780, 37666.29
856.7130, 34457.98
857.8470, 30331.69
858.9820, 26370.42
860.1160, 22645.16
861.2500, 19224.92
862.3830, 16248.70
863.5170, 13928.50
864.6500, 11723.31
865.7840, 10148.14
866.9170, 8643.985
868.0500, 7445.849
869.1830, 6579.732
870.3150, 5806.633
871.4480, 5174.551
872.5800, 4683.487
873.7120, 4410.439
874.8440, 4079.420
875.9760, 3807.010
877.1080, 3539.142
878.2390, 3367.177
879.3710, 3225.217
880.5020, 3020.275
881.6330, 2795.362
882.7640, 2648.465
883.8940, 2390.586
885.0250, 2151.725
886.1550, 1977.881
887.2850, 1795.055
888.4160, 1630.247
889.5450, 1472.457
890.6750, 1366.426
891.8050, 1288.929
892.9340, 1205.191
894.0630, 1207.472
895.1930, 1174.770
896.3220, 1036.086
897.4500, 1094.420
898.5790, 1075.771
899.7070, 961.1411
900.8360, 996.5283
901.9640, 930.9336
903.0920, 967.3569
904.2200, 854.9429
905.3470, 912.4014
906.4750, 859.8782
907.6020, 896.3723
908.7290, 962.6523
909.8560, 932.2417
910.9830, 907.2070
912.1100, 915.7725
913.2360, 944.9153
914.3630, 1003.516
915.4890, 1012.687
916.6150, 995.4858
917.7410, 929.0305
918.8670, 991.7004
919.9920, 998.2695
921.1180, 980.9736
922.2430, 1025.425
923.3680, 951.1729
924.4930, 1053.251
925.6180, 1130.143
926.7420, 1139.445
927.8670, 1120.576
928.9910, 1242.565
930.1150, 1273.119
931.2390, 1376.067
932.3630, 1466.694
933.4860, 1478.005
934.6100, 1614.804
935.7330, 1729.100
936.8560, 1860.725
937.9790, 2016.633
939.1020, 2171.997
940.2250, 2289.772
941.3470, 2498.590
942.4700, 2686.195
943.5920, 2926.614
944.7140, 3161.738
945.8360, 3431.895
946.9570, 3761.091
948.0790, 4108.325
949.2000, 4279.591
950.3220, 4675.895
951.4430, 4848.214
952.5640, 5064.557
953.6840, 5327.919
954.8050, 5222.312
955.9250, 5331.729
957.0460, 5165.163
958.1660, 4912.627
959.2860, 4802.109
960.4050, 4587.606
961.5250, 4317.122
962.6440, 3980.649
963.7640, 3555.200
964.8830, 3319.766
966.0020, 2886.747
967.1210, 2577.376
968.2390, 2347.158
969.3580, 2053.408
970.4760, 1801.089
971.5940, 1552.305
972.7120, 1330.776
973.8300, 1153.040
974.9480, 964.5059
976.0650, 854.2756
977.1830, 767.0684
978.3000, 658.7776
979.4170, 612.7080
980.5340, 500.5754
981.6500, 441.8181
982.7670, 416.2087
983.8830, 337.0884
985.0000, 352.7861
986.1160, 275.6868
987.2320, 328.5986
988.3470, 260.5205
989.4630, 193.4526
990.5780, 189.3992
991.6940, 141.3555
992.8090, 152.3218
993.9240, 210.2976
995.0380, 113.2832
996.1530, 203.2781
997.2680, 179.2825
998.3820, 204.2959
999.4960, 299.3186
1000.610, 309.3506
1001.724, 329.3914
1002.837, 239.1140
1003.951, 147.1724
1005.064, 114.2390
1006.177, 85.31445
1007.291, 34.39844
1008.403, 1.490234
1009.516, 29.41016
1010.629, 3.309326
1011.741, 0.7985840
1012.853, 41.91357
1013.965, 23.03662
1015.077, 69.45630
1016.189, 66.18701
1017.300, 79.73901
1018.412, 71.89355
1019.523, 83.05273
1020.634, 90.21875
1021.745, 88.39160
1022.856, 89.60718
1023.966, 99.75757
1025.077, 70.95020
1026.187, 49.14917
1027.297, 16.35449
1028.407, 91.56592
1029.517, 47.78296
1030.627, 51.00659
1031.736, 32.23560
1032.845, 36.47314
1033.955, 49.71338
1035.064, 65.95923
1036.172, 7.210449
1037.281, 5.533691
1038.390, 30.72583
1039.498, 6.989990
1040.606, 53.25903
1041.714, 19.46729
1042.822, 1.136230
1043.930, 30.86255
1045.037, 38.40186
1046.145, 13.32959
1047.252, 17.93701
1048.359, 65.79248
1049.466, 23.54956
1050.573, 36.31396
1051.679, 25.90747
1052.786, 16.86328
1053.892, 4.356201
1054.998, 13.01025
1056.104, 69.51440
1057.210, 57.32910
1058.315, 70.17017
1059.421, 7.044678
1060.526, 55.92261
1061.631, 35.64868
1062.736, 44.57056
1063.841, 33.51416
1064.946, 61.28223
1066.050, 38.27393
1067.154, 77.69287
1068.258, 0.7451170
1069.362, 40.80005
1070.466, 27.87695
1071.570, 2.9785000E-02
1072.674, 23.10303
1073.777, 4.785645
1074.880, 1.420410
1075.983, 48.30322
1077.086, 51.18701
1078.189, 43.41406
1079.291, 109.2996
1080.394, 128.1851
1081.496, 70.07080
1082.598, 145.9568
1083.700, 134.8425
1084.802, 166.7280
1085.903, 111.6135
1087.005, 81.49829
1088.106, 72.38257
1089.207, 61.26587
1090.308, 35.14868
1091.409, 27.03052
1092.509, 49.91138
1093.610, 77.79102
1094.710, 27.66919
1095.810, 43.40405
1096.910, 27.42188
1098.010, 9.296875
1099.110, 48.57446
1100.209, 18.44141
1101.309, 10.69531
1102.408, 33.15112
1103.507, 9.004639
1104.606, 0.1765140
1105.704, 82.63916
1106.803, 77.45264
1107.901, 119.2634
1108.999, 79.07178
1110.097, 84.87695
1111.195, 71.67944
1112.293, 29.47900
1113.391, 15.27490
1114.488, 12.19165
1115.585, 42.84375
1116.682, 6.620850
1117.779, 85.38672
1118.876, 66.14941
1119.973, 77.90869
1121.069, 56.66431
1122.165, 41.41675
1123.261, 73.16553
1124.357, 91.91064
1125.453, 66.96436
1126.549, 52.39014
1127.644, 46.12451
1128.739, 44.85498
1129.835, 82.58154
1130.930, 65.30396
1132.024, 86.02295
1133.119, 89.73779
1134.214, 13.44873
1135.308, 64.14917
1136.402, 41.84546
1137.496, 90.53735
1138.590, 71.22559
1139.684, 111.9092
1140.777, 121.5796
1141.871, 90.57471
1142.964, 70.19873
1144.057, 45.85425
1145.150, 60.51733
1146.243, 13.82397
1147.335, 53.81006
1148.428, 73.43994
1149.520, 43.06494
1150.612, 116.6855
1151.704, 77.30127
1152.796, 112.9124
1153.887, 81.51904
1154.979, 51.12109
1156.070, 95.71851
1157.161, 79.31104
1158.252, 63.89893
1159.343, 48.48193
1160.433, 92.06055
1161.524, 118.6343
1162.614, 146.2031
1163.704, 45.76685
1164.794, 125.3259
1165.884, 119.8799
1166.974, 59.42896
1168.063, 95.97705
1169.153, 171.3748
1170.242, 87.91284
1171.331, 85.44604
1172.420, 165.9739
1173.508, 39.72852
1174.597, 106.1870
1175.685, 67.28198
1176.774, 93.78906
1177.862, 83.73169
1178.950, 55.22876
1180.037, 61.16895
1181.125, 55.49292
1182.212, 64.08374
1183.300, 38.56250
1184.387, 57.15430
1185.474, 17.62378
1186.560, 21.35596
1187.647, 42.80322
1188.733, 44.93262
1189.820, 90.26001
1190.906, 58.18970
1191.992, 13.30322
1193.078, 23.56982
1194.163, 37.28369
1195.249, 7.615479
1196.334, 45.27954
1197.419, 20.72729
1198.504, 20.78394
1199.589, 36.81104
1200.674, 35.52563
1201.758, 64.97339
1202.843, 32.01807
1203.927, 18.59277
1205.011, 12.25293
1206.095, 7.686523
1207.179, 37.04590
1208.262, 5.596680
1209.345, 4.755371
1210.429, 40.10547
1211.512, 95.45361
1212.595, 46.80029
1213.677, 42.14478
1214.760, 58.48755
1215.842, 81.82861
1216.925, 75.16797
1218.007, 47.50562
1219.089, 77.84131
1220.171, 16.17529
1221.252, 36.50757
1222.334, 25.83862
1223.415, 58.16748
1224.496, 69.49487
1225.577, 78.82080
1226.658, 49.14502
1227.738, 18.67114
1228.819, 25.39307
1229.899, 72.91382
1230.979, 111.0798
1232.060, 81.79419
1233.139, 83.09692
1234.219, 28.87573
1235.299, 39.15454
1236.378, 131.4541
1237.457, 90.75269
1238.536, 93.05029
1239.615, 60.34692
1240.694, 81.64551
1241.772, 84.94360
1242.851, 24.21899
1243.929, 66.13086
1245.007, 139.9050
1246.085, 109.2014
1247.163, 91.69092
1248.240, 85.98657
1249.318, 59.28638
1250.395, 117.5930
1251.472, 62.89941
1252.549, 124.2095
1253.626, 85.51978
1254.703, 100.8333
1255.779, 104.1462
1256.855, 99.45923
1257.931, 109.7722
1259.007, 165.0847
1260.083, 57.39722
1261.159, 109.7095
1262.234, 161.0220
1263.310, 77.33496
1264.385, 154.9749
1265.460, 156.2883
1266.535, 162.6016
1267.610, 192.9153
1268.684, 227.2290
1269.758, 244.5435
1270.833, 210.8579
1271.907, 218.3647
1272.981, 182.6846
1274.054, 249.0046
1275.128, 182.3254
1276.201, 125.3577
1277.275, 215.6797
1278.348, 195.0027
1279.421, 126.3242
1280.493, 136.6484
1281.566, 109.9739
1282.638, 134.3000
1283.711, 97.62720
1284.783, 145.9551
1285.855, 141.2834
1286.927, 91.61255
1287.998, 116.9453
1289.070, 99.27612
1290.141, 103.6082
1291.212, 112.9409
1292.283, 114.9807
1293.354, 135.6294
1294.425, 135.9651
1295.495, 156.3020
1296.566, 166.4785
1297.636, 242.8191
1298.706, 153.1597
1299.776, 209.5010
1300.845, 144.8440
1301.915, 144.1882
1302.984, 186.4773
1304.054, 227.8281
1305.123, 153.1870
1306.191, 175.5474
1307.260, 201.9121
1308.329, 258.2778
1309.397, 285.6609
1310.465, 272.0525
1311.534, 234.4541
1312.602, 269.8535
1313.669, 256.2639
1314.737, 324.2646
