##NAMES=Forsterite
##RRUFFID=R040018
##IDEAL CHEMISTRY=Mg_2_SiO_4_
##LOCALITY=Trudy's mine, San Carlos, Gila County, Arizona, USA
##OWNER=RRUFF
##SOURCE=Bob Downs
##DESCRIPTION=Green fragments from xenoliths in a basalt flow
##STATUS=The identification of this mineral has been confirmed by X-ray diffraction and chemical analysis
##URL=rruff.info/R040018
##MEASURED CHEMISTRY=(Mg_1.81_Fe_0.18_Ni_0.01_)_Î£=2_Si_1.00_O_4_; trace amounts of Mn and Ca
##PIN_ID=M00006
##ORIENTATION=Laser parallel to c* (0 0 1). Fiducial mark perpendicular to laser is parallel to a [1 0 0]
119.119, 0.000
120.508, 92.906
121.897, 60.316
123.286, 30.171
124.675, 81.015
126.063, 25.632
127.452, 78.739
128.840, 127.519
130.228, 51.423
131.615, 149.054
133.003, 210.112
134.390, 185.372
135.777, 220.658
137.164, 185.844
138.550, 214.824
139.937, 219.499
141.323, 187.787
142.709, 224.618
144.094, 178.933
145.480, 327.680
146.865, 156.817
148.250, 291.306
149.635, 189.121
151.019, 219.242
152.403, 319.663
153.788, 172.411
155.171, 204.450
156.555, 169.708
157.939, 208.167
159.322, 185.819
160.705, 148.646
162.088, 195.623
163.470, 169.738
164.853, 162.413
166.235, 121.357
167.617, 141.846
168.998, 138.442
170.380, 141.138
171.761, 138.996
173.142, 129.444
174.523, 134.786
175.904, 118.849
177.284, 139.994
178.664, 161.231
180.044, 170.568
181.424, 172.087
182.803, 105.743
184.183, 93.547
185.562, 129.574
186.940, 94.495
188.319, 126.944
189.698, 29.875
191.076, 1.903
192.454, 26.985
193.831, 14.083
195.209, 36.197
196.586, 38.248
197.963, 55.465
199.340, 54.255
200.717, 31.406
202.093, 51.565
203.470, 12.736
204.846, 46.919
206.221, 41.400
207.597, 22.462
208.972, 47.770
210.347, 34.206
211.722, 23.534
213.097, 79.963
214.472, 122.391
215.846, 175.817
217.220, 202.697
218.594, 231.677
219.967, 240.133
221.341, 273.609
222.714, 269.106
224.087, 325.642
225.460, 396.225
226.832, 341.862
228.204, 404.576
229.577, 378.305
230.948, 285.054
232.320, 234.828
233.692, 228.606
235.063, 172.383
236.434, 170.797
237.805, 215.032
239.175, 171.010
240.545, 215.803
241.916, 239.260
243.286, 219.006
244.655, 152.098
246.025, 189.633
247.394, 137.450
248.763, 79.963
250.132, 92.311
251.501, 7.094
252.869, 114.499
254.237, 7.341
255.605, 66.921
256.973, 52.501
258.340, 52.102
259.708, 24.671
261.075, 29.110
262.442, 102.927
263.808, 74.517
265.175, 128.022
266.541, 34.525
267.907, 131.022
269.273, 95.512
270.639, 26.992
272.004, 59.461
273.369, 100.921
274.734, 116.374
276.099, 88.819
277.463, 21.745
278.828, 23.682
280.192, 30.101
281.556, 123.507
282.919, 23.036
284.283, 160.129
285.646, 60.464
287.009, 82.777
288.372, 95.473
289.734, 22.057
291.097, 180.738
292.459, 113.730
293.821, 249.691
295.183, 259.228
296.544, 437.219
297.905, 673.667
299.266, 850.760
300.627, 1024.419
301.988, 1242.808
303.348, 1389.131
304.709, 1377.008
306.069, 1213.275
307.428, 1059.677
308.788, 854.001
310.147, 741.339
311.507, 654.696
312.865, 573.154
314.224, 608.630
315.583, 523.255
316.941, 588.877
318.299, 625.016
319.657, 673.904
321.015, 638.592
322.372, 575.934
323.729, 637.172
325.086, 607.640
326.443, 824.372
327.800, 634.196
329.156, 754.676
330.512, 616.917
331.868, 510.647
333.224, 571.132
334.579, 450.448
335.935, 416.252
337.290, 509.036
338.645, 298.723
339.999, 507.806
341.354, 281.879
342.708, 327.681
344.062, 257.436
345.416, 163.989
346.769, 221.564
348.123, 101.462
349.476, 188.910
350.829, 45.832
352.182, 171.477
353.534, 136.017
354.887, 91.791
356.239, 150.285
357.591, 36.854
358.942, 84.713
360.294, 115.140
361.645, 54.480
362.996, 12.969
364.347, 21.316
365.698, 2.938
367.048, 42.838
368.398, 45.225
369.748, 52.626
371.098, 77.962
372.448, 100.420
373.797, 18.196
375.146, 12.789
376.495, 8.581
377.844, 25.039
379.192, 47.324
380.540, 39.713
381.889, 110.089
383.236, 25.461
384.584, 66.830
385.932, 41.187
387.279, 1.534
388.626, 96.866
389.973, 38.188
391.319, 104.519
392.666, 139.859
394.012, 35.210
395.358, 119.547
396.704, 87.940
398.049, 72.315
399.394, 34.677
400.740, 16.817
402.084, 73.519
403.429, 36.162
404.774, 196.127
406.118, 42.395
407.462, 118.663
408.806, 74.891
410.150, 91.113
411.493, 157.322
412.836, 143.506
414.179, 239.626
415.522, 285.785
416.865, 431.927
418.207, 448.053
419.549, 373.106
420.891, 369.199
422.233, 345.275
423.575, 411.324
424.916, 447.345
426.257, 603.346
427.598, 669.332
428.939, 825.301
430.279, 1111.252
431.619, 1007.188
432.959, 873.104
434.299, 889.005
435.639, 594.887
436.978, 440.752
438.318, 306.601
439.657, 312.117
440.996, 177.930
442.334, 73.724
443.673, 129.499
445.011, 5.257
446.349, 9.009
447.687, 106.692
449.024, 7.619
450.361, 118.036
451.699, 66.326
453.036, 69.246
454.372, 14.801
455.709, 30.328
457.045, 145.834
458.381, 38.679
459.717, 166.753
461.053, 7.833
462.388, 2.460
463.724, 102.874
465.059, 8.188
466.394, 143.470
467.728, 108.729
469.063, 133.971
470.397, 179.190
471.731, 162.041
473.065, 99.570
474.398, 174.729
475.732, 89.865
477.065, 94.979
478.398, 40.071
479.731, 17.774
481.063, 90.165
482.396, 35.169
483.728, 40.146
485.060, 165.092
486.391, 90.017
487.723, 45.082
489.054, 159.750
490.385, 14.560
491.716, 10.669
493.047, 214.052
494.377, 51.250
495.708, 83.374
497.038, 27.974
498.368, 112.539
499.697, 57.078
501.027, 1.589
502.356, 86.053
503.685, 30.552
505.014, 144.955
506.342, 139.546
507.671, 73.901
508.999, 168.340
510.327, 26.894
511.655, 117.349
512.982, 142.002
514.310, 86.613
515.637, 151.186
516.964, 75.725
518.291, 128.314
519.617, 165.045
520.944, 229.483
522.270, 151.138
523.596, 105.077
524.921, 328.390
526.247, 96.973
527.572, 262.510
528.897, 252.309
530.222, 240.755
531.547, 330.250
532.871, 256.623
534.196, 192.616
535.520, 386.233
536.844, 395.440
538.167, 627.779
539.491, 529.978
540.814, 803.645
542.137, 789.399
543.460, 1044.445
544.783, 948.438
546.105, 692.610
547.427, 836.156
548.749, 599.918
550.071, 438.965
551.393, 477.938
552.714, 286.840
554.035, 460.312
555.356, 213.859
556.677, 313.229
557.998, 396.827
559.318, 212.832
560.638, 376.656
561.958, 319.874
563.278, 303.537
564.597, 256.696
565.917, 270.016
567.236, 337.056
568.555, 323.358
569.874, 407.730
571.192, 480.742
572.511, 405.013
573.829, 667.965
575.147, 580.888
576.464, 603.781
577.782, 846.646
579.099, 719.484
580.416, 902.294
581.733, 785.074
583.050, 897.825
584.366, 830.547
585.683, 783.239
586.999, 865.901
588.315, 778.535
589.630, 801.140
590.946, 853.716
592.261, 856.262
593.576, 1028.779
594.891, 951.268
596.206, 1113.727
597.520, 1136.158
598.834, 1428.561
600.148, 1730.935
601.462, 1713.146
602.776, 2035.462
604.089, 2196.400
605.402, 2476.396
606.715, 2578.604
608.028, 2318.564
609.341, 2460.738
610.653, 2056.896
611.965, 1838.807
613.277, 1599.799
614.589, 1376.048
615.901, 1259.114
617.212, 1070.899
618.523, 1052.881
619.834, 1002.312
621.145, 912.025
622.456, 913.812
623.766, 894.049
625.076, 1005.898
626.386, 927.612
627.696, 999.400
629.006, 1071.169
630.315, 772.914
631.624, 834.464
632.933, 616.156
634.242, 537.603
635.551, 609.040
636.859, 459.945
638.167, 430.084
639.475, 471.410
640.783, 392.063
642.090, 572.800
643.398, 424.290
644.705, 525.494
646.012, 501.586
647.318, 553.003
648.625, 682.634
649.931, 450.754
651.237, 632.099
652.543, 557.588
653.849, 518.568
655.155, 508.545
656.460, 389.594
657.765, 410.222
659.070, 348.834
660.375, 169.694
661.679, 469.577
662.984, 130.631
664.288, 201.637
665.592, 152.293
666.895, 73.368
668.199, 229.939
669.502, 70.748
670.805, 71.635
672.108, 72.254
673.411, 73.124
674.713, 153.595
676.016, 5.669
677.318, 75.167
678.620, 76.019
679.921, 123.232
681.223, 107.181
682.524, 42.100
683.825, 8.174
685.126, 61.202
686.427, 40.647
687.727, 119.849
689.028, 9.655
690.328, 19.202
691.628, 41.203
692.927, 58.384
694.227, 151.981
695.526, 107.664
696.825, 152.600
698.124, 7.153
699.423, 3.058
700.721, 43.237
702.020, 23.397
703.318, 83.535
704.616, 73.657
705.913, 66.239
707.211, 66.200
708.508, 66.214
709.805, 103.711
711.102, 83.619
712.399, 236.562
713.695, 53.179
714.992, 27.099
716.288, 17.564
717.584, 172.093
718.879, 38.264
720.175, 121.347
721.470, 49.055
722.765, 40.496
724.060, 39.970
725.355, 10.478
726.649, 248.989
727.944, 11.558
729.238, 187.870
730.532, 287.288
731.825, 106.694
733.119, 276.089
734.412, 135.474
735.705, 114.847
736.998, 364.209
738.291, 143.561
739.584, 162.902
740.876, 112.233
742.168, 111.554
743.460, 270.866
744.752, 130.168
746.043, 219.461
747.334, 108.745
748.626, 228.021
749.916, 287.288
751.207, 196.546
752.498, 295.796
753.788, 235.038
755.078, 244.272
756.368, 253.498
757.658, 182.719
758.947, 281.936
760.237, 161.152
761.526, 310.372
762.815, 329.586
764.104, 168.804
765.392, 438.017
766.680, 207.248
767.969, 376.475
769.257, 495.701
770.544, 374.924
771.832, 464.144
773.119, 533.376
774.406, 362.603
775.693, 451.838
776.980, 341.078
778.267, 670.313
779.553, 429.554
780.839, 518.790
782.125, 528.023
783.411, 467.253
784.697, 596.480
785.982, 545.704
787.267, 664.926
788.552, 754.145
789.837, 653.361
791.122, 942.578
792.406, 841.795
793.690, 721.017
794.974, 910.237
796.258, 1009.468
797.542, 1188.700
798.825, 1269.562
800.108, 1227.162
801.391, 1416.417
802.674, 1565.702
803.957, 1624.995
805.239, 1904.303
806.522, 2193.611
807.804, 2372.943
809.085, 2692.277
810.367, 3171.618
811.649, 3810.961
812.930, 4400.309
814.211, 5209.666
815.492, 6408.969
816.772, 8138.337
818.053, 10597.496
819.333, 13016.869
820.613, 17096.135
821.893, 21095.051
823.173, 25104.451
824.452, 26813.416
825.732, 25632.400
827.011, 23101.404
828.290, 19850.420
829.568, 15979.801
830.847, 13486.597
832.125, 10975.669
833.403, 9444.778
834.681, 8514.333
835.959, 7463.594
837.236, 7128.322
838.514, 6566.221
839.791, 6299.867
841.068, 6134.848
842.345, 5884.255
843.621, 6091.324
844.898, 6102.148
846.174, 6571.298
847.450, 7739.426
848.726, 8369.100
850.001, 10250.334
851.277, 12200.081
852.552, 14967.723
853.827, 17656.055
855.102, 19705.420
856.376, 21564.586
857.651, 21254.154
858.925, 19743.693
860.199, 17717.936
861.473, 14654.992
862.746, 12709.342
864.020, 11079.080
865.293, 9058.750
866.566, 8062.594
867.839, 6662.188
869.112, 5639.301
870.384, 4887.074
871.656, 3886.998
872.928, 3483.600
874.200, 2743.588
875.472, 2709.680
876.744, 2349.418
878.015, 1936.227
879.286, 2074.951
880.557, 1505.020
881.828, 1463.814
883.098, 1503.912
884.369, 1364.205
885.639, 1204.330
886.909, 1154.488
888.178, 944.662
889.448, 994.848
890.717, 895.051
891.987, 865.268
893.256, 775.500
894.524, 485.746
895.793, 896.010
897.061, 546.289
898.330, 636.580
899.598, 766.891
900.865, 547.219
902.133, 657.559
903.401, 597.914
904.668, 498.301
905.935, 578.703
907.202, 359.123
908.468, 559.559
909.735, 480.010
911.001, 351.391
912.267, 821.877
913.533, 352.379
914.799, 662.895
916.064, 493.426
917.330, 434.006
918.595, 594.572
919.860, 325.156
921.124, 625.756
922.389, 396.369
923.653, 297.002
924.918, 367.648
926.182, 238.311
927.445, 358.992
928.709, 609.689
929.972, 230.400
931.236, 501.131
932.499, 371.875
933.761, 462.637
935.024, 413.416
936.286, 364.209
937.549, 485.021
938.811, 495.848
940.073, 316.691
941.334, 637.553
942.596, 268.430
943.857, 539.324
945.118, 730.234
946.379, 541.162
947.640, 863.422
948.900, 904.381
950.161, 905.357
951.421, 1206.352
952.681, 1167.361
953.940, 1595.727
955.200, 1816.770
956.459, 1987.826
957.719, 2448.900
958.978, 2559.992
960.236, 3051.141
961.495, 3212.262
962.753, 2983.402
964.012, 3434.672
965.270, 2985.840
966.527, 3037.025
967.785, 3028.225
969.043, 2219.441
970.300, 2310.736
971.557, 1802.004
972.814, 1563.268
974.071, 1364.551
975.327, 1095.848
976.583, 1047.162
977.840, 848.492
979.095, 599.842
980.351, 635.480
981.607, 446.861
982.862, 338.268
984.117, 476.141
985.372, 257.582
986.627, 419.078
987.882, 250.877
989.136, 172.424
990.390, 411.783
991.644, 53.391
992.898, 225.035
994.152, 299.189
995.405, 139.115
996.659, 269.779
997.912, 128.521
999.165, 233.178
1000.417, 458.158
1001.670, 529.920
1002.922, 971.695
1004.174, 873.490
1005.426, 725.307
1006.678, 607.340
1007.930, 189.186
1009.181, 331.041
1010.432, 73.275
1011.683, 94.822
1012.934, 127.092
1014.185, 109.508
1015.435, 191.471
1016.685, 186.000
1017.935, 48.055
1019.185, 450.119
1020.435, 182.266
1021.684, 324.375
1022.934, 436.494
1024.183, 467.564
1025.432, 539.719
1026.680, 325.006
1027.929, 247.248
1029.177, 319.463
1030.425, 182.033
1031.673, 294.273
1032.921, 326.529
1034.169, 11.203
1035.416, 261.068
1036.663, 17.672
1037.911, 119.961
1039.157, 312.258
1040.404, 124.891
1041.650, 197.201
1042.897, 239.643
1044.143, 81.975
1045.389, 134.316
1046.634, 167.080
1047.880, 159.600
1049.125, 352.078
1050.371, 4.508
1051.615, 386.943
1052.860, 69.436
1054.105, 75.281
1055.349, 397.789
1056.593, 30.598
1057.837, 173.121
1059.081, 345.650
1060.325, 31.521
1061.568, 151.016
1062.812, 53.559
1064.055, 96.105
1065.298, 378.660
1066.540, 1.504
1067.783, 184.066
1069.025, 306.635
1070.267, 119.221
1071.509, 341.811
1072.751, 54.408
1073.993, 157.012
1075.234, 389.615
1076.475, 52.227
1077.716, 424.844
1078.957, 237.461
1080.198, 160.117
1081.438, 622.758
1082.679, 305.402
1083.919, 478.055
1085.159, 600.707
1086.398, 403.369
1087.638, 696.033
1088.877, 198.705
1090.116, 241.379
1091.355, 364.053
1092.594, 376.734
1093.833, 379.416
1095.071, 282.102
1096.309, 25.213
1097.547, 387.461
1098.785, 80.133
1100.023, 72.811
1101.260, 175.488
1102.498, 121.834
1103.735, 340.779
1104.972, 173.393
1106.208, 136.004
1107.445, 388.615
1108.681, 31.227
1109.918, 183.834
1111.154, 276.441
1112.389, 19.049
1113.625, 221.662
1114.860, 194.273
1116.096, 106.881
1117.331, 309.488
1118.566, 42.090
1119.800, 54.688
1121.035, 87.285
1122.269, 89.879
1123.503, 312.471
1124.737, 315.057
1125.971, 77.641
1127.205, 460.219
1128.438, 57.209
1129.671, 355.320
1130.904, 247.850
1132.137, 89.625
1133.370, 482.834
1134.602, 85.289
1135.834, 17.730
1137.066, 460.156
1138.298, 107.447
1139.530, 324.914
1140.762, 167.227
1141.993, 180.494
1143.224, 454.924
1144.455, 97.217
1145.686, 234.924
1146.917, 353.111
1148.147, 194.752
1149.377, 287.779
1150.607, 229.857
1151.837, 111.922
1153.067, 274.584
1154.296, 56.650
1155.526, 208.670
1156.755, 280.672
1157.984, 22.674
1159.213, 224.670
1160.441, 324.287
1161.670, 16.258
1162.898, 468.221
1164.126, 18.900
1165.354, 343.047
1166.581, 184.986
1167.809, 106.926
1169.036, 268.859
1170.263, 250.768
1171.490, 117.328
1172.717, 364.529
1173.943, 23.615
1175.170, 118.217
1176.396, 310.043
1177.622, 51.863
1178.848, 303.678
1180.073, 165.484
1181.299, 137.283
1182.524, 428.893
1183.749, 39.318
1184.974, 232.439
1186.199, 254.199
1187.423, 65.945
1188.648, 437.682
1189.872, 120.113
1191.096, 151.834
1192.320, 434.551
1193.543, 59.574
1194.767, 121.270
1195.990, 152.529
1197.213, 184.568
1198.436, 266.234
1199.659, 269.949
1200.881, 8.398
1202.104, 583.230
1203.326, 115.596
1204.548, 317.203
1205.770, 538.885
1206.991, 121.152
1208.213, 411.818
1209.434, 293.605
1210.655, 205.170
1211.876, 526.727
1213.096, 128.281
1214.317, 259.764
1215.537, 551.271
1216.757, 355.566
1217.977, 547.057
1219.197, 428.699
1220.417, 430.172
1221.636, 581.641
1222.855, 323.098
1224.074, 344.541
1225.293, 415.977
1226.512, 210.285
1227.731, 581.713
1228.949, 283.371
1230.167, 285.154
1231.385, 836.562
1232.603, 488.793
1233.820, 450.195
1235.038, 691.592
1236.255, 333.115
1237.472, 924.492
1238.689, 655.805
1239.906, 546.975
1241.122, 928.127
1242.338, 379.088
1243.555, 598.746
1244.771, 749.662
1245.986, 370.906
1247.202, 931.773
1248.417, 672.619
1249.633, 656.105
1250.848, 786.861
1252.063, 597.586
1253.277, 588.289
1254.492, 788.967
1255.706, 389.508
1256.920, 670.043
1258.134, 540.523
1259.348, 383.076
1260.562, 973.465
1261.775, 483.812
1262.988, 274.125
1264.201, 804.402
1265.414, 344.572
1266.627, 555.520
1267.839, 595.680
1269.052, 565.801
1270.264, 805.889
1271.476, 515.824
1272.688, 545.982
1273.899, 795.836
1275.111, 431.312
1276.322, 953.158
1277.533, 582.791
1278.744, 275.887
1279.955, 825.096
1281.165, 513.805
1282.376, 431.760
1283.586, 545.992
1284.796, 277.998
1286.006, 477.166
1287.215, 401.602
1288.425, 10.395
1289.634, 251.326
1290.843, 283.033
1292.052, 344.508
1293.261, 435.793
1294.469, 117.473
1295.678, 368.637
1296.886, 697.455
1298.094, 99.014
1299.302, 600.621
1300.509, 222.012
1301.717, 219.859
1302.924, 640.908
1304.131, 242.334
1305.338, 133.748
1306.545, 449.959
1307.752, 260.896
1308.958, 62.068
1310.164, 833.359
1311.370, 283.912
1312.576, 584.949
1313.782, 515.975
1314.987, 342.594
1316.193, 663.072
1317.398, 393.525
1318.603, 474.338
1319.807, 665.125
1321.012, 485.500
1322.216, 606.221
1323.421, 546.900
1324.625, 267.553
1325.829, 698.178
1327.032, 448.730
1328.236, 389.266
1329.439, 569.766
1330.642, 240.223
1331.845, 280.652
1333.048, 541.047
1334.251, 101.414
1335.453, 431.766
1336.656, 72.104
1337.858, 7.582
1339.060, 462.818
1340.261, 106.799
1341.463, 163.568
1342.664, 413.922
1343.866, 145.766
1345.067, 324.535
1346.267, 514.828
1347.468, 105.105
1348.669, 335.381
1349.869, 235.650
1351.069, 115.961
1352.269, 446.283
1353.469, 206.734
1354.668, 347.238
1355.868, 277.854
1357.067, 268.705
1358.266, 342.961
1359.465, 383.938
1360.664, 3.906
1361.862, 534.840
1363.061, 224.412
1364.259, 445.521
1365.457, 536.652
1366.655, 316.898
1367.852, 485.838
1369.050, 366.975
1370.247, 8.111
1371.444, 419.350
1372.641, 220.605
1373.838, 191.875
1375.035, 813.160
1376.231, 124.463
1377.427, 495.785
1378.623, 657.123
1379.819, 258.506
1381.015, 617.689
1382.211, 634.939
1383.406, 563.764
1384.601, 782.652
1385.796, 619.729
1386.991, 215.697
1388.185, 813.893
1389.380, 139.611
1390.574, 556.850
1391.768, 514.725
1392.962, 402.611
1394.156, 907.658
1395.350, 503.830
1396.543, 380.383
1397.736, 536.629
1398.929, 387.123
1400.122, 358.289
1401.315, 657.146
1402.507, 10.275
1403.700, 510.529
1404.892, 482.807
1406.084, 236.445
1407.276, 600.623
1408.467, 351.777
1409.659, 45.049
1410.850, 548.650
1412.041, 211.684
1413.232, 435.797
1414.423, 542.525
1415.614, 94.664
1416.804, 436.295
1417.994, 583.248
1419.184, 9.225
1420.374, 588.260
1421.564, 227.393
1422.753, 41.959
1423.943, 271.613
1425.132, 0.000
##END=



