##NAMES=Forsterite
##RRUFFID=R060535
##IDEAL CHEMISTRY=Mg_2_SiO_4_
##LOCALITY=unknown
##OWNER=RRUFF
##SOURCE=Gemological Institute of America
##DESCRIPTION=Transparent brown gemstone
##STATUS=The identification of this mineral has been confirmed by X-ray diffraction and chemical analysis
##URL=rruff.info/R060535
##MEASURED CHEMISTRY=(Mg_1.81_Fe_0.18_Ni_0.01_)_Î£=2_Si_1.00_O_4_
##PIN_ID=L01261
##ORIENTATION=Laser parallel to b* (0 1 0). Fiducial mark perpendicular to laser is parallel to c [0 0 1]
200.2560, 0.0000000E+00
201.4830, 1.4893000E-02
202.7090, 44.81140
203.9340, 10.95032
205.1600, 13.43005
206.3860, 6.787842
207.6110, 50.03931
208.8360, 14.71484
210.0610, 85.08582
211.2860, 85.03833
212.5100, 111.4924
213.7350, 155.3840
214.9590, 211.6522
216.1830, 279.2435
217.4070, 336.1125
218.6310, 356.2251
219.8540, 390.5555
221.0780, 496.0905
222.3010, 512.8188
223.5240, 587.7407
224.7470, 619.8423
225.9690, 592.0961
227.1920, 596.4772
228.4140, 612.9652
229.6360, 554.5438
230.8580, 500.1990
232.0800, 486.9200
233.3020, 485.7039
234.5230, 452.4579
235.7440, 436.4719
236.9650, 420.4430
238.1860, 369.4875
239.4070, 357.6165
240.6280, 333.8589
241.8480, 316.1597
243.0680, 282.5353
244.2880, 261.6017
245.5080, 198.7734
246.7280, 200.5342
247.9470, 167.3539
249.1660, 113.1521
250.3860, 122.9266
251.6040, 143.6733
252.8230, 83.39392
254.0420, 126.0901
255.2600, 88.76355
256.4790, 162.4155
257.6970, 76.04785
258.9150, 132.6611
260.1320, 231.2563
261.3500, 138.8346
262.5670, 145.3961
263.7840, 87.95117
265.0010, 99.56616
266.2180, 92.25879
267.4350, 130.0388
268.6510, 111.8777
269.8680, 139.6937
271.0840, 122.4829
272.3000, 96.25403
273.5160, 107.0018
274.7310, 97.72742
275.9470, 148.9720
277.1620, 147.6211
278.3770, 130.5066
279.5920, 190.1228
280.8070, 186.7683
282.0210, 231.2991
283.2360, 246.2234
284.4500, 269.5411
285.6640, 360.1409
286.8780, 406.2950
288.0920, 584.0133
289.3050, 631.7178
290.5180, 839.2107
291.7320, 1073.080
292.9450, 1391.812
294.1570, 1731.907
295.3700, 2076.315
296.5830, 2536.770
297.7950, 2846.182
299.0070, 3378.572
300.2190, 3651.808
301.4310, 3929.042
302.6420, 4009.274
303.8540, 3871.504
305.0650, 3493.734
306.2760, 3008.963
307.4870, 2510.190
308.6980, 2077.417
309.9080, 1733.644
311.1190, 1382.871
312.3290, 1198.098
313.5390, 1099.323
314.7490, 972.5476
315.9580, 930.7698
317.1680, 800.9895
318.3770, 791.8503
319.5860, 882.4170
320.7950, 795.6240
322.0040, 817.8259
323.2130, 870.0225
324.4210, 867.2134
325.6290, 786.5358
326.8380, 744.3696
328.0460, 608.5125
329.2530, 565.8032
330.4610, 472.8730
331.6680, 342.9646
332.8760, 301.5314
334.0830, 266.1469
335.2890, 197.6930
336.4960, 196.2991
337.7030, 161.4333
338.9090, 150.4490
340.1150, 128.5825
341.3210, 103.2777
342.5270, 82.70984
343.7330, 66.21716
344.9380, 38.25818
346.1440, 38.62415
347.3490, 33.72083
348.5540, 31.80566
349.7590, 14.21643
350.9630, 37.83899
352.1680, 60.61792
353.3720, 41.78125
354.5760, 14.52051
355.7800, 11.16162
356.9840, 44.28601
358.1870, 18.48682
359.3910, 33.71143
360.5940, 17.20020
361.7970, 5.581909
363.0000, 3.237061
364.2030, 5.073608
365.4050, 1.459229
366.6080, 6.202637
367.8100, 10.04407
369.0120, 4.285034
370.2140, 17.27539
371.4150, 16.03809
372.6170, 17.23853
373.8180, 21.88306
375.0190, 7.526489
376.2200, 21.31226
377.4210, 35.15381
378.6220, 13.35706
379.8220, 45.55737
381.0230, 8.220459
382.2230, 3.027100
383.4230, 31.79016
384.6220, 8.530273
385.8220, 5.357666
387.0220, 25.90344
388.2210, 18.14551
389.4200, 31.26025
390.6190, 12.55176
391.8180, 29.73450
393.0160, 39.92554
394.2150, 12.11511
395.4130, 32.37048
396.6110, 21.54675
397.8090, 54.73181
399.0060, 43.92798
400.2040, 51.12427
401.4010, 123.3147
402.5980, 115.5006
403.7950, 141.6847
404.9920, 283.8870
406.1890, 327.0989
407.3860, 378.3119
408.5820, 413.5364
409.7780, 559.7631
410.9740, 656.9817
412.1700, 712.1975
413.3650, 872.4314
414.5610, 949.6718
415.7560, 1086.927
416.9510, 1056.182
418.1460, 1008.428
419.3410, 901.6797
420.5360, 806.9258
421.7300, 734.1675
422.9240, 578.3940
424.1180, 513.6035
425.3120, 436.8105
426.5060, 389.0040
427.7000, 394.1869
428.8930, 338.3572
430.0860, 369.5095
431.2790, 303.6365
432.4720, 320.7399
433.6650, 282.8248
434.8580, 297.9009
436.0500, 208.9609
437.2420, 191.9932
438.4340, 183.0134
439.6260, 134.0249
440.8180, 112.0275
442.0090, 108.0210
443.2010, 108.0056
444.3920, 94.98206
445.5830, 104.9503
446.7740, 78.66809
447.9640, 66.47034
449.1550, 31.80432
450.3450, 29.73816
451.5350, 9.662964
452.7250, 1.577026
453.9150, 44.47852
455.1050, 14.37097
456.2940, 52.74695
457.4830, 2.108154
458.6720, 45.95056
459.8610, 16.21631
461.0500, 3.598999
462.2390, 6.598267
463.4270, 1.189209
464.6150, 12.03674
465.8040, 8.972778
466.9910, 2.768066
468.1790, 2.812744
469.3670, 13.89795
470.5540, 28.59448
471.7410, 40.27649
472.9280, 44.96741
474.1150, 58.56250
475.3020, 52.17590
476.4890, 36.76868
477.6750, 47.33594
478.8610, 34.88245
480.0470, 59.41675
481.2330, 33.94141
482.4190, 17.45630
483.6040, 65.95984
484.7900, 29.45386
485.9750, 40.93591
487.1600, 52.40747
488.3450, 34.86975
489.5290, 30.32068
490.7140, 57.76111
491.8980, 76.19189
493.0820, 67.80579
494.2660, 53.21790
495.4500, 54.62146
496.6340, 11.01465
497.8170, 34.34729
499.0010, 24.08777
500.1840, 56.44116
501.3670, 76.68628
502.5500, 23.01819
503.7320, 76.29639
504.9150, 37.28381
506.0970, 44.35413
507.2790, 33.54333
508.4610, 39.69165
509.6430, 61.57251
510.8250, 75.74304
512.0060, 1.126953
513.1870, 109.9697
514.3680, 10.12402
515.5490, 33.17395
516.7300, 30.91101
517.9110, 61.52795
519.0910, 19.25952
520.2710, 57.40051
521.4510, 69.44519
522.6310, 50.56421
523.8110, 65.55090
524.9910, 44.32568
526.1700, 34.92700
527.3490, 68.84399
528.5280, 40.11523
529.7070, 97.19055
530.8860, 34.15271
532.0650, 53.47815
533.2430, 105.6234
534.4210, 89.31128
535.5990, 104.6277
536.7770, 50.05750
537.9550, 96.99805
539.1320, 121.6326
540.3100, 164.8884
541.4870, 182.5842
542.6640, 201.6091
543.8410, 191.0492
545.0170, 203.1010
546.1940, 171.9070
547.3700, 173.6902
548.5470, 166.3265
549.7230, 166.6996
550.8980, 171.5128
552.0740, 184.3301
553.2500, 181.2935
554.4250, 207.3300
555.6000, 213.6589
556.7750, 227.8630
557.9500, 226.4200
559.1250, 256.1538
560.2990, 274.2678
561.4730, 269.1840
562.6480, 234.6088
563.8220, 329.2848
564.9950, 328.9807
566.1690, 363.9631
567.3430, 416.5956
568.5160, 331.2136
569.6890, 386.8174
570.8620, 406.4066
572.0350, 464.9819
573.2070, 505.9919
574.3800, 545.3162
575.5520, 591.6233
576.7240, 637.1426
577.8960, 665.6482
579.0680, 721.1404
580.2400, 774.6187
581.4110, 765.0837
582.5830, 963.5353
583.7540, 941.9734
584.9250, 998.3983
586.0950, 1148.810
587.2660, 1233.208
588.4370, 1399.594
589.6070, 1521.965
590.7770, 1675.205
591.9470, 1903.413
593.1170, 2183.312
594.2860, 2550.719
595.4560, 3043.076
596.6250, 3474.027
597.7940, 4025.072
598.9630, 4632.533
600.1320, 5127.723
601.3000, 5730.990
602.4690, 6213.467
603.6370, 6521.295
604.8050, 6831.588
605.9730, 6844.032
607.1410, 6604.645
608.3090, 6348.628
609.4760, 5731.587
610.6430, 5161.311
611.8100, 4525.263
612.9770, 3893.291
614.1440, 3398.326
615.3110, 2794.406
616.4770, 2432.449
617.6430, 2032.408
618.8090, 1724.408
619.9750, 1482.328
621.1410, 1284.359
622.3070, 1128.249
623.4720, 979.8981
624.6370, 884.9252
625.8020, 760.7422
626.9670, 661.6448
628.1320, 586.5856
629.2970, 486.4204
630.4610, 526.2056
631.6250, 420.1400
632.7890, 370.1008
633.9530, 333.0563
635.1170, 273.9507
636.2810, 257.8418
637.4440, 233.1719
638.6070, 310.9353
639.7700, 164.5776
640.9330, 213.4470
642.0960, 209.3496
643.2590, 141.9641
644.4210, 181.8502
645.5830, 177.6094
646.7450, 143.4010
647.9070, 132.1155
649.0690, 100.8737
650.2310, 99.71912
651.3920, 97.56494
652.5530, 94.20667
653.7140, 80.04395
654.8750, 86.31201
656.0360, 53.01672
657.1970, 64.71265
658.3570, 75.54248
659.5170, 58.11267
660.6770, 24.93665
661.8370, 31.83374
662.9970, 7.541992
664.1570, 24.34570
665.3160, 4.096558
666.4750, 5.810791
667.6340, 61.40063
668.7930, 15.26831
669.9520, 26.00671
671.1110, 7.632324
672.2690, 71.66089
673.4270, 47.98523
674.5850, 10.34668
675.7430, 1.275024
676.9010, 17.81592
678.0590, 50.57568
679.2160, 60.00366
680.3730, 18.47314
681.5300, 5.038452
682.6870, 1.456421
683.8440, 11.96057
685.0010, 88.47913
686.1570, 57.05188
687.3130, 23.66187
688.4690, 66.29126
689.6250, 29.96167
690.7810, 6.346313
691.9370, 16.34875
693.0920, 98.05737
694.2470, 55.82190
695.4020, 86.61963
696.5570, 29.46631
697.7120, 12.66858
698.8670, 56.19714
700.0210, 38.09436
701.1750, 14.01270
702.3290, 25.06055
703.4830, 1.133667
704.6370, 26.79443
705.7910, 59.26428
706.9440, 29.32349
708.0970, 92.38306
709.2510, 75.44336
710.4030, 97.50439
711.5560, 65.56665
712.7090, 115.6301
713.8610, 109.6948
715.0140, 154.7612
716.1660, 114.8291
717.3180, 120.8989
718.4690, 136.9707
719.6210, 127.0447
720.7730, 117.1211
721.9240, 169.2000
723.0750, 151.2812
724.2260, 134.3655
725.3770, 206.4526
726.5270, 215.5430
727.6780, 114.6362
728.8280, 249.7334
729.9780, 201.8342
731.1280, 251.9397
732.2780, 241.0508
733.4280, 186.1699
734.5770, 222.2932
735.7260, 254.4226
736.8760, 239.5745
738.0250, 327.7349
739.1730, 305.9004
740.3220, 346.0796
741.4700, 345.2673
742.6190, 365.4666
743.7670, 335.6755
744.9150, 342.8975
746.0630, 375.1326
747.2100, 386.3787
748.3580, 467.6362
749.5050, 471.9019
750.6520, 468.1748
751.7990, 491.4543
752.9460, 449.7410
754.0930, 441.0344
755.2390, 492.3350
756.3860, 470.6428
757.5320, 526.9580
758.6780, 487.2817
759.8240, 503.6128
760.9690, 516.9519
762.1150, 548.3008
763.2600, 612.6572
764.4060, 525.0225
765.5510, 511.3962
766.6950, 596.7786
767.8400, 631.1699
768.9850, 648.5708
770.1290, 693.9805
771.2730, 748.0239
772.4170, 852.8259
773.5610, 880.2627
774.7050, 974.7083
775.8480, 1055.166
776.9920, 1138.634
778.1350, 1137.113
779.2780, 1255.602
780.4210, 1218.100
781.5640, 1276.609
782.7060, 1228.132
783.8490, 1251.666
784.9910, 1213.209
786.1330, 1229.778
787.2750, 1100.369
788.4170, 1168.972
789.5580, 1213.607
790.7000, 1275.265
791.8410, 1405.939
792.9820, 1479.629
794.1230, 1481.348
795.2640, 1693.078
796.4040, 1789.843
797.5450, 1886.627
798.6850, 2064.422
799.8250, 2305.244
800.9650, 2525.566
802.1050, 2712.420
803.2450, 3134.650
804.3840, 3485.033
805.5230, 3964.258
806.6630, 4409.146
807.8020, 5129.120
808.9400, 6056.803
810.0790, 6985.594
811.2170, 8152.928
812.3560, 10002.71
813.4940, 12126.29
814.6320, 14921.44
815.7700, 18498.85
816.9070, 22737.73
818.0450, 27540.27
819.1820, 32396.30
820.3190, 36962.00
821.4560, 40962.11
822.5930, 43308.45
823.7300, 43327.82
824.8670, 40941.35
826.0030, 37086.25
827.1390, 32670.48
828.2750, 27278.84
829.4110, 22637.05
830.5470, 19069.20
831.6820, 15904.07
832.8180, 13864.07
833.9530, 12227.72
835.0880, 11233.20
836.2230, 10553.30
837.3580, 9991.608
838.4920, 9936.419
839.6270, 10114.98
840.7610, 10345.53
841.8950, 11139.80
843.0290, 12244.42
844.1630, 13835.06
845.2960, 15723.72
846.4300, 18571.41
847.5630, 21637.11
848.6960, 25845.84
849.8290, 30395.58
850.9620, 35341.35
852.0940, 40330.12
853.2270, 43886.92
854.3590, 46512.75
855.4910, 47171.58
856.6230, 45463.45
857.7550, 42358.32
858.8870, 37525.23
860.0180, 32217.15
861.1500, 26783.08
862.2810, 22201.04
863.4120, 18100.01
864.5430, 14718.01
865.6730, 12094.03
866.8040, 10094.07
867.9340, 8531.120
869.0640, 7196.194
870.1940, 6265.287
871.3240, 5535.399
872.4540, 4861.532
873.5830, 4422.685
874.7130, 4019.855
875.8420, 3789.046
876.9710, 3599.257
878.1000, 3336.486
879.2290, 3360.735
880.3570, 3195.002
881.4860, 3064.290
882.6140, 2897.597
883.7420, 2690.922
884.8700, 2376.267
885.9980, 2012.631
887.1250, 1697.014
888.2530, 1474.417
889.3800, 1223.838
890.5070, 1036.278
891.6340, 906.7383
892.7610, 727.2173
893.8880, 733.7151
895.0140, 635.2322
896.1400, 556.7681
897.2670, 538.3232
898.3930, 426.8975
899.5180, 405.4902
900.6440, 373.1021
901.7700, 293.7327
902.8950, 268.3823
904.0200, 213.0505
905.1450, 257.7373
906.2700, 200.4434
907.3950, 230.1675
908.5190, 178.9106
909.6440, 106.6719
910.7680, 140.4519
911.8920, 193.2505
913.0160, 205.0674
914.1400, 55.90283
915.2630, 122.7568
916.3870, 108.6292
917.5100, 112.0466
918.6330, 107.9553
919.7560, 90.88208
920.8790, 73.63281
922.0010, 79.43237
923.1240, 106.4524
924.2460, 155.2334
925.3680, 78.61328
926.4900, 87.74463
927.6120, 38.01074
928.7340, 80.80127
929.8550, 65.88428
930.9760, 92.52759
932.0980, 100.7673
933.2190, 154.8989
934.3390, 145.3159
935.4600, 185.6528
936.5810, 210.1418
937.7010, 288.0371
938.8210, 259.0537
939.9410, 329.4932
941.0610, 415.7036
942.1810, 522.2139
943.3010, 523.4172
944.4200, 630.1069
945.5390, 710.1997
946.6580, 784.2637
947.7770, 1095.939
948.8960, 1234.355
950.0150, 1553.784
951.1330, 1812.160
952.2510, 2178.792
953.3690, 2638.313
954.4870, 3047.836
955.6050, 3626.547
956.7230, 4208.307
957.8400, 4821.899
958.9580, 5330.524
960.0750, 5785.165
961.1920, 6109.879
962.3090, 6176.572
963.4250, 6066.277
964.5420, 5893.348
965.6580, 5526.320
966.7740, 5097.106
967.8900, 4541.926
969.0060, 4120.766
970.1220, 3652.616
971.2380, 3170.167
972.3530, 2746.062
973.4680, 2353.555
974.5830, 2001.473
975.6980, 1730.778
976.8130, 1474.345
977.9280, 1292.298
979.0420, 1163.260
980.1560, 998.4282
981.2710, 901.4072
982.3850, 739.4648
983.4980, 786.4609
984.6120, 683.9614
985.7260, 612.9739
986.8390, 551.9937
987.9520, 514.0215
989.0650, 447.0571
990.1780, 453.1003
991.2910, 454.1509
992.4030, 373.2087
993.5160, 411.3257
994.6280, 397.3975
995.7400, 310.4761
996.8520, 289.5618
997.9640, 313.6536
999.0750, 273.7522
1000.187, 280.8572
1001.298, 275.9683
1002.409, 228.0852
1003.520, 229.2085
1004.631, 150.3374
1005.741, 222.4719
1006.852, 154.6121
1007.962, 135.7576
1009.072, 175.9082
1010.182, 105.0715
1011.292, 169.2400
1012.402, 125.4133
1013.511, 66.59131
1014.621, 136.7739
1015.730, 95.96143
1016.839, 112.1531
1017.948, 99.34888
1019.056, 93.54883
1020.165, 97.75513
1021.273, 92.40820
1022.382, 108.1790
1023.490, 101.3962
1024.598, 86.67114
1025.706, 105.8953
1026.813, 67.12256
1027.921, 146.3530
1029.028, 109.5859
1030.135, 100.8218
1031.242, 66.06055
1032.349, 49.30127
1033.456, 86.54468
1034.562, 101.7903
1035.668, 36.03809
1036.775, 39.28735
1037.881, 119.5398
1038.987, 62.79419
1040.092, 65.04980
1041.198, 65.30688
1042.303, 30.56519
1043.408, 61.82495
1044.514, 98.08521
1045.618, 36.34668
1046.723, 12.60889
1047.828, 54.87183
1048.932, 48.13989
1050.037, 11.59204
1051.141, 30.67041
1052.245, 30.93286
1053.349, 47.80469
1054.452, 47.56836
1055.556, 1.641846
1056.659, 77.14966
1057.762, 21.98413
1058.865, 16.83301
1059.968, 0.6936040
1061.071, 57.55908
1062.174, 14.67432
1063.276, 85.22656
1064.378, 14.17749
1065.480, 14.85913
1066.582, 47.10596
1067.684, 13.10205
1068.786, 1.887939
1069.887, 52.12817
1070.988, 53.17920
1072.090, 11.26147
1073.191, 38.35132
1074.291, 10.47070
1075.392, 52.60205
1076.493, 11.77051
1077.593, 48.95508
1078.693, 127.1758
1079.793, 56.47461
1080.893, 34.18604
1081.993, 45.84302
1083.092, 33.50366
1084.192, 14.11987
1085.291, 20.73730
1086.390, 32.35059
1087.489, 14.95923
1088.588, 14.56152
1089.686, 55.15625
1090.785, 25.74683
1091.883, 54.93677
1092.981, 23.91235
1094.079, 62.48657
1095.177, 31.05591
1096.275, 19.37988
1097.373, 16.84229
1098.470, 65.66968
1099.567, 46.17603
1100.664, 37.67676
1101.761, 43.17114
1102.858, 22.34009
1103.954, 101.1184
1105.051, 13.57056
1106.147, 53.01050
1107.243, 59.44385
1108.339, 141.8704
1109.435, 76.29077
1110.531, 94.70386
1111.626, 4.110352
1112.722, 137.4985
1113.817, 34.87988
1114.912, 105.2529
1116.007, 20.61914
1117.101, 86.97314
1118.196, 92.31982
1119.290, 115.6589
1120.385, 97.99121
1121.479, 98.31616
1122.573, 113.6335
1123.666, 99.94336
1124.760, 42.24585
1125.853, 62.53955
1126.947, 127.8257
1128.040, 78.10425
1129.133, 113.3750
1130.226, 102.6379
1131.318, 81.89307
1132.411, 103.1404
1133.503, 134.3833
1134.596, 108.6182
1135.688, 110.8450
1136.780, 188.0637
1137.871, 113.2744
1138.963, 172.4766
1140.054, 115.6704
1141.146, 166.5173
1142.237, 152.6946
1143.328, 90.87207
1144.419, 100.0405
1145.509, 89.20410
1146.600, 149.3591
1147.690, 124.5051
1148.780, 111.6428
1149.870, 147.7720
1150.960, 154.3188
1152.050, 131.4297
1153.139, 204.5322
1154.229, 126.6272
1155.318, 58.71265
1156.407, 191.7893
1157.496, 129.8567
1158.585, 131.9150
1159.674, 171.9646
1160.762, 191.0049
1161.850, 207.0366
1162.939, 174.0588
1164.027, 141.0720
1165.114, 153.0759
1166.202, 196.0708
1167.290, 166.0564
1168.377, 188.1909
1169.464, 119.1582
1170.551, 169.1174
1171.638, 140.0657
1172.725, 122.0049
1173.812, 108.9512
1174.898, 147.8716
1175.984, 84.78394
1177.071, 140.6865
1178.157, 151.5798
1179.242, 123.5376
1180.328, 108.4119
1181.414, 127.7500
1182.499, 98.60547
1183.584, 161.4749
1184.669, 171.5054
1185.754, 213.4956
1186.839, 117.2737
1187.924, 142.3154
1189.008, 138.7505
1190.092, 153.4424
1191.177, 113.0076
1192.260, 48.05640
1193.344, 198.8201
1194.428, 94.03149
1195.512, 113.6543
1196.595, 172.3931
1197.678, 171.8542
1198.761, 164.4033
1199.844, 183.8105
1200.927, 160.8193
1202.009, 192.8665
1203.092, 141.7861
1204.174, 157.5291
1205.256, 156.6025
1206.338, 183.3682
1207.420, 146.6560
1208.502, 152.5928
1209.583, 225.5605
1210.665, 172.9297
1211.746, 136.5676
1212.827, 127.2004
1213.908, 209.9097
1214.988, 172.4468
1216.069, 212.0505
1217.149, 220.6606
1218.230, 216.0925
1219.310, 202.4868
1220.390, 207.0808
1221.470, 201.6675
1222.549, 151.2507
1223.629, 126.7869
1224.708, 204.3821
1225.787, 171.9492
1226.866, 226.1641
1227.945, 195.5376
1229.024, 155.1338
1230.103, 164.6809
1231.181, 218.2229
1232.259, 198.7600
1233.337, 155.6484
1234.415, 184.1755
1235.493, 155.1138
1236.571, 224.6318
1237.648, 178.1458
1238.726, 176.6545
1239.803, 117.1589
1240.880, 168.6589
1241.957, 186.9570
1243.034, 183.4487
1244.110, 98.86597
1245.187, 127.3486
1246.263, 135.3306
1247.339, 143.8052
1248.415, 133.2754
1249.491, 99.74146
1250.566, 114.2034
1251.642, 117.6614
1252.717, 158.1152
1253.793, 104.5652
1254.868, 78.95898
1255.943, 98.40088
1257.017, 58.83887
1258.092, 115.2793
1259.166, 49.70972
1260.241, 98.13672
1261.315, 52.55981
1262.389, 86.80029
1263.462, 85.21631
1264.536, 92.62842
1265.610, 123.0374
1266.683, 86.44263
1267.756, 76.84424
1268.829, 116.2427
1269.902, 22.36279
1270.975, 67.01416
1272.048, 106.3462
1273.120, 48.71631
1274.192, 115.8462
1275.264, 82.21191
1276.336, 74.57251
1277.408, 47.92993
1278.480, 86.28418
1279.551, 2.364746
1280.623, 101.9788
1281.694, 18.31958
1282.765, 70.90771
1283.836, 45.24512
1284.907, 70.58789
1285.977, 42.92261
1287.048, 57.25464
1288.118, 47.43604
1289.188, 101.9387
1290.258, 46.26392
1291.328, 48.58667
1292.398, 87.90747
1293.467, 16.22583
1294.537, 54.54199
1295.606, 79.85547
1296.675, 0.1669920
1297.744, 57.47437
1298.813, 12.77979
1299.882, 22.09204
1300.950, 43.39453
1302.018, 8.694580
1303.086, 14.02100
1304.155, 142.5234
1305.222, 32.81665
1306.290, 66.10767
1307.358, 15.60376
1308.425, 17.67310
1309.492, 42.94849
1310.559, 17.22461
1311.626, 5.498291
1312.693, 25.76880
1313.760, 41.06177
1314.826, 23.57324
1315.893, 6.665283
1316.959, 28.97632
1318.025, 55.29297
1319.091, 130.6140
1320.157, 126.6201
1321.222, 46.14062
1322.288, 117.4719
1323.353, 105.8201
1324.418, 30.16943
1325.483, 64.51831
1326.548, 47.88086
1327.612, 60.24829
1328.677, 20.61719
1329.741, 18.99829
1330.806, 23.60254
1331.870, 92.79248
1332.934, 10.79980
1333.997, 45.61011
1335.061, 15.03687
1336.124, 3.469727
1337.188, 40.91870
1338.251, 17.40405
1339.314, 62.90820
1340.377, 63.41211
1341.439, 55.91577
1342.502, 0.5678710
1343.564, 45.94897
1344.627, 34.46606
1345.689, 64.98315
1346.751, 53.50098
1347.813, 124.0205
1348.874, 19.54004
1349.936, 54.05981
1350.997, 57.57886
1352.058, 4.116943
1353.119, 40.63159
1354.180, 69.17017
1355.241, 2.695557
1356.301, 0.2312010
1357.362, 19.75415
1358.422, 36.27148
1359.482, 36.78931
1360.542, 2.307129
1361.602, 43.83667
1362.662, 23.36475
1363.721, 24.89526
1364.781, 44.43140
1365.840, 22.96216
1366.899, 116.4927
1367.958, 47.07446
