##NAMES=Forsterite
##RRUFFID=R050117
##IDEAL CHEMISTRY=Mg_2_SiO_4_
##LOCALITY=Sapat, Gilgit, Pakistan
##OWNER=RRUFF
##SOURCE=Farooq and Nazia Sawal
##DESCRIPTION=Fragment of a green crystal
##STATUS=The identification of this mineral has been confirmed by X-ray diffraction and chemical analysis
##URL=rruff.info/R050117
##MEASURED CHEMISTRY=(Mg_1.81_Fe_0.18_Ni_0.01_)_Î£=2_Si_1.00_O_4_
##PIN_ID=M00435
##ORIENTATION=Laser parallel to a* (1 0 0). Fiducial mark perpendicular to laser is parallel to -b [0 -1 0]
46.644, 0.000
48.046, 4.485
49.448, 122.647
50.850, 224.419
52.251, 312.160
53.653, 526.287
55.054, 508.850
56.454, 598.296
57.855, 827.127
59.255, 976.498
60.655, 1231.381
62.055, 1456.855
63.454, 1809.075
64.854, 2015.983
66.253, 2189.248
67.652, 2298.578
69.050, 2267.024
70.449, 2214.234
71.847, 2366.250
73.245, 3213.846
74.643, 3149.678
76.040, 2768.427
77.438, 2457.613
78.835, 2103.223
80.232, 2007.142
81.628, 1802.854
83.025, 1556.334
84.421, 1362.680
85.817, 978.253
87.213, 779.424
88.608, 539.351
90.003, 344.075
91.398, 291.281
92.793, 197.958
94.188, 144.097
95.582, 138.121
96.976, 66.772
98.370, 59.894
99.764, 22.092
101.157, 47.050
102.550, 72.336
103.943, 88.451
105.336, 36.865
106.729, 72.787
108.121, 167.056
109.513, 252.176
110.905, 290.281
112.297, 380.305
113.688, 307.746
115.079, 224.081
116.470, 165.971
117.861, 123.875
119.251, 100.661
120.642, 94.312
122.032, 90.101
123.422, 86.328
124.811, 89.042
126.201, 76.541
127.590, 105.438
128.979, 124.797
130.367, 66.771
131.756, 35.042
133.144, 51.928
134.532, 67.801
135.920, 48.396
137.307, 47.320
138.695, 66.639
140.082, 88.734
141.469, 81.347
142.856, 94.650
144.242, 69.349
145.628, 53.252
147.014, 55.985
148.400, 43.179
149.786, 82.682
151.171, 52.266
152.556, 52.742
153.941, 88.677
155.325, 40.315
156.710, 36.649
158.094, 43.607
159.478, 28.931
160.862, 43.725
162.245, 28.301
163.629, 27.808
165.012, 8.754
166.395, 13.251
167.777, 2.466
169.160, 19.648
170.542, 20.877
171.924, 3.419
173.306, 43.179
174.687, 16.857
176.068, 38.308
177.449, 16.657
178.830, 20.183
180.211, 5.893
181.591, 2.856
182.972, 4.142
184.351, 2.098
185.731, 8.519
187.111, 16.116
188.490, 21.886
189.869, 42.839
191.248, 69.986
192.626, 43.338
194.005, 63.893
195.383, 76.646
196.761, 29.587
198.139, 8.578
199.516, 3.156
200.893, 2.264
202.271, 33.631
203.647, 19.875
205.024, 1.588
206.400, 30.878
207.777, 22.834
209.152, 24.325
210.528, 56.703
211.904, 121.975
213.279, 194.855
214.654, 276.600
216.029, 360.576
217.403, 515.246
218.778, 581.641
220.152, 658.639
221.526, 784.306
222.900, 824.582
224.273, 877.336
225.646, 907.705
227.019, 849.601
228.392, 741.061
229.765, 743.945
231.137, 693.294
232.509, 723.211
233.881, 665.818
235.253, 708.899
236.625, 644.238
237.996, 655.940
239.367, 651.897
240.738, 604.063
242.108, 580.245
243.479, 504.891
244.849, 483.141
246.219, 473.014
247.589, 449.490
248.958, 424.548
250.328, 426.178
251.697, 377.393
253.065, 378.042
254.434, 387.648
255.803, 368.804
257.171, 379.307
258.539, 397.015
259.906, 394.141
261.274, 396.871
262.641, 396.643
264.008, 397.021
265.375, 394.665
266.742, 381.366
268.108, 392.163
269.475, 405.643
270.840, 375.059
272.206, 433.699
273.572, 375.757
274.937, 394.926
276.302, 402.942
277.667, 421.007
279.032, 429.977
280.396, 430.366
281.760, 454.505
283.125, 484.011
284.488, 513.865
285.852, 501.226
287.215, 486.124
288.578, 564.987
289.941, 595.578
291.304, 642.841
292.666, 739.695
294.029, 817.741
295.391, 1007.924
296.753, 1186.205
298.114, 1489.033
299.476, 1813.249
300.837, 2144.024
302.198, 2293.710
303.558, 2277.739
304.919, 2119.183
306.279, 1784.427
307.639, 1517.936
308.999, 1274.931
310.359, 1147.575
311.718, 1107.326
313.077, 1081.597
314.436, 1101.440
315.795, 1116.858
317.154, 1083.271
318.512, 1045.094
319.870, 1035.198
321.228, 1075.068
322.586, 1141.969
323.943, 1220.662
325.300, 1251.579
326.657, 1227.131
328.014, 1189.685
329.371, 1061.466
330.727, 1013.507
332.083, 935.863
333.439, 866.856
334.795, 869.827
336.150, 880.833
337.506, 854.492
338.861, 796.622
340.215, 745.559
341.570, 637.808
342.924, 566.819
344.279, 519.782
345.633, 486.942
346.986, 413.161
348.340, 413.377
349.693, 399.276
351.046, 335.787
352.399, 380.792
353.752, 366.532
355.104, 344.570
356.457, 365.432
357.809, 345.917
359.160, 355.519
360.512, 342.234
361.863, 343.060
363.214, 343.285
364.565, 321.898
365.916, 393.357
367.267, 450.645
368.617, 519.299
369.967, 547.422
371.317, 538.460
372.666, 503.527
374.016, 452.945
375.365, 375.910
376.714, 355.219
378.063, 276.756
379.411, 276.526
380.760, 253.827
382.108, 250.292
383.456, 222.969
384.803, 205.879
386.151, 218.684
387.498, 194.390
388.845, 184.993
390.192, 159.496
391.539, 172.868
392.885, 180.151
394.231, 165.123
395.577, 124.122
396.923, 121.786
398.269, 166.536
399.614, 184.927
400.959, 227.281
402.304, 230.537
403.649, 287.516
404.993, 372.325
406.337, 391.752
407.681, 441.023
409.025, 482.188
410.369, 464.193
411.712, 462.035
413.055, 516.827
414.398, 605.360
415.741, 631.844
417.084, 718.317
418.426, 730.666
419.768, 680.018
421.110, 707.406
422.452, 693.746
423.793, 728.065
425.134, 866.356
426.475, 997.623
427.816, 1223.860
429.157, 1409.051
430.497, 1552.313
431.837, 1555.666
433.177, 1535.902
434.517, 1467.367
435.857, 1369.570
437.196, 1299.833
438.535, 1174.112
439.874, 920.448
441.213, 776.805
442.551, 631.152
443.889, 468.591
445.227, 374.149
446.565, 318.831
447.903, 290.464
449.240, 177.038
450.577, 199.949
451.914, 185.994
453.251, 127.246
454.588, 116.570
455.924, 103.882
457.260, 95.183
458.596, 91.480
459.932, 78.768
461.267, 75.046
462.602, 85.317
463.938, 96.580
465.272, 65.834
466.607, 80.078
467.941, 44.311
469.276, 73.533
470.610, 77.747
471.943, 51.953
473.277, 89.151
474.610, 93.343
475.944, 72.528
477.276, 60.707
478.609, 67.879
479.942, 49.043
481.274, 72.202
482.606, 89.358
483.938, 44.509
485.270, 63.658
486.601, 57.808
487.932, 45.950
489.263, 52.543
490.594, 36.807
491.925, 66.093
493.255, 59.846
494.585, 47.380
495.915, 63.039
497.245, 30.660
498.575, 43.680
499.904, 43.095
501.233, 59.200
502.562, 68.117
503.891, 60.443
505.219, 64.738
506.548, 34.609
507.876, 71.223
509.203, 55.990
510.531, 38.932
511.859, 79.861
513.186, 77.305
514.513, 82.553
515.840, 53.601
517.166, 84.726
518.493, 112.594
519.819, 82.141
521.145, 110.416
522.470, 148.617
523.796, 129.340
525.121, 112.373
526.446, 132.084
527.771, 146.974
529.096, 139.172
530.421, 165.932
531.745, 212.804
533.069, 247.687
534.393, 287.040
535.716, 366.387
537.040, 469.105
538.363, 616.153
539.686, 707.621
541.009, 874.435
542.331, 947.737
543.654, 906.541
544.976, 776.813
546.298, 674.583
547.620, 511.213
548.941, 405.163
550.263, 366.254
551.584, 291.792
552.905, 246.536
554.225, 245.044
555.546, 224.383
556.866, 187.801
558.186, 220.323
559.506, 211.926
560.826, 201.710
562.145, 202.513
563.465, 229.562
564.784, 292.700
566.103, 273.835
567.421, 346.967
568.740, 376.098
570.058, 451.228
571.376, 528.356
572.694, 588.485
574.011, 740.614
575.329, 849.745
576.646, 1056.876
577.963, 1246.009
579.279, 1437.143
580.596, 1693.279
581.912, 1884.416
583.228, 2032.555
584.544, 2143.696
585.860, 2208.839
587.175, 2213.983
588.491, 2103.131
589.806, 2043.280
591.121, 1888.431
592.435, 1615.583
593.750, 1492.737
595.064, 1359.894
596.378, 1342.052
597.692, 1327.212
599.006, 1376.375
600.319, 1502.538
601.632, 1608.703
602.945, 1776.870
604.258, 1835.038
605.571, 1960.206
606.883, 1932.375
608.195, 1813.373
609.507, 1635.478
610.819, 1432.533
612.131, 1300.352
613.442, 1078.134
614.753, 907.872
616.064, 811.582
617.375, 637.284
618.685, 546.942
619.995, 499.592
621.306, 388.294
622.615, 331.052
623.925, 317.689
625.235, 251.395
626.544, 256.959
627.853, 217.654
629.162, 203.376
630.471, 189.524
631.779, 146.784
633.087, 152.597
634.395, 124.331
635.703, 95.025
637.011, 96.757
638.318, 59.419
639.625, 76.187
640.932, 57.035
642.239, 59.704
643.546, 33.462
644.852, 42.203
646.158, 6.095
647.464, 2.636
648.770, 1.308
650.076, 8.891
651.381, 4.115
652.686, 6.389
653.991, 24.595
655.296, 12.948
656.600, 20.249
657.905, 32.560
659.209, 28.820
660.513, 36.058
661.817, 35.296
663.120, 8.636
664.423, 27.052
665.726, 29.329
667.029, 14.683
668.332, 37.113
669.635, 59.391
670.937, 20.715
672.239, 36.026
673.541, 52.476
674.842, 30.829
676.144, 23.081
677.445, 18.472
678.746, 16.753
680.047, 43.952
681.348, 6.812
682.648, 39.488
683.948, 5.731
685.248, 29.980
686.548, 40.247
687.848, 5.535
689.147, 5.829
690.447, 9.871
691.746, 15.570
693.044, 3.730
694.343, 3.965
695.641, 5.340
696.940, 13.649
698.238, 22.965
699.535, 4.708
700.833, 7.618
702.130, 15.947
703.427, 24.717
704.724, 2.616
706.021, 7.950
707.318, 12.714
708.614, 1.381
709.910, 13.050
711.206, 7.723
712.502, 3.400
713.798, 52.080
715.093, 9.764
716.388, 54.452
717.683, 16.142
718.978, 43.836
720.272, 65.532
721.567, 26.230
722.861, 51.929
724.155, 53.630
725.448, 73.333
726.742, 69.038
728.035, 90.746
729.328, 115.455
730.621, 67.166
731.914, 93.879
733.206, 112.594
734.499, 102.312
735.791, 116.031
737.083, 114.753
738.374, 116.479
739.666, 157.208
740.957, 127.940
742.248, 169.675
743.539, 153.412
744.830, 149.156
746.120, 145.902
747.410, 165.651
748.701, 169.696
749.990, 198.156
751.280, 189.913
752.570, 233.673
753.859, 230.435
755.148, 224.202
756.437, 231.971
757.725, 241.741
759.014, 257.533
760.302, 279.323
761.590, 295.116
762.878, 325.920
764.166, 331.413
765.453, 367.543
766.740, 352.360
768.027, 344.181
769.314, 365.008
770.601, 368.814
771.887, 431.677
773.174, 420.519
774.460, 439.372
775.745, 497.240
777.031, 491.125
778.316, 508.023
779.602, 547.936
780.887, 608.861
782.172, 621.799
783.456, 643.743
784.741, 723.694
786.025, 692.652
787.309, 746.623
788.593, 810.600
789.876, 841.585
791.160, 905.578
792.443, 973.587
793.726, 1035.602
795.009, 1138.625
796.291, 1154.660
797.574, 1326.702
798.856, 1433.746
800.138, 1564.807
801.420, 1817.425
802.702, 1892.379
803.983, 2196.318
805.264, 2425.798
806.545, 2823.512
807.826, 3274.116
809.107, 3681.770
810.387, 4439.045
811.667, 5110.931
812.947, 6122.147
814.227, 7680.566
815.507, 9478.593
816.786, 12065.660
818.065, 15744.163
819.344, 20241.682
820.623, 25579.080
821.902, 29677.273
823.180, 31274.254
824.459, 30569.951
825.737, 26617.830
827.014, 22704.883
828.292, 18540.990
829.569, 15358.337
830.847, 13166.111
832.124, 11284.146
833.401, 10132.278
834.677, 9338.920
835.954, 8688.188
837.230, 8570.107
838.506, 8392.863
839.782, 9151.321
841.057, 8948.225
842.333, 9017.021
843.608, 9955.815
844.883, 11315.147
846.158, 12894.487
847.433, 15243.426
848.707, 19032.721
849.981, 23581.596
851.255, 28910.049
852.529, 34078.008
853.803, 39037.348
855.076, 40656.160
856.350, 40594.539
857.623, 36543.965
858.895, 30973.039
860.168, 26431.877
861.441, 21201.332
862.713, 17580.617
863.985, 14660.093
865.257, 12039.574
866.528, 10308.981
867.800, 8608.483
869.071, 7403.997
870.342, 6575.520
871.613, 5641.053
872.884, 5491.597
874.154, 5059.151
875.425, 5006.714
876.695, 5379.318
877.965, 5655.901
879.234, 6324.496
880.504, 6740.099
881.773, 6757.713
883.042, 6275.338
884.311, 5116.976
885.580, 4236.622
886.848, 3411.278
888.117, 2702.946
889.385, 2399.623
890.653, 1876.615
891.920, 1704.313
893.188, 1441.298
894.455, 1290.017
895.722, 1251.747
896.989, 1128.310
898.256, 1097.061
899.523, 1026.822
900.789, 994.593
902.055, 945.374
903.321, 938.166
904.587, 955.968
905.852, 957.781
907.118, 949.838
908.383, 1022.671
909.648, 1166.134
910.913, 1251.870
912.177, 1530.734
913.442, 1874.608
914.706, 2506.191
915.970, 4098.544
917.233, 5138.449
918.497, 5951.364
919.760, 4105.289
921.024, 3378.224
922.287, 2519.169
923.550, 1881.125
924.812, 1400.090
926.075, 1094.992
927.337, 911.073
928.599, 783.973
929.861, 639.318
931.122, 574.590
932.384, 568.815
933.645, 500.551
934.906, 512.594
936.167, 457.748
937.428, 498.027
938.688, 486.525
939.948, 444.902
941.208, 515.192
942.468, 518.776
943.728, 591.007
944.987, 587.121
946.247, 610.553
947.506, 720.334
948.765, 673.473
950.023, 766.245
951.282, 844.256
952.540, 883.289
953.798, 1002.465
955.056, 1103.650
956.314, 1212.853
957.572, 1325.059
958.829, 1409.275
960.086, 1453.501
961.343, 1466.743
962.600, 1434.996
963.856, 1450.264
965.113, 1281.548
966.369, 1176.117
967.625, 1071.435
968.881, 966.770
970.136, 813.126
971.392, 688.488
972.647, 633.865
973.902, 557.255
975.157, 491.663
976.411, 402.095
977.666, 360.540
978.920, 312.002
980.174, 275.486
981.428, 211.988
982.682, 184.505
983.935, 217.035
985.188, 142.578
986.441, 130.141
987.694, 124.712
988.947, 85.306
990.199, 132.911
991.452, 77.535
992.704, 83.177
993.956, 79.829
995.207, 40.491
996.459, 69.163
997.710, 58.842
998.961, 64.533
1000.212, 61.232
1001.463, 55.940
1002.714, 34.661
1003.964, 37.395
1005.214, 40.148
1006.464, 24.911
1007.714, 25.687
1008.964, 20.080
1010.213, 21.277
1011.462, 20.088
1012.711, 16.202
1013.960, 15.931
1015.209, 10.577
1016.457, 10.428
1017.705, 9.287
1018.954, 3.153
1020.201, 23.025
1021.449, 32.903
1022.697, 1.793
1023.944, 18.689
1025.191, 27.598
1026.438, 1.489
1027.685, 28.432
1028.931, 41.359
1030.177, 8.293
1031.423, 28.234
1032.669, 37.181
1033.915, 9.400
1035.161, 4.362
1036.406, 12.329
1037.651, 40.370
1038.896, 26.348
1040.141, 8.670
1041.386, 33.314
1042.630, 7.697
1043.874, 22.293
1045.118, 35.288
1046.362, 17.711
1047.606, 68.285
1048.849, 44.287
1050.092, 11.293
1051.336, 39.302
1052.578, 25.316
1053.821, 30.334
1055.064, 31.198
1056.306, 4.616
1057.548, 16.412
1058.790, 11.556
1060.032, 34.526
1061.273, 26.490
1062.515, 12.510
1063.756, 30.467
1064.997, 7.455
1066.237, 20.555
1067.478, 495.568
1068.718, 542.585
1069.959, 299.604
1071.199, 245.626
1072.438, 99.652
1073.678, 21.680
1074.918, 14.290
1076.157, 35.265
1077.396, 48.477
1078.635, 21.271
1079.873, 37.295
1081.112, 18.336
1082.350, 27.385
1083.588, 8.552
1084.826, 2.492
1086.064, 0.432
1087.301, 21.629
1088.539, 0.701
1089.776, 1.226
1091.013, 3.847
1092.250, 32.924
1093.486, 18.982
1094.723, 0.111
1095.959, 24.205
1097.195, 33.688
1098.431, 5.418
1099.666, 9.529
1100.902, 9.646
1102.137, 19.230
1103.372, 17.107
1104.607, 11.985
1105.842, 16.865
1107.076, 19.745
1108.311, 28.626
1109.545, 34.508
1110.779, 35.391
1112.012, 31.275
1113.246, 76.159
1114.479, 3.044
1115.712, 57.926
1116.945, 20.809
1118.178, 15.691
1119.411, 24.574
1120.643, 26.456
1121.875, 48.338
1123.108, 45.303
1124.339, 64.714
1125.571, 59.321
1126.802, 103.022
1128.034, 43.901
1129.265, 68.172
1130.496, 54.075
1131.727, 22.070
1132.957, 33.944
1134.187, 48.144
1135.418, 44.015
1136.648, 77.173
1137.877, 77.103
1139.107, 77.716
1140.336, 81.641
1141.566, 37.583
1142.795, 85.560
1144.023, 66.950
1145.252, 59.957
1146.480, 89.260
1147.709, 96.168
1148.937, 117.033
1150.165, 91.290
1151.392, 69.153
1152.620, 90.691
1153.847, 118.659
1155.074, 82.634
1156.301, 106.506
1157.528, 74.473
1158.755, 104.619
1159.981, 98.899
1161.207, 92.656
1162.433, 143.368
1163.659, 62.045
1164.885, 84.207
1166.110, 132.304
1167.336, 102.141
1168.561, 94.983
1169.786, 103.251
1171.010, 110.220
1172.235, 116.348
1173.459, 75.259
1174.683, 77.390
1175.907, 80.415
1177.131, 84.436
1178.355, 92.661
1179.578, 107.672
1180.801, 21.962
1182.024, 102.146
1183.247, 93.942
1184.470, 32.718
1185.692, 90.582
1186.915, 85.406
1188.137, 92.818
1189.359, 65.569
1190.580, 84.178
1191.802, 75.886
1193.023, 88.724
1194.244, 85.589
1195.465, 90.493
1196.686, 105.171
1197.907, 99.813
1199.127, 83.510
1200.347, 102.218
1201.567, 99.921
1202.787, 108.799
1204.007, 121.348
1205.226, 140.031
1206.446, 94.078
1207.665, 134.823
1208.884, 123.445
1210.102, 123.062
1211.321, 138.974
1212.539, 150.210
1213.758, 155.810
1214.976, 157.482
1216.193, 160.940
1217.411, 151.619
1218.628, 154.196
1219.846, 155.768
1221.063, 139.334
1222.280, 163.967
1223.496, 144.426
1224.713, 171.117
1225.929, 137.443
1227.145, 130.735
1228.361, 158.128
1229.577, 150.950
1230.793, 160.502
1232.008, 131.913
1233.223, 138.204
1234.438, 119.341
1235.653, 116.562
1236.868, 125.858
1238.082, 141.866
1239.297, 95.232
1240.511, 147.721
1241.725, 92.896
1242.938, 76.729
1244.152, 124.207
1245.365, 88.058
1246.578, 85.675
1247.791, 105.275
1249.004, 97.739
1250.217, 83.214
1251.429, 68.661
1252.642, 65.593
1253.854, 109.561
1255.066, 62.003
1256.277, 81.440
1257.489, 90.867
1258.700, 53.285
1259.911, 58.698
1261.122, 52.835
1262.333, 60.233
1263.544, 62.976
1264.754, 80.004
1265.964, 61.371
1267.174, 50.722
1268.384, 24.066
1269.594, 59.396
1270.803, 53.711
1272.013, 25.017
1273.222, 57.318
1274.431, 6.604
1275.640, 32.873
1276.848, 22.134
1278.057, 46.384
1279.265, 9.623
1280.473, 43.880
1281.681, 9.885
1282.888, 27.537
1284.096, 1.259
1285.303, 27.935
1286.510, 26.121
1287.717, 23.305
1288.924, 2.479
1290.131, 20.643
1291.337, 4.805
1292.543, 28.953
1293.749, 38.095
1294.955, 6.230
1296.161, 37.390
1297.366, 32.475
1298.571, 22.664
1299.777, 21.828
1300.981, 22.082
1302.186, 22.131
1303.391, 10.245
1304.595, 4.311
1305.799, 4.637
1307.003, 4.016
1308.207, 3.566
1309.411, 8.454
1310.614, 11.466
1311.818, 34.507
1313.021, 32.505
1314.224, 13.506
1315.426, 18.529
1316.629, 11.502
1317.831, 22.454
1319.033, 6.402
1320.235, 13.341
1321.437, 13.278
1322.639, 3.184
1323.840, 13.116
1325.042, 1.024
1326.243, 3.659
1327.444, 29.550
1328.644, 33.435
1329.845, 21.242
1331.045, 24.113
1332.245, 63.977
1333.445, 33.837
1334.645, 17.692
1335.845, 41.542
1337.044, 20.386
1338.244, 53.222
1339.443, 14.055
1340.642, 44.880
1341.840, 54.699
1343.039, 51.577
1344.237, 32.385
1345.435, 32.195
1346.633, 12.991
1347.831, 19.984
1349.029, 32.623
1350.226, 35.403
1351.424, 43.180
1352.621, 52.961
1353.818, 59.738
1355.014, 83.510
1356.211, 24.284
1357.407, 52.057
1358.604, 33.237
1359.800, 66.999
1360.995, 58.022
1362.191, 60.341
1363.387, 46.258
1364.582, 64.003
1365.777, 50.744
1366.972, 58.486
1368.167, 31.380
1369.361, 20.101
1370.556, 39.818
1371.750, 27.542
1372.944, 47.218
1374.138, 34.861
1375.331, 42.464
1376.525, 61.601
1377.718, 28.745
1378.911, 38.888
1380.104, 81.045
1381.297, 66.206
1382.490, 63.370
1383.682, 60.543
1384.874, 75.712
1386.066, 54.875
1387.258, 63.031
1388.450, 46.179
1389.641, 59.321
1390.833, 54.459
1392.024, 68.590
1393.215, 41.716
1394.406, 63.739
1395.596, 50.762
1396.787, 66.406
1397.977, 61.850
1399.167, 57.027
1400.357, 61.545
1401.547, 50.613
1402.736, 72.483
1403.925, 46.709
1405.115, 45.972
1406.304, 67.888
1407.492, 57.335
1408.681, 64.635
1409.870, 41.700
1411.058, 71.996
1412.246, 40.006
1413.434, 60.465
1414.622, 39.405
1415.809, 54.106
1416.997, 40.570
1418.184, 43.232
1419.371, 35.045
1420.558, 43.716
1421.744, 34.243
1422.931, 21.183
1424.117, 24.585
1425.303, 0.096
1426.489, 43.413
1427.675, 30.823
1428.861, 75.109
1430.046, 25.738
1431.231, 28.283
1432.416, 46.438
1433.601, 24.729
1434.786, 36.261
1435.970, 47.841
1437.155, 28.254
1438.339, 17.739
1439.523, 22.286
1440.707, 16.877
1441.890, 10.600
1443.074, 27.784
1444.257, 3.031
1445.440, 13.402
1446.623, 22.825
1447.806, 51.172
1448.989, 52.574
1450.171, 46.983
1451.353, 50.360
1452.535, 46.707
1453.717, 14.020
1454.899, 35.299
1456.080, 38.509
1457.262, 8.724
1458.443, 27.912
1459.624, 27.110
1460.805, 23.294
1461.985, 51.467
1463.166, 18.656
1464.346, 53.924
1465.526, 50.242
1466.706, 40.586
1467.886, 45.991
1469.065, 41.440
1470.245, 35.846
1471.424, 48.644
1472.603, 60.123
1473.782, 36.591
1474.960, 40.070
1476.139, 27.535
1477.317, 48.015
1478.495, 31.325
1479.673, 32.405
1480.851, 64.317
1482.029, 69.544
1483.206, 47.976
1484.383, 4.407
1485.560, 28.676
1486.737, 15.114
1487.914, 72.284
1489.091, 51.745
1490.267, 5.200
1491.443, 44.698
1492.619, 57.207
1493.795, 22.719
1494.971, 70.269
1496.146, 25.821
1497.322, 23.377
1498.497, 31.960
1499.672, 4.388
1500.846, 27.724
1502.021, 41.331
1503.196, 29.060
1504.370, 59.160
1505.544, 38.895
1506.718, 42.656
1507.892, 29.447
1509.065, 0.273
1510.238, 16.285
1511.412, 37.407
1512.585, 10.509
1513.758, 6.175
1514.930, 22.766
1516.103, 0.000
##END=



