##NAMES=Forsterite
##RRUFFID=R040057
##IDEAL CHEMISTRY=Mg_2_SiO_4_
##LOCALITY=Trudy's mine, San Carlos, Gila County, Arizona, USA
##OWNER=RRUFF
##SOURCE=Bob Downs
##DESCRIPTION=Dark green crystal fragments from xenoliths in a basalt flow
##STATUS=The identification of this mineral has been confirmed by X-ray diffraction and chemical analysis
##URL=rruff.info/R040057
##MEASURED CHEMISTRY=(Mg_1.67_Fe_0.32_Ni_0.01_)_Î£=2_Si_1.00_O_4_; trace amounts of Mn and Ca
##PIN_ID=L00449
##ORIENTATION=Laser parallel to b* (0 1 0). Fiducial mark perpendicular to laser is parallel to a [1 0 0]
90.587, 0.000
91.981, 1.165
93.375, 60.358
94.768, 65.386
96.161, 0.997
97.554, 24.956
98.947, 40.362
100.340, 67.134
101.732, 70.282
103.124, 19.810
104.516, 79.622
105.908, 75.765
107.300, 93.322
108.691, 132.619
110.082, 118.248
111.473, 109.547
112.864, 158.580
114.254, 282.402
115.644, 386.055
117.034, 403.862
118.424, 316.452
119.813, 233.031
121.203, 221.257
122.592, 222.529
123.981, 161.209
125.369, 129.790
126.758, 85.931
128.146, 88.505
129.534, 52.488
130.922, 99.980
132.309, 36.229
133.696, 38.518
135.083, 93.843
136.470, 82.200
137.857, 69.585
139.243, 69.996
140.630, 49.082
142.016, 42.888
143.401, 22.366
144.787, 7.863
146.172, 12.376
147.557, 15.905
148.942, 1.443
150.327, 21.009
151.711, 30.453
153.096, 5.892
154.480, 16.676
155.863, 6.248
157.247, 45.823
158.630, 48.403
160.013, 8.985
161.396, 45.573
162.779, 58.194
164.161, 49.852
165.544, 4.436
166.926, 48.334
168.308, 25.247
169.689, 49.237
171.070, 54.253
172.452, 65.256
173.833, 104.243
175.213, 112.224
176.594, 56.197
177.974, 137.161
179.354, 232.121
180.734, 67.073
182.114, 132.019
183.493, 103.958
184.872, 117.894
186.251, 113.830
187.630, 90.766
189.008, 108.702
190.387, 146.635
191.765, 89.571
193.143, 114.510
194.520, 114.464
195.898, 89.415
197.275, 95.361
198.652, 145.302
200.029, 153.235
201.405, 162.156
202.782, 187.065
204.158, 273.932
205.534, 321.773
206.909, 335.604
208.285, 457.427
209.660, 565.244
211.035, 565.051
212.410, 728.849
213.784, 879.640
215.159, 836.425
216.533, 915.203
217.907, 950.976
219.281, 900.742
220.654, 867.504
222.027, 858.261
223.400, 806.014
224.773, 760.765
226.146, 751.514
227.518, 790.265
228.891, 733.010
230.263, 700.752
231.634, 738.711
233.006, 692.047
234.377, 685.479
235.748, 581.872
237.119, 560.295
238.490, 565.944
239.860, 467.731
241.231, 404.965
242.601, 403.039
243.970, 300.469
245.340, 313.267
246.709, 215.005
248.079, 275.810
249.448, 189.813
250.816, 193.984
252.185, 161.603
253.553, 96.139
254.921, 116.583
256.289, 85.613
257.657, 119.466
259.024, 126.333
260.391, 87.203
261.758, 95.912
263.125, 92.780
264.492, 117.644
265.858, 108.547
267.224, 155.351
268.590, 95.196
269.956, 105.033
271.321, 85.859
272.687, 131.672
274.052, 74.472
275.416, 164.262
276.781, 166.299
278.146, 104.154
279.510, 171.161
280.874, 150.309
282.237, 228.326
283.601, 184.321
284.964, 200.337
286.327, 284.237
287.690, 248.235
289.053, 306.208
290.416, 367.309
291.778, 369.459
293.140, 507.586
294.502, 532.668
295.863, 622.657
297.225, 668.710
298.586, 655.607
299.947, 597.381
301.308, 508.231
302.668, 502.149
304.029, 541.044
305.389, 536.736
306.749, 478.410
308.108, 564.104
309.468, 619.561
310.827, 811.157
312.186, 936.655
313.545, 1101.054
314.903, 1380.234
316.262, 1581.706
317.620, 1894.844
318.978, 2087.516
320.336, 2259.971
321.693, 2273.550
323.051, 2285.133
324.408, 2128.685
325.765, 2130.274
327.121, 2037.896
328.478, 1858.468
329.834, 1840.722
331.190, 1787.308
332.546, 1724.861
333.902, 1572.438
335.257, 1446.008
336.612, 1284.571
337.967, 1062.133
339.322, 912.706
340.677, 706.286
342.031, 541.862
343.385, 504.438
344.739, 419.012
346.093, 312.591
347.446, 270.172
348.799, 223.764
350.153, 210.380
351.505, 199.015
352.858, 131.671
354.210, 148.337
355.563, 166.018
356.915, 145.706
358.267, 87.410
359.618, 90.120
360.969, 99.828
362.321, 81.541
363.672, 90.255
365.022, 101.961
366.373, 103.663
367.723, 102.356
369.073, 73.042
370.423, 53.718
371.773, 25.401
373.122, 24.075
374.471, 24.740
375.821, 12.603
377.169, 36.043
378.518, 11.684
379.866, 6.318
381.215, 41.942
382.563, 49.555
383.910, 2.841
385.258, 32.250
386.605, 27.319
387.952, 20.877
389.299, 45.425
390.646, 4.040
391.992, 13.518
393.339, 25.012
394.685, 27.526
396.031, 24.069
397.376, 19.629
398.722, 12.216
400.067, 0.823
401.412, 3.448
402.757, 20.898
404.101, 40.229
405.446, 8.462
406.790, 36.810
408.134, 17.051
409.478, 80.270
410.821, 84.471
412.165, 81.656
413.508, 173.826
414.851, 183.986
416.193, 179.134
417.536, 253.271
418.878, 292.396
420.220, 332.507
421.562, 375.897
422.904, 397.693
424.245, 410.767
425.586, 403.828
426.927, 352.876
428.268, 278.911
429.609, 169.932
430.949, 149.940
432.289, 153.936
433.629, 123.918
434.969, 160.886
436.309, 108.841
437.648, 46.782
438.987, 88.708
440.326, 50.619
441.665, 27.515
443.003, 45.394
444.342, 48.256
445.680, 40.677
447.018, 47.932
448.355, 30.747
449.693, 33.545
451.030, 19.326
452.367, 15.522
453.704, 16.834
455.041, 20.560
456.377, 6.731
457.713, 22.951
459.049, 41.615
460.385, 70.262
461.721, 51.894
463.056, 38.509
464.391, 41.108
465.726, 87.689
467.061, 91.255
468.395, 74.805
469.730, 114.440
471.064, 87.471
472.398, 143.977
473.731, 149.704
475.065, 83.180
476.398, 136.103
477.731, 90.620
479.064, 74.705
480.397, 119.089
481.729, 129.065
483.062, 155.441
484.394, 106.176
485.725, 120.327
487.057, 112.286
488.389, 134.098
489.720, 147.729
491.051, 199.332
492.382, 155.904
493.712, 147.100
495.043, 189.407
496.373, 181.718
497.703, 190.169
499.032, 242.794
500.362, 181.076
501.691, 200.130
503.020, 179.800
504.349, 195.198
505.678, 210.147
507.007, 201.263
508.335, 249.685
509.663, 312.231
510.991, 284.510
512.319, 358.254
513.646, 421.196
514.973, 351.764
516.300, 448.259
517.627, 539.823
518.954, 521.815
520.280, 553.304
521.607, 654.114
522.933, 657.235
524.259, 740.247
525.584, 863.067
526.910, 983.858
528.235, 1222.820
529.560, 1495.516
530.885, 1866.493
532.209, 2214.513
533.534, 2798.122
534.858, 3354.937
536.182, 3961.052
537.506, 4377.395
538.829, 4493.429
540.152, 4183.634
541.476, 3613.124
542.799, 2778.520
544.121, 2237.338
545.444, 1723.275
546.766, 1349.459
548.088, 1072.564
549.410, 893.778
550.732, 771.350
552.053, 620.401
553.375, 568.590
554.696, 547.588
556.017, 501.770
557.337, 383.198
558.658, 379.060
559.978, 327.605
561.298, 338.953
562.618, 306.781
563.938, 305.712
565.257, 339.654
566.576, 261.526
567.895, 317.225
569.214, 279.235
570.533, 344.240
571.851, 326.210
573.170, 374.246
574.488, 387.260
575.805, 389.255
577.123, 378.823
578.440, 283.182
579.758, 322.115
581.075, 279.028
582.391, 252.920
583.708, 269.793
585.024, 169.645
586.341, 218.478
587.657, 220.294
588.972, 205.082
590.288, 275.854
591.603, 153.606
592.918, 155.339
594.233, 189.052
595.548, 210.745
596.863, 231.228
598.177, 244.653
599.491, 256.512
600.805, 261.350
602.119, 263.679
603.432, 273.999
604.746, 260.267
606.059, 292.546
607.372, 249.692
608.685, 294.842
609.997, 258.842
611.309, 217.773
612.621, 224.699
613.933, 245.652
615.245, 236.676
616.557, 227.858
617.868, 221.692
619.179, 210.869
620.490, 155.951
621.801, 186.943
623.111, 159.938
624.421, 187.115
625.731, 146.288
627.041, 103.373
628.351, 39.602
629.660, 146.699
630.970, 67.604
632.279, 210.059
633.588, 40.083
634.896, 3.785
636.205, 28.206
637.513, 2.894
638.821, 28.855
640.129, 4.028
641.437, 43.093
642.744, 18.961
644.051, 24.864
645.358, 30.709
646.665, 11.420
647.972, 27.587
649.278, 44.202
650.584, 10.973
651.890, 91.720
653.196, 85.450
654.502, 3.165
655.807, 48.147
657.113, 27.514
658.418, 8.078
659.722, 3.354
661.027, 0.186
662.331, 25.301
663.636, 12.829
664.940, 50.389
666.244, 101.000
667.547, 81.690
668.851, 89.984
670.154, 46.277
671.457, 73.154
672.760, 41.093
674.062, 75.076
675.365, 35.122
676.667, 12.207
677.969, 34.320
679.271, 24.473
680.572, 25.342
681.874, 5.856
683.175, 74.923
684.476, 15.691
685.777, 63.445
687.077, 53.811
688.378, 24.888
689.678, 7.576
690.978, 1.747
692.278, 7.085
693.577, 11.726
694.877, 10.518
696.176, 24.807
697.475, 6.411
698.774, 27.862
700.072, 58.591
701.371, 37.170
702.669, 40.752
703.967, 40.326
705.265, 120.893
706.562, 117.452
707.860, 1.007
709.157, 111.559
710.454, 30.112
711.751, 127.669
713.047, 110.227
714.344, 105.786
715.640, 136.344
716.936, 122.183
718.232, 186.451
719.527, 128.998
720.823, 126.540
722.118, 136.082
723.413, 173.618
724.708, 159.150
726.002, 188.677
727.297, 111.199
728.591, 228.717
729.885, 227.229
731.179, 161.737
732.472, 166.240
733.766, 187.739
735.059, 219.233
736.352, 275.724
737.645, 253.211
738.937, 283.693
740.230, 198.173
741.522, 274.649
742.814, 357.122
744.106, 409.596
745.397, 341.069
746.689, 342.539
747.980, 387.009
749.271, 408.478
750.562, 372.945
751.853, 385.411
753.143, 498.875
754.433, 479.339
755.723, 509.802
757.013, 564.267
758.303, 512.731
759.592, 610.196
760.881, 590.662
762.170, 619.129
763.459, 657.596
764.748, 703.072
766.036, 752.188
767.325, 766.036
768.613, 852.525
769.901, 885.016
771.188, 906.519
772.476, 957.025
773.763, 955.535
775.050, 1080.048
776.337, 1092.564
777.624, 1184.083
778.910, 1162.614
780.196, 1313.149
781.482, 1287.686
782.768, 1354.125
784.054, 1473.165
785.339, 1622.720
786.625, 1694.040
787.910, 1848.601
789.195, 1874.709
790.479, 1997.223
791.764, 2124.161
793.048, 2294.785
794.332, 2566.813
795.616, 2799.430
796.900, 3077.683
798.183, 3212.525
799.467, 3754.553
800.750, 4187.719
802.033, 4636.057
803.316, 5454.420
804.598, 6075.805
805.880, 7176.572
807.163, 8409.219
808.445, 9690.859
809.726, 11462.351
811.008, 14169.677
812.289, 17154.346
813.570, 21909.242
814.851, 27659.510
816.132, 35331.047
817.413, 43395.039
818.693, 52764.844
819.973, 58783.344
821.253, 60287.703
822.533, 58118.324
823.813, 50677.477
825.092, 43172.418
826.371, 35867.727
827.650, 29462.100
828.929, 25254.402
830.208, 21381.264
831.486, 18388.627
832.764, 16208.663
834.042, 14655.379
835.320, 13518.205
836.598, 12829.220
837.875, 12337.264
839.152, 11994.133
840.429, 12389.212
841.706, 12431.480
842.983, 13045.469
844.259, 14581.421
845.536, 15663.159
846.812, 17974.627
848.088, 20089.877
849.363, 22487.258
850.639, 24803.412
851.914, 25643.512
853.189, 25201.727
854.464, 24044.998
855.739, 21644.299
857.013, 18608.611
858.288, 15384.940
859.562, 13424.289
860.836, 11165.658
862.110, 9022.935
863.383, 7750.339
864.656, 6448.761
865.930, 5445.200
867.203, 4775.659
868.475, 4101.138
869.748, 3416.636
871.020, 3059.151
872.292, 2698.687
873.564, 2323.240
874.836, 2050.812
876.108, 1838.403
877.379, 1762.014
878.650, 1563.643
879.922, 1337.296
881.192, 1322.970
882.463, 1128.662
883.733, 977.375
885.004, 882.108
886.274, 878.860
887.544, 819.632
888.813, 753.424
890.083, 645.235
891.352, 577.067
892.621, 580.919
893.890, 584.791
895.159, 450.682
896.427, 427.531
897.695, 525.549
898.964, 415.502
900.232, 392.259
901.499, 452.252
902.767, 394.267
904.034, 382.301
905.301, 364.356
906.568, 357.510
907.835, 414.529
909.102, 378.646
910.368, 444.784
911.634, 476.009
912.900, 450.189
914.166, 544.390
915.432, 472.611
916.697, 482.107
917.962, 589.370
919.227, 534.788
920.492, 589.092
921.757, 531.418
923.021, 554.673
924.285, 496.040
925.550, 495.535
926.813, 544.168
928.077, 557.598
929.341, 567.049
930.604, 689.457
931.867, 651.949
933.130, 704.463
934.393, 801.997
935.655, 872.256
936.918, 969.491
938.180, 1100.435
939.442, 1198.056
940.703, 1329.697
941.965, 1501.667
943.226, 1601.362
944.488, 1851.081
945.749, 2087.406
947.009, 2399.477
948.270, 2683.525
949.530, 3050.158
950.791, 3411.351
952.051, 3706.025
953.311, 3958.931
954.570, 4442.389
955.830, 4508.361
957.089, 4587.859
958.348, 4369.149
959.607, 4350.715
960.866, 4102.776
962.124, 3821.185
963.383, 3620.147
964.641, 3329.456
965.899, 3109.652
967.156, 2646.829
968.414, 2355.077
969.671, 2158.355
970.928, 1856.680
972.185, 1738.027
973.442, 1341.424
974.699, 1210.868
975.955, 1031.366
977.211, 823.900
978.468, 812.011
979.723, 685.625
980.979, 584.283
982.234, 641.522
983.490, 437.237
984.745, 453.984
986.000, 462.894
987.254, 317.691
988.509, 396.335
989.763, 232.183
991.017, 249.808
992.271, 250.875
993.525, 222.804
994.779, 308.114
996.032, 261.087
997.285, 245.080
998.538, 151.110
999.791, 319.167
1001.044, 165.291
1002.296, 293.387
1003.548, 161.501
1004.800, 143.635
1006.052, 138.784
1007.304, 65.955
1008.555, 99.146
1009.807, 96.735
1011.058, 69.961
1012.309, 46.214
1013.559, 61.484
1014.810, 56.770
1016.060, 53.365
1017.310, 39.392
1018.560, 67.204
1019.810, 71.553
1021.060, 107.926
1022.309, 56.313
1023.558, 95.715
1024.807, 60.132
1026.056, 70.568
1027.305, 89.022
1028.553, 123.495
1029.801, 68.162
1031.049, 75.667
1032.297, 48.184
1033.545, 124.905
1034.793, 88.448
1036.040, 106.325
1037.287, 68.580
1038.534, 113.175
1039.781, 138.789
1041.027, 144.557
1042.274, 41.066
1043.520, 86.725
1044.766, 40.398
1046.012, 36.917
1047.257, 6.219
1048.503, 115.488
1049.748, 31.792
1050.993, 23.935
1052.238, 63.672
1053.483, 38.420
1054.727, 63.180
1055.971, 73.951
1057.216, 6.731
1058.459, 19.523
1059.703, 45.323
1060.947, 3.865
1062.190, 7.956
1063.433, 4.786
1064.676, 62.625
1065.919, 38.526
1067.162, 33.320
1068.404, 34.825
1069.646, 8.028
1070.888, 99.891
1072.130, 28.236
1073.372, 24.636
1074.613, 4.483
1075.855, 8.596
1077.096, 8.296
1078.337, 91.196
1079.578, 47.896
1080.818, 80.001
1082.059, 32.906
1083.299, 71.818
1084.539, 41.263
1085.779, 49.647
1087.018, 52.564
1088.258, 43.488
1089.497, 54.417
1090.736, 7.646
1091.975, 9.292
1093.213, 54.235
1094.452, 19.815
1095.690, 17.131
1096.928, 26.917
1098.166, 74.972
1099.404, 6.055
1100.642, 16.138
1101.879, 26.777
1103.116, 30.304
1104.353, 52.606
1105.590, 66.461
1106.827, 2.575
1108.063, 28.688
1109.299, 27.886
1110.536, 78.193
1111.771, 33.349
1113.007, 19.468
1114.243, 38.501
1115.478, 51.675
1116.713, 92.125
1117.948, 47.980
1119.183, 8.981
1120.418, 99.786
1121.652, 237.592
1122.886, 281.436
1124.120, 278.890
1125.354, 63.732
1126.588, 2.116
1127.821, 64.027
1129.055, 62.828
1130.288, 1.373
1131.521, 125.420
1132.753, 45.212
1133.986, 29.975
1135.218, 116.598
1136.450, 23.396
1137.682, 214.642
1138.914, 2.355
1140.146, 9.672
1141.377, 42.340
1142.609, 29.912
1143.840, 66.883
1145.071, 113.712
1146.301, 26.110
1147.532, 55.928
1148.762, 21.828
1149.992, 100.696
1151.222, 77.723
1152.452, 49.012
1153.682, 59.821
1154.911, 99.633
1156.140, 61.358
1157.369, 13.714
1158.598, 110.572
1159.827, 181.000
1161.055, 62.707
1162.284, 45.537
1163.512, 155.973
1164.740, 145.576
1165.967, 15.221
1167.195, 68.852
1168.422, 94.708
1169.650, 99.344
1170.877, 69.039
1172.103, 80.926
1173.330, 76.393
1174.557, 115.994
1175.783, 97.698
1177.009, 6.855
1178.235, 99.851
1179.461, 67.348
1180.686, 31.837
1181.912, 180.314
1183.137, 123.064
1184.362, 90.560
1185.587, 131.695
1186.811, 78.891
1188.036, 116.319
1189.260, 131.518
1190.484, 84.013
1191.708, 56.028
1192.932, 75.586
1194.155, 71.352
1195.378, 79.641
1196.602, 144.290
1197.825, 93.377
1199.047, 166.779
1200.270, 148.372
1201.492, 244.694
1202.715, 249.671
1203.937, 196.409
1205.159, 227.785
1206.380, 269.063
1207.602, 248.460
1208.823, 132.673
1210.044, 236.918
1211.265, 217.152
1212.486, 165.501
1213.707, 261.460
1214.927, 207.661
1216.147, 197.835
1217.367, 203.013
1218.587, 195.718
1219.807, 214.966
1221.027, 168.111
1222.246, 124.144
1223.465, 165.041
1224.684, 217.150
1225.903, 227.247
1227.121, 286.451
1228.340, 241.648
1229.558, 188.711
1230.776, 185.761
1231.994, 104.095
1233.212, 210.120
1234.429, 153.133
1235.646, 188.132
1236.864, 251.117
1238.081, 207.788
1239.297, 234.755
1240.514, 211.711
1241.730, 215.795
1242.947, 118.733
1244.163, 113.427
1245.378, 273.550
1246.594, 162.123
1247.810, 122.425
1249.025, 244.407
1250.240, 138.748
1251.455, 84.600
1252.670, 188.938
1253.885, 163.488
1255.099, 29.771
1256.313, 77.570
1257.527, 156.036
1258.741, 70.976
1259.955, 22.411
1261.168, 126.309
1262.382, 92.060
1263.595, 69.743
1264.808, 49.396
1266.021, 97.014
1267.233, 86.654
1268.446, 76.260
1269.658, 0.842
1270.870, 78.402
1272.082, 41.934
1273.294, 41.915
1274.505, 110.415
1275.716, 94.891
1276.928, 115.804
1278.139, 114.248
1279.349, 84.667
1280.560, 19.931
1281.770, 49.315
1282.981, 11.138
1284.191, 6.193
1285.401, 13.735
1286.610, 42.835
1287.820, 81.090
1289.029, 10.047
1290.239, 56.152
1291.448, 35.665
1292.656, 6.489
1293.865, 47.624
1295.073, 50.698
1296.282, 24.805
1297.490, 35.894
1298.698, 56.969
1299.906, 6.028
1301.113, 8.066
1302.320, 20.085
1303.528, 48.708
1304.735, 21.306
1305.942, 70.654
1307.148, 50.600
1308.355, 15.531
1309.561, 112.444
1310.767, 80.343
1311.973, 80.750
1313.179, 13.380
1314.384, 76.465
1315.590, 61.292
1316.795, 41.104
1318.000, 11.899
1319.205, 7.596
1320.410, 4.662
1321.614, 23.167
1322.819, 29.707
1324.023, 103.408
1325.227, 150.094
1326.431, 121.575
1327.634, 44.231
1328.838, 6.873
1330.041, 5.262
1331.244, 6.456
1332.447, 7.678
1333.650, 15.240
1334.852, 73.786
1336.055, 22.320
1337.257, 94.838
1338.459, 18.655
1339.661, 167.833
1340.862, 43.309
1342.064, 26.771
1343.265, 79.282
1344.466, 45.346
1345.667, 118.093
1346.868, 68.509
1348.068, 117.913
1349.269, 72.306
1350.469, 141.688
1351.669, 57.733
1352.869, 153.352
1354.069, 205.368
1355.268, 216.121
1356.468, 62.072
1357.667, 121.271
1358.866, 94.728
1360.065, 64.849
1361.263, 153.547
1362.462, 23.435
1363.660, 110.465
1364.858, 110.655
1366.056, 90.769
1367.254, 143.046
1368.451, 108.352
1369.649, 117.595
1370.846, 78.822
1372.043, 62.048
1373.240, 154.739
1374.436, 141.922
1375.633, 163.119
1376.829, 184.274
1378.025, 160.317
1379.221, 105.273
1380.417, 170.146
1381.613, 142.046
1382.808, 121.926
1384.003, 163.793
1385.199, 155.667
1386.393, 133.545
1387.588, 159.411
1388.783, 149.260
1389.977, 177.387
1391.171, 51.220
1392.365, 63.632
1393.559, 236.504
1394.753, 119.094
1395.946, 209.941
1397.140, 117.863
1398.333, 210.223
1399.526, 94.607
1400.719, 153.368
1401.911, 144.090
1403.104, 173.605
1404.296, 120.091
1405.488, 242.293
1406.680, 159.377
1407.872, 85.275
1409.063, 312.180
1410.255, 73.753
1411.446, 260.611
1412.637, 114.250
1413.828, 205.506
1415.018, 182.155
1416.209, 274.165
1417.399, 93.470
1418.589, 134.658
1419.779, 160.696
1420.969, 305.243
1422.159, 86.348
1423.348, 183.956
1424.537, 177.146
1425.726, 188.911
1426.915, 154.034
1428.104, 239.995
1429.293, 216.717
1430.481, 189.768
1431.669, 330.857
1432.857, 213.482
1434.045, 149.832
1435.233, 145.501
1436.420, 256.174
1437.608, 245.713
1438.795, 271.486
1439.982, 298.020
1441.169, 226.745
1442.355, 296.239
1443.542, 331.947
1444.728, 225.570
1445.914, 333.183
1447.100, 281.667
1448.286, 261.986
1449.472, 241.515
1450.657, 378.017
1451.842, 326.501
1453.027, 426.941
1454.212, 389.328
1455.397, 307.657
1456.581, 326.935
1457.766, 320.518
1458.950, 299.732
1460.134, 357.902
1461.318, 234.038
1462.501, 269.109
1463.685, 345.180
1464.868, 277.285
1466.051, 259.471
1467.234, 170.589
1468.417, 181.785
1469.600, 144.499
1470.782, 227.293
1471.965, 131.559
1473.147, 182.895
1474.329, 229.210
1475.510, 186.644
1476.692, 155.145
1477.873, 256.755
1479.055, 213.381
1480.236, 286.003
1481.416, 135.618
1482.597, 303.228
1483.778, 182.863
1484.958, 139.497
1486.138, 132.141
1487.318, 172.789
1488.498, 107.447
1489.678, 161.124
1490.857, 44.854
1492.037, 125.622
1493.216, 178.442
1494.395, 108.316
1495.574, 81.248
1496.752, 46.237
1497.931, 80.287
1499.109, 6.600
1500.287, 41.568
1501.465, 1.786
1502.643, 25.063
1503.820, 56.409
1504.998, 1.162
1506.175, 39.359
1507.352, 70.988
1508.529, 62.729
1509.706, 27.596
1510.882, 83.809
1512.059, 43.878
1513.235, 64.610
1514.411, 2.203
1515.587, 63.490
1516.762, 24.888
1517.938, 51.053
1519.113, 39.142
1520.288, 22.180
1521.463, 0.000
##END=



