##NAMES=Forsterite
##RRUFFID=R060539
##IDEAL CHEMISTRY=Mg_2_SiO_4_
##LOCALITY=Sri Lanka
##OWNER=RRUFF
##SOURCE=Gemological Institute of America
##DESCRIPTION=Brown cut gemstone
##STATUS=The identification of this mineral has been confirmed by X-ray diffraction and chemical analysis
##URL=rruff.info/R060539
##MEASURED CHEMISTRY=(Mg_1.67_Fe_0.33_)_Î£=2_Si_1.00_O_4_; trace amounts of Mn and Ca
##PIN_ID=L01564
##ORIENTATION=Laser parallel to -b* (0 -1 0). Fiducial mark perpendicular to laser is parallel to c [0 0 1]
138.5980, 0.0000000E+00
139.8290, 4.242310
141.0600, 28.11670
142.2910, 61.02844
143.5220, 38.15405
144.7530, 43.89490
145.9830, 25.05322
147.2130, 76.81860
148.4440, 70.41113
149.6730, 40.76282
150.9030, 100.9806
152.1330, 101.7997
153.3630, 113.0474
154.5920, 53.23389
155.8210, 68.14868
157.0500, 63.23645
158.2790, 82.58960
159.5080, 90.15234
160.7360, 131.3042
161.9650, 127.5004
163.1930, 96.21521
164.4210, 106.0020
165.6490, 45.85205
166.8770, 142.7587
168.1040, 69.71924
169.3320, 44.74695
170.5590, 93.85779
171.7860, 61.04919
173.0130, 62.30933
174.2400, 50.62659
175.4670, 26.99097
176.6930, 19.39612
177.9200, 43.16138
179.1460, 24.31750
180.3720, 1.180054
181.5980, 5.648071
182.8230, 37.90662
184.0490, 59.48120
185.2740, 46.07239
186.5000, 64.67407
187.7250, 79.28333
188.9500, 70.89893
190.1740, 104.5201
191.3990, 110.1462
192.6230, 135.7767
193.8480, 98.41089
195.0720, 78.05969
196.2960, 101.7318
197.5200, 112.4563
198.7430, 130.3845
199.9670, 189.4922
201.1900, 177.7368
202.4130, 172.9982
203.6360, 229.3264
204.8590, 228.6052
206.0820, 250.8588
207.3050, 298.0747
208.5270, 288.2545
209.7490, 343.3999
210.9710, 341.5126
212.1930, 387.6012
213.4150, 447.6907
214.6370, 402.7811
215.8580, 482.8712
217.0790, 390.9595
218.3010, 490.0439
219.5210, 460.1223
220.7420, 430.1936
221.9630, 470.2576
223.1830, 354.3109
224.4040, 371.3528
225.6240, 399.3849
226.8440, 384.4062
228.0640, 386.7633
229.2840, 376.1200
230.5030, 352.3956
231.7230, 344.3380
232.9420, 310.2104
234.1610, 302.0536
235.3800, 326.8882
236.5990, 256.7202
237.8170, 310.5460
239.0360, 229.3654
240.2540, 222.1812
241.4720, 158.9932
242.6900, 170.8002
243.9080, 199.6067
245.1250, 158.4120
246.3430, 159.2112
247.5600, 120.0037
248.7770, 149.7924
249.9940, 159.8726
251.2110, 152.1240
252.4280, 129.4072
253.6450, 151.7393
254.8610, 177.3821
256.0770, 124.5387
257.2930, 147.3785
258.5090, 225.1799
259.7250, 210.0872
260.9400, 204.9308
262.1560, 160.2883
263.3710, 157.8503
264.5860, 121.0223
265.8010, 156.9299
267.0160, 78.09668
268.2310, 176.6128
269.4450, 147.0005
270.6600, 188.1700
271.8740, 144.6954
273.0880, 102.9993
274.3020, 221.2778
275.5150, 160.5525
276.7290, 175.8229
277.9420, 116.0891
279.1550, 134.3514
280.3680, 162.6101
281.5810, 173.8656
282.7940, 178.1182
284.0070, 203.3684
285.2190, 252.5247
286.4310, 363.7844
287.6430, 393.0090
288.8550, 464.2225
290.0670, 578.4180
291.2790, 620.5876
292.4900, 723.7297
293.7020, 825.8457
294.9130, 828.9294
296.1240, 917.9688
297.3350, 990.9707
298.5450, 982.9360
299.7560, 1006.877
300.9660, 936.7926
302.1760, 892.6887
303.3860, 884.6370
304.5960, 820.4119
305.8060, 706.2329
307.0150, 581.9402
308.2250, 550.7190
309.4340, 468.3669
310.6430, 476.1758
311.8520, 496.9457
313.0610, 500.6826
314.2700, 439.3425
315.4780, 400.9863
316.6860, 436.6550
317.8940, 432.2955
319.1020, 437.8940
320.3100, 414.4336
321.5180, 384.8409
322.7250, 394.1438
323.9330, 297.2427
325.1400, 315.4814
326.3470, 324.3016
327.5540, 255.8076
328.7600, 304.2960
329.9670, 268.8740
331.1730, 281.5400
332.3800, 250.4445
333.5860, 289.1317
334.7920, 303.7629
335.9970, 254.3752
337.2030, 250.0232
338.4080, 312.6484
339.6140, 247.4012
340.8190, 301.2408
342.0240, 204.8846
343.2290, 296.6056
344.4330, 243.2643
345.6380, 241.8939
346.8420, 261.8632
348.0460, 250.6802
349.2500, 194.5103
350.4540, 208.2871
351.6580, 165.8328
352.8610, 180.3439
354.0650, 141.9471
355.2680, 150.5374
356.4710, 128.2903
357.6740, 103.8550
358.8760, 51.58679
360.0790, 59.23462
361.2810, 43.71899
362.4840, 33.24487
363.6860, 34.69775
364.8880, 33.14343
366.0900, 26.25818
367.2910, 29.08716
368.4930, 9.510742
369.6940, 11.93872
370.8950, 9.653320
372.0960, 5.256958
373.2970, 52.87097
374.4980, 9.492188
375.6980, 29.15283
376.8980, 48.81409
378.0990, 30.49683
379.2990, 8.804077
380.4980, 15.90271
381.6980, 39.62146
382.8980, 3.642944
384.0970, 38.09888
385.2960, 0.8471680
386.4950, 26.60193
387.6940, 5.639404
388.8930, 18.88367
390.0920, 22.12158
391.2900, 30.56958
392.4880, 7.619019
393.6860, 12.87256
394.8840, 18.12097
396.0820, 18.63342
397.2800, 2.395874
398.4770, 12.83484
399.6750, 1.932251
400.8720, 37.28784
402.0690, 55.48047
403.2660, 59.64404
404.4620, 78.79724
405.6590, 134.9384
406.8550, 115.0745
408.0510, 177.1984
409.2480, 160.3224
410.4430, 224.4429
411.6390, 197.5358
412.8350, 212.6422
414.0300, 207.7393
415.2250, 175.8430
416.4200, 209.9419
417.6150, 177.0530
418.8100, 191.1720
420.0050, 234.2954
421.1990, 246.4176
422.3940, 250.5547
423.5880, 263.6982
424.7820, 308.8525
425.9750, 396.0214
427.1690, 457.1851
428.3630, 521.3535
429.5560, 491.5166
430.7490, 586.6824
431.9420, 545.8481
433.1350, 568.0117
434.3280, 530.1726
435.5200, 516.3240
436.7130, 434.4658
437.9050, 323.6079
439.0970, 290.7402
440.2890, 232.8629
441.4810, 189.9789
442.6720, 177.0852
443.8640, 115.1824
445.0550, 96.27002
446.2460, 68.34814
447.4370, 78.41626
448.6280, 43.47510
449.8180, 62.52380
451.0090, 45.56323
452.1990, 77.59253
453.3890, 39.61279
454.5790, 22.62268
455.7690, 57.62183
456.9590, 74.61108
458.1480, 54.59094
459.3380, 74.56104
460.5270, 73.52148
461.7160, 85.47229
462.9050, 117.4142
464.0940, 84.34680
465.2820, 114.2709
466.4700, 73.18689
467.6590, 135.1079
468.8470, 63.02942
470.0350, 75.94446
471.2220, 146.8544
472.4100, 94.75488
473.5970, 54.64600
474.7850, 20.52600
475.9720, 65.39355
477.1590, 78.25049
478.3460, 82.09668
479.5320, 72.93274
480.7190, 77.75793
481.9050, 46.57275
483.0910, 26.37549
484.2770, 71.16577
485.4630, 51.94495
486.6490, 65.71265
487.8340, 71.46875
489.0200, 9.213867
490.2050, 25.94495
491.3900, 23.66284
492.5750, 30.36768
493.7600, 84.05981
494.9440, 107.7412
496.1290, 67.41162
497.3130, 69.07068
498.4970, 28.71826
499.6810, 72.35266
500.8650, 30.97583
502.0480, 49.45667
503.2320, 86.95703
504.4150, 75.38110
505.5980, 109.7498
506.7810, 93.11328
507.9640, 73.45898
509.1460, 142.7640
510.3290, 112.0697
511.5110, 88.21594
512.6930, 108.3715
513.8750, 148.7451
515.0570, 130.3848
516.2390, 195.0261
517.4210, 136.1173
518.6020, 137.2284
519.7830, 143.0964
520.9640, 213.1053
522.1450, 157.1484
523.3260, 168.2062
524.5060, 208.0566
525.6870, 164.3495
526.8670, 190.5801
528.0470, 143.8345
529.2270, 254.6321
530.4070, 229.9797
531.5870, 259.2471
532.7660, 353.0282
533.9450, 321.5216
535.1240, 333.8398
536.3030, 370.5724
537.4820, 352.8922
538.6610, 389.2290
539.8390, 414.8252
541.0180, 330.8354
542.1960, 351.1401
543.3740, 296.4780
544.5520, 187.3795
545.7290, 249.7349
546.9070, 191.7379
548.0840, 218.8865
549.2620, 148.5264
550.4390, 197.5455
551.6160, 172.4388
552.7920, 130.4662
553.9690, 200.7185
555.1450, 162.9561
556.3220, 170.6968
557.4980, 191.0249
558.6740, 189.0337
559.8490, 260.9860
561.0250, 266.1338
562.2000, 300.9133
563.3760, 306.5344
564.5510, 308.0995
565.7260, 402.7471
566.9010, 418.2906
568.0750, 466.3250
569.2500, 562.5217
570.4240, 606.1698
571.5980, 653.8469
572.7720, 762.9188
573.9460, 809.3232
575.1200, 841.6890
576.2930, 952.6077
577.4670, 1067.535
578.6400, 1096.961
579.8130, 1156.921
580.9860, 1163.081
582.1590, 1176.303
583.3310, 1156.052
584.5040, 1108.601
585.6760, 1073.523
586.8480, 1031.226
588.0200, 1013.838
589.1920, 985.4755
590.3630, 946.9512
591.5350, 971.4910
592.7060, 1086.944
593.8770, 1077.515
595.0480, 1158.912
596.2190, 1154.210
597.3900, 1315.651
598.5600, 1407.148
599.7310, 1348.544
600.9010, 1415.010
602.0710, 1397.455
603.2410, 1393.934
604.4100, 1312.412
605.5800, 1308.856
606.7490, 1156.303
607.9190, 1001.670
609.0880, 1008.088
610.2570, 938.3815
611.4250, 897.7146
612.5940, 757.0874
613.7620, 757.4453
614.9310, 750.6432
616.0990, 775.6562
617.2670, 819.8690
618.4340, 809.4504
619.6020, 838.4661
620.7690, 801.5723
621.9370, 860.7770
623.1040, 832.8364
624.2710, 831.7910
625.4380, 750.9241
626.6040, 676.9619
627.7710, 561.0430
628.9370, 565.1335
630.1030, 439.8644
631.2690, 426.7268
632.4350, 346.5558
633.6010, 387.4175
634.7660, 363.4899
635.9320, 369.5769
637.0970, 334.5519
638.2620, 398.5200
639.4270, 400.3057
640.5920, 424.2604
641.7560, 408.0284
642.9210, 477.8611
644.0850, 479.8379
645.2490, 489.7537
646.4130, 546.7234
647.5770, 477.6812
648.7400, 447.5527
649.9040, 409.4869
651.0670, 381.0306
652.2300, 361.2810
653.3930, 329.2101
654.5560, 292.8083
655.7190, 260.9902
656.8810, 216.8807
658.0440, 181.7614
659.2060, 153.6405
660.3680, 111.9674
661.5300, 97.40576
662.6910, 54.27832
663.8530, 19.14526
665.0140, 25.01001
666.1750, 24.13770
667.3360, 17.69189
668.4970, 22.49072
669.6580, 19.69812
670.8190, 34.06396
671.9790, 41.18518
673.1390, 20.47668
674.2990, 20.79919
675.4590, 4.847778
676.6190, 4.522095
677.7790, 10.91370
678.9380, 0.6757810
680.0970, 33.75134
681.2570, 11.21472
682.4160, 16.29944
683.5740, 14.19824
684.7330, 21.72217
685.8920, 47.27576
687.0500, 49.87256
688.2080, 10.51367
689.3660, 17.17847
690.5240, 0.1303710
691.6820, 18.57812
692.8390, 29.68665
693.9960, 28.94141
695.1540, 47.81396
696.3110, 9.389648
697.4680, 53.41785
698.6240, 37.26880
699.7810, 25.15405
700.9370, 4.067383
702.0940, 65.99683
703.2500, 33.97498
704.4060, 51.98438
705.5610, 67.03418
706.7170, 26.86804
707.8720, 31.23804
709.0280, 7.372192
710.1830, 40.52185
711.3380, 31.70398
712.4920, 21.91321
713.6470, 22.14404
714.8020, 18.60352
715.9560, 11.34387
717.1100, 33.92310
718.2640, 25.78369
719.4180, 53.48389
720.5720, 8.821899
721.7250, 55.86060
722.8780, 21.53748
724.0320, 80.20850
725.1850, 89.87390
726.3380, 81.53406
727.4900, 61.18958
728.6430, 94.83984
729.7950, 127.4862
730.9470, 126.1282
732.1000, 142.9603
733.2510, 111.4000
734.4030, 129.0303
735.5550, 102.6573
736.7060, 55.28113
737.8570, 115.9012
739.0090, 104.5183
740.1600, 94.13196
741.3100, 171.7427
742.4610, 137.3502
743.6110, 118.9546
744.7620, 133.5563
745.9120, 119.1549
747.0620, 182.7513
748.2120, 156.3451
749.3610, 203.9371
750.5110, 115.5271
751.6600, 166.1149
752.8090, 126.7007
753.9580, 176.2854
755.1070, 141.8699
756.2560, 142.4531
757.4050, 223.0355
758.5530, 219.6166
759.7010, 256.1970
760.8490, 297.7769
761.9970, 265.3564
763.1450, 268.9370
764.2920, 317.5171
765.4400, 300.0977
766.5870, 227.6782
767.7340, 309.2593
768.8810, 290.8423
770.0280, 306.4268
771.1740, 350.0127
772.3210, 327.6072
773.4670, 323.2021
774.6130, 352.7986
775.7590, 366.3965
776.9050, 342.9976
778.0510, 360.7158
779.1960, 417.2178
780.3420, 378.8445
781.4870, 383.4731
782.6320, 435.1062
783.7770, 440.7424
784.9210, 481.3967
786.0660, 502.0559
787.2100, 564.7222
788.3540, 648.4253
789.4980, 666.1396
790.6420, 727.0374
791.7860, 730.5989
792.9300, 795.3716
794.0730, 839.1528
795.2160, 845.9409
796.3590, 839.7498
797.5020, 996.5762
798.6450, 1039.420
799.7880, 1159.292
800.9300, 1239.021
802.0720, 1392.469
803.2150, 1528.026
804.3560, 1700.193
805.4980, 1960.667
806.6400, 2198.979
807.7810, 2649.490
808.9230, 3046.189
810.0640, 3569.396
811.2050, 4364.928
812.3460, 5227.465
813.4860, 6167.625
814.6270, 7443.236
815.7670, 8868.472
816.9070, 10088.46
818.0470, 11589.32
819.1870, 12628.62
820.3270, 13447.29
821.4670, 13646.46
822.6060, 13413.20
823.7450, 12669.36
824.8840, 11645.39
826.0230, 10334.92
827.1620, 9180.068
828.3010, 8240.342
829.4390, 7422.268
830.5770, 6749.376
831.7150, 6344.294
832.8530, 6014.702
833.9910, 5945.521
835.1290, 6040.655
836.2660, 6129.840
837.4030, 6382.828
838.5410, 6904.180
839.6780, 7527.688
840.8140, 8156.246
841.9510, 9268.721
843.0870, 10595.30
844.2240, 11903.37
845.3600, 14027.29
846.4960, 15733.75
847.6320, 18194.18
848.7680, 20205.21
849.9030, 21987.91
851.0380, 23640.64
852.1740, 24512.82
853.3090, 24694.98
854.4440, 24150.13
855.5780, 22995.40
856.7130, 20977.71
857.8470, 19014.56
858.9820, 16368.90
860.1160, 14344.23
861.2500, 12335.59
862.3830, 10554.96
863.5170, 8926.345
864.6500, 7774.743
865.7840, 6711.156
866.9170, 5872.583
868.0500, 5168.023
869.1830, 4722.478
870.3150, 4331.947
871.4480, 4132.429
872.5800, 3793.934
873.7120, 3918.464
874.8440, 3848.019
875.9760, 4043.592
877.1080, 4001.180
878.2390, 4016.786
879.3710, 4013.406
880.5020, 4046.041
881.6330, 3763.689
882.7640, 3446.353
883.8940, 3142.030
885.0250, 2639.723
886.1550, 2287.429
887.2850, 1919.150
888.4160, 1696.893
889.5450, 1524.652
890.6750, 1346.426
891.8050, 1213.221
892.9340, 1125.032
894.0630, 1056.859
895.1930, 997.7012
896.3220, 984.5581
897.4500, 949.4302
898.5790, 900.3171
899.7070, 814.2183
900.8360, 798.1401
901.9640, 750.0762
903.0920, 810.0276
904.2200, 738.9937
905.3470, 747.9746
906.4750, 663.9705
907.6020, 707.3960
908.7290, 683.4216
909.8560, 622.4976
910.9830, 713.5530
912.1100, 751.9033
913.2360, 689.9883
914.3630, 716.7007
915.4890, 702.2825
916.6150, 704.4119
917.7410, 645.9556
918.8670, 587.2446
919.9920, 587.0515
921.1180, 554.7073
922.2430, 585.7290
923.3680, 553.0356
924.4930, 568.0605
925.6180, 574.4873
926.7420, 557.8086
927.8670, 600.3276
928.9910, 595.7520
930.1150, 595.9023
931.2390, 677.1235
932.3630, 747.6541
933.4860, 734.3728
934.6100, 770.2012
935.7330, 865.2974
936.8560, 957.7876
937.9790, 1033.184
939.1020, 1006.925
940.2250, 1117.361
941.3470, 1232.811
942.4700, 1300.284
943.5920, 1468.784
944.7140, 1554.298
945.8360, 1692.839
946.9570, 1861.403
948.0790, 2100.989
949.2000, 2259.589
950.3220, 2387.208
951.4430, 2690.846
952.5640, 2793.500
953.6840, 2882.179
954.8050, 2936.877
955.9250, 2982.587
957.0460, 2966.317
958.1660, 2916.069
959.2860, 2830.849
960.4050, 2715.656
961.5250, 2584.844
962.6440, 2431.327
963.7640, 2257.188
964.8830, 2078.068
966.0020, 1893.698
967.1210, 1662.229
968.2390, 1537.158
969.3580, 1379.120
970.4760, 1182.089
971.5940, 1058.082
972.7120, 979.0950
973.8300, 795.1223
974.9480, 654.1799
976.0650, 613.2598
977.1830, 514.3657
978.3000, 453.5022
979.4170, 468.6489
980.5340, 397.8208
981.6500, 316.2432
982.7670, 337.4465
983.8830, 298.6699
985.0000, 271.9102
986.1160, 255.1672
987.2320, 219.4578
988.3470, 164.7349
989.4630, 230.0308
990.5780, 176.3364
991.6940, 164.6514
992.8090, 193.9780
993.9240, 151.3137
995.0380, 168.6584
996.1530, 181.0117
997.2680, 282.3740
998.3820, 318.7449
999.4960, 449.1243
1000.610, 430.5125
1001.724, 462.9087
1002.837, 352.3135
1003.951, 237.7266
1005.064, 97.15796
1006.177, 161.3474
1007.291, 90.36230
1008.403, 68.14844
1009.516, 127.5352
1010.629, 112.1304
1011.741, 94.30542
1012.853, 45.77930
1013.965, 57.25977
1015.077, 96.74731
1016.189, 138.2415
1017.300, 142.7422
1018.412, 210.2500
1019.523, 165.7639
1020.634, 135.2844
1021.745, 126.3818
1022.856, 149.2246
1023.966, 132.7637
1025.077, 168.8784
1026.187, 149.4290
1027.297, 139.4983
1028.407, 118.0601
1029.517, 90.62744
1030.627, 122.2002
1031.736, 51.77808
1032.845, 38.36133
1033.955, 10.05371
1035.064, 61.64697
1036.172, 16.24512
1037.281, 46.84766
1038.390, 32.45508
1039.498, 10.06714
1040.606, 32.31616
1041.714, 8.291016
1042.822, 9.7411998E-02
1043.930, 18.51733
1045.037, 7.864014
1046.145, 7.755127
1047.252, 50.62183
1048.359, 30.01855
1049.466, 33.57446
1050.573, 8.828857
1051.679, 2.233643
1052.786, 65.63745
1053.892, 9.070068
1054.998, 15.50488
1056.104, 135.9451
1057.210, 32.45215
1058.315, 11.43384
1059.421, 89.08423
1060.526, 104.6450
1061.631, 18.65894
1062.736, 11.69336
1063.841, 64.32056
1064.946, 51.98022
1066.050, 54.66626
1067.154, 88.37988
1068.258, 8.138916
1069.362, 14.90356
1070.466, 12.67700
1071.570, 18.45850
1072.674, 30.74902
1073.777, 36.95825
1074.880, 68.71973
1075.983, 54.49780
1077.086, 115.8181
1078.189, 112.0339
1079.291, 93.25122
1080.394, 199.4697
1081.496, 134.6897
1082.598, 152.9104
1083.700, 190.1318
1084.802, 231.3547
1085.903, 217.7290
1087.005, 150.8022
1088.106, 207.0269
1089.207, 124.2520
1090.308, 142.4775
1091.409, 71.70337
1092.509, 72.92969
1093.610, 125.1560
1094.710, 40.38208
1095.810, 84.60840
1096.910, 49.83423
1098.010, 5.061035
1099.110, 63.28296
1100.209, 23.50464
1101.309, 16.72583
1102.408, 96.94580
1103.507, 52.16504
1104.606, 130.3833
1105.704, 59.60083
1106.803, 127.8174
1107.901, 122.0332
1108.999, 134.2478
1110.097, 120.4609
1111.195, 149.6729
1112.293, 132.0540
1113.391, 11.09180
1114.488, 106.2959
1115.585, 68.49805
1116.682, 44.69873
1117.779, 87.89722
1118.876, 21.09424
1119.973, 59.28833
1121.069, 52.48071
1122.165, 56.67090
1123.261, 95.85913
1124.357, 43.04492
1125.453, 45.22852
1126.549, 78.41040
1127.644, 103.5901
1128.739, 42.76733
1129.835, 115.9424
1130.930, 33.11548
1132.024, 88.28613
1133.119, 33.45459
1134.214, 29.62085
1135.308, 45.78442
1136.402, 25.94580
1137.496, 13.89551
1138.590, 27.75562
1139.684, 23.64087
1140.777, 0.4504390
1141.871, 19.52979
1142.964, 4.605225
1144.057, 39.67065
1145.150, 61.73364
1146.243, 43.79419
1147.335, 64.85229
1148.428, 43.90723
1149.520, 36.95996
1150.612, 43.01001
1151.704, 89.05713
1152.796, 9.898438
1153.887, 14.12915
1154.979, 76.15063
1156.070, 9.830566
1157.161, 78.17090
1158.252, 9.169922
1159.343, 54.16089
1160.433, 69.14893
1161.524, 58.13428
1162.614, 89.11670
1163.704, 65.10107
1164.794, 1.917480
1165.884, 82.05078
1166.974, 148.0161
1168.063, 79.97876
1169.153, 81.93848
1170.242, 100.8955
1171.331, 71.84937
1172.420, 103.3860
1173.508, 100.3347
1174.597, 67.24487
1175.685, 110.1877
1176.774, 97.84839
1177.862, 93.78564
1178.950, 131.1082
1180.037, 46.57300
1181.125, 39.50269
1182.212, 86.02954
1183.300, 46.82373
1184.387, 81.11230
1185.474, 61.56396
1186.560, 66.66211
1187.647, 59.48755
1188.733, 1.393555
1189.820, 11.51538
1190.906, 46.17822
1191.992, 10.16260
1193.078, 45.39966
1194.163, 15.63843
1195.249, 72.61743
1196.334, 22.29980
1197.419, 6.805664
1198.504, 23.21436
1199.589, 48.36719
1200.674, 68.13940
1201.758, 20.01978
1202.843, 58.56860
1203.927, 28.44702
1205.011, 31.32642
1206.095, 30.79346
1207.179, 6.922852
1208.262, 58.94727
1209.345, 25.81836
1210.429, 39.69043
1211.512, 33.56348
1212.595, 65.43750
1213.677, 109.3125
1214.760, 129.1882
1215.842, 115.0652
1216.925, 168.9431
1218.007, 85.82251
1219.089, 117.7029
1220.171, 53.58447
1221.252, 85.46729
1222.334, 97.35132
1223.415, 61.23633
1224.496, 133.1230
1225.577, 94.01074
1226.658, 91.89966
1227.738, 93.99365
1228.819, 87.51831
1229.899, 95.41162
1230.979, 154.3066
1232.060, 104.1821
1233.139, 145.0801
1234.219, 105.9800
1235.299, 177.8813
1236.378, 148.7844
1237.457, 105.6892
1238.536, 89.59570
1239.615, 75.29126
1240.694, 111.4143
1241.772, 78.32642
1242.851, 109.2402
1243.929, 142.9102
1245.007, 102.8281
1246.085, 98.75342
1247.163, 144.6812
1248.240, 106.7295
1249.318, 86.52856
1250.395, 100.4714
1251.472, 114.4165
1252.549, 150.3701
1253.626, 162.3264
1254.703, 165.2891
1255.779, 177.2666
1256.855, 161.2524
1257.931, 161.2410
1259.007, 171.5969
1260.083, 189.3142
1261.159, 197.2246
1262.234, 247.2253
1263.310, 274.2283
1264.385, 302.2349
1265.460, 305.2441
1266.535, 305.2468
1267.610, 266.5027
1268.684, 282.9443
1269.758, 309.6252
1270.833, 350.7173
1271.907, 359.6113
1272.981, 310.9368
1274.054, 267.9741
1275.128, 316.0164
1276.201, 341.0620
1277.275, 309.1116
1278.348, 313.1658
1279.421, 256.2236
1280.493, 207.2861
1281.566, 278.3528
1282.638, 223.8528
1283.711, 247.6177
1284.783, 243.6968
1285.855, 149.2107
1286.927, 294.2979
1287.998, 192.8955
1289.070, 245.9910
1290.141, 252.0906
1291.212, 264.1943
1292.283, 295.2805
1293.354, 285.3923
1294.425, 292.4045
1295.495, 304.5251
1296.566, 268.6494
1297.636, 309.7783
1298.706, 288.9109
1299.776, 277.0481
1300.845, 305.1895
1301.915, 333.3418
1302.984, 291.4983
1304.054, 351.6594
1305.123, 370.8250
1306.191, 329.9966
1307.260, 327.1726
1308.329, 355.3647
1309.397, 376.5684
1310.465, 324.7759
1311.534, 488.9917
1312.602, 363.2131
1313.669, 435.4565
1314.737, 430.7065
