##NAMES=Forsterite
##RRUFFID=R050117
##IDEAL CHEMISTRY=Mg_2_SiO_4_
##LOCALITY=Sapat, Gilgit, Pakistan
##OWNER=RRUFF
##SOURCE=Farooq and Nazia Sawal
##DESCRIPTION=Fragment of a green crystal
##STATUS=The identification of this mineral has been confirmed by X-ray diffraction and chemical analysis
##URL=rruff.info/R050117
##MEASURED CHEMISTRY=(Mg_1.81_Fe_0.18_Ni_0.01_)_Î£=2_Si_1.00_O_4_
##PIN_ID=M00216
##ORIENTATION=Laser parallel to b* (0 1 0). Fiducial mark perpendicular to laser is parallel to c [0 0 1]
46.644, 0.000
48.046, 32.111
49.448, 0.764
50.850, 60.536
52.251, 198.300
53.653, 288.184
55.054, 380.898
56.454, 460.070
57.855, 562.171
59.255, 760.884
60.655, 706.900
62.055, 711.282
63.454, 703.830
64.854, 600.394
66.253, 539.223
67.652, 488.610
69.050, 430.560
70.449, 346.562
71.847, 386.936
73.245, 341.217
74.643, 366.051
76.040, 230.982
77.438, 143.098
78.835, 76.459
80.232, 6.564
81.628, 10.154
83.025, 43.427
84.421, 13.622
85.817, 63.141
87.213, 52.373
88.608, 81.753
90.003, 61.841
91.398, 87.007
92.793, 40.312
94.188, 85.937
95.582, 11.973
96.976, 19.503
98.370, 4.967
99.764, 42.724
101.157, 18.789
102.550, 18.547
103.943, 29.273
105.336, 51.969
106.729, 32.434
108.121, 92.556
109.513, 50.998
110.905, 59.573
112.297, 146.027
113.688, 64.532
115.079, 98.888
116.470, 66.797
117.861, 19.547
119.251, 53.629
120.642, 30.870
122.032, 26.695
123.422, 31.349
124.811, 10.416
126.201, 2.749
127.590, 20.527
128.979, 0.088
130.367, 30.706
131.756, 13.533
133.144, 50.461
134.532, 49.655
135.920, 28.022
137.307, 35.535
138.695, 47.167
140.082, 17.895
141.469, 87.696
142.856, 29.013
144.242, 77.845
145.628, 43.436
147.014, 38.161
148.400, 57.162
149.786, 31.144
151.171, 70.089
152.556, 45.873
153.941, 55.550
155.325, 56.793
156.710, 39.279
158.094, 55.179
159.478, 10.994
160.862, 16.753
162.245, 20.015
163.629, 0.020
165.012, 13.758
166.395, 13.107
167.777, 8.849
169.160, 7.097
170.542, 19.247
171.924, 23.696
173.306, 31.736
174.687, 23.847
176.068, 27.028
177.449, 4.279
178.830, 9.595
180.211, 2.975
181.591, 13.422
182.972, 3.932
184.351, 36.495
185.731, 20.138
187.111, 9.164
188.490, 19.603
189.869, 6.564
191.248, 5.334
192.626, 37.700
194.005, 43.635
195.383, 40.483
196.761, 41.262
198.139, 59.974
199.516, 69.626
200.893, 70.214
202.271, 88.933
203.647, 94.997
205.024, 116.206
206.400, 116.905
207.777, 129.652
209.152, 143.323
210.528, 242.012
211.904, 266.738
213.279, 387.473
214.654, 462.063
216.029, 612.315
217.403, 724.494
218.778, 846.254
220.152, 918.683
221.526, 949.332
222.900, 952.532
224.273, 922.207
225.646, 832.452
227.019, 735.401
228.392, 573.934
229.765, 512.112
231.137, 492.070
232.509, 427.610
233.881, 378.956
235.253, 355.018
236.625, 305.812
237.996, 238.344
239.367, 267.544
240.738, 202.589
242.108, 188.190
243.479, 169.041
244.849, 183.475
246.219, 140.070
247.589, 132.168
248.958, 130.359
250.328, 131.978
251.697, 111.880
253.065, 113.453
254.434, 114.053
255.803, 129.255
257.171, 99.528
258.539, 99.259
259.906, 121.272
261.274, 113.320
262.641, 147.426
264.008, 100.039
265.375, 93.272
266.742, 122.093
268.108, 136.826
269.475, 103.010
270.840, 132.944
272.206, 87.583
273.572, 131.677
274.937, 134.289
276.302, 141.776
277.667, 166.716
279.032, 135.004
280.396, 139.481
281.760, 169.594
283.125, 163.971
284.488, 190.932
285.852, 188.590
287.215, 246.138
288.578, 255.776
289.941, 279.865
291.304, 317.594
292.666, 393.046
294.029, 508.618
295.391, 626.220
296.753, 836.919
298.114, 1076.794
299.476, 1268.631
300.837, 1511.207
302.198, 1511.822
303.558, 1383.616
304.919, 1164.973
306.279, 930.955
307.639, 758.460
308.999, 577.351
310.359, 522.903
311.718, 464.405
313.077, 421.923
314.436, 396.256
315.795, 400.916
317.154, 427.326
318.512, 438.833
319.870, 548.364
321.228, 563.711
322.586, 687.198
323.943, 770.200
325.300, 801.198
326.657, 807.230
328.014, 748.832
329.371, 713.733
330.727, 688.646
332.083, 707.532
333.439, 751.412
334.795, 785.617
336.150, 856.758
337.506, 864.382
338.861, 816.542
340.215, 763.424
341.570, 623.727
342.924, 521.881
344.279, 423.411
345.633, 366.325
346.986, 291.736
348.340, 244.884
349.693, 226.288
351.046, 198.111
352.399, 168.568
353.752, 153.317
355.104, 135.689
356.457, 118.752
357.809, 127.868
359.160, 120.961
360.512, 133.061
361.863, 102.318
363.214, 122.619
364.565, 100.920
365.916, 99.057
367.267, 112.696
368.617, 91.184
369.967, 96.673
371.317, 90.218
372.666, 82.820
374.016, 82.835
375.365, 97.949
376.714, 65.159
378.063, 71.315
379.411, 27.417
380.760, 54.467
382.108, 60.465
383.456, 50.414
384.803, 36.313
386.151, 57.166
387.498, 38.972
388.845, 37.731
390.192, 60.445
391.539, 50.115
392.885, 18.743
394.231, 40.330
395.577, 15.877
396.923, 16.385
398.269, 15.855
399.614, 10.288
400.959, 26.417
402.304, 4.636
403.649, 14.566
404.993, 52.440
406.337, 32.209
407.681, 88.045
409.025, 98.690
410.369, 138.358
411.712, 166.952
413.055, 216.440
414.398, 247.850
415.741, 279.232
417.084, 320.603
418.426, 273.026
419.768, 245.313
421.110, 258.591
422.452, 207.950
423.793, 156.271
425.134, 155.730
426.475, 127.990
427.816, 140.214
429.157, 126.555
430.497, 116.955
431.837, 102.230
433.177, 132.625
434.517, 116.826
435.857, 118.205
437.196, 141.592
438.535, 145.007
439.874, 131.680
441.213, 87.899
442.551, 98.293
443.889, 64.812
445.227, 53.312
446.565, 40.923
447.903, 40.526
449.240, 34.372
450.577, 26.576
451.914, 22.090
453.251, 15.944
454.588, 20.791
455.924, 23.636
457.260, 33.474
458.596, 15.314
459.932, 19.145
461.267, 12.969
462.602, 24.785
463.938, 12.594
465.272, 16.058
466.607, 40.192
467.941, 16.979
469.276, 31.760
470.610, 37.535
471.943, 29.301
473.277, 60.060
474.610, 36.814
475.944, 38.562
477.276, 43.308
478.609, 32.994
479.942, 23.792
481.274, 26.564
482.606, 19.291
483.938, 12.000
485.270, 31.705
486.601, 29.769
487.932, 8.469
489.263, 34.211
490.594, 27.433
491.925, 15.485
493.255, 10.079
494.585, 7.815
495.915, 15.404
497.245, 21.928
498.575, 17.047
499.904, 42.039
501.233, 49.659
502.562, 11.339
503.891, 25.243
505.219, 17.969
506.548, 47.543
507.876, 36.051
509.203, 52.324
510.531, 50.901
511.859, 59.115
513.186, 88.944
514.513, 75.738
515.840, 89.582
517.166, 122.591
518.493, 93.524
519.819, 102.554
521.145, 148.529
522.470, 142.659
523.796, 141.758
525.121, 179.179
526.446, 161.074
527.771, 209.958
529.096, 187.519
530.421, 251.866
531.745, 305.837
533.069, 331.813
534.393, 407.819
535.716, 505.416
537.040, 654.090
538.363, 810.346
539.686, 992.071
541.009, 1170.243
542.331, 1132.813
543.654, 980.955
544.976, 773.734
546.298, 570.894
547.620, 454.972
548.941, 271.039
550.263, 219.196
551.584, 182.305
552.905, 152.279
554.225, 113.338
555.546, 88.290
556.866, 88.241
558.186, 65.185
559.506, 69.102
560.826, 71.084
562.145, 59.201
563.465, 50.900
564.784, 49.984
566.103, 41.983
567.421, 41.214
568.740, 23.488
570.058, 34.853
571.376, 58.136
572.694, 52.453
574.011, 73.767
575.329, 83.077
576.646, 129.383
577.963, 131.686
579.279, 154.985
580.596, 160.281
581.912, 180.574
583.228, 196.863
584.544, 174.148
585.860, 186.431
587.175, 194.710
588.491, 185.986
589.806, 190.259
591.121, 146.528
592.435, 145.794
593.750, 132.057
595.064, 117.316
596.378, 122.572
597.692, 148.825
599.006, 209.073
600.319, 221.314
601.632, 289.556
602.945, 330.701
604.258, 343.797
605.571, 415.842
606.883, 419.884
608.195, 391.899
609.507, 360.880
610.819, 335.840
612.131, 295.591
613.442, 247.725
614.753, 219.688
616.064, 172.690
617.375, 143.615
618.685, 135.554
619.995, 125.466
621.306, 128.426
622.615, 112.851
623.925, 52.255
625.235, 82.276
626.544, 59.199
627.853, 29.183
629.162, 42.190
630.471, 32.161
631.779, 33.261
633.087, 29.263
634.395, 25.271
635.703, 34.298
637.011, 20.282
638.318, 12.226
639.625, 21.181
640.932, 26.105
642.239, 23.607
643.546, 0.026
644.852, 19.936
646.158, 8.809
647.464, 3.212
648.770, 0.268
650.076, 9.800
651.381, 1.525
652.686, 20.830
653.991, 8.980
655.296, 19.114
656.600, 33.286
657.905, 27.383
659.209, 28.473
660.513, 15.749
661.817, 6.017
663.120, 27.248
664.423, 9.413
665.726, 5.638
667.029, 27.803
668.332, 21.998
669.635, 32.178
670.937, 32.007
672.239, 17.556
673.541, 21.769
674.842, 19.998
676.144, 5.242
677.445, 3.492
678.746, 8.749
680.047, 7.014
681.348, 14.286
682.648, 5.569
683.948, 21.858
685.248, 18.162
686.548, 31.477
687.848, 25.810
689.147, 26.750
690.447, 10.523
691.746, 19.895
693.044, 6.278
694.343, 4.334
695.641, 11.054
696.940, 21.552
698.238, 5.841
699.535, 34.762
700.833, 12.634
702.130, 7.964
703.427, 7.563
704.724, 7.163
706.021, 9.764
707.318, 9.037
708.614, 24.969
709.910, 7.574
711.206, 7.181
712.502, 1.790
713.798, 27.400
715.093, 37.013
716.388, 32.628
717.683, 55.245
718.978, 27.849
720.272, 61.424
721.567, 23.000
722.861, 13.546
724.155, 38.094
725.448, 54.572
726.742, 53.101
728.035, 57.731
729.328, 46.342
730.621, 78.975
731.914, 75.610
733.206, 95.246
734.499, 85.884
735.791, 89.523
737.083, 73.164
738.374, 86.807
739.666, 112.451
740.957, 111.098
742.248, 114.746
743.539, 111.396
744.830, 117.049
746.120, 126.703
747.410, 134.360
748.701, 153.019
749.990, 128.681
751.280, 142.344
752.570, 114.011
753.859, 136.680
755.148, 148.351
756.437, 164.026
757.725, 173.914
759.014, 175.383
760.302, 185.067
761.590, 183.755
762.878, 180.447
764.166, 198.143
765.453, 223.844
766.740, 231.548
768.027, 261.261
769.314, 277.138
770.601, 280.704
771.887, 315.437
773.174, 313.175
774.460, 330.921
775.745, 324.675
777.031, 350.436
778.316, 350.210
779.602, 370.997
780.887, 379.851
782.172, 416.613
783.456, 405.436
784.741, 418.271
786.025, 447.117
787.309, 453.361
788.593, 478.831
789.876, 499.696
791.160, 534.575
792.443, 575.443
793.726, 612.290
795.009, 644.192
796.291, 676.116
797.574, 772.051
798.856, 795.628
800.138, 910.570
801.420, 939.477
802.702, 1070.906
803.983, 1267.507
805.264, 1280.568
806.545, 1507.124
807.826, 1706.573
809.107, 1964.727
810.387, 2306.298
811.667, 2633.007
812.947, 3306.105
814.227, 4063.146
815.507, 4978.972
816.786, 6541.981
818.065, 8304.147
819.344, 10735.392
820.623, 13133.868
821.902, 14151.049
823.180, 14708.597
824.459, 13205.537
825.737, 11642.509
827.014, 9950.368
828.292, 8289.998
829.569, 7519.754
830.847, 6578.388
832.124, 6076.138
833.401, 6029.612
834.677, 5713.206
835.954, 5945.396
837.230, 6180.106
838.506, 6477.895
839.782, 7299.921
841.057, 7905.189
842.333, 9177.814
843.608, 10485.403
844.883, 12463.970
846.158, 15262.013
847.433, 19114.104
848.707, 24000.121
849.981, 29318.752
851.255, 35288.043
852.529, 42586.977
853.803, 45096.293
855.076, 46294.922
856.350, 43244.266
857.623, 36613.605
858.895, 30882.967
860.168, 24792.346
861.441, 19571.723
862.713, 15921.115
863.985, 12500.516
865.257, 10569.932
866.528, 8631.354
867.800, 7115.790
869.071, 6173.236
870.342, 5153.692
871.613, 4597.159
872.884, 4173.639
874.154, 3625.129
875.425, 3438.629
876.695, 3280.141
877.965, 3199.665
879.234, 3178.200
880.504, 3068.746
881.773, 2953.304
883.042, 2620.873
884.311, 2352.453
885.580, 2075.044
886.848, 1793.646
888.117, 1610.259
889.385, 1427.884
890.653, 1281.520
891.920, 1188.167
893.188, 1081.825
894.455, 1045.495
895.722, 970.177
896.989, 873.869
898.256, 847.573
899.523, 771.289
900.789, 790.015
902.055, 790.753
903.321, 719.502
904.587, 720.263
905.852, 677.035
907.118, 702.819
908.383, 664.614
909.648, 659.420
910.913, 717.237
912.177, 697.066
913.442, 718.906
914.706, 777.823
915.970, 802.687
917.233, 865.561
918.497, 898.447
919.760, 810.149
921.024, 833.057
922.287, 746.493
923.550, 724.103
924.812, 779.093
926.075, 741.804
927.337, 791.123
928.599, 796.819
929.861, 829.425
931.122, 917.999
932.384, 894.951
933.645, 1007.524
934.906, 1052.347
936.167, 1104.575
937.428, 1245.827
938.688, 1258.888
939.948, 1398.479
941.208, 1502.882
942.468, 1619.743
943.728, 1899.683
944.987, 2013.702
946.247, 2244.724
947.506, 2535.190
948.765, 2721.509
950.023, 3247.659
951.282, 3427.820
952.540, 3935.283
953.798, 4492.935
955.056, 4801.128
956.314, 5605.332
957.572, 5897.449
958.829, 6214.945
960.086, 6475.191
961.343, 6143.449
962.600, 5797.825
963.856, 5459.368
965.113, 4764.681
966.369, 4267.391
967.625, 3550.745
968.881, 2985.294
970.136, 2567.676
971.392, 1994.072
972.647, 1739.479
973.902, 1448.904
975.157, 1159.345
976.411, 1011.804
977.666, 875.312
978.920, 730.803
980.174, 602.311
981.428, 493.833
982.682, 465.722
983.935, 398.268
985.188, 330.832
986.441, 296.407
987.694, 273.996
988.947, 263.605
990.199, 173.228
991.452, 200.867
992.704, 203.523
993.956, 117.196
995.207, 172.884
996.459, 140.584
997.710, 99.297
998.961, 145.021
1000.212, 97.755
1001.463, 91.504
1002.714, 90.261
1003.964, 65.030
1005.214, 66.805
1006.464, 60.592
1007.714, 80.392
1008.964, 64.200
1010.213, 8.016
1011.462, 27.840
1012.711, 30.672
1013.960, 45.511
1015.209, 42.357
1016.457, 22.210
1017.705, 71.071
1018.954, 34.938
1020.201, 24.813
1021.449, 60.694
1022.697, 29.582
1023.944, 31.476
1025.191, 49.378
1026.438, 32.288
1027.685, 59.205
1028.931, 57.128
1030.177, 47.057
1031.423, 37.997
1032.669, 42.943
1033.915, 16.895
1035.161, 52.853
1036.406, 21.817
1037.651, 42.787
1038.896, 27.763
1040.141, 49.744
1041.386, 52.731
1042.630, 33.835
1043.874, 43.832
1045.118, 48.835
1046.362, 55.843
1047.606, 40.856
1048.849, 49.874
1050.092, 60.896
1051.336, 44.924
1052.578, 24.956
1053.821, 31.993
1055.064, 11.034
1056.306, 31.079
1057.548, 35.129
1058.790, 8.182
1060.032, 46.240
1061.273, 6.301
1062.515, 35.365
1063.756, 2.566
1064.997, 13.505
1066.237, 32.579
1067.478, 29.657
1068.718, 18.262
1069.959, 20.815
1071.199, 12.106
1072.438, 15.028
1073.678, 0.954
1074.918, 15.879
1076.157, 7.807
1077.396, 14.596
1078.635, 30.672
1079.873, 29.619
1081.112, 35.577
1082.350, 45.551
1083.588, 14.544
1084.826, 21.544
1086.064, 21.552
1087.301, 3.431
1088.539, 26.584
1089.776, 4.611
1091.013, 12.639
1092.250, 13.673
1093.486, 14.713
1094.723, 31.760
1095.959, 21.822
1097.195, 18.895
1098.431, 6.047
1099.666, 10.966
1100.902, 2.113
1102.137, 5.195
1103.372, 20.719
1104.607, 8.635
1105.842, 12.448
1107.076, 18.538
1108.311, 14.375
1109.545, 10.293
1110.779, 3.194
1112.012, 17.034
1113.246, 29.889
1114.479, 0.787
1115.712, 28.270
1116.945, 3.156
1118.178, 31.397
1119.411, 35.308
1120.643, 44.289
1121.875, 73.255
1123.108, 42.148
1124.339, 47.052
1125.571, 9.964
1126.802, 27.883
1128.034, 13.950
1129.265, 46.845
1130.496, 1.830
1131.727, 50.186
1132.957, 27.384
1134.187, 34.296
1135.418, 36.621
1136.648, 66.407
1137.877, 26.346
1139.107, 79.790
1140.336, 49.661
1141.566, 46.842
1142.795, 86.793
1144.023, 79.765
1145.252, 46.667
1146.480, 59.566
1147.709, 63.171
1148.937, 78.018
1150.165, 46.941
1151.392, 107.120
1152.620, 95.001
1153.847, 86.097
1155.074, 127.266
1156.301, 81.252
1157.528, 100.334
1158.755, 99.433
1159.981, 106.381
1161.207, 124.413
1162.433, 85.268
1163.659, 65.137
1164.885, 80.121
1166.110, 102.969
1167.336, 93.881
1168.561, 87.759
1169.786, 93.726
1171.010, 107.551
1172.235, 89.543
1173.459, 79.925
1174.683, 99.839
1175.907, 52.630
1177.131, 74.388
1178.355, 77.389
1179.578, 42.185
1180.801, 54.149
1182.024, 74.945
1183.247, 50.843
1184.470, 36.653
1185.692, 53.459
1186.915, 39.294
1188.137, 66.084
1189.359, 27.831
1190.580, 72.636
1191.802, 40.420
1193.023, 48.285
1194.244, 79.020
1195.465, 53.766
1196.686, 77.438
1197.907, 51.158
1199.127, 38.861
1200.347, 40.733
1201.567, 45.413
1202.787, 52.054
1204.007, 58.690
1205.226, 57.319
1206.446, 86.942
1207.665, 94.559
1208.884, 90.170
1210.102, 86.774
1211.321, 102.342
1212.539, 69.934
1213.758, 112.518
1214.976, 60.098
1216.193, 87.865
1217.411, 115.432
1218.628, 107.531
1219.846, 87.404
1221.063, 121.904
1222.280, 92.685
1223.496, 127.865
1224.713, 99.671
1225.929, 90.572
1227.145, 77.509
1228.361, 92.071
1229.577, 75.018
1230.793, 91.720
1232.008, 85.021
1233.223, 85.300
1234.438, 101.819
1235.653, 84.801
1236.868, 71.947
1238.082, 42.763
1239.297, 107.385
1240.511, 91.933
1241.725, 46.518
1242.938, 85.631
1244.152, 25.904
1245.365, 62.351
1246.578, 68.782
1247.791, 63.909
1249.004, 70.855
1250.217, 60.264
1251.429, 38.852
1252.642, 79.405
1253.854, 28.559
1255.066, 28.200
1256.277, 77.576
1257.489, 3.154
1258.700, 24.011
1259.911, 12.647
1261.122, 13.351
1262.333, 37.726
1263.544, 5.855
1264.754, 26.281
1265.964, 18.612
1267.174, 20.009
1268.384, 31.281
1269.594, 28.546
1270.803, 26.951
1272.013, 25.139
1273.222, 13.384
1274.431, 30.620
1275.640, 18.908
1276.848, 2.841
1278.057, 10.919
1279.265, 25.287
1280.473, 3.472
1281.681, 20.353
1282.888, 21.807
1284.096, 0.960
1285.303, 34.988
1286.510, 8.124
1287.717, 21.449
1288.924, 20.372
1290.131, 27.516
1291.337, 27.642
1292.543, 1.190
1293.749, 5.097
1294.955, 23.985
1296.161, 8.060
1297.366, 29.249
1298.571, 11.360
1299.777, 10.581
1300.981, 17.462
1302.186, 11.499
1303.391, 10.554
1304.595, 19.587
1305.799, 13.603
1307.003, 29.708
1308.207, 26.671
1309.411, 15.753
1310.614, 28.740
1311.818, 20.768
1313.021, 23.742
1314.224, 15.708
1315.426, 30.666
1316.629, 13.614
1317.831, 0.554
1319.033, 18.485
1320.235, 34.408
1321.437, 47.324
1322.639, 9.768
1323.840, 30.128
1325.042, 13.017
1326.243, 27.899
1327.444, 16.774
1328.644, 24.642
1329.845, 24.503
1331.045, 20.359
1332.245, 25.197
1333.445, 32.014
1334.645, 21.712
1335.845, 23.515
1337.044, 15.311
1338.244, 29.097
1339.443, 25.877
1340.642, 55.649
1341.840, 28.415
1343.039, 31.171
1344.237, 11.920
1345.435, 33.660
1346.633, 44.394
1347.831, 74.120
1349.029, 58.840
1350.226, 45.553
1351.424, 56.259
1352.621, 41.958
1353.818, 52.650
1355.014, 32.335
1356.211, 68.014
1357.407, 49.688
1358.604, 44.599
1359.800, 59.261
1360.995, 50.922
1362.191, 27.577
1363.387, 59.230
1364.582, 54.889
1365.777, 46.537
1366.972, 71.186
1368.167, 60.672
1369.361, 57.444
1370.556, 51.074
1371.750, 43.709
1372.944, 47.666
1374.138, 45.149
1375.331, 46.821
1376.525, 49.268
1377.718, 30.322
1378.911, 33.382
1380.104, 41.445
1381.297, 17.522
1382.490, 44.591
1383.682, 77.684
1384.874, 32.774
1386.066, 55.859
1387.258, 39.935
1388.450, 40.004
1389.641, 62.094
1390.833, 46.388
1392.024, 39.047
1393.215, 76.953
1394.406, 10.886
1395.596, 27.856
1396.787, 33.615
1397.977, 6.481
1399.167, 70.338
1400.357, 37.717
1401.547, 22.266
1402.736, 46.475
1403.925, 26.879
1405.115, 23.575
1406.304, 43.449
1407.492, 10.942
1408.681, 25.298
1409.870, 10.046
1411.058, 40.303
1412.246, 43.551
1413.434, 12.974
1414.622, 25.408
1415.809, 43.933
1416.997, 50.304
1418.184, 17.673
1419.371, 14.318
1420.558, 23.984
1421.744, 25.785
1422.931, 44.042
1424.117, 36.330
1425.303, 41.672
1426.489, 42.128
1427.675, 11.544
1428.861, 35.715
1430.046, 0.217
1431.231, 10.339
1432.416, 20.845
1433.601, 23.430
1434.786, 12.010
1435.970, 31.585
1437.155, 43.092
1438.339, 49.657
1439.523, 5.213
1440.707, 15.664
1441.890, 26.209
1443.074, 31.749
1444.257, 36.285
1445.440, 20.815
1446.623, 24.339
1447.806, 62.857
1448.989, 7.216
1450.171, 14.440
1451.353, 45.890
1452.535, 31.239
1453.717, 14.606
1454.899, 68.011
1456.080, 43.410
1457.262, 42.245
1458.443, 52.937
1459.624, 39.292
1460.805, 40.546
1461.985, 50.716
1463.166, 44.804
1464.346, 50.828
1465.526, 68.274
1466.706, 62.402
1467.886, 66.839
1469.065, 48.920
1470.245, 50.187
1471.424, 55.744
1472.603, 43.236
1473.782, 41.917
1474.960, 36.844
1476.139, 28.242
1477.317, 38.323
1478.495, 72.611
1479.673, 52.258
1480.851, 82.473
1482.029, 29.580
1483.206, 38.717
1484.383, 53.266
1485.560, 24.389
1486.737, 39.276
1487.914, 73.354
1489.091, 48.444
1490.267, 75.517
1491.443, 26.584
1492.619, 26.629
1493.795, 74.648
1494.971, 45.632
1496.146, 54.633
1497.322, 60.860
1498.497, 29.090
1499.672, 3.650
1500.846, 51.619
1502.021, 26.945
1503.196, 37.314
1504.370, 48.724
1505.544, 16.187
1506.718, 53.731
1507.892, 33.373
1509.065, 19.227
1510.238, 27.466
1511.412, 34.620
1512.585, 16.398
1513.758, 21.404
1514.930, 0.178
1516.103, 12.287
1517.275, 0.000
##END=



