##NAMES=Forsterite
##RRUFFID=R040057
##IDEAL CHEMISTRY=Mg_2_SiO_4_
##LOCALITY=Trudy's mine, San Carlos, Gila County, Arizona, USA
##OWNER=RRUFF
##SOURCE=Bob Downs
##DESCRIPTION=Dark green crystal fragments from xenoliths in a basalt flow
##STATUS=The identification of this mineral has been confirmed by X-ray diffraction and chemical analysis
##URL=rruff.info/R040057
##MEASURED CHEMISTRY=(Mg_1.67_Fe_0.32_Ni_0.01_)_Î£=2_Si_1.00_O_4_; trace amounts of Mn and Ca
##PIN_ID=L00065
##ORIENTATION=Laser parallel to -a* (-1 0 0). Fiducial mark perpendicular to laser is parallel to c [0 0 1]
87.798, 0.000
89.193, 45.996
90.587, 25.807
91.981, 42.844
93.375, 68.186
94.768, 25.392
96.161, 45.231
97.554, 35.590
98.947, 35.097
100.340, 0.237
101.732, 57.106
103.124, 29.272
104.516, 58.691
105.908, 61.506
107.300, 56.976
108.691, 56.043
110.082, 59.791
111.473, 54.445
112.864, 110.397
114.254, 85.214
115.644, 141.004
117.034, 126.484
118.424, 131.833
119.813, 153.673
121.203, 151.071
122.592, 119.598
123.981, 64.122
125.369, 59.343
126.758, 53.801
128.146, 51.301
129.534, 56.841
130.922, 50.418
132.309, 29.029
133.696, 7.327
135.083, 15.345
136.470, 36.046
137.857, 62.772
139.243, 43.525
140.630, 50.303
142.016, 21.106
143.401, 15.930
144.787, 1.773
146.172, 24.632
147.557, 24.496
148.942, 2.388
150.327, 22.716
151.711, 17.811
153.096, 18.104
154.480, 17.028
155.863, 11.960
157.247, 29.899
158.630, 35.846
160.013, 12.801
161.396, 43.762
162.779, 5.244
164.161, 36.780
165.544, 66.840
166.926, 56.002
168.308, 70.181
169.689, 56.372
171.070, 54.565
172.452, 69.951
173.833, 68.033
175.213, 103.180
176.594, 96.394
177.974, 121.610
179.354, 161.831
180.734, 100.057
182.114, 136.286
183.493, 173.518
184.872, 144.756
186.251, 139.997
187.630, 102.245
189.008, 129.554
190.387, 100.866
191.765, 105.183
193.143, 132.506
194.520, 100.816
195.898, 153.122
197.275, 82.425
198.652, 93.723
200.029, 153.014
201.405, 137.276
202.782, 144.507
204.158, 179.727
205.534, 266.943
206.909, 268.157
208.285, 345.366
209.660, 374.569
211.035, 469.769
212.410, 534.967
213.784, 618.163
215.159, 715.357
216.533, 721.549
217.907, 814.740
219.281, 773.929
220.654, 807.117
222.027, 766.306
223.400, 761.494
224.773, 724.683
226.146, 731.872
227.518, 695.062
228.891, 676.253
230.263, 650.445
231.634, 674.638
233.006, 621.832
234.377, 609.147
235.748, 565.697
237.119, 526.623
238.490, 542.125
239.860, 465.542
241.231, 473.880
242.601, 392.121
243.970, 381.622
245.340, 303.964
246.709, 301.458
248.079, 233.040
249.448, 222.679
250.816, 227.977
252.185, 208.338
253.553, 187.699
254.921, 183.186
256.289, 150.663
257.657, 120.128
259.024, 113.952
260.391, 126.990
261.758, 107.374
263.125, 96.753
264.492, 128.126
265.858, 109.490
267.224, 122.370
268.590, 117.194
269.956, 134.820
271.321, 129.141
272.687, 134.651
274.052, 132.974
275.416, 153.382
276.781, 153.747
278.146, 163.316
279.510, 170.698
280.874, 172.251
282.237, 189.548
283.601, 178.869
284.964, 191.574
286.327, 205.931
287.690, 248.321
289.053, 241.220
290.416, 326.442
291.778, 321.769
293.140, 371.485
294.502, 445.939
295.863, 487.544
297.225, 520.972
298.586, 540.448
299.947, 566.726
301.308, 472.892
302.668, 436.157
304.029, 464.420
305.389, 410.550
306.749, 416.736
308.108, 457.929
309.468, 520.902
310.827, 595.029
312.186, 636.396
313.545, 807.432
314.903, 964.021
316.262, 1159.854
317.620, 1420.986
318.978, 1554.181
320.336, 1742.298
321.693, 1905.480
323.051, 1930.616
324.408, 1851.738
325.765, 1852.881
327.121, 1780.624
328.478, 1621.767
329.834, 1643.909
331.190, 1553.050
332.546, 1505.192
333.902, 1488.332
335.257, 1338.473
336.612, 1177.624
337.967, 1003.772
339.322, 846.923
340.677, 735.073
342.031, 569.227
343.385, 465.391
344.739, 391.125
346.093, 381.369
347.446, 355.997
348.799, 315.821
350.153, 216.424
351.505, 192.496
352.858, 144.713
354.210, 139.934
355.563, 168.168
356.915, 77.406
358.267, 98.656
359.618, 82.916
360.969, 151.180
362.321, 86.445
363.672, 126.709
365.022, 95.982
366.373, 130.253
367.723, 116.519
369.073, 123.795
370.423, 81.079
371.773, 68.358
373.122, 79.638
374.471, 101.912
375.821, 73.180
377.169, 71.447
378.518, 24.709
379.866, 8.972
381.215, 23.229
382.563, 3.517
383.910, 14.271
385.258, 34.964
386.605, 8.193
387.952, 8.415
389.299, 68.629
390.646, 96.838
391.992, 18.041
393.339, 17.236
394.685, 38.575
396.031, 12.405
397.376, 28.246
398.722, 12.105
400.067, 36.017
401.412, 11.131
402.757, 22.235
404.101, 26.332
405.446, 2.408
406.790, 5.462
408.134, 12.501
409.478, 31.532
410.821, 36.553
412.165, 40.858
413.508, 17.568
414.851, 46.562
416.193, 27.548
417.536, 35.526
418.878, 41.494
420.220, 99.453
421.562, 40.403
422.904, 84.345
424.245, 78.277
425.586, 63.202
426.927, 95.117
428.268, 90.024
429.609, 74.922
430.949, 10.812
432.289, 70.690
433.629, 21.560
434.969, 59.419
436.309, 37.269
437.648, 40.109
438.987, 18.940
440.326, 20.760
441.665, 11.569
443.003, 52.367
444.342, 36.155
445.680, 0.066
447.018, 20.699
448.355, 58.547
449.693, 2.838
451.030, 44.855
452.367, 24.538
453.704, 0.211
455.041, 11.870
456.377, 2.866
457.713, 14.150
459.049, 22.772
460.385, 28.386
461.721, 59.991
463.056, 36.585
464.391, 37.169
465.726, 100.743
467.061, 55.308
468.395, 49.965
469.730, 97.707
471.064, 93.243
472.398, 95.484
473.731, 96.094
475.065, 50.699
476.398, 69.497
477.731, 85.448
479.064, 56.109
480.397, 93.337
481.729, 62.229
483.062, 74.818
484.394, 93.652
485.725, 101.187
487.057, 96.684
488.389, 111.064
489.720, 98.890
491.051, 95.545
492.382, 100.169
493.712, 101.503
495.043, 102.939
496.373, 115.373
497.703, 119.932
499.032, 127.527
500.362, 139.515
501.691, 135.534
503.020, 151.988
504.349, 157.820
505.678, 177.503
507.007, 175.073
508.335, 198.081
509.663, 199.081
510.991, 247.646
512.319, 254.284
513.646, 258.478
514.973, 315.559
516.300, 337.825
517.627, 346.919
518.954, 349.393
520.280, 456.684
521.607, 466.856
522.933, 546.851
524.259, 590.117
525.584, 662.698
526.910, 772.875
528.235, 912.994
529.560, 1142.317
530.885, 1385.397
532.209, 1598.356
533.534, 2060.347
534.858, 2531.341
536.182, 3048.927
537.506, 3426.924
538.829, 3653.445
540.152, 3641.158
541.476, 3331.391
542.799, 2704.830
544.121, 2177.572
545.444, 1729.353
546.766, 1338.967
548.088, 1076.565
549.410, 846.374
550.732, 735.167
552.053, 588.791
553.375, 527.390
554.696, 430.411
556.017, 417.051
557.337, 332.672
558.658, 313.283
559.978, 260.885
561.298, 246.326
562.618, 230.837
563.938, 212.350
565.257, 249.638
566.576, 167.948
567.895, 182.315
569.214, 241.786
570.533, 196.262
571.851, 208.740
573.170, 213.083
574.488, 236.554
575.805, 231.930
577.123, 214.324
578.440, 232.727
579.758, 264.200
581.075, 242.568
582.391, 301.013
583.708, 303.443
585.024, 313.860
586.341, 339.262
587.657, 383.651
588.972, 362.025
590.288, 307.093
591.603, 291.440
592.918, 265.583
594.233, 224.871
595.548, 237.062
596.863, 215.250
598.177, 219.315
599.491, 229.350
600.805, 218.298
602.119, 211.480
603.432, 235.581
604.746, 229.219
606.059, 238.195
607.372, 243.126
608.685, 202.536
609.997, 203.605
611.309, 241.556
612.621, 229.108
613.933, 158.911
615.245, 204.550
616.557, 154.354
617.868, 156.225
619.179, 132.129
620.490, 106.159
621.801, 106.012
623.111, 133.989
624.421, 91.018
625.731, 54.980
627.041, 40.575
628.351, 103.898
629.660, 12.879
630.970, 55.842
632.279, 53.793
633.588, 29.651
634.896, 2.426
636.205, 39.474
637.513, 7.703
638.821, 20.158
640.129, 41.958
641.437, 20.792
642.744, 14.389
644.051, 52.401
645.358, 3.179
646.665, 16.938
647.972, 24.682
649.278, 0.587
650.584, 50.124
651.890, 0.177
653.196, 32.497
654.502, 24.145
655.807, 4.224
657.113, 5.385
658.418, 12.023
659.722, 33.456
661.027, 0.075
662.331, 20.413
663.636, 38.929
664.940, 46.483
666.244, 15.080
667.547, 24.701
668.851, 58.352
670.154, 20.050
671.457, 50.775
672.760, 22.542
674.062, 52.337
675.365, 43.174
676.667, 25.049
677.969, 7.951
679.271, 5.871
680.572, 42.809
681.874, 0.781
683.175, 9.232
684.476, 42.762
685.777, 46.792
687.077, 15.143
688.378, 10.930
689.678, 22.981
690.978, 16.885
692.278, 7.218
693.577, 5.667
694.877, 25.456
696.176, 17.400
697.475, 6.749
698.774, 51.091
700.072, 24.927
701.371, 20.764
702.669, 11.595
703.967, 13.477
705.265, 69.245
706.562, 46.063
707.860, 36.877
709.157, 86.686
710.454, 37.492
711.751, 117.305
713.047, 125.119
714.344, 74.937
715.640, 80.757
716.936, 103.574
718.232, 83.388
719.527, 121.199
720.823, 69.008
722.118, 91.815
723.413, 77.620
724.708, 98.423
726.002, 118.223
727.297, 111.022
728.591, 136.819
729.885, 169.614
731.179, 150.407
732.472, 124.198
733.766, 167.989
735.059, 217.778
736.352, 229.565
737.645, 174.352
738.937, 255.136
740.230, 189.922
741.522, 247.707
742.814, 221.490
744.106, 291.273
745.397, 300.055
746.689, 308.391
747.980, 295.623
749.271, 320.408
750.562, 399.201
751.853, 394.006
753.143, 382.828
754.433, 388.650
755.723, 354.474
757.013, 433.301
758.303, 418.131
759.592, 444.963
760.881, 516.799
762.170, 567.637
763.459, 543.499
764.748, 563.372
766.036, 637.247
767.325, 631.125
768.613, 626.008
769.901, 697.894
771.188, 729.788
772.476, 768.685
773.763, 758.586
775.050, 882.490
776.337, 865.396
777.624, 957.307
778.910, 949.221
780.196, 1027.137
781.482, 1012.955
782.768, 1127.682
784.054, 1165.612
785.339, 1284.834
786.625, 1325.689
787.910, 1389.543
789.195, 1505.206
790.479, 1582.721
791.764, 1765.521
793.048, 1933.748
794.332, 1999.307
795.616, 2242.169
796.900, 2465.786
798.183, 2659.698
799.467, 2968.643
800.750, 3270.705
802.033, 3636.317
803.316, 4328.103
804.598, 4774.018
805.880, 5658.019
807.163, 6555.017
808.445, 7642.018
809.726, 9145.891
811.008, 10994.722
812.289, 13329.155
813.570, 16849.566
814.851, 21287.664
816.132, 26953.898
817.413, 33781.875
818.693, 41710.727
819.973, 47625.145
821.253, 50793.574
822.533, 50291.441
823.813, 45219.223
825.092, 38764.445
826.371, 32575.785
827.650, 26869.932
828.929, 22522.246
830.208, 19032.186
831.486, 16095.303
832.764, 14209.538
834.042, 12600.947
835.320, 11567.085
836.598, 10667.902
837.875, 10315.134
839.152, 9986.414
840.429, 10069.490
841.706, 10242.820
842.983, 10586.261
844.259, 11574.675
845.536, 12597.087
846.812, 14243.905
848.088, 16192.311
849.363, 18238.084
850.639, 20270.572
851.914, 21127.619
853.189, 21437.135
854.464, 20792.662
855.739, 18933.207
857.013, 16166.764
858.288, 13694.335
859.562, 11470.922
860.836, 9444.524
862.110, 7696.144
863.383, 6383.777
864.656, 5404.425
865.930, 4532.090
867.203, 3877.769
868.475, 3340.464
869.748, 2886.174
871.020, 2591.900
872.292, 2284.641
873.564, 2013.399
874.836, 1802.172
876.108, 1641.961
877.379, 1501.767
878.650, 1376.587
879.922, 1231.430
881.192, 1136.288
882.463, 1034.226
883.733, 945.431
885.004, 876.961
886.274, 807.885
887.544, 756.825
888.813, 711.854
890.083, 666.556
891.352, 616.746
892.621, 604.999
893.890, 562.022
895.159, 553.727
896.427, 551.121
897.695, 524.304
898.964, 524.457
900.232, 494.624
901.499, 510.750
902.767, 522.627
904.034, 518.478
905.301, 638.998
906.568, 645.191
907.835, 765.435
909.102, 792.662
910.368, 928.511
911.634, 1193.772
912.900, 1348.050
914.166, 1706.344
915.432, 1994.633
916.697, 2166.119
917.962, 2284.464
919.227, 2018.910
920.492, 1741.288
921.757, 1417.684
923.021, 1188.610
924.285, 973.038
925.550, 854.484
926.813, 745.947
928.077, 666.427
929.341, 635.738
930.604, 781.436
931.867, 655.967
933.130, 722.513
934.393, 811.078
935.655, 800.174
936.918, 969.278
938.180, 968.897
939.442, 1056.534
940.703, 1176.188
941.965, 1292.084
943.226, 1419.780
944.488, 1599.494
945.749, 1884.576
947.009, 2044.318
948.270, 2313.018
949.530, 2605.161
950.791, 2823.979
952.051, 3097.372
953.311, 3358.229
954.570, 3637.957
955.830, 3737.850
957.089, 3776.016
958.348, 3736.947
959.607, 3680.128
960.866, 3517.111
962.124, 3308.111
963.383, 3189.302
964.641, 2916.931
965.899, 2691.996
967.156, 2376.896
968.414, 2074.028
969.671, 1948.176
970.928, 1625.620
972.185, 1358.833
973.442, 1244.070
974.699, 1138.333
975.955, 881.631
977.211, 707.953
978.468, 690.310
979.723, 601.834
980.979, 515.866
982.234, 531.391
983.490, 427.751
984.745, 358.379
986.000, 312.904
987.254, 285.457
988.509, 275.180
989.763, 266.769
991.017, 248.387
992.271, 153.038
993.525, 231.396
994.779, 172.122
996.032, 130.822
997.285, 148.540
998.538, 100.276
999.791, 198.026
1001.044, 178.800
1002.296, 231.588
1003.548, 121.395
1004.800, 102.215
1006.052, 86.050
1007.304, 99.899
1008.555, 82.863
1009.807, 111.749
1011.058, 61.666
1012.309, 56.606
1013.559, 77.567
1014.810, 5.544
1016.060, 93.534
1017.310, 48.544
1018.560, 28.567
1019.810, 31.605
1021.060, 42.660
1022.309, 6.728
1023.558, 53.809
1024.807, 74.901
1026.056, 29.007
1027.305, 25.126
1028.553, 33.259
1029.801, 66.496
1031.049, 14.653
1032.297, 9.833
1033.545, 52.025
1034.793, 5.228
1036.040, 24.451
1037.287, 43.686
1038.534, 37.933
1039.781, 87.207
1041.027, 11.475
1042.274, 12.245
1043.520, 3.042
1044.766, 5.343
1046.012, 33.661
1047.257, 6.010
1048.503, 60.328
1049.748, 6.323
1050.993, 13.035
1052.238, 46.596
1053.483, 65.233
1054.727, 76.884
1055.971, 20.446
1057.216, 1.214
1058.459, 12.139
1059.703, 19.499
1060.947, 15.866
1062.190, 14.241
1063.433, 2.625
1064.676, 26.980
1065.919, 30.585
1067.162, 56.807
1068.404, 2.792
1069.646, 5.616
1070.888, 59.035
1072.130, 14.539
1073.372, 12.891
1074.613, 49.330
1075.855, 38.776
1077.096, 44.162
1078.337, 27.693
1079.578, 20.163
1080.818, 13.059
1082.059, 5.549
1083.299, 16.617
1084.539, 11.883
1085.779, 11.382
1087.018, 59.121
1088.258, 53.632
1089.497, 42.148
1090.736, 25.328
1091.975, 29.191
1093.213, 15.716
1094.452, 5.752
1095.690, 19.218
1096.928, 17.688
1098.166, 5.160
1099.404, 11.370
1100.642, 9.094
1101.879, 13.441
1103.116, 34.018
1104.353, 59.512
1105.590, 21.953
1106.827, 24.575
1108.063, 20.891
1109.299, 34.636
1110.536, 17.167
1111.771, 1.704
1113.007, 44.758
1114.243, 36.762
1115.478, 10.714
1116.713, 7.806
1117.948, 24.020
1119.183, 54.246
1120.418, 26.519
1121.652, 72.024
1122.886, 136.532
1124.120, 78.049
1125.354, 28.562
1126.588, 16.474
1127.821, 6.371
1129.055, 3.128
1130.288, 10.291
1131.521, 79.847
1132.753, 16.530
1133.986, 54.047
1135.218, 43.564
1136.450, 11.558
1137.682, 100.956
1138.914, 19.669
1140.146, 80.099
1141.377, 37.392
1142.609, 15.167
1143.840, 66.743
1145.071, 63.886
1146.301, 52.371
1147.532, 106.995
1148.762, 90.520
1149.992, 33.374
1151.222, 24.074
1152.452, 43.760
1153.682, 87.240
1154.911, 64.717
1156.140, 16.193
1157.369, 118.256
1158.598, 118.723
1159.827, 124.579
1161.055, 209.769
1162.284, 429.636
1163.512, 166.295
1164.740, 238.462
1165.967, 302.825
1167.195, 108.866
1168.422, 104.261
1169.650, 116.765
1170.877, 74.211
1172.103, 76.653
1173.330, 52.309
1174.557, 137.845
1175.783, 97.513
1177.009, 2.256
1178.235, 104.671
1179.461, 87.472
1180.686, 47.121
1181.912, 132.524
1183.137, 121.723
1184.362, 106.338
1185.587, 157.728
1186.811, 39.122
1188.036, 107.502
1189.260, 67.877
1190.484, 117.002
1191.708, 126.911
1192.932, 92.799
1194.155, 151.357
1195.378, 89.598
1196.602, 137.074
1197.825, 140.294
1199.047, 116.938
1200.270, 143.531
1201.492, 159.316
1202.715, 107.291
1203.937, 173.605
1205.159, 132.921
1206.380, 195.223
1207.602, 128.914
1208.823, 127.205
1210.044, 116.491
1211.265, 166.280
1212.486, 131.577
1213.707, 166.688
1214.927, 87.951
1216.147, 156.125
1217.367, 143.756
1218.587, 162.019
1219.807, 157.746
1221.027, 92.101
1222.246, 140.344
1223.465, 129.567
1224.684, 185.784
1225.903, 164.996
1227.121, 117.201
1228.340, 176.401
1229.558, 170.599
1230.776, 166.792
1231.994, 138.465
1233.212, 132.142
1234.429, 191.318
1235.646, 149.487
1236.864, 161.650
1238.081, 109.582
1239.297, 162.730
1240.514, 174.875
1241.730, 122.671
1242.947, 152.821
1244.163, 117.027
1245.378, 166.802
1246.594, 113.924
1247.810, 112.484
1249.025, 151.596
1250.240, 145.851
1251.455, 62.955
1252.670, 53.793
1253.885, 144.877
1255.099, 42.728
1256.313, 66.800
1257.527, 111.855
1258.741, 72.731
1259.955, 114.183
1261.168, 78.216
1262.382, 72.438
1263.595, 7.562
1264.808, 27.441
1266.021, 22.170
1267.233, 62.156
1268.446, 46.134
1269.658, 39.105
1270.870, 93.071
1272.082, 17.995
1273.294, 18.889
1274.505, 13.370
1275.716, 3.881
1276.928, 36.655
1278.139, 28.487
1279.349, 84.311
1280.560, 56.127
1281.770, 19.934
1282.981, 40.567
1284.191, 26.332
1285.401, 3.089
1286.610, 51.834
1287.820, 32.881
1289.029, 31.559
1290.239, 7.268
1291.448, 55.966
1292.656, 28.655
1293.865, 36.336
1295.073, 17.001
1296.282, 24.398
1297.490, 25.306
1298.698, 42.943
1299.906, 55.572
1301.113, 66.191
1302.320, 25.299
1303.528, 47.708
1304.735, 22.140
1305.942, 11.591
1307.148, 15.943
1308.355, 26.467
1309.561, 10.017
1310.767, 75.483
1311.973, 8.976
1313.179, 0.458
1314.384, 37.927
1315.590, 59.388
1316.795, 50.840
1318.000, 25.284
1319.205, 33.718
1320.410, 24.143
1321.614, 19.558
1322.819, 74.871
1324.023, 23.733
1325.227, 22.644
1326.431, 60.011
1327.634, 14.630
1328.838, 23.712
1330.041, 50.046
1331.244, 45.373
1332.447, 64.000
1333.650, 68.987
1334.852, 62.293
1336.055, 7.593
1337.257, 11.116
1338.459, 24.162
1339.661, 70.433
1340.862, 29.699
1342.064, 83.959
1343.265, 17.214
1344.466, 73.462
1345.667, 27.713
1346.868, 48.970
1348.068, 48.236
1349.269, 4.502
1350.469, 60.750
1351.669, 95.999
1352.869, 69.246
1354.069, 86.490
1355.268, 6.730
1356.468, 60.965
1357.667, 114.202
1358.866, 75.442
1360.065, 125.682
1361.263, 11.920
1362.462, 45.156
1363.660, 64.391
1364.858, 29.665
1366.056, 45.904
1367.254, 95.145
1368.451, 88.388
1369.649, 74.636
1370.846, 77.888
1372.043, 62.147
1373.240, 65.438
1374.436, 64.740
1375.633, 61.128
1376.829, 71.758
1378.025, 57.746
1379.221, 85.929
1380.417, 90.054
1381.613, 114.106
1382.808, 93.104
1384.003, 97.711
1385.199, 120.314
1386.393, 129.921
1387.588, 78.521
1388.783, 134.122
1389.977, 159.726
1391.171, 81.331
1392.365, 109.930
1393.559, 140.534
1394.753, 58.145
1395.946, 169.659
1397.140, 103.975
1398.333, 74.563
1399.526, 149.701
1400.719, 88.574
1401.911, 64.031
1403.104, 105.364
1404.296, 87.777
1405.488, 139.738
1406.680, 127.146
1407.872, 120.469
1409.063, 142.177
1410.255, 81.452
1411.446, 179.206
1412.637, 134.425
1413.828, 291.897
1415.018, 126.859
1416.209, 144.864
1417.399, 92.380
1418.589, 189.519
1419.779, 125.713
1420.969, 109.868
1422.159, 139.790
1423.348, 101.396
1424.537, 109.292
1425.726, 91.726
1426.915, 101.267
1428.104, 124.054
1429.293, 85.141
1430.481, 162.235
1431.669, 170.169
1432.857, 135.896
1434.045, 95.719
1435.233, 178.246
1436.420, 128.004
1437.608, 121.297
1438.795, 105.255
1439.982, 161.204
1441.169, 184.278
1442.355, 166.193
1443.542, 195.434
1444.728, 117.286
1445.914, 187.913
1447.100, 158.763
1448.286, 289.600
1449.472, 132.411
1450.657, 228.196
1451.842, 252.961
1453.027, 150.708
1454.212, 212.442
1455.397, 202.148
1456.581, 169.820
1457.766, 259.456
1458.950, 179.054
1460.134, 251.612
1461.318, 176.173
1462.501, 183.700
1463.685, 229.254
1464.868, 96.788
1466.051, 232.302
1467.234, 105.798
1468.417, 158.272
1469.600, 159.716
1470.782, 99.365
1471.965, 175.088
1473.147, 140.862
1474.329, 137.627
1475.510, 79.433
1476.692, 126.338
1477.873, 86.235
1479.055, 73.211
1480.236, 218.199
1481.416, 97.223
1482.597, 174.272
1483.778, 115.352
1484.958, 90.461
1486.138, 97.591
1487.318, 70.651
1488.498, 130.902
1489.678, 105.094
1490.857, 90.318
1492.037, 197.582
1493.216, 112.896
1494.395, 125.269
1495.574, 150.707
1496.752, 38.222
1497.931, 117.824
1499.109, 102.503
1500.287, 88.264
1501.465, 66.109
1502.643, 50.043
1503.820, 86.072
1504.998, 74.205
1506.175, 13.455
1507.352, 127.841
1508.529, 55.381
1509.706, 69.097
1510.882, 73.010
1512.059, 69.141
1513.235, 105.521
1514.411, 9.808
1515.587, 79.648
1516.762, 21.990
1517.938, 78.797
1519.113, 79.167
1520.288, 41.292
1521.463, 67.018
1522.638, 47.747
1523.813, 0.000
##END=



