##NAMES=Forsterite
##RRUFFID=R040018
##IDEAL CHEMISTRY=Mg_2_SiO_4_
##LOCALITY=Trudy's mine, San Carlos, Gila County, Arizona, USA
##OWNER=RRUFF
##SOURCE=Bob Downs
##DESCRIPTION=Green fragments from xenoliths in a basalt flow
##STATUS=The identification of this mineral has been confirmed by X-ray diffraction and chemical analysis
##URL=rruff.info/R040018
##MEASURED CHEMISTRY=(Mg_1.81_Fe_0.18_Ni_0.01_)_Î£=2_Si_1.00_O_4_; trace amounts of Mn and Ca
##PIN_ID=M00006
##ORIENTATION=Laser parallel to c* (0 0 1). Fiducial mark perpendicular to laser is parallel to a [1 0 0]
126.063, 0.000
127.452, 0.437
128.840, 132.202
130.228, 57.297
131.615, 86.548
133.003, 66.232
134.390, 68.389
135.777, 21.711
137.164, 71.993
138.550, 103.733
139.937, 52.834
141.323, 110.228
142.709, 61.308
144.094, 50.236
145.480, 37.700
146.865, 52.292
148.250, 61.955
149.635, 99.692
151.019, 98.643
152.403, 100.382
153.788, 94.330
155.171, 72.340
156.555, 31.411
157.939, 56.539
159.322, 8.266
160.705, 2.990
162.088, 83.083
163.470, 21.339
164.853, 48.020
166.235, 59.242
167.617, 60.530
168.998, 159.882
170.380, 8.292
171.761, 156.756
173.142, 41.270
174.523, 83.828
175.904, 106.427
177.284, 115.062
178.664, 82.731
180.044, 123.431
181.424, 159.159
182.803, 69.911
184.183, 201.686
185.562, 109.480
186.940, 161.291
188.319, 103.139
189.698, 107.117
191.076, 75.174
192.454, 47.249
193.831, 33.323
195.209, 17.395
196.586, 32.508
197.963, 3.662
199.340, 17.951
200.717, 45.262
202.093, 14.436
203.470, 40.866
204.846, 44.151
206.221, 11.423
207.597, 16.711
208.972, 138.092
210.347, 156.460
211.722, 165.822
213.097, 176.171
214.472, 325.511
215.846, 336.889
217.220, 350.300
218.594, 384.698
219.967, 649.083
221.341, 692.457
222.714, 827.819
224.087, 899.183
225.460, 981.551
226.832, 954.910
228.204, 796.257
229.577, 710.607
230.948, 597.961
232.320, 561.992
233.692, 524.649
235.063, 553.979
236.434, 464.298
237.805, 502.607
239.175, 391.907
240.545, 411.197
241.916, 385.478
243.286, 293.750
244.655, 301.999
246.025, 314.234
247.394, 176.456
248.763, 168.519
250.132, 164.718
251.501, 119.250
252.869, 142.606
254.237, 151.002
255.605, 211.133
256.973, 199.971
258.340, 187.231
259.708, 197.310
261.075, 148.380
262.442, 134.448
263.808, 194.620
265.175, 144.204
266.541, 129.636
267.907, 206.530
269.273, 141.316
270.639, 109.905
272.004, 161.606
273.369, 136.766
274.734, 108.828
276.099, 112.295
277.463, 128.802
278.828, 80.179
280.192, 142.128
281.556, 118.019
282.919, 21.907
284.283, 208.879
285.646, 48.921
287.009, 62.740
288.372, 54.172
289.734, 143.647
291.097, 173.528
292.459, 72.592
293.821, 119.962
295.183, 191.299
296.544, 145.210
297.905, 160.407
299.266, 199.500
300.627, 319.378
301.988, 275.915
303.348, 341.922
304.709, 407.829
306.069, 366.939
307.428, 378.969
308.788, 190.003
310.147, 316.043
311.507, 267.086
312.865, 305.192
314.224, 393.241
315.583, 371.292
316.941, 425.346
318.299, 524.401
319.657, 604.457
321.015, 789.099
322.372, 909.296
323.729, 1205.496
325.086, 1329.554
326.443, 1577.590
327.800, 1613.623
329.156, 1659.643
330.512, 1538.795
331.868, 1333.326
333.224, 1410.343
334.579, 1360.972
335.935, 1250.985
337.290, 1291.125
338.645, 1207.134
339.999, 1199.141
341.354, 927.144
342.708, 842.229
344.062, 639.227
345.416, 603.220
346.769, 461.210
348.123, 340.197
349.476, 349.179
350.829, 325.159
352.182, 325.134
353.534, 142.104
354.887, 267.070
356.239, 208.030
357.591, 90.983
358.942, 143.933
360.294, 131.815
361.645, 86.753
362.996, 87.216
364.347, 55.170
365.698, 78.780
367.048, 72.744
368.398, 3.271
369.748, 38.707
371.098, 47.699
372.448, 99.690
373.797, 54.294
375.146, 7.737
376.495, 13.776
377.844, 100.830
379.192, 42.884
380.540, 32.046
381.889, 65.007
383.236, 44.089
384.584, 25.163
385.932, 4.228
387.279, 10.677
388.626, 113.333
389.973, 69.376
391.319, 55.415
392.666, 167.446
394.012, 115.479
395.358, 151.501
396.704, 79.516
398.049, 96.557
399.394, 39.601
400.740, 6.637
402.084, 95.669
403.429, 3.308
404.774, 25.703
406.118, 25.296
407.462, 48.704
408.806, 23.700
410.150, 9.685
411.493, 24.111
412.836, 26.146
414.179, 15.776
415.522, 4.314
416.865, 89.567
418.207, 30.440
419.549, 42.300
420.891, 75.219
422.233, 16.059
423.575, 52.887
424.916, 30.707
426.257, 23.515
427.598, 30.311
428.939, 36.063
430.279, 130.845
431.619, 65.588
432.959, 129.297
434.299, 135.989
435.639, 78.671
436.978, 136.343
438.318, 94.003
439.657, 59.651
440.996, 49.287
442.334, 74.914
443.673, 81.530
445.011, 5.137
446.349, 5.270
447.687, 103.307
449.024, 68.132
450.361, 59.389
451.699, 44.876
453.036, 34.353
454.372, 19.817
455.709, 24.046
457.045, 150.704
458.381, 39.129
459.717, 80.543
461.053, 97.946
462.388, 21.338
463.724, 156.714
465.059, 71.920
466.394, 69.384
467.728, 89.675
469.063, 162.956
470.397, 172.226
471.731, 139.484
473.065, 76.730
474.398, 119.965
475.732, 154.188
477.065, 125.398
478.398, 108.599
479.731, 116.786
481.063, 2.038
482.396, 59.111
483.728, 41.248
485.060, 141.369
486.391, 123.479
487.723, 91.578
489.054, 162.663
490.385, 61.737
491.716, 0.202
493.047, 97.832
494.377, 22.854
495.708, 106.858
497.038, 63.850
498.368, 106.829
499.697, 130.794
501.027, 110.747
502.356, 74.688
503.685, 148.616
505.014, 127.531
506.342, 95.434
507.671, 147.323
508.999, 128.200
510.327, 98.225
511.655, 138.076
512.982, 185.915
514.310, 170.787
515.637, 224.600
516.964, 207.401
518.291, 217.148
519.617, 233.988
520.944, 221.795
522.270, 226.481
523.596, 241.265
524.921, 322.060
526.247, 296.751
527.572, 305.987
528.897, 425.382
530.222, 421.016
531.547, 560.065
532.871, 540.922
534.196, 565.963
535.520, 920.143
536.844, 990.796
538.167, 1403.021
539.491, 1757.148
540.814, 2313.511
542.137, 2700.512
543.460, 2858.997
544.783, 2857.434
546.105, 2275.561
547.427, 2064.218
548.749, 1573.095
550.071, 1172.338
551.393, 929.818
552.714, 677.025
554.035, 599.413
555.356, 552.806
556.677, 406.183
557.998, 429.085
559.318, 328.313
560.638, 331.873
561.958, 322.156
563.278, 255.434
564.597, 249.493
565.917, 242.687
567.236, 159.626
568.555, 251.598
569.874, 114.396
571.192, 306.162
572.511, 167.768
573.829, 298.528
575.147, 248.438
576.464, 306.527
577.782, 435.396
579.099, 133.328
580.416, 332.367
581.733, 271.979
583.050, 277.896
584.366, 277.655
585.683, 345.308
586.999, 306.021
588.315, 355.761
589.630, 380.684
590.946, 364.539
592.261, 295.430
593.576, 366.303
594.891, 368.158
596.206, 416.000
597.520, 346.826
598.834, 278.547
600.148, 366.206
601.462, 345.955
602.776, 382.715
604.089, 337.527
605.402, 434.692
606.715, 568.408
608.028, 502.573
609.341, 468.152
610.653, 412.630
611.965, 423.229
613.277, 449.090
614.589, 412.258
615.901, 487.870
617.212, 391.209
618.523, 451.764
619.834, 504.332
621.145, 460.344
622.456, 568.885
623.766, 730.521
625.076, 947.951
626.386, 945.450
627.696, 992.936
629.006, 1080.409
630.315, 797.867
631.624, 655.254
632.933, 642.686
634.242, 460.104
635.551, 337.510
636.859, 454.904
638.167, 372.284
639.475, 338.065
640.783, 365.279
642.090, 472.327
643.398, 439.657
644.705, 506.975
646.012, 644.271
647.318, 651.563
648.625, 688.711
649.931, 584.468
651.237, 771.724
652.543, 628.355
653.849, 625.589
655.155, 632.684
656.460, 519.894
657.765, 477.093
659.070, 424.281
660.375, 330.615
661.679, 358.542
662.984, 215.697
664.288, 92.843
665.592, 129.977
666.895, 47.101
668.199, 124.213
669.502, 111.313
670.805, 58.403
672.108, 115.484
673.411, 82.555
674.713, 59.614
676.016, 76.665
677.318, 53.706
678.620, 10.737
679.921, 72.251
681.223, 25.302
682.524, 8.390
683.825, 81.505
685.126, 25.313
686.427, 57.877
687.727, 1.119
689.028, 94.384
690.328, 127.721
691.628, 41.127
692.927, 64.574
694.227, 8.073
695.526, 71.598
696.825, 14.822
698.124, 118.757
699.423, 37.585
700.721, 23.918
702.020, 30.244
703.318, 6.566
704.616, 6.207
705.913, 0.944
707.211, 15.460
708.508, 18.264
709.805, 27.989
711.102, 14.238
712.399, 119.521
713.695, 33.354
714.992, 132.784
716.288, 21.082
717.584, 115.034
718.879, 81.145
720.175, 87.254
721.470, 66.639
722.765, 10.563
724.060, 105.500
725.355, 48.441
726.649, 77.370
727.944, 63.407
729.238, 39.453
730.532, 215.498
731.825, 11.546
733.119, 277.592
734.412, 63.636
735.705, 159.608
736.998, 265.650
738.291, 151.692
739.584, 167.732
740.876, 123.771
742.168, 219.829
743.460, 185.887
744.752, 191.944
746.043, 208.005
747.334, 254.064
748.626, 280.125
749.916, 316.185
751.207, 252.244
752.498, 378.304
753.788, 264.365
755.078, 200.428
756.368, 326.501
757.658, 342.574
758.947, 318.658
760.237, 304.749
761.526, 370.849
762.815, 386.950
764.104, 363.077
765.392, 529.206
766.680, 415.339
767.969, 371.475
769.257, 697.617
770.544, 523.766
771.832, 449.916
773.119, 656.070
774.406, 542.228
775.693, 678.390
776.980, 514.556
778.267, 540.726
779.553, 686.926
780.839, 613.129
782.125, 859.337
783.411, 705.548
784.697, 941.764
785.982, 877.984
787.267, 854.209
788.552, 980.439
789.837, 906.676
791.122, 992.915
792.406, 1059.161
793.690, 1165.412
794.974, 1221.676
796.258, 1457.945
797.542, 1444.223
798.825, 1620.507
800.108, 1846.797
801.391, 1943.093
802.674, 2159.420
803.957, 2325.753
805.239, 2812.101
806.522, 2928.454
807.804, 3334.819
809.085, 3991.190
810.367, 4397.570
811.649, 5383.957
812.930, 6290.354
814.211, 7556.755
815.492, 9293.167
816.772, 11809.592
818.053, 15346.026
819.333, 19252.467
820.613, 25358.922
821.893, 31415.223
823.173, 36881.691
824.452, 39128.168
825.732, 37704.613
827.011, 33351.109
828.290, 28197.623
829.568, 22544.115
830.847, 18470.650
832.125, 14757.152
833.403, 12202.779
834.681, 10623.309
835.959, 8836.825
837.236, 7861.470
838.514, 7231.566
839.791, 6767.896
841.068, 6369.564
842.345, 6094.842
843.621, 6314.383
844.898, 6231.987
846.174, 6394.986
847.450, 7086.567
848.726, 7811.747
850.001, 9013.022
851.277, 10469.574
852.552, 12408.015
853.827, 14444.933
855.102, 15631.817
856.376, 16568.766
857.651, 16195.289
858.925, 14561.854
860.199, 12868.054
861.473, 10495.050
862.746, 8750.289
864.020, 7527.349
865.293, 5894.402
866.566, 5203.473
867.839, 4248.020
869.112, 3625.149
870.384, 3170.604
871.656, 2707.775
872.928, 2544.967
874.200, 2152.204
875.472, 1965.094
876.744, 1641.573
878.015, 1428.867
879.286, 1593.106
880.557, 1370.438
881.828, 1267.791
883.098, 1135.163
884.369, 1082.555
885.639, 1089.965
886.909, 907.582
888.178, 765.044
889.448, 832.524
890.717, 820.025
891.987, 787.547
893.256, 795.089
894.524, 646.296
895.793, 724.023
897.061, 701.629
898.330, 649.900
899.598, 727.547
900.865, 545.215
902.133, 662.920
903.401, 630.646
904.668, 538.441
905.935, 666.209
907.202, 553.999
908.468, 603.893
909.735, 611.724
911.001, 521.653
912.267, 699.525
913.533, 497.417
914.799, 625.498
916.064, 553.435
917.330, 581.395
918.595, 709.372
919.860, 697.370
921.124, 705.778
922.389, 679.998
923.653, 531.880
924.918, 509.961
926.182, 458.063
927.445, 423.207
928.709, 426.541
929.972, 412.498
931.236, 440.685
932.499, 438.892
933.761, 447.121
935.024, 525.371
936.286, 373.643
937.549, 391.936
938.811, 620.250
940.073, 538.586
941.334, 766.943
942.596, 585.321
943.857, 703.723
945.118, 802.144
946.379, 890.587
947.640, 1199.052
948.900, 1197.538
950.161, 1106.046
951.421, 1524.574
952.681, 1603.126
953.940, 1997.011
955.200, 2135.605
956.459, 2534.219
957.719, 2712.855
958.978, 2901.513
960.236, 3250.190
961.495, 3558.890
962.753, 3337.610
964.012, 3486.353
965.270, 3195.115
966.527, 3003.898
967.785, 2944.040
969.043, 2152.867
970.300, 2241.714
971.557, 1820.582
972.814, 1389.471
974.071, 1188.382
975.327, 887.313
976.583, 746.267
977.840, 565.902
979.095, 404.896
980.351, 414.518
981.607, 403.554
982.862, 132.611
984.117, 323.181
985.372, 132.283
986.627, 191.434
987.882, 286.689
989.136, 95.902
990.390, 325.210
991.644, 104.493
992.898, 53.818
994.152, 99.820
995.405, 10.778
996.659, 162.115
997.912, 31.610
999.165, 201.146
1000.417, 427.231
1001.670, 598.495
1002.922, 664.680
1004.174, 683.531
1005.426, 647.498
1006.678, 548.260
1007.930, 297.993
1009.181, 157.749
1010.432, 168.000
1011.683, 2.095
1012.934, 77.720
1014.185, 47.562
1015.435, 87.421
1016.685, 117.297
1017.935, 147.225
1019.185, 217.182
1020.435, 178.452
1021.684, 198.451
1022.934, 338.467
1024.183, 454.679
1025.432, 374.728
1026.680, 364.812
1027.929, 314.919
1029.177, 175.040
1030.425, 245.192
1031.673, 85.360
1032.921, 245.543
1034.169, 45.741
1035.416, 145.956
1036.663, 11.598
1037.911, 158.646
1039.157, 168.904
1040.404, 189.180
1041.650, 79.468
1042.897, 159.774
1044.143, 99.081
1045.389, 8.776
1046.634, 181.542
1047.880, 28.125
1049.125, 152.227
1050.371, 112.610
1051.615, 147.221
1052.860, 147.634
1054.105, 1.790
1055.349, 288.650
1056.593, 159.104
1057.837, 60.427
1059.081, 230.035
1060.325, 59.486
1061.568, 140.984
1062.812, 201.470
1064.055, 7.628
1065.298, 202.881
1066.540, 3.407
1067.783, 53.946
1069.025, 104.498
1070.267, 14.914
1071.509, 145.681
1072.751, 126.289
1073.993, 36.909
1075.234, 237.543
1076.475, 178.188
1077.716, 178.847
1078.957, 259.516
1080.198, 130.221
1081.438, 410.937
1082.679, 191.666
1083.919, 282.419
1085.159, 433.184
1086.398, 303.960
1087.638, 434.749
1088.877, 475.548
1090.116, 406.358
1091.355, 307.180
1092.594, 288.011
1093.833, 198.854
1095.071, 169.707
1096.309, 80.571
1097.547, 171.444
1098.785, 272.326
1100.023, 603.219
1101.260, 154.121
1102.498, 104.969
1103.735, 135.901
1104.972, 86.780
1106.208, 87.667
1107.445, 148.561
1108.681, 109.462
1109.918, 100.370
1111.154, 271.285
1112.389, 192.206
1113.625, 133.135
1114.860, 144.068
1116.096, 24.992
1117.331, 196.081
1118.566, 127.019
1119.800, 37.961
1121.035, 148.913
1122.269, 59.861
1123.503, 240.821
1124.737, 251.789
1125.971, 7.236
1127.205, 243.746
1128.438, 5.270
1129.671, 75.695
1130.904, 126.669
1132.137, 22.347
1133.370, 118.563
1134.602, 109.465
1135.834, 99.655
1137.066, 291.196
1138.298, 12.058
1139.530, 132.919
1140.762, 63.785
1141.993, 265.343
1143.224, 135.496
1144.455, 53.762
1145.686, 147.038
1146.917, 147.846
1148.147, 101.373
1149.377, 20.615
1150.607, 70.141
1151.837, 30.902
1153.067, 121.670
1154.296, 7.570
1155.526, 93.189
1156.755, 163.953
1157.984, 4.717
1159.213, 15.483
1160.441, 296.217
1161.670, 36.966
1162.898, 187.715
1164.126, 138.567
1165.354, 149.324
1166.581, 80.085
1167.809, 9.152
1169.036, 91.606
1170.263, 162.367
1171.490, 86.868
1172.717, 193.870
1173.943, 34.613
1175.170, 35.357
1176.396, 256.104
1177.622, 76.852
1178.848, 237.601
1180.073, 248.350
1181.299, 39.101
1182.524, 149.853
1183.749, 19.396
1184.974, 81.172
1186.199, 121.915
1187.423, 42.658
1188.648, 123.402
1189.872, 224.862
1191.096, 5.607
1192.320, 192.940
1193.543, 63.695
1194.767, 94.438
1195.990, 77.168
1197.213, 81.778
1198.436, 47.479
1199.659, 133.587
1200.881, 24.311
1202.104, 364.988
1203.326, 66.069
1204.548, 216.800
1205.770, 315.448
1206.991, 146.548
1208.213, 155.206
1209.434, 136.068
1210.655, 16.812
1211.876, 267.392
1213.096, 188.938
1214.317, 159.908
1215.537, 238.145
1216.757, 256.562
1217.977, 246.936
1219.197, 237.773
1220.417, 218.547
1221.636, 409.324
1222.855, 210.107
1224.074, 300.896
1225.293, 311.688
1226.512, 177.765
1227.731, 458.569
1228.949, 289.381
1230.167, 92.900
1231.385, 603.707
1232.603, 284.696
1233.820, 255.398
1235.038, 526.096
1236.255, 276.790
1237.472, 597.487
1238.689, 388.182
1239.906, 368.874
1241.122, 639.552
1242.338, 520.225
1243.555, 300.771
1244.771, 441.310
1245.986, 191.840
1247.202, 452.361
1248.417, 482.709
1249.633, 407.629
1250.848, 497.822
1252.063, 437.986
1253.277, 218.468
1254.492, 488.555
1255.706, 288.596
1256.920, 408.591
1258.134, 448.534
1259.348, 148.863
1260.562, 488.742
1261.775, 408.561
1262.988, 77.275
1264.201, 657.174
1265.414, 396.849
1266.627, 287.777
1267.839, 525.703
1269.052, 277.040
1270.264, 657.704
1271.476, 558.417
1272.688, 379.746
1273.899, 629.521
1275.111, 344.448
1276.322, 505.664
1277.533, 476.931
1278.744, 320.191
1279.955, 557.552
1281.165, 431.442
1282.376, 120.608
1283.586, 351.600
1284.796, 311.406
1286.006, 291.842
1287.215, 382.689
1288.425, 103.661
1289.634, 104.630
1290.843, 344.057
1292.052, 195.008
1293.261, 438.459
1294.469, 269.329
1295.678, 230.196
1296.886, 541.062
1298.094, 131.924
1299.302, 329.951
1300.509, 350.779
1301.717, 251.598
1302.924, 491.343
1304.131, 282.179
1305.338, 152.967
1306.545, 517.970
1307.752, 198.446
1308.958, 99.117
1310.164, 599.807
1311.370, 200.512
1312.576, 420.628
1313.782, 561.303
1314.987, 181.938
1316.193, 712.535
1317.398, 463.120
1318.603, 463.693
1319.807, 614.220
1321.012, 404.695
1322.216, 505.116
1323.421, 595.518
1324.625, 395.903
1325.829, 466.274
1327.032, 416.627
1328.236, 376.964
1329.439, 467.287
1330.642, 297.597
1331.845, 217.984
1333.048, 348.368
1334.251, 28.751
1335.453, 269.138
1336.656, 99.522
1337.858, 119.653
1339.060, 330.074
1340.261, 19.498
1341.463, 39.075
1342.664, 211.327
1343.866, 81.777
1345.067, 182.249
1346.267, 333.058
1347.468, 84.043
1348.669, 275.050
1349.869, 386.078
1351.069, 86.952
1352.269, 398.001
1353.469, 149.204
1354.668, 310.408
1355.868, 351.650
1357.067, 42.932
1358.266, 134.254
1359.465, 355.656
1360.664, 53.112
1361.862, 268.412
1363.061, 179.985
1364.259, 241.593
1365.457, 363.240
1366.655, 304.931
1367.852, 216.678
1369.050, 328.486
1370.247, 49.636
1371.444, 232.321
1372.641, 344.360
1373.838, 6.224
1375.035, 524.397
1376.231, 165.916
1377.427, 221.619
1378.623, 451.559
1379.819, 261.365
1381.015, 272.705
1382.211, 562.275
1383.406, 432.921
1384.601, 579.893
1385.796, 449.637
1386.991, 340.525
1388.185, 519.291
1389.380, 328.158
1390.574, 386.648
1391.768, 466.469
1392.962, 230.635
1394.156, 471.994
1395.350, 455.434
1396.543, 77.717
1397.736, 378.535
1398.929, 177.793
1400.122, 227.902
1401.315, 375.867
1402.507, 47.826
1403.700, 201.055
1404.892, 386.781
1406.084, 79.824
1407.276, 100.145
1408.467, 161.205
1409.659, 1.385
1410.850, 0.000
##END=



