##NAMES=Forsterite
##RRUFFID=R040018
##IDEAL CHEMISTRY=Mg_2_SiO_4_
##LOCALITY=Trudy's mine, San Carlos, Gila County, Arizona, USA
##OWNER=RRUFF
##SOURCE=Bob Downs
##DESCRIPTION=Green fragments from xenoliths in a basalt flow
##STATUS=The identification of this mineral has been confirmed by X-ray diffraction and chemical analysis
##URL=rruff.info/R040018
##MEASURED CHEMISTRY=(Mg_1.81_Fe_0.18_Ni_0.01_)_Î£=2_Si_1.00_O_4_; trace amounts of Mn and Ca
##PIN_ID=M00002
##ORIENTATION=Laser parallel to -b* (0 -1 0). Fiducial mark perpendicular to laser is parallel to c [0 0 1]
49.365, 0.000
50.765, 50.940
52.166, 51.336
53.566, 70.019
54.966, 118.782
56.365, 140.415
57.765, 267.455
59.164, 332.865
60.563, 455.792
61.962, 473.682
63.360, 517.939
64.758, 496.195
66.157, 535.063
67.554, 529.598
68.952, 451.855
70.349, 422.606
71.747, 372.618
73.144, 354.804
74.540, 365.038
75.937, 335.923
77.333, 280.715
78.729, 230.782
80.125, 196.655
81.521, 106.597
82.916, 33.539
84.311, 3.544
85.706, 1.370
87.101, 10.348
88.496, 3.166
89.890, 11.271
91.284, 12.579
92.678, 32.073
94.071, 13.564
95.465, 18.199
96.858, 0.767
98.251, 33.185
99.644, 39.779
101.036, 109.524
102.428, 116.755
103.820, 164.671
105.212, 123.522
106.604, 147.730
107.995, 207.965
109.387, 238.389
110.777, 395.620
112.168, 1129.352
113.559, 759.194
114.949, 999.103
116.339, 445.751
117.729, 356.442
119.119, 315.501
120.508, 262.553
121.897, 213.505
123.286, 202.715
124.675, 161.318
126.063, 179.024
127.452, 146.262
128.840, 194.255
130.228, 136.899
131.615, 151.554
133.003, 171.241
134.390, 117.030
135.777, 156.913
137.164, 150.877
138.550, 140.912
139.937, 168.003
141.323, 128.142
142.709, 164.333
144.094, 120.569
145.480, 137.824
146.865, 105.112
148.250, 131.394
149.635, 130.654
151.019, 116.855
152.403, 128.250
153.788, 86.493
155.171, 114.844
156.555, 102.990
157.939, 114.632
159.322, 114.006
160.705, 102.246
162.088, 106.793
163.470, 73.392
164.853, 96.902
166.235, 72.953
167.617, 56.966
168.998, 86.944
170.380, 46.765
171.761, 103.591
173.142, 72.427
174.523, 113.283
175.904, 87.168
177.284, 92.096
178.664, 115.041
180.044, 122.985
181.424, 138.927
182.803, 142.867
184.183, 130.810
185.562, 141.748
186.940, 117.682
188.319, 106.613
189.698, 119.541
191.076, 101.463
192.454, 131.379
193.831, 98.303
195.209, 108.226
196.586, 88.144
197.963, 88.061
199.340, 60.978
200.717, 79.896
202.093, 51.812
203.470, 96.728
204.846, 81.642
206.221, 89.555
207.597, 112.466
208.972, 140.428
210.347, 168.474
211.722, 182.492
213.097, 248.490
214.472, 322.425
215.846, 397.351
217.220, 514.245
218.594, 622.161
219.967, 825.946
221.341, 893.586
222.714, 1057.109
224.087, 1170.516
225.460, 1175.860
226.832, 1170.883
228.204, 1045.729
229.577, 1035.689
230.948, 805.314
232.320, 787.986
233.692, 745.131
235.063, 660.683
236.434, 644.320
237.805, 560.545
239.175, 524.936
240.545, 507.592
241.916, 442.991
243.286, 403.143
244.655, 295.355
246.025, 256.421
247.394, 239.073
248.763, 151.921
250.132, 143.764
251.501, 118.019
252.869, 140.630
254.237, 67.938
255.605, 113.381
256.973, 74.799
258.340, 80.046
259.708, 56.508
261.075, 67.730
262.442, 80.095
263.808, 29.104
265.175, 31.209
266.541, 47.816
267.907, 47.454
269.273, 39.296
270.639, 23.968
272.004, 58.742
273.369, 23.736
274.734, 36.722
276.099, 29.702
277.463, 21.676
278.828, 31.645
280.192, 43.613
281.556, 87.580
282.919, 48.547
284.283, 97.513
285.646, 84.477
287.009, 52.504
288.372, 90.630
289.734, 108.597
291.097, 145.763
292.459, 102.746
293.821, 161.917
295.183, 216.835
296.544, 222.782
297.905, 316.809
299.266, 391.762
300.627, 491.318
301.988, 595.768
303.348, 676.598
304.709, 690.136
306.069, 598.021
307.428, 552.144
308.788, 425.911
310.147, 407.815
311.507, 384.610
312.865, 388.409
314.224, 500.687
315.583, 494.430
316.941, 586.387
318.299, 684.171
319.657, 686.904
321.015, 837.688
322.372, 969.452
323.729, 1237.325
325.086, 1392.105
326.443, 1668.902
327.800, 1727.579
329.156, 1671.268
330.512, 1683.032
331.868, 1449.531
333.224, 1449.163
334.579, 1440.176
335.935, 1408.881
337.290, 1456.751
338.645, 1370.530
339.999, 1312.211
341.354, 1097.936
342.708, 918.720
344.062, 680.780
345.416, 522.756
346.769, 438.646
348.123, 276.603
349.476, 260.510
350.829, 181.467
352.182, 121.280
353.534, 146.170
354.887, 121.007
356.239, 144.945
357.591, 94.773
358.942, 74.644
360.294, 86.443
361.645, 71.250
362.996, 85.956
364.347, 54.751
365.698, 67.431
367.048, 34.311
368.398, 77.129
369.748, 81.989
371.098, 39.947
372.448, 102.937
373.797, 43.927
375.146, 67.917
376.495, 58.910
377.844, 41.899
379.192, 46.870
380.540, 19.832
381.889, 22.231
383.236, 22.706
384.584, 14.622
385.932, 6.521
387.279, 3.596
388.626, 14.271
389.973, 15.124
391.319, 7.037
392.666, 1.786
394.012, 7.403
395.358, 15.393
396.704, 47.822
398.049, 34.930
399.394, 33.326
400.740, 6.395
402.084, 8.893
403.429, 39.191
404.774, 42.484
406.118, 10.153
407.462, 13.815
408.806, 16.471
410.150, 40.121
411.493, 23.770
412.836, 14.423
414.179, 8.076
415.522, 51.733
416.865, 66.230
418.207, 89.548
419.549, 112.450
420.891, 157.053
422.233, 185.573
423.575, 250.155
424.916, 343.797
426.257, 422.227
427.598, 536.668
428.939, 651.176
430.279, 824.681
431.619, 822.149
432.959, 761.551
434.299, 681.095
435.639, 459.490
436.978, 386.935
438.318, 262.346
439.657, 204.721
440.996, 166.133
442.334, 100.591
443.673, 112.209
445.011, 63.679
446.349, 61.284
447.687, 45.881
449.024, 21.355
450.361, 38.938
451.699, 9.513
453.036, 21.080
454.372, 7.640
455.709, 14.810
457.045, 38.725
458.381, 29.748
459.717, 4.754
461.053, 38.753
462.388, 37.289
463.724, 74.146
465.059, 21.426
466.394, 34.981
467.728, 14.380
469.063, 55.771
470.397, 40.156
471.731, 33.533
473.065, 74.903
474.398, 2.733
475.732, 57.619
477.065, 17.965
478.398, 17.302
479.731, 82.633
481.063, 33.957
482.396, 50.328
483.728, 23.637
485.060, 33.940
486.391, 36.352
487.723, 31.640
489.054, 51.927
490.385, 10.201
491.716, 80.468
493.047, 71.739
494.377, 18.007
495.708, 60.228
497.038, 2.628
498.368, 50.846
499.697, 48.073
501.027, 43.795
502.356, 53.602
503.685, 6.260
505.014, 37.594
506.342, 80.844
507.671, 49.121
508.999, 89.316
510.327, 49.300
511.655, 116.537
512.982, 114.608
514.310, 70.727
515.637, 163.553
516.964, 103.243
518.291, 203.529
519.617, 150.358
520.944, 196.290
522.270, 207.395
523.596, 181.604
524.921, 246.363
526.247, 187.168
527.572, 275.371
528.897, 337.642
530.222, 345.953
531.547, 498.138
532.871, 534.922
534.196, 644.972
535.520, 862.292
536.844, 1091.217
538.167, 1566.061
539.491, 1910.260
540.814, 2497.991
542.137, 3027.560
543.460, 3410.362
544.783, 3372.041
546.105, 2769.676
547.427, 2366.193
548.749, 1768.841
550.071, 1283.482
551.393, 1077.855
552.714, 769.421
554.035, 705.754
555.356, 532.358
556.677, 399.332
557.998, 408.999
559.318, 291.847
560.638, 335.376
561.958, 267.577
563.278, 238.005
564.597, 236.659
565.917, 225.169
567.236, 221.686
568.555, 227.206
569.874, 250.816
571.192, 270.349
572.511, 232.834
573.829, 290.284
575.147, 274.909
576.464, 378.571
577.782, 380.224
579.099, 415.868
580.416, 514.504
581.733, 406.130
583.050, 502.749
584.366, 455.358
585.683, 421.959
586.999, 472.551
588.315, 462.136
589.630, 475.712
590.946, 441.279
592.261, 415.839
593.576, 425.390
594.891, 369.934
596.206, 357.469
597.520, 292.996
598.834, 287.516
600.148, 344.028
601.462, 300.531
602.776, 362.027
604.089, 314.514
605.402, 412.992
606.715, 458.399
608.028, 400.695
609.341, 496.057
610.653, 442.288
611.965, 365.559
613.277, 355.766
614.589, 309.057
615.901, 336.378
617.212, 190.699
618.523, 252.864
619.834, 227.589
621.145, 151.391
622.456, 203.766
623.766, 161.536
625.076, 160.794
626.386, 143.958
627.696, 123.291
629.006, 135.552
630.315, 125.778
631.624, 135.105
632.933, 126.943
634.242, 85.253
635.551, 112.391
636.859, 52.520
638.167, 100.815
639.475, 30.003
640.783, 60.253
642.090, 104.386
643.398, 2.443
644.705, 44.718
646.012, 37.854
647.318, 43.069
648.625, 97.105
649.931, 1.665
651.237, 67.548
652.543, 41.209
653.849, 14.412
655.155, 39.315
656.460, 28.477
657.765, 4.622
659.070, 2.739
660.375, 27.117
661.679, 22.328
662.984, 53.219
664.288, 22.150
665.592, 37.177
666.895, 50.163
668.199, 12.717
669.502, 68.313
670.805, 40.610
672.108, 17.495
673.411, 63.597
674.713, 7.258
676.016, 34.895
677.318, 21.075
678.620, 40.277
679.921, 26.510
681.223, 4.765
682.524, 37.032
683.825, 1.672
685.126, 29.630
686.427, 1.044
687.727, 0.710
689.028, 7.630
690.328, 13.981
691.628, 17.346
692.927, 13.273
694.227, 56.893
695.526, 18.489
696.825, 37.115
698.124, 11.283
699.423, 1.308
700.721, 65.896
702.020, 25.484
703.318, 74.070
704.616, 8.656
705.913, 21.241
707.211, 48.826
708.508, 34.411
709.805, 89.996
711.102, 59.591
712.399, 14.186
713.695, 87.793
714.992, 77.400
716.288, 119.016
717.584, 78.631
718.879, 31.249
720.175, 141.876
721.470, 72.503
722.765, 143.131
724.060, 102.760
725.355, 92.389
726.649, 205.018
727.944, 85.654
729.238, 130.292
730.532, 137.930
731.825, 103.569
733.119, 197.208
734.412, 150.848
735.705, 205.489
736.998, 178.130
738.291, 145.773
739.584, 205.417
740.876, 178.062
742.168, 202.711
743.460, 202.362
744.752, 228.014
746.043, 259.668
747.334, 195.324
748.626, 269.981
749.916, 272.641
751.207, 262.304
752.498, 303.968
753.788, 310.635
755.078, 289.314
756.368, 355.995
757.658, 325.678
758.947, 363.374
760.237, 359.072
761.526, 388.781
762.815, 435.493
764.104, 433.209
765.392, 484.934
766.680, 451.663
767.969, 493.397
769.257, 536.138
770.544, 539.886
771.832, 607.658
773.119, 603.443
774.406, 607.233
775.693, 699.045
776.980, 663.872
778.267, 806.704
779.553, 805.548
780.839, 833.397
782.125, 927.254
783.411, 900.114
784.697, 1066.979
785.982, 988.849
787.267, 1085.724
788.552, 1214.606
789.837, 1140.492
791.122, 1356.385
792.406, 1344.282
793.690, 1432.185
794.974, 1578.040
796.258, 1642.955
797.542, 1878.876
798.825, 2009.699
800.108, 2212.646
801.391, 2448.593
802.674, 2691.551
803.957, 2988.516
805.239, 3411.477
806.522, 3817.455
807.804, 4411.445
809.085, 5078.270
810.367, 5909.277
811.649, 7001.273
812.930, 8252.783
814.211, 9899.210
815.492, 12053.783
816.772, 15388.682
818.053, 19771.662
819.333, 24886.619
820.613, 33470.656
821.893, 41003.914
823.173, 48690.910
824.452, 52443.074
825.732, 49990.191
827.011, 45345.590
828.290, 37368.137
829.568, 29865.088
830.847, 24829.494
832.125, 19444.801
833.403, 16448.934
834.681, 13903.967
835.959, 11860.397
837.236, 10784.835
838.514, 9521.738
839.791, 9056.716
841.068, 8433.658
842.345, 7930.614
843.621, 8207.088
844.898, 8033.201
846.174, 8629.138
847.450, 9387.260
848.726, 10384.571
850.001, 12290.556
851.277, 14167.895
852.552, 17234.406
853.827, 20031.689
855.102, 21819.064
856.376, 22447.566
857.651, 22713.846
858.925, 20881.258
860.199, 18218.680
861.473, 14336.115
862.746, 12243.561
864.020, 10013.085
865.293, 8120.555
866.566, 7042.039
867.839, 5714.882
869.112, 5026.390
870.384, 4258.910
871.656, 3462.443
872.928, 3207.989
874.200, 2611.546
875.472, 2421.116
876.744, 2126.700
878.015, 1858.294
879.286, 1830.902
880.557, 1557.817
881.828, 1527.450
883.098, 1418.096
884.369, 1236.754
885.639, 1213.425
886.909, 1086.109
888.178, 1010.806
889.448, 959.515
890.717, 812.304
891.987, 816.043
893.256, 727.795
894.524, 621.268
895.793, 698.046
897.061, 571.855
898.330, 588.667
899.598, 555.491
900.865, 446.370
902.133, 604.220
903.401, 498.297
904.668, 525.176
905.935, 492.068
907.202, 483.106
908.468, 550.025
909.735, 515.956
911.001, 553.012
912.267, 665.969
913.533, 667.816
914.799, 903.800
916.064, 1042.796
917.330, 1349.009
918.595, 1809.031
919.860, 2019.296
921.124, 2125.644
922.389, 1896.705
923.653, 1448.170
924.918, 1158.256
926.182, 922.355
927.445, 775.076
928.709, 618.200
929.972, 530.336
931.236, 579.829
932.499, 458.990
933.761, 476.483
935.024, 509.668
936.286, 431.866
937.549, 536.076
938.811, 489.299
940.073, 559.533
941.334, 628.780
942.596, 636.039
943.857, 731.311
945.118, 790.594
946.379, 806.890
947.640, 1033.415
948.900, 1032.735
950.161, 1213.303
951.421, 1420.653
952.681, 1503.015
953.940, 1822.389
955.200, 1966.776
956.459, 2183.174
957.719, 2557.588
958.978, 2689.015
960.236, 3066.716
961.495, 3221.168
962.753, 3117.631
964.012, 3217.196
965.270, 2811.685
966.527, 2726.190
967.785, 2520.245
969.043, 2084.794
970.300, 2016.521
971.557, 1596.120
972.814, 1343.743
974.071, 1172.557
975.327, 927.221
976.583, 836.917
977.840, 726.624
979.095, 519.350
980.351, 534.478
981.607, 348.248
982.862, 276.041
984.117, 298.135
985.372, 192.973
986.627, 226.832
987.882, 149.705
989.136, 92.602
990.390, 177.093
991.644, 11.023
992.898, 108.967
994.152, 57.468
995.405, 13.444
996.659, 118.499
997.912, 31.493
999.165, 107.518
1000.417, 103.695
1001.670, 51.738
1002.922, 194.792
1004.174, 40.860
1005.426, 67.948
1006.678, 31.045
1007.930, 23.152
1009.181, 72.271
1010.432, 35.398
1011.683, 8.536
1012.934, 61.683
1014.185, 55.160
1015.435, 5.994
1016.685, 41.157
1017.935, 15.670
1019.185, 48.511
1020.435, 6.701
1021.684, 19.905
1022.934, 57.127
1024.183, 10.359
1025.432, 86.600
1026.680, 23.850
1027.929, 5.108
1029.177, 88.385
1030.425, 36.330
1031.673, 63.951
1032.921, 26.241
1034.169, 5.540
1035.416, 66.847
1036.663, 22.163
1037.911, 50.486
1039.157, 65.819
1040.404, 2.969
1041.650, 55.378
1042.897, 39.744
1044.143, 20.882
1045.389, 56.496
1046.634, 0.640
1047.880, 50.034
1049.125, 44.442
1050.371, 1.144
1051.615, 38.277
1052.860, 6.909
1054.105, 33.528
1055.349, 58.972
1056.593, 45.576
1057.837, 2.863
1059.081, 33.307
1060.325, 44.238
1061.568, 60.203
1062.812, 39.333
1064.055, 8.120
1065.298, 63.580
1066.540, 25.954
1067.783, 4.506
1069.025, 5.028
1070.267, 6.559
1071.509, 68.911
1072.751, 80.612
1073.993, 19.831
1075.234, 38.280
1076.475, 31.267
1077.716, 60.177
1078.957, 63.626
1080.198, 5.918
1081.438, 54.540
1082.679, 4.997
1083.919, 85.469
1085.159, 19.941
1086.398, 33.421
1087.638, 135.906
1088.877, 10.395
1090.116, 43.888
1091.355, 17.385
1092.594, 29.886
1093.833, 54.392
1095.071, 31.902
1096.309, 0.585
1097.547, 88.929
1098.785, 54.553
1100.023, 62.940
1101.260, 48.438
1102.498, 10.938
1103.735, 90.442
1104.972, 74.949
1106.208, 48.459
1107.445, 24.973
1108.681, 0.489
1109.918, 18.049
1111.154, 99.569
1112.389, 31.910
1113.625, 52.597
1114.860, 49.106
1116.096, 3.382
1117.331, 59.127
1118.566, 14.362
1119.800, 120.141
1121.035, 46.645
1122.269, 5.152
1123.503, 131.657
1124.737, 100.165
1125.971, 120.674
1127.205, 89.185
1128.438, 1.696
1129.671, 104.205
1130.904, 87.714
1132.137, 4.225
1133.370, 116.029
1134.602, 50.537
1135.834, 57.045
1137.066, 116.554
1138.298, 17.938
1139.530, 90.690
1140.762, 67.185
1141.993, 0.678
1143.224, 143.456
1144.455, 13.944
1145.686, 103.446
1146.917, 104.128
1148.147, 10.612
1149.377, 140.568
1150.607, 89.047
1151.837, 66.525
1153.067, 132.142
1154.296, 45.617
1155.526, 139.099
1156.755, 144.902
1157.984, 46.371
1159.213, 110.879
1160.441, 120.344
1161.670, 72.952
1162.898, 138.921
1164.126, 76.380
1165.354, 138.836
1166.581, 153.724
1167.809, 92.175
1169.036, 91.596
1170.263, 85.477
1171.490, 68.920
1172.717, 140.607
1173.943, 116.044
1175.170, 132.479
1176.396, 130.136
1177.622, 54.564
1178.848, 123.726
1180.073, 68.433
1181.299, 82.850
1182.524, 106.376
1183.749, 45.893
1184.974, 122.300
1186.199, 113.022
1187.423, 3.424
1188.648, 147.762
1189.872, 57.809
1191.096, 83.246
1192.320, 153.697
1193.543, 9.174
1194.767, 88.166
1195.990, 88.758
1197.213, 54.099
1198.436, 120.395
1199.659, 19.190
1200.881, 68.302
1202.104, 165.764
1203.326, 75.165
1204.548, 145.340
1205.770, 111.644
1206.991, 80.680
1208.213, 185.864
1209.434, 110.024
1210.655, 111.474
1211.876, 191.873
1213.096, 124.196
1214.317, 167.316
1215.537, 194.600
1216.757, 133.687
1217.977, 229.641
1219.197, 117.943
1220.417, 168.805
1221.636, 200.045
1222.855, 144.280
1224.074, 230.901
1225.293, 124.137
1226.512, 98.845
1227.731, 248.716
1228.949, 122.323
1230.167, 139.717
1231.385, 217.917
1232.603, 156.187
1233.820, 177.379
1235.038, 225.564
1236.255, 107.747
1237.472, 259.926
1238.689, 169.102
1239.906, 100.274
1241.122, 188.443
1242.338, 78.633
1243.555, 133.580
1244.771, 150.738
1245.986, 62.702
1247.202, 169.853
1248.417, 131.001
1249.633, 120.145
1250.848, 162.286
1252.063, 128.423
1253.277, 120.557
1254.492, 157.687
1255.706, 36.550
1256.920, 157.673
1258.134, 108.790
1259.348, 98.901
1260.562, 178.010
1261.775, 65.116
1262.988, 77.692
1264.201, 134.783
1265.414, 88.712
1266.627, 97.787
1267.839, 57.846
1269.052, 60.736
1270.264, 159.785
1271.476, 72.829
1272.688, 56.936
1273.899, 126.957
1275.111, 60.598
1276.322, 128.616
1277.533, 95.602
1278.744, 21.288
1279.955, 129.250
1281.165, 52.204
1282.376, 80.153
1283.586, 104.094
1284.796, 30.449
1286.006, 77.429
1287.215, 85.326
1288.425, 4.336
1289.634, 113.537
1290.843, 44.331
1292.052, 45.181
1293.261, 94.029
1294.469, 7.289
1295.678, 87.508
1296.886, 116.298
1298.094, 17.919
1299.302, 73.848
1300.509, 48.609
1301.717, 19.364
1302.924, 154.112
1304.131, 41.849
1305.338, 80.572
1306.545, 31.279
1307.752, 9.021
1308.958, 85.674
1310.164, 54.363
1311.370, 4.045
1312.576, 124.718
1313.782, 0.383
1314.987, 22.964
1316.193, 111.671
1317.398, 24.299
1318.603, 82.917
1319.807, 80.526
1321.012, 19.872
1322.216, 135.711
1323.421, 46.285
1324.625, 21.858
1325.829, 83.420
1327.032, 34.973
1328.236, 35.518
1329.439, 76.053
1330.642, 19.581
1331.845, 54.099
1333.048, 50.736
1334.251, 27.762
1335.453, 40.721
1336.656, 2.197
1337.858, 2.665
1339.060, 111.368
1340.261, 6.180
1341.463, 64.260
1342.664, 64.694
1343.866, 9.878
1345.067, 83.157
1346.267, 28.568
1347.468, 34.973
1348.669, 88.372
1349.869, 56.775
1351.069, 1.173
1352.269, 65.754
1353.469, 48.852
1354.668, 42.522
1355.868, 30.904
1357.067, 41.277
1358.266, 39.646
1359.465, 48.018
1360.664, 39.386
1361.862, 94.754
1363.061, 40.215
1364.259, 50.581
1365.457, 95.984
1366.655, 91.359
1367.852, 149.733
1369.050, 50.162
1370.247, 6.544
1371.444, 115.919
1372.641, 10.294
1373.838, 5.670
1375.035, 114.042
1376.231, 5.277
1377.427, 107.101
1378.623, 105.183
1379.819, 53.989
1381.015, 130.787
1382.211, 105.577
1383.406, 64.358
1384.601, 171.147
1385.796, 48.942
1386.991, 111.729
1388.185, 168.507
1389.380, 45.232
1390.574, 146.995
1391.768, 63.771
1392.962, 82.540
1394.156, 167.311
1395.350, 83.079
1396.543, 59.843
1397.736, 119.598
1398.929, 63.348
1400.122, 139.092
1401.315, 111.481
1402.507, 38.213
1403.700, 153.786
1404.892, 90.521
1406.084, 55.659
1407.276, 159.335
1408.467, 89.181
1409.659, 90.871
1410.850, 161.791
1412.041, 71.997
1413.232, 85.586
1414.423, 194.031
1415.614, 35.541
1416.804, 177.079
1417.994, 129.325
1419.184, 43.491
1420.374, 169.667
1421.564, 56.998
1422.753, 87.426
1423.943, 147.477
1425.132, 76.613
1426.321, 152.585
1427.510, 186.008
1428.698, 27.263
1429.887, 110.244
1431.075, 122.655
1432.263, 111.009
1433.451, 140.982
1434.639, 101.920
1435.827, 48.230
1437.014, 138.284
1438.201, 65.836
1439.388, 134.721
1440.575, 167.755
1441.762, 69.808
1442.949, 193.838
1444.135, 174.967
1445.321, 140.066
1446.507, 264.240
1447.693, 125.563
1448.879, 142.479
1450.064, 224.464
1451.250, 95.424
1452.435, 242.351
1453.620, 178.192
1454.805, 123.050
1455.989, 234.775
1457.174, 198.556
1458.358, 148.297
1459.542, 258.994
1460.726, 158.646
1461.910, 126.049
1463.093, 265.610
1464.277, 127.130
1465.460, 164.663
1466.643, 256.210
1467.826, 110.713
1469.009, 194.017
1470.191, 223.488
1471.373, 130.069
1472.556, 207.648
1473.738, 72.200
1474.919, 89.556
1476.101, 198.219
1477.283, 36.903
1478.464, 169.593
1479.645, 155.381
1480.826, 80.253
1482.007, 157.111
1483.187, 177.950
1484.368, 68.829
1485.548, 162.800
1486.728, 146.767
1487.908, 66.737
1489.088, 191.718
1490.268, 71.713
1491.447, 103.736
1492.626, 139.798
1493.805, 6.098
1494.984, 131.061
1496.163, 112.283
1497.341, 12.564
1498.520, 89.926
1499.698, 50.356
1500.876, 30.854
1502.054, 167.425
1503.232, 28.076
1504.409, 1.188
1505.586, 144.653
1506.763, 13.614
1507.940, 48.525
1509.117, 152.484
1510.294, 8.619
1511.470, 96.876
1512.647, 93.541
1513.823, 24.306
