##NAMES=Forsterite
##RRUFFID=R040018
##IDEAL CHEMISTRY=Mg_2_SiO_4_
##LOCALITY=Trudy's mine, San Carlos, Gila County, Arizona, USA
##OWNER=RRUFF
##SOURCE=Bob Downs
##DESCRIPTION=Green fragments from xenoliths in a basalt flow
##STATUS=The identification of this mineral has been confirmed by X-ray diffraction and chemical analysis
##URL=rruff.info/R040018
##MEASURED CHEMISTRY=(Mg_1.81_Fe_0.18_Ni_0.01_)_Î£=2_Si_1.00_O_4_; trace amounts of Mn and Ca
##PIN_ID=M00006
##ORIENTATION=Laser parallel to c* (0 0 1). Fiducial mark perpendicular to laser is parallel to a [1 0 0]
119.119, 0.000
120.508, 9.750
121.897, 24.327
123.286, 28.509
124.675, 55.009
126.063, 98.211
127.452, 105.451
128.840, 151.105
130.228, 154.192
131.615, 180.573
133.003, 192.749
134.390, 195.536
135.777, 204.021
137.164, 204.538
138.550, 203.310
139.937, 192.401
141.323, 226.717
142.709, 276.590
144.094, 283.963
145.480, 286.790
146.865, 212.033
148.250, 295.657
149.635, 245.631
151.019, 318.936
152.403, 312.986
153.788, 335.517
155.171, 284.744
156.555, 313.229
157.939, 237.946
159.322, 154.184
160.705, 271.163
162.088, 335.599
163.470, 255.964
164.853, 152.410
166.235, 213.021
167.617, 163.783
168.998, 289.690
170.380, 283.731
171.761, 165.901
173.142, 256.192
174.523, 177.598
175.904, 259.113
177.284, 235.736
178.664, 197.456
180.044, 207.268
181.424, 286.267
182.803, 189.451
184.183, 265.889
185.562, 224.517
186.940, 112.179
188.319, 121.877
189.698, 25.607
191.076, 56.368
192.454, 100.160
193.831, 69.979
195.209, 124.824
196.586, 48.695
197.963, 29.409
199.340, 35.508
200.717, 61.556
202.093, 112.438
203.470, 29.593
204.846, 0.572
206.221, 3.542
207.597, 12.516
208.972, 54.613
210.347, 83.769
211.722, 97.766
213.097, 81.351
214.472, 142.687
215.846, 183.023
217.220, 242.391
218.594, 186.785
219.967, 357.184
221.341, 332.615
222.714, 459.123
224.087, 578.643
225.460, 653.175
226.832, 547.722
228.204, 562.280
229.577, 606.873
230.948, 491.571
232.320, 606.283
233.692, 490.992
235.063, 465.703
236.434, 540.410
237.805, 485.117
239.175, 489.822
240.545, 321.526
241.916, 529.223
243.286, 372.583
244.655, 447.483
246.025, 362.433
247.394, 351.785
248.763, 265.052
250.132, 242.458
251.501, 260.940
252.869, 269.426
254.237, 218.917
255.605, 288.410
256.973, 202.908
258.340, 217.412
259.708, 211.919
261.075, 246.431
262.442, 280.946
263.808, 195.464
265.175, 249.984
266.541, 244.505
267.907, 279.026
269.273, 273.546
270.639, 178.064
272.004, 202.583
273.369, 237.098
274.734, 231.610
276.099, 286.118
277.463, 285.382
278.828, 185.122
280.192, 279.617
281.556, 254.107
282.919, 201.859
284.283, 244.286
285.646, 227.973
287.009, 261.054
288.372, 328.996
289.734, 482.548
291.097, 506.208
292.459, 552.651
293.821, 806.973
295.183, 1061.073
296.544, 1405.682
297.905, 2073.482
299.266, 2569.270
300.627, 3133.434
301.988, 3852.659
303.348, 4168.614
304.709, 4247.518
306.069, 3691.848
307.428, 3226.157
308.788, 2430.569
310.147, 2044.925
311.507, 1639.307
312.865, 1195.394
314.224, 1149.982
315.583, 935.829
316.941, 950.316
318.299, 754.795
319.657, 829.290
321.015, 843.835
322.372, 862.390
323.729, 960.136
325.086, 894.653
326.443, 929.827
327.800, 754.358
329.156, 809.007
330.512, 594.920
331.868, 449.473
333.224, 414.614
334.579, 319.385
335.935, 314.053
337.290, 270.747
338.645, 285.907
339.999, 187.223
341.354, 114.027
342.708, 268.606
344.062, 153.189
345.416, 127.769
346.769, 152.345
348.123, 137.098
349.476, 144.697
350.829, 149.304
352.182, 150.796
353.534, 155.422
354.887, 140.020
356.239, 144.619
357.591, 49.246
358.942, 73.787
360.294, 178.341
361.645, 52.572
362.996, 127.120
364.347, 59.304
365.698, 74.754
367.048, 59.465
368.398, 5.785
369.748, 108.815
371.098, 6.589
372.448, 31.995
373.797, 47.416
375.146, 51.862
376.495, 51.135
377.844, 39.754
379.192, 5.151
380.540, 29.639
381.889, 32.168
383.236, 48.861
384.584, 53.505
385.932, 48.168
387.279, 72.821
388.626, 127.475
389.973, 62.115
391.319, 66.751
392.666, 211.391
394.012, 146.137
395.358, 160.779
396.704, 215.408
398.049, 140.081
399.394, 134.741
400.740, 138.657
402.084, 224.032
403.429, 148.662
404.774, 183.307
406.118, 227.900
407.462, 182.484
408.806, 227.055
410.150, 411.589
411.493, 396.078
412.836, 710.541
414.179, 764.991
415.522, 889.427
416.865, 993.849
418.207, 1068.261
419.549, 852.658
420.891, 807.042
422.233, 681.412
423.575, 525.768
424.916, 380.106
426.257, 364.433
427.598, 118.742
428.939, 303.038
430.279, 237.319
431.619, 181.584
432.959, 125.836
434.299, 140.069
435.639, 164.289
436.978, 178.492
438.318, 112.681
439.657, 126.852
440.996, 101.007
442.334, 24.853
443.673, 59.256
445.011, 83.333
446.349, 17.405
447.687, 131.459
449.024, 44.497
450.361, 49.495
451.699, 53.474
453.036, 12.562
454.372, 31.365
455.709, 45.272
457.045, 29.164
458.381, 26.967
459.717, 6.854
461.053, 70.642
462.388, 45.587
463.724, 8.125
465.059, 38.198
466.394, 75.424
467.728, 89.027
469.063, 72.613
470.397, 116.180
471.731, 139.729
473.065, 13.260
474.398, 66.758
475.732, 20.234
477.065, 93.681
478.398, 107.107
479.731, 180.515
481.063, 93.902
482.396, 22.729
483.728, 9.416
485.060, 293.850
486.391, 47.095
487.723, 110.314
489.054, 83.514
490.385, 26.693
491.716, 149.839
493.047, 52.965
494.377, 76.055
495.708, 89.142
497.038, 12.196
498.368, 55.212
499.697, 61.799
501.027, 11.111
502.356, 153.980
503.685, 116.829
505.014, 169.657
506.342, 142.463
507.671, 85.248
508.999, 148.010
510.327, 140.752
511.655, 143.471
512.982, 107.225
514.310, 113.699
515.637, 112.553
516.964, 105.184
518.291, 167.793
519.617, 174.197
520.944, 177.914
522.270, 160.618
523.596, 169.379
524.921, 209.188
526.247, 192.809
527.572, 96.428
528.897, 121.007
530.222, 140.808
531.547, 229.027
532.871, 369.991
534.196, 67.970
535.520, 131.861
536.844, 20.115
538.167, 242.810
539.491, 130.972
540.814, 223.168
542.137, 178.431
543.460, 319.941
544.783, 338.915
546.105, 191.130
547.427, 345.034
548.749, 287.161
550.071, 259.767
551.393, 215.489
552.714, 171.190
554.035, 224.996
555.356, 286.889
556.677, 211.956
557.998, 363.795
559.318, 319.664
560.638, 529.334
561.958, 301.089
563.278, 389.188
564.597, 340.887
565.917, 413.943
567.236, 375.588
568.555, 427.204
569.874, 308.792
571.192, 540.354
572.511, 401.887
573.829, 513.394
575.147, 604.872
576.464, 466.879
577.782, 758.303
579.099, 689.700
580.416, 701.071
581.733, 682.415
583.050, 863.730
584.366, 875.021
585.683, 1016.282
586.999, 967.519
588.315, 1208.727
589.630, 1249.910
590.946, 1401.065
592.261, 1522.194
593.576, 1808.307
594.891, 2244.373
596.206, 2515.424
597.520, 2976.448
598.834, 3447.445
600.148, 4208.416
601.462, 4836.115
602.776, 5657.016
604.089, 6217.910
605.402, 6607.912
606.715, 6858.757
608.028, 6604.910
609.341, 6335.588
610.653, 5746.262
611.965, 4884.239
613.277, 4434.410
614.589, 3764.860
615.901, 3214.854
617.212, 2811.693
618.523, 2510.583
619.834, 2251.127
621.145, 1976.634
622.456, 1865.430
623.766, 1791.295
625.076, 1821.745
626.386, 1792.226
627.696, 1702.609
629.006, 1793.053
630.315, 1493.477
631.624, 1272.195
632.933, 1042.414
634.242, 1001.371
635.551, 821.684
636.859, 752.001
638.167, 622.296
639.475, 792.534
640.783, 608.755
642.090, 655.769
643.398, 785.982
644.705, 795.527
646.012, 775.702
647.318, 915.750
648.625, 924.520
649.931, 834.639
651.237, 944.156
652.543, 894.030
653.849, 733.993
655.155, 761.918
656.460, 651.358
657.765, 554.630
659.070, 652.396
660.375, 282.373
661.679, 402.330
662.984, 192.273
664.288, 252.201
665.592, 251.936
666.895, 121.831
668.199, 191.712
669.502, 21.577
670.805, 131.352
672.108, 171.136
673.411, 120.897
674.713, 150.611
676.016, 29.608
677.318, 10.122
678.620, 89.824
679.921, 70.489
681.223, 49.130
682.524, 51.253
683.825, 8.323
685.126, 12.337
686.427, 92.893
687.727, 73.473
689.028, 55.900
690.328, 104.731
691.628, 46.392
692.927, 117.235
694.227, 20.851
695.526, 81.689
696.825, 37.234
698.124, 33.679
699.423, 134.631
700.721, 95.674
702.020, 13.213
703.318, 17.913
704.616, 10.934
705.913, 0.231
707.211, 51.413
708.508, 52.637
709.805, 24.003
711.102, 114.705
712.399, 206.596
713.695, 71.984
714.992, 190.561
716.288, 30.869
717.584, 87.675
718.879, 103.787
720.175, 64.689
721.470, 26.839
722.765, 121.612
724.060, 190.059
725.355, 48.502
726.649, 186.939
727.944, 105.374
729.238, 123.805
730.532, 332.232
731.825, 19.343
733.119, 399.072
734.412, 347.484
735.705, 85.895
736.998, 324.303
738.291, 132.709
739.584, 221.113
740.876, 299.518
742.168, 247.921
743.460, 306.322
744.752, 331.764
746.043, 323.126
747.334, 411.528
748.626, 409.930
749.916, 478.333
751.207, 376.736
752.498, 325.143
753.788, 383.549
755.078, 211.957
756.368, 450.387
757.658, 388.832
758.947, 457.279
760.237, 385.730
761.526, 404.189
762.815, 512.674
764.104, 301.184
765.392, 609.709
766.680, 648.238
767.969, 466.785
769.257, 765.340
770.544, 533.900
771.832, 492.473
773.119, 741.068
774.406, 499.676
775.693, 678.291
776.980, 766.934
778.267, 815.590
779.553, 734.277
780.839, 832.967
782.125, 911.666
783.411, 890.375
784.697, 969.088
785.982, 937.812
787.267, 1076.551
788.552, 1085.295
789.837, 1154.059
791.122, 1282.832
792.406, 1461.613
793.690, 1559.822
794.974, 1589.203
796.258, 1828.037
797.542, 1716.896
798.825, 1835.766
800.108, 2124.656
801.391, 2373.553
802.674, 2712.504
803.957, 2831.467
805.239, 3150.445
806.522, 3459.436
807.804, 3958.438
809.085, 4477.455
810.367, 5156.492
811.649, 6295.547
812.930, 7314.641
814.211, 8613.756
815.492, 10652.887
816.772, 13462.051
818.053, 17191.221
819.333, 21660.408
820.613, 28499.613
821.893, 34978.828
823.173, 40678.066
824.452, 43436.242
825.732, 41525.508
827.011, 36994.785
828.290, 31454.094
829.568, 25113.426
830.847, 20948.949
832.125, 17016.998
833.403, 14416.402
834.681, 12749.582
835.959, 11088.932
837.236, 10333.500
838.514, 9911.855
839.791, 9729.004
841.068, 9641.172
842.345, 9754.629
843.621, 10594.303
844.898, 11226.033
846.174, 12511.553
847.450, 14572.707
848.726, 17070.031
850.001, 21053.670
851.277, 25753.553
852.552, 31760.373
853.827, 38310.961
855.102, 42584.059
856.376, 46663.953
857.651, 45762.156
858.925, 42072.133
860.199, 36931.641
861.473, 30058.033
862.746, 24934.451
864.020, 20632.787
865.293, 16013.035
866.566, 13570.105
867.839, 11110.840
869.112, 9161.172
870.384, 7939.582
871.656, 6509.965
872.928, 5934.004
874.200, 4824.457
875.472, 4513.553
876.744, 3994.061
878.015, 3384.596
879.286, 3445.156
880.557, 2925.746
881.828, 2726.363
883.098, 2627.008
884.369, 2377.682
885.639, 2097.826
886.909, 1988.559
888.178, 1679.318
889.448, 1730.105
890.717, 1460.920
891.987, 1341.764
893.256, 1192.639
894.524, 963.541
895.793, 1184.475
897.061, 1125.436
898.330, 956.428
899.598, 1127.447
900.865, 868.494
902.133, 819.570
903.401, 880.678
904.668, 571.865
905.935, 863.084
907.202, 674.328
908.468, 679.379
909.735, 830.686
911.001, 452.041
912.267, 823.406
913.533, 624.803
914.799, 681.047
916.064, 452.504
917.330, 306.418
918.595, 567.934
919.860, 339.477
921.124, 461.090
922.389, 262.691
923.653, 414.799
924.918, 246.457
926.182, 368.145
927.445, 109.861
928.709, 236.188
929.972, 283.381
931.236, 395.182
932.499, 327.012
933.761, 378.871
935.024, 400.760
936.286, 352.678
937.549, 484.623
938.811, 576.598
940.073, 498.600
941.334, 800.631
942.596, 452.691
943.857, 624.781
945.118, 666.900
946.379, 699.045
947.640, 1002.883
948.900, 1265.084
950.161, 1107.316
951.421, 1660.674
952.681, 1812.961
953.940, 2363.592
955.200, 2755.934
956.459, 3078.303
957.719, 4050.701
958.978, 4573.125
960.236, 5145.578
961.495, 5868.057
962.753, 5610.566
964.012, 6063.102
965.270, 5525.662
966.527, 5438.250
967.785, 5474.758
969.043, 4187.398
970.300, 4180.066
971.557, 3422.760
972.814, 2865.480
974.071, 2598.225
975.327, 2020.998
976.583, 1793.803
977.840, 1638.678
979.095, 1031.535
980.351, 1097.260
981.607, 1020.170
982.862, 583.119
984.117, 891.395
985.372, 624.402
986.627, 717.465
987.882, 611.436
989.136, 404.568
990.390, 677.836
991.644, 441.033
992.898, 384.289
994.152, 448.035
995.405, 301.363
996.659, 553.436
997.912, 376.861
999.165, 350.348
1000.417, 864.426
1001.670, 987.996
1002.922, 1451.584
1004.174, 1266.975
1005.426, 940.658
1006.678, 670.141
1007.930, 523.896
1009.181, 437.680
1010.432, 336.615
1011.683, 260.354
1012.934, 254.322
1014.185, 154.477
1015.435, 128.418
1016.685, 102.428
1017.935, 32.244
1019.185, 291.805
1020.435, 395.938
1021.684, 240.033
1022.934, 694.146
1024.183, 481.625
1025.432, 515.801
1026.680, 450.000
1027.929, 434.215
1029.177, 508.445
1030.425, 392.693
1031.673, 336.955
1032.921, 303.953
1034.169, 198.730
1035.416, 219.896
1036.663, 84.225
1037.911, 128.736
1039.157, 193.092
1040.404, 187.459
1041.650, 101.846
1042.897, 266.270
1044.143, 41.193
1045.389, 245.646
1046.634, 280.115
1047.880, 104.602
1049.125, 269.105
1050.371, 213.625
1051.615, 338.156
1052.860, 82.703
1054.105, 99.221
1055.349, 293.791
1056.593, 288.385
1057.837, 106.889
1059.081, 207.695
1060.325, 2.846
1061.568, 137.449
1062.812, 132.066
1064.055, 122.867
1065.298, 251.727
1066.540, 73.670
1067.783, 40.926
1069.025, 175.531
1070.267, 0.148
1071.509, 224.775
1072.751, 20.586
1073.993, 44.053
1075.234, 298.701
1076.475, 163.363
1077.716, 308.031
1078.957, 262.705
1080.198, 177.428
1081.438, 372.160
1082.679, 346.900
1083.919, 341.650
1085.159, 566.408
1086.398, 241.176
1087.638, 545.949
1088.877, 280.729
1090.116, 285.514
1091.355, 230.309
1092.594, 295.109
1093.833, 439.914
1095.071, 304.721
1096.309, 40.463
1097.547, 244.342
1098.785, 69.148
1100.023, 26.037
1101.260, 228.768
1102.498, 146.422
1103.735, 168.314
1104.972, 283.059
1106.208, 67.805
1107.445, 262.553
1108.681, 167.309
1109.918, 92.062
1111.154, 386.818
1112.389, 151.578
1113.625, 216.338
1114.860, 291.100
1116.096, 64.139
1117.331, 200.631
1118.566, 195.357
1119.800, 80.084
1121.035, 24.836
1122.269, 219.586
1123.503, 134.336
1124.737, 309.086
1125.971, 26.164
1127.205, 408.562
1128.438, 36.713
1129.671, 267.982
1130.904, 222.678
1132.137, 72.631
1133.370, 232.010
1134.602, 116.648
1135.834, 158.719
1137.066, 465.812
1138.298, 20.336
1139.530, 244.852
1140.762, 169.361
1141.993, 306.143
1143.224, 368.674
1144.455, 117.039
1145.686, 167.168
1146.917, 241.375
1148.147, 144.426
1149.377, 169.701
1150.607, 153.900
1151.837, 2.000
1153.067, 232.062
1154.296, 63.887
1155.526, 70.139
1156.755, 264.162
1157.984, 51.836
1159.213, 162.145
1160.441, 409.572
1161.670, 66.455
1162.898, 267.482
1164.126, 71.701
1165.354, 15.637
1166.581, 349.633
1167.809, 73.547
1169.036, 157.455
1170.263, 221.357
1171.490, 14.744
1172.717, 329.068
1173.943, 352.871
1175.170, 116.666
1176.396, 440.453
1177.622, 154.229
1178.848, 298.000
1180.073, 241.764
1181.299, 95.520
1182.524, 379.266
1183.749, 133.002
1184.974, 76.732
1186.199, 500.455
1187.423, 154.164
1188.648, 327.867
1189.872, 307.738
1191.096, 61.424
1192.320, 475.168
1193.543, 199.875
1194.767, 173.523
1195.990, 228.521
1197.213, 142.697
1198.436, 186.314
1199.659, 330.998
1200.881, 135.406
1202.104, 398.127
1203.326, 293.984
1204.548, 127.494
1205.770, 567.217
1206.991, 71.242
1208.213, 194.693
1209.434, 338.154
1210.655, 81.936
1211.876, 470.549
1213.096, 264.537
1214.317, 275.838
1215.537, 539.238
1216.757, 384.264
1217.977, 487.602
1219.197, 490.973
1220.417, 294.236
1221.636, 517.592
1222.855, 401.059
1224.074, 454.400
1225.293, 457.699
1226.512, 370.715
1227.731, 623.990
1228.949, 517.256
1230.167, 271.207
1231.385, 784.459
1232.603, 618.131
1233.820, 471.414
1235.038, 824.646
1236.255, 407.871
1237.472, 821.090
1238.689, 664.301
1239.906, 537.424
1241.122, 970.525
1242.338, 743.600
1243.555, 514.994
1244.771, 738.027
1245.986, 401.012
1247.202, 672.893
1248.417, 665.852
1249.633, 630.480
1250.848, 443.402
1252.063, 676.307
1253.277, 509.174
1254.492, 702.021
1255.706, 404.852
1256.920, 817.670
1258.134, 610.271
1259.348, 312.840
1260.562, 885.375
1261.775, 557.883
1262.988, 206.469
1264.201, 888.920
1265.414, 511.348
1266.627, 459.797
1267.839, 622.168
1269.052, 444.508
1270.264, 836.818
1271.476, 739.098
1272.688, 509.295
1273.899, 801.520
1275.111, 500.885
1276.322, 793.922
1277.533, 765.740
1278.744, 482.205
1279.955, 834.373
1281.165, 645.975
1282.376, 296.482
1283.586, 587.783
1284.796, 298.768
1286.006, 590.180
1287.215, 470.539
1288.425, 103.879
1289.634, 308.807
1290.843, 401.650
1292.052, 285.211
1293.261, 456.914
1294.469, 434.377
1295.678, 162.371
1296.886, 765.734
1298.094, 312.314
1299.302, 354.100
1300.509, 387.242
1301.717, 430.434
1302.924, 629.879
1304.131, 312.996
1305.338, 13.906
1306.545, 469.170
1307.752, 352.150
1308.958, 124.982
1310.164, 847.994
1311.370, 90.951
1312.576, 573.270
1313.782, 716.129
1314.987, 318.945
1316.193, 701.730
1317.398, 589.369
1318.603, 491.760
1319.807, 873.594
1321.012, 556.109
1322.216, 588.043
1323.421, 780.561
1324.625, 273.049
1325.829, 515.502
1327.032, 737.928
1328.236, 230.324
1329.439, 542.631
1330.642, 364.844
1331.845, 247.018
1333.048, 449.150
1334.251, 58.754
1335.453, 493.303
1336.656, 185.322
1337.858, 47.316
1339.060, 329.291
1340.261, 31.244
1341.463, 93.283
1342.664, 395.287
1343.866, 47.260
1345.067, 269.199
1346.267, 511.109
1347.468, 2.953
1348.669, 324.873
1349.869, 216.674
1351.069, 98.449
1352.269, 470.217
1353.469, 342.004
1354.668, 133.783
1355.868, 365.635
1357.067, 97.574
1358.266, 139.617
1359.465, 351.682
1360.664, 23.137
1361.862, 435.797
1363.061, 348.512
1364.259, 131.143
1365.457, 444.094
1366.655, 197.037
1367.852, 310.041
1369.050, 335.014
1370.247, 112.838
1371.444, 468.719
1372.641, 421.471
1373.838, 94.207
1375.035, 777.262
1376.231, 130.348
1377.427, 223.455
1378.623, 496.578
1379.819, 379.717
1381.015, 432.879
1382.211, 656.074
1383.406, 420.605
1384.601, 739.914
1385.796, 648.301
1386.991, 309.137
1388.185, 788.105
1389.380, 372.525
1390.574, 604.812
1391.768, 685.129
1392.962, 336.107
1394.156, 776.098
1395.350, 546.930
1396.543, 282.119
1397.736, 522.217
1398.929, 373.254
1400.122, 404.824
1401.315, 789.037
1402.507, 305.049
1403.700, 351.820
1404.892, 740.078
1406.084, 358.082
1407.276, 586.002
1408.467, 394.172
1409.659, 57.881
1410.850, 600.105
1412.041, 377.645
1413.232, 274.721
1414.423, 701.631
1415.614, 207.816
1416.804, 547.402
1417.994, 787.393
1419.184, 67.682
1420.374, 593.242
1421.564, 473.148
1422.753, 30.605
1423.943, 494.223
1425.132, 507.688
1426.321, 148.711
1427.510, 600.980
1428.698, 1.150
1429.887, 0.000
##END=



