##NAMES=Forsterite
##RRUFFID=R040018
##IDEAL CHEMISTRY=Mg_2_SiO_4_
##LOCALITY=Trudy's mine, San Carlos, Gila County, Arizona, USA
##OWNER=RRUFF
##SOURCE=Bob Downs
##DESCRIPTION=Green fragments from xenoliths in a basalt flow
##STATUS=The identification of this mineral has been confirmed by X-ray diffraction and chemical analysis
##URL=rruff.info/R040018
##MEASURED CHEMISTRY=(Mg_1.81_Fe_0.18_Ni_0.01_)_Î£=2_Si_1.00_O_4_; trace amounts of Mn and Ca
##PIN_ID=M00008
##ORIENTATION=Laser parallel to a* (1 0 0). Fiducial mark perpendicular to laser is parallel to b [0 1 0]
49.365, 0.000
50.765, 1.392
52.166, 58.042
53.566, 124.690
54.966, 204.041
56.365, 256.835
57.765, 323.497
59.164, 421.714
60.563, 462.309
61.962, 505.713
63.360, 585.208
64.758, 704.166
66.157, 737.635
67.554, 777.318
68.952, 788.247
70.349, 764.130
71.747, 700.114
73.144, 621.080
74.540, 548.212
75.937, 442.426
77.333, 354.952
78.729, 299.769
80.125, 212.298
81.521, 162.206
82.916, 81.798
84.311, 63.623
85.706, 20.673
87.101, 3.062
88.496, 43.588
89.890, 69.912
91.284, 48.038
92.678, 59.968
94.071, 25.297
95.465, 64.752
96.858, 157.390
98.251, 257.199
99.644, 324.166
101.036, 452.277
102.428, 500.508
103.820, 600.846
105.212, 666.288
106.604, 776.834
107.995, 878.480
109.387, 1034.227
110.777, 1342.073
112.168, 1314.336
113.559, 1508.059
114.949, 1385.198
116.339, 1422.434
117.729, 1510.768
119.119, 1698.197
120.508, 1794.702
121.897, 1753.558
123.286, 2029.067
124.675, 1594.886
126.063, 1516.803
127.452, 1399.816
128.840, 1414.923
130.228, 1420.125
131.615, 1462.419
133.003, 1441.826
134.390, 1418.396
135.777, 1426.115
137.164, 1414.856
138.550, 1469.919
139.937, 1423.966
141.323, 1421.087
142.709, 1441.263
144.094, 1389.470
145.480, 1419.697
146.865, 1376.944
148.250, 1456.201
149.635, 1464.446
151.019, 1414.653
152.403, 1394.769
153.788, 1386.728
155.171, 1362.582
156.555, 1357.449
157.939, 1284.363
159.322, 1286.330
160.705, 1274.351
162.088, 1326.426
163.470, 1257.555
164.853, 1283.739
166.235, 1253.978
167.617, 1251.271
168.998, 1180.619
170.380, 1129.023
171.761, 1149.480
173.142, 1173.003
174.523, 1130.590
175.904, 1156.231
177.284, 1110.926
178.664, 1092.690
180.044, 1095.507
181.424, 1088.381
182.803, 1055.329
184.183, 1085.342
185.562, 1091.410
186.940, 1071.534
188.319, 1044.723
189.698, 1023.989
191.076, 1010.326
192.454, 1060.721
193.831, 1058.192
195.209, 1027.733
196.586, 1070.340
197.963, 1050.021
199.340, 1060.763
200.717, 1052.558
202.093, 1031.407
203.470, 1050.301
204.846, 1108.242
206.221, 1041.230
207.597, 1044.264
208.972, 1051.346
210.347, 1136.475
211.722, 1138.652
213.097, 1229.876
214.472, 1261.150
215.846, 1429.377
217.220, 1564.156
218.594, 1623.947
219.967, 1854.560
221.341, 1912.971
222.714, 2015.173
224.087, 1968.170
225.460, 1984.937
226.832, 1941.433
228.204, 1754.706
229.577, 1628.794
230.948, 1461.690
232.320, 1382.356
233.692, 1314.749
235.063, 1228.730
236.434, 1188.240
237.805, 1109.506
239.175, 1055.768
240.545, 975.085
241.916, 958.448
243.286, 921.550
244.655, 911.523
246.025, 870.134
247.394, 800.456
248.763, 763.951
250.132, 784.317
251.501, 725.797
252.869, 718.360
254.237, 670.647
255.605, 653.542
256.973, 632.066
258.340, 625.088
259.708, 623.936
261.075, 587.540
262.442, 636.043
263.808, 617.041
265.175, 575.265
266.541, 611.532
267.907, 630.841
269.273, 567.193
270.639, 542.585
272.004, 520.018
273.369, 564.492
274.734, 553.006
276.099, 549.561
277.463, 543.154
278.828, 554.786
280.192, 544.458
281.556, 551.167
282.919, 552.512
284.283, 548.699
285.646, 568.520
287.009, 574.378
288.372, 609.273
289.734, 589.204
291.097, 647.170
292.459, 695.171
293.821, 784.207
295.183, 853.926
296.544, 1033.030
297.905, 1262.168
299.266, 1495.338
300.627, 1879.563
301.988, 2101.797
303.348, 2287.064
304.709, 2196.612
306.069, 1938.939
307.428, 1771.298
308.788, 1458.686
310.147, 1239.105
311.507, 1005.095
312.865, 848.883
314.224, 863.037
315.583, 784.578
316.941, 796.149
318.299, 858.752
319.657, 774.753
321.015, 901.576
322.372, 910.275
323.729, 1112.100
325.086, 1100.139
326.443, 1218.333
327.800, 1206.892
329.156, 1204.838
330.512, 1141.724
331.868, 1051.480
333.224, 1048.426
334.579, 1048.899
335.935, 1120.905
337.290, 1182.669
338.645, 1185.694
339.999, 1227.236
341.354, 1113.496
342.708, 988.121
344.062, 924.322
345.416, 789.551
346.769, 707.820
348.123, 590.667
349.476, 529.981
350.829, 411.846
352.182, 500.235
353.534, 459.654
354.887, 363.103
356.239, 429.590
357.591, 350.105
358.942, 361.646
360.294, 381.244
361.645, 274.884
362.996, 287.562
364.347, 225.290
365.698, 242.045
367.048, 268.850
368.398, 282.681
369.748, 258.570
371.098, 240.497
372.448, 233.467
373.797, 200.476
375.146, 255.518
376.495, 202.593
377.844, 160.698
379.192, 199.814
380.540, 150.949
381.889, 97.096
383.236, 135.268
384.584, 126.457
385.932, 74.667
387.279, 109.896
388.626, 95.142
389.973, 70.406
391.319, 76.706
392.666, 145.025
394.012, 85.382
395.358, 76.767
396.704, 92.175
398.049, 42.625
399.394, 28.100
400.740, 4.648
402.084, 69.178
403.429, 45.733
404.774, 98.642
406.118, 153.902
407.462, 101.552
408.806, 112.230
410.150, 173.938
411.493, 212.679
412.836, 180.454
414.179, 300.266
415.522, 328.121
416.865, 343.026
418.207, 422.989
419.549, 375.002
420.891, 391.067
422.233, 361.164
423.575, 290.290
424.916, 220.439
426.257, 258.611
427.598, 218.804
428.939, 277.018
430.279, 264.252
431.619, 264.508
432.959, 281.783
434.299, 236.079
435.639, 313.395
436.978, 378.729
438.318, 313.084
439.657, 358.458
440.996, 301.851
442.334, 186.263
443.673, 194.693
445.011, 131.142
446.349, 84.609
447.687, 167.093
449.024, 38.596
450.361, 68.117
451.699, 17.654
453.036, 90.209
454.372, 20.781
455.709, 60.630
457.045, 37.960
458.381, 6.566
459.717, 43.189
461.053, 0.172
462.388, 4.482
463.724, 19.151
465.059, 47.164
466.394, 16.524
467.728, 59.228
469.063, 20.947
470.397, 130.680
471.731, 23.572
473.065, 14.815
474.398, 79.047
475.732, 34.711
477.065, 19.483
478.398, 10.269
479.731, 15.933
481.063, 7.124
482.396, 19.696
483.728, 37.433
485.060, 11.598
486.391, 15.753
487.723, 97.901
489.054, 3.070
490.385, 42.773
491.716, 28.373
493.047, 44.485
494.377, 68.646
495.708, 8.213
497.038, 49.918
498.368, 30.054
499.697, 15.002
501.027, 34.130
502.356, 15.258
503.685, 74.892
505.014, 5.969
506.342, 3.166
507.671, 15.819
508.999, 61.324
510.327, 12.518
511.655, 8.377
512.982, 52.072
514.310, 23.919
515.637, 73.701
516.964, 41.187
518.291, 32.140
519.617, 108.961
520.944, 161.771
522.270, 127.095
523.596, 54.972
524.921, 200.643
526.247, 97.860
527.572, 159.377
528.897, 190.443
530.222, 212.788
531.547, 198.688
532.871, 293.477
534.196, 276.733
535.520, 326.565
536.844, 458.981
538.167, 660.382
539.491, 702.526
540.814, 950.654
542.137, 1132.442
543.460, 1277.208
544.783, 1178.576
546.105, 887.496
547.427, 813.547
548.749, 630.769
550.071, 394.744
551.393, 335.993
552.714, 172.074
554.035, 183.807
555.356, 176.833
556.677, 101.309
557.998, 100.349
559.318, 38.686
560.638, 95.710
561.958, 52.733
563.278, 28.287
564.597, 19.303
565.917, 98.669
567.236, 54.677
568.555, 110.682
569.874, 49.686
571.192, 208.688
572.511, 84.687
573.829, 112.683
575.147, 214.677
576.464, 231.668
577.782, 297.656
579.099, 291.641
580.416, 458.622
581.733, 446.599
583.050, 519.573
584.366, 600.542
585.683, 624.508
586.999, 687.469
588.315, 678.427
589.630, 674.379
590.946, 639.327
592.261, 613.014
593.576, 568.568
594.891, 540.145
596.206, 461.074
597.520, 432.000
598.834, 375.919
600.148, 507.834
601.462, 581.743
602.776, 632.648
604.089, 590.547
605.402, 728.440
606.715, 756.329
608.028, 710.212
609.341, 788.089
610.653, 774.960
611.965, 621.826
613.277, 630.687
614.589, 472.893
615.901, 451.741
617.212, 463.584
618.523, 431.420
619.834, 391.230
621.145, 368.055
622.456, 341.874
623.766, 315.205
625.076, 362.243
626.386, 306.043
627.696, 348.837
629.006, 420.625
630.315, 296.868
631.624, 183.335
632.933, 185.460
634.242, 172.224
635.551, 223.981
636.859, 134.732
638.167, 137.111
639.475, 115.694
640.783, 60.426
642.090, 130.058
643.398, 143.499
644.705, 171.812
646.012, 153.784
647.318, 171.394
648.625, 238.088
649.931, 190.937
651.237, 190.619
652.543, 140.800
653.849, 184.471
655.155, 153.406
656.460, 43.105
657.765, 110.309
659.070, 98.816
660.375, 62.017
661.679, 131.570
662.984, 32.153
664.288, 41.715
665.592, 34.719
666.895, 60.723
668.199, 54.282
669.502, 16.783
670.805, 13.271
672.108, 21.256
673.411, 23.187
674.713, 49.617
676.016, 102.958
677.318, 38.606
678.620, 30.294
679.921, 72.017
681.223, 18.203
682.524, 77.589
683.825, 22.559
685.126, 107.304
686.427, 31.241
687.727, 57.213
689.028, 39.233
690.328, 13.292
691.628, 23.377
692.927, 0.508
694.227, 24.375
695.526, 4.664
696.825, 37.074
698.124, 24.090
699.423, 11.717
700.721, 0.488
702.020, 7.289
703.318, 41.053
704.616, 28.812
705.913, 46.436
707.211, 26.278
708.508, 49.014
709.805, 9.344
711.102, 68.305
712.399, 57.049
713.695, 37.554
714.992, 18.153
716.288, 68.701
717.584, 109.290
718.879, 8.875
720.175, 72.129
721.470, 24.947
722.765, 78.603
724.060, 74.149
725.355, 55.694
726.649, 105.236
727.944, 123.776
729.238, 165.313
730.532, 194.849
731.825, 127.385
733.119, 229.919
734.412, 150.453
735.705, 118.984
736.998, 173.514
738.291, 113.042
739.584, 149.569
740.876, 171.094
742.168, 211.620
743.460, 213.766
744.752, 208.666
746.043, 206.190
747.334, 218.713
748.626, 219.453
749.916, 226.644
751.207, 230.282
752.498, 241.804
753.788, 238.326
755.078, 246.849
756.368, 244.371
757.658, 269.895
758.947, 368.422
760.237, 264.950
761.526, 384.479
762.815, 290.010
764.104, 220.542
765.392, 381.080
766.680, 336.619
767.969, 369.159
769.257, 443.712
770.544, 366.273
771.832, 379.836
773.119, 492.402
774.406, 348.969
775.693, 506.540
776.980, 381.112
778.267, 522.688
779.553, 484.276
780.839, 516.866
782.125, 598.459
783.411, 537.055
784.697, 683.653
785.982, 604.258
787.267, 630.867
788.552, 643.491
789.837, 618.119
791.122, 798.750
792.406, 706.385
793.690, 749.025
794.974, 910.671
796.258, 854.305
797.542, 990.986
798.825, 998.683
800.108, 1129.397
801.391, 1220.134
802.674, 1304.909
803.957, 1481.690
805.239, 1642.481
806.522, 1632.276
807.804, 1991.088
809.085, 2184.903
810.367, 2533.742
811.649, 2986.405
812.930, 3482.270
814.211, 4034.146
815.492, 4920.541
816.772, 6162.445
818.053, 7894.029
819.333, 9705.810
820.613, 12777.475
821.893, 15614.140
823.173, 18646.088
824.452, 20327.250
825.732, 19578.277
827.011, 18257.383
828.290, 15748.801
829.568, 13160.780
830.847, 11604.908
832.125, 9793.064
833.403, 8891.750
834.681, 8227.900
835.959, 7799.272
837.236, 7935.112
838.514, 7776.668
839.791, 8370.690
841.068, 8929.450
842.345, 9466.670
843.621, 10955.019
844.898, 12044.919
846.174, 14074.259
847.450, 16965.031
848.726, 20306.830
850.001, 25687.924
851.277, 31210.055
852.552, 39569.543
853.827, 47421.059
855.102, 52611.996
856.376, 58383.398
857.651, 56395.691
858.925, 52467.816
860.199, 45996.219
861.473, 36698.418
862.746, 30746.926
864.020, 24577.613
865.293, 19160.018
866.566, 16337.989
867.839, 12870.410
869.112, 11142.550
870.384, 9305.017
871.656, 7607.502
872.928, 7049.471
874.200, 5911.991
875.472, 5532.171
876.744, 4974.726
878.015, 4547.298
879.286, 4639.888
880.557, 4412.495
881.828, 4435.118
883.098, 4297.760
884.369, 4000.866
885.639, 3643.541
886.909, 3166.319
888.178, 2649.029
889.448, 2530.756
890.717, 2129.501
891.987, 1995.263
893.256, 1759.043
894.524, 1599.850
895.793, 1521.675
897.061, 1339.519
898.330, 1330.774
899.598, 1331.664
900.865, 1202.571
902.133, 1191.497
903.401, 1231.441
904.668, 1040.404
905.935, 1133.385
907.202, 1038.411
908.468, 1095.429
909.735, 1152.466
911.001, 1162.399
912.267, 1321.474
913.533, 1272.568
914.799, 1581.780
916.064, 1752.912
917.330, 1946.170
918.595, 2582.340
919.860, 2785.529
921.124, 2981.007
922.389, 2654.232
923.653, 2140.479
924.918, 1871.914
926.182, 1473.197
927.445, 1372.539
928.709, 1274.861
929.972, 1123.348
931.236, 1230.467
932.499, 1043.845
933.761, 1213.242
935.024, 1223.661
936.286, 1193.099
937.549, 1301.556
938.811, 1419.031
940.073, 1515.526
941.334, 1578.040
942.596, 1543.573
943.857, 1757.126
945.118, 2004.697
946.379, 2074.288
947.640, 2539.102
948.900, 2592.730
950.161, 2748.448
951.421, 3264.553
952.681, 3378.237
953.940, 4080.128
955.200, 4243.849
956.459, 4937.586
957.719, 5451.342
958.978, 5645.116
960.236, 6298.909
961.495, 6384.566
962.753, 5968.393
964.012, 6044.117
965.270, 5297.983
966.527, 4991.867
967.785, 4565.792
969.043, 3669.736
970.300, 3533.699
971.557, 2747.682
972.814, 2291.683
974.071, 1907.380
975.327, 1458.439
976.583, 1251.518
977.840, 952.619
979.095, 790.750
980.351, 715.712
981.607, 578.880
982.862, 389.099
984.117, 484.477
985.372, 301.763
986.627, 386.092
987.882, 327.440
989.136, 220.834
990.390, 301.248
991.644, 185.715
992.898, 170.213
994.152, 168.537
995.405, 26.115
996.659, 217.053
997.912, 92.688
999.165, 165.344
1000.417, 248.304
1001.670, 234.000
1002.922, 266.460
1004.174, 304.462
1005.426, 232.233
1006.678, 134.866
1007.930, 60.680
1009.181, 22.396
1010.432, 3.354
1011.683, 5.767
1012.934, 14.869
1014.185, 43.058
1015.435, 47.012
1016.685, 69.008
1017.935, 73.788
1019.185, 67.083
1020.435, 58.146
1021.684, 66.222
1022.934, 53.774
1024.183, 101.457
1025.432, 17.595
1026.680, 54.758
1027.929, 79.933
1029.177, 130.122
1030.425, 59.362
1031.673, 41.576
1032.921, 115.802
1034.169, 23.959
1035.416, 59.288
1036.663, 6.453
1037.911, 76.816
1039.157, 134.102
1040.404, 61.402
1041.650, 21.715
1042.897, 131.065
1044.143, 41.556
1045.389, 85.941
1046.634, 59.492
1047.880, 19.145
1049.125, 114.284
1050.371, 21.781
1051.615, 125.245
1052.860, 107.750
1054.105, 38.265
1055.349, 148.789
1056.593, 0.648
1057.837, 64.923
1059.081, 133.504
1060.325, 30.904
1061.568, 29.689
1062.812, 51.484
1064.055, 4.903
1065.298, 127.715
1066.540, 34.657
1067.783, 88.969
1069.025, 38.602
1070.267, 57.751
1071.509, 135.881
1072.751, 66.529
1073.993, 6.816
1075.234, 119.843
1076.475, 0.490
1077.716, 132.184
1078.957, 5.135
1080.198, 22.425
1081.438, 96.283
1082.679, 46.005
1083.919, 112.232
1085.159, 124.969
1086.398, 27.711
1087.638, 176.459
1088.877, 53.212
1090.116, 3.971
1091.355, 66.734
1092.594, 38.503
1093.833, 49.276
1095.071, 26.055
1096.309, 97.163
1097.547, 43.578
1098.785, 42.677
1100.023, 48.946
1101.260, 23.767
1102.498, 141.517
1103.735, 5.133
1104.972, 48.784
1106.208, 29.440
1107.445, 60.104
1108.681, 48.896
1109.918, 34.502
1111.154, 54.152
1112.389, 34.189
1113.625, 27.978
1114.860, 46.624
1116.096, 45.412
1117.331, 27.401
1118.566, 53.058
1119.800, 45.714
1121.035, 34.399
1122.269, 7.938
1123.503, 174.730
1124.737, 109.398
1125.971, 31.068
1127.205, 193.740
1128.438, 43.588
1129.671, 111.058
1130.904, 109.705
1132.137, 110.638
1133.370, 140.312
1134.602, 20.896
1135.834, 80.479
1137.066, 86.593
1138.298, 45.173
1139.530, 89.412
1140.762, 55.989
1141.993, 4.437
1143.224, 126.271
1144.455, 5.066
1145.686, 166.618
1146.917, 111.315
1148.147, 74.142
1149.377, 189.501
1150.607, 63.138
1151.837, 17.759
1153.067, 179.814
1154.296, 0.313
1155.526, 168.206
1156.755, 203.929
1157.984, 60.376
1159.213, 127.437
1160.441, 181.542
1161.670, 46.776
1162.898, 171.354
1164.126, 42.104
1165.354, 153.511
1166.581, 97.860
1167.809, 71.251
1169.036, 129.633
1170.263, 132.726
1171.490, 124.243
1172.717, 159.448
1173.943, 97.867
1175.170, 144.207
1176.396, 125.615
1177.622, 36.937
1178.848, 59.245
1180.073, 102.742
1181.299, 58.031
1182.524, 170.988
1183.749, 79.476
1184.974, 102.647
1186.199, 166.825
1187.423, 57.892
1188.648, 212.208
1189.872, 133.647
1191.096, 2.070
1192.320, 152.103
1193.543, 49.547
1194.767, 2.851
1195.990, 116.579
1197.213, 69.323
1198.436, 84.413
1199.659, 161.865
1200.881, 107.928
1202.104, 246.978
1203.326, 130.754
1204.548, 141.749
1205.770, 296.062
1206.991, 105.234
1208.213, 210.797
1209.434, 72.262
1210.655, 173.210
1211.876, 256.046
1213.096, 200.967
1214.317, 186.830
1215.537, 358.736
1216.757, 223.969
1217.977, 239.560
1219.197, 298.885
1220.417, 281.723
1221.636, 301.567
1222.855, 237.488
1224.074, 282.234
1225.293, 247.248
1226.512, 194.482
1227.731, 194.462
1228.949, 156.996
1230.167, 66.148
1231.385, 355.839
1232.603, 240.619
1233.820, 248.303
1235.038, 193.951
1236.255, 168.699
1237.472, 326.321
1238.689, 254.932
1239.906, 223.531
1241.122, 384.120
1242.338, 215.697
1243.555, 217.069
1244.771, 262.626
1245.986, 145.272
1247.202, 289.368
1248.417, 199.891
1249.633, 244.212
1250.848, 285.710
1252.063, 169.415
1253.277, 183.624
1254.492, 227.089
1255.706, 119.564
1256.920, 326.297
1258.134, 202.727
1259.348, 59.396
1260.562, 270.799
1261.775, 101.188
1262.988, 76.306
1264.201, 249.656
1265.414, 153.993
1266.627, 132.833
1267.839, 199.132
1269.052, 188.401
1270.264, 264.672
1271.476, 225.922
1272.688, 172.492
1273.899, 266.677
1275.111, 167.032
1276.322, 177.433
1277.533, 142.545
1278.744, 73.520
1279.955, 246.872
1281.165, 171.942
1282.376, 60.998
1283.586, 210.038
1284.796, 53.055
1286.006, 189.012
1287.215, 160.937
1288.425, 6.050
1289.634, 92.889
1290.843, 149.327
1292.052, 109.101
1293.261, 199.795
1294.469, 105.187
1295.678, 106.006
1296.886, 108.748
1298.094, 3.747
1299.302, 70.835
1300.509, 127.549
1301.717, 86.085
1302.924, 234.601
1304.131, 52.054
1305.338, 45.472
1306.545, 166.866
1307.752, 26.243
1308.958, 64.403
1310.164, 269.905
1311.370, 34.195
1312.576, 181.463
1313.782, 155.710
1314.987, 39.062
1316.193, 256.127
1317.398, 149.287
1318.603, 128.427
1319.807, 179.543
1321.012, 126.639
1322.216, 262.703
1323.421, 210.707
1324.625, 98.724
1325.829, 238.687
1327.032, 115.622
1328.236, 93.536
1329.439, 270.424
1330.642, 33.285
1331.845, 38.119
1333.048, 123.924
1334.251, 65.293
1335.453, 126.439
1336.656, 14.979
1337.858, 16.698
1339.060, 105.198
1340.261, 0.125
1341.463, 26.524
1342.664, 189.998
1343.866, 86.454
1345.067, 154.041
1346.267, 229.519
1347.468, 77.022
1348.669, 214.389
1349.869, 75.782
1351.069, 96.156
1352.269, 56.511
1353.469, 52.852
1354.668, 156.984
1355.868, 157.294
1357.067, 136.592
1358.266, 120.877
1359.465, 132.156
1360.664, 7.424
1361.862, 214.679
1363.061, 3.936
1364.259, 133.179
1365.457, 206.418
1366.655, 68.657
1367.852, 165.895
1369.050, 77.135
1370.247, 63.621
1371.444, 190.609
1372.641, 3.143
1373.838, 52.118
1375.035, 321.904
1376.231, 108.081
1377.427, 127.445
1378.623, 138.577
1379.819, 103.498
1381.015, 172.860
1382.211, 143.197
1383.406, 154.511
1384.601, 272.847
1385.796, 181.189
1386.991, 130.558
1388.185, 252.940
1389.380, 92.290
1390.574, 227.564
1391.768, 225.323
1392.962, 139.482
1394.156, 274.391
1395.350, 82.615
1396.543, 29.833
1397.736, 249.020
1398.929, 130.178
1400.122, 102.344
1401.315, 208.081
1402.507, 105.269
1403.700, 199.799
1404.892, 198.140
1406.084, 27.631
1407.276, 167.421
1408.467, 192.298
1409.659, 46.028
1410.850, 254.645
1412.041, 18.907
1413.232, 186.769
1414.423, 336.991
1415.614, 63.427
1416.804, 210.823
1417.994, 234.368
1419.184, 58.666
1420.374, 353.396
1421.564, 137.014
1422.753, 59.605
1423.943, 152.014
1425.132, 161.511
1426.321, 245.857
1427.510, 235.875
1428.698, 213.671
1429.887, 256.637
1431.075, 186.837
1432.263, 130.357
1433.451, 210.850
1434.639, 83.004
1435.827, 94.037
1437.014, 325.209
1438.201, 35.537
1439.388, 197.459
1440.575, 379.251
1441.762, 238.711
1442.949, 447.893
1444.135, 369.668
1445.321, 440.844
1446.507, 371.538
1447.693, 439.627
1448.879, 370.230
1450.064, 511.403
1451.250, 372.547
1452.435, 503.858
1453.620, 555.098
1454.805, 416.238
1455.989, 536.944
1457.174, 487.933
1458.358, 418.844
1459.542, 637.504
1460.726, 488.139
1461.910, 308.396
1463.093, 648.568
1464.277, 367.124
1465.460, 487.419
1466.643, 436.318
1467.826, 159.497
1469.009, 468.481
1470.191, 398.447
1471.373, 247.670
1472.556, 346.748
1473.738, 286.444
1474.919, 256.029
1476.101, 385.809
1477.283, 265.691
1478.464, 345.845
1479.645, 366.264
1480.826, 216.075
1482.007, 256.390
1483.187, 376.731
1484.368, 177.177
1485.548, 277.860
1486.728, 278.519
1487.908, 119.128
1489.088, 289.701
1490.268, 140.243
1491.447, 170.847
