##NAMES=Forsterite
##RRUFFID=R040057
##IDEAL CHEMISTRY=Mg_2_SiO_4_
##LOCALITY=Trudy's mine, San Carlos, Gila County, Arizona, USA
##OWNER=RRUFF
##SOURCE=Bob Downs
##DESCRIPTION=Dark green crystal fragments from xenoliths in a basalt flow
##STATUS=The identification of this mineral has been confirmed by X-ray diffraction and chemical analysis
##URL=rruff.info/R040057
##MEASURED CHEMISTRY=(Mg_1.67_Fe_0.32_Ni_0.01_)_Î£=2_Si_1.00_O_4_; trace amounts of Mn and Ca
##PIN_ID=L00065
##ORIENTATION=Laser parallel to -a* (-1 0 0). Fiducial mark perpendicular to laser is parallel to c [0 0 1]
90.587, 0.000
91.981, 1.571
93.375, 21.367
94.768, 18.445
96.161, 4.498
97.554, 26.785
98.947, 12.795
100.340, 29.191
101.732, 23.724
103.124, 30.210
104.516, 52.979
105.908, 57.603
107.300, 104.102
108.691, 81.240
110.082, 112.854
111.473, 115.894
112.864, 173.319
114.254, 217.087
115.644, 290.168
117.034, 298.532
118.424, 295.159
119.813, 330.027
121.203, 269.120
122.592, 138.421
123.981, 168.915
125.369, 136.589
126.758, 103.429
128.146, 101.425
129.534, 154.573
130.922, 126.865
132.309, 132.292
133.696, 87.840
135.083, 187.496
136.470, 108.252
137.857, 161.100
139.243, 138.036
140.630, 164.060
142.016, 94.173
143.401, 174.376
144.787, 250.667
146.172, 218.043
147.557, 112.498
148.942, 140.028
150.327, 205.628
151.711, 120.295
153.096, 179.024
154.480, 124.812
155.863, 109.655
157.247, 151.551
158.630, 111.497
160.013, 110.489
161.396, 124.527
162.779, 88.608
164.161, 84.730
165.544, 110.900
166.926, 85.197
168.308, 74.558
169.689, 121.947
171.070, 57.362
172.452, 136.803
173.833, 157.258
175.213, 177.695
176.594, 110.121
177.974, 235.542
179.354, 108.962
180.734, 153.389
182.114, 169.822
183.493, 191.267
184.872, 156.725
186.251, 187.226
187.630, 191.778
189.008, 235.380
190.387, 220.089
191.765, 192.878
193.143, 247.719
194.520, 214.618
195.898, 273.572
197.275, 263.572
198.652, 368.602
200.029, 261.644
201.405, 344.696
202.782, 373.760
204.158, 475.832
205.534, 583.912
206.909, 602.000
208.285, 716.094
209.660, 764.194
211.035, 845.302
212.410, 1001.415
213.784, 1122.533
215.159, 1233.657
216.533, 1126.786
217.907, 1193.918
219.281, 1108.052
220.654, 1061.189
222.027, 994.331
223.400, 914.476
224.773, 831.626
226.146, 842.782
227.518, 780.943
228.891, 709.111
230.263, 728.285
231.634, 701.467
233.006, 563.655
234.377, 540.850
235.748, 605.052
237.119, 438.578
238.490, 303.258
239.860, 421.513
241.231, 481.506
242.601, 482.254
243.970, 247.870
245.340, 314.004
246.709, 259.577
248.079, 200.195
249.448, 308.702
250.816, 219.792
252.185, 109.988
253.553, 95.184
254.921, 83.399
256.289, 76.433
257.657, 129.444
259.024, 58.594
260.391, 119.893
261.758, 65.120
263.125, 106.516
264.492, 53.974
265.858, 54.487
267.224, 91.083
268.590, 58.786
269.956, 74.548
271.321, 91.236
272.687, 118.071
274.052, 57.936
275.416, 175.825
276.781, 110.765
278.146, 131.830
279.510, 161.062
280.874, 183.086
282.237, 242.909
283.601, 250.180
284.964, 245.745
286.327, 338.319
287.690, 376.705
289.053, 363.638
290.416, 575.771
291.778, 572.827
293.140, 810.202
294.502, 939.687
295.863, 1119.688
297.225, 1205.947
298.586, 1221.950
299.947, 1237.109
301.308, 1195.765
302.668, 1064.620
304.029, 999.149
305.389, 928.589
306.749, 943.082
308.108, 946.584
309.468, 1006.006
310.827, 1025.679
312.186, 1114.064
313.545, 1137.560
314.903, 1136.964
316.262, 1133.265
317.620, 1279.729
318.978, 1399.199
320.336, 1502.640
321.693, 1570.982
323.051, 1648.220
324.408, 1536.747
325.765, 1514.951
327.121, 1373.406
328.478, 1349.758
329.834, 1290.330
331.190, 1398.762
332.546, 1236.957
333.902, 1303.298
335.257, 1171.553
336.612, 1109.127
337.967, 967.441
339.322, 765.719
340.677, 777.075
342.031, 540.326
343.385, 491.579
344.739, 336.846
346.093, 293.115
347.446, 243.390
348.799, 233.686
350.153, 180.996
351.505, 219.342
352.858, 266.686
354.210, 250.048
355.563, 204.426
356.915, 318.817
358.267, 374.225
359.618, 395.645
360.969, 500.075
362.321, 636.523
363.672, 750.001
365.022, 820.503
366.373, 853.009
367.723, 900.522
369.073, 796.030
370.423, 657.534
371.773, 523.050
373.122, 464.559
374.471, 411.063
375.821, 265.592
377.169, 242.141
378.518, 163.680
379.866, 168.229
381.215, 107.768
382.563, 10.687
383.910, 7.848
385.258, 30.372
386.605, 67.885
387.952, 58.594
389.299, 3.097
390.646, 34.613
391.992, 20.146
393.339, 8.686
394.685, 32.762
396.031, 116.199
397.376, 163.624
398.722, 210.036
400.067, 312.435
401.412, 460.819
402.757, 582.190
404.101, 471.532
405.446, 417.849
406.790, 343.150
408.134, 217.438
409.478, 205.711
410.821, 142.971
412.165, 62.216
413.508, 95.447
414.851, 117.663
416.193, 47.863
417.536, 87.050
418.878, 76.226
420.220, 121.393
421.562, 45.549
422.904, 61.694
424.245, 98.827
425.586, 105.948
426.927, 118.058
428.268, 58.153
429.609, 45.235
430.949, 42.303
432.289, 78.355
433.629, 45.394
434.969, 47.417
436.309, 50.423
437.648, 46.414
438.987, 24.387
440.326, 4.343
441.665, 39.721
443.003, 3.830
444.342, 10.036
445.680, 1.881
447.018, 45.296
448.355, 57.523
449.693, 1.805
451.030, 52.115
452.367, 2.479
453.704, 22.870
455.041, 10.699
456.377, 15.754
457.713, 35.245
459.049, 1.218
460.385, 16.697
461.721, 8.179
463.056, 5.410
464.391, 5.254
465.726, 29.047
467.061, 24.327
468.395, 24.767
469.730, 36.866
471.064, 14.550
472.398, 50.086
473.731, 31.248
475.065, 50.235
476.398, 76.707
477.731, 43.049
479.064, 43.682
480.397, 56.172
481.729, 81.832
483.062, 108.356
484.394, 42.797
485.725, 119.099
487.057, 60.406
488.389, 85.642
489.720, 40.915
491.051, 68.548
492.382, 148.173
493.712, 91.319
495.043, 112.370
496.373, 43.944
497.703, 102.217
499.032, 119.745
500.362, 109.979
501.691, 155.475
503.020, 162.355
504.349, 168.061
505.678, 167.576
507.007, 191.055
508.335, 206.446
509.663, 253.737
510.991, 305.837
512.319, 272.961
513.646, 318.810
514.973, 323.137
516.300, 445.882
517.627, 450.367
518.954, 438.023
520.280, 567.293
521.607, 516.566
522.933, 584.471
524.259, 638.743
525.584, 680.875
526.910, 766.326
528.235, 868.126
529.560, 1094.334
530.885, 1294.421
532.209, 1503.296
533.534, 1852.414
534.858, 2238.949
536.182, 2613.624
537.506, 2965.690
538.829, 3182.711
540.152, 3156.843
541.476, 2846.412
542.799, 2275.950
544.121, 1962.808
545.444, 1440.761
546.766, 1152.323
548.088, 968.082
549.410, 830.492
550.732, 724.729
552.053, 590.721
553.375, 549.848
554.696, 495.622
556.017, 460.009
557.337, 418.361
558.658, 416.679
559.978, 330.034
561.298, 460.283
562.618, 369.498
563.938, 444.679
565.257, 475.825
566.576, 479.937
567.895, 509.015
569.214, 533.060
570.533, 590.755
571.851, 642.044
573.170, 725.986
574.488, 804.893
575.805, 872.748
577.123, 1002.586
578.440, 1207.392
579.758, 1402.162
581.075, 1653.846
582.391, 2076.548
583.708, 2423.218
585.024, 2703.853
586.341, 2964.453
587.657, 3066.987
588.972, 2834.427
590.288, 2397.813
591.603, 2083.279
592.918, 1730.599
594.233, 1509.888
595.548, 1355.149
596.863, 1114.354
598.177, 1039.426
599.491, 1023.324
600.805, 853.418
602.119, 884.701
603.432, 806.523
604.746, 862.038
606.059, 791.530
607.372, 715.191
608.685, 749.290
609.997, 571.172
611.309, 582.112
612.621, 517.713
613.933, 479.186
615.245, 483.121
616.557, 446.778
617.868, 406.669
619.179, 359.382
620.490, 307.577
621.801, 362.550
623.111, 311.824
624.421, 359.165
625.731, 157.429
627.041, 334.659
628.351, 117.944
629.660, 113.951
630.970, 221.219
632.279, 61.351
633.588, 109.545
634.896, 13.813
636.205, 78.882
637.513, 8.915
638.821, 70.938
640.129, 80.030
641.437, 86.197
642.744, 102.225
644.051, 94.235
645.358, 104.046
646.665, 89.978
647.972, 100.661
649.278, 121.918
650.584, 96.766
651.890, 112.277
653.196, 47.155
654.502, 19.681
655.807, 36.569
657.113, 32.834
658.418, 37.995
659.722, 24.437
661.027, 23.938
662.331, 25.626
663.636, 6.154
664.940, 57.361
666.244, 24.953
667.547, 118.604
668.851, 40.637
670.154, 53.152
671.457, 46.014
672.760, 37.943
674.062, 50.937
675.365, 38.998
676.667, 34.123
677.969, 67.306
679.271, 110.566
680.572, 85.924
681.874, 21.367
683.175, 27.860
684.476, 19.595
685.777, 5.021
687.077, 50.587
688.378, 40.742
689.678, 2.046
690.978, 101.682
692.278, 89.498
693.577, 66.607
694.877, 50.311
696.176, 29.713
697.475, 46.286
698.774, 79.662
700.072, 57.591
701.371, 29.500
702.669, 52.613
703.967, 66.221
705.265, 111.048
706.562, 32.860
707.860, 30.342
709.157, 109.420
710.454, 2.168
711.751, 190.895
713.047, 158.605
714.344, 127.300
715.640, 51.979
716.936, 97.642
718.232, 141.291
719.527, 134.923
720.823, 121.541
722.118, 150.146
723.413, 124.735
724.708, 81.312
726.002, 157.874
727.297, 83.423
728.591, 205.960
729.885, 177.514
731.179, 130.007
732.472, 183.513
733.766, 152.008
735.059, 165.491
736.352, 197.962
737.645, 244.423
738.937, 261.874
740.230, 197.314
741.522, 282.745
742.814, 272.166
744.106, 287.584
745.397, 381.994
746.689, 337.396
747.980, 413.788
749.271, 450.174
750.562, 427.551
751.853, 363.933
753.143, 508.308
754.433, 446.684
755.723, 538.063
757.013, 535.458
758.303, 507.851
759.592, 508.238
760.881, 579.623
762.170, 623.019
763.459, 648.439
764.748, 682.865
766.036, 692.303
767.325, 636.754
768.613, 679.226
769.901, 806.696
771.188, 817.175
772.476, 959.665
773.763, 903.156
775.050, 856.653
776.337, 1008.155
777.624, 972.658
778.910, 1061.167
780.196, 1156.673
781.482, 1111.996
782.768, 1094.502
784.054, 1154.669
785.339, 1403.825
786.625, 1351.335
787.910, 1515.995
789.195, 1495.148
790.479, 1730.410
791.764, 1873.358
793.048, 1896.429
794.332, 2079.308
795.616, 2208.312
796.900, 2518.383
798.183, 2674.572
799.467, 2982.735
800.750, 3327.963
802.033, 3655.135
803.316, 4208.538
804.598, 4860.745
805.880, 5473.024
807.163, 6269.384
808.445, 7119.200
809.726, 8510.306
811.008, 10244.131
812.289, 12314.242
813.570, 15559.083
814.851, 19625.520
816.132, 24693.338
817.413, 30912.895
818.693, 38151.699
819.973, 43997.559
821.253, 47026.496
822.533, 46728.629
823.813, 42700.691
825.092, 37229.039
826.371, 31663.877
827.650, 26704.285
828.929, 23201.943
830.208, 20042.412
831.486, 17538.254
832.764, 16112.067
834.042, 14806.242
835.320, 14358.039
836.598, 14296.955
837.875, 14214.541
839.152, 14607.762
840.429, 15603.558
841.706, 16663.939
842.983, 18288.580
844.259, 20828.441
845.536, 23800.867
846.812, 27744.139
848.088, 32478.010
849.363, 38047.914
850.639, 43417.684
851.914, 46794.008
853.189, 48175.070
854.464, 47853.066
855.739, 44870.984
857.013, 39073.289
858.288, 33283.430
859.562, 28324.713
860.836, 23719.785
862.110, 19822.154
863.383, 16513.193
864.656, 13663.219
865.930, 11703.617
867.203, 9913.040
868.475, 8584.485
869.748, 7231.882
871.020, 6476.374
872.292, 5610.889
873.564, 4987.427
874.836, 4451.992
876.108, 3925.577
877.379, 3681.188
878.650, 3355.823
879.922, 3038.490
881.192, 2903.183
882.463, 2651.133
883.733, 2321.883
885.004, 2159.656
886.274, 2041.526
887.544, 1984.350
888.813, 1808.200
890.083, 1812.075
891.352, 1798.006
892.621, 1739.933
893.890, 1736.885
895.159, 1670.863
896.427, 1681.399
897.695, 1723.435
898.964, 1784.498
900.232, 1836.660
901.499, 1860.777
902.767, 2148.918
904.034, 2111.490
905.301, 2405.687
906.568, 2743.641
907.835, 3277.402
909.102, 3648.474
910.368, 4353.775
911.634, 5498.102
912.900, 6864.456
914.166, 8811.915
915.432, 10616.563
916.697, 11907.913
917.962, 12174.374
919.227, 10706.728
920.492, 8744.403
921.757, 6703.939
923.021, 5324.201
924.285, 4294.791
925.550, 3526.406
926.813, 3425.048
928.077, 2680.715
929.341, 2442.409
930.604, 2321.127
931.867, 2168.873
933.130, 2257.644
934.393, 2419.441
935.655, 2245.266
936.918, 2473.117
938.180, 2577.997
939.442, 2683.901
940.703, 2999.836
941.965, 3182.799
943.226, 3311.845
944.488, 3692.872
945.749, 4110.938
947.009, 4427.480
948.270, 4969.412
949.530, 5389.563
950.791, 5908.742
952.051, 6266.340
953.311, 6567.577
954.570, 7049.817
955.830, 7038.903
957.089, 7242.105
958.348, 6983.293
959.607, 6688.664
960.866, 6370.152
962.124, 5948.592
963.383, 5580.709
964.641, 5046.406
965.899, 4569.985
967.156, 4174.861
968.414, 3537.517
969.671, 3188.204
970.928, 2670.926
972.185, 2347.700
973.442, 1984.517
974.699, 1823.397
975.955, 1502.307
977.211, 1247.264
978.468, 1186.268
979.723, 1007.125
980.979, 857.307
982.234, 861.446
983.490, 610.638
984.745, 656.469
986.000, 643.489
987.254, 420.859
988.509, 532.265
989.763, 387.708
991.017, 260.200
992.271, 307.709
993.525, 326.410
994.779, 289.046
996.032, 319.668
997.285, 273.351
998.538, 268.581
999.791, 379.845
1001.044, 230.655
1002.296, 257.487
1003.548, 228.174
1004.800, 99.108
1006.052, 83.113
1007.304, 93.104
1008.555, 109.131
1009.807, 116.203
1011.058, 121.297
1012.309, 108.424
1013.559, 124.716
1014.810, 102.756
1016.060, 128.757
1017.310, 74.007
1018.560, 43.275
1019.810, 47.563
1021.060, 146.894
1022.309, 94.240
1023.558, 174.611
1024.807, 99.999
1026.056, 84.407
1027.305, 97.832
1028.553, 141.274
1029.801, 140.706
1031.049, 117.209
1032.297, 52.783
1033.545, 173.744
1034.793, 136.287
1036.040, 5.142
1037.287, 162.464
1038.534, 75.085
1039.781, 165.720
1041.027, 0.626
1042.274, 101.047
1043.520, 51.749
1044.766, 99.450
1046.012, 55.703
1047.257, 62.020
1048.503, 54.849
1049.748, 4.402
1050.993, 151.596
1052.238, 64.373
1053.483, 72.837
1054.727, 22.947
1055.971, 56.249
1057.216, 50.464
1058.459, 56.671
1059.703, 36.116
1060.947, 52.927
1062.190, 6.738
1063.433, 3.440
1064.676, 63.612
1065.919, 31.794
1067.162, 92.024
1068.404, 75.148
1069.646, 80.337
1070.888, 153.456
1072.130, 23.744
1073.372, 37.059
1074.613, 58.869
1075.855, 18.686
1077.096, 14.512
1078.337, 20.859
1079.578, 125.186
1080.818, 44.032
1082.059, 79.888
1083.299, 122.748
1084.539, 89.616
1085.779, 133.501
1087.018, 65.381
1088.258, 55.266
1089.497, 14.157
1090.736, 64.053
1091.975, 1.954
1093.213, 65.858
1094.452, 87.768
1095.690, 52.292
1096.928, 17.313
1098.166, 70.576
1099.404, 41.584
1100.642, 67.519
1101.879, 53.333
1103.116, 76.796
1104.353, 34.803
1105.590, 73.693
1106.827, 13.903
1108.063, 28.881
1109.299, 18.202
1110.536, 22.169
1111.771, 28.054
1113.007, 38.126
1114.243, 20.729
1115.478, 38.613
1116.713, 24.677
1117.948, 57.664
1119.183, 14.795
1120.418, 72.117
1121.652, 278.874
1122.886, 262.618
1124.120, 209.348
1125.354, 62.242
1126.588, 30.152
1127.821, 24.141
1129.055, 13.123
1130.288, 87.821
1131.521, 74.208
1132.753, 1.888
1133.986, 0.089
1135.218, 138.074
1136.450, 47.884
1137.682, 178.515
1138.914, 22.686
1140.146, 25.442
1141.377, 53.257
1142.609, 22.595
1143.840, 130.702
1145.071, 96.900
1146.301, 191.133
1147.532, 128.889
1148.762, 50.800
1149.992, 73.547
1151.222, 22.970
1152.452, 154.419
1153.682, 24.576
1154.911, 122.120
1156.140, 137.711
1157.369, 117.500
1158.598, 141.588
1159.827, 236.624
1161.055, 3.064
1162.284, 132.749
1163.512, 88.135
1164.740, 210.014
1165.967, 160.495
1167.195, 185.038
1168.422, 151.689
1169.650, 192.899
1170.877, 193.208
1172.103, 124.640
1173.330, 184.448
1174.557, 269.593
1175.783, 197.915
1177.009, 14.688
1178.235, 189.765
1179.461, 25.865
1180.686, 115.752
1181.912, 194.807
1183.137, 241.696
1184.362, 239.463
1185.587, 233.049
1186.811, 166.461
1188.036, 163.233
1189.260, 122.392
1190.484, 122.415
1191.708, 203.317
1192.932, 46.698
1194.155, 174.581
1195.378, 110.482
1196.602, 158.456
1197.825, 86.842
1199.047, 166.808
1200.270, 214.676
1201.492, 229.200
1202.715, 268.965
1203.937, 208.867
1205.159, 236.755
1206.380, 243.954
1207.602, 140.949
1208.823, 271.496
1210.044, 238.021
1211.265, 294.445
1212.486, 251.696
1213.707, 260.239
1214.927, 248.677
1216.147, 226.446
1217.367, 281.810
1218.587, 334.182
1219.807, 268.834
1221.027, 237.161
1222.246, 169.466
1223.465, 186.508
1224.684, 276.009
1225.903, 221.248
1227.121, 239.464
1228.340, 241.670
1229.558, 241.841
1230.776, 212.989
1231.994, 160.115
1233.212, 234.218
1234.429, 270.298
1235.646, 224.356
1236.864, 276.391
1238.081, 248.409
1239.297, 236.362
1240.514, 297.344
1241.730, 166.308
1242.947, 151.797
1244.163, 241.910
1245.378, 145.992
1246.594, 199.497
1247.810, 62.161
1249.025, 211.998
1250.240, 133.832
1251.455, 106.823
1252.670, 256.705
1253.885, 170.609
1255.099, 137.335
1256.313, 32.953
1257.527, 197.618
1258.741, 129.624
1259.955, 141.067
1261.168, 57.651
1262.382, 75.932
1263.595, 106.438
1264.808, 89.918
1266.021, 75.361
1267.233, 161.749
1268.446, 165.092
1269.658, 168.848
1270.870, 129.650
1272.082, 125.853
1273.294, 174.013
1274.505, 79.324
1275.716, 169.302
1276.928, 4.336
1278.139, 172.330
1279.349, 39.712
1280.560, 33.899
1281.770, 133.765
1282.981, 175.586
1284.191, 33.353
1285.401, 49.067
1286.610, 28.759
1287.820, 107.267
1289.029, 4.834
1290.239, 72.409
1291.448, 69.954
1292.656, 118.461
1293.865, 7.936
1295.073, 116.370
1296.282, 50.224
1297.490, 18.659
1298.698, 78.653
1299.906, 6.887
1301.113, 122.133
1302.320, 43.648
1303.528, 64.521
1304.735, 0.340
1305.942, 10.761
1307.148, 4.072
1308.355, 43.101
1309.561, 0.097
1310.767, 117.054
1311.973, 102.982
1313.179, 45.117
1314.384, 245.731
1315.590, 33.551
1316.795, 155.337
1318.000, 68.093
1319.205, 182.815
1320.410, 123.509
1321.614, 65.828
1322.819, 203.832
1324.023, 42.407
1325.227, 145.465
1326.431, 154.983
1327.634, 7.526
1328.838, 39.075
1330.041, 216.329
1331.244, 137.706
1332.447, 49.058
1333.650, 97.383
1334.852, 33.676
1336.055, 150.929
1337.257, 18.175
1338.459, 63.264
1339.661, 132.460
1340.862, 109.539
1342.064, 53.688
1343.265, 99.577
1344.466, 117.677
1345.667, 25.753
1346.868, 130.812
1348.068, 170.849
1349.269, 46.871
1350.469, 76.877
1351.669, 73.869
1352.869, 189.829
1354.069, 237.780
1355.268, 218.902
1356.468, 150.627
1357.667, 156.534
1358.866, 167.431
1360.065, 97.341
1361.263, 118.216
1362.462, 179.104
1363.660, 234.965
1364.858, 230.725
1366.056, 151.654
1367.254, 220.482
1368.451, 202.301
1369.649, 178.344
1370.846, 201.147
1372.043, 141.944
1373.240, 203.739
1374.436, 240.534
1375.633, 214.307
1376.829, 207.068
1378.025, 219.890
1379.221, 323.628
1380.417, 224.444
1381.613, 278.513
1382.808, 279.546
1384.003, 194.437
1385.199, 295.307
1386.393, 158.244
1387.588, 351.034
1388.783, 210.701
1389.977, 275.519
1391.171, 234.727
1392.365, 138.333
1393.559, 252.594
1394.753, 215.694
1395.946, 263.789
1397.140, 173.509
1398.333, 232.806
1399.526, 191.842
1400.719, 249.336
1401.911, 168.335
1403.104, 135.908
1404.296, 192.584
1405.488, 304.631
1406.680, 204.610
1407.872, 278.338
1409.063, 318.404
1410.255, 208.817
1411.446, 219.289
1412.637, 171.233
1413.828, 244.325
1415.018, 354.992
1416.209, 244.272
1417.399, 195.300
1418.589, 326.259
1419.779, 100.117
1420.969, 335.735
1422.159, 151.030
1423.348, 156.044
1424.537, 145.835
1425.726, 296.905
1426.915, 244.985
1428.104, 215.712
1429.293, 284.650
1430.481, 225.264
1431.669, 281.158
1432.857, 220.661
1434.045, 138.915
1435.233, 249.583
1436.420, 308.100
1437.608, 313.471
1438.795, 229.176
1439.982, 382.826
1441.169, 354.452
1442.355, 473.404
1443.542, 450.937
1444.728, 439.654
1445.914, 354.864
1447.100, 392.254
1448.286, 376.573
1449.472, 385.861
1450.657, 594.096
1451.842, 411.272
1453.027, 567.359
1454.212, 529.471
1455.397, 418.233
1456.581, 460.020
1457.766, 555.717
1458.950, 487.337
1460.134, 578.854
1461.318, 395.257
1462.501, 304.615
1463.685, 488.917
1464.868, 305.214
1466.051, 518.485
1467.234, 359.895
1468.417, 277.406
1469.600, 301.095
1470.782, 238.918
1471.965, 221.801
1473.147, 303.731
1474.329, 239.178
1475.510, 126.061
1476.692, 184.385
1477.873, 187.751
1479.055, 125.154
1480.236, 365.617
1481.416, 162.082
1482.597, 66.392
1483.778, 182.242
1484.958, 246.737
1486.138, 262.636
1487.318, 84.417
1488.498, 156.897
1489.678, 128.959
1490.857, 96.948
1492.037, 204.896
1493.216, 148.435
1494.395, 190.324
1495.574, 218.339
1496.752, 172.712
1497.931, 212.716
1499.109, 76.067
1500.287, 114.518
1501.465, 2.928
1502.643, 109.742
1503.820, 1.450
1504.998, 144.522
1506.175, 26.688
1507.352, 53.074
1508.529, 12.707
1509.706, 6.605
1510.882, 7.201
1512.059, 98.896
1513.235, 224.562
1514.411, 1.893
1515.587, 233.779
1516.762, 7.164
1517.938, 78.987
1519.113, 112.720
1520.288, 95.183
1521.463, 0.000
##END=



