##NAMES=Forsterite
##RRUFFID=R050117
##IDEAL CHEMISTRY=Mg_2_SiO_4_
##LOCALITY=Sapat, Gilgit, Pakistan
##OWNER=RRUFF
##SOURCE=Farooq and Nazia Sawal
##DESCRIPTION=Fragment of a green crystal
##STATUS=The identification of this mineral has been confirmed by X-ray diffraction and chemical analysis
##URL=rruff.info/R050117
##MEASURED CHEMISTRY=(Mg_1.81_Fe_0.18_Ni_0.01_)_Î£=2_Si_1.00_O_4_
##PIN_ID=L00442
##ORIENTATION=Laser parallel to c* (0 0 1). Fiducial mark perpendicular to laser is parallel to -a [-1 0 0]
124.675, 0.000
126.063, 57.999
127.452, 57.806
128.840, 30.926
130.228, 71.180
131.615, 156.602
133.003, 161.601
134.390, 54.563
135.777, 93.952
137.164, 36.492
138.550, 5.378
139.937, 46.300
141.323, 52.771
142.709, 118.198
144.094, 100.328
145.480, 109.469
146.865, 92.910
148.250, 158.161
149.635, 166.534
151.019, 163.089
152.403, 167.844
153.788, 130.118
155.171, 239.007
156.555, 194.011
157.939, 241.615
159.322, 300.209
160.705, 237.691
162.088, 250.979
163.470, 261.139
164.853, 207.139
166.235, 253.361
167.617, 248.474
168.998, 241.000
170.380, 276.148
171.761, 221.415
173.142, 242.024
174.523, 221.654
175.904, 266.058
177.284, 247.800
178.664, 347.249
180.044, 202.139
181.424, 177.955
182.803, 89.143
184.183, 126.406
185.562, 74.246
186.940, 60.144
188.319, 28.287
189.698, 27.504
191.076, 21.060
192.454, 18.062
193.831, 6.801
195.209, 36.507
196.586, 10.789
197.963, 42.052
199.340, 29.040
200.717, 33.111
202.093, 32.955
203.470, 39.852
204.846, 3.784
206.221, 8.930
207.597, 44.978
208.972, 29.246
210.347, 22.344
211.722, 5.700
213.097, 29.865
214.472, 86.166
215.846, 107.549
217.220, 168.992
218.594, 211.478
219.967, 308.989
221.341, 434.516
222.714, 490.047
224.087, 537.574
225.460, 516.084
226.832, 525.567
228.204, 493.010
229.577, 506.396
230.948, 447.724
232.320, 374.033
233.692, 420.059
235.063, 383.210
236.434, 376.689
237.805, 356.467
239.175, 264.649
240.545, 303.975
241.916, 332.796
243.286, 211.629
244.655, 216.184
246.025, 169.060
247.394, 87.273
248.763, 116.828
250.132, 99.875
251.501, 72.871
252.869, 51.460
254.237, 48.731
255.605, 44.597
256.973, 25.520
258.340, 7.588
259.708, 3.633
261.075, 21.980
262.442, 17.550
263.808, 9.529
265.175, 4.013
266.541, 24.928
267.907, 29.908
269.273, 1.692
270.639, 1.578
272.004, 52.093
273.369, 0.298
274.734, 1.233
276.099, 16.309
277.463, 27.076
278.828, 20.381
280.192, 75.621
281.556, 87.803
282.919, 111.111
284.283, 122.640
285.646, 183.513
287.009, 219.642
288.372, 253.659
289.734, 347.648
291.097, 508.574
292.459, 666.689
293.821, 867.360
295.183, 1221.146
296.544, 1717.345
297.905, 2376.249
299.266, 3123.110
300.627, 3883.377
301.988, 4424.009
303.348, 4652.947
304.709, 4367.356
306.069, 3862.035
307.428, 3161.589
308.788, 2451.800
310.147, 1991.807
311.507, 1591.479
312.865, 1246.011
314.224, 1077.298
315.583, 932.420
316.941, 875.466
318.299, 813.142
319.657, 852.924
321.015, 870.386
322.372, 871.601
323.729, 979.673
325.086, 976.395
326.443, 960.025
327.800, 851.475
329.156, 798.484
330.512, 619.253
331.868, 506.700
333.224, 425.836
334.579, 329.171
335.935, 303.032
337.290, 213.028
338.645, 218.864
339.999, 172.781
341.354, 126.669
342.708, 109.990
344.062, 148.560
345.416, 85.074
346.769, 95.860
348.123, 69.877
349.476, 57.406
350.829, 88.760
352.182, 81.534
353.534, 49.582
354.887, 73.092
356.239, 73.600
357.591, 70.385
358.942, 53.019
360.294, 64.767
361.645, 89.171
362.996, 46.317
364.347, 20.426
365.698, 54.502
367.048, 53.667
368.398, 63.875
369.748, 19.320
371.098, 35.516
372.448, 62.710
373.797, 11.342
375.146, 16.681
376.495, 32.640
377.844, 39.263
379.192, 33.041
380.540, 48.187
381.889, 48.484
383.236, 69.161
384.584, 86.018
385.932, 48.843
387.279, 78.636
388.626, 48.397
389.973, 68.126
391.319, 56.824
392.666, 33.490
394.012, 51.124
395.358, 85.721
396.704, 53.280
398.049, 95.800
399.394, 125.279
400.740, 86.717
402.084, 132.774
403.429, 184.960
404.774, 178.236
406.118, 237.972
407.462, 324.698
408.806, 358.193
410.150, 464.187
411.493, 645.401
412.836, 831.449
414.179, 984.248
415.522, 1129.847
416.865, 1255.402
418.207, 1223.891
419.549, 1132.125
420.891, 959.324
422.233, 809.766
423.575, 653.910
424.916, 557.471
426.257, 474.389
427.598, 392.186
428.939, 369.283
430.279, 361.474
431.619, 345.204
432.959, 324.772
434.299, 257.168
435.639, 220.819
436.978, 191.530
438.318, 129.182
439.657, 117.289
440.996, 115.305
442.334, 58.843
443.673, 75.473
445.011, 41.214
446.349, 14.989
447.687, 48.001
449.024, 18.147
450.361, 38.417
451.699, 22.830
453.036, 7.810
454.372, 3.495
455.709, 27.253
457.045, 14.937
458.381, 37.076
459.717, 4.167
461.053, 15.791
462.388, 41.803
463.724, 29.119
465.059, 12.004
466.394, 25.824
467.728, 38.608
469.063, 67.349
470.397, 63.049
471.731, 61.710
473.065, 87.331
474.398, 100.915
475.732, 97.463
477.065, 74.974
478.398, 74.450
479.731, 60.892
481.063, 80.298
482.396, 90.671
483.728, 68.012
485.060, 79.321
486.391, 65.600
487.723, 71.134
489.054, 72.068
490.385, 93.259
491.716, 89.425
493.047, 117.566
494.377, 84.070
495.708, 130.207
497.038, 101.279
498.368, 108.311
499.697, 129.625
501.027, 100.121
502.356, 84.432
503.685, 111.777
505.014, 92.613
506.342, 110.275
507.671, 147.102
508.999, 126.912
510.327, 114.803
511.655, 126.777
512.982, 140.404
514.310, 148.275
515.637, 109.731
516.964, 154.185
518.291, 96.889
519.617, 147.050
520.944, 151.999
522.270, 129.307
523.596, 169.005
524.921, 134.873
526.247, 170.572
527.572, 145.685
528.897, 182.627
530.222, 188.750
531.547, 182.360
532.871, 200.054
534.196, 194.075
535.520, 184.878
536.844, 192.006
538.167, 194.842
539.491, 189.612
540.814, 199.477
542.137, 237.330
543.460, 280.255
544.783, 270.234
546.105, 269.042
547.427, 263.960
548.749, 231.736
550.071, 243.641
551.393, 252.423
552.714, 274.077
554.035, 284.805
555.356, 235.664
556.677, 269.373
557.998, 285.245
559.318, 296.227
560.638, 330.034
561.958, 322.022
563.278, 326.216
564.597, 330.369
565.917, 334.660
567.236, 372.935
568.555, 337.197
569.874, 345.447
571.192, 424.685
572.511, 472.910
573.829, 439.125
575.147, 487.330
576.464, 480.525
577.782, 616.710
579.099, 624.887
580.416, 702.060
581.733, 739.228
583.050, 778.389
584.366, 836.548
585.683, 848.701
586.999, 952.847
588.315, 1004.994
589.630, 1150.133
590.946, 1277.266
592.261, 1520.394
593.576, 1748.513
594.891, 2139.627
596.206, 2474.735
597.520, 3054.654
598.834, 3639.523
600.148, 4462.380
601.462, 5124.999
602.776, 6000.681
604.089, 6672.215
605.402, 7072.634
606.715, 7182.214
608.028, 7079.599
609.341, 6628.094
610.653, 6055.514
611.965, 5110.574
613.277, 4448.881
614.589, 3725.878
615.901, 3029.237
617.212, 2477.682
618.523, 2159.977
619.834, 1745.659
621.145, 1453.722
622.456, 1177.112
623.766, 1129.961
625.076, 897.866
626.386, 798.747
627.696, 640.281
629.006, 568.794
630.315, 480.299
631.624, 399.908
632.933, 381.571
634.242, 319.218
635.551, 256.769
636.859, 279.316
638.167, 221.804
639.475, 220.373
640.783, 184.984
642.090, 120.499
643.398, 116.431
644.705, 155.258
646.012, 172.052
647.318, 167.988
648.625, 80.631
649.931, 50.849
651.237, 14.429
652.543, 23.136
653.849, 47.876
655.155, 3.514
656.460, 1.821
657.765, 26.899
659.070, 19.527
660.375, 28.906
661.679, 18.248
662.984, 36.685
664.288, 39.076
665.592, 41.442
666.895, 44.827
668.199, 27.298
669.502, 38.732
670.805, 13.190
672.108, 2.656
673.411, 37.198
674.713, 57.690
676.016, 67.353
677.318, 46.914
678.620, 18.500
679.921, 46.118
681.223, 36.740
682.524, 29.386
683.825, 69.040
685.126, 65.730
686.427, 42.453
687.727, 31.197
689.028, 11.954
690.328, 5.282
691.628, 9.478
692.927, 5.241
694.227, 7.994
695.526, 18.767
696.825, 39.465
698.124, 13.700
699.423, 7.938
700.721, 26.179
702.020, 3.423
703.318, 27.670
704.616, 32.920
705.913, 0.826
707.211, 36.430
708.508, 43.690
709.805, 65.954
711.102, 52.223
712.399, 65.496
713.695, 61.773
714.992, 76.055
716.288, 77.340
717.584, 86.629
718.879, 42.922
720.175, 102.218
721.470, 71.518
722.765, 102.820
724.060, 133.125
725.355, 129.432
726.649, 154.743
727.944, 124.058
729.238, 123.375
730.532, 208.696
731.825, 138.021
733.119, 203.349
734.412, 192.681
735.705, 148.018
736.998, 212.358
738.291, 217.702
739.584, 223.051
740.876, 277.404
742.168, 250.761
743.460, 230.123
744.752, 255.490
746.043, 238.861
747.334, 232.237
748.626, 299.618
749.916, 299.004
751.207, 300.395
752.498, 337.792
753.788, 375.194
755.078, 339.611
756.368, 363.036
757.658, 381.473
758.947, 412.925
760.237, 388.393
761.526, 459.874
762.815, 437.369
764.104, 448.875
765.392, 528.393
766.680, 482.929
767.969, 487.478
769.257, 561.039
770.544, 596.616
771.832, 574.214
773.119, 648.827
774.406, 617.456
775.693, 697.113
776.980, 718.792
778.267, 761.489
779.553, 765.210
780.839, 830.945
782.125, 887.702
783.411, 927.481
784.697, 945.281
785.982, 1032.101
787.267, 1068.932
788.552, 1143.782
789.837, 1189.642
791.122, 1285.513
792.406, 1399.398
793.690, 1463.299
794.974, 1615.215
796.258, 1759.149
797.542, 1896.097
798.825, 2000.056
800.108, 2258.029
801.391, 2444.013
802.674, 2742.006
803.957, 3060.010
805.239, 3469.026
806.522, 3981.096
807.804, 4442.670
809.085, 5246.723
810.367, 6058.446
811.649, 6942.904
812.930, 8409.977
814.211, 9808.036
815.492, 12433.981
816.772, 15640.595
818.053, 20286.105
819.333, 25531.498
820.613, 33266.773
821.893, 40661.859
823.173, 46298.078
824.452, 48133.605
825.732, 45080.707
827.011, 39338.410
828.290, 32794.145
829.568, 26568.623
830.847, 21672.535
832.125, 17817.768
833.403, 15034.746
834.681, 13320.104
835.959, 11746.089
837.236, 11022.542
838.514, 10336.584
839.791, 10280.873
841.068, 10166.676
842.345, 10473.178
843.621, 11250.808
844.898, 12179.199
846.174, 13877.041
847.450, 16225.122
848.726, 19443.557
850.001, 23991.012
851.277, 29899.473
852.552, 36777.965
853.827, 43786.445
855.102, 48684.949
856.376, 51473.480
857.651, 50022.016
858.925, 45430.562
860.199, 38739.078
861.473, 31097.664
862.746, 25466.262
864.020, 20774.869
865.293, 16423.502
866.566, 13522.142
867.839, 11020.803
869.112, 9249.473
870.384, 7828.163
871.656, 6486.867
872.928, 5699.586
874.200, 4848.318
875.472, 4319.069
876.744, 3775.834
878.015, 3377.613
879.286, 3190.409
880.557, 2800.219
881.828, 2679.045
883.098, 2502.886
884.369, 2221.743
885.639, 1994.615
886.909, 1755.502
888.178, 1571.405
889.448, 1374.323
890.717, 1267.257
891.987, 1129.206
893.256, 1004.171
894.524, 940.151
895.793, 873.146
897.061, 732.157
898.330, 718.184
899.598, 684.225
900.865, 613.282
902.133, 588.355
903.401, 527.443
904.668, 466.547
905.935, 426.666
907.202, 433.423
908.468, 408.791
909.735, 414.077
911.001, 369.643
912.267, 402.666
913.533, 346.816
914.799, 372.029
916.064, 408.871
917.330, 313.528
918.595, 369.962
919.860, 351.472
921.124, 358.039
922.389, 281.558
923.653, 304.301
924.918, 292.916
926.182, 304.484
927.445, 280.026
928.709, 301.016
929.972, 270.032
931.236, 306.183
932.499, 288.367
933.761, 326.362
935.024, 319.875
936.286, 337.654
937.549, 421.449
938.811, 442.311
940.073, 473.080
941.334, 545.584
942.596, 535.428
943.857, 692.016
945.118, 750.327
946.379, 873.373
947.640, 1054.563
948.900, 1186.980
950.161, 1395.621
951.421, 1755.129
952.681, 2107.733
953.940, 2552.349
955.200, 2980.975
956.459, 3690.196
957.719, 4437.851
958.978, 5189.516
960.236, 5917.516
961.495, 6639.199
962.753, 6852.896
964.012, 7087.608
965.270, 6750.330
966.527, 6467.060
967.785, 5985.811
969.043, 5148.580
970.300, 4724.370
971.557, 4005.182
972.814, 3418.017
974.071, 2948.875
975.327, 2482.752
976.583, 2133.650
977.840, 1878.564
979.095, 1584.490
980.351, 1357.437
981.607, 1206.411
982.862, 1046.413
984.117, 974.601
985.372, 829.642
986.627, 743.705
987.882, 750.789
989.136, 638.891
990.390, 649.021
991.644, 550.177
992.898, 538.355
994.152, 495.550
995.405, 436.758
996.659, 453.116
997.912, 350.343
999.165, 364.581
1000.417, 374.826
1001.670, 341.089
1002.922, 294.359
1004.174, 300.637
1005.426, 274.923
1006.678, 237.218
1007.930, 215.520
1009.181, 203.933
1010.432, 213.146
1011.683, 194.478
1012.934, 165.824
1014.185, 166.177
1015.435, 123.541
1016.685, 152.914
1017.935, 165.294
1019.185, 128.686
1020.435, 138.085
1021.684, 127.491
1022.934, 65.905
1024.183, 105.331
1025.432, 103.763
1026.680, 102.205
1027.929, 131.656
1029.177, 131.119
1030.425, 107.592
1031.673, 119.070
1032.921, 139.555
1034.169, 61.046
1035.416, 120.545
1036.663, 102.054
1037.911, 57.569
1039.157, 143.089
1040.404, 81.613
1041.650, 58.145
1042.897, 47.682
1044.143, 54.224
1045.389, 55.769
1046.634, 43.319
1047.880, 42.873
1049.125, 46.430
1050.371, 30.991
1051.615, 30.556
1052.860, 13.124
1054.105, 19.696
1055.349, 28.271
1056.593, 34.151
1057.837, 6.584
1059.081, 24.017
1060.325, 28.459
1061.568, 35.912
1062.812, 19.379
1064.055, 19.853
1065.298, 12.334
1066.540, 8.043
1067.783, 39.308
1069.025, 3.814
1070.267, 4.321
1071.509, 2.709
1072.751, 41.340
1073.993, 21.871
1075.234, 20.413
1076.475, 51.965
1077.716, 8.544
1078.957, 26.128
1080.198, 43.718
1081.438, 10.330
1082.679, 39.950
1083.919, 47.592
1085.159, 35.260
1086.398, 34.948
1087.638, 1.656
1088.877, 33.369
1090.116, 11.898
1091.355, 0.165
1092.594, 12.572
1093.833, 7.319
1095.071, 19.074
1096.309, 20.844
1097.547, 7.629
1098.785, 8.578
1100.023, 8.217
1101.260, 21.978
1102.498, 17.173
1103.735, 39.367
1104.972, 1.439
1106.208, 8.253
1107.445, 26.923
1108.681, 4.098
1109.918, 30.268
1111.154, 27.437
1112.389, 49.604
1113.625, 45.771
1114.860, 51.936
1116.096, 62.595
1117.331, 28.262
1118.566, 75.423
1119.800, 41.582
1121.035, 39.740
1122.269, 47.896
1123.503, 142.050
1124.737, 175.201
1125.971, 87.353
1127.205, 119.499
1128.438, 49.643
1129.671, 74.145
1130.904, 58.282
1132.137, 15.416
1133.370, 35.695
1134.602, 40.820
1135.834, 61.264
1137.066, 97.547
1138.298, 87.331
1139.530, 58.769
1140.762, 92.149
1141.993, 61.250
1143.224, 84.377
1144.455, 20.469
1145.686, 94.553
1146.917, 108.688
1148.147, 56.812
1149.377, 85.830
1150.607, 77.894
1151.837, 107.954
1153.067, 76.136
1154.296, 86.399
1155.526, 76.441
1156.755, 65.612
1157.984, 78.707
1159.213, 70.258
1160.441, 80.181
1161.670, 78.004
1162.898, 95.253
1164.126, 118.584
1165.354, 125.678
1166.581, 124.112
1167.809, 98.141
1169.036, 102.268
1170.263, 79.642
1171.490, 62.850
1172.717, 88.092
1173.943, 49.017
1175.170, 66.615
1176.396, 87.017
1177.622, 67.494
1178.848, 72.961
1180.073, 72.247
1181.299, 99.164
1182.524, 94.177
1183.749, 63.151
1184.974, 89.034
1186.199, 93.979
1187.423, 68.849
1188.648, 152.581
1189.872, 142.501
1191.096, 125.377
1192.320, 132.257
1193.543, 98.162
1194.767, 135.981
1195.990, 112.792
1197.213, 112.648
1198.436, 132.443
1199.659, 142.339
1200.881, 168.117
1202.104, 181.886
1203.326, 156.884
1204.548, 142.013
1205.770, 185.539
1206.991, 160.154
1208.213, 190.495
1209.434, 172.386
1210.655, 184.183
1211.876, 183.656
1213.096, 222.993
1214.317, 171.277
1215.537, 203.800
1216.757, 188.395
1217.977, 198.788
1219.197, 196.253
1220.417, 168.483
1221.636, 226.848
1222.855, 238.265
1224.074, 272.714
1225.293, 266.721
1226.512, 267.973
1227.731, 225.832
1228.949, 205.663
1230.167, 227.891
1231.385, 237.404
1232.603, 204.766
1233.820, 222.045
1235.038, 216.231
1236.255, 195.536
1237.472, 196.089
1238.689, 213.307
1239.906, 137.789
1241.122, 211.555
1242.338, 177.593
1243.555, 137.491
1244.771, 168.171
1245.986, 173.639
1247.202, 146.240
1248.417, 159.750
1249.633, 122.255
1250.848, 159.755
1252.063, 119.667
1253.277, 147.150
1254.492, 114.636
1255.706, 110.795
1256.920, 129.270
1258.134, 101.741
1259.348, 93.250
1260.562, 110.708
1261.775, 134.161
1262.988, 57.682
1264.201, 85.185
1265.414, 127.697
1266.627, 59.208
1267.839, 79.693
1269.052, 48.108
1270.264, 79.517
1271.476, 40.913
1272.688, 89.328
1273.899, 91.694
1275.111, 7.047
1276.322, 123.390
1277.533, 69.718
1278.744, 18.870
1279.955, 61.181
1281.165, 8.464
1282.376, 17.772
1283.586, 56.025
1284.796, 46.271
1286.006, 10.696
1287.215, 48.923
1288.425, 36.143
1289.634, 75.357
1290.843, 49.422
1292.052, 30.623
1293.261, 31.817
1294.469, 4.995
1295.678, 44.182
1296.886, 55.354
1298.094, 20.520
1299.302, 13.679
1300.509, 85.831
1301.717, 19.976
1302.924, 29.116
1304.131, 14.750
1305.338, 16.648
1306.545, 27.440
1307.752, 10.479
1308.958, 6.591
1310.164, 23.652
1311.370, 11.293
1312.576, 12.750
1313.782, 17.786
1314.987, 2.814
1316.193, 14.145
1317.398, 22.863
1318.603, 7.137
1319.807, 2.147
1321.012, 15.168
1322.216, 8.202
1323.421, 25.751
1324.625, 2.695
1325.829, 40.630
1327.032, 4.442
1328.236, 15.525
1329.439, 53.379
1330.642, 26.277
1331.845, 42.169
1333.048, 6.945
1334.251, 25.929
1335.453, 34.798
1336.656, 31.662
1337.858, 23.521
1339.060, 44.373
1340.261, 77.221
1341.463, 29.064
1342.664, 43.902
1343.866, 18.735
1345.067, 50.563
1346.267, 44.387
1347.468, 6.207
1348.669, 91.022
1349.869, 97.840
1351.069, 41.656
1352.269, 60.474
1353.469, 53.295
1354.668, 34.122
1355.868, 38.951
1357.067, 78.783
1358.266, 58.616
1359.465, 37.515
1360.664, 11.357
1361.862, 65.200
1363.061, 35.044
1364.259, 41.890
1365.457, 68.748
1366.655, 71.613
1367.852, 80.486
1369.050, 92.881
1370.247, 32.728
1371.444, 86.168
1372.641, 60.081
1373.838, 6.004
1375.035, 83.946
1376.231, 16.499
1377.427, 31.487
1378.623, 54.501
1379.819, 34.342
1381.015, 50.010
1382.211, 80.227
1383.406, 53.452
1384.601, 86.697
1385.796, 86.951
1386.991, 57.209
1388.185, 89.460
1389.380, 38.716
1390.574, 106.973
1391.768, 92.227
1392.962, 72.474
1394.156, 111.714
1395.350, 56.948
1396.543, 42.174
1397.736, 79.394
1398.929, 98.606
1400.122, 56.399
1401.315, 64.600
1402.507, 31.622
1403.700, 45.235
1404.892, 44.419
1406.084, 24.266
1407.276, 27.724
1408.467, 24.506
1409.659, 21.426
1410.850, 26.580
1412.041, 48.292
1413.232, 89.265
1414.423, 43.331
1415.614, 30.189
1416.804, 62.183
1417.994, 68.393
1419.184, 72.936
1420.374, 93.439
1421.564, 40.938
1422.753, 26.923
1423.943, 53.304
1425.132, 20.677
1426.321, 45.375
1427.510, 76.153
1428.698, 3.284
1429.887, 31.420
1431.075, 70.088
1432.263, 84.941
1433.451, 84.861
1434.639, 64.997
1435.827, 66.846
1437.014, 60.882
1438.201, 58.479
1439.388, 47.324
1440.575, 69.154
1441.762, 46.975
1442.949, 67.539
1444.135, 33.333
1445.321, 34.157
1446.507, 61.976
1447.693, 59.531
1448.879, 46.888
1450.064, 31.406
1451.250, 26.042
1452.435, 21.692
1453.620, 28.368
1454.805, 61.021
1455.989, 100.651
1457.174, 63.238
1458.358, 14.814
1459.542, 100.362
1460.726, 42.881
1461.910, 63.375
1463.093, 65.740
1464.277, 49.188
1465.460, 65.277
1466.643, 97.273
1467.826, 53.481
1469.009, 89.845
1470.191, 93.180
1471.373, 89.651
1472.556, 69.181
1473.738, 88.759
1474.919, 54.333
1476.101, 88.484
1477.283, 37.210
1478.464, 88.930
1479.645, 72.651
1480.826, 71.368
1482.007, 80.075
1483.187, 76.776
1484.368, 50.470
1485.548, 67.222
1486.728, 38.058
1487.908, 36.905
1489.088, 103.761
1490.268, 42.630
1491.447, 40.425
1492.626, 116.334
1493.805, 28.280
1494.984, 89.289
1496.163, 91.367
1497.341, 95.505
1498.520, 78.698
1499.698, 108.958
1500.876, 6.285
1502.054, 36.672
1503.232, 36.132
1504.409, 62.678
1505.586, 103.312
1506.763, 58.046
1507.940, 46.906
1509.117, 79.905
1510.294, 32.054
1511.470, 50.375
1512.647, 138.987
1513.823, 58.616
1514.999, 65.488
1516.174, 66.639
1517.350, 1.893
1518.526, 98.195
1519.701, 54.906
1520.876, 24.573
1522.051, 0.000
##END=



