##NAMES=Forsterite
##RRUFFID=R060535
##IDEAL CHEMISTRY=Mg_2_SiO_4_
##LOCALITY=unknown
##OWNER=RRUFF
##SOURCE=Gemological Institute of America
##DESCRIPTION=Transparent brown gemstone
##STATUS=The identification of this mineral has been confirmed by X-ray diffraction and chemical analysis
##URL=rruff.info/R060535
##MEASURED CHEMISTRY=(Mg_1.81_Fe_0.18_Ni_0.01_)_Î£=2_Si_1.00_O_4_
##PIN_ID=L01261
##ORIENTATION=Laser parallel to b* (0 1 0). Fiducial mark perpendicular to laser is parallel to c [0 0 1]
208.8360, 0.0000000E+00
210.0610, 1.150879
211.2860, 95.56396
212.5100, 111.7346
213.7350, 158.6875
214.9590, 132.4727
216.1830, 146.8237
217.4070, 175.0781
218.6310, 332.7839
219.8540, 366.7219
221.0780, 406.8750
222.3010, 425.9155
223.5240, 419.0757
224.7470, 358.9258
225.9690, 397.5168
227.1920, 319.7803
228.4140, 304.7886
229.6360, 302.7971
230.8580, 305.4375
232.0800, 337.3005
233.3020, 304.7571
234.5230, 281.2090
235.7440, 334.8259
236.9650, 310.0779
238.1860, 176.2827
239.4070, 170.4072
240.6280, 179.1880
241.8480, 154.1436
243.0680, 125.2561
244.2880, 156.3879
245.5080, 97.84375
246.7280, 114.1204
247.9470, 37.31714
249.1660, 15.57129
250.3860, 58.94946
251.6040, 34.58008
252.8230, 41.26953
254.0420, 12.92358
255.2600, 40.02393
256.4790, 1.070801
257.6970, 98.07788
258.9150, 142.1855
260.1320, 111.2229
261.3500, 19.80420
262.5670, 30.10742
263.7840, 4.037842
265.0010, 18.76392
266.2180, 4.483154
267.4350, 23.22290
268.6510, 62.88550
269.8680, 43.50635
271.0840, 3.900635
272.3000, 30.05933
273.5160, 0.7927250
274.7310, 46.73364
275.9470, 47.24878
277.1620, 44.73682
278.3770, 42.21021
279.5920, 116.6619
280.8070, 43.08154
282.0210, 15.51807
283.2360, 27.13623
284.4500, 127.5627
285.6640, 110.1570
286.8780, 255.1177
288.0920, 188.2146
289.3050, 291.8179
290.5180, 350.0693
291.7320, 454.4907
292.9450, 606.3228
294.1570, 733.0081
295.3700, 929.2170
296.5830, 1056.042
297.7950, 1202.998
299.0070, 1375.201
300.2190, 1491.299
301.4310, 1602.182
302.6420, 1536.443
303.8540, 1373.881
305.0650, 1335.525
306.2760, 1135.985
307.4870, 958.0813
308.6980, 882.7913
309.9080, 656.4978
311.1190, 655.2002
312.3290, 594.9043
313.5390, 431.6052
314.7490, 420.3052
315.9580, 442.0066
317.1680, 468.7097
318.3770, 535.4143
319.5860, 500.1189
320.7950, 493.8242
322.0040, 464.5303
323.2130, 443.2358
324.4210, 442.9397
325.6290, 487.6411
326.8380, 478.3391
328.0460, 448.0332
329.2530, 416.7224
330.4610, 398.2104
331.6680, 363.4575
332.8760, 343.5400
334.0830, 327.3213
335.2890, 286.4751
336.4960, 281.4045
337.7030, 280.4041
338.9090, 337.6074
340.1150, 245.9517
341.3210, 190.2581
342.5270, 231.3423
343.7330, 179.9019
344.9380, 177.0461
346.1440, 175.9897
347.3490, 171.3521
348.5540, 113.2124
349.7590, 136.7095
350.9630, 197.2520
352.1680, 70.93457
353.3720, 69.19580
354.5760, 85.54419
355.7800, 188.7839
356.9840, 47.78589
358.1870, 78.25854
359.3910, 127.8948
360.5940, 68.54907
361.7970, 56.87329
363.0000, 4.581543
364.2030, 5.167236
365.4050, 30.67212
366.6080, 29.16919
367.8100, 123.8188
369.0120, 49.19092
370.2140, 79.37842
371.4150, 24.44897
372.6170, 79.70068
373.8180, 65.01562
375.0190, 39.85938
376.2200, 8.667480
377.4210, 28.69995
378.6220, 11.31763
379.8220, 20.84595
381.0230, 25.78345
382.2230, 0.7089840
383.4230, 8.635254
384.6220, 0.8159180
385.8220, 7.243896
387.0220, 4.362549
388.2210, 12.73535
389.4200, 10.16895
390.6190, 19.06909
391.8180, 37.03833
393.0160, 54.85620
394.2150, 52.71362
395.4130, 63.60840
396.6110, 10.50537
397.8090, 20.37354
399.0060, 33.64771
400.2040, 28.37451
401.4010, 8.696533
402.5980, 87.16211
403.7950, 26.02368
404.9920, 79.87354
406.1890, 144.3750
407.3860, 137.2168
408.5820, 244.6951
409.7780, 274.4912
410.9740, 369.9343
412.1700, 275.7441
413.3650, 426.5830
414.5610, 394.4124
415.7560, 512.8936
416.9510, 404.7156
418.1460, 450.3416
419.3410, 458.1572
420.5360, 465.9841
421.7300, 404.8035
422.9240, 470.6316
424.1180, 427.4497
425.3120, 493.2585
426.5060, 537.9785
427.7000, 729.7537
428.8930, 715.5493
430.0860, 780.3330
431.2790, 894.1152
432.4720, 948.8835
433.6650, 942.6399
434.8580, 968.3684
436.0500, 958.0854
437.2420, 938.7593
438.4340, 829.4104
439.6260, 678.0474
440.8180, 609.6663
442.0090, 497.2617
443.2010, 381.8328
444.3920, 312.3889
445.5830, 291.9136
446.7740, 233.4272
447.9640, 247.9194
449.1550, 193.3682
450.3450, 175.7998
451.5350, 156.2202
452.7250, 25.63135
453.9150, 109.0315
455.1050, 21.42212
456.2940, 70.80127
457.4830, 123.1702
458.6720, 23.52954
459.8610, 73.87720
461.0500, 69.21460
462.2390, 64.54150
463.4270, 55.85742
464.6150, 61.16260
465.8040, 25.45654
466.9910, 52.73853
468.1790, 49.00952
469.3670, 13.26880
470.5540, 33.51514
471.7410, 20.74976
472.9280, 48.97217
474.1150, 38.18237
475.3020, 101.3794
476.4890, 142.5640
477.6750, 73.73657
478.8610, 15.89575
480.0470, 82.04126
481.2330, 31.17310
482.4190, 3.290527
483.6040, 83.39014
484.7900, 43.47510
485.9750, 79.54614
487.1600, 106.6052
488.3450, 109.6504
489.5290, 89.68286
490.7140, 108.7002
491.8980, 73.70508
493.0820, 83.69727
494.2660, 54.67896
495.4500, 10.35352
496.6340, 83.58276
497.8170, 36.50854
499.0010, 2.557129
500.1840, 48.34521
501.3670, 24.21680
502.5500, 23.30469
503.7320, 91.12109
504.9150, 17.87158
506.0970, 30.29541
507.2790, 44.72705
508.4610, 42.56445
509.6430, 19.27783
510.8250, 64.13867
512.0060, 164.4761
513.1870, 142.4546
514.3680, 116.3135
515.5490, 61.52197
516.7300, 130.3188
517.9110, 80.95801
519.0910, 21.62891
520.2710, 137.2715
521.4510, 53.65527
522.6310, 98.20410
523.8110, 185.4697
524.9910, 97.82031
526.1700, 161.5347
527.3490, 218.8359
528.5280, 187.4663
529.7070, 168.3335
530.8860, 251.8315
532.0650, 117.0366
533.2430, 246.4814
534.4210, 273.9580
535.5990, 354.7163
536.7770, 323.3228
537.9550, 362.8706
539.1320, 470.7583
540.3100, 353.9995
541.4870, 499.4810
542.6640, 513.7524
543.8410, 390.5327
545.0170, 337.2188
546.1940, 375.4834
547.3700, 347.6118
548.5470, 308.1553
549.7230, 300.4121
550.8980, 200.8086
552.0740, 236.7139
553.2500, 231.7798
554.4250, 174.4233
555.6000, 325.8130
556.7750, 245.6328
557.9500, 303.4043
559.1250, 253.6689
560.2990, 178.3096
561.4730, 194.3672
562.6480, 260.9390
563.8220, 349.3018
564.9950, 356.4551
566.1690, 340.6489
567.3430, 337.7012
568.5160, 449.0693
569.6890, 525.9824
570.8620, 541.8774
572.0350, 508.2852
573.2070, 632.2334
574.3800, 785.0703
575.5520, 835.8877
576.7240, 1031.686
577.8960, 1133.532
579.0680, 1302.292
580.2400, 1458.034
581.4110, 1515.756
582.5830, 1610.479
583.7540, 1655.145
584.9250, 1658.812
586.0950, 1582.459
587.2660, 1501.089
588.4370, 1547.700
589.6070, 1370.292
590.7770, 1334.867
591.9470, 1308.423
593.1170, 1288.961
594.2860, 1392.162
595.4560, 1336.664
596.6250, 1526.791
597.7940, 1584.149
598.9630, 1873.596
600.1320, 1944.683
601.3000, 2141.996
602.4690, 2234.271
603.6370, 2319.508
604.8050, 2350.689
605.9730, 2318.657
607.1410, 2313.860
608.3090, 2138.973
609.4760, 2008.051
610.6430, 1824.857
611.8100, 1533.833
612.9770, 1361.687
614.1440, 1118.691
615.3110, 1038.632
616.4770, 957.8154
617.6430, 901.9824
618.8090, 686.0186
619.9750, 598.7056
621.1410, 523.7407
622.3070, 443.5337
623.4720, 479.8901
624.6370, 367.8774
625.8020, 308.6802
626.9670, 304.6167
628.1320, 190.6309
629.2970, 325.6279
630.4610, 216.5552
631.6250, 198.5205
632.7890, 259.3467
633.9530, 204.1982
635.1170, 159.9111
636.2810, 203.2192
637.4440, 149.0200
638.6070, 84.60791
639.7700, 129.6655
640.9330, 146.2700
642.0960, 58.71387
643.2590, 159.1313
644.4210, 113.8657
645.5830, 102.1968
646.7450, 8.010742
647.9070, 48.85938
649.0690, 71.49805
650.2310, 76.74463
651.3920, 13.49023
652.5530, 39.14893
653.7140, 29.21826
654.8750, 17.82129
656.0360, 55.75342
657.1970, 2.584961
658.3570, 39.78857
659.5170, 40.58105
660.6770, 58.26025
661.8370, 39.94287
662.9970, 27.40820
664.1570, 17.10107
665.3160, 38.42090
666.4750, 36.04590
667.6340, 31.44336
668.7930, 28.15332
669.9520, 38.78662
671.1110, 1.457031
672.2690, 20.85107
673.4270, 64.85498
674.5850, 9.395996
675.7430, 38.36914
676.9010, 22.82471
678.0590, 15.99512
679.2160, 35.16260
680.3730, 49.69189
681.5300, 24.58008
682.6870, 77.49072
683.8440, 42.45557
685.0010, 21.53857
686.1570, 3.479980
687.3130, 26.51807
688.4690, 6.804199
689.6250, 41.67822
690.7810, 2.807129
691.9370, 53.95410
693.0920, 32.14502
694.2470, 6.631348
695.4020, 52.60498
696.5570, 4.883301
697.7120, 19.82129
698.8670, 20.48389
700.0210, 75.81445
701.1750, 5.197266
702.3290, 66.59570
703.4830, 16.95898
704.6370, 2.503418
705.7910, 29.03760
706.9440, 70.43799
708.0970, 62.04004
709.2510, 81.51025
710.4030, 58.02783
711.5560, 23.39453
712.7090, 102.8091
713.8610, 84.21631
715.0140, 112.6162
716.1660, 23.00928
717.3180, 73.39453
718.4690, 81.77344
719.6210, 118.1455
720.7730, 73.51172
721.9240, 68.87109
723.0750, 106.2251
724.2260, 134.5718
725.3770, 86.91406
726.5270, 128.2505
727.6780, 141.5811
728.8280, 217.9062
729.9780, 145.2261
731.1280, 235.5410
732.2780, 172.8511
733.4280, 169.1577
734.5770, 200.4604
735.7260, 133.7593
736.8760, 196.0552
738.0250, 308.3467
739.1730, 235.6362
740.3220, 174.9219
741.4700, 256.2046
742.6190, 321.4844
743.7670, 207.7612
744.9150, 243.0356
746.0630, 273.3081
747.2100, 335.5791
748.3580, 288.8481
749.5050, 334.1162
750.6520, 345.3823
751.7990, 307.6499
752.9460, 387.9150
754.0930, 307.1797
755.2390, 341.4424
756.3860, 345.7031
757.5320, 337.9634
758.6780, 361.5122
759.8240, 395.4829
760.9690, 355.7427
762.1150, 284.0049
763.2600, 212.2686
764.4060, 311.5337
765.5510, 311.7988
766.6950, 356.0635
767.8400, 401.3276
768.9850, 412.5918
770.1290, 475.8560
771.2730, 360.1206
772.4170, 437.4019
773.5610, 360.6841
774.7050, 426.9736
775.8480, 524.2661
776.9920, 559.4238
778.1350, 622.7280
779.2780, 603.0347
780.4210, 548.1099
781.5640, 693.4219
782.7060, 585.7500
783.8490, 681.0396
784.9910, 571.3154
786.1330, 600.3945
787.2750, 478.5981
788.4170, 534.8511
789.5580, 607.5005
790.7000, 613.6191
791.8410, 618.6641
792.9820, 671.5269
794.1230, 689.7393
795.2640, 754.9897
796.4040, 858.1494
797.5450, 758.3232
798.6850, 971.5947
799.8250, 1024.810
800.9650, 1198.356
802.1050, 1361.410
803.2450, 1540.341
804.3840, 1690.477
805.5230, 1858.771
806.6630, 2198.467
807.8020, 2456.526
808.9400, 2972.972
810.0790, 3269.254
811.2170, 3959.797
812.3560, 5006.958
813.4940, 5971.251
814.6320, 7449.637
815.7700, 9395.406
816.9070, 11250.87
818.0450, 13636.62
819.1820, 15815.97
820.3190, 17493.04
821.4560, 19087.35
822.5930, 19907.83
823.7300, 19862.67
824.8670, 18666.12
826.0030, 17042.85
827.1390, 14809.43
828.2750, 12661.51
829.4110, 10721.42
830.5470, 9287.739
831.6820, 8149.307
832.8180, 7205.437
833.9530, 6610.617
835.0880, 6209.294
836.2230, 6032.598
837.3580, 5923.477
838.4920, 6234.832
839.6270, 6366.388
840.7610, 6767.146
841.8950, 7508.857
843.0290, 8432.701
844.1630, 9485.221
845.2960, 11121.19
846.4300, 13263.17
847.5630, 15731.63
848.6960, 18749.54
849.8290, 21678.55
850.9620, 25212.58
852.0940, 28072.62
853.2270, 30351.61
854.3590, 31810.67
855.4910, 31686.75
856.6230, 30583.85
857.7550, 28274.95
858.8870, 24889.07
860.0180, 21208.21
861.1500, 17788.35
862.2810, 14864.51
863.4120, 12409.67
864.5430, 10004.86
865.6730, 8565.051
866.8040, 7327.265
867.9340, 6338.493
869.0640, 5618.742
870.1940, 4927.004
871.3240, 4615.284
872.4540, 4274.577
873.5830, 4259.881
874.7130, 4275.200
875.8420, 4658.530
876.9710, 4487.875
878.1000, 5109.232
879.2290, 5328.603
880.3570, 5488.986
881.4860, 5432.384
882.6140, 5021.797
883.7420, 4511.222
884.8700, 3924.670
885.9980, 3142.131
887.1250, 2575.675
888.2530, 2231.161
889.3800, 1822.663
890.5070, 1525.252
891.6340, 1250.529
892.7610, 1070.245
893.8880, 861.7983
895.0140, 695.3652
896.1400, 693.9448
897.2670, 681.5381
898.3930, 552.5366
899.5180, 389.3208
900.6440, 500.9531
901.7700, 410.5986
902.8950, 404.2578
904.0200, 425.9292
905.1450, 500.6138
906.2700, 472.3120
907.3950, 251.5469
908.5190, 444.2710
909.6440, 382.0078
910.7680, 353.9570
911.8920, 568.7197
913.0160, 516.5273
914.1400, 676.3159
915.2630, 670.1172
916.3870, 824.9316
917.5100, 843.7446
918.6330, 845.5845
919.7560, 841.4360
920.8790, 693.3057
922.0010, 504.4624
923.1240, 540.6162
924.2460, 441.5264
925.3680, 358.6543
926.4900, 274.5928
927.6120, 214.5444
928.7340, 398.5068
929.8550, 408.4849
930.9760, 259.4795
932.0980, 297.8037
933.2190, 169.6313
934.3390, 303.0605
935.4600, 418.5718
936.5810, 391.6895
937.7010, 581.9297
938.8210, 511.3286
939.9410, 632.9253
941.0610, 536.0669
942.1810, 631.2305
943.3010, 793.3462
944.4200, 910.5503
945.5390, 829.3291
946.6580, 1139.659
947.7770, 1231.943
948.8960, 1410.222
950.0150, 1664.997
951.1330, 1857.288
952.2510, 2080.981
953.3690, 2408.338
954.4870, 2716.696
955.6050, 3087.087
956.7230, 3437.500
957.8400, 3753.972
958.9580, 4054.064
960.0750, 4116.517
961.1920, 4275.981
962.3090, 4098.098
963.4250, 4058.595
964.5420, 3823.386
965.6580, 3569.025
966.7740, 3270.572
967.8900, 2963.329
969.0060, 2584.566
970.1220, 2291.726
971.2380, 1888.421
972.3530, 1555.049
973.4680, 1360.686
974.5830, 1175.348
975.6980, 974.0156
976.8130, 840.6943
977.9280, 695.2896
979.0420, 541.1572
980.1560, 486.8721
981.2710, 392.5962
982.3850, 351.3369
983.4980, 439.0835
984.6120, 273.8345
985.7260, 346.6064
986.8390, 221.3672
987.9520, 190.2559
989.0650, 332.1294
990.1780, 188.9033
991.2910, 235.6816
992.4030, 167.4639
993.5160, 200.2495
994.6280, 103.0386
995.7400, 84.83154
996.8520, 177.6289
997.9640, 50.42920
999.0750, 179.2324
1000.187, 178.2598
1001.298, 169.4282
1002.409, 204.1245
1003.520, 94.95117
1004.631, 143.7212
1005.741, 56.55273
1006.852, 119.3867
1007.962, 73.22314
1009.072, 97.06152
1010.182, 17.25635
1011.292, 56.01855
1012.402, 76.59863
1013.511, 80.01270
1014.621, 14.64648
1015.730, 38.42090
1016.839, 26.29297
1017.948, 14.85596
1019.056, 50.75000
1020.165, 4.613281
1021.273, 30.50000
1022.382, 29.50049
1023.490, 45.02832
1024.598, 24.76416
1025.706, 15.55664
1026.813, 42.15088
1027.921, 48.92139
1029.028, 24.53564
1030.135, 41.11426
1031.242, 15.49951
1032.349, 7.890625
1033.456, 27.42529
1034.562, 120.4067
1035.668, 79.25586
1036.775, 60.10449
1037.881, 40.95166
1038.987, 78.79736
1040.092, 64.35742
1041.198, 45.45410
1042.303, 39.30078
1043.408, 5.890625
1044.514, 155.9131
1045.618, 21.20850
1046.723, 17.58154
1047.828, 107.3696
1048.932, 27.15527
1050.037, 50.06152
1051.141, 62.69238
1052.245, 40.44385
1053.349, 13.19238
1054.452, 84.06104
1055.556, 67.26953
1056.659, 35.99365
1057.762, 33.27490
1058.865, 117.3569
1059.968, 88.51416
1061.071, 12.39160
1062.174, 45.21924
1063.276, 110.8257
1064.378, 0.4287110
1065.480, 54.97656
1066.582, 31.85596
1067.684, 64.32520
1068.786, 17.16260
1069.887, 74.35498
1070.988, 91.92188
1072.090, 14.54834
1073.191, 45.80713
1074.291, 49.15723
1075.392, 36.49756
1076.493, 41.81738
1077.593, 29.87256
1078.693, 69.59033
1079.793, 31.64209
1080.893, 43.86816
1081.993, 5.088379
1083.092, 2.702637
1084.192, 24.50977
1085.291, 38.67334
1086.390, 146.8315
1087.489, 97.98438
1088.588, 78.19043
1089.686, 34.32910
1090.785, 74.53857
1091.883, 69.53760
1092.981, 48.60693
1094.079, 9.330566
1095.177, 113.7095
1096.275, 16.80566
1097.373, 26.82764
1098.470, 63.84131
1099.567, 11.15283
1100.664, 59.83203
1101.761, 6.190918
1102.858, 31.76318
1103.954, 127.7090
1105.051, 118.6528
1106.147, 114.5879
1107.243, 89.51514
1108.339, 76.14453
1109.435, 83.12305
1110.531, 43.05469
1111.626, 116.9473
1112.722, 59.83203
1113.817, 108.7075
1114.912, 152.5742
1116.007, 96.43164
1117.101, 59.28076
1118.196, 88.12012
1119.290, 34.95117
1120.385, 6.770996
1121.479, 109.5713
1122.573, 79.36230
1123.666, 86.14404
1124.760, 104.9165
1125.853, 96.67969
1126.947, 86.43311
1128.040, 124.1772
1129.133, 143.9116
1130.226, 128.6367
1131.318, 7.351563
1132.411, 29.04590
1133.503, 3.272461
1134.596, 73.93945
1135.688, 15.58447
1136.780, 81.21094
1137.871, 127.8271
1138.963, 234.4404
1140.054, 219.2305
1141.146, 57.63574
1142.237, 173.2183
1143.328, 158.8252
1144.419, 67.38721
1145.509, 122.9385
1146.600, 34.48047
1147.690, 68.00781
1148.780, 4.475098
1149.870, 163.0127
1150.960, 136.4907
1152.050, 227.8521
1153.139, 251.3105
1154.229, 108.7646
1155.318, 178.4023
1156.407, 139.8306
1157.496, 159.2480
1158.585, 203.6558
1159.674, 178.0562
1160.762, 163.4463
1161.850, 94.82520
1162.939, 111.8027
1164.027, 137.9966
1165.114, 139.3452
1166.202, 236.6826
1167.290, 257.0107
1168.377, 143.3286
1169.464, 264.6357
1170.551, 203.9326
1171.638, 95.69580
1172.725, 72.97217
1173.812, 102.2383
1174.898, 151.2939
1175.984, 63.53955
1177.071, 170.7417
1178.157, 143.9663
1179.242, 97.18066
1180.328, 219.3853
1181.414, 106.5947
1182.499, 107.7803
1183.584, 127.9561
1184.669, 192.1221
1185.754, 52.24170
1186.839, 20.12988
1187.924, 52.26025
1189.008, 131.1787
1190.092, 207.2905
1191.177, 99.39258
1192.260, 177.4888
1193.344, 72.57227
1194.428, 100.6470
1195.512, 139.3960
1196.595, 16.64355
1197.678, 76.29053
1198.761, 74.85791
1199.844, 91.83496
1200.927, 103.6929
1202.009, 100.9800
1203.092, 126.9473
1204.174, 111.9419
1205.256, 96.92871
1206.338, 97.26416
1207.420, 132.2368
1208.502, 126.7847
1209.583, 144.6582
1210.665, 87.58105
1211.746, 194.5254
1212.827, 263.9771
1213.908, 148.9224
1214.988, 29.46777
1216.069, 66.36914
1217.149, 110.2808
1218.230, 19.18604
1219.310, 163.0840
1220.390, 206.9282
1221.470, 203.1558
1222.549, 89.03564
1223.629, 166.9097
1224.708, 191.1489
1225.787, 11.01172
1226.866, 116.5986
1227.945, 165.3481
1229.024, 84.19385
1230.103, 180.9590
1231.181, 146.7935
1232.259, 126.0493
1233.337, 192.7793
1234.415, 73.96484
1235.493, 59.77881
1236.571, 182.5879
1237.648, 8.608398
1238.726, 152.1836
1239.803, 1.970703
1240.880, 222.6816
1241.957, 163.6123
1243.034, 38.37891
1244.110, 203.1455
1245.187, 65.90625
1246.263, 185.6631
1247.339, 145.3994
1248.415, 147.1465
1249.491, 53.76562
1250.566, 90.39941
1251.642, 78.13379
1252.717, 69.86230
1253.793, 128.5879
1254.868, 108.3096
1255.943, 99.02637
1257.017, 79.73926
1258.092, 153.4482
1259.166, 137.1689
1260.241, 171.8848
1261.315, 23.37793
1262.389, 180.7275
1263.462, 41.45020
1264.536, 54.22949
1265.610, 146.9648
1266.683, 21.63965
1267.756, 110.7666
1268.829, 139.4355
1269.902, 200.1016
1270.975, 136.6865
1272.048, 6.346680
1273.120, 190.0039
1274.192, 88.61621
1275.264, 101.2656
1276.336, 123.5391
1277.408, 182.1406
1278.480, 193.5908
1279.551, 138.6963
1280.623, 18.13086
1281.694, 11.90527
1282.765, 9.531250
1283.836, 3.843750
1284.907, 37.75977
1285.977, 38.41113
1287.048, 83.02734
1288.118, 55.37598
1289.188, 30.98730
1290.258, 40.01465
1291.328, 41.38281
1292.398, 50.81543
1293.467, 67.42285
1294.537, 137.0293
1295.606, 131.6338
1296.675, 109.3516
1297.744, 151.9531
1298.813, 122.5518
1299.882, 139.1494
1300.950, 132.7607
1302.018, 139.8184
1303.086, 131.9424
1304.155, 159.5508
1305.222, 97.08203
1306.290, 88.40430
1307.358, 169.3027
1308.425, 115.9150
1309.492, 105.7695
1310.559, 152.3926
1311.626, 153.0137
1312.693, 138.2910
1313.760, 6.747070
1314.826, 87.79785
1315.893, 89.84766
1316.959, 46.42578
1318.025, 203.0898
1319.091, 111.7549
1320.157, 182.4189
1321.222, 120.0889
1322.288, 146.7578
1323.353, 27.42773
1324.418, 126.0967
1325.483, 105.2207
1326.548, 143.9160
1327.612, 55.63379
1328.677, 51.35059
1329.741, 73.08984
1330.806, 12.85840
1331.870, 67.63379
1332.934, 68.41016
1333.997, 8.813477
1335.061, 128.9746
1336.124, 5.240234
1337.188, 74.55762
1338.251, 77.36914
1339.314, 96.18262
1340.377, 95.99707
1341.439, 111.3145
1342.502, 127.6377
1343.564, 101.4561
1344.627, 130.2910
1345.689, 49.12891
1346.751, 84.84375
1347.813, 57.74609
1348.874, 107.5879
1349.936, 109.4551
1350.997, 107.3232
1352.058, 65.19238
1353.119, 158.0703
1354.180, 46.88672
1355.241, 68.75977
1356.301, 56.63574
1357.362, 19.48730
1358.422, 214.3955
1359.482, 37.28125
1360.542, 154.1758
1361.602, 29.93066
1362.662, 115.9590
1363.721, 35.84961
1364.781, 66.73633
1365.840, 32.91504
1366.899, 100.8057
1367.958, 75.60059
1369.017, 5.505859
1370.075, 47.38867
1371.134, 81.34961
1372.192, 52.25000
1373.250, 53.15137
1374.308, 56.77734
1375.366, 64.75195
