##NAMES=Forsterite
##RRUFFID=R040018
##IDEAL CHEMISTRY=Mg_2_SiO_4_
##LOCALITY=Trudy's mine, San Carlos, Gila County, Arizona, USA
##OWNER=RRUFF
##SOURCE=Bob Downs
##DESCRIPTION=Green fragments from xenoliths in a basalt flow
##STATUS=The identification of this mineral has been confirmed by X-ray diffraction and chemical analysis
##URL=rruff.info/R040018
##MEASURED CHEMISTRY=(Mg_1.81_Fe_0.18_Ni_0.01_)_Î£=2_Si_1.00_O_4_; trace amounts of Mn and Ca
##PIN_ID=M00008
##ORIENTATION=Laser parallel to a* (1 0 0). Fiducial mark perpendicular to laser is parallel to b [0 1 0]
49.365, 0.000
50.765, 21.885
52.166, 26.870
53.566, 29.439
54.966, 127.339
56.365, 112.942
57.765, 177.982
59.164, 243.271
60.563, 257.197
61.962, 329.333
63.360, 390.819
64.758, 491.107
66.157, 518.882
67.554, 527.639
68.952, 500.141
70.349, 473.879
71.747, 398.305
73.144, 425.310
74.540, 401.381
75.937, 329.911
77.333, 313.640
78.729, 286.552
80.125, 205.632
81.521, 149.871
82.916, 76.257
84.311, 39.782
85.706, 19.440
87.101, 24.223
88.496, 62.873
89.890, 35.853
91.284, 54.721
92.678, 11.478
94.071, 27.879
95.465, 41.345
96.858, 104.599
98.251, 120.588
99.644, 217.350
101.036, 253.193
102.428, 312.102
103.820, 388.067
105.212, 398.085
106.604, 482.157
107.995, 500.281
109.387, 662.455
110.777, 919.680
112.168, 892.046
113.559, 1275.281
114.949, 941.656
116.339, 872.080
117.729, 859.553
119.119, 1012.075
120.508, 937.256
121.897, 898.495
123.286, 939.941
124.675, 753.663
126.063, 756.434
127.452, 776.253
128.840, 735.120
130.228, 713.032
131.615, 760.989
133.003, 722.007
134.390, 683.132
135.777, 689.354
137.164, 668.659
138.550, 726.034
139.937, 681.466
141.323, 650.943
142.709, 629.453
144.094, 590.976
145.480, 624.506
146.865, 643.043
148.250, 682.585
149.635, 652.119
151.019, 628.615
152.403, 580.038
153.788, 593.325
155.171, 569.540
156.555, 594.749
157.939, 563.972
159.322, 581.221
160.705, 522.496
162.088, 496.796
163.470, 528.122
164.853, 559.473
166.235, 518.851
167.617, 502.254
168.998, 497.686
170.380, 478.146
171.761, 505.636
173.142, 503.152
174.523, 470.695
175.904, 456.273
177.284, 440.885
178.664, 451.519
180.044, 427.183
181.424, 441.876
182.803, 435.608
184.183, 443.370
185.562, 437.165
186.940, 391.981
188.319, 412.853
189.698, 400.757
191.076, 430.693
192.454, 432.673
193.831, 425.873
195.209, 379.744
196.586, 402.823
197.963, 390.921
199.340, 363.060
200.717, 402.219
202.093, 386.399
203.470, 354.597
204.846, 408.812
206.221, 383.045
207.597, 410.296
208.972, 390.564
210.347, 421.151
211.722, 453.152
213.097, 490.473
214.472, 548.812
215.846, 602.340
217.220, 694.841
218.594, 712.252
219.967, 873.544
221.341, 850.698
222.714, 955.705
224.087, 954.570
225.460, 968.271
226.832, 917.774
228.204, 863.112
229.577, 801.323
230.948, 717.415
232.320, 668.352
233.692, 650.084
235.063, 567.474
236.434, 528.496
237.805, 533.387
239.175, 461.250
240.545, 424.126
241.916, 439.031
243.286, 417.962
244.655, 358.873
246.025, 352.493
247.394, 338.888
248.763, 300.655
250.132, 264.942
251.501, 230.842
252.869, 280.987
254.237, 206.354
255.605, 197.554
256.973, 272.704
258.340, 226.698
259.708, 197.374
261.075, 223.329
262.442, 221.959
263.808, 234.741
265.175, 200.962
266.541, 155.266
267.907, 195.587
269.273, 193.927
270.639, 164.284
272.004, 194.658
273.369, 164.049
274.734, 142.456
276.099, 175.880
277.463, 151.320
278.828, 139.776
280.192, 150.248
281.556, 165.734
282.919, 185.237
284.283, 191.754
285.646, 155.585
287.009, 174.132
288.372, 241.794
289.734, 210.369
291.097, 261.323
292.459, 249.925
293.821, 275.541
295.183, 314.450
296.544, 398.091
297.905, 531.745
299.266, 590.582
300.627, 730.693
301.988, 858.408
303.348, 902.108
304.709, 924.819
306.069, 793.539
307.428, 770.292
308.788, 653.097
310.147, 533.849
311.507, 544.611
312.865, 476.748
314.224, 564.530
315.583, 539.097
316.941, 563.900
318.299, 542.744
319.657, 539.569
321.015, 554.405
322.372, 558.253
323.729, 651.353
325.086, 749.280
326.443, 904.161
327.800, 843.296
329.156, 858.198
330.512, 813.172
331.868, 719.090
333.224, 682.391
334.579, 692.859
335.935, 720.459
337.290, 771.521
338.645, 736.048
339.999, 719.084
341.354, 663.235
342.708, 540.229
344.062, 469.317
345.416, 422.243
346.769, 326.874
348.123, 259.028
349.476, 253.096
350.829, 195.181
352.182, 190.575
353.534, 212.682
354.887, 138.808
356.239, 152.944
357.591, 87.109
358.942, 195.282
360.294, 158.467
361.645, 148.664
362.996, 165.867
364.347, 303.084
365.698, 327.312
367.048, 424.550
368.398, 488.809
369.748, 586.074
371.098, 607.371
372.448, 611.093
373.797, 523.020
375.146, 522.374
376.495, 409.733
377.844, 276.116
379.192, 277.499
380.540, 122.879
381.889, 166.256
383.236, 77.632
384.584, 124.013
385.932, 105.392
387.279, 69.770
388.626, 80.149
389.973, 27.534
391.319, 11.930
392.666, 49.331
394.012, 55.733
395.358, 11.148
396.704, 39.572
398.049, 9.013
399.394, 49.470
400.740, 43.933
402.084, 57.402
403.429, 131.877
404.774, 186.358
406.118, 251.844
407.462, 315.337
408.806, 285.836
410.150, 231.342
411.493, 249.859
412.836, 185.389
414.179, 206.932
415.522, 186.488
416.865, 136.077
418.207, 219.690
419.549, 185.333
420.891, 199.993
422.233, 191.663
423.575, 150.342
424.916, 144.026
426.257, 136.716
427.598, 100.408
428.939, 196.104
430.279, 188.801
431.619, 256.501
432.959, 169.204
434.299, 178.908
435.639, 220.615
436.978, 150.323
438.318, 128.033
439.657, 165.745
440.996, 119.458
442.334, 75.173
443.673, 97.889
445.011, 3.606
446.349, 11.676
447.687, 4.039
449.024, 4.244
450.361, 21.471
451.699, 12.813
453.036, 11.900
454.372, 14.663
455.709, 9.674
457.045, 20.036
458.381, 20.746
459.717, 5.545
461.053, 34.838
462.388, 1.856
463.724, 14.549
465.059, 25.240
466.394, 16.932
467.728, 4.622
469.063, 25.689
470.397, 32.989
471.731, 12.667
473.065, 30.658
474.398, 66.004
475.732, 18.336
477.065, 22.315
478.398, 23.035
479.731, 60.603
481.063, 15.371
482.396, 21.006
483.728, 58.303
485.060, 2.298
486.391, 67.896
487.723, 41.448
489.054, 29.125
490.385, 2.695
491.716, 19.738
493.047, 42.183
494.377, 9.652
495.708, 12.130
497.038, 1.383
498.368, 28.109
499.697, 6.448
501.027, 0.065
502.356, 37.416
503.685, 8.845
505.014, 30.581
506.342, 8.051
507.671, 7.100
508.999, 49.590
510.327, 39.870
511.655, 0.685
512.982, 61.333
514.310, 61.864
515.637, 136.696
516.964, 47.565
518.291, 130.394
519.617, 148.827
520.944, 77.615
522.270, 101.140
523.596, 105.266
524.921, 98.871
526.247, 148.149
527.572, 182.168
528.897, 204.552
530.222, 225.552
531.547, 217.279
532.871, 251.625
534.196, 292.333
535.520, 368.646
536.844, 491.582
538.167, 740.620
539.491, 724.155
540.814, 1015.504
542.137, 1221.520
543.460, 1301.407
544.783, 1275.740
546.105, 1103.109
547.427, 929.915
548.749, 683.219
550.071, 583.151
551.393, 459.072
552.714, 346.393
554.035, 289.006
555.356, 189.486
556.677, 154.914
557.998, 234.214
559.318, 171.433
560.638, 158.628
561.958, 197.760
563.278, 160.951
564.597, 146.131
565.917, 148.284
567.236, 201.375
568.555, 197.456
569.874, 144.672
571.192, 250.731
572.511, 207.780
573.829, 328.817
575.147, 300.844
576.464, 337.860
577.782, 455.865
579.099, 462.859
580.416, 618.841
581.733, 649.812
583.050, 864.771
584.366, 992.719
585.683, 1112.656
586.999, 1319.581
588.315, 1577.494
589.630, 1796.396
590.946, 1794.285
592.261, 1681.164
593.576, 1534.030
594.891, 1328.885
596.206, 1069.728
597.520, 867.559
598.834, 720.379
600.148, 621.486
601.462, 554.983
602.776, 561.767
604.089, 532.539
605.402, 575.000
606.715, 587.749
608.028, 538.385
609.341, 541.110
610.653, 481.458
611.965, 450.160
613.277, 451.850
614.589, 358.248
615.901, 383.915
617.212, 305.570
618.523, 258.042
619.834, 249.394
621.145, 199.834
622.456, 203.442
623.766, 267.040
625.076, 244.625
626.386, 265.177
627.696, 171.677
629.006, 292.228
630.315, 241.768
631.624, 143.930
632.933, 161.447
634.242, 88.178
635.551, 117.673
636.859, 95.125
638.167, 51.597
639.475, 121.056
640.783, 68.505
642.090, 98.701
643.398, 125.069
644.705, 64.484
646.012, 150.644
647.318, 93.037
648.625, 137.356
649.931, 89.732
651.237, 149.725
652.543, 140.549
653.849, 87.239
655.155, 120.468
656.460, 52.230
657.765, 78.482
659.070, 93.618
660.375, 40.092
661.679, 42.087
662.984, 45.426
664.288, 37.942
665.592, 50.149
666.895, 8.677
668.199, 1.529
669.502, 25.300
670.805, 29.585
672.108, 17.492
673.411, 67.443
674.713, 16.564
676.016, 2.560
677.318, 3.464
678.620, 26.490
679.921, 9.566
681.223, 1.646
682.524, 3.253
683.825, 40.866
685.126, 44.975
686.427, 89.193
687.727, 53.427
689.028, 46.294
690.328, 69.994
691.628, 48.663
692.927, 58.688
694.227, 2.913
695.526, 14.499
696.825, 28.074
698.124, 1.640
699.423, 12.809
700.721, 22.720
702.020, 16.241
703.318, 2.752
704.616, 5.750
705.913, 32.270
707.211, 0.821
708.508, 12.616
709.805, 28.956
711.102, 11.515
712.399, 43.175
713.695, 25.830
714.992, 13.492
716.288, 15.806
717.584, 80.114
718.879, 9.415
720.175, 8.709
721.470, 10.996
722.765, 47.277
724.060, 88.552
725.355, 1.822
726.649, 91.082
727.944, 46.338
729.238, 38.588
730.532, 136.833
731.825, 42.074
733.119, 129.310
734.412, 120.541
735.705, 65.770
736.998, 184.995
738.291, 35.214
739.584, 89.430
740.876, 150.641
742.168, 83.848
743.460, 160.051
744.752, 64.250
746.043, 146.451
747.334, 184.648
748.626, 123.842
749.916, 193.033
751.207, 191.219
752.498, 176.403
753.788, 146.584
755.078, 166.762
756.368, 143.556
757.658, 132.109
758.947, 139.284
760.237, 183.455
761.526, 214.626
762.815, 282.800
764.104, 213.972
765.392, 291.156
766.680, 253.340
767.969, 242.522
769.257, 379.706
770.544, 271.888
771.832, 307.070
773.119, 374.256
774.406, 274.442
775.693, 364.633
776.980, 274.825
778.267, 388.015
779.553, 408.204
780.839, 390.393
782.125, 486.582
783.411, 389.775
784.697, 432.967
785.982, 493.160
787.267, 519.359
788.552, 553.558
789.837, 584.761
791.122, 590.964
792.406, 623.172
793.690, 614.249
794.974, 715.458
796.258, 790.617
797.542, 778.849
798.825, 910.083
800.108, 943.259
801.391, 1065.506
802.674, 1226.763
803.957, 1321.022
805.239, 1511.287
806.522, 1601.564
807.804, 1870.846
809.085, 2155.133
810.367, 2368.440
811.649, 2862.689
812.930, 3340.010
814.211, 4006.336
815.492, 4963.723
816.772, 6121.994
818.053, 7825.299
819.333, 9734.979
820.613, 13018.330
821.893, 15979.887
823.173, 19131.906
824.452, 20835.092
825.732, 19965.395
827.011, 18388.416
828.290, 15686.398
829.568, 12719.423
830.847, 10761.842
832.125, 8793.903
833.403, 7687.231
834.681, 6798.957
835.959, 6121.202
837.236, 5833.775
838.514, 5523.605
839.791, 5567.076
841.068, 5673.932
842.345, 5853.059
843.621, 6366.567
844.898, 6824.713
846.174, 7848.252
847.450, 9217.166
848.726, 10709.981
850.001, 13303.300
851.277, 16246.802
852.552, 20139.639
853.827, 24161.605
855.102, 26865.119
856.376, 29798.598
857.651, 28981.646
858.925, 26814.195
860.199, 23605.113
861.473, 18598.555
862.746, 15612.085
864.020, 12823.323
865.293, 9875.707
866.566, 8456.129
867.839, 6728.185
869.112, 5701.818
870.384, 4925.476
871.656, 3956.198
872.928, 3728.860
874.200, 3078.542
875.472, 2913.248
876.744, 2638.019
878.015, 2362.800
879.286, 2377.446
880.557, 2242.249
881.828, 2191.064
883.098, 2208.890
884.369, 2053.954
885.639, 1857.802
886.909, 1648.664
888.178, 1451.053
889.448, 1342.937
890.717, 1158.844
891.987, 1149.763
893.256, 1022.693
894.524, 835.673
895.793, 942.646
897.061, 795.631
898.330, 818.725
899.598, 957.744
900.865, 808.777
902.133, 901.821
903.401, 868.877
904.668, 757.951
905.935, 906.037
907.202, 932.136
908.468, 1052.247
909.735, 1162.370
911.001, 1275.466
912.267, 1547.614
913.533, 1809.775
914.799, 2356.855
916.064, 3103.046
917.330, 3996.283
918.595, 5492.499
919.860, 6036.725
921.124, 6171.424
922.389, 5285.676
923.653, 3824.941
924.918, 2943.543
926.182, 2079.834
927.445, 1569.136
928.709, 1418.451
929.972, 994.778
931.236, 1014.118
932.499, 971.470
933.761, 843.834
935.024, 861.212
936.286, 819.603
937.549, 816.006
938.811, 889.422
940.073, 877.851
941.334, 998.292
942.596, 912.747
943.857, 1050.214
945.118, 1128.694
946.379, 1113.188
947.640, 1423.207
948.900, 1557.726
950.161, 1572.257
951.421, 1887.840
952.681, 2046.397
953.940, 2337.863
955.200, 2578.445
956.459, 2845.041
957.719, 3230.648
958.978, 3319.268
960.236, 3707.901
961.495, 3938.414
962.753, 3732.071
964.012, 3804.303
965.270, 3279.984
966.527, 3215.998
967.785, 2903.975
969.043, 2338.709
970.300, 2177.598
971.557, 1805.903
972.814, 1395.688
974.071, 1272.495
975.327, 998.318
976.583, 846.155
977.840, 727.686
979.095, 541.561
980.351, 495.827
981.607, 400.750
982.862, 262.688
984.117, 381.981
985.372, 165.953
986.627, 202.943
987.882, 270.950
989.136, 131.976
990.390, 203.489
991.644, 98.552
992.898, 127.654
994.152, 110.786
995.405, 24.931
996.659, 134.108
997.912, 92.296
999.165, 132.515
1000.417, 166.765
1001.670, 136.010
1002.922, 314.265
1004.174, 277.534
1005.426, 196.821
1006.678, 168.118
1007.930, 73.425
1009.181, 139.746
1010.432, 70.082
1011.683, 26.561
1012.934, 94.822
1014.185, 51.214
1015.435, 0.627
1016.685, 81.059
1017.935, 25.485
1019.185, 141.985
1020.435, 109.463
1021.684, 13.952
1022.934, 187.455
1024.183, 140.258
1025.432, 62.779
1026.680, 68.309
1027.929, 56.848
1029.177, 81.395
1030.425, 111.951
1031.673, 3.517
1032.921, 120.103
1034.169, 13.303
1035.416, 29.296
1036.663, 81.187
1037.911, 23.193
1039.157, 103.432
1040.404, 63.444
1041.650, 35.085
1042.897, 109.752
1044.143, 0.140
1045.389, 108.540
1046.634, 37.249
1047.880, 34.646
1049.125, 106.076
1050.371, 58.812
1051.615, 147.555
1052.860, 112.313
1054.105, 66.113
1055.349, 68.884
1056.593, 81.744
1057.837, 24.529
1059.081, 56.318
1060.325, 28.879
1061.568, 16.918
1062.812, 15.724
1064.055, 26.779
1065.298, 43.027
1066.540, 67.161
1067.783, 42.694
1069.025, 93.488
1070.267, 14.708
1071.509, 143.094
1072.751, 10.901
1073.993, 33.288
1075.234, 160.515
1076.475, 52.323
1077.716, 101.134
1078.957, 136.949
1080.198, 7.778
1081.438, 147.610
1082.679, 134.447
1083.919, 109.315
1085.159, 223.187
1086.398, 45.073
1087.638, 184.962
1088.877, 137.855
1090.116, 34.751
1091.355, 112.650
1092.594, 62.552
1093.833, 90.458
1095.071, 91.364
1096.309, 30.727
1097.547, 148.181
1098.785, 57.091
1100.023, 2.004
1101.260, 115.917
1102.498, 35.168
1103.735, 108.731
1104.972, 147.632
1106.208, 27.535
1107.445, 112.441
1108.681, 70.349
1109.918, 63.743
1111.154, 126.134
1112.389, 7.989
1113.625, 53.885
1114.860, 37.242
1116.096, 115.389
1117.331, 112.449
1118.566, 2.242
1119.800, 22.967
1121.035, 108.813
1122.269, 83.594
1123.503, 253.488
1124.737, 197.270
1125.971, 70.949
1127.205, 164.873
1128.438, 0.386
1129.671, 50.351
1130.904, 217.087
1132.137, 0.823
1133.370, 151.600
1134.602, 102.333
1135.834, 67.064
1137.066, 102.383
1138.298, 15.889
1139.530, 169.823
1140.762, 146.818
1141.993, 15.527
1143.224, 248.593
1144.455, 25.295
1145.686, 120.996
1146.917, 149.814
1148.147, 14.507
1149.377, 82.333
1150.607, 197.021
1151.837, 67.703
1153.067, 152.380
1154.296, 97.054
1155.526, 73.723
1156.755, 181.447
1157.984, 83.108
1159.213, 42.881
1160.441, 317.784
1161.670, 92.431
1162.898, 234.072
1164.126, 60.551
1165.354, 145.181
1166.581, 161.388
1167.809, 105.006
1169.036, 154.619
1170.263, 149.403
1171.490, 2.997
1172.717, 174.584
1173.943, 143.210
1175.170, 122.778
1176.396, 217.340
1177.622, 47.895
1178.848, 147.442
1180.073, 90.979
1181.299, 63.512
1182.524, 185.811
1183.749, 23.422
1184.974, 85.930
1186.199, 190.297
1187.423, 15.838
1188.648, 111.624
1189.872, 108.404
1191.096, 46.150
1192.320, 206.230
1193.543, 88.830
1194.767, 10.789
1195.990, 93.923
1197.213, 99.846
1198.436, 82.179
1199.659, 114.867
1200.881, 15.180
1202.104, 296.475
1203.326, 62.362
1204.548, 197.637
1205.770, 300.902
1206.991, 125.621
1208.213, 217.908
1209.434, 236.607
1210.655, 26.832
1211.876, 181.136
1213.096, 215.569
1214.317, 69.722
1215.537, 309.899
1216.757, 167.000
1217.977, 241.697
1219.197, 180.845
1220.417, 166.982
1221.636, 224.785
1222.855, 157.041
1224.074, 183.149
1225.293, 282.248
1226.512, 96.725
1227.731, 259.803
1228.949, 198.871
1230.167, 121.604
1231.385, 280.652
1232.603, 162.387
1233.820, 155.417
1235.038, 319.436
1236.255, 133.675
1237.472, 278.675
1238.689, 225.668
1239.906, 181.653
1241.122, 363.630
1242.338, 216.600
1243.555, 129.463
1244.771, 298.417
1245.986, 216.393
1247.202, 277.292
1248.417, 216.221
1249.633, 155.247
1250.848, 245.160
1252.063, 198.065
1253.277, 196.461
1254.492, 291.350
1255.706, 148.230
1256.920, 253.267
1258.134, 254.127
1259.348, 122.522
1260.562, 330.363
1261.775, 204.874
1262.988, 94.627
1264.201, 270.441
1265.414, 138.105
1266.627, 132.190
1267.839, 199.979
1269.052, 79.916
1270.264, 300.688
1271.476, 184.430
1272.688, 84.901
1273.899, 294.622
1275.111, 147.977
1276.322, 179.008
1277.533, 233.697
1278.744, 15.039
1279.955, 307.387
1281.165, 230.027
1282.376, 32.659
1283.586, 240.272
1284.796, 139.409
1286.006, 52.972
1287.215, 162.525
1288.425, 47.036
1289.634, 120.621
1290.843, 195.066
1292.052, 79.501
1293.261, 198.924
1294.469, 76.309
1295.678, 108.696
1296.886, 203.075
1298.094, 120.443
1299.302, 175.793
1300.509, 190.134
1301.717, 96.465
1302.924, 161.786
1304.131, 83.078
1305.338, 31.642
1306.545, 242.560
1307.752, 123.728
1308.958, 21.883
1310.164, 252.022
1311.370, 91.150
1312.576, 181.246
1313.782, 182.330
1314.987, 11.400
1316.193, 239.454
1317.398, 122.197
1318.603, 98.218
1319.807, 201.226
1321.012, 115.220
1322.216, 238.197
1323.421, 231.160
1324.625, 20.901
1325.829, 210.008
1327.032, 130.898
1328.236, 11.775
1329.439, 136.349
1330.642, 45.176
1331.845, 45.989
1333.048, 157.405
1334.251, 43.816
1335.453, 157.929
1336.656, 105.226
1337.858, 60.058
1339.060, 185.623
1340.261, 17.099
1341.463, 3.453
1342.664, 134.171
1343.866, 16.217
1345.067, 139.373
1346.267, 125.914
1347.468, 20.479
1348.669, 108.951
1349.869, 201.492
1351.069, 2.978
1352.269, 146.536
1353.469, 27.043
1354.668, 103.541
1355.868, 129.344
1357.067, 46.830
1358.266, 107.308
1359.465, 106.729
1360.664, 5.210
1361.862, 252.683
1363.061, 100.157
1364.259, 120.628
1365.457, 274.100
1366.655, 59.988
1367.852, 108.470
1369.050, 148.958
1370.247, 19.546
1371.444, 168.949
1372.641, 160.458
1373.838, 88.056
1375.035, 159.414
1376.231, 24.735
1377.427, 123.755
1378.623, 127.148
1379.819, 43.464
1381.015, 177.641
1382.211, 185.803
1383.406, 109.948
1384.601, 228.069
1385.796, 194.175
1386.991, 20.727
1388.185, 295.365
1389.380, 83.435
1390.574, 130.506
1391.768, 331.583
1392.962, 92.657
1394.156, 236.746
1395.350, 154.875
1396.543, 20.866
1397.736, 172.968
1398.929, 137.006
1400.122, 84.126
1401.315, 259.000
1402.507, 66.078
1403.700, 148.432
1404.892, 233.146
1406.084, 49.748
1407.276, 132.776
1408.467, 216.641
1409.659, 6.470
1410.850, 223.464
1412.041, 54.449
1413.232, 103.347
1414.423, 313.187
1415.614, 24.087
1416.804, 226.827
1417.994, 209.583
1419.184, 28.819
1420.374, 157.667
1421.564, 177.443
1422.753, 8.287
1423.943, 272.784
1425.132, 141.565
1426.321, 120.722
1427.510, 301.341
1428.698, 146.528
1429.887, 160.245
1431.075, 337.851
1432.263, 36.145
1433.451, 266.937
1434.639, 300.475
1435.827, 103.027
1437.014, 366.108
1438.201, 168.813
1439.388, 123.296
1440.575, 433.375
1441.762, 148.203
1442.949, 379.656
1444.135, 362.104
1445.321, 321.288
1446.507, 373.224
1447.693, 417.576
1448.879, 309.952
1450.064, 463.742
1451.250, 408.288
1452.435, 340.253
1453.620, 589.175
1454.805, 398.944
1455.989, 524.615
1457.174, 430.298
1458.358, 319.926
1459.542, 538.360
1460.726, 464.846
1461.910, 302.200
1463.093, 585.325
1464.277, 420.189
1465.460, 326.431
1466.643, 491.491
1467.826, 296.120
1469.009, 358.085
1470.191, 457.057
1471.373, 229.038
1472.556, 462.878
1473.738, 382.639
1474.919, 191.349
1476.101, 491.140
1477.283, 186.772
1478.464, 275.865
1479.645, 459.936
1480.826, 208.980
1482.007, 259.972
1483.187, 453.894
1484.368, 150.795
1485.548, 295.886
1486.728, 451.318
1487.908, 58.714
1489.088, 389.266
1490.268, 193.802
1491.447, 152.375
1492.626, 359.960
1493.805, 123.588
1494.984, 98.357
1496.163, 280.249
1497.341, 41.326
1498.520, 199.582
1499.698, 289.991
1500.876, 32.549
1502.054, 239.276
