##NAMES=Forsterite
##RRUFFID=R060535
##IDEAL CHEMISTRY=Mg_2_SiO_4_
##LOCALITY=unknown
##OWNER=RRUFF
##SOURCE=Gemological Institute of America
##DESCRIPTION=Transparent brown gemstone
##STATUS=The identification of this mineral has been confirmed by X-ray diffraction and chemical analysis
##URL=rruff.info/R060535
##MEASURED CHEMISTRY=(Mg_1.81_Fe_0.18_Ni_0.01_)_Î£=2_Si_1.00_O_4_
##PIN_ID=L00998
##ORIENTATION=Laser parallel to c* (0 0 1). Fiducial mark perpendicular to laser is parallel to a [1 0 0]
209.7490, 0.0000000E+00
210.9710, 8.138062
212.1930, 7.022827
213.4150, 93.79272
214.6370, 145.5664
215.8580, 120.0165
217.0790, 157.2457
218.3010, 257.6199
219.5210, 245.8326
220.7420, 258.4539
221.9630, 236.8126
223.1830, 262.7009
224.4040, 258.5699
225.6240, 234.5304
226.8440, 210.9381
228.0640, 202.2537
229.2840, 217.6814
230.5030, 187.2356
231.7230, 185.8569
232.9420, 167.9276
234.1610, 156.3287
235.3800, 127.3364
236.5990, 125.1206
237.8170, 101.2328
239.0360, 96.75134
240.2540, 85.91956
241.4720, 31.87231
242.6900, 31.27246
243.9080, 44.02075
245.1250, 13.47278
246.3430, 23.75012
247.5600, 5.779053
248.7770, 18.14771
249.9940, 1.060181
251.2110, 0.9505620
252.4280, 19.80859
253.6450, 10.51282
254.8610, 11.02856
256.0770, 15.28589
257.2930, 46.62939
258.5090, 90.52405
259.7250, 66.35547
260.9400, 23.11938
262.1560, 38.82068
263.3710, 12.46399
264.5860, 33.05334
265.8010, 34.59277
267.0160, 30.08545
268.2310, 2.534668
269.4450, 39.94849
270.6600, 2.344971
271.8740, 17.71924
273.0880, 51.06921
274.3020, 42.38855
275.5150, 48.67383
276.7290, 91.92664
277.9420, 19.14856
279.1550, 65.34106
280.3680, 30.50525
281.5810, 39.75610
282.7940, 97.87366
284.0070, 58.00098
285.2190, 110.4502
286.4310, 130.6158
287.6430, 167.1310
288.8550, 177.3914
290.0670, 198.9445
291.2790, 293.4716
292.4900, 406.0720
293.7020, 450.4819
294.9130, 526.0388
296.1240, 645.8379
297.3350, 808.1750
298.5450, 863.5894
299.7560, 980.6588
300.9660, 992.7200
302.1760, 988.5877
303.3860, 970.6854
304.5960, 849.9904
305.8060, 792.3932
307.0150, 688.4930
308.2250, 680.0657
309.4340, 678.5676
310.6430, 636.0729
311.8520, 703.5805
313.0610, 769.0885
314.2700, 747.5975
315.4780, 753.1109
316.6860, 735.6279
317.8940, 727.1481
319.1020, 709.6711
320.3100, 705.1979
321.5180, 711.7280
322.7250, 739.2608
323.9330, 742.7960
325.1400, 775.3333
326.3470, 736.8717
327.5540, 682.4104
328.7600, 592.4777
329.9670, 557.6152
331.1730, 524.4601
332.3800, 531.5309
333.5860, 455.1888
334.7920, 440.1169
335.9970, 423.8600
337.2030, 410.4873
338.4080, 368.9767
339.6140, 278.4633
340.8190, 224.9470
342.0240, 231.4279
343.2290, 180.9056
344.4330, 170.3801
345.6380, 129.8511
346.8420, 136.3186
348.0460, 109.4475
349.2500, 78.24280
350.4540, 89.69922
351.6580, 55.15186
352.8610, 77.60071
354.0650, 78.04498
355.2680, 91.50940
356.4710, 83.03027
357.6740, 82.56433
358.8760, 64.09241
360.0790, 35.60425
361.2810, 15.09131
362.4840, 19.29395
363.6860, 46.97632
364.8880, 44.37067
366.0900, 53.72534
367.2910, 86.03668
368.4930, 24.31140
369.6940, 67.55273
370.8950, 32.76111
372.0960, 55.93854
373.2970, 63.08154
374.4980, 22.14606
375.6980, 54.15961
376.8980, 47.10852
378.0990, 8.986267
379.2990, 3.871338
380.4980, 7.748413
381.6980, 28.37701
382.8980, 6.487305
384.0970, 5.654236
385.2960, 7.802002
386.4950, 8.956116
387.6940, 21.27454
388.8930, 0.5502320
390.0920, 18.80133
391.2900, 13.05157
392.4880, 44.50366
393.6860, 28.31525
394.8840, 21.04498
396.0820, 11.24701
397.2800, 9.368835
398.4770, 3.997986
399.6750, 8.689575
400.8720, 15.10681
402.0690, 17.94141
403.2660, 25.79932
404.4620, 54.65613
405.6590, 69.21460
406.8550, 91.17310
408.0510, 123.7992
409.2480, 159.5533
410.4430, 198.3065
411.6390, 252.8074
412.8350, 281.4868
414.0300, 365.2411
415.2250, 420.6813
416.4200, 465.3105
417.6150, 545.2783
418.8100, 585.8474
420.0050, 688.6178
421.1990, 772.4092
422.3940, 854.0308
423.5880, 993.8103
424.7820, 1173.483
425.9750, 1284.188
427.1690, 1390.949
428.3630, 1426.706
429.5560, 1317.455
430.7490, 1172.194
431.9420, 930.9260
433.1350, 787.6511
434.3280, 586.3685
435.5200, 453.0782
436.7130, 318.7800
437.9050, 288.4742
439.0970, 181.1565
440.2890, 148.8121
441.4810, 115.4519
442.6720, 113.0751
443.8640, 76.67456
445.0550, 26.24609
446.2460, 17.77295
447.4370, 29.27942
448.6280, 9.773315
449.8180, 34.25806
451.0090, 37.73584
452.1990, 37.20898
453.3890, 9.677734
454.5790, 62.14111
455.7690, 43.60034
456.9590, 15.05530
458.1480, 45.50500
459.3380, 21.95007
460.5270, 86.39014
461.7160, 62.82605
462.9050, 44.25745
464.0940, 77.68433
465.2820, 83.10669
466.4700, 79.70288
467.6590, 67.93848
468.8470, 82.34766
470.0350, 89.75220
471.2220, 102.1523
472.4100, 104.9714
473.5970, 74.93127
474.7850, 105.3110
475.9720, 106.6840
477.1590, 100.0515
478.3460, 126.4126
479.5320, 92.76782
480.7190, 115.1180
481.9050, 116.4635
483.0910, 106.8042
484.2770, 132.1403
485.4630, 190.4714
486.6490, 135.7981
487.8340, 175.1196
489.0200, 119.4366
490.2050, 193.7489
491.3900, 156.0562
492.5750, 179.3588
493.7600, 209.6565
494.9440, 155.8927
496.1290, 196.1807
497.3130, 135.4635
498.4970, 172.7375
499.6810, 152.0020
500.8650, 178.2568
502.0480, 154.4807
503.2320, 146.5748
504.4150, 172.5111
505.5980, 130.4734
506.7810, 169.6653
507.9640, 148.8276
509.1460, 171.9458
510.3290, 163.1261
511.5110, 165.0784
512.6930, 170.2258
513.8750, 163.2960
515.0570, 150.4418
516.2390, 209.3760
517.4210, 160.3213
518.6020, 220.6348
519.7830, 181.0155
520.9640, 204.9635
522.1450, 241.8948
523.3260, 320.8746
524.5060, 289.4131
525.6870, 335.4307
526.8670, 332.0217
528.0470, 421.8107
529.2270, 417.9078
530.4070, 481.7449
531.5870, 490.1102
532.7660, 587.4841
533.9450, 664.9313
535.1240, 777.4449
536.3030, 856.9258
537.4820, 947.9740
538.6610, 1064.652
539.8390, 1046.806
541.0180, 1075.144
542.1960, 1049.753
543.3740, 883.0551
544.5520, 750.8542
545.7290, 685.2539
546.9070, 541.1245
548.0840, 506.8986
549.2620, 453.8813
550.4390, 400.6138
551.6160, 358.5350
552.7920, 321.4470
553.9690, 291.3501
555.1450, 310.2600
556.3220, 307.3191
557.4980, 321.6860
558.6740, 313.5127
559.8490, 343.3729
561.0250, 301.8079
562.2000, 323.8605
563.3760, 356.6924
564.5510, 347.5154
565.7260, 408.3289
566.9010, 446.1335
568.0750, 483.9288
569.2500, 524.8977
570.4240, 548.4912
571.5980, 601.2583
572.7720, 663.0161
573.9460, 722.7648
575.1200, 753.5042
576.2930, 770.2339
577.4670, 779.9547
578.6400, 798.6663
579.8130, 782.3688
580.9860, 780.0623
582.1590, 715.7466
583.3310, 670.4219
584.5040, 642.0886
585.6760, 619.7466
586.8480, 577.2131
588.0200, 594.5916
589.1920, 662.0688
590.3630, 644.3525
591.5350, 742.8257
592.7060, 808.3057
593.8770, 849.7756
595.0480, 995.0271
596.2190, 1066.586
597.3900, 1194.059
598.5600, 1282.355
599.7310, 1446.821
600.9010, 1519.159
602.0710, 1576.703
603.2410, 1684.220
604.4100, 1674.650
605.5800, 1672.171
606.7490, 1622.685
607.9190, 1430.190
609.0880, 1342.688
610.2570, 1243.178
611.4250, 1073.661
612.5940, 919.1360
613.7620, 826.6035
614.9310, 689.0638
616.0990, 612.5165
617.2670, 545.2358
618.4340, 515.3998
619.6020, 440.8304
620.7690, 408.2539
621.9370, 351.6702
623.1040, 304.0791
624.2710, 297.4810
625.4380, 279.8757
626.6040, 255.1124
627.7710, 258.6442
628.9370, 225.0178
630.1030, 172.3848
631.2690, 164.7446
632.4350, 149.0977
633.6010, 115.4440
634.7660, 101.7836
635.9320, 73.11658
637.0970, 81.44299
638.2620, 87.76270
639.4270, 80.07593
640.5920, 82.18567
641.7560, 50.68298
642.9210, 66.97705
644.0850, 76.26562
645.2490, 55.54907
646.4130, 27.82776
647.5770, 29.09998
648.7400, 81.36609
649.9040, 71.62671
651.0670, 44.88184
652.2300, 47.13208
653.3930, 24.37708
654.5560, 26.61658
655.7190, 0.1495360
656.8810, 27.07104
658.0440, 10.28711
659.2060, 9.504517
660.3680, 39.31360
661.5300, 7.845825
662.6910, 25.00098
663.8530, 18.87122
665.0140, 26.75269
666.1750, 29.65771
667.3360, 35.38379
668.4970, 60.53662
669.6580, 50.52905
670.8190, 53.54993
671.9790, 57.60608
673.1390, 21.69434
674.2990, 38.79736
675.4590, 21.91504
676.6190, 40.04309
677.7790, 9.192505
678.9380, 17.35364
680.0970, 12.53064
681.2570, 9.718384
682.4160, 35.91736
683.5740, 28.14136
684.7330, 21.38611
685.8920, 11.64795
687.0500, 9.927979
688.2080, 3.344727
689.3660, 10.49658
690.5240, 25.20349
691.6820, 18.61597
692.8390, 24.46545
693.9960, 4.289429
695.1540, 2.019897
696.3110, 8.334106
697.4680, 16.35278
698.6240, 9.010986
699.7810, 11.32385
700.9370, 4.666870
702.0940, 24.98572
703.2500, 22.63684
704.4060, 33.28662
705.5610, 25.93530
706.7170, 55.58289
707.8720, 31.22937
709.0280, 29.87512
710.1830, 99.51990
711.3380, 61.16406
712.4920, 65.80762
713.6470, 103.4509
714.8020, 92.09351
715.9560, 122.7361
717.1100, 131.3783
718.2640, 146.0206
719.4180, 199.6628
720.5720, 167.3052
721.7250, 212.9479
722.8780, 193.5908
724.0320, 250.2341
725.1850, 235.8781
726.3380, 314.5234
727.4900, 292.1709
728.6430, 380.8196
729.7950, 384.4708
730.9470, 420.1238
732.1000, 416.7783
733.2510, 442.4347
734.4030, 533.0939
735.5550, 503.7546
736.7060, 581.4172
737.8570, 605.0828
739.0090, 678.7505
740.1600, 652.4207
741.3100, 750.0930
742.4610, 836.7673
743.6110, 855.4442
744.7620, 961.1233
745.9120, 1032.805
747.0620, 1070.488
748.2120, 1130.175
749.3610, 1188.864
750.5110, 1219.555
751.6600, 1190.250
752.8090, 1203.947
753.9580, 1217.647
755.1070, 1173.350
756.2560, 1036.056
757.4050, 1056.766
758.5530, 966.4786
759.7010, 870.1951
760.8490, 861.9148
761.9970, 715.6383
763.1450, 631.3652
764.2920, 622.0962
765.4400, 557.8308
766.5870, 547.5696
767.7340, 549.3124
768.8810, 484.0592
770.0280, 477.8104
771.1740, 477.5658
772.3210, 537.3257
773.4670, 518.0901
774.6130, 573.8591
775.7590, 579.6339
776.9050, 534.4133
778.0510, 563.1978
779.1960, 639.9922
780.3420, 541.7966
781.4870, 597.6062
782.6320, 592.4211
783.7770, 534.2424
784.9210, 540.9907
786.0660, 588.7651
787.2100, 554.6267
788.3540, 588.5066
789.4980, 601.4021
790.6420, 666.3096
791.7860, 702.9060
792.9300, 709.0188
794.0730, 808.1287
795.2160, 861.0271
796.3590, 918.7291
797.5020, 1004.335
798.6450, 1091.425
799.7880, 1222.781
800.9300, 1346.518
802.0720, 1497.681
803.2150, 1722.380
804.3560, 1857.936
805.4980, 2234.160
806.6400, 2659.841
807.7810, 2974.181
808.9230, 3577.370
810.0640, 4160.337
811.2050, 5093.589
812.3460, 6111.811
813.4860, 7696.126
814.6270, 9423.339
815.7670, 11903.53
816.9070, 14305.24
818.0470, 16915.29
819.1870, 19834.56
820.3270, 22244.22
821.4670, 23523.41
822.6060, 23538.05
823.7450, 22460.36
824.8840, 20434.80
826.0230, 17714.05
827.1620, 15059.55
828.3010, 12720.86
829.4390, 10719.18
830.5770, 9140.522
831.7150, 7849.855
832.8530, 7026.048
833.9910, 6531.936
835.1290, 6126.368
836.2660, 5773.767
837.4030, 5405.594
838.5410, 5409.807
839.6780, 5199.246
840.8140, 5230.696
841.9510, 5508.156
843.0870, 5865.629
844.2240, 6509.009
845.3600, 7305.616
846.4960, 8357.129
847.6320, 9653.652
848.7680, 11145.19
849.9030, 12806.73
851.0380, 14451.29
852.1740, 16071.87
853.3090, 17179.45
854.4440, 17304.05
855.5780, 17104.66
856.7130, 15919.28
857.8470, 14182.92
858.9820, 12657.57
860.1160, 10858.22
861.2500, 9334.901
862.3830, 8019.590
863.5170, 6850.292
864.6500, 5895.005
865.7840, 4983.730
866.9170, 4178.468
868.0500, 3523.729
869.1830, 3117.980
870.3150, 2521.753
871.4480, 2157.539
872.5800, 1962.338
873.7120, 1633.150
874.8440, 1470.974
875.9760, 1273.809
877.1080, 1181.661
878.2390, 1070.524
879.3710, 969.3995
880.5020, 877.2874
881.6330, 788.1873
882.7640, 690.1003
883.8940, 628.0256
885.0250, 588.9631
886.1550, 473.9150
887.2850, 454.8787
888.4160, 388.8546
889.5450, 350.8429
890.6750, 280.8430
891.8050, 268.8555
892.9340, 210.8800
894.0630, 210.9167
895.1930, 219.9656
896.3220, 121.0265
897.4500, 130.0996
898.5790, 159.1849
899.7070, 59.28235
900.8360, 134.3918
901.9640, 104.5134
903.0920, 83.64697
904.2200, 65.79272
905.3470, 131.9504
906.4750, 89.12024
907.6020, 91.30200
908.7290, 59.49573
909.8560, 124.7014
910.9830, 92.10474
912.1100, 133.3344
913.2360, 174.5757
914.3630, 191.8781
915.4890, 182.2048
916.6150, 248.4816
917.7410, 229.7700
918.8670, 250.2650
919.9920, 289.2881
921.1180, 203.3716
922.2430, 128.5427
923.3680, 155.6842
924.4930, 89.29077
925.6180, 80.98596
926.7420, 52.91772
927.8670, 58.48596
928.9910, 54.83435
930.1150, 71.72009
931.2390, 88.44922
932.3630, 46.19165
933.4860, 127.6453
934.6100, 163.8094
935.7330, 171.6394
936.8560, 159.6970
937.9790, 196.2869
939.1020, 258.6160
940.2250, 258.1831
941.3470, 301.5393
942.4700, 380.1559
943.5920, 436.3038
944.7140, 443.9716
945.8360, 607.6659
946.9570, 661.2140
948.0790, 798.9473
949.2000, 815.6970
950.3220, 1023.468
951.4430, 1153.256
952.5640, 1375.056
953.6840, 1674.869
954.8050, 1908.695
955.9250, 2151.621
957.0460, 2349.484
958.1660, 2622.398
959.2860, 2786.336
960.4050, 2842.238
961.5250, 2920.025
962.6440, 2920.958
963.7640, 2813.888
964.8830, 2710.663
966.0020, 2334.606
967.1210, 2137.767
968.2390, 1968.727
969.3580, 1670.696
970.4760, 1506.677
971.5940, 1315.669
972.7120, 1131.217
973.8300, 968.5066
974.9480, 823.5186
976.0650, 661.5366
977.1830, 552.5610
978.3000, 561.5916
979.4170, 499.5466
980.5340, 412.5896
981.6500, 404.6384
982.7670, 303.6929
983.8830, 272.7533
985.0000, 201.8193
986.1160, 179.9634
987.2320, 191.6476
988.3470, 190.7301
989.4630, 150.8180
990.5780, 95.91113
991.6940, 189.0094
992.8090, 156.1128
993.9240, 164.7117
995.0380, 114.8268
996.1530, 157.9447
997.2680, 133.0674
998.3820, 165.1946
999.4960, 145.3263
1000.610, 152.4623
1001.724, 178.6024
1002.837, 104.7469
1003.951, 168.8958
1005.064, 84.04858
1006.177, 100.2853
1007.291, 41.63342
1008.403, 99.79773
1009.516, 50.96570
1010.629, 52.78674
1011.741, 44.96179
1012.853, 67.14026
1013.965, 30.32190
1015.077, 24.50708
1016.189, 39.93042
1017.300, 26.12170
1018.412, 43.31592
1019.523, 55.90564
1020.634, 15.10559
1021.745, 54.30811
1022.856, 52.51331
1023.966, 67.72095
1025.077, 69.93091
1026.187, 20.14343
1027.297, 60.35803
1028.407, 56.57483
1029.517, 99.79370
1030.627, 31.01453
1031.736, 30.23730
1032.845, 13.46191
1033.955, 16.68811
1035.064, 12.91602
1036.172, 40.14539
1037.281, 38.37622
1038.390, 66.60852
1039.498, 53.25391
1040.606, 36.07654
1041.714, 19.31250
1042.822, 24.54932
1043.930, 6.212891
1045.037, 35.02319
1046.145, 13.26025
1047.252, 22.50208
1048.359, 22.27405
1049.466, 16.94434
1050.573, 50.16333
1051.679, 4.617554
1052.786, 14.40076
1053.892, 47.19104
1054.998, 32.00562
1056.104, 46.83704
1057.210, 37.69324
1058.315, 22.56982
1059.421, 25.74512
1060.526, 19.36304
1061.631, 15.27844
1062.736, 23.20374
1063.841, 20.14319
1064.946, 3.095703
1066.050, 3.947632
1067.154, 41.01050
1068.258, 66.99353
1069.362, 54.01514
1070.466, 14.06897
1071.570, 41.13403
1072.674, 75.77478
1073.777, 24.31787
1074.880, 22.57190
1075.983, 19.52954
1077.086, 28.35693
1078.189, 10.25098
1079.291, 23.85730
1080.394, 31.01599
1081.496, 22.88660
1082.598, 64.75488
1083.700, 9.379639
1084.802, 42.47363
1085.903, 15.32800
1087.005, 55.18152
1088.106, 8.032104
1089.207, 28.87830
1090.308, 10.72131
1091.409, 10.56030
1092.509, 21.39502
1093.610, 4.773804
1094.710, 14.04541
1095.810, 47.86084
1096.910, 3.325684
1098.010, 20.47620
1099.110, 8.725708
1100.209, 20.05750
1101.309, 25.83728
1102.408, 46.61316
1103.507, 18.38501
1104.606, 3.153931
1105.704, 8.913086
1106.803, 68.67407
1107.901, 32.43066
1108.999, 42.18311
1110.097, 82.93127
1111.195, 1.325073
1112.293, 91.40552
1113.391, 34.13147
1114.488, 41.85315
1115.585, 48.57007
1116.682, 48.28235
1117.779, 19.98999
1118.876, 5.692017
1119.973, 88.38330
1121.069, 53.06982
1122.165, 51.75146
1123.261, 87.42822
1124.357, 62.10010
1125.453, 9.766846
1126.549, 0.4240720
1127.644, 69.06689
1128.739, 114.7046
1129.835, 59.33716
1130.930, 36.96460
1132.024, 110.5868
1133.119, 84.20386
1134.214, 40.81555
1135.308, 44.42188
1136.402, 34.02295
1137.496, 26.61853
1138.590, 22.20801
1139.684, 79.78992
1140.777, 71.36633
1141.871, 9.937378
1142.964, 94.49670
1144.057, 41.05042
1145.150, 60.59888
1146.243, 53.14392
1147.335, 22.68738
1148.428, 45.22290
1149.520, 40.75293
1150.612, 18.27722
1151.704, 50.79211
1152.796, 76.30127
1153.887, 44.80444
1154.979, 94.30188
1156.070, 79.79346
1157.161, 87.27917
1158.252, 87.75879
1159.343, 63.23267
1160.433, 94.70056
1161.524, 111.1625
1162.614, 125.6184
1163.704, 84.06824
1164.794, 134.5120
1165.884, 74.94971
1166.974, 73.38147
1168.063, 83.80713
1169.153, 125.2268
1170.242, 100.6403
1171.331, 145.0514
1172.420, 106.4564
1173.508, 92.85522
1174.597, 87.24792
1175.685, 82.44873
1176.774, 73.82910
1177.862, 82.20312
1178.950, 77.78430
1180.037, 118.8229
1181.125, 78.17896
1182.212, 117.5288
1183.300, 114.6779
1184.387, 60.30408
1185.474, 98.87585
1186.560, 120.3658
1187.647, 94.89075
1188.733, 59.95618
1189.820, 79.93811
1190.906, 92.68884
1191.992, 105.8088
1193.078, 87.15393
1194.163, 66.97131
1195.249, 87.95068
1196.334, 118.9235
1197.419, 73.19641
1198.504, 101.7781
1199.589, 80.70044
1200.674, 119.4105
1201.758, 125.6018
1202.843, 62.06909
1203.927, 62.31445
1205.011, 95.78833
1206.095, 133.5076
1207.179, 144.0803
1208.262, 72.53149
1209.345, 115.7560
1210.429, 138.1729
1211.512, 111.3890
1212.595, 154.6011
1213.677, 109.8090
1214.760, 125.0093
1215.842, 158.0874
1216.925, 195.7189
1218.007, 141.9563
1219.089, 114.0623
1220.171, 128.2456
1221.252, 109.3893
1222.334, 107.5170
1223.415, 121.6882
1224.496, 163.9785
1225.577, 104.1305
1226.658, 179.6967
1227.738, 156.0146
1228.819, 121.1888
1229.899, 121.1270
1230.979, 113.3540
1232.060, 109.5076
1233.139, 113.7917
1234.219, 121.0193
1235.299, 128.5978
1236.378, 142.5753
1237.457, 164.6976
1238.536, 169.8162
1239.615, 191.9313
1240.694, 156.0426
1241.772, 170.2319
1242.851, 126.3362
1243.929, 147.4369
1245.007, 130.5342
1246.085, 160.6281
1247.163, 94.71814
1248.240, 156.7325
1249.318, 131.2090
1250.395, 115.2891
1251.472, 191.3657
1252.549, 151.4390
1253.626, 144.5092
1254.703, 137.5759
1255.779, 120.0499
1256.855, 137.2073
1257.931, 99.27991
1259.007, 115.3340
1260.083, 96.38513
1261.159, 153.4331
1262.234, 85.47815
1263.310, 137.5201
1264.385, 123.5593
1265.460, 133.5952
1266.535, 127.6285
1267.610, 114.5935
1268.684, 114.4336
1269.758, 105.8473
1270.833, 109.6272
1271.907, 98.85010
1272.981, 116.8666
1274.054, 125.8906
1275.128, 124.4479
1276.201, 123.3767
1277.275, 117.5715
1278.348, 115.2030
1279.421, 103.2041
1280.493, 111.8284
1281.566, 116.8246
1282.638, 123.8184
1283.711, 95.80994
1284.783, 72.79907
1285.855, 47.78589
1286.927, 85.77051
1287.998, 84.75281
1289.070, 46.73389
1290.141, 101.7126
1291.212, 80.68958
1292.283, 33.66431
1293.354, 112.6378
1294.425, 119.6085
1295.495, 71.57727
1296.566, 108.5441
1297.636, 61.56018
1298.706, 82.52368
1299.776, 81.32520
1300.845, 69.28601
1301.915, 44.24548
1302.984, 27.20325
1304.054, 100.1593
1305.123, 53.11511
1306.191, 76.06934
1307.260, 109.0806
1308.329, 77.03723
1309.397, 94.99756
1310.465, 66.95630
1311.534, 85.91370
1312.602, 60.87073
1313.669, 97.83130
1314.737, 75.80347
1315.804, 37.78101
1316.872, 50.76953
1317.939, 64.76758
1319.006, 54.77100
1320.073, 78.78064
1321.139, 82.79517
1322.206, 64.81348
1323.272, 119.8379
1324.338, 41.86780
1325.404, 44.88708
1326.470, 75.89160
1327.536, 70.90698
1328.601, 54.94043
1329.667, 63.93958
1330.732, 60.03406
1331.797, 34.09082
1332.862, 19.14685
1333.926, 37.78992
1334.991, 11.73804
1336.055, 33.68591
1337.120, 44.35559
1338.184, 5.395752
1339.248, 67.44202
1340.311, 27.47607
1341.375, 34.50952
1342.438, 51.54211
1343.502, 12.42114
1344.565, 5.389038
1345.628, 2.640259
1346.691, 39.66870
1347.753, 49.69714
1348.816, 19.72510
1349.878, 33.75269
1350.940, 17.78027
1352.002, 44.80737
1353.064, 58.83801
1354.126, 5.131592
1355.187, 22.89636
1356.248, 7.927734
1357.310, 49.95862
1358.371, 5.2490002E-03
1359.431, 91.02600
1360.492, 52.05042
1361.553, 2.925659
1362.613, 37.09619
1363.673, 32.87952
1364.733, 73.13672
1365.793, 67.15247
1366.853, 57.16772
1367.912, 77.18274
1368.972, 15.19714
1370.031, 48.21558
1371.090, 40.23328
1372.149, 58.24402
1373.208, 65.25415
1374.267, 40.26379
1375.325, 48.27234
1376.383, 75.28076
1377.441, 66.28479
