##NAMES=Forsterite
##RRUFFID=R040057
##IDEAL CHEMISTRY=Mg_2_SiO_4_
##LOCALITY=Trudy's mine, San Carlos, Gila County, Arizona, USA
##OWNER=RRUFF
##SOURCE=Bob Downs
##DESCRIPTION=Dark green crystal fragments from xenoliths in a basalt flow
##STATUS=The identification of this mineral has been confirmed by X-ray diffraction and chemical analysis
##URL=rruff.info/R040057
##MEASURED CHEMISTRY=(Mg_1.67_Fe_0.32_Ni_0.01_)_Î£=2_Si_1.00_O_4_; trace amounts of Mn and Ca
##PIN_ID=L00083
##ORIENTATION=Laser parallel to c* (0 0 1). Fiducial mark perpendicular to laser is parallel to b [0 1 0]
85.009, 0.000
86.404, 64.989
87.798, 1.597
89.193, 83.982
90.587, 111.897
91.981, 70.566
93.375, 95.597
94.768, 75.714
96.161, 70.499
97.554, 94.459
98.947, 58.833
100.340, 73.748
101.732, 61.128
103.124, 51.913
104.516, 108.053
105.908, 127.508
107.300, 140.249
108.691, 66.261
110.082, 64.524
111.473, 4.006
112.864, 70.682
114.254, 153.533
115.644, 235.542
117.034, 235.694
118.424, 177.977
119.813, 134.379
121.203, 81.892
122.592, 117.510
123.981, 98.229
125.369, 77.043
126.758, 89.943
128.146, 58.960
129.534, 110.122
130.922, 107.375
132.309, 113.810
133.696, 94.298
135.083, 148.811
136.470, 142.346
137.857, 210.909
139.243, 236.508
140.630, 185.144
142.016, 202.818
143.401, 231.527
144.787, 250.269
146.172, 269.041
147.557, 300.843
148.942, 250.672
150.327, 276.527
151.711, 247.405
153.096, 264.304
154.480, 289.223
155.863, 284.166
157.247, 221.135
158.630, 258.185
160.013, 237.276
161.396, 207.402
162.779, 238.574
164.161, 227.755
165.544, 238.939
166.926, 212.125
168.308, 189.308
169.689, 175.341
171.070, 152.951
172.452, 178.941
173.833, 154.629
175.213, 189.722
176.594, 168.424
177.974, 165.124
179.354, 171.174
180.734, 142.938
182.114, 103.931
183.493, 143.929
184.872, 106.933
186.251, 93.949
187.630, 98.001
189.008, 88.139
190.387, 114.369
191.765, 100.690
193.143, 129.065
194.520, 50.471
195.898, 137.910
197.275, 131.360
198.652, 105.818
200.029, 174.279
201.405, 202.741
202.782, 207.207
204.158, 275.676
205.534, 367.146
206.909, 347.615
208.285, 455.082
209.660, 532.548
211.035, 525.010
212.410, 605.476
213.784, 626.940
215.159, 612.396
216.533, 622.848
217.907, 540.296
219.281, 502.738
220.654, 433.176
222.027, 429.609
223.400, 412.037
224.773, 391.537
226.146, 359.304
227.518, 363.767
228.891, 304.593
230.263, 287.035
231.634, 331.596
233.006, 341.505
234.377, 307.488
235.748, 303.169
237.119, 285.953
238.490, 285.018
239.860, 238.749
241.231, 231.157
242.601, 189.400
243.970, 172.694
245.340, 128.983
246.709, 56.266
248.079, 111.543
249.448, 17.813
250.816, 2.573
252.185, 26.245
253.553, 20.171
254.921, 48.652
256.289, 13.467
257.657, 20.462
259.024, 34.567
260.391, 3.563
261.758, 14.526
263.125, 0.462
264.492, 0.629
265.858, 24.257
267.224, 15.125
268.590, 53.975
269.956, 4.184
271.321, 33.358
272.687, 2.453
274.052, 19.251
275.416, 36.960
276.781, 81.182
278.146, 92.414
279.510, 126.654
280.874, 157.902
282.237, 199.158
283.601, 209.421
284.964, 285.818
286.327, 425.527
287.690, 582.406
289.053, 680.391
290.416, 913.808
291.778, 1127.517
293.140, 1328.534
294.502, 1629.165
295.863, 1987.040
297.225, 2140.217
298.586, 2262.761
299.947, 2321.791
301.308, 2180.827
302.668, 2040.926
304.029, 1867.335
305.389, 1833.963
306.749, 1686.823
308.108, 1742.004
309.468, 1705.437
310.827, 1846.484
312.186, 1862.880
313.545, 1978.362
314.903, 1874.943
316.262, 1876.396
317.620, 1846.130
318.978, 1778.674
320.336, 1693.425
321.693, 1612.917
323.051, 1526.533
324.408, 1406.795
325.765, 1322.426
327.121, 1222.731
328.478, 1143.016
329.834, 1069.589
331.190, 1002.055
332.546, 894.395
333.902, 831.622
335.257, 742.038
336.612, 677.979
337.967, 566.364
339.322, 542.719
340.677, 502.957
342.031, 404.121
343.385, 338.274
344.739, 296.521
346.093, 265.778
347.446, 191.173
348.799, 189.373
350.153, 173.569
351.505, 128.756
352.858, 148.957
354.210, 132.177
355.563, 96.426
356.915, 75.661
358.267, 57.904
359.618, 71.145
360.969, 37.391
362.321, 68.651
363.672, 26.915
365.022, 12.203
366.373, 46.496
367.723, 73.789
369.073, 4.073
370.423, 43.363
371.773, 23.649
373.122, 31.068
374.471, 31.200
375.821, 55.463
377.169, 92.720
378.518, 2.967
379.866, 9.799
381.215, 27.420
382.563, 36.627
383.910, 28.825
385.258, 19.011
386.605, 28.192
387.952, 9.639
389.299, 27.512
390.646, 44.650
391.992, 18.773
393.339, 83.871
394.685, 66.955
396.031, 83.025
397.376, 122.075
398.722, 189.112
400.067, 252.135
401.412, 300.138
402.757, 410.127
404.101, 500.104
405.446, 623.069
406.790, 757.020
408.134, 968.960
409.478, 1150.887
410.821, 1262.802
412.165, 1262.703
413.508, 1376.595
414.851, 1473.476
416.193, 1632.900
417.536, 1788.761
418.878, 2030.361
420.220, 2363.199
421.562, 2684.030
422.904, 3016.800
424.245, 3162.318
425.586, 3166.097
426.927, 2999.870
428.268, 2539.033
429.609, 2037.476
430.949, 1662.148
432.289, 1282.872
433.629, 982.581
434.969, 699.245
436.309, 493.481
437.648, 381.150
438.987, 276.803
440.326, 252.443
441.665, 174.068
443.003, 142.678
444.342, 108.273
445.680, 73.854
447.018, 26.418
448.355, 17.964
449.693, 20.511
451.030, 27.122
452.367, 15.583
453.704, 36.177
455.041, 29.818
456.377, 33.505
457.713, 22.239
459.049, 12.013
460.385, 16.176
461.721, 3.658
463.056, 14.477
464.391, 9.412
465.726, 41.663
467.061, 23.720
468.395, 12.755
469.730, 76.765
471.064, 16.757
472.398, 84.725
473.731, 63.676
475.065, 46.609
476.398, 69.521
477.731, 31.416
479.064, 50.289
480.397, 30.143
481.729, 56.998
483.062, 51.811
484.394, 87.605
485.725, 38.547
487.057, 97.338
488.389, 56.075
489.720, 76.067
491.051, 55.765
492.382, 88.883
493.712, 113.758
495.043, 66.661
496.373, 21.549
497.703, 71.418
499.032, 78.956
500.362, 105.791
501.691, 120.391
503.020, 132.568
504.349, 108.688
505.678, 107.630
507.007, 79.286
508.335, 133.662
509.663, 137.231
510.991, 190.446
512.319, 171.499
513.646, 230.204
514.973, 151.547
516.300, 223.351
517.627, 197.369
518.954, 257.029
520.280, 266.601
521.607, 235.274
522.933, 319.469
524.259, 381.540
525.584, 420.938
526.910, 496.319
528.235, 552.678
529.560, 663.770
530.885, 760.738
532.209, 943.667
533.534, 1148.262
534.858, 1385.610
536.182, 1600.375
537.506, 1814.543
538.829, 1872.163
540.152, 1760.992
541.476, 1734.881
542.799, 1366.979
544.121, 1181.727
545.444, 925.724
546.766, 762.591
548.088, 727.069
549.410, 595.648
550.732, 538.272
552.053, 447.758
553.375, 440.464
554.696, 420.101
556.017, 425.761
557.337, 413.400
558.658, 443.016
559.978, 439.609
561.298, 525.181
562.618, 507.729
563.938, 579.257
565.257, 614.761
566.576, 711.244
567.895, 794.705
569.214, 970.143
570.533, 1090.559
571.851, 1171.954
573.170, 1316.327
574.488, 1438.677
575.805, 1470.008
577.123, 1516.317
578.440, 1529.606
579.758, 1499.873
581.075, 1326.123
582.391, 1328.351
583.708, 1306.559
585.024, 1334.746
586.341, 1328.911
587.657, 1387.058
588.972, 1630.185
590.288, 1698.300
591.603, 1810.393
592.918, 2167.465
594.233, 2456.517
595.548, 2690.549
596.863, 2955.561
598.177, 3257.551
599.491, 3468.521
600.805, 3517.470
602.119, 3557.398
603.432, 3513.306
604.746, 3369.065
606.059, 3071.497
607.372, 2739.742
608.685, 2508.868
609.997, 2167.545
611.309, 1944.913
612.621, 1630.956
613.933, 1519.368
615.245, 1234.518
616.557, 1102.346
617.868, 993.789
619.179, 902.728
620.490, 744.643
621.801, 727.475
623.111, 618.978
624.421, 614.244
625.731, 461.258
627.041, 445.932
628.351, 330.335
629.660, 328.105
630.970, 348.507
632.279, 285.802
633.588, 201.978
634.896, 239.264
636.205, 160.249
637.513, 139.402
638.821, 108.331
640.129, 120.497
641.437, 123.612
642.744, 70.874
644.051, 100.840
645.358, 127.110
646.665, 46.192
647.972, 110.340
649.278, 14.615
650.584, 52.525
651.890, 43.754
653.196, 2.768
654.502, 40.224
655.807, 7.211
657.113, 1.204
658.418, 4.279
659.722, 37.611
661.027, 21.528
662.331, 3.572
663.636, 31.653
664.940, 59.905
666.244, 16.003
667.547, 27.126
668.851, 57.273
670.154, 84.472
671.457, 47.738
672.760, 40.071
674.062, 44.427
675.365, 7.827
676.667, 39.252
677.969, 74.718
679.271, 35.242
680.572, 115.804
681.874, 43.446
683.175, 26.127
684.476, 15.160
685.777, 59.564
687.077, 7.335
688.378, 25.125
689.678, 10.944
690.978, 17.771
692.278, 8.078
693.577, 7.510
694.877, 15.631
696.176, 2.744
697.475, 11.853
698.774, 4.047
700.072, 30.041
701.371, 22.879
702.669, 1.819
703.967, 12.230
705.265, 78.279
706.562, 65.320
707.860, 25.356
709.157, 91.386
710.454, 40.409
711.751, 63.426
713.047, 51.437
714.344, 113.443
715.640, 100.442
716.936, 91.436
718.232, 159.425
719.527, 95.409
720.823, 132.388
722.118, 142.361
723.413, 134.330
724.708, 163.295
726.002, 157.224
727.297, 149.213
728.591, 178.165
729.885, 175.400
731.179, 171.060
732.472, 199.003
733.766, 190.942
735.059, 204.878
736.352, 261.812
737.645, 276.743
738.937, 271.672
740.230, 248.599
741.522, 252.523
742.814, 272.133
744.106, 321.367
745.397, 326.287
746.689, 356.206
747.980, 375.123
749.271, 406.039
750.562, 382.955
751.853, 432.871
753.143, 510.790
754.433, 480.711
755.723, 542.636
757.013, 578.566
758.303, 522.503
759.592, 583.449
760.881, 601.407
762.170, 685.374
763.459, 707.345
764.748, 669.338
766.036, 812.346
767.325, 759.381
768.613, 839.448
769.901, 916.531
771.188, 862.656
772.476, 971.805
773.763, 992.975
775.050, 1026.159
776.337, 1086.362
777.624, 1112.576
778.910, 1170.809
780.196, 1206.047
781.482, 1226.292
782.768, 1317.544
784.054, 1348.800
785.339, 1442.256
786.625, 1517.336
787.910, 1657.618
789.195, 1754.906
790.479, 1916.202
791.764, 2067.505
793.048, 2240.991
794.332, 2373.109
795.616, 2615.431
796.900, 2871.770
798.183, 3040.946
799.467, 3532.261
800.750, 3866.628
802.033, 4253.729
803.316, 4990.122
804.598, 5593.091
805.880, 6489.301
807.163, 7601.484
808.445, 8719.671
809.726, 10522.869
811.008, 12546.388
812.289, 15234.596
813.570, 19189.033
814.851, 24188.881
816.132, 30516.781
817.413, 37553.859
818.693, 45769.203
819.973, 51317.820
821.253, 53735.227
822.533, 53143.988
823.813, 47747.898
825.092, 41825.156
826.371, 35511.750
827.650, 29981.885
828.929, 26126.793
830.208, 22638.049
831.486, 19903.395
832.764, 18002.549
834.042, 16639.246
835.320, 15668.943
836.598, 15100.240
837.875, 14680.682
839.152, 14428.184
840.429, 14835.654
841.706, 15411.468
842.983, 16211.226
844.259, 18483.934
845.536, 20283.285
846.812, 23611.301
848.088, 27367.947
849.363, 31426.641
850.639, 35440.316
851.914, 37996.035
853.189, 38618.582
854.464, 38360.445
855.739, 36327.980
857.013, 32425.701
858.288, 28062.553
859.562, 24554.529
860.836, 21304.523
862.110, 17869.510
863.383, 15611.540
864.656, 13213.584
865.930, 11255.646
867.203, 9636.725
868.475, 8059.821
869.748, 6879.935
871.020, 6017.066
872.292, 5133.214
873.564, 4463.380
874.836, 3909.564
876.108, 3346.766
877.379, 3040.985
878.650, 2798.222
879.922, 2486.478
881.192, 2216.751
882.463, 2006.042
883.733, 1810.352
885.004, 1568.680
886.274, 1421.026
887.544, 1313.390
888.813, 1160.773
890.083, 1034.174
891.352, 964.594
892.621, 868.032
893.890, 803.310
895.159, 744.965
896.427, 693.459
897.695, 650.611
898.964, 620.146
900.232, 586.054
901.499, 584.623
902.767, 572.251
904.034, 574.892
905.301, 546.128
906.568, 600.135
907.835, 519.526
909.102, 526.270
910.368, 564.322
911.634, 589.733
912.900, 582.915
914.166, 606.837
915.432, 587.616
916.697, 607.392
917.962, 610.205
919.227, 583.235
920.492, 538.103
921.757, 539.980
923.021, 549.408
924.285, 534.351
925.550, 579.813
926.813, 601.777
928.077, 578.206
929.341, 588.226
930.604, 652.458
931.867, 612.484
933.130, 761.501
934.393, 851.536
935.655, 813.586
936.918, 953.653
938.180, 973.420
939.442, 1113.448
940.703, 1341.566
941.965, 1447.154
943.226, 1539.301
944.488, 1802.530
945.749, 2114.709
947.009, 2284.905
948.270, 2680.811
949.530, 3199.038
950.791, 3621.328
952.051, 3966.735
953.311, 4318.186
954.570, 4819.559
955.830, 5039.741
957.089, 5218.404
958.348, 5271.145
959.607, 5193.888
960.866, 5038.299
962.124, 4824.701
963.383, 4690.123
964.641, 4394.353
965.899, 4017.815
967.156, 3729.708
968.414, 3389.272
969.671, 3080.812
970.928, 2618.381
972.185, 2502.985
973.442, 2164.614
974.699, 1904.269
975.955, 1722.958
977.211, 1467.689
978.468, 1408.452
979.723, 1173.244
980.979, 1087.066
982.234, 1020.911
983.490, 865.788
984.745, 841.706
986.000, 790.651
987.254, 627.644
988.509, 688.667
989.763, 569.714
991.017, 558.310
992.271, 578.404
993.525, 528.517
994.779, 538.652
996.032, 452.806
997.285, 487.979
998.538, 376.170
999.791, 448.373
1001.044, 401.589
1002.296, 398.823
1003.548, 360.084
1004.800, 276.361
1006.052, 301.654
1007.304, 255.965
1008.555, 250.293
1009.807, 245.638
1011.058, 189.995
1012.309, 238.383
1013.559, 183.785
1014.810, 174.196
1016.060, 246.637
1017.310, 237.089
1018.560, 181.554
1019.810, 183.030
1021.060, 220.521
1022.309, 203.022
1023.558, 206.533
1024.807, 195.057
1026.056, 225.591
1027.305, 197.141
1028.553, 216.702
1029.801, 190.286
1031.049, 173.879
1032.297, 229.482
1033.545, 253.096
1034.793, 156.718
1036.040, 126.352
1037.287, 163.995
1038.534, 89.647
1039.781, 182.308
1041.027, 77.977
1042.274, 118.658
1043.520, 115.347
1044.766, 28.048
1046.012, 66.756
1047.257, 56.475
1048.503, 41.200
1049.748, 28.933
1050.993, 16.635
1052.238, 1.375
1053.483, 0.809
1054.727, 20.040
1055.971, 13.271
1057.216, 21.966
1058.459, 28.731
1059.703, 33.966
1060.947, 40.208
1062.190, 53.461
1063.433, 28.730
1064.676, 2.996
1065.919, 43.273
1067.162, 14.444
1068.404, 63.833
1069.646, 60.135
1070.888, 28.541
1072.130, 99.778
1073.372, 41.142
1074.613, 31.521
1075.855, 39.909
1077.096, 29.312
1078.337, 20.817
1079.578, 24.145
1080.818, 2.427
1082.059, 27.000
1083.299, 39.578
1084.539, 20.159
1085.779, 25.744
1087.018, 10.669
1088.258, 15.086
1089.497, 5.490
1090.736, 4.932
1091.975, 7.444
1093.213, 4.221
1094.452, 22.799
1095.690, 27.551
1096.928, 26.037
1098.166, 27.531
1099.404, 7.103
1100.642, 32.327
1101.879, 4.227
1103.116, 30.222
1104.353, 26.280
1105.590, 33.170
1106.827, 33.672
1108.063, 1.805
1109.299, 9.722
1110.536, 65.818
1111.771, 18.284
1113.007, 4.251
1114.243, 52.207
1115.478, 3.665
1116.713, 7.881
1117.948, 36.562
1119.183, 19.005
1120.418, 81.447
1121.652, 258.889
1122.886, 246.330
1124.120, 230.770
1125.354, 117.209
1126.588, 80.646
1127.821, 46.154
1129.055, 53.588
1130.288, 68.532
1131.521, 48.943
1132.753, 39.880
1133.986, 61.455
1135.218, 138.034
1136.450, 67.680
1137.682, 105.334
1138.914, 8.080
1140.146, 60.409
1141.377, 68.896
1142.609, 94.410
1143.840, 149.875
1145.071, 94.248
1146.301, 151.616
1147.532, 149.980
1148.762, 128.402
1149.992, 70.593
1151.222, 53.639
1152.452, 156.171
1153.682, 96.500
1154.911, 153.831
1156.140, 129.962
1157.369, 72.304
1158.598, 115.002
1159.827, 105.014
1161.055, 129.613
1162.284, 112.905
1163.512, 123.631
1164.740, 133.980
1165.967, 138.223
1167.195, 193.363
1168.422, 181.509
1169.650, 104.843
1170.877, 154.181
1172.103, 110.953
1173.330, 114.223
1174.557, 155.111
1175.783, 143.531
1177.009, 75.915
1178.235, 137.174
1179.461, 147.417
1180.686, 114.132
1181.912, 190.298
1183.137, 167.047
1184.362, 150.334
1185.587, 143.754
1186.811, 120.885
1188.036, 77.005
1189.260, 125.043
1190.484, 184.323
1191.708, 226.210
1192.932, 159.297
1194.155, 157.930
1195.378, 202.066
1196.602, 239.131
1197.825, 224.306
1199.047, 233.625
1200.270, 232.677
1201.492, 268.579
1202.715, 217.973
1203.937, 238.604
1205.159, 284.930
1206.380, 241.841
1207.602, 272.453
1208.823, 244.714
1210.044, 244.212
1211.265, 261.297
1212.486, 254.218
1213.707, 258.980
1214.927, 260.049
1216.147, 260.740
1217.367, 244.603
1218.587, 250.477
1219.807, 265.786
1221.027, 245.547
1222.246, 242.966
1223.465, 220.775
1224.684, 220.126
1225.903, 203.894
1227.121, 213.456
1228.340, 262.233
1229.558, 284.026
1230.776, 231.811
1231.994, 146.585
1233.212, 217.351
1234.429, 249.423
1235.646, 222.242
1236.864, 289.978
1238.081, 182.250
1239.297, 209.969
1240.514, 265.613
1241.730, 227.315
1242.947, 157.043
1244.163, 190.036
1245.378, 188.716
1246.594, 196.343
1247.810, 153.861
1249.025, 202.343
1250.240, 159.915
1251.455, 163.685
1252.670, 136.994
1253.885, 76.234
1255.099, 102.481
1256.313, 45.075
1257.527, 170.687
1258.741, 77.289
1259.955, 94.090
1261.168, 84.737
1262.382, 71.907
1263.595, 94.424
1264.808, 128.978
1266.021, 80.524
1267.233, 100.064
1268.446, 107.487
1269.658, 70.093
1270.870, 115.580
1272.082, 84.051
1273.294, 50.485
1274.505, 67.909
1275.716, 18.301
1276.928, 4.677
1278.139, 18.528
1279.349, 40.378
1280.560, 39.703
1281.770, 33.998
1282.981, 33.283
1284.191, 38.553
1285.401, 46.277
1286.610, 46.071
1287.820, 42.754
1289.029, 49.243
1290.239, 73.171
1291.448, 72.364
1292.656, 93.538
1293.865, 55.695
1295.073, 6.843
1296.282, 40.022
1297.490, 37.087
1298.698, 3.184
1299.906, 97.268
1301.113, 7.342
1302.320, 2.403
1303.528, 23.450
1304.735, 56.514
1305.942, 28.492
1307.148, 106.487
1308.355, 52.526
1309.561, 55.431
1310.767, 20.378
1311.973, 21.314
1313.179, 4.239
1314.384, 52.149
1315.590, 49.049
1316.795, 14.938
1318.000, 61.816
1319.205, 9.318
1320.410, 34.531
1321.614, 33.632
1322.819, 56.180
1324.023, 57.981
1325.227, 13.770
1326.431, 101.546
1327.634, 11.312
1328.838, 42.063
1330.041, 27.805
1331.244, 96.535
1332.447, 72.256
1333.650, 0.968
1334.852, 36.667
1336.055, 3.357
1337.257, 70.035
1338.459, 10.704
1339.661, 53.363
1340.862, 68.015
1342.064, 3.341
1343.265, 25.290
1344.466, 53.913
1345.667, 0.472
1346.868, 85.133
1348.068, 135.733
1349.269, 52.330
1350.469, 69.921
1351.669, 137.512
1352.869, 72.103
1354.069, 97.695
1355.268, 20.293
1356.468, 109.890
1357.667, 120.481
1358.866, 117.077
1360.065, 127.668
1361.263, 98.270
1362.462, 124.408
1363.660, 133.015
1364.858, 111.788
1366.056, 52.422
1367.254, 100.062
1368.451, 183.745
1369.649, 117.397
1370.846, 102.054
1372.043, 94.717
1373.240, 67.798
1374.436, 69.431
1375.633, 116.052
1376.829, 67.667
1378.025, 93.275
1379.221, 127.862
1380.417, 98.405
1381.613, 156.920
1382.808, 183.601
1384.003, 205.875
1385.199, 114.954
1386.393, 59.027
1387.588, 117.096
1388.783, 96.174
1389.977, 157.270
1391.171, 119.396
1392.365, 105.450
1393.559, 183.580
1394.753, 136.707
1395.946, 129.833
1397.140, 81.954
1398.333, 120.064
1399.526, 137.165
1400.719, 157.174
1401.911, 276.667
1403.104, 160.010
1404.296, 52.691
1405.488, 123.167
1406.680, 117.867
1407.872, 184.613
1409.063, 131.522
1410.255, 139.530
1411.446, 137.415
1412.637, 92.535
1413.828, 142.208
1415.018, 140.778
1416.209, 115.078
1417.399, 170.488
1418.589, 142.322
1419.779, 95.906
1420.969, 103.290
1422.159, 137.096
1423.348, 159.386
1424.537, 142.268
1425.726, 126.650
1426.915, 139.431
1428.104, 87.909
1429.293, 145.013
1430.481, 108.141
1431.669, 130.159
1432.857, 99.753
1434.045, 71.058
1435.233, 184.270
1436.420, 180.091
1437.608, 93.450
1438.795, 157.685
1439.982, 134.025
1441.169, 183.821
1442.355, 123.135
1443.542, 151.438
1444.728, 110.725
1445.914, 174.996
1447.100, 179.136
1448.286, 207.375
1449.472, 110.596
1450.657, 239.795
1451.842, 215.977
1453.027, 201.142
1454.212, 264.291
1455.397, 248.424
1456.581, 250.458
1457.766, 277.523
1458.950, 222.547
1460.134, 223.529
1461.318, 239.464
1462.501, 205.351
1463.685, 243.188
1464.868, 114.003
1466.051, 117.640
1467.234, 132.394
1468.417, 195.096
1469.600, 80.818
1470.782, 190.592
1471.965, 125.493
1473.147, 119.506
1474.329, 194.540
1475.510, 96.666
1476.692, 152.839
1477.873, 151.033
1479.055, 88.269
1480.236, 150.534
1481.416, 137.874
1482.597, 149.232
1483.778, 128.597
1484.958, 120.966
1486.138, 99.336
1487.318, 97.437
1488.498, 140.091
1489.678, 93.479
1490.857, 34.878
1492.037, 28.314
1493.216, 112.733
1494.395, 25.206
1495.574, 74.722
1496.752, 89.299
1497.931, 57.943
1499.109, 33.655
1500.287, 156.427
1501.465, 127.255
1502.643, 48.137
1503.820, 8.926
1504.998, 88.064
1506.175, 0.116
1507.352, 100.240
1508.529, 56.448
1509.706, 20.752
1510.882, 95.168
1512.059, 70.703
1513.235, 102.363
1514.411, 1.840
1515.587, 56.694
1516.762, 53.547
1517.938, 114.580
1519.113, 115.539
1520.288, 18.147
1521.463, 93.467
1522.638, 40.547
1523.813, 0.133
1524.987, 0.000
##END=



