##NAMES=Forsterite
##RRUFFID=R040057
##IDEAL CHEMISTRY=Mg_2_SiO_4_
##LOCALITY=Trudy's mine, San Carlos, Gila County, Arizona, USA
##OWNER=RRUFF
##SOURCE=Bob Downs
##DESCRIPTION=Dark green crystal fragments from xenoliths in a basalt flow
##STATUS=The identification of this mineral has been confirmed by X-ray diffraction and chemical analysis
##URL=rruff.info/R040057
##MEASURED CHEMISTRY=(Mg_1.67_Fe_0.32_Ni_0.01_)_Î£=2_Si_1.00_O_4_; trace amounts of Mn and Ca
##PIN_ID=L00065
##ORIENTATION=Laser parallel to -a* (-1 0 0). Fiducial mark perpendicular to laser is parallel to c [0 0 1]
97.554, 0.000
98.947, 0.487
100.340, 31.625
101.732, 3.397
103.124, 10.107
104.516, 32.836
105.908, 68.109
107.300, 5.394
108.691, 29.101
110.082, 29.428
111.473, 76.462
112.864, 66.099
114.254, 137.258
115.644, 141.873
117.034, 129.889
118.424, 163.269
119.813, 173.980
121.203, 175.989
122.592, 93.265
123.981, 113.783
125.369, 80.521
126.758, 58.456
128.146, 83.573
129.534, 78.938
130.922, 80.288
132.309, 117.860
133.696, 139.558
135.083, 162.385
136.470, 129.355
137.857, 224.467
139.243, 170.706
140.630, 207.056
142.016, 155.503
143.401, 204.037
144.787, 280.648
146.172, 272.332
147.557, 252.083
148.942, 227.899
150.327, 243.774
151.711, 278.703
153.096, 258.682
154.480, 223.708
155.863, 195.776
157.247, 219.885
158.630, 152.033
160.013, 165.215
161.396, 135.431
162.779, 92.677
164.161, 138.952
165.544, 103.254
166.926, 96.458
168.308, 103.314
169.689, 93.309
171.070, 67.840
172.452, 119.601
173.833, 49.546
175.213, 129.633
176.594, 88.752
177.974, 119.853
179.354, 164.935
180.734, 136.995
182.114, 157.019
183.493, 221.018
184.872, 209.995
186.251, 279.953
187.630, 228.896
189.008, 248.827
190.387, 247.752
191.765, 259.675
193.143, 274.690
194.520, 328.541
195.898, 329.509
197.275, 308.487
198.652, 386.473
200.029, 409.458
201.405, 497.442
202.782, 528.421
204.158, 610.395
205.534, 716.367
206.909, 716.337
208.285, 939.308
209.660, 1030.273
211.035, 1089.237
212.410, 1183.198
213.784, 1233.165
215.159, 1311.137
216.533, 1306.107
217.907, 1206.081
219.281, 1155.053
220.654, 1008.022
222.027, 1009.989
223.400, 886.953
224.773, 783.914
226.146, 692.871
227.518, 657.825
228.891, 572.776
230.263, 544.724
231.634, 521.670
233.006, 416.613
234.377, 406.555
235.748, 374.494
237.119, 317.430
238.490, 285.365
239.860, 230.371
241.231, 211.717
242.601, 191.960
243.970, 163.539
245.340, 160.423
246.709, 108.935
248.079, 139.908
249.448, 129.356
250.816, 89.151
252.185, 119.930
253.553, 48.128
254.921, 103.744
256.289, 49.318
257.657, 35.889
259.024, 48.453
260.391, 62.012
261.758, 70.600
263.125, 89.646
264.492, 63.681
265.858, 120.862
267.224, 54.257
268.590, 31.649
269.956, 112.012
271.321, 123.422
272.687, 102.823
274.052, 100.311
275.416, 95.853
276.781, 115.646
278.146, 119.979
279.510, 191.578
280.874, 202.511
282.237, 282.150
283.601, 237.185
284.964, 365.857
286.327, 390.660
287.690, 396.800
289.053, 564.042
290.416, 698.517
291.778, 863.071
293.140, 1041.162
294.502, 1186.204
295.863, 1367.217
297.225, 1535.685
298.586, 1584.739
299.947, 1583.679
301.308, 1439.564
302.668, 1342.556
304.029, 1193.429
305.389, 1001.212
306.749, 831.997
308.108, 723.783
309.468, 660.624
310.827, 670.490
312.186, 601.458
313.545, 614.341
314.903, 616.341
316.262, 638.304
317.620, 616.106
318.978, 715.898
320.336, 682.705
321.693, 657.613
323.051, 748.410
324.408, 570.312
325.765, 637.261
327.121, 571.294
328.478, 603.898
329.834, 597.852
331.190, 687.934
332.546, 590.717
333.902, 739.795
335.257, 675.990
336.612, 710.775
337.967, 639.765
339.322, 592.547
340.677, 494.526
342.031, 446.299
343.385, 368.135
344.739, 341.899
346.093, 255.815
347.446, 288.588
348.799, 229.381
350.153, 215.171
351.505, 244.972
352.858, 207.767
354.210, 210.564
355.563, 135.360
356.915, 144.148
358.267, 142.942
359.618, 149.737
360.969, 183.539
362.321, 159.343
363.672, 140.155
365.022, 159.978
366.373, 104.798
367.723, 124.609
369.073, 97.416
370.423, 142.213
371.773, 90.031
373.122, 74.838
374.471, 108.647
375.821, 69.452
377.169, 65.277
378.518, 44.091
379.866, 34.912
381.215, 12.722
382.563, 5.528
383.910, 6.325
385.258, 50.884
386.605, 22.888
387.952, 57.337
389.299, 4.591
390.646, 42.860
391.992, 26.154
393.339, 91.469
394.685, 48.823
396.031, 10.795
397.376, 8.555
398.722, 3.142
400.067, 30.071
401.412, 24.179
402.757, 19.827
404.101, 19.058
405.446, 13.081
406.790, 16.542
408.134, 62.167
409.478, 102.619
410.821, 103.935
412.165, 123.465
413.508, 130.983
414.851, 166.032
416.193, 130.248
417.536, 110.533
418.878, 98.725
420.220, 117.932
421.562, 70.099
422.904, 137.254
424.245, 108.397
425.586, 77.529
426.927, 193.652
428.268, 48.764
429.609, 62.864
430.949, 132.951
432.289, 172.027
433.629, 83.090
434.969, 119.141
436.309, 81.180
437.648, 119.205
438.987, 87.217
440.326, 113.216
441.665, 29.201
443.003, 105.169
444.342, 25.124
445.680, 92.061
447.018, 63.984
448.355, 22.891
449.693, 3.221
451.030, 11.639
452.367, 10.154
453.704, 0.292
455.041, 36.080
456.377, 40.850
457.713, 14.602
459.049, 38.333
460.385, 57.044
461.721, 71.740
463.056, 48.417
464.391, 77.077
465.726, 107.721
467.061, 144.348
468.395, 107.959
469.730, 87.553
471.064, 82.243
472.398, 59.449
473.731, 80.060
475.065, 52.873
476.398, 61.525
477.731, 102.069
479.064, 104.921
480.397, 101.453
481.729, 77.310
483.062, 103.857
484.394, 78.258
485.725, 66.706
487.057, 51.212
488.389, 17.797
489.720, 66.143
491.051, 47.280
492.382, 108.214
493.712, 51.088
495.043, 42.753
496.373, 123.347
497.703, 65.198
499.032, 115.513
500.362, 66.967
501.691, 171.365
503.020, 105.049
504.349, 129.296
505.678, 93.085
507.007, 194.194
508.335, 193.832
509.663, 224.995
510.991, 200.219
512.319, 178.723
513.646, 221.039
514.973, 248.342
516.300, 324.406
517.627, 286.825
518.954, 266.605
520.280, 343.137
521.607, 343.724
522.933, 375.249
524.259, 352.715
525.584, 395.918
526.910, 422.669
528.235, 435.562
529.560, 529.372
530.885, 535.921
532.209, 667.655
533.534, 722.761
534.858, 911.683
536.182, 1055.073
537.506, 1170.676
538.829, 1252.255
540.152, 1185.753
541.476, 1081.394
542.799, 878.172
544.121, 717.653
545.444, 588.017
546.766, 436.563
548.088, 343.924
549.410, 302.511
550.732, 269.646
552.053, 232.803
553.375, 201.174
554.696, 174.147
556.017, 150.392
557.337, 133.440
558.658, 108.166
559.978, 87.768
561.298, 148.691
562.618, 83.841
563.938, 30.992
565.257, 143.196
566.576, 95.965
567.895, 123.950
569.214, 181.949
570.533, 92.926
571.851, 132.879
573.170, 143.811
574.488, 158.721
575.805, 126.610
577.123, 152.478
578.440, 138.324
579.758, 178.273
581.075, 179.917
582.391, 270.701
583.708, 264.464
585.024, 306.192
586.341, 322.546
587.657, 375.472
588.972, 324.068
590.288, 338.727
591.603, 324.365
592.918, 273.974
594.233, 338.572
595.548, 315.126
596.863, 349.683
598.177, 367.217
599.491, 379.013
600.805, 460.916
602.119, 446.392
603.432, 451.469
604.746, 534.905
606.059, 439.206
607.372, 458.162
608.685, 471.008
609.997, 388.613
611.309, 339.128
612.621, 240.098
613.933, 312.104
615.245, 308.128
616.557, 281.684
617.868, 275.642
619.179, 190.698
620.490, 180.796
621.801, 216.771
623.111, 171.852
624.421, 206.005
625.731, 156.140
627.041, 184.257
628.351, 83.302
629.660, 28.304
630.970, 212.183
632.279, 49.129
633.588, 70.939
634.896, 15.765
636.205, 39.729
637.513, 83.683
638.821, 35.603
640.129, 69.399
641.437, 107.287
642.744, 82.050
644.051, 62.746
645.358, 7.338
646.665, 87.333
647.972, 14.958
649.278, 19.432
650.584, 16.819
651.890, 14.295
653.196, 27.875
654.502, 16.536
655.807, 4.964
657.113, 29.574
658.418, 14.040
659.722, 3.479
661.027, 44.989
662.331, 70.496
663.636, 65.820
664.940, 85.742
666.244, 0.625
667.547, 49.034
668.851, 11.258
670.154, 20.469
671.457, 5.230
672.760, 31.982
674.062, 40.819
675.365, 15.664
676.667, 44.540
677.969, 30.460
679.271, 46.417
680.572, 62.419
681.874, 11.474
683.175, 77.445
684.476, 8.646
685.777, 24.240
687.077, 100.886
688.378, 27.918
689.678, 32.290
690.978, 14.530
692.278, 102.793
693.577, 29.874
694.877, 60.468
696.176, 27.144
697.475, 18.254
698.774, 6.673
700.072, 19.106
701.371, 24.560
702.669, 53.021
703.967, 12.479
705.265, 52.989
706.562, 16.494
707.860, 9.005
709.157, 82.519
710.454, 51.052
711.751, 39.593
713.047, 82.084
714.344, 67.509
715.640, 38.826
716.936, 48.019
718.232, 116.534
719.527, 31.734
720.823, 16.121
722.118, 108.384
723.413, 107.691
724.708, 89.111
726.002, 110.632
727.297, 75.915
728.591, 128.365
729.885, 61.859
731.179, 87.362
732.472, 93.781
733.766, 114.277
735.059, 111.743
736.352, 146.232
737.645, 178.719
738.937, 182.203
740.230, 154.684
741.522, 127.163
742.814, 115.640
744.106, 224.115
745.397, 211.588
746.689, 188.061
747.980, 213.531
749.271, 173.000
750.562, 179.468
751.853, 207.943
753.143, 263.418
754.433, 219.893
755.723, 247.367
757.013, 254.117
758.303, 253.319
759.592, 278.796
760.881, 328.274
762.170, 369.757
763.459, 394.248
764.748, 413.833
766.036, 424.995
767.325, 442.798
768.613, 411.332
769.901, 450.869
771.188, 409.410
772.476, 524.956
773.763, 425.505
775.050, 586.058
776.337, 477.624
777.624, 606.195
778.910, 519.769
780.196, 567.346
781.482, 479.926
782.768, 555.510
784.054, 649.987
785.339, 721.865
786.625, 683.463
787.910, 810.780
789.195, 795.245
790.479, 844.807
791.764, 892.051
793.048, 897.603
794.332, 996.818
795.616, 1047.330
796.900, 1144.978
798.183, 1205.565
799.467, 1265.085
800.750, 1475.529
802.033, 1521.201
803.316, 1816.074
804.598, 1882.139
805.880, 2316.274
807.163, 2569.608
808.445, 2925.015
809.726, 3474.156
811.008, 4067.826
812.289, 4958.348
813.570, 6144.913
814.851, 7565.182
816.132, 9437.899
817.413, 11726.069
818.693, 14586.903
819.973, 16853.240
821.253, 18040.045
822.533, 18280.775
823.813, 17083.223
825.092, 15270.844
826.371, 13601.471
827.650, 11942.328
828.929, 11091.832
830.208, 10158.966
831.486, 9541.343
832.764, 9322.655
834.042, 9273.021
835.320, 9671.440
836.598, 10095.112
837.875, 10757.233
839.152, 11771.210
840.429, 13269.279
841.706, 14652.604
842.983, 16992.734
844.259, 19736.492
845.536, 23196.430
846.812, 27964.893
848.088, 33392.125
849.363, 39605.383
850.639, 45604.660
851.914, 49762.695
853.189, 51973.523
854.464, 51771.633
855.739, 48561.465
857.013, 42815.598
858.288, 36719.977
859.562, 31014.402
860.836, 26040.850
862.110, 21797.660
863.383, 18062.775
864.656, 15099.276
865.930, 12693.798
867.203, 10769.332
868.475, 9207.894
869.748, 7636.470
871.020, 6863.067
872.292, 5978.685
873.564, 5260.322
874.836, 4616.540
876.108, 4160.223
877.379, 3894.927
878.650, 3510.648
879.922, 3168.407
881.192, 2907.186
882.463, 2689.991
883.733, 2532.816
885.004, 2309.662
886.274, 2092.527
887.544, 1996.412
888.813, 1826.320
890.083, 1803.248
891.352, 1687.198
892.621, 1612.168
893.890, 1530.157
895.159, 1460.167
896.427, 1336.197
897.695, 1425.247
898.964, 1386.316
900.232, 1308.406
901.499, 1373.518
902.767, 1441.648
904.034, 1325.625
905.301, 1383.802
906.568, 1420.002
907.835, 1553.222
909.102, 1618.463
910.368, 1741.724
911.634, 1974.011
912.900, 2219.317
914.166, 2559.318
915.432, 2872.757
916.697, 3098.536
917.962, 3185.927
919.227, 2949.729
920.492, 2702.160
921.757, 2324.610
923.021, 2153.082
924.285, 1979.573
925.550, 1852.091
926.813, 1725.621
928.077, 1645.554
929.341, 1664.125
930.604, 1913.716
931.867, 1817.328
933.130, 1953.960
934.393, 2075.611
935.655, 2165.282
936.918, 2345.974
938.180, 2450.779
939.442, 2588.040
940.703, 2907.795
941.965, 3129.908
943.226, 3292.034
944.488, 3706.855
945.749, 4110.697
947.009, 4383.560
948.270, 4710.443
949.530, 5222.346
950.791, 5716.508
952.051, 5991.899
953.311, 6245.679
954.570, 6498.559
955.830, 6558.571
957.089, 6428.739
958.348, 6396.955
959.607, 6016.245
960.866, 5483.814
962.124, 5158.671
963.383, 4808.830
964.641, 4248.009
965.899, 3881.224
967.156, 3401.443
968.414, 2950.702
969.671, 2661.004
970.928, 2334.538
972.185, 1969.014
973.442, 1694.411
974.699, 1447.958
975.955, 1283.294
977.211, 1062.773
978.468, 896.276
979.723, 774.284
980.979, 634.841
982.234, 802.429
983.490, 515.065
984.745, 600.761
986.000, 501.463
987.254, 349.202
988.509, 457.317
989.763, 300.102
991.017, 319.762
992.271, 177.584
993.525, 264.464
994.779, 343.473
996.032, 268.398
997.285, 213.345
998.538, 141.335
999.791, 270.349
1001.044, 228.395
1002.296, 344.455
1003.548, 211.535
1004.800, 124.635
1006.052, 128.755
1007.304, 99.898
1008.555, 123.072
1009.807, 79.272
1011.058, 87.504
1012.309, 122.764
1013.559, 74.037
1014.810, 76.322
1016.060, 47.620
1017.310, 141.932
1018.560, 41.375
1019.810, 24.719
1021.060, 140.076
1022.309, 40.443
1023.558, 105.190
1024.807, 46.583
1026.056, 123.994
1027.305, 63.441
1028.553, 124.875
1029.801, 124.168
1031.049, 49.657
1032.297, 101.619
1033.545, 128.287
1034.793, 91.805
1036.040, 44.448
1037.287, 88.984
1038.534, 162.195
1039.781, 179.749
1041.027, 90.708
1042.274, 129.283
1043.520, 63.867
1044.766, 78.462
1046.012, 67.078
1047.257, 27.697
1048.503, 70.324
1049.748, 69.959
1050.993, 17.668
1052.238, 28.321
1053.483, 56.866
1054.727, 26.791
1055.971, 95.988
1057.216, 74.673
1058.459, 42.507
1059.703, 69.190
1060.947, 6.872
1062.190, 14.566
1063.433, 25.566
1064.676, 35.868
1065.919, 64.014
1067.162, 39.722
1068.404, 41.600
1069.646, 72.234
1070.888, 79.908
1072.130, 6.585
1073.372, 16.266
1074.613, 1.950
1075.855, 48.707
1077.096, 58.542
1078.337, 104.129
1079.578, 28.872
1080.818, 93.683
1082.059, 22.362
1083.299, 55.044
1084.539, 25.727
1085.779, 17.413
1087.018, 1.899
1088.258, 14.506
1089.497, 15.473
1090.736, 8.842
1091.975, 8.139
1093.213, 51.541
1094.452, 48.220
1095.690, 15.899
1096.928, 4.579
1098.166, 27.501
1099.404, 3.819
1100.642, 65.144
1101.879, 16.485
1103.116, 17.792
1104.353, 53.183
1105.590, 89.114
1106.827, 0.466
1108.063, 56.808
1109.299, 6.237
1110.536, 11.561
1111.771, 40.970
1113.007, 32.518
1114.243, 29.331
1115.478, 81.071
1116.713, 20.732
1117.948, 27.359
1119.183, 146.000
1120.418, 5.540
1121.652, 112.994
1122.886, 87.370
1124.120, 37.740
1125.354, 12.106
1126.588, 22.594
1127.821, 34.741
1129.055, 96.681
1130.288, 83.427
1131.521, 85.476
1132.753, 13.849
1133.986, 19.292
1135.218, 152.642
1136.450, 11.073
1137.682, 146.146
1138.914, 65.318
1140.146, 82.069
1141.377, 45.339
1142.609, 3.164
1143.840, 148.709
1145.071, 187.142
1146.301, 100.487
1147.532, 46.536
1148.762, 97.835
1149.992, 119.008
1151.222, 46.215
1152.452, 100.758
1153.682, 42.956
1154.911, 130.898
1156.140, 47.658
1157.369, 207.833
1158.598, 89.212
1159.827, 113.726
1161.055, 150.862
1162.284, 90.896
1163.512, 118.255
1164.740, 118.437
1165.967, 41.438
1167.195, 195.562
1168.422, 103.602
1169.650, 190.539
1170.877, 33.063
1172.103, 112.957
1173.330, 109.010
1174.557, 75.045
1175.783, 100.116
1177.009, 25.098
1178.235, 150.787
1179.461, 14.786
1180.686, 57.568
1181.912, 109.296
1183.137, 70.008
1184.362, 104.704
1185.587, 37.414
1186.811, 140.215
1188.036, 48.857
1189.260, 145.361
1190.484, 162.142
1191.708, 136.679
1192.932, 106.765
1194.155, 115.765
1195.378, 163.304
1196.602, 169.012
1197.825, 100.354
1199.047, 190.055
1200.270, 31.560
1201.492, 149.101
1202.715, 51.526
1203.937, 116.930
1205.159, 84.718
1206.380, 194.181
1207.602, 37.530
1208.823, 126.852
1210.044, 86.156
1211.265, 146.769
1212.486, 87.945
1213.707, 110.783
1214.927, 136.836
1216.147, 86.831
1217.367, 188.113
1218.587, 131.287
1219.807, 144.443
1221.027, 152.581
1222.246, 114.694
1223.465, 117.803
1224.684, 183.505
1225.903, 115.704
1227.121, 100.750
1228.340, 148.776
1229.558, 216.784
1230.776, 143.775
1231.994, 177.752
1233.212, 183.900
1234.429, 244.868
1235.646, 176.266
1236.864, 246.171
1238.081, 134.718
1239.297, 208.259
1240.514, 277.109
1241.730, 215.945
1242.947, 185.765
1244.163, 89.568
1245.378, 227.354
1246.594, 192.884
1247.810, 139.190
1249.025, 129.737
1250.240, 75.562
1251.455, 125.258
1252.670, 195.793
1253.885, 104.296
1255.099, 131.739
1256.313, 105.191
1257.527, 160.072
1258.741, 133.773
1259.955, 24.167
1261.168, 121.684
1262.382, 70.190
1263.595, 99.644
1264.808, 2.076
1266.021, 92.274
1267.233, 111.599
1268.446, 136.960
1269.658, 145.601
1270.870, 175.617
1272.082, 100.878
1273.294, 68.100
1274.505, 19.813
1275.716, 10.688
1276.928, 27.871
1278.139, 21.235
1279.349, 97.284
1280.560, 118.342
1281.770, 145.333
1282.981, 0.051
1284.191, 70.895
1285.401, 83.968
1286.610, 20.126
1287.820, 63.745
1289.029, 31.474
1290.239, 67.283
1291.448, 81.068
1292.656, 2.175
1293.865, 87.550
1295.073, 115.252
1296.282, 104.935
1297.490, 49.600
1298.698, 102.243
1299.906, 23.868
1301.113, 32.471
1302.320, 21.948
1303.528, 41.400
1304.735, 27.889
1305.942, 100.588
1307.148, 122.046
1308.355, 57.484
1309.561, 80.900
1310.767, 16.297
1311.973, 11.554
1313.179, 104.901
1314.384, 126.229
1315.590, 36.537
1316.795, 146.451
1318.000, 10.711
1319.205, 87.945
1320.410, 76.131
1321.614, 100.679
1322.819, 101.641
1324.023, 70.757
1325.227, 114.389
1326.431, 158.303
1327.634, 125.428
1328.838, 148.802
1330.041, 115.296
1331.244, 87.629
1332.447, 136.610
1333.650, 15.178
1334.852, 79.121
1336.055, 12.046
1337.257, 35.950
1338.459, 1.174
1339.661, 134.690
1340.862, 75.540
1342.064, 15.372
1343.265, 68.123
1344.466, 6.921
1345.667, 10.551
1346.868, 123.319
1348.068, 121.540
1349.269, 41.264
1350.469, 92.831
1351.669, 139.540
1352.869, 152.244
1354.069, 190.929
1355.268, 192.250
1356.468, 224.096
1357.667, 220.592
1358.866, 119.189
1360.065, 193.857
1361.263, 90.339
1362.462, 118.978
1363.660, 183.606
1364.858, 164.229
1366.056, 181.846
1367.254, 108.438
1368.451, 117.984
1369.649, 77.599
1370.846, 197.144
1372.043, 136.620
1373.240, 172.231
1374.436, 266.847
1375.633, 181.421
1376.829, 63.045
1378.025, 79.680
1379.221, 162.329
1380.417, 204.813
1381.613, 147.191
1382.808, 270.453
1384.003, 110.770
1385.199, 119.058
1386.393, 120.066
1387.588, 300.297
1388.783, 150.117
1389.977, 143.272
1391.171, 157.336
1392.365, 16.430
1393.559, 205.232
1394.753, 141.993
1395.946, 228.625
1397.140, 163.605
1398.333, 174.813
1399.526, 43.853
1400.719, 139.419
1401.911, 200.608
1403.104, 152.268
1404.296, 197.995
1405.488, 175.602
1406.680, 180.721
1407.872, 210.468
1409.063, 223.843
1410.255, 77.193
1411.446, 205.882
1412.637, 130.037
1413.828, 122.874
1415.018, 140.029
1416.209, 85.989
1417.399, 138.061
1418.589, 218.979
1419.779, 155.789
1420.969, 154.427
1422.159, 128.273
1423.348, 128.156
1424.537, 132.200
1425.726, 116.244
1426.915, 221.416
1428.104, 134.641
1429.293, 137.687
1430.481, 201.339
1431.669, 287.318
1432.857, 169.245
1434.045, 105.755
1435.233, 235.847
1436.420, 193.405
1437.608, 178.750
1438.795, 213.561
1439.982, 220.520
1441.169, 250.458
1442.355, 204.377
1443.542, 349.116
1444.728, 241.986
1445.914, 354.832
1447.100, 285.640
1448.286, 239.188
1449.472, 281.951
1450.657, 411.678
1451.842, 296.764
1453.027, 342.405
1454.212, 446.016
1455.397, 297.575
1456.581, 272.077
1457.766, 382.523
1458.950, 282.568
1460.134, 345.889
1461.318, 176.193
1462.501, 317.773
1463.685, 352.008
1464.868, 183.256
1466.051, 326.526
1467.234, 201.797
1468.417, 158.933
1469.600, 227.159
1470.782, 229.608
1471.965, 136.088
1473.147, 162.587
1474.329, 204.094
1475.510, 124.844
1476.692, 189.567
1477.873, 269.288
1479.055, 187.092
1480.236, 308.977
1481.416, 140.929
1482.597, 227.889
1483.778, 187.848
1484.958, 177.810
1486.138, 38.775
1487.318, 226.755
1488.498, 132.758
1489.678, 203.791
1490.857, 128.851
1492.037, 182.978
1493.216, 99.185
1494.395, 161.489
1495.574, 148.874
1496.752, 74.351
1497.931, 122.930
1499.109, 27.602
1500.287, 52.373
1501.465, 14.241
1502.643, 37.214
1503.820, 112.290
1504.998, 113.487
1506.175, 163.826
1507.352, 88.328
1508.529, 13.020
1509.706, 72.920
1510.882, 87.051
1512.059, 197.436
1513.235, 38.862
1514.411, 44.847
1515.587, 102.225
1516.762, 6.859
1517.938, 149.377
1519.113, 209.247
1520.288, 82.895
1521.463, 27.132
1522.638, 12.099
1523.813, 0.000
##END=



