##NAMES=Forsterite
##RRUFFID=R050117
##IDEAL CHEMISTRY=Mg_2_SiO_4_
##LOCALITY=Sapat, Gilgit, Pakistan
##OWNER=RRUFF
##SOURCE=Farooq and Nazia Sawal
##DESCRIPTION=Fragment of a green crystal
##STATUS=The identification of this mineral has been confirmed by X-ray diffraction and chemical analysis
##URL=rruff.info/R050117
##MEASURED CHEMISTRY=(Mg_1.81_Fe_0.18_Ni_0.01_)_Î£=2_Si_1.00_O_4_
##PIN_ID=L00442
##ORIENTATION=Laser parallel to c* (0 0 1). Fiducial mark perpendicular to laser is parallel to -a [-1 0 0]
139.937, 0.000
141.323, 47.738
142.709, 79.366
144.094, 58.372
145.480, 40.354
146.865, 4.773
148.250, 87.624
149.635, 85.695
151.019, 159.494
152.403, 58.243
153.788, 83.482
155.171, 87.383
156.555, 134.388
157.939, 169.420
159.322, 121.881
160.705, 166.557
162.088, 151.549
163.470, 195.102
164.853, 194.708
166.235, 121.341
167.617, 92.201
168.998, 91.441
170.380, 156.251
171.761, 203.484
173.142, 130.117
174.523, 166.785
175.904, 177.125
177.284, 249.631
178.664, 148.485
180.044, 140.926
181.424, 162.027
182.803, 84.928
184.183, 59.762
185.562, 160.782
186.940, 74.137
188.319, 110.449
189.698, 114.272
191.076, 7.009
192.454, 21.093
193.831, 16.965
195.209, 36.173
196.586, 67.021
197.963, 53.020
199.340, 73.734
200.717, 74.119
202.093, 124.663
203.470, 142.786
204.846, 198.484
206.221, 176.661
207.597, 240.593
208.972, 197.312
210.347, 283.371
211.722, 320.012
213.097, 423.843
214.472, 491.742
215.846, 535.394
217.220, 559.216
218.594, 695.625
219.967, 678.937
221.341, 742.160
222.714, 710.377
224.087, 777.823
225.460, 779.456
226.832, 673.239
228.204, 606.155
229.577, 498.181
230.948, 511.292
232.320, 425.471
233.692, 421.697
235.063, 376.958
236.434, 332.227
237.805, 335.484
239.175, 262.724
240.545, 238.934
241.916, 215.106
243.286, 143.379
244.655, 87.384
246.025, 79.721
247.394, 86.723
248.763, 51.672
250.132, 76.740
251.501, 98.508
252.869, 22.832
254.237, 29.090
255.605, 15.489
256.973, 26.800
258.340, 13.033
259.708, 15.781
261.075, 19.372
262.442, 25.096
263.808, 21.430
265.175, 48.335
266.541, 18.397
267.907, 32.426
269.273, 42.532
270.639, 3.705
272.004, 21.067
273.369, 19.700
274.734, 4.904
276.099, 9.004
277.463, 10.706
278.828, 0.483
280.192, 15.472
281.556, 9.334
282.919, 50.226
284.283, 11.849
285.646, 40.311
287.009, 73.617
288.372, 41.793
289.734, 139.839
291.097, 155.775
292.459, 205.598
293.821, 330.416
295.183, 466.797
296.544, 737.646
297.905, 955.374
299.266, 1254.088
300.627, 1645.931
301.988, 1879.733
303.348, 2003.486
304.709, 1906.168
306.069, 1769.671
307.428, 1514.542
308.788, 1238.904
310.147, 1138.144
311.507, 1042.369
312.865, 999.896
314.224, 1126.163
315.583, 1139.112
316.941, 1184.777
318.299, 1210.020
319.657, 1110.007
321.015, 1126.858
322.372, 1118.436
323.729, 1179.588
325.086, 1216.547
326.443, 1282.188
327.800, 1216.874
329.156, 1167.150
330.512, 1114.671
331.868, 961.025
333.224, 940.885
334.579, 852.870
335.935, 862.666
337.290, 820.164
338.645, 714.505
339.999, 702.424
341.354, 541.449
342.708, 494.026
344.062, 393.551
345.416, 316.873
346.769, 311.631
348.123, 269.966
349.476, 201.854
350.829, 152.065
352.182, 197.451
353.534, 181.744
354.887, 204.626
356.239, 150.643
357.591, 155.444
358.942, 146.352
360.294, 118.458
361.645, 96.076
362.996, 122.697
364.347, 108.000
365.698, 122.465
367.048, 108.758
368.398, 129.187
369.748, 124.221
371.098, 131.493
372.448, 125.321
373.797, 113.457
375.146, 143.620
376.495, 96.114
377.844, 128.807
379.192, 139.572
380.540, 170.285
381.889, 173.973
383.236, 130.633
384.584, 174.254
385.932, 112.840
387.279, 126.384
388.626, 100.888
389.973, 148.350
391.319, 131.769
392.666, 132.106
394.012, 115.441
395.358, 107.400
396.704, 132.308
398.049, 166.990
399.394, 158.445
400.740, 159.875
402.084, 137.960
403.429, 201.906
404.774, 232.714
406.118, 230.940
407.462, 284.581
408.806, 280.083
410.150, 384.632
411.493, 448.661
412.836, 549.005
414.179, 607.577
415.522, 717.936
416.865, 823.590
418.207, 885.693
419.549, 880.044
420.891, 983.643
422.233, 940.047
423.575, 1076.209
424.916, 1238.995
426.257, 1493.992
427.598, 1852.283
428.939, 2274.437
430.279, 2511.694
431.619, 2502.299
432.959, 2306.763
434.299, 1935.688
435.639, 1468.688
436.978, 1139.610
438.318, 790.198
439.657, 602.748
440.996, 465.999
442.334, 364.248
443.673, 279.881
445.011, 266.188
446.349, 208.811
447.687, 179.959
449.024, 130.526
450.361, 122.682
451.699, 122.799
453.036, 132.037
454.372, 131.496
455.709, 103.460
457.045, 96.896
458.381, 88.302
459.717, 79.100
461.053, 96.023
462.388, 78.338
463.724, 88.621
465.059, 101.875
466.394, 55.057
467.728, 112.166
469.063, 132.207
470.397, 74.182
471.731, 96.091
473.065, 126.938
474.398, 122.723
475.732, 136.846
477.065, 97.108
478.398, 142.711
479.731, 128.256
481.063, 133.745
482.396, 139.178
483.728, 148.557
485.060, 171.899
486.391, 159.261
487.723, 120.581
489.054, 164.997
490.385, 191.256
491.716, 128.596
493.047, 182.087
494.377, 152.360
495.708, 186.058
497.038, 131.219
498.368, 153.677
499.697, 216.262
501.027, 221.291
502.356, 191.612
503.685, 164.601
505.014, 204.750
506.342, 202.745
507.671, 239.828
508.999, 228.623
510.327, 233.658
511.655, 243.188
512.982, 266.455
514.310, 245.493
515.637, 230.748
516.964, 221.650
518.291, 248.007
519.617, 285.391
520.944, 270.567
522.270, 293.179
523.596, 258.728
524.921, 264.725
526.247, 304.428
527.572, 383.806
528.897, 383.958
530.222, 454.413
531.547, 436.441
532.871, 504.945
534.196, 594.110
535.520, 648.385
536.844, 776.575
538.167, 962.372
539.491, 1128.378
540.814, 1463.394
542.137, 1621.693
543.460, 1722.522
544.783, 1672.768
546.105, 1454.380
547.427, 1253.067
548.749, 993.487
550.071, 840.181
551.393, 693.970
552.714, 595.608
554.035, 571.501
555.356, 516.830
556.677, 486.316
557.998, 460.929
559.318, 433.490
560.638, 447.040
561.958, 494.482
563.278, 524.178
564.597, 514.988
565.917, 528.781
567.236, 604.790
568.555, 592.775
569.874, 610.167
571.192, 708.547
572.511, 749.913
573.829, 818.264
575.147, 935.606
576.464, 1060.950
577.782, 1197.285
579.099, 1184.611
580.416, 1241.935
581.733, 1275.257
583.050, 1220.580
584.366, 1256.904
585.683, 1156.429
586.999, 1000.559
588.315, 971.891
589.630, 932.227
590.946, 886.568
592.261, 915.905
593.576, 1000.242
594.891, 1133.579
596.206, 1251.913
597.520, 1450.242
598.834, 1706.568
600.148, 2018.889
601.462, 2258.210
602.776, 2639.506
604.089, 2823.744
605.402, 3067.746
606.715, 3213.627
608.028, 3166.300
609.341, 3241.939
610.653, 2966.572
611.965, 2313.237
613.277, 2009.892
614.589, 1682.419
615.901, 1456.907
617.212, 1185.347
618.523, 1040.737
619.834, 807.186
621.145, 716.549
622.456, 615.944
623.766, 538.384
625.076, 490.618
626.386, 414.079
627.696, 376.615
629.006, 346.899
630.315, 303.265
631.624, 263.751
632.933, 192.211
634.242, 239.722
635.551, 200.059
636.859, 194.579
638.167, 143.032
639.475, 129.500
640.783, 103.985
642.090, 97.502
643.398, 79.111
644.705, 75.728
646.012, 39.042
647.318, 63.602
648.625, 32.265
649.931, 2.660
651.237, 24.268
652.543, 3.254
653.849, 28.649
655.155, 18.305
656.460, 3.890
657.765, 25.773
659.070, 18.547
660.375, 30.014
661.679, 36.625
662.984, 24.103
664.288, 26.613
665.592, 25.460
666.895, 50.538
668.199, 29.047
669.502, 41.579
670.805, 54.141
672.108, 40.739
673.411, 39.365
674.713, 14.046
676.016, 32.714
677.318, 16.404
678.620, 10.108
679.921, 55.821
681.223, 16.567
682.524, 27.326
683.825, 6.102
685.126, 1.622
686.427, 24.673
687.727, 12.523
689.028, 8.283
690.328, 4.096
691.628, 2.914
692.927, 8.737
694.227, 33.433
695.526, 0.603
696.825, 52.229
698.124, 41.090
699.423, 2.026
700.721, 4.859
702.020, 11.252
703.318, 9.363
704.616, 21.474
705.913, 16.271
707.211, 2.300
708.508, 1.812
709.805, 8.076
711.102, 18.967
712.399, 20.135
713.695, 21.238
714.992, 30.343
716.288, 26.450
717.584, 71.559
718.879, 20.670
720.175, 72.782
721.470, 53.896
722.765, 57.010
724.060, 81.125
725.355, 96.240
726.649, 72.354
727.944, 55.466
729.238, 90.578
730.532, 96.688
731.825, 96.798
733.119, 140.907
734.412, 116.016
735.705, 138.124
736.998, 115.231
738.291, 79.339
739.584, 132.445
740.876, 129.552
742.168, 166.658
743.460, 190.764
744.752, 218.870
746.043, 193.976
747.334, 204.082
748.626, 187.188
749.916, 213.293
751.207, 215.960
752.498, 228.506
753.788, 240.612
755.078, 271.719
756.368, 286.831
757.658, 286.943
758.947, 318.056
760.237, 312.174
761.526, 346.299
762.815, 341.436
764.104, 365.577
765.392, 381.738
766.680, 443.908
767.969, 424.087
769.257, 476.278
770.544, 495.480
771.832, 490.687
773.119, 526.910
774.406, 515.144
775.693, 562.134
776.980, 584.644
778.267, 662.910
779.553, 691.190
780.839, 766.476
782.125, 777.775
783.411, 770.080
784.697, 817.405
785.982, 916.743
787.267, 933.088
788.552, 936.438
789.837, 1075.794
791.122, 1080.158
792.406, 1209.528
793.690, 1229.903
794.974, 1426.285
796.258, 1473.678
797.542, 1612.062
798.825, 1766.380
800.108, 1942.701
801.391, 2049.882
802.674, 2362.175
803.957, 2625.351
805.239, 2953.337
806.522, 3439.505
807.804, 3974.211
809.085, 4508.417
810.367, 5173.296
811.649, 6109.015
812.930, 7292.257
814.211, 8731.175
815.492, 10876.391
816.772, 13711.217
818.053, 17836.848
819.333, 22422.340
820.613, 29417.924
821.893, 36011.965
823.173, 41227.375
824.452, 43222.023
825.732, 41115.898
827.011, 36170.645
828.290, 30465.520
829.568, 24761.934
830.847, 20377.271
832.125, 16963.605
833.403, 14360.305
834.681, 12764.280
835.959, 11340.679
837.236, 10766.481
838.514, 9943.490
839.791, 9520.888
841.068, 9066.938
842.345, 8864.467
843.621, 8991.464
844.898, 9358.696
846.174, 10156.007
847.450, 11423.056
848.726, 13300.761
850.001, 15868.290
851.277, 19332.930
852.552, 23428.289
853.827, 27685.922
855.102, 30733.318
856.376, 32531.037
857.651, 31838.768
858.925, 29256.564
860.199, 25694.367
861.473, 20991.988
862.746, 17869.760
864.020, 15437.182
865.293, 12774.103
866.566, 10992.000
867.839, 9359.908
869.112, 7807.831
870.384, 6539.764
871.656, 5353.710
872.928, 4629.667
874.200, 3895.637
875.472, 3340.620
876.744, 2975.615
878.015, 2635.622
879.286, 2479.641
880.557, 2120.674
881.828, 2010.717
883.098, 1821.774
884.369, 1658.844
885.639, 1493.926
886.909, 1346.042
888.178, 1212.369
889.448, 1076.249
890.717, 980.383
891.987, 862.529
893.256, 781.688
894.524, 730.860
895.793, 671.045
897.061, 598.243
898.330, 540.454
899.598, 510.678
900.865, 474.915
902.133, 465.166
903.401, 453.429
904.668, 398.706
905.935, 403.995
907.202, 373.299
908.468, 368.478
909.735, 390.808
911.001, 344.151
912.267, 378.233
913.533, 411.751
914.799, 415.219
916.064, 479.614
917.330, 490.906
918.595, 503.047
919.860, 502.040
921.124, 506.133
922.389, 464.850
923.653, 442.354
924.918, 427.289
926.182, 347.120
927.445, 428.207
928.709, 361.851
929.972, 279.177
931.236, 386.377
932.499, 345.936
933.761, 386.429
935.024, 368.010
936.286, 383.711
937.549, 423.045
938.811, 471.705
940.073, 484.334
941.334, 579.013
942.596, 573.908
943.857, 759.582
945.118, 752.256
946.379, 838.941
947.640, 1008.976
948.900, 1185.684
950.161, 1289.727
951.421, 1580.436
952.681, 1810.178
953.940, 2207.934
955.200, 2531.958
956.459, 3080.016
957.719, 3560.808
958.978, 4070.612
960.236, 4636.432
961.495, 5153.773
962.753, 5257.632
964.012, 5376.505
965.270, 5132.389
966.527, 4886.293
967.785, 4540.217
969.043, 3917.166
970.300, 3546.132
971.557, 3082.503
972.814, 2584.510
974.071, 2278.542
975.327, 1951.595
976.583, 1737.672
977.840, 1399.775
979.095, 1202.901
980.351, 1078.051
981.607, 901.216
982.862, 804.401
984.117, 744.604
985.372, 568.826
986.627, 550.075
987.882, 467.341
989.136, 416.625
990.390, 360.922
991.644, 363.236
992.898, 303.683
994.152, 320.028
995.405, 309.385
996.659, 273.762
997.912, 236.150
999.165, 275.552
1000.417, 226.965
1001.670, 209.398
1002.922, 230.856
1004.174, 139.335
1005.426, 133.825
1006.678, 173.333
1007.930, 143.849
1009.181, 118.376
1010.432, 88.913
1011.683, 84.459
1012.934, 77.020
1014.185, 78.592
1015.435, 84.178
1016.685, 61.781
1017.935, 51.395
1019.185, 77.019
1020.435, 74.651
1021.684, 44.296
1022.934, 78.950
1024.183, 34.621
1025.432, 74.303
1026.680, 34.995
1027.929, 125.700
1029.177, 73.414
1030.425, 52.136
1031.673, 90.870
1032.921, 71.615
1034.169, 91.370
1035.416, 16.133
1036.663, 19.904
1037.911, 38.683
1039.157, 63.469
1040.404, 100.263
1041.650, 79.066
1042.897, 87.647
1044.143, 77.704
1045.389, 56.534
1046.634, 64.371
1047.880, 37.215
1049.125, 35.067
1050.371, 59.926
1051.615, 31.791
1052.860, 14.667
1054.105, 29.550
1055.349, 12.439
1056.593, 58.336
1057.837, 20.762
1059.081, 20.137
1060.325, 27.043
1061.568, 17.045
1062.812, 25.135
1064.055, 42.221
1065.298, 22.663
1066.540, 73.440
1067.783, 19.571
1069.025, 21.703
1070.267, 37.840
1071.509, 24.989
1072.751, 0.855
1073.993, 46.297
1075.234, 25.466
1076.475, 29.642
1077.716, 0.827
1078.957, 33.009
1080.198, 30.202
1081.438, 4.594
1082.679, 34.606
1083.919, 34.181
1085.159, 55.027
1086.398, 30.259
1087.638, 2.498
1088.877, 14.257
1090.116, 3.020
1091.355, 1.214
1092.594, 4.552
1093.833, 38.322
1095.071, 38.094
1096.309, 21.129
1097.547, 63.638
1098.785, 1.591
1100.023, 13.821
1101.260, 23.944
1102.498, 8.711
1103.735, 0.481
1104.972, 0.252
1106.208, 28.022
1107.445, 35.794
1108.681, 27.570
1109.918, 21.651
1111.154, 35.118
1112.389, 51.889
1113.625, 31.666
1114.860, 69.446
1116.096, 35.228
1117.331, 22.012
1118.566, 84.798
1119.800, 0.586
1121.035, 49.371
1122.269, 112.157
1123.503, 210.945
1124.737, 204.734
1125.971, 143.525
1127.205, 94.316
1128.438, 50.108
1129.671, 61.900
1130.904, 50.693
1132.137, 28.486
1133.370, 51.585
1134.602, 56.378
1135.834, 50.171
1137.066, 68.026
1138.298, 52.818
1139.530, 62.478
1140.762, 12.356
1141.993, 56.685
1143.224, 97.507
1144.455, 44.650
1145.686, 97.441
1146.917, 76.313
1148.147, 49.306
1149.377, 65.167
1150.607, 73.457
1151.837, 75.240
1153.067, 108.243
1154.296, 52.068
1155.526, 112.931
1156.755, 87.804
1157.984, 92.700
1159.213, 100.478
1160.441, 103.335
1161.670, 96.293
1162.898, 134.572
1164.126, 78.351
1165.354, 99.332
1166.581, 95.474
1167.809, 49.355
1169.036, 125.867
1170.263, 84.719
1171.490, 73.291
1172.717, 99.982
1173.943, 92.023
1175.170, 116.650
1176.396, 106.805
1177.622, 102.567
1178.848, 77.068
1180.073, 80.633
1181.299, 57.750
1182.524, 77.547
1183.749, 99.289
1184.974, 107.021
1186.199, 115.854
1187.423, 98.631
1188.648, 84.685
1189.872, 92.578
1191.096, 61.263
1192.320, 76.966
1193.543, 78.779
1194.767, 133.438
1195.990, 130.287
1197.213, 114.053
1198.436, 144.696
1199.659, 118.324
1200.881, 92.956
1202.104, 145.793
1203.326, 152.449
1204.548, 128.079
1205.770, 150.863
1206.991, 133.467
1208.213, 152.109
1209.434, 147.977
1210.655, 167.849
1211.876, 169.408
1213.096, 171.940
1214.317, 177.261
1215.537, 177.456
1216.757, 180.008
1217.977, 195.621
1219.197, 170.931
1220.417, 165.441
1221.636, 183.528
1222.855, 137.903
1224.074, 181.032
1225.293, 205.551
1226.512, 195.273
1227.731, 237.126
1228.949, 176.629
1230.167, 164.315
1231.385, 181.817
1232.603, 185.199
1233.820, 161.953
1235.038, 195.387
1236.255, 131.861
1237.472, 190.292
1238.689, 144.518
1239.906, 131.972
1241.122, 167.435
1242.338, 135.894
1243.555, 119.013
1244.771, 148.467
1245.986, 89.594
1247.202, 97.063
1248.417, 111.508
1249.633, 110.950
1250.848, 160.129
1252.063, 100.285
1253.277, 65.718
1254.492, 91.146
1255.706, 99.677
1256.920, 118.775
1258.134, 78.188
1259.348, 49.547
1260.562, 129.948
1261.775, 28.341
1262.988, 82.724
1264.201, 112.102
1265.414, 35.463
1266.627, 130.450
1267.839, 95.794
1269.052, 37.133
1270.264, 89.466
1271.476, 70.788
1272.688, 63.131
1273.899, 85.431
1275.111, 57.722
1276.322, 51.997
1277.533, 73.258
1278.744, 9.494
1279.955, 64.738
1281.165, 39.306
1282.376, 24.154
1283.586, 59.418
1284.796, 2.385
1286.006, 24.026
1287.215, 4.082
1288.425, 29.246
1289.634, 9.572
1290.843, 72.566
1292.052, 24.697
1293.261, 16.821
1294.469, 21.062
1295.678, 5.041
1296.886, 43.135
1298.094, 16.219
1299.302, 4.705
1300.509, 25.360
1301.717, 24.417
1302.924, 22.466
1304.131, 37.508
1305.338, 5.458
1306.545, 16.566
1307.752, 5.582
1308.958, 4.388
1310.164, 16.609
1311.370, 8.944
1312.576, 22.579
1313.782, 0.448
1314.987, 24.515
1316.193, 17.491
1317.398, 3.551
1318.603, 12.375
1319.807, 2.719
1321.012, 7.176
1322.216, 32.078
1323.421, 1.045
1324.625, 2.179
1325.829, 7.835
1327.032, 26.680
1328.236, 30.518
1329.439, 33.872
1330.642, 21.871
1331.845, 26.018
1333.048, 8.809
1334.251, 8.407
1335.453, 39.363
1336.656, 34.127
1337.858, 20.884
1339.060, 64.633
1340.261, 17.375
1341.463, 23.110
1342.664, 57.837
1343.866, 5.443
1345.067, 46.265
1346.267, 15.966
1347.468, 33.659
1348.669, 38.344
1349.869, 33.024
1351.069, 45.699
1352.269, 31.367
1353.469, 41.253
1354.668, 53.678
1355.868, 44.330
1357.067, 40.986
1358.266, 24.635
1359.465, 0.295
1360.664, 29.951
1361.862, 67.606
1363.061, 36.281
1364.259, 75.940
1365.457, 40.594
1366.655, 16.254
1367.852, 15.917
1369.050, 20.581
1370.247, 58.243
1371.444, 67.909
1372.641, 43.581
1373.838, 21.356
1375.035, 39.035
1376.231, 45.776
1377.427, 43.208
1378.623, 49.011
1379.819, 53.185
1381.015, 71.354
1382.211, 80.517
1383.406, 45.679
1384.601, 68.842
1385.796, 84.009
1386.991, 51.170
1388.185, 66.329
1389.380, 45.480
1390.574, 69.636
1391.768, 101.776
1392.962, 89.908
1394.156, 95.034
1395.350, 83.156
1396.543, 53.272
1397.736, 61.382
1398.929, 26.485
1400.122, 19.622
1401.315, 73.121
1402.507, 5.884
1403.700, 60.127
1404.892, 54.407
1406.084, 66.723
1407.276, 57.621
1408.467, 42.734
1409.659, 38.048
1410.850, 78.358
1412.041, 69.043
1413.232, 90.786
1414.423, 53.944
1415.614, 29.795
1416.804, 81.815
1417.994, 81.420
1419.184, 34.532
1420.374, 67.533
1421.564, 61.394
1422.753, 71.932
1423.943, 19.797
1425.132, 73.281
1426.321, 93.688
1427.510, 89.650
1428.698, 16.594
1429.887, 120.737
1431.075, 64.032
1432.263, 21.439
1433.451, 109.417
1434.639, 67.573
1435.827, 39.035
1437.014, 103.502
1438.201, 31.034
1439.388, 51.558
1440.575, 66.929
1441.762, 26.342
1442.949, 82.794
1444.135, 57.940
1445.321, 56.820
1446.507, 86.284
1447.693, 49.507
1448.879, 78.912
1450.064, 86.324
1451.250, 17.712
1452.435, 63.069
1453.620, 72.393
1454.805, 48.684
1455.989, 84.938
1457.174, 58.155
1458.358, 12.333
1459.542, 38.470
1460.726, 61.899
1461.910, 69.675
1463.093, 58.687
1464.277, 13.700
1465.460, 36.700
1466.643, 71.744
1467.826, 2.226
1469.009, 78.743
1470.191, 65.838
1471.373, 48.003
1472.556, 53.089
1473.738, 7.305
1474.919, 31.723
1476.101, 118.873
1477.283, 13.945
1478.464, 97.107
1479.645, 58.248
1480.826, 33.380
1482.007, 66.507
1483.187, 70.629
1484.368, 31.739
1485.548, 52.827
1486.728, 72.795
1487.908, 34.832
1489.088, 78.848
1490.268, 56.667
1491.447, 6.723
1492.626, 110.745
1493.805, 14.850
1494.984, 32.071
1496.163, 84.135
1497.341, 32.989
1498.520, 33.217
1499.698, 58.451
1500.876, 14.689
1502.054, 67.934
1503.232, 48.189
1504.409, 1.470
1505.586, 56.791
1506.763, 11.130
1507.940, 69.579
1509.117, 72.150
1510.294, 25.804
1511.470, 23.544
1512.647, 77.107
1513.823, 74.066
1514.999, 0.810
1516.174, 43.491
1517.350, 2.111
1518.526, 27.706
1519.701, 0.000
##END=



