##NAMES=Forsterite
##RRUFFID=R040057
##IDEAL CHEMISTRY=Mg_2_SiO_4_
##LOCALITY=Trudy's mine, San Carlos, Gila County, Arizona, USA
##OWNER=RRUFF
##SOURCE=Bob Downs
##DESCRIPTION=Dark green crystal fragments from xenoliths in a basalt flow
##STATUS=The identification of this mineral has been confirmed by X-ray diffraction and chemical analysis
##URL=rruff.info/R040057
##MEASURED CHEMISTRY=(Mg_1.67_Fe_0.32_Ni_0.01_)_Î£=2_Si_1.00_O_4_; trace amounts of Mn and Ca
##PIN_ID=L00083
##ORIENTATION=Laser parallel to c* (0 0 1). Fiducial mark perpendicular to laser is parallel to b [0 1 0]
91.981, 0.000
93.375, 0.070
94.768, 40.413
96.161, 3.847
97.554, 21.063
98.947, 61.894
100.340, 1.767
101.732, 3.955
103.124, 25.959
104.516, 56.224
105.908, 88.799
107.300, 105.601
108.691, 59.553
110.082, 14.603
111.473, 52.720
112.864, 76.883
114.254, 181.078
115.644, 298.387
117.034, 304.370
118.424, 236.426
119.813, 93.484
121.203, 106.534
122.592, 96.493
123.981, 53.376
125.369, 64.198
126.758, 28.967
128.146, 48.695
129.534, 76.386
130.922, 57.046
132.309, 51.679
133.696, 10.286
135.083, 52.871
136.470, 97.435
137.857, 144.981
139.243, 122.417
140.630, 136.673
142.016, 139.054
143.401, 156.571
144.787, 159.881
146.172, 188.128
147.557, 220.110
148.942, 184.249
150.327, 222.420
151.711, 167.621
153.096, 226.848
154.480, 224.098
155.863, 215.369
157.247, 222.658
158.630, 193.962
160.013, 225.284
161.396, 191.636
162.779, 209.007
164.161, 133.390
165.544, 179.780
166.926, 148.181
168.308, 152.584
169.689, 151.988
171.070, 172.393
172.452, 165.796
173.833, 142.199
175.213, 151.601
176.594, 144.002
177.974, 136.402
179.354, 97.804
180.734, 68.206
182.114, 33.611
183.493, 31.017
184.872, 3.573
186.251, 14.526
187.630, 16.094
189.008, 33.228
190.387, 15.669
191.765, 5.997
193.143, 7.237
194.520, 3.401
195.898, 3.719
197.275, 15.493
198.652, 15.493
200.029, 13.494
201.405, 16.485
202.782, 23.532
204.158, 49.447
205.534, 69.414
206.909, 44.368
208.285, 49.306
209.660, 120.231
211.035, 205.143
212.410, 195.039
213.784, 242.920
215.159, 241.786
216.533, 326.639
217.907, 310.477
219.281, 357.303
220.654, 370.115
222.027, 407.907
223.400, 346.664
224.773, 383.391
226.146, 387.268
227.518, 404.328
228.891, 406.582
230.263, 445.697
231.634, 457.630
233.006, 417.504
234.377, 483.309
235.748, 460.038
237.119, 446.693
238.490, 470.401
239.860, 441.328
241.231, 418.948
242.601, 368.513
243.970, 328.069
245.340, 330.615
246.709, 253.151
248.079, 264.677
249.448, 215.192
250.816, 254.697
252.185, 207.190
253.553, 167.672
254.921, 151.143
256.289, 159.603
257.657, 187.276
259.024, 162.643
260.391, 148.179
261.758, 172.699
263.125, 163.255
264.492, 196.822
265.858, 171.354
267.224, 169.934
268.590, 232.518
269.956, 197.106
271.321, 234.695
272.687, 242.285
274.052, 250.874
275.416, 314.462
276.781, 301.156
278.146, 330.880
279.510, 418.964
280.874, 505.028
282.237, 518.056
283.601, 613.789
284.964, 787.660
286.327, 979.196
287.690, 1179.397
289.053, 1430.573
290.416, 1905.530
291.778, 2355.589
293.140, 2873.997
294.502, 3345.759
295.863, 3949.885
297.225, 4419.992
298.586, 4647.393
299.947, 4598.904
301.308, 4318.780
302.668, 3971.520
304.029, 3525.784
305.389, 3145.855
306.749, 2654.837
308.108, 2407.440
309.468, 2128.273
310.827, 1953.812
312.186, 1855.795
313.545, 1855.771
314.903, 1760.485
316.262, 1715.073
317.620, 1662.605
318.978, 1587.115
320.336, 1511.575
321.693, 1391.029
323.051, 1177.472
324.408, 1005.936
325.765, 863.384
327.121, 763.940
328.478, 637.289
329.834, 528.681
331.190, 480.945
332.546, 369.304
333.902, 379.755
335.257, 334.997
336.612, 250.399
337.967, 232.818
339.322, 221.041
340.677, 151.409
342.031, 136.730
343.385, 154.146
344.739, 177.481
346.093, 149.729
347.446, 100.007
348.799, 135.105
350.153, 131.705
351.505, 104.305
352.858, 121.822
354.210, 109.354
355.563, 126.408
356.915, 120.418
358.267, 65.580
359.618, 74.844
360.969, 51.286
362.321, 71.469
363.672, 32.769
365.022, 52.115
366.373, 57.312
367.723, 84.895
369.073, 58.264
370.423, 97.557
371.773, 56.922
373.122, 65.343
374.471, 115.689
375.821, 79.950
377.169, 109.259
378.518, 112.881
379.866, 94.765
381.215, 111.001
382.563, 82.225
383.910, 57.437
385.258, 82.635
386.605, 133.821
387.952, 97.995
389.299, 128.156
390.646, 127.303
391.992, 173.436
393.339, 187.554
394.685, 208.660
396.031, 242.752
397.376, 318.832
398.722, 409.898
400.067, 510.260
401.412, 604.994
402.757, 790.022
404.101, 957.037
405.446, 1173.040
406.790, 1439.031
408.134, 1675.009
409.478, 1873.975
410.821, 1951.928
412.165, 1857.868
413.508, 1674.796
414.851, 1499.712
416.193, 1252.615
417.536, 1036.505
418.878, 894.382
420.220, 796.247
421.562, 681.098
422.904, 644.937
424.245, 609.762
425.586, 492.574
426.927, 446.373
428.268, 369.158
429.609, 288.930
430.949, 290.688
432.289, 248.432
433.629, 145.162
434.969, 135.878
436.309, 120.580
437.648, 94.268
438.987, 86.941
440.326, 39.598
441.665, 41.237
443.003, 43.857
444.342, 23.541
445.680, 7.019
447.018, 4.448
448.355, 30.947
449.693, 46.492
451.030, 27.092
452.367, 28.736
453.704, 18.426
455.041, 8.156
456.377, 45.920
457.713, 29.739
459.049, 18.604
460.385, 4.510
461.721, 6.008
463.056, 8.414
464.391, 23.586
465.726, 30.563
467.061, 34.520
468.395, 68.457
469.730, 43.378
471.064, 79.281
472.398, 31.168
473.731, 31.034
475.065, 48.881
476.398, 62.710
477.731, 68.522
479.064, 72.319
480.397, 82.099
481.729, 81.698
483.062, 82.612
484.394, 75.345
485.725, 77.062
487.057, 57.764
488.389, 96.448
489.720, 84.118
491.051, 120.772
492.382, 87.412
493.712, 64.038
495.043, 113.646
496.373, 70.240
497.703, 63.818
499.032, 116.157
500.362, 74.078
501.691, 86.216
503.020, 68.261
504.349, 90.459
505.678, 131.821
507.007, 111.526
508.335, 135.931
509.663, 119.475
510.991, 104.998
512.319, 109.293
513.646, 139.068
514.973, 159.948
516.300, 145.416
517.627, 161.049
518.954, 170.117
520.280, 154.210
521.607, 181.172
522.933, 170.674
524.259, 149.104
525.584, 119.963
526.910, 102.169
528.235, 142.897
529.560, 169.567
530.885, 143.236
532.209, 126.217
533.534, 141.984
534.858, 172.115
536.182, 146.538
537.506, 166.617
538.829, 215.272
540.152, 202.291
541.476, 188.332
542.799, 217.258
544.121, 221.060
545.444, 266.948
546.766, 231.919
548.088, 249.833
549.410, 244.769
550.732, 241.688
552.053, 242.589
553.375, 252.750
554.696, 241.340
556.017, 276.189
557.337, 287.022
558.658, 288.838
559.978, 281.637
561.298, 337.420
562.618, 335.185
563.938, 377.934
565.257, 402.667
566.576, 413.383
567.895, 460.082
569.214, 498.977
570.533, 547.433
571.851, 608.083
573.170, 662.719
574.488, 732.338
575.805, 788.941
577.123, 851.528
578.440, 987.100
579.758, 1077.588
581.075, 1163.197
582.391, 1313.723
583.708, 1456.233
585.024, 1675.378
586.341, 1928.208
587.657, 2223.672
588.972, 2611.123
590.288, 3015.557
591.603, 3477.978
592.918, 4130.383
594.233, 4753.774
595.548, 5432.152
596.863, 5996.408
598.177, 6574.618
599.491, 7098.453
600.805, 7308.291
602.119, 7321.146
603.432, 7148.276
604.746, 6779.249
606.059, 6255.537
607.372, 5610.142
608.685, 5004.754
609.997, 4309.566
611.309, 3708.259
612.621, 3214.584
613.933, 2805.541
615.245, 2337.116
616.557, 2044.695
617.868, 1779.963
619.179, 1576.106
620.490, 1296.870
621.801, 1161.752
623.111, 952.083
624.421, 851.553
625.731, 737.085
627.041, 689.976
628.351, 561.625
629.660, 488.553
630.970, 490.008
632.279, 389.458
633.588, 322.157
634.896, 282.970
636.205, 287.825
637.513, 248.691
638.821, 201.593
640.129, 158.488
641.437, 107.383
642.744, 127.243
644.051, 137.107
645.358, 102.850
646.665, 81.787
647.972, 92.669
649.278, 27.667
650.584, 21.556
651.890, 66.342
653.196, 42.325
654.502, 59.135
655.807, 2.084
657.113, 3.877
658.418, 16.321
659.722, 47.493
661.027, 34.787
662.331, 86.024
663.636, 3.789
664.940, 72.442
666.244, 27.684
667.547, 75.974
668.851, 25.391
670.154, 33.815
671.457, 84.173
672.760, 62.581
674.062, 98.028
675.365, 52.532
676.667, 37.068
677.969, 77.628
679.271, 22.232
680.572, 57.850
681.874, 14.533
683.175, 21.349
684.476, 29.295
685.777, 13.048
687.077, 45.741
688.378, 11.470
689.678, 17.386
690.978, 12.817
692.278, 30.907
693.577, 57.698
694.877, 15.462
696.176, 9.769
697.475, 25.001
698.774, 35.235
700.072, 77.470
701.371, 36.709
702.669, 18.950
703.967, 58.193
705.265, 133.439
706.562, 135.687
707.860, 45.939
709.157, 138.193
710.454, 67.451
711.751, 149.711
713.047, 78.976
714.344, 119.244
715.640, 85.516
716.936, 142.793
718.232, 150.073
719.527, 174.359
720.823, 166.648
722.118, 187.943
723.413, 206.243
724.708, 146.548
726.002, 238.858
727.297, 168.174
728.591, 217.495
729.885, 244.823
731.179, 266.157
732.472, 293.497
733.766, 239.843
735.059, 251.197
736.352, 221.557
737.645, 275.924
738.937, 327.298
740.230, 285.680
741.522, 325.070
742.814, 390.466
744.106, 393.871
745.397, 399.284
746.689, 380.706
747.980, 481.135
749.271, 455.574
750.562, 524.021
751.853, 513.477
753.143, 516.943
754.433, 581.421
755.723, 562.911
757.013, 624.413
758.303, 633.927
759.592, 639.474
760.881, 694.038
762.170, 735.626
763.459, 805.249
764.748, 767.905
766.036, 900.593
767.325, 811.333
768.613, 916.112
769.901, 990.917
771.188, 956.781
772.476, 1090.690
773.763, 1021.627
775.050, 1085.598
776.337, 1161.592
777.624, 1175.612
778.910, 1247.664
780.196, 1336.730
781.482, 1403.827
782.768, 1412.939
784.054, 1580.078
785.339, 1584.235
786.625, 1601.409
787.910, 1862.599
789.195, 1935.804
790.479, 2082.023
791.764, 2151.256
793.048, 2396.505
794.332, 2577.768
795.616, 2756.049
796.900, 3029.349
798.183, 3268.669
799.467, 3706.018
800.750, 4093.397
802.033, 4489.801
803.316, 5353.223
804.598, 5851.665
805.880, 6836.122
807.163, 7922.595
808.445, 9124.083
809.726, 10933.593
811.008, 13171.352
812.289, 15948.540
813.570, 19998.514
814.851, 25011.580
816.132, 31427.498
817.413, 38999.250
818.693, 46781.668
819.973, 52364.383
821.253, 54860.977
822.533, 53941.598
823.813, 48087.453
825.092, 42065.820
826.371, 35682.098
827.650, 29935.793
828.929, 25770.318
830.208, 21927.775
831.486, 19046.264
832.764, 17355.273
834.042, 16047.832
835.320, 15223.223
836.598, 15089.344
837.875, 15023.154
839.152, 15233.559
840.429, 16367.910
841.706, 17338.422
842.983, 19342.457
844.259, 22168.748
845.536, 25472.826
846.812, 30258.516
848.088, 35712.652
849.363, 41690.215
850.639, 47765.379
851.914, 51511.570
853.189, 52942.777
854.464, 52955.004
855.739, 49471.254
857.013, 43792.531
858.288, 37568.824
859.562, 32193.135
860.836, 27596.480
862.110, 22649.834
863.383, 18732.221
864.656, 15488.630
865.930, 12950.057
867.203, 11005.504
868.475, 9401.979
869.748, 7874.471
871.020, 6920.986
872.292, 5994.525
873.564, 5202.084
874.836, 4556.667
876.108, 3957.272
877.379, 3664.899
878.650, 3264.549
879.922, 2932.219
881.192, 2532.913
882.463, 2396.629
883.733, 2122.367
885.004, 1890.128
886.274, 1696.910
887.544, 1560.715
888.813, 1337.542
890.083, 1194.391
891.352, 1183.263
892.621, 942.156
893.890, 936.072
895.159, 827.010
896.427, 778.970
897.695, 782.952
898.964, 703.956
900.232, 615.982
901.499, 609.031
902.767, 625.101
904.034, 522.194
905.301, 550.308
906.568, 506.865
907.835, 487.053
909.102, 467.233
910.368, 476.509
911.634, 532.515
912.900, 467.909
914.166, 537.164
915.432, 403.138
916.697, 402.098
917.962, 443.422
919.227, 446.921
920.492, 422.360
921.757, 390.812
923.021, 425.731
924.285, 387.030
925.550, 436.023
926.813, 423.540
928.077, 466.873
929.341, 457.161
930.604, 449.168
931.867, 571.706
933.130, 580.686
934.393, 634.482
935.655, 654.684
936.918, 784.275
938.180, 854.099
939.442, 987.739
940.703, 1142.396
941.965, 1305.068
943.226, 1519.758
944.488, 1734.471
945.749, 2130.320
947.009, 2383.668
948.270, 2831.182
949.530, 3208.530
950.791, 3814.216
952.051, 4295.050
953.311, 5239.671
954.570, 5351.710
955.830, 5739.917
957.089, 5958.904
958.348, 6032.777
959.607, 6091.887
960.866, 5880.622
962.124, 5618.135
963.383, 5504.127
964.641, 5088.156
965.899, 4721.822
967.156, 4279.226
968.414, 3801.251
969.671, 3488.752
970.928, 3132.517
972.185, 2823.633
973.442, 2403.771
974.699, 2169.945
975.955, 1901.141
977.211, 1724.360
978.468, 1563.615
979.723, 1385.900
980.979, 1264.858
982.234, 1217.124
983.490, 1061.499
984.745, 980.181
986.000, 949.722
987.254, 812.176
988.509, 885.781
989.763, 785.267
991.017, 708.771
992.271, 751.295
993.525, 654.836
994.779, 602.388
996.032, 603.955
997.285, 560.532
998.538, 502.134
999.791, 441.760
1001.044, 411.400
1002.296, 424.048
1003.548, 348.708
1004.800, 345.390
1006.052, 358.081
1007.304, 324.779
1008.555, 325.006
1009.807, 281.206
1011.058, 289.931
1012.309, 271.673
1013.559, 234.544
1014.810, 240.302
1016.060, 264.069
1017.310, 263.848
1018.560, 229.654
1019.810, 208.453
1021.060, 225.271
1022.309, 192.095
1023.558, 203.628
1024.807, 191.764
1026.056, 239.610
1027.305, 213.463
1028.553, 219.178
1029.801, 165.188
1031.049, 207.061
1032.297, 205.939
1033.545, 204.827
1034.793, 172.715
1036.040, 162.609
1037.287, 160.514
1038.534, 125.425
1039.781, 150.340
1041.027, 132.664
1042.274, 83.183
1043.520, 110.111
1044.766, 73.042
1046.012, 28.977
1047.257, 3.923
1048.503, 43.875
1049.748, 20.835
1050.993, 21.799
1052.238, 14.766
1053.483, 13.734
1054.727, 34.706
1055.971, 15.320
1057.216, 0.349
1058.459, 13.628
1059.703, 2.858
1060.947, 40.415
1062.190, 5.452
1063.433, 24.491
1064.676, 36.540
1065.919, 16.603
1067.162, 22.673
1068.404, 105.752
1069.646, 55.884
1070.888, 22.041
1072.130, 109.208
1073.372, 66.433
1074.613, 10.694
1075.855, 51.960
1077.096, 15.255
1078.337, 13.560
1079.578, 56.874
1080.818, 7.779
1082.059, 54.570
1083.299, 0.950
1084.539, 40.336
1085.779, 13.747
1087.018, 0.830
1088.258, 11.402
1089.497, 22.438
1090.736, 15.538
1091.975, 11.103
1093.213, 8.665
1094.452, 5.349
1095.690, 2.913
1096.928, 4.681
1098.166, 17.149
1099.404, 37.635
1100.642, 39.152
1101.879, 34.968
1103.116, 7.726
1104.353, 10.857
1105.590, 11.261
1106.827, 25.938
1108.063, 10.329
1109.299, 0.288
1110.536, 27.918
1111.771, 18.780
1113.007, 17.743
1114.243, 4.055
1115.478, 10.355
1116.713, 40.646
1117.948, 10.932
1119.183, 25.793
1120.418, 69.481
1121.652, 161.722
1122.886, 141.016
1124.120, 172.305
1125.354, 47.526
1126.588, 86.741
1127.821, 87.948
1129.055, 14.148
1130.288, 89.413
1131.521, 97.676
1132.753, 23.852
1133.986, 31.095
1135.218, 47.259
1136.450, 5.458
1137.682, 55.582
1138.914, 54.702
1140.146, 44.844
1141.377, 79.983
1142.609, 93.157
1143.840, 113.485
1145.071, 159.777
1146.301, 72.649
1147.532, 101.865
1148.762, 75.907
1149.992, 122.015
1151.222, 135.648
1152.452, 99.521
1153.682, 118.643
1154.911, 148.633
1156.140, 89.967
1157.369, 106.936
1158.598, 122.967
1159.827, 83.988
1161.055, 54.049
1162.284, 141.980
1163.512, 137.220
1164.740, 133.188
1165.967, 71.078
1167.195, 122.397
1168.422, 124.118
1169.650, 141.972
1170.877, 149.816
1172.103, 137.029
1173.330, 104.049
1174.557, 113.021
1175.783, 94.920
1177.009, 91.336
1178.235, 130.226
1179.461, 155.983
1180.686, 89.740
1181.912, 153.554
1183.137, 103.443
1184.362, 128.833
1185.587, 108.688
1186.811, 170.526
1188.036, 164.193
1189.260, 179.849
1190.484, 181.626
1191.708, 177.022
1192.932, 202.038
1194.155, 173.340
1195.378, 177.667
1196.602, 186.673
1197.825, 251.317
1199.047, 237.865
1200.270, 235.399
1201.492, 299.221
1202.715, 197.728
1203.937, 273.877
1205.159, 340.493
1206.380, 291.958
1207.602, 216.336
1208.823, 246.991
1210.044, 282.266
1211.265, 335.762
1212.486, 257.521
1213.707, 267.312
1214.927, 312.064
1216.147, 274.271
1217.367, 293.123
1218.587, 313.390
1219.807, 295.198
1221.027, 257.632
1222.246, 206.500
1223.465, 278.730
1224.684, 308.150
1225.903, 272.620
1227.121, 218.378
1228.340, 236.611
1229.558, 282.410
1230.776, 267.399
1231.994, 285.126
1233.212, 287.331
1234.429, 227.309
1235.646, 227.475
1236.864, 264.719
1238.081, 208.864
1239.297, 206.999
1240.514, 265.117
1241.730, 302.104
1242.947, 221.598
1244.163, 172.934
1245.378, 211.440
1246.594, 185.614
1247.810, 124.647
1249.025, 210.899
1250.240, 152.738
1251.455, 175.416
1252.670, 179.378
1253.885, 149.398
1255.099, 126.188
1256.313, 125.358
1257.527, 191.752
1258.741, 149.678
1259.955, 86.574
1261.168, 153.847
1262.382, 117.401
1263.595, 164.345
1264.808, 100.836
1266.021, 61.105
1267.233, 67.994
1268.446, 53.872
1269.658, 53.751
1270.870, 85.597
1272.082, 92.434
1273.294, 78.252
1274.505, 100.054
1275.716, 50.284
1276.928, 49.073
1278.139, 67.825
1279.349, 49.288
1280.560, 65.901
1281.770, 55.620
1282.981, 69.024
1284.191, 66.830
1285.401, 59.571
1286.610, 58.203
1287.820, 47.846
1289.029, 28.465
1290.239, 30.527
1291.448, 12.332
1292.656, 36.245
1293.865, 67.804
1295.073, 49.353
1296.282, 8.892
1297.490, 29.583
1298.698, 40.918
1299.906, 91.405
1301.113, 19.882
1302.320, 100.347
1303.528, 49.803
1304.735, 17.751
1305.942, 39.677
1307.148, 64.972
1308.355, 20.379
1309.561, 2.226
1310.767, 70.156
1311.973, 8.492
1313.179, 31.136
1314.384, 85.197
1315.590, 108.521
1316.795, 30.834
1318.000, 14.137
1319.205, 32.428
1320.410, 39.709
1321.614, 3.979
1322.819, 37.234
1324.023, 77.480
1325.227, 60.717
1326.431, 43.938
1327.634, 30.154
1328.838, 14.639
1330.041, 30.551
1331.244, 30.732
1332.447, 85.904
1333.650, 90.891
1334.852, 32.224
1336.055, 94.371
1337.257, 27.847
1338.459, 16.356
1339.661, 1.239
1340.862, 12.131
1342.064, 34.964
1343.265, 69.052
1344.466, 97.134
1345.667, 13.209
1346.868, 97.278
1348.068, 39.341
1349.269, 9.600
1350.469, 127.450
1351.669, 76.495
1352.869, 59.535
1354.069, 111.580
1355.268, 37.622
1356.468, 43.666
1357.667, 40.881
1358.866, 4.761
1360.065, 109.981
1361.263, 1.942
1362.462, 89.144
1363.660, 158.235
1364.858, 123.354
1366.056, 25.537
1367.254, 110.678
1368.451, 101.837
1369.649, 144.993
1370.846, 101.157
1372.043, 106.341
1373.240, 87.111
1374.436, 143.446
1375.633, 22.663
1376.829, 105.781
1378.025, 74.799
1379.221, 109.722
1380.417, 30.171
1381.613, 100.605
1382.808, 114.027
1384.003, 99.446
1385.199, 113.885
1386.393, 94.366
1387.588, 98.218
1388.783, 87.346
1389.977, 98.830
1391.171, 111.343
1392.365, 115.860
1393.559, 139.376
1394.753, 59.869
1395.946, 36.328
1397.140, 61.776
1398.333, 83.285
1399.526, 127.700
1400.719, 131.097
1401.911, 124.999
1403.104, 66.910
1404.296, 78.356
1405.488, 96.691
1406.680, 61.590
1407.872, 84.339
1409.063, 39.934
1410.255, 91.931
1411.446, 52.160
1412.637, 42.077
1413.828, 103.613
1415.018, 77.773
1416.209, 75.225
1417.399, 39.563
1418.589, 99.903
1419.779, 29.881
1420.969, 91.308
1422.159, 68.466
1423.348, 64.493
1424.537, 105.549
1425.726, 106.989
1426.915, 99.667
1428.104, 78.813
1429.293, 76.748
1430.481, 113.971
1431.669, 110.670
1432.857, 117.560
1434.045, 68.121
1435.233, 157.035
1436.420, 151.123
1437.608, 59.130
1438.795, 156.006
1439.982, 142.818
1441.169, 103.140
1442.355, 95.082
1443.542, 91.038
1444.728, 127.760
1445.914, 144.695
1447.100, 139.621
1448.286, 154.525
1449.472, 132.144
1450.657, 146.459
1451.842, 107.703
1453.027, 144.540
1454.212, 154.351
1455.397, 119.136
1456.581, 161.892
1457.766, 199.616
1458.950, 140.171
1460.134, 174.828
1461.318, 113.450
1462.501, 131.037
1463.685, 156.587
1464.868, 129.136
1466.051, 149.627
1467.234, 108.202
1468.417, 140.841
1469.600, 110.518
1470.782, 130.215
1471.965, 92.992
1473.147, 161.764
1474.329, 142.591
1475.510, 117.407
1476.692, 81.335
1477.873, 121.313
1479.055, 28.323
1480.236, 105.360
1481.416, 121.413
1482.597, 157.513
1483.778, 34.626
1484.958, 100.747
1486.138, 98.887
1487.318, 224.049
1488.498, 55.231
1489.678, 90.441
1490.857, 94.691
1492.037, 118.988
1493.216, 86.342
1494.395, 98.763
1495.574, 122.252
1496.752, 24.809
1497.931, 78.437
1499.109, 4.860
1500.287, 42.915
1501.465, 124.767
1502.643, 247.704
1503.820, 153.724
1504.998, 104.878
1506.175, 30.147
1507.352, 11.560
1508.529, 75.131
1509.706, 25.879
1510.882, 130.498
1512.059, 94.369
1513.235, 66.422
1514.411, 3.304
1515.587, 12.867
1516.762, 50.708
1517.938, 42.066
1519.113, 49.426
1520.288, 0.000
##END=



