##NAMES=Forsterite
##RRUFFID=R060535
##IDEAL CHEMISTRY=Mg_2_SiO_4_
##LOCALITY=unknown
##OWNER=RRUFF
##SOURCE=Gemological Institute of America
##DESCRIPTION=Transparent brown gemstone
##STATUS=The identification of this mineral has been confirmed by X-ray diffraction and chemical analysis
##URL=rruff.info/R060535
##MEASURED CHEMISTRY=(Mg_1.81_Fe_0.18_Ni_0.01_)_Î£=2_Si_1.00_O_4_
##PIN_ID=L01269
##ORIENTATION=Laser parallel to a* (1 0 0). Fiducial mark perpendicular to laser is parallel to b [0 1 0]
208.8360, 0.0000000E+00
210.0610, 32.36407
211.2860, 26.03021
212.5100, 92.48688
213.7350, 118.0247
214.9590, 135.8177
216.1830, 193.8124
217.4070, 232.3939
218.6310, 252.0196
219.8540, 310.1764
221.0780, 353.2985
222.3010, 352.8400
223.5240, 315.2154
224.7470, 289.3483
225.9690, 260.2211
227.1920, 259.8573
228.4140, 219.6213
229.6360, 197.2107
230.8580, 225.0295
232.0800, 189.5483
233.3020, 149.7880
234.5230, 137.0426
235.7440, 117.3378
236.9650, 141.4477
238.1860, 92.71924
239.4070, 98.44409
240.6280, 83.36987
241.8480, 51.18628
243.0680, 61.92242
244.2880, 7.484741
245.5080, 30.05444
246.7280, 33.61218
247.9470, 2.187927
249.1660, 10.21851
250.3860, 5.607971
251.6040, 16.01843
252.8230, 24.32220
254.0420, 0.5134280
255.2600, 7.507935
256.4790, 1.815796
257.6970, 20.13397
258.9150, 97.41370
260.1320, 97.65601
261.3500, 45.86371
262.5670, 11.96094
263.7840, 8.815308
265.0010, 26.30298
266.2180, 25.39655
267.4350, 7.466980
268.6510, 12.48358
269.8680, 15.55432
271.0840, 14.58124
272.3000, 0.4070430
273.5160, 4.409668
274.7310, 4.428772
275.9470, 35.53674
277.1620, 12.48761
278.3770, 21.42444
279.5920, 44.34821
280.8070, 34.25922
282.0210, 44.16187
283.2360, 31.07123
284.4500, 71.99066
285.6640, 50.92047
286.8780, 34.85999
288.0920, 80.80774
289.3050, 107.7623
290.5180, 118.7222
291.7320, 121.6857
292.9450, 147.6505
294.1570, 164.6146
295.3700, 193.8790
296.5830, 242.4540
297.7950, 306.6305
299.0070, 345.1885
300.2190, 408.5007
301.4310, 381.2265
302.6420, 349.9581
303.8540, 345.9085
305.0650, 354.7076
306.2760, 318.3956
307.4870, 332.9702
308.6980, 294.5464
309.9080, 308.1141
311.1190, 297.6890
312.3290, 323.2581
313.5390, 373.8324
314.7490, 342.4030
315.9580, 381.9771
317.1680, 343.5577
318.3770, 346.1449
319.5860, 403.7382
320.7950, 394.3373
322.0040, 403.9419
323.2130, 460.5516
324.4210, 475.1661
325.6290, 496.4811
326.8380, 516.4080
328.0460, 517.0338
329.2530, 522.7977
330.4610, 503.9088
331.6680, 470.5746
332.8760, 488.3757
334.0830, 431.9984
335.2890, 452.7188
336.4960, 456.4390
337.7030, 374.0613
338.9090, 406.6838
340.1150, 342.3064
341.3210, 272.9291
342.5270, 233.5516
343.7330, 207.1739
344.9380, 158.7955
346.1440, 131.4167
347.3490, 128.0372
348.5540, 121.6569
349.7590, 88.27570
350.9630, 120.8934
352.1680, 67.51013
353.3720, 76.12622
354.5760, 73.21002
355.7800, 82.41309
356.9840, 78.66962
358.1870, 76.95172
359.3910, 108.2448
360.5940, 149.5394
361.7970, 155.8273
363.0000, 158.1109
364.2030, 239.3784
365.4050, 211.6283
366.6080, 270.8547
367.8100, 306.0690
369.0120, 338.2626
370.2140, 315.4375
371.4150, 287.5952
372.6170, 240.7163
373.8180, 223.8183
375.0190, 168.8671
376.2200, 120.8722
377.4210, 91.86328
378.6220, 73.85498
379.8220, 61.84375
381.0230, 12.81738
382.2230, 43.78326
383.4230, 2.750732
384.6220, 20.29797
385.8220, 11.65112
387.0220, 4.415771
388.2210, 5.474548
389.4200, 5.356140
390.6190, 13.41010
391.8180, 17.46313
393.0160, 26.70551
394.2150, 47.69861
395.4130, 9.393433
396.6110, 23.49481
397.8090, 6.668701
399.0060, 19.33948
400.2040, 31.19635
401.4010, 23.98663
402.5980, 89.91016
403.7950, 85.84998
404.9920, 118.7921
406.1890, 119.7305
407.3860, 153.6933
408.5820, 91.85529
409.7780, 93.79303
410.9740, 98.72742
412.1700, 85.57721
413.3650, 79.51007
414.5610, 73.39941
415.7560, 68.28455
416.9510, 80.97815
418.1460, 112.4208
419.3410, 124.8688
420.5360, 156.7939
421.7300, 198.6608
422.9240, 223.5621
424.1180, 246.4779
425.3120, 274.3909
426.5060, 315.3007
427.7000, 357.2074
428.8930, 390.1109
430.0860, 369.0112
431.2790, 372.9082
432.4720, 319.8018
433.6650, 248.6918
434.8580, 225.5782
436.0500, 182.4611
437.2420, 151.3403
438.4340, 137.2158
439.6260, 109.5904
440.8180, 84.94995
442.0090, 79.79578
443.2010, 64.62598
444.3920, 58.43713
445.5830, 47.21930
446.7740, 23.96820
447.9640, 39.69971
449.1550, 32.42767
450.3450, 3.152649
451.5350, 36.87347
452.7250, 50.59180
453.9150, 20.30768
455.1050, 37.02051
456.2940, 46.73065
457.4830, 46.43829
458.6720, 32.14331
459.8610, 38.84546
461.0500, 26.54474
462.2390, 44.24097
463.4270, 89.93427
464.6150, 59.62476
465.8040, 95.31238
466.9910, 70.99683
468.1790, 71.67834
469.3670, 63.35675
470.5540, 93.03204
471.7410, 81.70410
472.9280, 55.37225
474.1150, 120.0349
475.3020, 104.6942
476.4890, 85.34918
477.6750, 113.0010
478.8610, 120.6489
480.0470, 157.2930
481.2330, 142.9337
482.4190, 104.5709
483.6040, 143.2045
484.7900, 165.8347
485.9750, 110.4612
487.1600, 131.0844
488.3450, 160.7037
489.5290, 144.3195
490.7140, 163.9316
491.8980, 161.5400
493.0820, 191.1830
494.2660, 134.8290
495.4500, 171.4263
496.6340, 156.0989
497.8170, 174.7143
499.0010, 130.4493
500.1840, 136.3491
501.3670, 145.3548
502.5500, 160.8011
503.7320, 164.6704
504.9150, 154.8624
506.0970, 144.5067
507.2790, 157.3796
508.4610, 167.9928
509.6430, 203.6157
510.8250, 174.1276
512.0060, 187.4019
513.1870, 151.6622
514.3680, 178.9087
515.5490, 171.4357
516.7300, 166.8695
517.9110, 190.4399
519.0910, 215.9386
520.2710, 224.2617
521.4510, 254.9949
522.6310, 293.6508
523.8110, 309.8765
524.9910, 320.3380
526.1700, 340.3226
527.3490, 369.8386
528.5280, 392.1314
529.7070, 388.6592
530.8860, 462.7437
532.0650, 505.6234
533.2430, 591.2531
534.4210, 649.0380
535.5990, 725.7859
536.7770, 824.7577
537.9550, 909.8496
539.1320, 1002.811
540.3100, 1055.946
541.4870, 1114.352
542.6640, 1039.073
543.8410, 972.0370
545.0170, 809.9628
546.1940, 698.5935
547.3700, 580.9072
548.5470, 471.4431
549.7230, 430.5596
550.8980, 366.8573
552.0740, 351.1470
553.2500, 314.7550
554.4250, 291.0291
555.6000, 254.3024
556.7750, 281.1499
557.9500, 219.4273
559.1250, 246.6750
560.2990, 258.2686
561.4730, 258.5045
562.6480, 274.7323
563.8220, 256.9523
564.9950, 278.1640
566.1690, 295.3677
567.3430, 309.5632
568.5160, 300.7506
569.6890, 333.9299
570.8620, 377.1010
572.0350, 385.2640
573.2070, 429.4191
574.3800, 456.5090
575.5520, 442.7048
576.7240, 506.8356
577.8960, 567.9585
579.0680, 570.0732
580.2400, 658.1800
581.4110, 738.2789
582.5830, 760.3699
583.7540, 831.4531
584.9250, 932.5283
586.0950, 996.5961
587.2660, 1062.656
588.4370, 1040.619
589.6070, 1078.641
590.7770, 975.6241
591.9470, 927.3026
593.1170, 807.2900
594.2860, 738.3065
595.4560, 623.1993
596.6250, 548.1656
597.7940, 514.1606
598.9630, 472.1484
600.1320, 510.0726
601.3000, 459.0179
602.4690, 461.9045
603.6370, 449.8583
604.8050, 439.8110
605.9730, 454.7566
607.1410, 434.6954
608.3090, 422.6275
609.4760, 385.5527
610.6430, 365.4711
611.8100, 311.3828
612.9770, 276.2878
614.1440, 251.1860
615.3110, 230.0778
616.4770, 245.9628
617.6430, 202.8413
618.8090, 194.7132
619.9750, 139.5787
621.1410, 125.4377
622.3070, 143.2903
623.4720, 123.1365
624.6370, 117.9764
625.8020, 89.80988
626.9670, 59.63715
628.1320, 55.45819
629.2970, 78.27295
630.4610, 62.08160
631.6250, 64.88416
632.7890, 34.68054
633.9530, 32.47052
635.1170, 45.25409
636.2810, 25.03156
637.4440, 34.80243
638.6070, 17.56714
639.7700, 10.32440
640.9330, 7.072571
642.0960, 1.189392
643.2590, 9.534485
644.4210, 13.75049
645.5830, 17.94409
646.7450, 9.367737
647.9070, 18.30273
649.0690, 22.03290
650.2310, 41.60742
651.3920, 8.242676
652.5530, 7.869873
653.7140, 17.51086
654.8750, 21.08765
656.0360, 5.319031
657.1970, 39.73962
658.3570, 20.80804
659.5170, 20.64929
660.6770, 17.87213
661.8370, 30.61127
662.9970, 39.12073
664.1570, 8.659790
665.3160, 23.21289
666.4750, 38.78577
667.6340, 10.38031
668.7930, 39.98816
669.9520, 2.621948
671.1110, 31.26154
672.2690, 19.92169
673.4270, 15.40588
674.5850, 4.263123
675.7430, 28.93207
676.9010, 40.60822
678.0590, 21.30762
679.2160, 13.01599
680.3730, 15.73633
681.5300, 4.470215
682.6870, 41.21167
683.8440, 7.979797
685.0010, 19.75702
686.1570, 20.45087
687.3130, 19.34381
688.4690, 13.15265
689.6250, 9.028015
690.7810, 11.20642
691.9370, 22.61737
693.0920, 22.54431
694.2470, 1.703979
695.4020, 12.13861
696.5570, 1.0681000E-02
697.7120, 15.15759
698.8670, 25.69702
700.0210, 6.434082
701.1750, 29.56378
702.3290, 3.692200
703.4830, 22.81927
704.6370, 47.94531
705.7910, 63.07037
706.9440, 60.19446
708.0970, 53.31775
709.2510, 89.44019
710.4030, 68.56213
711.5560, 71.68347
712.7090, 95.80444
713.8610, 96.92493
715.0140, 87.04517
716.1660, 99.16528
717.3180, 130.2853
718.4690, 166.4053
719.6210, 158.5254
720.7730, 163.6456
721.9240, 183.7664
723.0750, 234.8873
724.2260, 228.0088
725.3770, 284.1309
726.5270, 235.2537
727.6780, 311.3774
728.8280, 305.5023
729.9780, 321.6283
731.1280, 353.7578
732.2780, 395.8889
733.4280, 426.0210
734.5770, 451.2860
735.7260, 433.2906
736.8760, 488.4277
738.0250, 526.5667
739.1730, 531.7085
740.3220, 582.8540
741.4700, 623.0657
742.6190, 685.1512
743.7670, 755.3030
744.9150, 828.4700
746.0630, 884.6598
747.2100, 988.8188
748.3580, 997.9968
749.5050, 1058.177
750.6520, 1108.361
751.7990, 1098.547
752.9460, 1147.736
754.0930, 1082.927
755.2390, 1085.123
756.3860, 986.3231
757.5320, 987.5266
758.6780, 868.7329
759.8240, 798.9427
760.9690, 744.1560
762.1150, 667.3727
763.2600, 618.5930
764.4060, 566.8169
765.5510, 477.0446
766.6950, 468.2760
767.8400, 413.5114
768.9850, 389.7506
770.1290, 373.9938
771.2730, 402.2029
772.4170, 428.4095
773.5610, 390.6672
774.7050, 354.8547
775.8480, 397.1003
776.9920, 440.2247
778.1350, 387.1876
779.2780, 421.0428
780.4210, 373.4551
781.5640, 433.4492
782.7060, 388.1268
783.8490, 380.3518
784.9910, 388.3464
786.1330, 360.5994
787.2750, 410.8412
788.4170, 421.1926
789.5580, 382.2874
790.7000, 412.3921
791.8410, 404.0184
792.9820, 447.3722
794.1230, 499.8196
795.2640, 508.1345
796.4040, 584.5209
797.5450, 632.0850
798.6850, 708.4855
799.8250, 777.4800
800.9650, 859.9672
802.1050, 958.3944
803.2450, 1094.427
804.3840, 1270.541
805.5230, 1448.954
806.6630, 1708.540
807.8020, 2002.503
808.9400, 2343.702
810.0790, 2750.652
811.2170, 3226.198
812.3560, 4069.205
813.4940, 4948.695
814.6320, 6171.488
815.7700, 7778.526
816.9070, 9634.127
818.0450, 11341.60
819.1820, 13344.80
820.3190, 15245.75
821.4560, 16380.82
822.5930, 16811.19
823.7300, 16248.88
824.8670, 16636.36
826.0030, 13422.26
827.1390, 11156.99
828.2750, 9268.735
829.4110, 7688.166
830.5470, 6664.932
831.6820, 5692.711
832.8180, 5007.923
833.9530, 4474.716
835.0880, 4099.542
836.2230, 3994.031
837.3580, 3839.881
838.4920, 3853.744
839.6270, 3791.617
840.7610, 3883.503
841.8950, 4118.398
843.0290, 4515.525
844.1630, 5024.223
845.2960, 5776.153
846.4300, 6659.094
847.5630, 7705.045
848.6960, 9224.011
849.8290, 10724.98
850.9620, 12168.97
852.0940, 13424.97
853.2270, 14259.98
854.3590, 14875.00
855.4910, 14654.03
856.6230, 13696.08
857.7550, 12214.14
858.8870, 10718.20
860.0180, 9174.282
861.1500, 7582.374
862.2810, 6344.478
863.4120, 5308.592
864.5430, 4383.718
865.6730, 3760.858
866.8040, 3135.129
867.9340, 2694.309
869.0640, 2286.488
870.1940, 2032.678
871.3240, 1709.880
872.4540, 1588.094
873.5830, 1440.328
874.7130, 1314.772
875.8420, 1284.333
876.9710, 1264.594
878.1000, 1166.867
879.2290, 1157.152
880.3570, 1096.368
881.4860, 1070.484
882.6140, 942.8726
883.7420, 797.2035
884.8700, 747.5461
885.9980, 607.9001
887.1250, 550.2657
888.2530, 498.6429
889.3800, 409.1494
890.5070, 365.5496
891.6340, 312.3502
892.7610, 297.7736
893.8880, 285.2085
895.0140, 261.6550
896.1400, 241.1127
897.2670, 244.9740
898.3930, 254.0833
899.5180, 256.5756
900.6440, 278.0792
901.7700, 289.5946
902.8950, 341.1212
904.0200, 297.6593
905.1450, 379.2091
906.2700, 457.7704
907.3950, 487.3431
908.5190, 592.2329
909.6440, 755.8427
910.7680, 986.8683
911.8920, 1289.487
913.0160, 1633.266
914.1400, 1981.909
915.2630, 2461.571
916.3870, 2857.648
917.5100, 3238.149
918.6330, 3087.124
919.7560, 2818.838
920.8790, 2373.570
922.0010, 1846.312
923.1240, 1395.075
924.2460, 1018.588
925.3680, 749.0427
926.4900, 589.9653
927.6120, 455.7588
928.7340, 412.7307
929.8550, 294.3667
930.9760, 313.2324
932.0980, 323.3726
933.2190, 314.2036
934.3390, 299.1084
935.4600, 273.0520
936.5810, 292.0745
937.7010, 291.5259
938.8210, 358.2808
939.9410, 340.4208
941.0610, 370.8291
942.1810, 439.8710
943.3010, 449.7617
944.4200, 473.4791
945.5390, 549.6401
946.6580, 591.5576
947.7770, 697.6005
948.8960, 751.3435
950.0150, 842.4952
951.1330, 977.0083
952.2510, 1115.779
953.3690, 1199.974
954.4870, 1341.692
955.6050, 1481.610
956.7230, 1550.224
957.8400, 1765.156
958.9580, 1763.416
960.0750, 1856.239
961.1920, 1853.661
962.3090, 1846.741
963.4250, 1670.043
964.5420, 1588.359
965.6580, 1469.580
966.7740, 1236.931
967.8900, 1118.761
969.0060, 1002.110
970.1220, 793.3513
971.2380, 680.7208
972.3530, 615.0969
973.4680, 494.4796
974.5830, 394.8693
975.6980, 386.2654
976.8130, 292.6681
977.9280, 260.0771
979.0420, 179.4927
980.1560, 182.9144
981.2710, 178.3425
982.3850, 149.7769
983.4980, 106.2170
984.6120, 127.6635
985.7260, 113.1158
986.8390, 48.76697
987.9520, 73.23096
989.0650, 38.70056
990.1780, 55.17578
991.2910, 42.65674
992.4030, 42.14307
993.5160, 25.63477
994.6280, 25.46985
995.7400, 29.32812
996.8520, 24.14172
997.9640, 25.82910
999.0750, 31.47327
1000.187, 8.334595
1001.298, 0.6986080
1002.409, 41.83179
1003.520, 22.36682
1004.631, 48.90625
1005.741, 32.45020
1006.852, 1.3430000E-03
1007.962, 11.44897
1009.072, 14.89441
1010.182, 29.66064
1011.292, 50.21997
1012.402, 5.783081
1013.511, 64.64978
1014.621, 26.10474
1015.730, 4.563721
1016.839, 12.97998
1017.948, 24.52710
1019.056, 10.07800
1020.165, 12.63220
1021.273, 7.189819
1022.382, 6.249390
1023.490, 25.31763
1024.598, 14.11694
1025.706, 15.44763
1026.813, 12.01514
1027.921, 11.58557
1029.028, 9.158691
1030.135, 12.67053
1031.242, 0.6870120
1032.349, 18.89355
1033.456, 28.47644
1034.562, 27.06165
1035.668, 12.64929
1036.775, 38.23901
1037.881, 11.88647
1038.987, 3.480347
1040.092, 38.07617
1041.198, 8.326050
1042.303, 21.72998
1043.408, 10.14172
1044.514, 19.44373
1045.618, 22.96838
1046.723, 8.610229
1047.828, 1.192871
1048.932, 26.22339
1050.037, 32.65149
1051.141, 5.094849
1052.245, 7.459839
1053.349, 7.015381
1054.452, 18.57190
1055.556, 19.14246
1056.659, 12.28650
1057.762, 10.71667
1058.865, 18.15308
1059.968, 31.59937
1061.071, 1.2200000E-04
1062.174, 11.46509
1063.276, 20.06226
1064.378, 1.410278
1065.480, 12.88611
1066.582, 15.62891
1067.684, 5.145630
1068.786, 3.661133
1069.887, 16.82520
1070.988, 15.67627
1072.090, 3.236084
1073.191, 1.262817
1074.291, 24.23303
1075.392, 8.271973
1076.493, 20.78613
1077.593, 11.31628
1078.693, 5.857666
1079.793, 24.59204
1080.893, 2.952881
1081.993, 21.49451
1083.092, 14.05981
1084.192, 17.62805
1085.291, 30.78748
1086.390, 0.2006840
1087.489, 2.392944
1088.588, 12.99561
1089.686, 1.613037
1090.785, 24.76050
1091.883, 14.86853
1092.981, 10.48584
1094.079, 2.163940
1095.177, 48.17578
1096.275, 26.51282
1097.373, 3.153198
1098.470, 4.830200
1099.567, 12.04089
1100.664, 33.77429
1101.761, 1.934326
1102.858, 34.34583
1103.954, 49.62256
1105.051, 36.89600
1106.147, 30.16589
1107.243, 29.43237
1108.339, 35.69531
1109.435, 37.95459
1110.531, 68.21021
1111.626, 68.92419
1112.722, 35.71057
1113.817, 72.95508
1114.912, 76.19592
1116.007, 45.43311
1117.101, 56.67090
1118.196, 16.90637
1119.290, 56.13635
1120.385, 33.36218
1121.479, 60.58386
1122.573, 77.80139
1123.666, 49.01489
1124.760, 48.22400
1125.853, 54.35181
1126.947, 37.76453
1128.040, 65.82556
1129.133, 21.01733
1130.226, 23.20288
1131.318, 8.385620
1132.411, 24.44189
1133.503, 64.59460
1134.596, 32.75635
1135.688, 91.91357
1136.780, 34.06604
1137.871, 43.21375
1138.963, 51.34875
1140.054, 34.28149
1141.146, 50.10364
1142.237, 53.23328
1143.328, 38.35815
1144.419, 38.47791
1145.509, 59.67249
1146.600, 44.97412
1147.690, 60.01221
1148.780, 68.11389
1149.870, 65.21094
1150.960, 91.30322
1152.050, 50.39050
1153.139, 73.47278
1154.229, 33.43250
1155.318, 64.50488
1156.407, 46.21289
1157.496, 46.27515
1158.585, 62.33313
1159.674, 73.38635
1160.762, 58.43445
1161.850, 98.47729
1162.939, 55.49512
1164.027, 53.52783
1165.114, 68.55542
1166.202, 38.57800
1167.290, 73.59534
1168.377, 32.60742
1169.464, 78.61377
1170.551, 85.61462
1171.638, 87.61035
1172.725, 64.29517
1173.812, 91.26624
1174.898, 75.48779
1175.984, 96.98474
1177.071, 60.80579
1178.157, 77.37805
1179.242, 59.35168
1180.328, 56.89954
1181.414, 49.03198
1182.499, 81.74060
1183.584, 52.68811
1184.669, 74.62805
1185.754, 49.72998
1186.839, 58.65259
1187.924, 65.05115
1189.008, 88.29370
1190.092, 80.11646
1191.177, 30.06702
1192.260, 72.88208
1193.344, 58.00012
1194.428, 99.93152
1195.512, 87.54785
1196.595, 95.48621
1197.678, 65.76343
1198.761, 37.61060
1199.844, 70.42505
1200.927, 69.01868
1202.009, 29.57739
1203.092, 114.2859
1204.174, 76.73596
1205.256, 98.65161
1206.338, 81.65491
1207.420, 97.83582
1208.502, 99.62024
1209.583, 52.68604
1210.665, 93.12891
1211.746, 89.32117
1212.827, 132.2030
1213.908, 86.65259
1214.988, 116.8539
1216.069, 81.63965
1217.149, 99.99036
1218.230, 94.07593
1219.310, 115.4816
1220.390, 111.5698
1221.470, 129.3334
1222.549, 90.54480
1223.629, 120.1633
1224.708, 90.12866
1225.787, 113.8749
1226.866, 142.6168
1227.945, 105.4564
1229.024, 92.17029
1230.103, 102.4396
1231.181, 142.2739
1232.259, 94.12549
1233.337, 104.8430
1234.415, 150.5566
1235.493, 99.26636
1236.571, 136.9722
1237.648, 118.6741
1238.726, 124.3722
1239.803, 70.06641
1240.880, 129.7567
1241.957, 99.44312
1243.034, 113.1260
1244.110, 97.83838
1245.187, 110.5746
1246.263, 78.28894
1247.339, 74.27856
1248.415, 81.88916
1249.491, 140.5490
1250.566, 77.20508
1251.642, 112.8572
1252.717, 74.50562
1253.793, 62.15039
1254.868, 78.79138
1255.943, 84.42859
1257.017, 59.07471
1258.092, 64.70459
1259.166, 88.15625
1260.241, 133.3533
1261.315, 73.33179
1262.389, 71.84436
1263.462, 83.45728
1264.536, 48.06653
1265.610, 62.67224
1266.683, 71.27466
1267.756, 67.00977
1268.829, 32.70483
1269.902, 94.29822
1270.975, 49.88989
1272.048, 58.49927
1273.120, 67.08423
1274.192, 66.66589
1275.264, 83.25720
1276.336, 89.09656
1277.408, 55.68579
1278.480, 45.27246
1279.551, 73.85522
1280.623, 28.43469
1281.694, 51.01135
1282.765, 56.58496
1283.836, 88.15222
1284.907, 19.73865
1285.977, 40.30603
1287.048, 58.96558
1288.118, 77.59277
1289.188, 81.15137
1290.258, 75.70691
1291.328, 50.27393
1292.398, 65.82788
1293.467, 73.37524
1294.537, 44.92822
1295.606, 73.46997
1296.675, 49.00903
1297.744, 94.48975
1298.813, 67.02344
1299.882, 50.55505
1300.950, 34.08386
1302.018, 64.61194
1303.086, 48.14221
1304.155, 5.672241
1305.222, 39.19812
1306.290, 3.272705
1307.358, 21.24890
1308.425, 41.76929
1309.492, 26.29370
1310.559, 16.82422
1311.626, 23.35315
1312.693, 23.88049
1313.760, 44.59595
1314.826, 31.89856
1315.893, 13.61414
1316.959, 32.86902
1318.025, 15.35291
1319.091, 18.83984
1320.157, 12.26831
1321.222, 19.75867
1322.288, 14.24731
1323.353, 37.73389
1324.418, 64.21960
1325.483, 1.292358
1326.548, 44.18433
1327.612, 17.65894
1328.677, 42.13220
1329.741, 6.377563
1330.806, 53.03809
1331.870, 37.50891
1332.934, 8.979980
1333.997, 21.44897
1335.061, 47.92004
1336.124, 15.39648
1337.188, 25.88416
1338.251, 21.63501
1339.314, 58.83716
1340.377, 8.310669
1341.439, 29.78223
1342.502, 46.25830
1343.564, 49.73914
1344.627, 8.210449
1345.689, 50.68164
1346.751, 21.15442
1347.813, 44.63171
1348.874, 32.11084
1349.936, 36.58813
1350.997, 40.40234
1352.058, 35.54346
1353.119, 33.02295
1354.180, 53.50061
1355.241, 34.97510
1356.301, 56.45227
1357.362, 15.93237
1358.422, 4.417358
1359.482, 18.89856
1360.542, 33.38220
1361.602, 42.86414
1362.662, 44.50867
1363.721, 45.60266
1364.781, 44.29980
1365.840, 32.77441
1366.899, 39.24731
1367.958, 25.71887
1369.017, 51.18872
1370.075, 56.65698
1371.134, 14.12378
1372.192, 8.588867
1373.250, 13.94788
1374.308, 2.509644
