##NAMES=Forsterite
##RRUFFID=R060539
##IDEAL CHEMISTRY=Mg_2_SiO_4_
##LOCALITY=Sri Lanka
##OWNER=RRUFF
##SOURCE=Gemological Institute of America
##DESCRIPTION=Brown cut gemstone
##STATUS=The identification of this mineral has been confirmed by X-ray diffraction and chemical analysis
##URL=rruff.info/R060539
##MEASURED CHEMISTRY=(Mg_1.67_Fe_0.33_)_Î£=2_Si_1.00_O_4_; trace amounts of Mn and Ca
##PIN_ID=L01074
##ORIENTATION=Laser parallel to a* (1 0 0). Fiducial mark perpendicular to laser is parallel to b [0 1 0]
168.1040, 0.0000000E+00
169.3320, 16.26709
170.5590, 21.78125
171.7860, 62.18542
173.0130, 26.43542
174.2400, 42.84314
175.4670, 7.834106
176.6930, 91.21582
177.9200, 79.84692
179.1460, 68.98511
180.3720, 59.54675
181.5980, 69.49084
182.8230, 163.7402
184.0490, 126.2441
185.2740, 176.9619
186.5000, 176.8583
187.7250, 211.9203
188.9500, 243.3279
190.1740, 249.8335
191.3990, 204.4114
192.6230, 307.2404
193.8480, 376.2629
195.0720, 322.2769
196.2960, 374.3108
197.5200, 440.4009
198.7430, 442.5459
199.9670, 496.7325
201.1900, 600.9485
202.4130, 661.1846
203.6360, 661.4338
204.8590, 689.6921
206.0820, 729.9568
207.3050, 838.7329
208.5270, 948.0417
209.7490, 988.8833
210.9710, 1014.184
212.1930, 1018.506
213.4150, 1075.729
214.6370, 1001.269
215.8580, 939.8694
217.0790, 989.6129
218.3010, 932.9387
219.5210, 811.0713
220.7420, 733.0515
221.9630, 674.1443
223.1830, 582.4615
224.4040, 478.1045
225.6240, 538.9487
226.8440, 422.8328
228.0640, 452.6960
229.2840, 418.5155
230.5030, 380.2800
231.7230, 336.9912
232.9420, 310.6519
234.1610, 240.2643
235.3800, 219.8303
236.5990, 208.3553
237.8170, 138.8525
239.0360, 162.3209
240.2540, 127.7799
241.4720, 138.2118
242.6900, 74.63513
243.9080, 28.03845
245.1250, 24.41479
246.3430, 0.7650150
247.5600, 4.098267
248.7770, 17.58423
249.9940, 8.718750
251.2110, 7.007690
252.4280, 26.28357
253.6450, 27.54797
254.8610, 28.90442
256.0770, 25.18958
257.2930, 35.27368
258.5090, 28.79883
259.7250, 22.66187
260.9400, 17.90527
262.1560, 7.095093
263.3710, 7.726318
264.5860, 3.559448
265.8010, 25.40430
267.0160, 0.7385250
268.2310, 5.004517
269.4450, 25.52588
270.6600, 40.78235
271.8740, 65.10193
273.0880, 57.86853
274.3020, 61.49219
275.5150, 91.89612
276.7290, 99.72266
277.9420, 143.0867
279.1550, 181.4087
280.3680, 232.2059
281.5810, 275.9906
282.7940, 346.9912
284.0070, 408.4977
285.2190, 482.7891
286.4310, 565.8276
287.6430, 659.8785
288.8550, 739.6785
290.0670, 888.2834
291.2790, 1007.718
292.4900, 1124.142
293.7020, 1166.562
294.9130, 1311.990
296.1240, 1276.407
297.3350, 1279.818
298.5450, 1322.222
299.7560, 1228.619
300.9660, 1036.008
302.1760, 916.3889
303.3860, 848.8210
304.5960, 750.4076
305.8060, 718.2822
307.0150, 633.0521
308.2250, 556.7684
309.4340, 571.3716
310.6430, 500.2675
311.8520, 534.7249
313.0610, 610.2178
314.2700, 598.5654
315.4780, 619.8541
316.6860, 605.9758
317.8940, 566.7924
319.1020, 607.5776
320.3100, 636.4739
321.5180, 610.4045
322.7250, 633.2421
323.9330, 579.0912
325.1400, 580.9491
326.3470, 584.8140
327.5540, 538.6838
328.7600, 541.5569
329.9670, 550.4319
331.1730, 642.3083
332.3800, 636.1843
333.5860, 640.0594
334.7920, 539.9348
335.9970, 551.8314
337.2030, 484.7600
338.4080, 415.6438
339.6140, 410.6036
340.8190, 375.4551
342.0240, 269.3905
343.2290, 321.2278
344.4330, 327.0590
345.6380, 199.8832
346.8420, 202.7008
348.0460, 185.6924
349.2500, 207.5657
350.4540, 201.6400
351.6580, 139.4366
352.8610, 139.2463
354.0650, 157.0189
355.2680, 110.8511
356.4710, 161.6152
357.6740, 145.3713
358.8760, 157.1212
360.0790, 119.8618
361.2810, 106.5896
362.4840, 102.2893
363.6860, 158.9841
364.8880, 136.6869
366.0900, 134.3899
367.2910, 82.08716
368.4930, 79.77954
369.6940, 58.47168
370.8950, 91.16370
372.0960, 91.84888
373.2970, 83.52698
374.4980, 88.20154
375.6980, 70.87952
376.8980, 37.55042
378.0990, 28.21875
379.2990, 8.974854
380.4980, 24.46863
381.6980, 8.833374
382.8980, 10.20728
384.0970, 3.400391
385.2960, 17.99377
386.4950, 36.38306
387.6940, 52.78992
388.8930, 23.77710
390.0920, 68.67725
391.2900, 33.24194
392.4880, 30.18994
393.6860, 11.02795
394.8840, 30.59985
396.0820, 0.2052000
397.2800, 59.25146
398.4770, 36.69910
399.6750, 20.13745
400.8720, 4.544434
402.0690, 72.97449
403.2660, 55.36755
404.4620, 55.72034
405.6590, 69.04370
406.8550, 73.31067
408.0510, 94.32544
409.2480, 85.44592
410.4430, 133.4698
411.6390, 163.6445
412.8350, 116.6896
414.0300, 159.9607
415.2250, 136.2852
416.4200, 150.5974
417.6150, 130.8950
418.8100, 118.3627
420.0050, 158.6062
421.1990, 175.9813
422.3940, 142.1617
423.5880, 131.3047
424.7820, 135.3890
425.9750, 137.4612
427.1690, 166.4998
428.3630, 158.5293
429.5560, 141.5498
430.7490, 191.5585
431.9420, 195.5549
433.1350, 182.9628
434.3280, 144.5222
435.5200, 153.4918
436.7130, 110.4620
437.9050, 95.43018
439.0970, 102.3877
440.2890, 65.33484
441.4810, 68.27100
442.6720, 75.19604
443.8640, 76.10999
445.0550, 61.01294
446.2460, 107.9043
447.4370, 95.78479
448.6280, 88.65344
449.8180, 36.50903
451.0090, 10.35010
452.1990, 87.17468
453.3890, 123.9867
454.5790, 105.7817
455.7690, 94.56494
456.9590, 68.33643
458.1480, 65.09192
459.3380, 72.85950
460.5270, 111.5560
461.7160, 107.2676
462.9050, 104.9658
464.0940, 127.6503
465.2820, 128.3254
466.4700, 167.9873
467.6590, 145.6357
468.8470, 174.2708
470.0350, 166.8921
471.2220, 163.1707
472.4100, 146.0933
473.5970, 153.6731
474.7850, 136.2389
475.9720, 127.7905
477.1590, 126.7081
478.3460, 120.8514
479.5320, 112.3602
480.7190, 121.8542
481.9050, 102.4097
483.0910, 126.8740
484.2770, 105.3236
485.4630, 142.7578
486.6490, 129.3047
487.8340, 127.7097
489.0200, 146.1927
490.2050, 83.56885
491.3900, 109.9288
492.5750, 67.38733
493.7600, 168.7068
494.9440, 125.5842
496.1290, 183.0680
497.3130, 116.4462
498.4970, 172.8745
499.6810, 207.1865
500.8650, 186.8192
502.0480, 199.0905
503.2320, 201.6508
504.4150, 215.9402
505.5980, 230.3961
506.7810, 232.6902
507.9640, 255.6572
509.1460, 253.2821
510.3290, 241.2229
511.5110, 290.6890
512.6930, 273.2634
513.8750, 314.3547
515.0570, 342.3975
516.2390, 305.1693
517.4210, 375.6057
518.6020, 368.4739
519.7830, 314.3486
520.9640, 414.2125
522.1450, 406.2659
523.3260, 400.9583
524.5060, 401.1901
525.6870, 485.3599
526.8670, 571.3672
528.0470, 617.8864
529.2270, 627.9966
530.4070, 761.1497
531.5870, 761.4961
532.7660, 814.9536
533.9450, 929.3208
535.1240, 976.4955
536.3030, 1041.379
537.4820, 1039.050
538.6610, 1002.569
539.8390, 908.0382
541.0180, 763.3013
542.1960, 666.3516
543.3740, 561.6794
544.5520, 463.1973
545.7290, 378.2290
546.9070, 313.5129
548.0840, 252.4011
549.2620, 223.7805
550.4390, 259.2312
551.6160, 254.6277
552.7920, 226.8530
553.9690, 233.4707
555.1450, 193.3303
556.3220, 205.9717
557.4980, 186.4275
558.6740, 172.8665
559.8490, 92.28833
561.0250, 193.6848
562.2000, 99.32153
563.3760, 184.7612
564.5510, 183.2485
565.7260, 174.5835
566.9010, 244.1909
568.0750, 186.4932
569.2500, 192.5315
570.4240, 255.8145
571.5980, 237.0676
572.7720, 239.3042
573.9460, 208.1841
575.1200, 270.3882
576.2930, 246.6843
577.4670, 297.1428
578.6400, 290.8730
579.8130, 280.8936
580.9860, 363.9260
582.1590, 328.7744
583.3310, 375.6289
584.5040, 338.4963
585.6760, 423.3508
586.8480, 339.0913
588.0200, 331.0449
589.1920, 298.9312
590.3630, 352.7710
591.5350, 297.2114
592.7060, 327.1489
593.8770, 360.9331
595.0480, 321.8550
596.2190, 359.6848
597.3900, 360.4517
598.5600, 445.0813
599.7310, 426.6670
600.9010, 404.2957
602.0710, 445.0701
603.2410, 437.8115
604.4100, 418.7949
605.5800, 420.3203
606.7490, 378.0981
607.9190, 385.8608
609.0880, 380.6089
610.2570, 341.3423
611.4250, 294.0613
612.5940, 298.7656
613.7620, 252.4558
614.9310, 231.5022
616.0990, 193.7925
617.2670, 177.4395
618.4340, 177.0696
619.6020, 146.6616
620.7690, 135.2041
621.9370, 77.77246
623.1040, 131.2451
624.2710, 93.80640
625.4380, 111.2644
626.6040, 64.80029
627.7710, 143.3218
628.9370, 66.83008
630.1030, 94.32397
631.2690, 144.6238
632.4350, 61.02100
633.6010, 4.803467
634.7660, 1.619873
635.9320, 49.00024
637.0970, 7.617920
638.2620, 49.67261
639.4270, 62.00928
640.5920, 29.33301
641.7560, 61.64136
642.9210, 29.93677
644.0850, 51.21704
645.2490, 7.515381
646.4130, 35.27710
647.5770, 5.082031
648.7400, 19.08618
649.9040, 7.238525
651.0670, 18.62842
652.2300, 22.52856
653.3930, 2.537842
654.5560, 2.583496
655.7190, 10.39136
656.8810, 37.39282
658.0440, 1.565186
659.2060, 18.49634
660.3680, 16.41357
661.5300, 28.68799
662.6910, 13.17896
663.8530, 15.95581
665.0140, 52.88916
666.1750, 34.26685
667.3360, 80.45508
668.4970, 13.69287
669.6580, 5.9813999E-02
670.8190, 21.18481
671.9790, 86.45508
673.1390, 18.76245
674.2990, 4.081055
675.4590, 22.41455
676.6190, 18.23413
677.7790, 29.88843
678.9380, 39.54053
680.0970, 30.18652
681.2570, 34.62598
682.4160, 0.5366210
683.5740, 8.092285
684.7330, 38.71460
685.8920, 11.66797
687.0500, 5.065430
688.2080, 18.52539
689.3660, 45.11133
690.5240, 18.69165
691.6820, 10.73291
692.8390, 12.17041
693.9960, 12.51782
695.1540, 20.08594
696.3110, 12.43311
697.4680, 35.94727
698.6240, 48.45703
699.7810, 43.77441
700.9370, 24.72461
702.0940, 2.392578
703.2500, 4.913574
704.4060, 62.55981
705.5610, 43.97070
706.7170, 16.47485
707.8720, 20.08276
709.0280, 41.65137
710.1830, 9.758301
711.3380, 49.16553
712.4920, 20.42969
713.6470, 22.96558
714.8020, 5.641357
715.9560, 50.25171
717.1100, 39.88501
718.2640, 30.46484
719.4180, 14.81372
720.5720, 6.161621
721.7250, 41.50977
722.8780, 24.85815
724.0320, 63.20654
725.1850, 115.5557
726.3380, 58.90552
727.4900, 31.25537
728.6430, 150.6060
729.7950, 51.95728
730.9470, 88.31128
732.1000, 30.67017
733.2510, 42.03052
734.4030, 146.3921
735.5550, 76.75488
736.7060, 109.1223
737.8570, 116.4924
739.0090, 116.8652
740.1600, 89.24341
741.3100, 135.6301
742.4610, 98.01953
743.6110, 125.4114
744.7620, 90.80591
745.9120, 109.2029
747.0620, 98.60254
748.2120, 136.0061
749.3610, 122.4126
750.5110, 192.8228
751.6600, 121.2363
752.8090, 111.6536
753.9580, 102.0745
755.1070, 176.4993
756.2560, 140.9287
757.4050, 154.3662
758.5530, 144.8083
759.7010, 175.2556
760.8490, 189.6318
761.9970, 218.0891
763.1450, 198.5520
764.2920, 211.0205
765.4400, 140.3674
766.5870, 229.8474
767.7340, 262.2405
768.8810, 258.7319
770.0280, 339.2305
771.1740, 273.6218
772.3210, 365.1423
773.4670, 373.9602
774.6130, 356.4492
775.7590, 437.8770
776.9050, 324.2593
778.0510, 357.7505
779.1960, 320.9136
780.3420, 361.4351
781.4870, 447.6611
782.6320, 409.1509
783.7770, 501.8389
784.9210, 438.8240
786.0660, 564.7583
787.2100, 540.9351
788.3540, 584.7031
789.4980, 572.9285
790.6420, 665.9482
791.7860, 676.5813
792.9300, 712.2625
794.0730, 783.1775
795.2160, 782.4497
796.3590, 899.2129
797.5020, 1020.765
798.6450, 1007.249
799.7880, 1133.266
800.9300, 1190.754
802.0720, 1397.671
803.2150, 1601.553
804.3560, 1781.418
805.4980, 2062.434
806.6400, 2392.690
807.7810, 2762.866
808.9230, 3365.761
810.0640, 4029.614
811.2050, 4926.772
812.3460, 5907.904
813.4860, 7366.938
814.6270, 8893.955
815.7670, 10714.01
816.9070, 12187.09
818.0470, 13863.19
819.1870, 14667.30
820.3270, 15134.04
821.4670, 14790.15
822.6060, 13660.31
823.7450, 12484.53
824.8840, 11280.21
826.0230, 10277.42
827.1620, 9298.660
828.3010, 8623.912
829.4390, 8193.486
830.5770, 7970.025
831.7150, 7814.602
832.8530, 8013.608
833.9910, 8425.122
835.1290, 8882.492
836.2660, 9552.879
837.4030, 10385.30
838.5410, 11570.48
839.6780, 12713.87
840.8140, 14549.22
841.9510, 16800.72
843.0870, 19628.98
844.2240, 23022.54
845.3600, 26787.38
846.4960, 30712.97
847.6320, 35060.59
848.7680, 38954.24
849.9030, 42132.25
851.0380, 44146.94
852.1740, 44212.54
853.3090, 42915.98
854.4440, 39905.09
855.5780, 35804.86
856.7130, 31452.65
857.8470, 27259.46
858.9820, 22868.29
860.1160, 19413.14
861.2500, 16394.01
862.3830, 13858.90
863.5170, 11740.81
864.6500, 10190.75
865.7840, 8396.699
866.9170, 7486.676
868.0500, 6443.672
869.1830, 5632.690
870.3150, 4974.730
871.4480, 4377.792
872.5800, 4032.416
873.7120, 3525.520
874.8440, 3320.645
875.9760, 3160.336
877.1080, 2858.865
878.2390, 2689.056
879.3710, 2429.267
880.5020, 2237.500
881.6330, 2063.756
882.7640, 1817.032
883.8940, 1692.468
885.0250, 1545.789
886.1550, 1426.130
887.2850, 1294.495
888.4160, 1230.882
889.5450, 1197.290
890.6750, 1095.721
891.8050, 1081.193
892.9340, 986.4707
894.0630, 969.7256
895.1930, 1027.487
896.3220, 928.0288
897.4500, 918.5930
898.5790, 886.1792
899.7070, 856.7881
900.8360, 927.4194
901.9640, 893.0737
903.0920, 854.7507
904.2200, 892.4507
905.3470, 992.1733
906.4750, 1012.918
907.6020, 1074.687
908.7290, 1293.486
909.8560, 1343.391
910.9830, 1518.244
912.1100, 1753.340
913.2360, 2023.249
914.3630, 2099.180
915.4890, 2256.959
916.6150, 2230.940
917.7410, 2080.979
918.8670, 1977.009
919.9920, 1685.820
921.1180, 1538.832
922.2430, 1419.102
923.3680, 1391.257
924.4930, 1209.439
925.6180, 1279.653
926.7420, 1324.902
927.8670, 1235.171
928.9910, 1323.417
930.1150, 1301.852
931.2390, 1406.678
932.3630, 1459.819
933.4860, 1599.760
934.6100, 1643.509
935.7330, 1805.618
936.8560, 1914.127
937.9790, 2113.358
939.1020, 2158.940
940.2250, 2477.535
941.3470, 2635.177
942.4700, 2833.589
943.5920, 3209.283
944.7140, 3345.839
945.8360, 3707.137
946.9570, 4087.938
948.0790, 4311.765
949.2000, 4657.648
950.3220, 4903.211
951.4430, 5120.051
952.5640, 5312.969
953.6840, 5291.907
954.8050, 5321.916
955.9250, 5297.280
957.0460, 5105.280
958.1660, 4901.723
959.2860, 4567.009
960.4050, 4218.153
961.5250, 3966.070
962.6440, 3586.178
963.7640, 3306.209
964.8830, 3017.361
966.0020, 2660.535
967.1210, 2488.262
968.2390, 2077.484
969.3580, 1797.727
970.4760, 1540.988
971.5940, 1310.347
972.7120, 1195.598
973.8300, 978.3577
974.9480, 905.8269
976.0650, 783.5718
977.1830, 720.6562
978.3000, 628.3723
979.4170, 517.7991
980.5340, 431.5674
981.6500, 435.0427
982.7670, 402.5356
983.8830, 332.0566
985.0000, 226.7739
986.1160, 250.3223
987.2320, 181.8887
988.3470, 221.4827
989.4630, 171.2871
990.5780, 187.9226
991.6940, 121.5750
992.8090, 170.2439
993.9240, 126.9294
995.0380, 77.63159
996.1530, 106.3501
997.2680, 87.15356
998.3820, 61.90454
999.4960, 111.7249
1000.610, 57.50806
1001.724, 9.357422
1002.837, 18.18018
1003.951, 3.018555
1005.064, 34.87891
1006.177, 26.24536
1007.291, 14.64014
1008.403, 36.54199
1009.516, 25.54102
1010.629, 46.60962
1011.741, 42.32300
1012.853, 56.27124
1013.965, 85.23389
1015.077, 101.2124
1016.189, 99.66162
1017.300, 8.778320
1018.412, 75.25171
1019.523, 49.29663
1020.634, 5.356689
1021.745, 95.43042
1022.856, 26.66528
1023.966, 21.07300
1025.077, 0.2641600
1026.187, 28.13574
1027.297, 21.99829
1028.407, 35.14575
1029.517, 53.30859
1030.627, 29.48755
1031.736, 40.67944
1032.845, 49.88477
1033.955, 127.9912
1035.064, 89.26562
1036.172, 104.2676
1037.281, 52.88086
1038.390, 44.16431
1039.498, 34.46045
1040.606, 18.94751
1041.714, 29.08862
1042.822, 2.579346
1043.930, 35.76318
1045.037, 6.877441
1046.145, 41.49072
1047.252, 35.87378
1048.359, 20.73169
1049.466, 58.90894
1050.573, 0.3586430
1051.679, 33.11255
1052.786, 17.45483
1053.892, 76.90918
1054.998, 114.4976
1056.104, 45.87085
1057.210, 61.24902
1058.315, 17.67383
1059.421, 31.07202
1060.526, 19.52026
1061.631, 18.11255
1062.736, 39.70508
1063.841, 7.307373
1064.946, 12.90552
1066.050, 27.50244
1067.154, 23.10474
1068.258, 28.65503
1069.362, 6.676514
1070.466, 9.927979
1071.570, 5.468262
1072.674, 57.87183
1073.777, 26.28320
1074.880, 28.29785
1075.983, 12.11279
1077.086, 10.46924
1078.189, 4.052490
1079.291, 17.36597
1080.394, 24.79102
1081.496, 23.77710
1082.598, 90.64624
1083.700, 10.07642
1084.802, 38.51196
1085.903, 27.95361
1087.005, 10.40137
1088.106, 1.854980
1089.207, 18.31006
1090.308, 1.771240
1091.409, 6.233398
1092.509, 11.69800
1093.610, 4.833008
1094.710, 43.63306
1095.810, 23.89551
1096.910, 24.56421
1098.010, 87.02881
1099.110, 15.94971
1100.209, 90.35767
1101.309, 146.7209
1102.408, 155.8364
1103.507, 23.84985
1104.606, 40.25342
1105.704, 6.663086
1106.803, 30.94214
1107.901, 67.46777
1108.999, 84.77466
1110.097, 11.43677
1111.195, 86.46069
1112.293, 11.86938
1113.391, 61.28540
1114.488, 57.69751
1115.585, 26.11279
1116.682, 17.53076
1117.779, 120.9500
1118.876, 57.37231
1119.973, 71.79712
1121.069, 19.22461
1122.165, 78.65308
1123.261, 42.08423
1124.357, 95.51758
1125.453, 79.95337
1126.549, 88.39136
1127.644, 74.83203
1128.739, 27.27466
1129.835, 61.71802
1130.930, 29.12256
1132.024, 72.61060
1133.119, 30.38599
1134.214, 90.29077
1135.308, 148.7832
1136.402, 156.6411
1137.496, 171.0952
1138.590, 132.0098
1139.684, 143.7205
1140.777, 132.1782
1141.871, 119.0222
1142.964, 135.1213
1144.057, 140.5823
1145.150, 125.0442
1146.243, 126.7705
1147.335, 129.2341
1148.428, 191.7114
1149.520, 124.2698
1150.612, 136.8298
1151.704, 214.5083
1152.796, 152.9741
1153.887, 190.4399
1154.979, 190.9060
1156.070, 122.7178
1157.161, 230.3777
1158.252, 287.3118
1159.343, 297.7900
1160.433, 119.8477
1161.524, 186.0176
1162.614, 153.7927
1163.704, 117.5618
1164.794, 219.3257
1165.884, 68.55493
1166.974, 167.7036
1168.063, 166.1482
1169.153, 209.9858
1170.242, 155.5193
1171.331, 140.7610
1172.420, 130.2244
1173.508, 176.6870
1174.597, 133.0730
1175.685, 176.7412
1176.774, 169.9900
1177.862, 125.2578
1178.950, 145.7136
1180.037, 37.34570
1181.125, 52.54932
1182.212, 34.71802
1183.300, 128.4675
1184.387, 46.16064
1185.474, 61.68799
1186.560, 106.9863
1187.647, 88.42310
1188.733, 44.85840
1189.820, 86.29199
1190.906, 171.7244
1191.992, 131.1626
1193.078, 119.6489
1194.163, 187.9768
1195.249, 122.9475
1196.334, 133.6296
1197.419, 187.5425
1198.504, 172.6687
1199.589, 182.5793
1200.674, 109.8896
1201.758, 155.6182
1202.843, 161.0151
1203.927, 113.4333
1205.011, 122.8503
1206.095, 162.5232
1207.179, 187.9377
1208.262, 156.5220
1209.345, 195.4089
1210.429, 95.82031
1211.512, 129.2305
1212.595, 109.0103
1213.677, 163.4182
1214.760, 210.8140
1215.842, 195.2200
1216.925, 107.6245
1218.007, 184.1172
1219.089, 98.13647
1220.171, 199.5378
1221.252, 122.5173
1222.334, 98.67554
1223.415, 78.99854
1224.496, 77.56812
1225.577, 114.9631
1226.658, 151.4539
1227.738, 106.8472
1228.819, 99.25635
1229.899, 121.1189
1230.979, 126.5090
1232.060, 184.8979
1233.139, 131.2856
1234.219, 67.64087
1235.299, 109.0266
1236.378, 107.9749
1237.457, 100.8494
1238.536, 85.23218
1239.615, 84.90991
1240.694, 51.98438
1241.772, 52.36499
1242.851, 26.42529
1243.929, 69.80493
1245.007, 107.1843
1246.085, 110.5522
1247.163, 47.74438
1248.240, 100.1216
1249.318, 73.49854
1250.395, 83.87500
1251.472, 100.0649
1252.549, 49.44019
1253.626, 65.81494
1254.703, 36.18896
1255.779, 31.56250
1256.855, 93.93555
1257.931, 116.3083
1259.007, 144.6113
1260.083, 88.98267
1261.159, 59.30029
1262.234, 5.670654
1263.310, 15.01147
1264.385, 20.34204
1265.460, 14.30518
1266.535, 41.03442
1267.610, 50.45386
1268.684, 7.795410
1269.758, 95.13403
1270.833, 6.527832
1271.907, 96.80420
1272.981, 88.14258
1274.054, 30.48022
1275.128, 6.817383
1276.201, 40.15161
1277.275, 25.51440
1278.348, 7.801514
1279.421, 15.11621
1280.493, 8.429443
1281.566, 33.78052
1282.638, 76.05078
1283.711, 52.36108
1284.783, 57.67090
1285.855, 47.75806
1286.927, 79.34204
1287.998, 122.6802
1289.070, 1.993652
1290.141, 3.697021
1291.212, 27.60645
1292.283, 27.90991
1293.354, 25.78101
1294.425, 14.51099
1295.495, 18.19800
1296.566, 46.08057
1297.636, 64.35889
1298.706, 69.63721
1299.776, 89.91577
1300.845, 54.19458
1301.915, 80.47339
1302.984, 66.75244
1304.054, 13.96753
1305.123, 61.30200
1306.191, 7.427490
1307.260, 72.83618
1308.329, 34.09961
1309.397, 6.876221
1310.465, 14.34692
1311.534, 106.2781
1312.602, 35.54053
1313.669, 39.69678
1314.737, 90.97974
1315.804, 56.28809
1316.872, 45.59619
1317.939, 37.86768
1319.006, 96.17554
1320.073, 59.48364
1321.139, 104.7961
1322.206, 38.11353
1323.272, 105.4404
1324.338, 34.76953
1325.404, 51.10278
1326.470, 81.44312
1327.536, 107.7896
1328.601, 21.14331
1329.667, 29.49756
1330.732, 45.85522
1331.797, 83.21265
1332.862, 93.15967
1333.926, 95.92822
1334.991, 124.2944
1336.055, 60.66040
1337.120, 52.03101
1338.184, 149.4045
1339.248, 91.77832
1340.311, 23.15234
