##NAMES=Forsterite
##RRUFFID=R040018
##IDEAL CHEMISTRY=Mg_2_SiO_4_
##LOCALITY=Trudy's mine, San Carlos, Gila County, Arizona, USA
##OWNER=RRUFF
##SOURCE=Bob Downs
##DESCRIPTION=Green fragments from xenoliths in a basalt flow
##STATUS=The identification of this mineral has been confirmed by X-ray diffraction and chemical analysis
##URL=rruff.info/R040018
##MEASURED CHEMISTRY=(Mg_1.81_Fe_0.18_Ni_0.01_)_Î£=2_Si_1.00_O_4_; trace amounts of Mn and Ca
##PIN_ID=M00008
##ORIENTATION=Laser parallel to a* (1 0 0). Fiducial mark perpendicular to laser is parallel to b [0 1 0]
49.365, 0.000
50.765, 23.842
52.166, 0.316
53.566, 46.386
54.966, 64.870
56.365, 94.923
57.765, 186.180
59.164, 194.218
60.563, 259.841
61.962, 368.921
63.360, 455.168
64.758, 550.746
66.157, 534.655
67.554, 501.134
68.952, 479.515
70.349, 469.898
71.747, 506.148
73.144, 489.257
74.540, 459.465
75.937, 406.239
77.333, 378.189
78.729, 326.301
80.125, 265.562
81.521, 194.963
82.916, 149.496
84.311, 90.153
85.706, 38.929
87.101, 51.818
88.496, 23.814
89.890, 11.086
91.284, 64.888
92.678, 52.589
94.071, 24.813
95.465, 21.682
96.858, 92.922
98.251, 172.619
99.644, 215.402
101.036, 290.262
102.428, 361.184
103.820, 452.155
105.212, 423.172
106.604, 515.234
107.995, 618.339
109.387, 685.489
110.777, 957.684
112.168, 902.568
113.559, 1269.219
114.949, 911.559
116.339, 904.945
117.729, 957.377
119.119, 1108.852
120.508, 2139.371
121.897, 2826.934
123.286, 2027.540
124.675, 1098.188
126.063, 775.876
127.452, 730.605
128.840, 733.373
130.228, 666.180
131.615, 663.024
133.003, 673.927
134.390, 666.948
135.777, 656.072
137.164, 673.285
138.550, 642.573
139.937, 639.921
141.323, 631.315
142.709, 649.744
144.094, 604.202
145.480, 592.668
146.865, 572.144
148.250, 547.623
149.635, 613.089
151.019, 580.518
152.403, 590.896
153.788, 523.159
155.171, 497.285
156.555, 525.350
157.939, 539.420
159.322, 563.510
160.705, 555.543
162.088, 541.756
163.470, 524.911
164.853, 572.089
166.235, 546.289
167.617, 503.510
168.998, 517.771
170.380, 451.112
171.761, 466.499
173.142, 442.941
174.523, 473.419
175.904, 491.922
177.284, 497.458
178.664, 532.013
180.044, 543.586
181.424, 573.176
182.803, 538.785
184.183, 572.410
185.562, 562.056
186.940, 577.718
188.319, 553.396
189.698, 501.090
191.076, 511.800
192.454, 478.559
193.831, 495.347
195.209, 406.155
196.586, 443.982
197.963, 434.824
199.340, 370.681
200.717, 372.552
202.093, 402.438
203.470, 407.339
204.846, 401.255
206.221, 407.186
207.597, 407.134
208.972, 463.097
210.347, 507.076
211.722, 502.071
213.097, 531.083
214.472, 649.111
215.846, 769.964
217.220, 902.667
218.594, 1043.284
219.967, 1218.613
221.341, 1323.880
222.714, 1501.978
224.087, 1613.968
225.460, 1666.729
226.832, 1573.281
228.204, 1513.637
229.577, 1384.839
230.948, 1250.899
232.320, 1223.798
233.692, 1130.479
235.063, 1008.950
236.434, 1004.327
237.805, 912.941
239.175, 863.597
240.545, 783.234
241.916, 705.030
243.286, 673.242
244.655, 596.838
246.025, 493.224
247.394, 445.369
248.763, 402.188
250.132, 432.465
251.501, 334.955
252.869, 399.808
254.237, 314.099
255.605, 342.763
256.973, 291.176
258.340, 280.481
259.708, 280.183
261.075, 253.661
262.442, 265.515
263.808, 242.986
265.175, 300.666
266.541, 259.677
267.907, 278.704
269.273, 288.746
270.639, 217.802
272.004, 215.874
273.369, 204.960
274.734, 146.060
276.099, 188.175
277.463, 164.303
278.828, 209.445
280.192, 182.600
281.556, 206.769
282.919, 178.950
284.283, 229.170
285.646, 248.601
287.009, 227.100
288.372, 232.049
289.734, 223.074
291.097, 234.396
292.459, 212.340
293.821, 273.053
295.183, 303.165
296.544, 335.681
297.905, 435.423
299.266, 511.995
300.627, 555.546
301.988, 656.921
303.348, 713.264
304.709, 767.757
306.069, 650.236
307.428, 634.602
308.788, 547.975
310.147, 438.356
311.507, 474.832
312.865, 444.321
314.224, 524.830
315.583, 520.240
316.941, 715.662
318.299, 722.364
319.657, 885.804
321.015, 1139.252
322.372, 1359.816
323.729, 1722.285
325.086, 2033.766
326.443, 2333.263
327.800, 2425.761
329.156, 2400.268
330.512, 2374.783
331.868, 2132.572
333.224, 2060.103
334.579, 1975.933
335.935, 1953.488
337.290, 1979.091
338.645, 1813.558
339.999, 1775.189
341.354, 1460.761
342.708, 1254.339
344.062, 987.958
345.416, 777.583
346.769, 621.231
348.123, 449.897
349.476, 409.569
350.829, 340.260
352.182, 307.960
353.534, 217.664
354.887, 236.393
356.239, 212.136
357.591, 130.901
358.942, 143.680
360.294, 208.475
361.645, 80.291
362.996, 138.121
364.347, 219.974
365.698, 106.835
367.048, 120.713
368.398, 110.614
369.748, 196.519
371.098, 125.436
372.448, 138.371
373.797, 123.317
375.146, 108.278
376.495, 116.242
377.844, 100.229
379.192, 101.207
380.540, 80.187
381.889, 22.161
383.236, 48.142
384.584, 40.127
385.932, 9.107
387.279, 47.088
388.626, 35.065
389.973, 42.038
391.319, 43.009
392.666, 51.978
394.012, 53.944
395.358, 47.910
396.704, 35.875
398.049, 11.154
399.394, 26.184
400.740, 16.781
402.084, 38.751
403.429, 2.276
404.774, 17.301
406.118, 43.673
407.462, 36.651
408.806, 18.634
410.150, 24.622
411.493, 36.617
412.836, 25.621
414.179, 70.678
415.522, 55.706
416.865, 27.747
418.207, 130.809
419.549, 146.904
420.891, 161.029
422.233, 109.166
423.575, 109.323
424.916, 129.487
426.257, 160.654
427.598, 117.824
428.939, 184.995
430.279, 189.167
431.619, 240.341
432.959, 187.514
434.299, 214.689
435.639, 84.865
436.978, 64.041
438.318, 75.217
439.657, 68.393
440.996, 63.570
442.334, 71.747
443.673, 33.923
445.011, 19.099
446.349, 27.725
447.687, 5.562
449.024, 67.401
450.361, 36.274
451.699, 16.165
453.036, 23.063
454.372, 29.972
455.709, 35.895
457.045, 2.837
458.381, 8.782
459.717, 3.733
461.053, 2.688
462.388, 21.648
463.724, 40.381
465.059, 0.408
466.394, 1.432
467.728, 47.453
469.063, 32.471
470.397, 90.488
471.731, 6.502
473.065, 5.514
474.398, 2.522
475.732, 67.527
477.065, 98.457
478.398, 2.543
479.731, 78.484
481.063, 65.476
482.396, 3.465
483.728, 61.020
485.060, 75.804
486.391, 28.816
487.723, 30.792
489.054, 47.763
490.385, 49.754
491.716, 52.281
493.047, 62.652
494.377, 20.418
495.708, 28.495
497.038, 18.404
498.368, 13.690
499.697, 15.360
501.027, 35.294
502.356, 55.178
503.685, 81.949
505.014, 86.864
506.342, 112.980
507.671, 84.100
508.999, 86.490
510.327, 54.436
511.655, 127.713
512.982, 89.653
514.310, 84.795
515.637, 190.492
516.964, 153.390
518.291, 171.222
519.617, 203.624
520.944, 231.225
522.270, 234.076
523.596, 253.944
524.921, 279.873
526.247, 314.319
527.572, 377.532
528.897, 422.294
530.222, 471.961
531.547, 645.770
532.871, 690.276
534.196, 869.613
535.520, 1173.332
536.844, 1407.458
538.167, 2000.159
539.491, 2507.873
540.814, 3197.681
542.137, 3759.434
543.460, 4201.393
544.783, 4223.046
546.105, 3507.112
547.427, 2945.746
548.749, 2200.369
550.071, 1614.984
551.393, 1291.588
552.714, 995.183
554.035, 781.767
555.356, 636.342
556.677, 470.756
557.998, 552.990
559.318, 298.704
560.638, 324.218
561.958, 287.743
563.278, 231.124
564.597, 296.104
565.917, 200.599
567.236, 238.085
568.555, 204.548
569.874, 159.013
571.192, 220.468
572.511, 83.914
573.829, 288.348
575.147, 222.773
576.464, 184.187
577.782, 282.591
579.099, 203.984
580.416, 284.367
581.733, 279.740
583.050, 269.101
584.366, 298.452
585.683, 337.792
586.999, 401.121
588.315, 417.440
589.630, 381.747
590.946, 428.044
592.261, 416.331
593.576, 382.950
594.891, 370.871
596.206, 319.125
597.520, 314.368
598.834, 309.601
600.148, 259.823
601.462, 192.034
602.776, 272.235
604.089, 267.400
605.402, 346.355
606.715, 332.245
608.028, 277.686
609.341, 360.052
610.653, 279.484
611.965, 279.574
613.277, 325.256
614.589, 218.542
615.901, 253.422
617.212, 223.078
618.523, 231.904
619.834, 248.751
621.145, 238.909
622.456, 247.792
623.766, 261.729
625.076, 234.644
626.386, 271.671
627.696, 236.688
629.006, 283.697
630.315, 144.608
631.624, 198.506
632.933, 133.382
634.242, 13.355
635.551, 123.311
636.859, 50.985
638.167, 116.923
639.475, 78.300
640.783, 20.664
642.090, 14.570
643.398, 47.459
644.705, 74.333
646.012, 148.205
647.318, 48.069
648.625, 171.924
649.931, 101.505
651.237, 101.344
652.543, 76.884
653.849, 106.698
655.155, 104.462
656.460, 26.362
657.765, 32.096
659.070, 110.887
660.375, 112.330
661.679, 82.375
662.984, 42.926
664.288, 22.270
665.592, 21.356
666.895, 31.027
668.199, 13.555
669.502, 24.126
670.805, 51.312
672.108, 12.794
673.411, 48.301
674.713, 15.849
676.016, 25.423
677.318, 45.026
678.620, 17.647
679.921, 50.338
681.223, 4.049
682.524, 28.776
683.825, 57.534
685.126, 24.663
686.427, 18.145
687.727, 36.977
689.028, 16.841
690.328, 30.728
691.628, 23.357
692.927, 60.563
694.227, 27.473
695.526, 23.497
696.825, 7.511
698.124, 41.489
699.423, 29.521
700.721, 26.422
702.020, 17.639
703.318, 58.282
704.616, 44.199
705.913, 12.111
707.211, 50.020
708.508, 34.938
709.805, 20.851
711.102, 48.761
712.399, 12.332
713.695, 56.563
714.992, 33.457
716.288, 37.351
717.584, 77.244
718.879, 7.133
720.175, 58.021
721.470, 21.909
722.765, 24.795
724.060, 92.679
725.355, 38.561
726.649, 117.440
727.944, 126.319
729.238, 165.160
730.532, 207.040
731.825, 46.926
733.119, 211.810
734.412, 114.693
735.705, 173.576
736.998, 213.458
738.291, 144.338
739.584, 188.219
740.876, 173.099
742.168, 207.991
743.460, 247.883
744.752, 217.775
746.043, 288.667
747.334, 258.559
748.626, 237.451
749.916, 311.345
751.207, 281.239
752.498, 422.143
753.788, 274.047
755.078, 336.953
756.368, 400.875
757.658, 353.799
758.947, 451.736
760.237, 375.674
761.526, 402.621
762.815, 482.580
764.104, 396.558
765.392, 524.562
766.680, 573.573
767.969, 554.591
769.257, 650.618
770.544, 553.656
771.832, 635.699
773.119, 726.748
774.406, 672.800
775.693, 827.859
776.980, 781.927
778.267, 884.997
779.553, 859.073
780.839, 883.152
782.125, 1052.236
783.411, 1004.323
784.697, 1048.415
785.982, 1135.511
787.267, 1191.611
788.552, 1284.717
789.837, 1368.898
791.122, 1417.013
792.406, 1526.102
793.690, 1583.228
794.974, 1730.971
796.258, 1947.927
797.542, 2051.271
798.825, 2215.397
800.108, 2407.570
801.391, 2718.750
802.674, 3065.930
803.957, 3331.138
805.239, 3814.365
806.522, 4221.601
807.804, 5030.848
809.085, 5774.101
810.367, 6697.360
811.649, 7980.474
812.930, 9283.721
814.211, 11137.019
815.492, 13752.043
816.772, 17515.361
818.053, 22454.789
819.333, 28305.549
820.613, 37848.695
821.893, 45988.961
823.173, 54661.910
824.452, 58815.180
825.732, 55834.285
827.011, 50615.812
828.290, 42075.145
829.568, 33626.566
830.847, 27667.426
832.125, 21617.088
833.403, 18148.506
834.681, 15367.904
835.959, 12830.252
837.236, 11721.097
838.514, 9980.177
839.791, 9623.721
841.068, 8915.366
842.345, 8465.869
843.621, 8707.683
844.898, 8598.666
846.174, 9162.276
847.450, 9921.480
848.726, 10985.115
850.001, 13086.755
851.277, 15150.303
852.552, 18150.912
853.827, 21162.322
855.102, 22766.041
856.376, 23309.172
857.651, 23662.039
858.925, 21405.807
860.199, 18689.584
861.473, 14685.903
862.746, 12289.714
864.020, 9923.538
865.293, 7777.377
866.566, 6670.383
867.839, 5324.253
869.112, 4569.140
870.384, 3956.042
871.656, 3171.960
872.928, 3037.894
874.200, 2470.846
875.472, 2296.812
876.744, 2144.795
878.015, 1746.794
879.286, 1825.810
880.557, 1643.840
881.828, 1469.775
883.098, 1382.839
884.369, 1184.400
885.639, 1216.497
886.909, 1082.609
888.178, 902.739
889.448, 972.885
890.717, 859.051
891.987, 867.233
893.256, 782.432
894.524, 647.290
895.793, 770.533
897.061, 650.792
898.330, 636.069
899.598, 640.363
900.865, 538.676
902.133, 520.005
903.401, 553.352
904.668, 624.441
905.935, 566.822
907.202, 564.227
908.468, 723.195
909.735, 657.627
911.001, 636.526
912.267, 901.994
913.533, 853.478
914.799, 1090.186
916.064, 1387.705
917.330, 1626.843
918.595, 2220.396
919.860, 2476.965
921.124, 2486.552
922.389, 2288.155
923.653, 1799.880
924.918, 1517.517
926.182, 1111.170
927.445, 886.098
928.709, 928.785
929.972, 648.489
931.236, 696.209
932.499, 653.947
933.761, 653.702
935.024, 684.474
936.286, 623.262
937.549, 651.067
938.811, 783.889
940.073, 741.729
941.334, 851.584
942.596, 863.462
943.857, 1071.356
945.118, 1162.269
946.379, 1249.197
947.640, 1388.662
948.900, 1566.628
950.161, 1705.755
951.421, 2064.120
952.681, 2143.140
953.940, 2633.049
955.200, 2909.103
956.459, 3325.172
957.719, 3809.259
958.978, 4084.360
960.236, 4599.479
961.495, 4924.614
962.753, 4649.765
964.012, 5037.732
965.270, 4422.916
966.527, 4318.116
967.785, 3937.104
969.043, 3148.375
970.300, 3060.561
971.557, 2495.211
972.814, 2017.557
974.071, 1812.934
975.327, 1364.327
976.583, 1248.737
977.840, 1019.182
979.095, 742.651
980.351, 691.714
981.607, 565.241
982.862, 390.794
984.117, 524.381
985.372, 336.997
986.627, 384.646
987.882, 256.690
989.136, 184.388
990.390, 260.044
991.644, 142.790
992.898, 227.560
994.152, 154.357
995.405, 6.182
996.659, 140.033
997.912, 89.898
999.165, 84.806
1000.417, 286.560
1001.670, 151.505
1002.922, 348.473
1004.174, 189.469
1005.426, 135.489
1006.678, 199.524
1007.930, 36.580
1009.181, 38.658
1010.432, 103.748
1011.683, 74.147
1012.934, 121.949
1014.185, 24.058
1015.435, 57.188
1016.685, 171.336
1017.935, 26.501
1019.185, 100.684
1020.435, 124.016
1021.684, 66.224
1022.934, 167.445
1024.183, 47.756
1025.432, 90.002
1026.680, 147.262
1027.929, 6.533
1029.177, 232.816
1030.425, 76.110
1031.673, 32.583
1032.921, 175.726
1034.169, 45.953
1035.416, 56.365
1036.663, 43.707
1037.911, 24.061
1039.157, 91.426
1040.404, 11.396
1041.650, 52.784
1042.897, 73.189
1044.143, 65.953
1045.389, 37.448
1046.634, 100.887
1047.880, 44.336
1049.125, 107.797
1050.371, 45.546
1051.615, 79.042
1052.860, 104.591
1054.105, 44.850
1055.349, 41.703
1056.593, 2.284
1057.837, 78.126
1059.081, 61.441
1060.325, 56.980
1061.568, 24.584
1062.812, 51.162
1064.055, 51.251
1065.298, 89.323
1066.540, 76.085
1067.783, 106.483
1069.025, 141.059
1070.267, 31.646
1071.509, 161.241
1072.751, 2.157
1073.993, 15.452
1075.234, 169.067
1076.475, 6.309
1077.716, 156.319
1078.957, 161.954
1080.198, 64.606
1081.438, 156.266
1082.679, 89.933
1083.919, 106.615
1085.159, 162.304
1086.398, 113.002
1087.638, 152.706
1088.877, 162.417
1090.116, 94.134
1091.355, 167.858
1092.594, 123.587
1093.833, 139.322
1095.071, 173.063
1096.309, 8.190
1097.547, 185.557
1098.785, 38.691
1100.023, 23.953
1101.260, 175.776
1102.498, 67.489
1103.735, 22.216
1104.972, 134.927
1106.208, 24.641
1107.445, 230.364
1108.681, 92.090
1109.918, 12.822
1111.154, 169.558
1112.389, 45.703
1113.625, 130.020
1114.860, 136.746
1116.096, 7.523
1117.331, 158.206
1118.566, 28.063
1119.800, 1.653
1121.035, 105.368
1122.269, 51.087
1123.503, 216.809
1124.737, 188.533
1125.971, 90.260
1127.205, 219.989
1128.438, 69.280
1129.671, 126.414
1130.904, 208.114
1132.137, 66.817
1133.370, 125.676
1134.602, 140.382
1135.834, 30.910
1137.066, 190.776
1138.298, 22.536
1139.530, 122.134
1140.762, 142.806
1141.993, 52.479
1143.224, 233.064
1144.455, 29.737
1145.686, 92.409
1146.917, 275.125
1148.147, 34.206
1149.377, 99.437
1150.607, 138.724
1151.837, 107.363
1153.067, 227.264
1154.296, 105.898
1155.526, 86.531
1156.755, 230.068
1157.984, 42.694
1159.213, 146.318
1160.441, 254.880
1161.670, 57.498
1162.898, 299.924
1164.126, 96.455
1165.354, 164.062
1166.581, 304.699
1167.809, 21.298
1169.036, 136.893
1170.263, 207.755
1171.490, 25.340
1172.717, 267.921
1173.943, 107.793
1175.170, 113.366
1176.396, 316.932
1177.622, 54.495
1178.848, 149.052
1180.073, 80.738
1181.299, 123.286
1182.524, 202.347
1183.749, 45.872
1184.974, 59.403
1186.199, 223.125
1187.423, 13.735
1188.648, 210.243
1189.872, 120.055
1191.096, 16.449
1192.320, 247.387
1193.543, 113.240
1194.767, 108.694
1195.990, 174.521
1197.213, 30.251
1198.436, 139.682
1199.659, 168.739
1200.881, 80.249
1202.104, 407.933
1203.326, 182.680
1204.548, 151.066
1205.770, 269.900
1206.991, 99.875
1208.213, 219.797
1209.434, 227.046
1210.655, 56.400
1211.876, 246.540
1213.096, 97.023
1214.317, 99.750
1215.537, 357.073
1216.757, 171.923
1217.977, 242.229
1219.197, 209.527
1220.417, 164.808
1221.636, 321.091
1222.855, 209.365
1224.074, 283.375
1225.293, 207.633
1226.512, 154.303
1227.731, 320.545
1228.949, 288.780
1230.167, 105.055
1231.385, 357.273
1232.603, 236.092
1233.820, 238.297
1235.038, 424.495
1236.255, 193.744
1237.472, 361.929
1238.689, 179.107
1239.906, 229.325
1241.122, 353.493
1242.338, 241.655
1243.555, 186.329
1244.771, 390.479
1245.986, 156.484
1247.202, 271.264
1248.417, 346.399
1249.633, 179.655
1250.848, 320.778
1252.063, 176.896
1253.277, 116.595
1254.492, 208.702
1255.706, 84.804
1256.920, 238.899
1258.134, 298.983
1259.348, 120.103
1260.562, 300.175
1261.775, 148.242
1262.988, 73.758
1264.201, 361.808
1265.414, 93.957
1266.627, 112.787
1267.839, 264.797
1269.052, 93.801
1270.264, 334.788
1271.476, 255.766
1272.688, 113.728
1273.899, 370.677
1275.111, 171.053
1276.322, 254.456
1277.533, 247.378
1278.744, 12.292
1279.955, 191.363
1281.165, 188.259
1282.376, 129.773
1283.586, 214.637
1284.796, 102.566
1286.006, 151.956
1287.215, 167.789
1288.425, 16.572
1289.634, 116.319
1290.843, 182.987
1292.052, 5.354
1293.261, 154.256
1294.469, 119.022
1295.678, 0.396
1296.886, 298.169
1298.094, 43.709
1299.302, 101.235
1300.509, 182.752
1301.717, 4.742
1302.924, 268.747
1304.131, 95.207
1305.338, 31.657
1306.545, 207.089
1307.752, 3.494
1308.958, 13.903
1310.164, 272.286
1311.370, 10.658
1312.576, 152.014
1313.782, 187.222
1314.987, 43.556
1316.193, 296.876
1317.398, 114.102
1318.603, 41.393
1319.807, 306.670
1321.012, 91.925
1322.216, 142.165
1323.421, 242.392
1324.625, 74.604
1325.829, 200.807
1327.032, 252.996
1328.236, 23.821
1329.439, 220.316
1330.642, 48.438
1331.845, 60.542
1333.048, 129.039
1334.251, 2.105
1335.453, 139.151
1336.656, 105.743
1337.858, 80.223
1339.060, 225.773
1340.261, 30.757
1341.463, 31.271
1342.664, 245.412
1343.866, 148.652
1345.067, 55.228
1346.267, 162.098
1347.468, 49.033
1348.669, 199.806
1349.869, 149.636
1351.069, 16.473
1352.269, 197.299
1353.469, 6.127
1354.668, 125.943
1355.868, 100.753
1357.067, 15.432
1358.266, 102.370
1359.465, 117.184
1360.664, 16.996
1361.862, 247.804
1363.061, 94.675
1364.259, 50.484
1365.457, 275.297
1366.655, 89.115
1367.852, 155.940
1369.050, 209.776
1370.247, 21.376
1371.444, 158.477
1372.641, 92.344
1373.838, 15.767
1375.035, 191.143
1376.231, 11.491
1377.427, 84.482
1378.623, 161.392
1379.819, 55.245
1381.015, 219.802
1382.211, 221.346
1383.406, 59.876
1384.601, 320.398
1385.796, 259.934
1386.991, 62.481
1388.185, 356.033
1389.380, 127.567
1390.574, 184.088
1391.768, 286.605
1392.962, 187.119
1394.156, 222.625
1395.350, 230.140
1396.543, 12.646
1397.736, 259.138
1398.929, 104.620
1400.122, 103.129
1401.315, 345.261
1402.507, 3.724
1403.700, 182.203
1404.892, 288.689
1406.084, 39.046
1407.276, 293.500
1408.467, 179.387
1409.659, 43.750
1410.850, 297.832
1412.041, 109.243
1413.232, 126.157
1414.423, 335.916
1415.614, 77.860
1416.804, 310.951
1417.994, 274.857
1419.184, 9.220
1420.374, 318.073
1421.564, 236.944
1422.753, 35.228
1423.943, 303.478
1425.132, 152.759
1426.321, 126.605
1427.510, 429.402
1428.698, 5.640
1429.887, 248.866
1431.075, 329.129
1432.263, 96.441
1433.451, 239.433
1434.639, 277.099
1435.827, 72.747
1437.014, 431.455
1438.201, 158.637
1439.388, 64.297
1440.575, 481.208
1441.762, 221.848
1442.949, 342.414
1444.135, 466.793
1445.321, 275.333
1446.507, 383.307
1447.693, 350.746
1448.879, 325.187
1450.064, 622.317
1451.250, 339.477
1452.435, 392.713
1453.620, 609.809
1454.805, 308.866
1455.989, 477.942
1457.174, 588.961
1458.358, 307.919
1459.542, 590.480
1460.726, 494.282
1461.910, 275.026
1463.093, 564.685
1464.277, 415.776
1465.460, 275.299
1466.643, 546.474
1467.826, 217.928
1469.009, 329.366
1470.191, 527.788
1471.373, 260.000
1472.556, 338.681
1473.738, 355.729
1474.919, 123.782
1476.101, 456.070
1477.283, 191.250
1478.464, 168.882
1479.645, 440.668
1480.826, 172.459
1482.007, 214.325
1483.187, 424.161
1484.368, 158.024
1485.548, 244.989
1486.728, 357.039
1487.908, 96.073
1489.088, 383.099
1490.268, 207.119
1491.447, 131.198
1492.626, 438.344
1493.805, 114.600
1494.984, 115.932
1496.163, 447.338
1497.341, 19.070
1498.520, 262.977
