##NAMES=Forsterite
##RRUFFID=R040057
##IDEAL CHEMISTRY=Mg_2_SiO_4_
##LOCALITY=Trudy's mine, San Carlos, Gila County, Arizona, USA
##OWNER=RRUFF
##SOURCE=Bob Downs
##DESCRIPTION=Dark green crystal fragments from xenoliths in a basalt flow
##STATUS=The identification of this mineral has been confirmed by X-ray diffraction and chemical analysis
##URL=rruff.info/R040057
##MEASURED CHEMISTRY=(Mg_1.67_Fe_0.32_Ni_0.01_)_Î£=2_Si_1.00_O_4_; trace amounts of Mn and Ca
##PIN_ID=L00449
##ORIENTATION=Laser parallel to b* (0 1 0). Fiducial mark perpendicular to laser is parallel to a [1 0 0]
94.768, 0.000
96.161, 23.103
97.554, 1.378
98.947, 11.904
100.340, 19.233
101.732, 25.109
103.124, 11.202
104.516, 154.256
105.908, 190.085
107.300, 120.589
108.691, 154.701
110.082, 115.304
111.473, 189.313
112.864, 260.667
114.254, 409.319
115.644, 425.234
117.034, 423.380
118.424, 332.862
119.813, 319.847
121.203, 205.967
122.592, 205.183
123.981, 177.494
125.369, 49.896
126.758, 40.391
128.146, 51.971
129.534, 77.634
130.922, 120.378
132.309, 99.199
133.696, 88.092
135.083, 153.053
136.470, 114.077
137.857, 200.157
139.243, 163.289
140.630, 180.469
142.016, 119.064
143.401, 163.365
144.787, 213.783
146.172, 163.940
147.557, 187.210
148.942, 196.513
150.327, 232.883
151.711, 196.317
153.096, 252.810
154.480, 182.357
155.863, 204.955
157.247, 202.600
158.630, 185.289
160.013, 179.018
161.396, 136.784
162.779, 142.416
164.161, 192.430
165.544, 142.314
166.926, 99.227
168.308, 106.166
169.689, 53.126
171.070, 125.109
172.452, 100.110
173.833, 127.130
175.213, 119.166
176.594, 86.217
177.974, 89.277
179.354, 48.326
180.734, 85.367
182.114, 115.406
183.493, 83.446
184.872, 34.489
186.251, 65.536
187.630, 50.386
189.008, 22.771
190.387, 55.956
191.765, 41.799
193.143, 12.543
194.520, 24.082
195.898, 4.449
197.275, 34.067
198.652, 24.738
200.029, 1.549
201.405, 38.185
202.782, 17.940
204.158, 44.689
205.534, 135.436
206.909, 72.191
208.285, 74.956
209.660, 160.716
211.035, 83.469
212.410, 221.216
213.784, 176.955
215.159, 259.685
216.533, 338.413
217.907, 338.148
219.281, 352.876
220.654, 369.191
222.027, 332.312
223.400, 353.028
224.773, 329.723
226.146, 295.406
227.518, 403.073
228.891, 340.811
230.263, 378.612
231.634, 345.635
233.006, 374.286
234.377, 419.446
235.748, 345.081
237.119, 396.790
238.490, 361.463
239.860, 271.085
241.231, 333.742
242.601, 264.354
243.970, 229.960
245.340, 245.560
246.709, 171.152
248.079, 196.736
249.448, 156.313
250.816, 125.881
252.185, 123.441
253.553, 128.992
254.921, 119.951
256.289, 173.067
257.657, 129.590
259.024, 148.103
260.391, 164.152
261.758, 84.011
263.125, 192.721
264.492, 113.728
265.858, 163.786
267.224, 197.888
268.590, 113.027
269.956, 148.199
271.321, 191.400
272.687, 192.627
274.052, 173.877
275.416, 323.147
276.781, 267.436
278.146, 249.979
279.510, 435.063
280.874, 420.828
282.237, 529.421
283.601, 509.265
284.964, 598.491
286.327, 844.474
287.690, 993.502
289.053, 1232.581
290.416, 1715.776
291.778, 2030.448
293.140, 2442.319
294.502, 3029.701
295.863, 3585.009
297.225, 3809.870
298.586, 3927.486
299.947, 3824.164
301.308, 3531.285
302.668, 3074.448
304.029, 2697.083
305.389, 2344.778
306.749, 1959.745
308.108, 1797.182
309.468, 1607.559
310.827, 1596.208
312.186, 1489.796
313.545, 1418.465
314.903, 1438.244
316.262, 1361.508
317.620, 1350.640
318.978, 1291.880
320.336, 1168.713
321.693, 1092.400
323.051, 975.937
324.408, 724.286
325.765, 697.928
327.121, 459.331
328.478, 428.012
329.834, 458.399
331.190, 313.723
332.546, 246.107
333.902, 236.622
335.257, 179.019
336.612, 167.331
337.967, 198.448
339.322, 199.168
340.677, 187.833
342.031, 194.854
343.385, 159.447
344.739, 169.761
346.093, 153.419
347.446, 88.887
348.799, 126.781
350.153, 150.394
351.505, 88.496
352.858, 142.964
354.210, 87.327
355.563, 98.749
356.915, 115.109
358.267, 150.077
359.618, 49.459
360.969, 80.831
362.321, 37.191
363.672, 82.663
365.022, 138.268
366.373, 4.988
367.723, 111.353
369.073, 69.861
370.423, 68.216
371.773, 0.023
373.122, 75.951
374.471, 128.325
375.821, 60.936
377.169, 149.369
378.518, 69.791
379.866, 79.320
381.215, 168.707
382.563, 102.037
383.910, 74.593
385.258, 94.896
386.605, 92.186
387.952, 148.615
389.299, 124.896
390.646, 144.162
391.992, 147.414
393.339, 233.668
394.685, 165.907
396.031, 294.131
397.376, 303.339
398.722, 401.533
400.067, 374.713
401.412, 477.877
402.757, 694.027
404.101, 852.164
405.446, 1029.284
406.790, 1298.391
408.134, 1550.483
409.478, 1651.561
410.821, 1646.623
412.165, 1466.669
413.508, 1376.702
414.851, 1180.719
416.193, 994.721
417.536, 832.708
418.878, 666.680
420.220, 673.636
421.562, 534.577
422.904, 534.504
424.245, 524.420
425.586, 514.323
426.927, 415.213
428.268, 336.089
429.609, 248.951
430.949, 196.799
432.289, 253.632
433.629, 158.450
434.969, 193.253
436.309, 153.041
437.648, 147.813
438.987, 62.570
440.326, 19.690
441.665, 29.991
443.003, 62.661
444.342, 34.296
445.680, 4.091
447.018, 27.490
448.355, 47.952
449.693, 32.451
451.030, 20.001
452.367, 60.428
453.704, 28.164
455.041, 83.803
456.377, 50.520
457.713, 11.296
459.049, 23.112
460.385, 9.026
461.721, 14.865
463.056, 25.202
464.391, 22.756
465.726, 63.241
467.061, 35.216
468.395, 3.832
469.730, 132.084
471.064, 64.981
472.398, 79.858
473.731, 61.715
475.065, 48.551
476.398, 21.366
477.731, 26.468
479.064, 22.274
480.397, 43.705
481.729, 58.418
483.062, 88.109
484.394, 159.780
485.725, 62.432
487.057, 117.062
488.389, 56.674
489.720, 118.263
491.051, 133.833
492.382, 116.384
493.712, 84.040
495.043, 110.550
496.373, 19.041
497.703, 25.504
499.032, 50.928
500.362, 140.440
501.691, 120.931
503.020, 70.765
504.349, 151.471
505.678, 73.453
507.007, 116.830
508.335, 58.560
509.663, 90.396
510.991, 169.274
512.319, 137.546
513.646, 193.957
514.973, 200.311
516.300, 187.315
517.627, 221.199
518.954, 169.062
520.280, 169.207
521.607, 201.174
522.933, 138.229
524.259, 112.338
525.584, 100.194
526.910, 186.152
528.235, 146.332
529.560, 215.908
530.885, 99.530
532.209, 80.984
533.534, 174.018
534.858, 113.846
536.182, 174.809
537.506, 174.818
538.829, 155.942
540.152, 186.668
541.476, 284.371
542.799, 139.050
544.121, 202.669
545.444, 246.299
546.766, 165.689
548.088, 290.270
549.410, 232.826
550.732, 247.357
552.053, 251.383
553.375, 205.867
554.696, 240.327
556.017, 283.762
557.337, 284.174
558.658, 317.562
559.978, 202.926
561.298, 383.267
562.618, 315.583
563.938, 267.876
565.257, 397.146
566.576, 387.391
567.895, 404.613
569.214, 490.812
570.533, 516.987
571.851, 605.139
573.170, 722.269
574.488, 659.374
575.805, 735.457
577.123, 724.516
578.440, 878.553
579.758, 940.566
581.075, 1015.558
582.391, 1211.526
583.708, 1307.473
585.024, 1408.396
586.341, 1690.297
587.657, 1971.176
588.972, 2264.032
590.288, 2674.866
591.603, 2913.678
592.918, 3577.467
594.233, 4172.234
595.548, 4709.980
596.863, 5094.704
598.177, 5660.168
599.491, 5916.086
600.805, 6007.315
602.119, 6014.707
603.432, 5770.837
604.746, 5575.573
606.059, 4973.541
607.372, 4312.447
608.685, 4004.290
609.997, 3306.003
611.309, 2911.226
612.621, 2497.232
613.933, 2244.714
615.245, 1822.253
616.557, 1662.224
617.868, 1476.424
619.179, 1257.546
620.490, 982.209
621.801, 996.812
623.111, 786.928
624.421, 848.967
625.731, 591.698
627.041, 764.928
628.351, 453.196
629.660, 415.174
630.970, 512.198
632.279, 323.122
633.588, 315.920
634.896, 158.215
636.205, 348.624
637.513, 79.908
638.821, 218.581
640.129, 190.381
641.437, 206.313
642.744, 104.416
644.051, 120.205
645.358, 198.215
646.665, 147.929
647.972, 127.917
649.278, 142.951
650.584, 48.906
651.890, 194.711
653.196, 134.614
654.502, 73.585
655.807, 27.269
657.113, 2.242
658.418, 46.120
659.722, 12.933
661.027, 35.512
662.331, 72.711
663.636, 16.298
664.940, 70.722
666.244, 6.386
667.547, 75.245
668.851, 34.671
670.154, 12.765
671.457, 1.287
672.760, 25.208
674.062, 32.735
675.365, 81.297
676.667, 17.076
677.969, 5.559
679.271, 9.791
680.572, 42.003
681.874, 86.953
683.175, 31.062
684.476, 30.847
685.777, 5.806
687.077, 40.634
688.378, 33.100
689.678, 17.400
690.978, 30.675
692.278, 179.505
693.577, 1.576
694.877, 88.654
696.176, 34.116
697.475, 36.010
698.774, 27.943
700.072, 115.632
701.371, 16.555
702.669, 68.526
703.967, 14.218
705.265, 183.095
706.562, 65.967
707.860, 68.164
709.157, 166.668
710.454, 69.498
711.751, 138.325
713.047, 24.149
714.344, 148.971
715.640, 17.790
716.936, 117.607
718.232, 149.423
719.527, 130.236
720.823, 63.048
722.118, 71.859
723.413, 80.669
724.708, 90.479
726.002, 212.288
727.297, 101.096
728.591, 194.904
729.885, 260.713
731.179, 110.522
732.472, 161.333
733.766, 236.143
735.059, 212.955
736.352, 151.768
737.645, 257.582
738.937, 318.398
740.230, 231.217
741.522, 302.037
742.814, 339.859
744.106, 324.685
745.397, 291.513
746.689, 340.343
747.980, 376.186
749.271, 299.031
750.562, 383.881
751.853, 462.733
753.143, 393.591
754.433, 480.453
755.723, 460.440
757.013, 606.230
758.303, 449.135
759.592, 547.046
760.881, 548.971
762.170, 638.903
763.459, 642.862
764.748, 585.846
766.036, 797.838
767.325, 672.839
768.613, 723.861
769.901, 857.920
771.188, 736.007
772.476, 928.111
773.763, 857.237
775.050, 928.387
776.337, 959.575
777.624, 1100.773
778.910, 1086.997
780.196, 1101.229
781.482, 1075.473
782.768, 1109.732
784.054, 1170.932
785.339, 1378.281
786.625, 1348.576
787.910, 1516.882
789.195, 1646.200
790.479, 1643.530
791.764, 1776.883
793.048, 1958.212
794.332, 2142.607
795.616, 2344.566
796.900, 2612.436
798.183, 2799.864
799.467, 3095.307
800.750, 3354.799
802.033, 3837.305
803.316, 4510.846
804.598, 4821.398
805.880, 5817.863
807.163, 6654.463
808.445, 7726.092
809.726, 9208.743
811.008, 11166.420
812.289, 13542.029
813.570, 16929.652
814.851, 21346.922
816.132, 27162.316
817.413, 33445.430
818.693, 40090.145
819.973, 44716.500
821.253, 45983.758
822.533, 44148.961
823.813, 38540.762
825.092, 33048.422
826.371, 27383.611
827.650, 22840.199
828.929, 19778.406
830.208, 17141.621
831.486, 14976.498
832.764, 13663.607
834.042, 12775.511
835.320, 12364.486
836.598, 12167.713
837.875, 12324.541
839.152, 12478.450
840.429, 13687.966
841.706, 14529.419
842.983, 16201.628
844.259, 18780.691
845.536, 21644.961
846.812, 25864.025
848.088, 30517.102
849.363, 35693.027
850.639, 40843.375
851.914, 43561.754
853.189, 44508.180
854.464, 43520.605
855.739, 40081.082
857.013, 34919.785
858.288, 29429.295
859.562, 24937.834
860.836, 20989.385
862.110, 16922.455
863.383, 14410.057
864.656, 11964.678
865.930, 10129.326
867.203, 8508.993
868.475, 7317.684
869.748, 6050.392
871.020, 5245.121
872.292, 4651.873
873.564, 4042.660
874.836, 3548.471
876.108, 3069.305
877.379, 3045.160
878.650, 2793.039
879.922, 2414.965
881.192, 2047.911
882.463, 1950.879
883.733, 1678.868
885.004, 1553.881
886.274, 1339.915
887.544, 1299.978
888.813, 1091.062
890.083, 1006.168
891.352, 945.297
892.621, 773.449
893.890, 685.623
895.159, 676.819
896.427, 620.036
897.695, 571.555
898.964, 601.535
900.232, 494.524
901.499, 483.827
902.767, 471.152
904.034, 392.497
905.301, 430.893
906.568, 487.281
907.835, 412.689
909.102, 442.120
910.368, 296.571
911.634, 516.044
912.900, 382.538
914.166, 611.052
915.432, 314.586
916.697, 283.576
917.962, 397.160
919.227, 356.868
920.492, 404.485
921.757, 380.122
923.021, 372.778
924.285, 405.455
925.550, 317.152
926.813, 258.348
928.077, 303.310
929.341, 346.064
930.604, 448.108
931.867, 472.899
933.130, 432.710
934.393, 542.539
935.655, 452.387
936.918, 754.580
938.180, 554.536
939.442, 777.439
940.703, 990.488
941.965, 1027.431
943.226, 1151.613
944.488, 1418.256
945.749, 1802.247
947.009, 2012.551
948.270, 2167.740
949.530, 2655.783
950.791, 3227.842
952.051, 3558.506
953.311, 3735.597
954.570, 4427.605
955.830, 4605.728
957.089, 4815.353
958.348, 4810.504
959.607, 4906.619
960.866, 4668.062
962.124, 4433.273
963.383, 4363.443
964.641, 3955.713
965.899, 3672.466
967.156, 3282.938
968.414, 3003.431
969.671, 2738.809
970.928, 2443.926
972.185, 2225.592
973.442, 1907.698
974.699, 1806.172
975.955, 1514.673
977.211, 1345.703
978.468, 1164.233
979.723, 1088.127
980.979, 1012.708
982.234, 993.326
983.490, 742.108
984.745, 738.067
986.000, 737.038
987.254, 579.745
988.509, 728.312
989.763, 578.062
991.017, 515.888
992.271, 562.921
993.525, 449.729
994.779, 495.770
996.032, 510.677
997.285, 518.518
998.538, 291.480
999.791, 579.543
1001.044, 340.601
1002.296, 484.811
1003.548, 388.154
1004.800, 377.165
1006.052, 405.240
1007.304, 207.232
1008.555, 439.196
1009.807, 321.840
1011.058, 240.334
1012.309, 293.438
1013.559, 223.224
1014.810, 260.562
1016.060, 311.714
1017.310, 267.803
1018.560, 150.898
1019.810, 258.003
1021.060, 297.146
1022.309, 160.521
1023.558, 220.793
1024.807, 242.335
1026.056, 222.139
1027.305, 140.408
1028.553, 280.855
1029.801, 227.929
1031.049, 103.111
1032.297, 160.296
1033.545, 333.889
1034.793, 134.103
1036.040, 158.332
1037.287, 217.032
1038.534, 100.433
1039.781, 249.662
1041.027, 88.439
1042.274, 198.878
1043.520, 216.115
1044.766, 48.360
1046.012, 113.604
1047.257, 53.847
1048.503, 240.087
1049.748, 56.674
1050.993, 280.545
1052.238, 125.762
1053.483, 30.976
1054.727, 0.810
1055.971, 175.466
1057.216, 28.674
1058.459, 39.878
1059.703, 199.079
1060.947, 28.275
1062.190, 31.468
1063.433, 140.655
1064.676, 46.838
1065.919, 17.984
1067.162, 2.183
1068.404, 5.656
1069.646, 41.497
1070.888, 112.646
1072.130, 100.790
1073.372, 94.928
1074.613, 169.058
1075.855, 53.819
1077.096, 80.727
1078.337, 202.321
1079.578, 6.639
1080.818, 177.391
1082.059, 43.413
1083.299, 76.426
1084.539, 55.432
1085.779, 5.571
1087.018, 21.587
1088.258, 71.378
1089.497, 5.333
1090.736, 37.277
1091.975, 37.787
1093.213, 59.883
1094.452, 50.979
1095.690, 0.169
1096.928, 10.668
1098.166, 51.494
1099.404, 125.310
1100.642, 148.886
1101.879, 119.825
1103.116, 88.475
1104.353, 72.162
1105.590, 80.213
1106.827, 83.354
1108.063, 54.094
1109.299, 10.587
1110.536, 69.896
1111.771, 83.636
1113.007, 70.768
1114.243, 5.159
1115.478, 37.530
1116.713, 41.888
1117.948, 80.319
1119.183, 56.150
1120.418, 51.432
1121.652, 454.785
1122.886, 227.029
1124.120, 290.289
1125.354, 12.504
1126.588, 158.988
1127.821, 96.562
1129.055, 126.128
1130.288, 119.404
1131.521, 72.681
1132.753, 29.271
1133.986, 3.272
1135.218, 9.163
1136.450, 51.813
1137.682, 130.378
1138.914, 22.179
1140.146, 59.898
1141.377, 148.018
1142.609, 23.085
1143.840, 4.266
1145.071, 139.427
1146.301, 111.512
1147.532, 91.606
1148.762, 102.631
1149.992, 4.438
1151.222, 20.765
1152.452, 129.222
1153.682, 0.721
1154.911, 191.452
1156.140, 25.274
1157.369, 39.218
1158.598, 49.699
1159.827, 133.938
1161.055, 37.551
1162.284, 86.993
1163.512, 134.914
1164.740, 239.872
1165.967, 231.761
1167.195, 211.245
1168.422, 207.819
1169.650, 111.988
1170.877, 4.857
1172.103, 78.771
1173.330, 57.294
1174.557, 149.436
1175.783, 108.716
1177.009, 46.664
1178.235, 226.861
1179.461, 220.291
1180.686, 89.357
1181.912, 179.285
1183.137, 273.368
1184.362, 38.296
1185.587, 150.046
1186.811, 200.991
1188.036, 83.521
1189.260, 147.813
1190.484, 207.454
1191.708, 266.872
1192.932, 279.901
1194.155, 281.661
1195.378, 285.880
1196.602, 246.394
1197.825, 235.174
1199.047, 240.865
1200.270, 236.370
1201.492, 360.320
1202.715, 189.678
1203.937, 305.181
1205.159, 236.843
1206.380, 257.150
1207.602, 265.433
1208.823, 251.689
1210.044, 381.919
1211.265, 380.126
1212.486, 342.306
1213.707, 295.026
1214.927, 354.146
1216.147, 300.139
1217.367, 326.549
1218.587, 329.601
1219.807, 299.627
1221.027, 366.627
1222.246, 270.602
1223.465, 352.072
1224.684, 382.768
1225.903, 299.666
1227.121, 282.268
1228.340, 355.115
1229.558, 380.943
1230.776, 349.744
1231.994, 393.524
1233.212, 383.951
1234.429, 424.607
1235.646, 433.488
1236.864, 462.854
1238.081, 424.498
1239.297, 397.896
1240.514, 314.830
1241.730, 340.410
1242.947, 301.670
1244.163, 283.041
1245.378, 244.550
1246.594, 241.428
1247.810, 222.825
1249.025, 235.978
1250.240, 253.877
1251.455, 275.274
1252.670, 267.163
1253.885, 209.515
1255.099, 230.998
1256.313, 215.338
1257.527, 245.194
1258.741, 226.496
1259.955, 263.663
1261.168, 296.416
1262.382, 280.409
1263.595, 170.391
1264.808, 143.501
1266.021, 115.108
1267.233, 166.016
1268.446, 222.054
1269.658, 181.729
1270.870, 199.048
1272.082, 119.482
1273.294, 124.409
1274.505, 63.967
1275.716, 136.783
1276.928, 2.578
1278.139, 288.187
1279.349, 67.605
1280.560, 220.996
1281.770, 179.629
1282.981, 101.378
1284.191, 57.942
1285.401, 110.415
1286.610, 95.667
1287.820, 144.293
1289.029, 148.515
1290.239, 175.860
1291.448, 71.259
1292.656, 67.565
1293.865, 73.757
1295.073, 90.967
1296.282, 19.992
1297.490, 59.901
1298.698, 198.113
1299.906, 95.244
1301.113, 68.443
1302.320, 13.327
1303.528, 135.209
1304.735, 21.879
1305.942, 91.924
1307.148, 125.286
1308.355, 37.080
1309.561, 32.045
1310.767, 37.056
1311.973, 6.042
1313.179, 107.997
1314.384, 160.908
1315.590, 153.564
1316.795, 43.306
1318.000, 0.759
1319.205, 8.109
1320.410, 87.618
1321.614, 32.110
1322.819, 28.957
1324.023, 35.675
1325.227, 30.398
1326.431, 122.641
1327.634, 79.731
1328.838, 109.864
1330.041, 230.967
1331.244, 88.354
1332.447, 10.106
1333.650, 23.868
1334.852, 144.164
1336.055, 10.355
1337.257, 113.101
1338.459, 89.544
1339.661, 155.970
1340.862, 146.382
1342.064, 181.780
1343.265, 81.173
1344.466, 119.552
1345.667, 26.916
1346.868, 176.266
1348.068, 99.537
1349.269, 54.861
1350.469, 422.173
1351.669, 325.474
1352.869, 252.764
1354.069, 335.044
1355.268, 235.534
1356.468, 307.028
1357.667, 192.284
1358.866, 159.536
1360.065, 208.995
1361.263, 48.370
1362.462, 150.605
1363.660, 243.840
1364.858, 140.072
1366.056, 176.357
1367.254, 286.588
1368.451, 189.811
1369.649, 207.054
1370.846, 272.287
1372.043, 158.516
1373.240, 151.857
1374.436, 289.085
1375.633, 177.903
1376.829, 279.143
1378.025, 162.170
1379.221, 191.874
1380.417, 210.266
1381.613, 217.903
1382.808, 195.543
1384.003, 181.164
1385.199, 209.703
1386.393, 206.029
1387.588, 252.980
1388.783, 234.630
1389.977, 225.290
1391.171, 228.950
1392.365, 168.637
1393.559, 182.878
1394.753, 153.608
1395.946, 181.805
1397.140, 144.385
1398.333, 156.639
1399.526, 117.237
1400.719, 135.489
1401.911, 246.954
1403.104, 204.523
1404.296, 172.062
1405.488, 265.965
1406.680, 111.310
1407.872, 181.417
1409.063, 241.968
1410.255, 216.221
1411.446, 330.190
1412.637, 232.909
1413.828, 236.026
1415.018, 324.006
1416.209, 387.461
1417.399, 212.130
1418.589, 395.353
1419.779, 220.607
1420.969, 337.117
1422.159, 267.434
1423.348, 268.908
1424.537, 293.746
1425.726, 231.605
1426.915, 294.466
1428.104, 206.439
1429.293, 150.509
1430.481, 28.559
1431.669, 321.180
1432.857, 304.103
1434.045, 363.534
1435.233, 479.542
1436.420, 338.625
1437.608, 235.455
1438.795, 376.272
1439.982, 282.066
1441.169, 436.844
1442.355, 372.013
1443.542, 509.741
1444.728, 377.450
1445.914, 444.139
1447.100, 524.807
1448.286, 551.443
1449.472, 328.042
1450.657, 451.611
1451.842, 426.173
1453.027, 473.703
1454.212, 596.193
1455.397, 385.641
1456.581, 539.040
1457.766, 587.390
1458.950, 339.688
1460.134, 573.945
1461.318, 392.163
1462.501, 324.398
1463.685, 537.591
1464.868, 319.749
1466.051, 485.865
1467.234, 215.030
1468.417, 119.190
1469.600, 389.376
1470.782, 445.706
1471.965, 226.178
1473.147, 403.714
1474.329, 366.487
1475.510, 279.407
1476.692, 272.923
1477.873, 297.973
1479.055, 158.050
1480.236, 468.168
1481.416, 304.297
1482.597, 287.447
1483.778, 250.625
1484.958, 200.826
1486.138, 196.057
1487.318, 173.412
1488.498, 251.631
1489.678, 180.995
1490.857, 269.426
1492.037, 326.939
1493.216, 257.548
1494.395, 207.270
1495.574, 188.119
1496.752, 10.894
1497.931, 278.229
1499.109, 206.476
1500.287, 195.862
1501.465, 4.374
1502.643, 24.027
1503.820, 79.842
1504.998, 180.841
1506.175, 179.052
1507.352, 50.503
1508.529, 72.221
1509.706, 108.124
1510.882, 136.918
1512.059, 142.958
1513.235, 249.749
1514.411, 6.582
1515.587, 279.761
1516.762, 10.801
1517.938, 178.654
1519.113, 139.312
1520.288, 43.142
1521.463, 0.000
##END=



