##NAMES=Forsterite
##RRUFFID=R040057
##IDEAL CHEMISTRY=Mg_2_SiO_4_
##LOCALITY=Trudy's mine, San Carlos, Gila County, Arizona, USA
##OWNER=RRUFF
##SOURCE=Bob Downs
##DESCRIPTION=Dark green crystal fragments from xenoliths in a basalt flow
##STATUS=The identification of this mineral has been confirmed by X-ray diffraction and chemical analysis
##URL=rruff.info/R040057
##MEASURED CHEMISTRY=(Mg_1.67_Fe_0.32_Ni_0.01_)_Î£=2_Si_1.00_O_4_; trace amounts of Mn and Ca
##PIN_ID=L00449
##ORIENTATION=Laser parallel to b* (0 1 0). Fiducial mark perpendicular to laser is parallel to a [1 0 0]
94.768, 0.000
96.161, 20.029
97.554, 11.980
98.947, 4.187
100.340, 62.638
101.732, 15.290
103.124, 33.273
104.516, 103.309
105.908, 320.200
107.300, 194.823
108.691, 199.069
110.082, 83.838
111.473, 55.046
112.864, 285.626
114.254, 498.525
115.644, 546.715
117.034, 520.230
118.424, 367.051
119.813, 342.118
121.203, 361.385
122.592, 273.818
123.981, 139.391
125.369, 148.084
126.758, 134.878
128.146, 118.761
129.534, 140.722
130.922, 160.756
132.309, 106.858
133.696, 123.040
135.083, 176.325
136.470, 193.920
137.857, 272.935
139.243, 310.250
140.630, 247.547
142.016, 261.783
143.401, 217.965
144.787, 281.100
146.172, 338.201
147.557, 257.276
148.942, 282.332
150.327, 244.369
151.711, 226.389
153.096, 231.094
154.480, 238.386
155.863, 216.364
157.247, 199.330
158.630, 174.283
160.013, 276.224
161.396, 195.163
162.779, 244.115
164.161, 180.093
165.544, 200.074
166.926, 164.071
168.308, 162.088
169.689, 127.119
171.070, 160.140
172.452, 180.131
173.833, 129.384
175.213, 156.448
176.594, 106.368
177.974, 188.484
179.354, 175.732
180.734, 98.872
182.114, 142.004
183.493, 134.270
184.872, 83.030
186.251, 140.400
187.630, 87.721
189.008, 62.047
190.387, 82.393
191.765, 100.767
193.143, 112.187
194.520, 66.646
195.898, 131.194
197.275, 121.832
198.652, 194.530
200.029, 143.250
201.405, 243.981
202.782, 244.717
204.158, 304.452
205.534, 481.198
206.909, 480.945
208.285, 545.692
209.660, 551.441
211.035, 572.188
212.410, 632.935
213.784, 620.687
215.159, 594.435
216.533, 526.176
217.907, 508.911
219.281, 479.641
220.654, 371.367
222.027, 438.084
223.400, 364.891
224.773, 370.506
226.146, 316.404
227.518, 303.636
228.891, 306.930
230.263, 292.215
231.634, 268.196
233.006, 268.307
234.377, 244.295
235.748, 279.530
237.119, 245.537
238.490, 219.542
239.860, 171.742
241.231, 171.944
242.601, 71.171
243.970, 115.155
245.340, 53.977
246.709, 52.498
248.079, 48.894
249.448, 11.721
250.816, 42.652
252.185, 0.987
253.553, 2.025
254.921, 9.199
256.289, 2.990
257.657, 42.692
259.024, 22.422
260.391, 24.010
261.758, 41.689
263.125, 12.521
264.492, 37.533
265.858, 70.182
267.224, 3.809
268.590, 33.406
269.956, 21.982
271.321, 53.459
272.687, 0.920
274.052, 15.395
275.416, 79.884
276.781, 31.384
278.146, 69.893
279.510, 91.410
280.874, 55.933
282.237, 248.582
283.601, 190.756
284.964, 300.862
286.327, 349.399
287.690, 587.528
289.053, 683.479
290.416, 925.897
291.778, 1041.933
293.140, 1286.033
294.502, 1596.462
295.863, 1800.911
297.225, 2005.436
298.586, 2043.295
299.947, 2029.733
301.308, 1884.131
302.668, 1704.247
304.029, 1587.738
305.389, 1590.839
306.749, 1571.681
308.108, 1675.724
309.468, 1720.451
310.827, 1861.257
312.186, 1818.082
313.545, 1875.490
314.903, 1788.416
316.262, 1758.173
317.620, 1766.007
318.978, 1686.788
320.336, 1655.485
321.693, 1537.509
323.051, 1469.159
324.408, 1232.818
325.765, 1278.545
327.121, 1094.186
328.478, 984.388
329.834, 970.339
331.190, 892.072
332.546, 904.622
333.902, 793.147
335.257, 760.647
336.612, 613.096
337.967, 569.619
339.322, 519.211
340.677, 442.766
342.031, 399.089
343.385, 334.623
344.739, 223.481
346.093, 210.746
347.446, 148.955
348.799, 128.122
350.153, 135.288
351.505, 96.345
352.858, 105.490
354.210, 93.559
355.563, 70.893
356.915, 22.982
358.267, 79.058
359.618, 48.141
360.969, 38.228
362.321, 59.319
363.672, 27.411
365.022, 49.521
366.373, 0.616
367.723, 37.699
369.073, 79.768
370.423, 98.836
371.773, 42.896
373.122, 17.940
374.471, 85.985
375.821, 17.015
377.169, 37.063
378.518, 14.097
379.866, 35.129
381.215, 53.145
382.563, 40.148
383.910, 5.867
385.258, 116.096
386.605, 62.046
387.952, 29.000
389.299, 82.946
390.646, 50.871
391.992, 100.775
393.339, 67.658
394.685, 104.517
396.031, 194.365
397.376, 160.194
398.722, 259.003
400.067, 267.791
401.412, 318.559
402.757, 447.306
404.101, 596.028
405.446, 686.729
406.790, 846.409
408.134, 991.070
409.478, 1203.714
410.821, 1174.339
412.165, 1297.477
413.508, 1501.065
414.851, 1537.495
416.193, 1749.880
417.536, 1933.026
418.878, 2273.346
420.220, 2595.534
421.562, 2890.966
422.904, 3353.278
424.245, 3364.461
425.586, 3115.800
426.927, 2738.214
428.268, 2185.557
429.609, 1682.690
430.949, 1213.292
432.289, 1033.586
433.629, 722.894
434.969, 596.030
436.309, 406.207
437.648, 408.454
438.987, 259.651
440.326, 161.855
441.665, 155.039
443.003, 115.201
444.342, 21.340
445.680, 27.453
447.018, 6.539
448.355, 26.594
449.693, 5.378
451.030, 3.187
452.367, 37.564
453.704, 18.509
455.041, 23.627
456.377, 39.794
457.713, 25.018
459.049, 30.291
460.385, 7.616
461.721, 6.981
463.056, 27.614
464.391, 9.180
465.726, 27.446
467.061, 59.218
468.395, 30.696
469.730, 82.145
471.064, 60.568
472.398, 53.965
473.731, 10.334
475.065, 38.670
476.398, 62.992
477.731, 47.325
479.064, 52.578
480.397, 70.002
481.729, 25.388
483.062, 76.847
484.394, 72.243
485.725, 53.625
487.057, 72.096
488.389, 14.449
489.720, 26.826
491.051, 48.307
492.382, 87.428
493.712, 94.013
495.043, 97.887
496.373, 108.162
497.703, 87.547
499.032, 70.304
500.362, 71.931
501.691, 120.322
503.020, 66.244
504.349, 26.129
505.678, 121.245
507.007, 138.608
508.335, 155.789
509.663, 153.791
510.991, 231.592
512.319, 167.555
513.646, 249.861
514.973, 139.641
516.300, 251.886
517.627, 310.393
518.954, 276.438
520.280, 277.859
521.607, 345.310
522.933, 380.233
524.259, 433.866
525.584, 424.312
526.910, 518.094
528.235, 616.422
529.560, 781.141
530.885, 920.107
532.209, 1009.701
533.534, 1290.113
534.858, 1598.396
536.182, 1867.492
537.506, 2039.733
538.829, 2019.888
540.152, 1899.613
541.476, 1654.397
542.799, 1284.959
544.121, 1138.633
545.444, 839.009
546.766, 720.743
548.088, 640.204
549.410, 558.753
550.732, 495.954
552.053, 515.757
553.375, 451.138
554.696, 451.479
556.017, 535.051
557.337, 540.801
558.658, 451.312
559.978, 474.161
561.298, 544.609
562.618, 537.028
563.938, 647.416
565.257, 784.773
566.576, 755.099
567.895, 899.408
569.214, 1005.690
570.533, 1183.924
571.851, 1225.131
573.170, 1423.308
574.488, 1461.454
575.805, 1560.570
577.123, 1545.660
578.440, 1519.719
579.758, 1375.758
581.075, 1297.773
582.391, 1308.763
583.708, 1162.731
585.024, 1107.671
586.341, 1189.589
587.657, 1331.496
588.972, 1494.373
590.288, 1495.228
591.603, 1699.059
592.918, 1885.859
594.233, 2199.631
595.548, 2521.375
596.863, 2656.087
598.177, 2924.771
599.491, 2978.426
600.805, 3101.053
602.119, 3110.527
603.432, 3023.451
604.746, 2889.417
606.059, 2517.920
607.372, 2221.805
608.685, 2110.540
609.997, 1721.372
611.309, 1497.257
612.621, 1385.048
613.933, 1201.479
615.245, 1083.857
616.557, 958.127
617.868, 841.030
619.179, 709.322
620.490, 594.620
621.801, 626.165
623.111, 510.296
624.421, 492.780
625.731, 401.486
627.041, 399.954
628.351, 331.701
629.660, 220.333
630.970, 354.910
632.279, 241.867
633.588, 175.271
634.896, 164.808
636.205, 197.231
637.513, 127.671
638.821, 129.159
640.129, 103.283
641.437, 110.745
642.744, 106.184
644.051, 77.473
645.358, 97.834
646.665, 82.597
647.972, 53.573
649.278, 2.270
650.584, 0.975
651.890, 28.301
653.196, 13.561
654.502, 42.828
655.807, 1.020
657.113, 22.016
658.418, 31.027
659.722, 6.477
661.027, 10.125
662.331, 59.378
663.636, 48.359
664.940, 62.346
666.244, 51.650
667.547, 42.386
668.851, 30.363
670.154, 52.475
671.457, 93.564
672.760, 23.982
674.062, 37.800
675.365, 54.438
676.667, 47.736
677.969, 50.091
679.271, 41.501
680.572, 103.963
681.874, 24.492
683.175, 6.074
684.476, 21.332
685.777, 43.281
687.077, 3.945
688.378, 8.363
689.678, 47.350
690.978, 30.889
692.278, 124.892
693.577, 1.240
694.877, 49.650
696.176, 72.413
697.475, 10.540
698.774, 95.481
700.072, 19.489
701.371, 3.515
702.669, 78.541
703.967, 30.584
705.265, 128.256
706.562, 70.125
707.860, 87.981
709.157, 113.824
710.454, 30.346
711.751, 154.455
713.047, 26.243
714.344, 111.016
715.640, 2.224
716.936, 111.521
718.232, 92.253
719.527, 131.975
720.823, 92.685
722.118, 137.383
723.413, 55.071
724.708, 51.748
726.002, 136.413
727.297, 59.069
728.591, 83.714
729.885, 179.350
731.179, 95.976
732.472, 183.592
733.766, 90.200
735.059, 125.798
736.352, 231.388
737.645, 270.969
738.937, 316.542
740.230, 205.106
741.522, 321.662
742.814, 248.211
744.106, 339.751
745.397, 284.284
746.689, 190.811
747.980, 346.330
749.271, 257.842
750.562, 453.348
751.853, 407.846
753.143, 518.339
754.433, 449.826
755.723, 437.308
757.013, 633.785
758.303, 497.258
759.592, 565.729
760.881, 630.197
762.170, 688.669
763.459, 628.138
764.748, 592.615
766.036, 785.096
767.325, 642.593
768.613, 820.100
769.901, 846.616
771.188, 821.146
772.476, 962.687
773.763, 808.238
775.050, 1038.804
776.337, 1037.377
777.624, 1043.950
778.910, 1096.550
780.196, 1260.150
781.482, 1176.750
782.768, 1323.353
784.054, 1297.965
785.339, 1432.578
786.625, 1436.191
787.910, 1560.810
789.195, 1607.415
790.479, 1874.984
791.764, 1939.607
793.048, 2164.039
794.332, 2302.494
795.616, 2537.873
796.900, 2881.301
798.183, 2968.715
799.467, 3496.019
800.750, 3763.417
802.033, 4183.765
803.316, 4976.994
804.598, 5399.559
805.880, 6420.265
807.163, 7515.259
808.445, 8645.822
809.726, 10253.062
811.008, 12442.922
812.289, 15320.886
813.570, 19058.078
814.851, 24246.723
816.132, 30644.377
817.413, 38169.785
818.693, 45869.938
819.973, 50741.250
821.253, 52081.734
822.533, 50276.387
823.813, 43921.832
825.092, 37630.949
826.371, 31725.531
827.650, 26436.531
828.929, 23041.047
830.208, 19996.246
831.486, 17665.918
832.764, 16161.497
834.042, 15170.683
835.320, 14305.005
836.598, 13908.582
837.875, 13614.184
839.152, 13212.806
840.429, 13852.189
841.706, 14214.114
842.983, 15305.714
844.259, 17173.049
845.536, 19280.828
846.812, 22466.426
848.088, 26037.998
849.363, 29862.445
850.639, 33469.492
851.914, 35429.527
853.189, 35801.719
854.464, 34922.609
855.739, 32323.262
857.013, 28345.314
858.288, 24112.457
859.562, 21068.771
860.836, 18197.037
862.110, 15293.405
863.383, 13509.787
864.656, 11329.346
865.930, 9636.763
867.203, 8255.982
868.475, 7091.435
869.748, 5779.533
871.020, 5063.017
872.292, 4302.517
873.564, 3810.035
874.836, 3327.571
876.108, 3066.125
877.379, 2834.682
878.650, 2347.252
879.922, 2155.861
881.192, 1918.487
882.463, 1688.131
883.733, 1482.792
885.004, 1355.471
886.274, 1222.167
887.544, 1100.152
888.813, 1001.370
890.083, 929.361
891.352, 821.127
892.621, 786.911
893.890, 710.713
895.159, 632.533
896.427, 598.372
897.695, 522.742
898.964, 523.102
900.232, 450.994
901.499, 436.904
902.767, 506.833
904.034, 456.780
905.301, 499.745
906.568, 543.810
907.835, 537.812
909.102, 465.833
910.368, 464.147
911.634, 550.212
912.900, 623.288
914.166, 606.898
915.432, 664.011
916.697, 580.035
917.962, 631.185
919.227, 567.190
920.492, 521.828
921.757, 503.032
923.021, 596.253
924.285, 491.493
925.550, 491.750
926.813, 408.699
928.077, 484.992
929.341, 484.301
930.604, 636.074
931.867, 513.418
933.130, 652.780
934.393, 771.159
935.655, 715.636
936.918, 975.049
938.180, 957.479
939.442, 979.925
940.703, 1152.825
941.965, 1266.869
943.226, 1439.366
944.488, 1777.920
945.749, 2043.526
947.009, 2271.417
948.270, 2663.143
949.530, 2932.726
950.791, 3462.326
952.051, 3829.440
953.311, 3969.075
954.570, 4541.073
955.830, 4584.744
957.089, 4884.852
958.348, 4744.571
959.607, 4741.310
960.866, 4535.471
962.124, 4365.008
963.383, 4259.864
964.641, 3762.636
965.899, 3561.490
967.156, 3301.370
968.414, 2876.864
969.671, 2712.911
970.928, 2331.830
972.185, 2048.841
973.442, 1876.868
974.699, 1683.926
975.955, 1401.016
977.211, 1184.141
978.468, 1113.311
979.723, 949.880
980.979, 914.168
982.234, 985.413
983.490, 756.691
984.745, 822.125
986.000, 735.551
987.254, 536.938
988.509, 656.342
989.763, 560.763
991.017, 566.651
992.271, 561.892
993.525, 449.502
994.779, 514.971
996.032, 506.537
997.285, 472.126
998.538, 291.765
999.791, 453.574
1001.044, 341.488
1002.296, 429.184
1003.548, 221.076
1004.800, 302.802
1006.052, 297.970
1007.304, 159.726
1008.555, 205.112
1009.807, 201.224
1011.058, 275.489
1012.309, 242.945
1013.559, 234.041
1014.810, 156.104
1016.060, 168.014
1017.310, 264.931
1018.560, 193.355
1019.810, 293.369
1021.060, 169.452
1022.309, 256.459
1023.558, 256.638
1024.807, 138.035
1026.056, 159.018
1027.305, 191.140
1028.553, 248.137
1029.801, 194.247
1031.049, 168.263
1032.297, 245.286
1033.545, 142.579
1034.793, 131.614
1036.040, 176.660
1037.287, 225.721
1038.534, 98.805
1039.781, 605.888
1041.027, 470.002
1042.274, 660.120
1043.520, 575.244
1044.766, 530.371
1046.012, 426.970
1047.257, 302.526
1048.503, 195.809
1049.748, 21.952
1050.993, 194.100
1052.238, 91.249
1053.483, 101.400
1054.727, 18.558
1055.971, 5.295
1057.216, 56.051
1058.459, 13.214
1059.703, 14.620
1060.947, 2.228
1062.190, 83.708
1063.433, 22.126
1064.676, 9.037
1065.919, 31.800
1067.162, 78.356
1068.404, 86.487
1069.646, 18.366
1070.888, 112.749
1072.130, 21.865
1073.372, 8.981
1074.613, 176.098
1075.855, 43.788
1077.096, 37.310
1078.337, 61.406
1079.578, 104.498
1080.818, 61.547
1082.059, 156.593
1083.299, 102.634
1084.539, 46.324
1085.779, 27.694
1087.018, 21.712
1088.258, 25.727
1089.497, 51.738
1090.736, 26.225
1091.975, 9.755
1093.213, 22.242
1094.452, 40.359
1095.690, 92.287
1096.928, 40.371
1098.166, 15.521
1099.404, 67.408
1100.642, 7.708
1101.879, 73.165
1103.116, 39.966
1104.353, 99.876
1105.590, 103.286
1106.827, 77.490
1108.063, 49.262
1109.299, 1.972
1110.536, 58.003
1111.771, 16.647
1113.007, 43.644
1114.243, 37.808
1115.478, 33.601
1116.713, 51.736
1117.948, 10.978
1119.183, 24.153
1120.418, 122.436
1121.652, 304.262
1122.886, 426.862
1124.120, 386.863
1125.354, 112.441
1126.588, 153.049
1127.821, 42.412
1129.055, 34.264
1130.288, 93.751
1131.521, 130.567
1132.753, 35.966
1133.986, 38.653
1135.218, 76.237
1136.450, 48.176
1137.682, 108.541
1138.914, 10.983
1140.146, 5.158
1141.377, 0.021
1142.609, 12.771
1143.840, 154.331
1145.071, 134.854
1146.301, 147.869
1147.532, 48.156
1148.762, 31.855
1149.992, 89.268
1151.222, 46.752
1152.452, 156.507
1153.682, 26.190
1154.911, 106.281
1156.140, 13.262
1157.369, 39.927
1158.598, 9.869
1159.827, 9.265
1161.055, 53.699
1162.284, 64.904
1163.512, 144.194
1164.740, 131.080
1165.967, 38.328
1167.195, 99.423
1168.422, 87.761
1169.650, 108.977
1170.877, 70.961
1172.103, 45.863
1173.330, 174.824
1174.557, 94.097
1175.783, 141.091
1177.009, 26.920
1178.235, 169.739
1179.461, 150.707
1180.686, 68.630
1181.912, 172.509
1183.137, 146.113
1184.362, 164.101
1185.587, 139.552
1186.811, 150.708
1188.036, 173.936
1189.260, 181.441
1190.484, 207.217
1191.708, 235.833
1192.932, 226.278
1194.155, 240.876
1195.378, 147.454
1196.602, 227.097
1197.825, 212.477
1199.047, 287.974
1200.270, 185.300
1201.492, 344.975
1202.715, 119.304
1203.937, 201.547
1205.159, 233.247
1206.380, 354.471
1207.602, 165.534
1208.823, 263.710
1210.044, 272.873
1211.265, 262.945
1212.486, 336.078
1213.707, 189.286
1214.927, 345.369
1216.147, 289.607
1217.367, 377.259
1218.587, 330.365
1219.807, 400.433
1221.027, 270.427
1222.246, 219.402
1223.465, 257.684
1224.684, 304.620
1225.903, 180.537
1227.121, 223.987
1228.340, 325.863
1229.558, 424.721
1230.776, 310.559
1231.994, 213.294
1233.212, 234.090
1234.429, 254.868
1235.646, 291.621
1236.864, 266.356
1238.081, 173.075
1239.297, 331.775
1240.514, 240.480
1241.730, 320.014
1242.947, 218.320
1244.163, 254.794
1245.378, 303.410
1246.594, 307.003
1247.810, 166.079
1249.025, 314.624
1250.240, 214.808
1251.455, 172.317
1252.670, 220.398
1253.885, 163.872
1255.099, 166.328
1256.313, 29.365
1257.527, 36.927
1258.741, 167.372
1259.955, 10.803
1261.168, 128.146
1262.382, 161.464
1263.595, 134.213
1264.808, 95.330
1266.021, 186.589
1267.233, 96.773
1268.446, 148.930
1269.658, 64.067
1270.870, 151.148
1272.082, 142.204
1273.294, 161.225
1274.505, 111.845
1275.716, 254.738
1276.928, 74.688
1278.139, 194.616
1279.349, 107.394
1280.560, 113.189
1281.770, 110.049
1282.981, 67.547
1284.191, 127.647
1285.401, 29.918
1286.610, 46.843
1287.820, 25.396
1289.029, 94.916
1290.239, 6.317
1291.448, 30.252
1292.656, 130.798
1293.865, 49.168
1295.073, 93.440
1296.282, 72.833
1297.490, 41.204
1298.698, 45.646
1299.906, 21.635
1301.113, 66.032
1302.320, 81.812
1303.528, 78.869
1304.735, 79.238
1305.942, 18.456
1307.148, 69.500
1308.355, 29.436
1309.561, 163.783
1310.767, 52.983
1311.973, 12.667
1313.179, 20.747
1314.384, 49.753
1315.590, 91.821
1316.795, 106.704
1318.000, 86.848
1319.205, 35.414
1320.410, 70.319
1321.614, 6.334
1322.819, 100.225
1324.023, 60.197
1325.227, 66.151
1326.431, 71.822
1327.634, 8.739
1328.838, 16.364
1330.041, 26.493
1331.244, 117.342
1332.447, 75.832
1333.650, 143.954
1334.852, 63.728
1336.055, 96.485
1337.257, 197.229
1338.459, 90.963
1339.661, 90.682
1340.862, 70.356
1342.064, 128.051
1343.265, 94.732
1344.466, 136.401
1345.667, 48.062
1346.868, 119.708
1348.068, 116.171
1349.269, 36.800
1350.469, 189.416
1351.669, 97.026
1352.869, 137.630
1354.069, 270.228
1355.268, 36.819
1356.468, 125.408
1357.667, 280.991
1358.866, 191.576
1360.065, 176.306
1361.263, 117.904
1362.462, 112.105
1363.660, 116.680
1364.858, 140.715
1366.056, 157.324
1367.254, 213.940
1368.451, 244.574
1369.649, 222.218
1370.846, 189.661
1372.043, 177.113
1373.240, 156.922
1374.436, 179.939
1375.633, 260.972
1376.829, 225.227
1378.025, 261.098
1379.221, 246.225
1380.417, 266.379
1381.613, 147.505
1382.808, 196.620
1384.003, 341.775
1385.199, 239.913
1386.393, 191.028
1387.588, 264.140
1388.783, 155.282
1389.977, 249.090
1391.171, 232.191
1392.365, 251.215
1393.559, 205.205
1394.753, 179.013
1395.946, 234.782
1397.140, 166.310
1398.333, 239.265
1399.526, 232.885
1400.719, 201.712
1401.911, 242.314
1403.104, 175.691
1404.296, 141.578
1405.488, 301.788
1406.680, 88.259
1407.872, 232.054
1409.063, 272.977
1410.255, 126.627
1411.446, 363.465
1412.637, 294.431
1413.828, 274.213
1415.018, 230.466
1416.209, 257.629
1417.399, 183.453
1418.589, 224.466
1419.779, 267.642
1420.969, 373.194
1422.159, 217.766
1423.348, 248.659
1424.537, 215.395
1425.726, 199.845
1426.915, 217.627
1428.104, 305.702
1429.293, 236.267
1430.481, 172.218
1431.669, 242.742
1432.857, 355.654
1434.045, 280.217
1435.233, 455.188
1436.420, 443.546
1437.608, 278.413
1438.795, 337.720
1439.982, 385.747
1441.169, 379.748
1442.355, 273.492
1443.542, 514.329
1444.728, 314.234
1445.914, 432.112
1447.100, 516.966
1448.286, 420.793
1449.472, 482.033
1450.657, 493.375
1451.842, 446.121
1453.027, 461.815
1454.212, 454.456
1455.397, 471.431
1456.581, 460.601
1457.766, 510.151
1458.950, 504.649
1460.134, 477.100
1461.318, 407.491
1462.501, 320.832
1463.685, 449.152
1464.868, 277.464
1466.051, 443.994
1467.234, 366.529
1468.417, 366.239
1469.600, 297.048
1470.782, 400.879
1471.965, 275.726
1473.147, 294.585
1474.329, 299.613
1475.510, 218.939
1476.692, 238.292
1477.873, 333.673
1479.055, 247.086
1480.236, 409.540
1481.416, 195.027
1482.597, 344.548
1483.778, 220.103
1484.958, 296.697
1486.138, 203.341
1487.318, 377.039
1488.498, 245.808
1489.678, 210.658
1490.857, 141.608
1492.037, 267.677
1493.216, 297.883
1494.395, 188.233
1495.574, 317.725
1496.752, 160.364
1497.931, 266.166
1499.109, 175.117
1500.287, 157.224
1501.465, 39.496
1502.643, 135.982
1503.820, 168.688
1504.998, 244.653
1506.175, 117.909
1507.352, 194.488
1508.529, 154.425
1509.706, 202.761
1510.882, 186.553
1512.059, 153.761
1513.235, 180.006
1514.411, 6.186
1515.587, 194.567
1516.762, 2.632
1517.938, 52.899
1519.113, 0.407
1520.288, 0.000
##END=



