##NAMES=Forsterite
##RRUFFID=R050117
##IDEAL CHEMISTRY=Mg_2_SiO_4_
##LOCALITY=Sapat, Gilgit, Pakistan
##OWNER=RRUFF
##SOURCE=Farooq and Nazia Sawal
##DESCRIPTION=Fragment of a green crystal
##STATUS=The identification of this mineral has been confirmed by X-ray diffraction and chemical analysis
##URL=rruff.info/R050117
##MEASURED CHEMISTRY=(Mg_1.81_Fe_0.18_Ni_0.01_)_Î£=2_Si_1.00_O_4_
##PIN_ID=M00216
##ORIENTATION=Laser parallel to b* (0 1 0). Fiducial mark perpendicular to laser is parallel to c [0 0 1]
46.644, 0.000
48.046, 3.197
49.448, 72.929
50.850, 107.883
52.251, 200.696
53.653, 360.712
55.054, 787.945
56.454, 1163.043
57.855, 1553.643
59.255, 1902.429
60.655, 2110.459
62.055, 2322.804
63.454, 2352.586
64.854, 2337.817
66.253, 2251.606
67.652, 2055.880
69.050, 1891.085
70.449, 1828.038
71.847, 2065.119
73.245, 2043.798
74.643, 2051.105
76.040, 1693.354
77.438, 1295.572
78.835, 1059.424
80.232, 819.858
81.628, 593.774
83.025, 461.563
84.421, 300.545
85.817, 202.993
87.213, 131.114
88.608, 118.146
90.003, 105.389
91.398, 65.727
92.793, 46.309
94.188, 30.077
95.582, 6.380
96.976, 17.245
98.370, 2.169
99.764, 13.597
101.157, 37.889
102.550, 60.678
103.943, 40.019
105.336, 6.927
106.729, 56.269
108.121, 154.303
109.513, 235.542
110.905, 200.596
112.297, 160.389
113.688, 111.118
115.079, 88.592
116.470, 59.045
117.861, 92.795
119.251, 49.335
120.642, 84.141
122.032, 25.741
123.422, 67.346
124.811, 27.333
126.201, 86.214
127.590, 67.792
128.979, 80.683
130.367, 43.626
131.756, 89.103
133.144, 54.514
134.532, 130.001
135.920, 76.838
137.307, 145.978
138.695, 124.377
140.082, 70.992
141.469, 56.784
142.856, 38.713
144.242, 82.736
145.628, 67.517
147.014, 40.882
148.400, 72.170
149.786, 50.764
151.171, 93.302
152.556, 71.059
153.941, 40.985
155.325, 32.375
156.710, 64.240
158.094, 5.951
159.478, 0.813
160.862, 40.975
162.245, 24.263
163.629, 10.772
165.012, 30.589
166.395, 20.645
167.777, 44.540
169.160, 40.647
170.542, 59.949
171.924, 31.871
173.306, 26.618
174.687, 2.204
176.068, 33.638
177.449, 38.914
178.830, 27.027
180.211, 35.984
181.591, 35.786
182.972, 24.635
184.351, 17.055
185.731, 0.291
187.111, 34.534
188.490, 57.536
189.869, 36.685
191.248, 67.973
192.626, 0.393
194.005, 1.048
195.383, 28.642
196.761, 22.457
198.139, 48.255
199.516, 51.074
200.893, 17.683
202.271, 51.969
203.647, 44.118
205.024, 28.408
206.400, 2.340
207.777, 33.813
209.152, 27.887
210.528, 23.928
211.904, 118.217
213.279, 157.467
214.654, 250.650
216.029, 351.675
217.403, 456.528
218.778, 565.844
220.152, 686.621
221.526, 743.067
222.900, 810.869
224.273, 792.227
225.646, 790.097
227.019, 742.373
228.392, 749.092
229.765, 731.408
231.137, 743.247
232.509, 730.541
233.881, 729.216
235.253, 792.491
236.625, 772.077
237.996, 751.133
239.367, 753.571
240.738, 677.006
242.108, 628.970
243.479, 585.412
244.849, 572.333
246.219, 553.778
247.589, 491.862
248.958, 488.394
250.328, 436.820
251.697, 477.390
253.065, 443.256
254.434, 450.600
255.803, 419.466
257.171, 406.675
258.539, 373.430
259.906, 385.665
261.274, 409.230
262.641, 386.696
264.008, 417.331
265.375, 412.228
266.742, 369.109
268.108, 402.191
269.475, 358.259
270.840, 348.708
272.206, 387.745
273.572, 368.443
274.937, 390.390
276.302, 389.992
277.667, 416.186
279.032, 442.805
280.396, 391.081
281.760, 458.865
283.125, 437.622
284.488, 494.495
285.852, 529.672
287.215, 554.625
288.578, 570.056
289.941, 697.279
291.304, 749.711
292.666, 862.669
294.029, 1093.904
295.391, 1361.456
296.753, 1764.834
298.114, 2267.745
299.476, 2733.536
300.837, 3263.737
302.198, 3364.618
303.558, 3140.231
304.919, 2707.256
306.279, 2196.920
307.639, 1790.342
308.999, 1392.307
310.359, 1217.088
311.718, 985.496
313.077, 928.191
314.436, 837.662
315.795, 784.559
317.154, 836.119
318.512, 838.252
319.870, 885.114
321.228, 910.584
322.586, 974.765
323.943, 1045.536
325.300, 1051.466
326.657, 935.598
328.014, 881.737
329.371, 781.468
330.727, 750.946
332.083, 662.793
333.439, 612.555
334.795, 618.629
336.150, 643.138
337.506, 618.735
338.861, 610.495
340.215, 627.232
341.570, 491.026
342.924, 466.583
344.279, 425.256
345.633, 400.907
346.986, 404.496
348.340, 361.227
349.693, 383.063
351.046, 331.674
352.399, 338.838
353.752, 362.253
355.104, 372.624
356.457, 347.386
357.809, 305.125
359.160, 331.226
360.512, 300.739
361.863, 244.470
363.214, 241.950
364.565, 230.632
365.916, 176.209
367.267, 183.269
368.617, 178.335
369.967, 162.039
371.317, 162.334
372.666, 121.566
374.016, 104.746
375.365, 121.719
376.714, 105.768
378.063, 160.097
379.411, 101.736
380.760, 122.703
382.108, 138.019
383.456, 99.611
384.803, 135.104
386.151, 118.511
387.498, 109.832
388.845, 124.062
390.192, 109.208
391.539, 122.264
392.885, 98.233
394.231, 96.120
395.577, 106.924
396.923, 66.650
398.269, 96.295
399.614, 89.864
400.959, 108.000
402.304, 185.779
403.649, 166.135
404.993, 193.305
406.337, 232.522
407.681, 322.051
409.025, 356.739
410.369, 435.116
411.712, 548.431
413.055, 727.486
414.398, 810.671
415.741, 866.677
417.084, 924.680
418.426, 861.522
419.768, 739.283
421.110, 649.880
422.452, 575.507
423.793, 566.214
425.134, 512.810
426.475, 570.522
427.816, 599.199
429.157, 691.704
430.497, 865.370
431.837, 1008.867
433.177, 1219.318
434.517, 1382.921
435.857, 1400.428
437.196, 1368.010
438.535, 1188.575
439.874, 989.236
441.213, 739.998
442.551, 616.537
443.889, 495.353
445.227, 337.076
446.565, 290.037
447.903, 242.144
449.240, 178.363
450.577, 172.648
451.914, 111.936
453.251, 138.211
454.588, 100.476
455.924, 92.728
457.260, 66.972
458.596, 51.202
459.932, 51.421
461.267, 50.625
462.602, 43.817
463.938, 54.992
465.272, 51.154
466.607, 81.303
467.941, 52.443
469.276, 73.573
470.610, 61.693
471.943, 43.802
473.277, 73.901
474.610, 47.991
475.944, 58.071
477.276, 66.141
478.609, 56.200
479.942, 72.252
481.274, 31.298
482.606, 67.334
483.938, 23.371
485.270, 54.406
486.601, 31.433
487.932, 52.466
489.263, 35.552
490.594, 41.601
491.925, 44.619
493.255, 46.630
494.585, 23.642
495.915, 65.674
497.245, 18.714
498.575, 32.836
499.904, 6.732
501.233, 3.742
502.562, 22.001
503.891, 19.442
505.219, 23.620
506.548, 3.885
507.876, 14.032
509.203, 15.171
510.531, 29.390
511.859, 38.135
513.186, 57.776
514.513, 86.235
515.840, 57.247
517.166, 89.278
518.493, 41.951
519.819, 44.575
521.145, 88.559
522.470, 128.979
523.796, 95.251
525.121, 91.877
526.446, 102.944
527.771, 104.587
529.096, 111.988
530.421, 127.667
531.745, 149.088
533.069, 176.616
534.393, 212.381
535.716, 257.462
537.040, 317.598
538.363, 380.962
539.686, 474.088
541.009, 497.411
542.331, 577.218
543.654, 519.929
544.976, 442.656
546.298, 359.349
547.620, 326.308
548.941, 249.180
550.263, 190.298
551.584, 208.742
552.905, 203.698
554.225, 221.055
555.546, 133.775
556.866, 167.704
558.186, 181.935
559.506, 159.959
560.826, 198.058
562.145, 216.769
563.465, 239.112
564.784, 253.569
566.103, 313.192
567.421, 302.929
568.740, 344.660
570.058, 417.385
571.376, 483.104
572.694, 600.819
574.011, 747.529
575.329, 831.235
576.646, 1040.936
577.963, 1286.634
579.279, 1552.329
580.596, 1760.022
581.912, 1988.712
583.228, 2117.399
584.544, 2043.084
585.860, 2007.766
587.175, 1749.446
588.491, 1554.123
589.806, 1442.798
591.121, 1422.471
592.435, 1473.143
593.750, 1514.812
595.064, 1639.479
596.378, 1948.145
597.692, 2198.808
599.006, 2712.469
600.319, 2977.127
601.632, 3431.783
602.945, 3853.437
604.258, 3991.088
605.571, 4170.735
606.883, 3880.379
608.195, 3629.981
609.507, 3225.564
610.819, 2794.896
612.131, 2418.344
613.442, 1863.638
614.753, 1588.904
616.064, 1390.067
617.375, 1089.169
618.685, 980.277
619.995, 792.386
621.306, 675.472
622.615, 574.609
623.925, 491.736
625.235, 437.994
626.544, 348.137
627.853, 343.374
629.162, 294.566
630.471, 269.689
631.779, 246.944
633.087, 214.261
634.395, 198.295
635.703, 170.534
637.011, 112.737
638.318, 101.013
639.625, 84.124
640.932, 94.392
642.239, 101.481
643.546, 52.706
644.852, 69.842
646.158, 11.071
647.464, 17.234
648.770, 23.429
650.076, 30.643
651.381, 18.871
652.686, 11.009
653.991, 7.328
655.296, 15.543
656.600, 11.365
657.905, 7.699
659.209, 36.245
660.513, 3.136
661.817, 35.038
663.120, 37.945
664.423, 4.958
665.726, 28.931
667.029, 23.915
668.332, 49.855
669.635, 29.789
670.937, 58.659
672.239, 32.449
673.541, 16.381
674.842, 31.189
676.144, 45.212
677.445, 18.254
678.746, 47.122
680.047, 26.911
681.348, 33.795
682.648, 44.713
683.948, 18.611
685.248, 32.510
686.548, 38.397
687.848, 4.715
689.147, 0.171
690.447, 30.943
691.746, 25.940
693.044, 21.166
694.343, 10.276
695.641, 6.389
696.940, 13.505
698.238, 28.376
699.535, 8.268
700.833, 43.163
702.130, 44.077
703.427, 13.009
704.724, 29.945
706.021, 12.107
707.318, 1.837
708.614, 14.780
709.910, 2.727
711.206, 9.769
712.502, 13.380
713.798, 0.562
715.093, 12.499
716.388, 23.565
717.683, 3.365
718.978, 59.707
720.272, 27.782
721.567, 63.861
722.861, 64.943
724.155, 49.029
725.448, 97.117
726.742, 72.208
728.035, 51.302
729.328, 89.399
730.621, 107.500
731.914, 71.604
733.206, 94.711
734.499, 99.822
735.791, 126.937
737.083, 122.055
738.374, 109.177
739.666, 141.303
740.957, 151.433
742.248, 142.566
743.539, 133.704
744.830, 137.486
746.120, 143.159
747.410, 139.143
748.701, 182.298
749.990, 194.458
751.280, 245.626
752.570, 242.804
753.859, 264.526
755.148, 240.181
756.437, 269.381
757.725, 275.585
759.014, 240.797
760.302, 271.014
761.590, 311.235
762.878, 292.463
764.166, 329.695
765.453, 364.940
766.740, 354.192
768.027, 408.456
769.314, 379.735
770.601, 437.026
771.887, 489.343
773.174, 464.669
774.460, 515.010
775.745, 516.363
777.031, 546.736
778.316, 598.132
779.602, 575.535
780.887, 629.958
782.172, 671.394
783.456, 714.842
784.741, 746.302
786.025, 718.779
787.309, 805.263
788.593, 820.757
789.876, 943.260
791.160, 987.774
792.443, 1038.301
793.726, 1205.843
795.009, 1237.400
796.291, 1276.974
797.574, 1542.565
798.856, 1577.174
800.138, 1844.800
801.420, 1987.382
802.702, 2165.007
803.983, 2587.666
805.264, 2823.334
806.545, 3274.005
807.826, 3806.657
809.107, 4287.317
810.387, 5311.895
811.667, 5992.709
812.947, 7415.414
814.227, 9257.876
815.507, 11456.156
816.786, 15182.703
818.065, 19109.086
819.344, 24667.311
820.623, 29994.236
821.902, 32531.459
823.180, 33557.188
824.459, 30134.111
825.737, 25609.361
827.014, 21796.154
828.292, 17313.844
829.569, 14870.742
830.847, 12376.839
832.124, 10604.479
833.401, 9860.494
834.677, 8837.697
835.954, 8514.532
837.230, 8590.747
838.506, 8558.462
839.782, 9045.435
841.057, 9622.084
842.333, 10821.009
843.608, 12079.741
844.883, 13998.759
846.158, 17016.207
847.433, 21108.793
848.707, 26174.293
849.981, 32083.344
851.255, 38292.430
852.529, 45989.855
853.803, 49448.336
855.076, 50694.977
856.350, 48481.570
857.623, 41229.883
858.895, 35347.348
860.168, 28496.512
861.441, 22695.414
862.713, 18763.717
863.985, 14672.624
865.257, 12551.225
866.528, 10410.455
867.800, 8799.522
869.071, 7928.783
870.342, 7004.056
871.613, 6502.058
872.884, 6314.357
874.154, 6150.672
875.425, 6659.001
876.695, 7189.342
877.965, 8093.697
879.234, 9003.067
880.504, 9162.452
881.773, 9081.848
883.042, 7550.257
884.311, 6228.683
885.580, 5020.123
886.848, 4060.824
888.117, 3252.041
889.385, 2646.522
890.653, 2213.017
891.920, 1941.525
893.188, 1702.048
894.455, 1546.584
895.722, 1400.135
896.989, 1253.699
898.256, 1257.277
899.523, 1094.869
900.789, 1048.475
902.055, 987.117
903.321, 883.394
904.587, 869.138
905.852, 831.799
907.118, 813.092
908.383, 790.572
909.648, 780.482
910.913, 747.513
912.177, 743.242
913.442, 722.985
914.706, 766.742
915.970, 801.513
917.233, 833.663
918.497, 810.460
919.760, 705.453
921.024, 729.032
922.287, 621.757
923.550, 633.822
924.812, 615.955
926.075, 588.880
927.337, 654.944
928.599, 602.349
929.861, 634.359
931.122, 734.284
932.384, 672.999
933.645, 711.513
934.906, 831.660
936.167, 815.292
937.428, 905.864
938.688, 955.860
939.948, 1050.100
941.208, 1151.118
942.468, 1233.641
943.728, 1457.576
944.987, 1473.017
946.247, 1778.436
947.506, 2019.354
948.765, 2274.166
950.023, 2705.399
951.282, 3020.921
952.540, 3510.886
953.798, 4244.546
955.056, 4680.683
956.314, 5647.830
957.572, 6132.986
958.829, 6653.306
960.086, 7236.323
961.343, 7025.510
962.600, 6989.093
963.856, 6738.471
965.113, 5913.697
966.369, 5455.944
967.625, 4694.201
968.881, 4034.505
970.136, 3499.803
971.392, 2927.341
972.647, 2465.443
973.902, 2052.789
975.157, 1699.157
976.411, 1460.544
977.666, 1207.956
978.920, 1072.386
980.174, 959.831
981.428, 852.296
982.682, 775.781
983.935, 668.282
985.188, 616.804
986.441, 615.422
987.694, 483.980
988.947, 482.560
990.199, 477.154
991.452, 373.769
992.704, 391.402
993.956, 321.046
995.207, 327.699
996.459, 313.360
997.710, 253.039
998.961, 298.726
1000.212, 220.421
1001.463, 201.129
1002.714, 251.845
1003.964, 180.576
1005.214, 241.326
1006.464, 161.095
1007.714, 148.886
1008.964, 162.691
1010.213, 144.512
1011.462, 111.348
1012.711, 126.193
1013.960, 99.059
1015.209, 146.936
1016.457, 85.822
1017.705, 77.725
1018.954, 130.638
1020.201, 100.558
1021.449, 123.485
1022.697, 92.420
1023.944, 103.363
1025.191, 98.313
1026.438, 81.268
1027.685, 124.230
1028.931, 96.199
1030.177, 100.173
1031.423, 94.155
1032.669, 69.184
1033.915, 83.180
1035.161, 66.181
1036.406, 19.187
1037.651, 83.199
1038.896, 58.312
1040.141, 34.336
1041.386, 80.365
1042.630, 90.412
1043.874, 113.450
1045.118, 89.493
1046.362, 80.297
1047.606, 55.592
1048.849, 31.648
1050.092, 14.708
1051.336, 0.228
1052.578, 16.161
1053.821, 24.146
1055.064, 22.960
1056.306, 32.979
1057.548, 10.070
1058.790, 20.123
1060.032, 7.822
1061.273, 6.233
1062.515, 9.291
1063.756, 2.351
1064.997, 7.943
1066.237, 25.520
1067.478, 2.535
1068.718, 21.407
1069.959, 31.359
1071.199, 15.324
1072.438, 70.295
1073.678, 3.302
1074.918, 17.310
1076.157, 19.325
1077.396, 41.351
1078.635, 50.397
1079.873, 13.532
1081.112, 44.538
1082.350, 6.631
1083.588, 17.729
1084.826, 7.837
1086.064, 23.951
1087.301, 16.922
1088.539, 0.796
1089.776, 36.667
1091.013, 3.460
1092.250, 10.593
1093.486, 18.734
1094.723, 17.887
1095.959, 25.399
1097.195, 23.222
1098.431, 29.432
1099.666, 17.648
1100.902, 7.878
1102.137, 2.116
1103.372, 45.641
1104.607, 19.398
1105.842, 19.154
1107.076, 6.911
1108.311, 22.335
1109.545, 38.403
1110.779, 2.141
1112.012, 7.874
1113.246, 38.607
1114.479, 22.339
1115.712, 26.070
1116.945, 17.801
1118.178, 36.531
1119.411, 34.231
1120.643, 27.057
1121.875, 43.924
1123.108, 50.651
1124.339, 57.375
1125.571, 72.215
1126.802, 58.937
1128.034, 66.094
1129.265, 31.749
1130.496, 49.465
1131.727, 74.178
1132.957, 37.948
1134.187, 18.700
1135.418, 54.585
1136.648, 65.482
1137.877, 60.188
1139.107, 67.673
1140.336, 43.376
1141.566, 52.155
1142.795, 63.866
1144.023, 84.650
1145.252, 91.839
1146.480, 104.520
1147.709, 70.196
1148.937, 127.084
1150.165, 57.786
1151.392, 120.494
1152.620, 129.964
1153.847, 90.652
1155.074, 108.195
1156.301, 56.360
1157.528, 98.001
1158.755, 105.690
1159.981, 121.467
1161.207, 98.420
1162.433, 108.242
1163.659, 101.937
1164.885, 111.796
1166.110, 89.872
1167.336, 121.743
1168.561, 127.368
1169.786, 106.188
1171.010, 123.994
1172.235, 76.747
1173.459, 73.314
1174.683, 108.037
1175.907, 79.758
1177.131, 64.306
1178.355, 70.425
1179.578, 46.557
1180.801, 94.084
1182.024, 79.681
1183.247, 66.194
1184.470, 103.789
1185.692, 44.886
1186.915, 98.382
1188.137, 106.865
1189.359, 53.452
1190.580, 110.931
1191.802, 98.392
1193.023, 72.856
1194.244, 112.428
1195.465, 75.889
1196.686, 87.388
1197.907, 138.811
1199.127, 135.229
1200.347, 126.999
1201.567, 118.302
1202.787, 116.334
1204.007, 114.074
1205.226, 113.948
1206.446, 125.315
1207.665, 135.361
1208.884, 155.713
1210.102, 160.057
1211.321, 150.394
1212.539, 130.783
1213.758, 170.738
1214.976, 163.053
1216.193, 142.177
1217.411, 182.721
1218.628, 142.271
1219.846, 178.338
1221.063, 169.343
1222.280, 126.640
1223.496, 211.724
1224.713, 138.555
1225.929, 151.759
1227.145, 182.010
1228.361, 117.564
1229.577, 169.220
1230.793, 163.249
1232.008, 130.871
1233.223, 167.485
1234.438, 150.682
1235.653, 118.640
1236.868, 161.826
1238.082, 128.514
1239.297, 188.796
1240.511, 144.579
1241.725, 94.390
1242.938, 121.766
1244.152, 116.196
1245.365, 129.215
1246.578, 111.947
1247.791, 46.281
1249.004, 112.962
1250.217, 119.096
1251.429, 77.226
1252.642, 126.389
1253.854, 90.366
1255.066, 56.756
1256.277, 75.042
1257.489, 67.764
1258.700, 88.250
1259.911, 75.337
1261.122, 73.560
1262.333, 62.659
1263.544, 41.712
1264.754, 27.123
1265.964, 81.166
1267.174, 21.194
1268.384, 51.539
1269.594, 51.530
1270.803, 23.514
1272.013, 62.841
1273.222, 52.795
1274.431, 7.961
1275.640, 72.898
1276.848, 51.827
1278.057, 34.996
1279.265, 38.905
1280.473, 21.728
1281.681, 20.663
1282.888, 63.547
1284.096, 0.576
1285.303, 47.348
1286.510, 30.208
1287.717, 44.061
1288.924, 29.027
1290.131, 4.867
1291.337, 74.732
1292.543, 53.593
1293.749, 7.588
1294.955, 41.269
1296.161, 39.069
1297.366, 17.136
1298.571, 41.643
1299.777, 2.584
1300.981, 4.184
1302.186, 51.096
1303.391, 21.158
1304.595, 24.572
1305.799, 25.618
1307.003, 20.089
1308.207, 31.790
1309.411, 24.516
1310.614, 5.213
1311.818, 14.903
1313.021, 42.563
1314.224, 17.216
1315.426, 17.860
1316.629, 21.494
1317.831, 101.114
1319.033, 22.726
1320.235, 22.329
1321.437, 65.982
1322.639, 1.563
1323.840, 1.135
1325.042, 60.655
1326.243, 32.204
1327.444, 68.719
1328.644, 30.228
1329.845, 0.729
1331.045, 49.126
1332.245, 77.610
1333.445, 27.086
1334.645, 47.540
1335.845, 68.000
1337.044, 47.453
1338.244, 24.898
1339.443, 44.334
1340.642, 33.173
1341.840, 83.180
1343.039, 43.591
1344.237, 47.993
1345.435, 53.391
1346.633, 36.786
1347.831, 84.173
1349.029, 34.558
1350.226, 67.936
1351.424, 72.306
1352.621, 48.671
1353.818, 82.031
1355.014, 54.544
1356.211, 33.892
1357.407, 62.701
1358.604, 87.044
1359.800, 49.381
1360.995, 96.720
1362.191, 20.062
1363.387, 100.403
1364.582, 99.764
1365.777, 29.111
1366.972, 76.426
1368.167, 27.739
1369.361, 34.054
1370.556, 44.369
1371.750, 24.675
1372.944, 64.985
1374.138, 56.485
1375.331, 29.614
1376.525, 70.409
1377.718, 61.203
1378.911, 66.993
1380.104, 79.793
1381.297, 64.612
1382.490, 75.458
1383.682, 84.326
1384.874, 51.196
1386.066, 35.058
1387.258, 60.925
1388.450, 48.794
1389.641, 95.655
1390.833, 40.509
1392.024, 32.277
1393.215, 77.955
1394.406, 59.782
1395.596, 41.465
1396.787, 47.836
1397.977, 25.637
1399.167, 18.308
1400.357, 52.640
1401.547, 0.559
1402.736, 66.078
1403.925, 22.674
1405.115, 44.769
1406.304, 45.937
1407.492, 4.536
1408.681, 47.822
1409.870, 78.622
1411.058, 1.518
1412.246, 55.778
1413.434, 84.951
1414.622, 2.263
1415.809, 79.808
1416.997, 3.644
1418.184, 43.861
1419.371, 89.850
1420.558, 32.543
1421.744, 51.011
1422.931, 44.321
1424.117, 25.695
1425.303, 37.092
1426.489, 40.302
1427.675, 22.681
1428.861, 69.835
1430.046, 38.109
1431.231, 11.440
1432.416, 68.733
1433.601, 28.006
1434.786, 27.379
1435.970, 38.750
1437.155, 24.010
1438.339, 68.367
1439.523, 51.722
1440.707, 37.802
1441.890, 73.002
1443.074, 34.185
1444.257, 6.388
1445.440, 66.521
1446.623, 39.701
1447.806, 15.015
1448.989, 73.309
1450.171, 47.582
1451.353, 55.830
1452.535, 22.924
1453.717, 30.110
1454.899, 117.014
1456.080, 61.148
1457.262, 79.697
1458.443, 85.463
1459.624, 37.204
1460.805, 68.864
1461.985, 35.764
1463.166, 17.849
1464.346, 66.018
1465.526, 92.152
1466.706, 55.337
1467.886, 79.898
1469.065, 36.451
1470.245, 55.495
1471.424, 54.408
1472.603, 37.259
1473.782, 64.271
1474.960, 68.860
1476.139, 45.575
1477.317, 88.320
1478.495, 72.210
1479.673, 30.078
1480.851, 113.272
1482.029, 66.066
1483.206, 69.460
1484.383, 116.161
1485.560, 52.491
1486.737, 64.106
1487.914, 87.696
1489.091, 46.327
1490.267, 48.627
1491.443, 65.255
1492.619, 52.892
1493.795, 114.832
1494.971, 86.765
1496.146, 1.302
1497.322, 54.652
1498.497, 6.390
1499.672, 45.621
1500.846, 72.686
1502.021, 50.831
1503.196, 49.056
1504.370, 80.410
1505.544, 23.878
1506.718, 77.208
1507.892, 35.151
1509.065, 23.484
1510.238, 75.465
1511.412, 38.647
1512.585, 55.303
1513.758, 24.651
1514.930, 0.174
