##NAMES=Forsterite
##RRUFFID=R060539
##IDEAL CHEMISTRY=Mg_2_SiO_4_
##LOCALITY=Sri Lanka
##OWNER=RRUFF
##SOURCE=Gemological Institute of America
##DESCRIPTION=Brown cut gemstone
##STATUS=The identification of this mineral has been confirmed by X-ray diffraction and chemical analysis
##URL=rruff.info/R060539
##MEASURED CHEMISTRY=(Mg_1.67_Fe_0.33_)_Î£=2_Si_1.00_O_4_; trace amounts of Mn and Ca
##PIN_ID=L01554
##ORIENTATION=Laser parallel to -c* (0 0 -1). Fiducial mark perpendicular to laser is parallel to a [1 0 0]
115.1740, 0.0000000E+00
116.4090, 50.70776
117.6430, 2.107605
118.8770, 22.03278
120.1100, 13.16943
121.3440, 50.19342
122.5770, 51.41382
123.8110, 39.36877
125.0440, 90.73401
126.2770, 63.27069
127.5100, 77.79584
128.7420, 86.16724
129.9750, 125.2733
131.2070, 106.0246
132.4390, 133.3480
133.6710, 122.1824
134.9030, 140.4751
136.1350, 169.1794
137.3670, 164.0875
138.5980, 208.6651
139.8290, 175.3823
141.0600, 195.3826
142.2910, 202.6469
143.5220, 222.1573
144.7530, 199.8977
145.9830, 239.8529
147.2130, 224.0090
148.4440, 222.3536
149.6730, 262.8751
150.9030, 238.5629
152.1330, 238.4067
153.3630, 239.3931
154.5920, 211.5083
155.8210, 199.7419
157.0500, 236.0859
158.2790, 189.5330
159.5080, 174.0774
160.7360, 226.7140
161.9650, 180.4415
163.1930, 179.2614
164.4210, 198.1750
165.6490, 173.1853
166.8770, 194.2915
168.1040, 225.4895
169.3320, 180.7744
170.5590, 165.1415
171.7860, 177.5867
173.0130, 179.1058
174.2400, 128.6956
175.4670, 170.3525
176.6930, 158.0735
177.9200, 147.8557
179.1460, 85.69653
180.3720, 107.5935
181.5980, 116.5443
182.8230, 101.5474
184.0490, 106.5996
185.2740, 115.6992
186.5000, 39.84460
187.7250, 50.03394
188.9500, 55.25073
190.1740, 66.45166
191.3990, 65.41138
192.6230, 76.84314
193.8480, 61.04675
195.0720, 63.26135
196.2960, 57.48987
197.5200, 57.73462
198.7430, 57.99768
199.9670, 59.76428
201.1900, 34.58374
202.4130, 59.90906
203.6360, 40.25684
204.8590, 21.62756
206.0820, 111.0272
207.3050, 80.49402
208.5270, 128.0336
209.7490, 131.6692
210.9710, 206.3560
212.1930, 169.1372
213.4150, 241.0110
214.6370, 228.9828
215.8580, 265.0164
217.0790, 313.1111
218.3010, 305.2299
219.5210, 293.3623
220.7420, 306.5062
221.9630, 338.6613
223.1830, 291.8274
224.4040, 344.0045
225.6240, 350.1927
226.8440, 367.3916
228.0640, 373.6016
229.2840, 364.8219
230.5030, 349.0531
231.7230, 367.6058
232.9420, 363.7408
234.1610, 390.8096
235.3800, 379.0824
236.5990, 376.3652
237.8170, 381.6581
239.0360, 355.9606
240.2540, 347.3196
241.4720, 324.6107
242.6900, 302.9270
243.9080, 276.2660
245.1250, 240.6136
246.3430, 224.9697
247.5600, 237.3477
248.7770, 194.7290
249.9940, 203.1104
251.2110, 154.5005
252.4280, 186.8998
253.6450, 172.3085
254.8610, 162.7269
256.0770, 166.1552
257.2930, 227.5934
258.5090, 267.0416
259.7250, 225.5000
260.9400, 163.9684
262.1560, 176.7764
263.3710, 167.6813
264.5860, 184.6481
265.8010, 159.8239
267.0160, 142.1023
268.2310, 167.4700
269.4450, 204.9167
270.6600, 174.4341
271.8740, 211.0156
273.0880, 240.6558
274.3020, 243.3502
275.5150, 287.0946
276.7290, 327.8857
277.9420, 311.7205
279.1550, 406.5962
280.3680, 374.5103
281.5810, 490.4607
282.7940, 628.4456
284.0070, 728.4629
285.2190, 892.5116
286.4310, 1055.590
287.6430, 1285.612
288.8550, 1483.830
290.0670, 1810.989
291.2790, 2085.173
292.4900, 2363.381
293.7020, 2800.612
294.9130, 3062.865
296.1240, 3326.741
297.3350, 3611.375
298.5450, 3650.387
299.7560, 3658.797
300.9660, 3418.463
302.1760, 3168.184
303.3860, 2907.449
304.5960, 2549.074
305.8060, 2240.506
307.0150, 1995.992
308.2250, 1772.657
309.4340, 1671.181
310.6430, 1593.767
311.8520, 1477.214
313.0610, 1445.463
314.2700, 1443.202
315.4780, 1359.880
316.6860, 1298.795
317.8940, 1292.002
319.1020, 1212.108
320.3100, 1136.667
321.5180, 1047.329
322.7250, 956.9420
323.9330, 823.5273
325.1400, 671.1207
326.3470, 556.7216
327.5540, 465.3300
328.7600, 407.9457
329.9670, 352.5681
331.1730, 305.1202
332.3800, 263.8329
333.5860, 245.4745
334.7920, 177.1222
335.9970, 162.7760
337.2030, 115.4358
338.4080, 124.1017
339.6140, 100.7734
340.8190, 66.45105
342.0240, 74.13452
343.2290, 69.82361
344.4330, 79.51807
345.6380, 99.21802
346.8420, 59.92334
348.0460, 60.63367
349.2500, 74.34900
350.4540, 31.06921
351.6580, 23.79407
352.8610, 39.52332
354.0650, 23.25647
355.2680, 35.99292
356.4710, 41.73279
357.6740, 40.47546
358.8760, 46.22034
360.0790, 8.966919
361.2810, 22.71521
362.4840, 51.46448
363.6860, 36.21472
364.8880, 63.96594
366.0900, 29.71790
367.2910, 20.47156
368.4930, 1.225708
369.6940, 23.98035
370.8950, 34.73718
372.0960, 40.49451
373.2970, 23.25220
374.4980, 6.010132
375.6980, 4.767944
376.8980, 0.4619140
378.0990, 22.31018
379.2990, 8.7769002E-02
380.4980, 15.79553
381.6980, 35.70129
382.8980, 32.52417
384.0970, 14.35217
385.2960, 24.24634
386.4950, 42.05115
387.6940, 48.92334
388.8930, 63.80566
390.0920, 64.70642
391.2900, 96.31824
392.4880, 100.5428
393.6860, 156.4796
394.8840, 208.4272
396.0820, 235.3864
397.2800, 284.3527
398.4770, 345.3291
399.6750, 497.3147
400.8720, 540.2988
402.0690, 697.2964
403.2660, 819.3062
404.4620, 969.3191
405.6590, 1104.321
406.8550, 1282.370
408.0510, 1369.407
409.2480, 1475.455
410.4430, 1465.681
411.6390, 1432.569
412.8350, 1347.630
414.0300, 1168.699
415.2250, 1039.775
416.4200, 878.8672
417.6150, 754.9636
418.8100, 661.0605
420.0050, 547.1580
421.1990, 489.2551
422.3940, 437.3523
423.5880, 382.4485
424.7820, 311.5442
425.9750, 297.6384
427.1690, 224.7319
428.3630, 223.8236
429.5560, 130.9137
430.7490, 128.0017
431.9420, 118.0878
433.1350, 82.17151
434.3280, 63.25269
435.5200, 56.33130
436.7130, 53.40698
437.9050, 13.47961
439.0970, 2.450806
440.2890, 2.608643
441.4810, 68.33911
442.6720, 10.66870
443.8640, 29.32874
445.0550, 45.35083
446.2460, 21.40662
447.4370, 8.516113
448.6280, 22.56824
449.8180, 38.67542
451.0090, 40.81421
452.1990, 21.98621
453.3890, 54.18164
454.5790, 35.41809
455.7690, 31.68579
456.9590, 22.98315
458.1480, 15.69409
459.3380, 40.63611
460.5270, 3.998413
461.7160, 6.620483
462.9050, 54.23120
464.0940, 20.83606
465.2820, 24.43359
466.4700, 66.02429
467.6590, 33.60889
468.8470, 70.18738
470.0350, 37.75952
471.2220, 77.32520
472.4100, 56.88464
473.5970, 48.43750
474.7850, 105.9838
475.9720, 85.52344
477.1590, 94.05615
478.3460, 57.58215
479.5320, 92.10120
480.7190, 105.6133
481.9050, 74.11841
483.0910, 105.6162
484.2770, 89.10693
485.4630, 111.5903
486.6490, 83.06641
487.8340, 72.53516
489.0200, 101.9963
490.2050, 88.44995
491.3900, 100.8961
492.5750, 113.3345
493.7600, 119.7651
494.9440, 124.1880
496.1290, 101.6030
497.3130, 80.01001
498.4970, 83.40906
499.6810, 67.80005
500.8650, 85.18298
502.0480, 84.55774
503.2320, 65.92432
504.4150, 77.28259
505.5980, 96.63281
506.7810, 99.97449
507.9640, 84.30798
509.1460, 65.76575
510.3290, 113.0824
511.5110, 104.3879
512.6930, 161.9640
513.8750, 96.30334
515.0570, 137.5856
516.2390, 82.85901
517.4210, 82.12378
518.6020, 149.0782
519.7830, 121.6908
520.9640, 126.0784
522.1450, 115.9473
523.3260, 115.4784
524.5060, 82.21704
525.6870, 116.4943
526.8670, 90.50745
528.0470, 84.17847
529.2270, 96.52039
530.4070, 138.0828
531.5870, 118.6322
532.7660, 102.4083
533.9450, 151.7804
535.1240, 153.8328
536.3030, 201.6752
537.4820, 148.6266
538.6610, 153.5582
539.8390, 183.2279
541.0180, 218.6326
542.1960, 191.7322
543.3740, 199.1770
544.5520, 242.3583
545.7290, 196.3944
546.9070, 239.5491
548.0840, 216.3831
549.2620, 213.5073
550.4390, 292.6277
551.6160, 216.4423
552.7920, 242.3660
553.9690, 285.2760
555.1450, 246.1322
556.3220, 268.3344
557.4980, 314.3457
558.6740, 304.8357
559.8490, 349.6764
561.0250, 335.5029
562.2000, 330.3152
563.3760, 344.1134
564.5510, 350.8975
565.7260, 378.6672
566.9010, 417.4231
568.0750, 454.1648
569.2500, 499.4521
570.4240, 524.6055
571.5980, 597.3047
572.7720, 624.9900
573.9460, 671.6609
575.1200, 673.3179
576.2930, 801.9607
577.4670, 844.5894
578.6400, 900.2043
579.8130, 1015.805
580.9860, 1087.789
582.1590, 1170.022
583.3310, 1304.883
584.5040, 1500.351
585.6760, 1716.567
586.8480, 1958.574
588.0200, 2187.356
589.1920, 2544.623
590.3630, 2953.087
591.5350, 3320.497
592.7060, 3653.732
593.8770, 4222.107
595.0480, 4647.426
596.2190, 5054.882
597.3900, 5411.536
598.5600, 5784.701
599.7310, 5929.926
600.9010, 5976.914
602.0710, 5814.609
603.2410, 5790.405
604.4100, 5430.743
605.5800, 5014.980
606.7490, 4609.262
607.9190, 4108.569
609.0880, 3741.867
610.2570, 3246.155
611.4250, 2907.431
612.5940, 2467.698
613.7620, 2160.953
614.9310, 1893.199
616.0990, 1635.434
617.2670, 1434.659
618.4340, 1243.875
619.6020, 1047.080
620.7690, 984.2755
621.9370, 825.4609
623.1040, 774.6365
624.2710, 673.8025
625.4380, 611.9585
626.6040, 479.1050
627.7710, 489.2421
628.9370, 396.3696
630.1030, 400.4878
631.2690, 337.5964
632.4350, 277.6960
633.6010, 265.7864
634.7660, 219.1697
635.9320, 189.9399
637.0970, 183.0032
638.2620, 174.0576
639.4270, 192.1031
640.5920, 157.1400
641.7560, 129.1683
642.9210, 134.1881
644.0850, 89.19934
645.2490, 89.20227
646.4130, 116.1971
647.5770, 53.18359
648.7400, 33.16211
649.9040, 73.13098
651.0670, 57.09192
652.2300, 24.04529
653.3930, 36.98755
654.5560, 49.92175
655.7190, 59.84851
656.8810, 55.68188
658.0440, 23.31946
659.2060, 16.56152
660.3680, 0.4316410
661.5300, 71.71643
662.6910, 17.91992
663.8530, 24.15039
665.0140, 0.4105220
666.1750, 44.68787
667.3360, 24.00476
668.4970, 51.35010
669.6580, 23.73804
670.8190, 56.15320
671.9790, 44.61243
673.1390, 7.109009
674.2990, 50.62292
675.4590, 32.17651
676.6190, 34.75952
677.7790, 19.37305
678.9380, 32.00818
680.0970, 28.67126
681.2570, 11.64014
682.4160, 47.05359
683.5740, 43.78174
684.7330, 10.54175
685.8920, 29.31592
687.0500, 9.113403
688.2080, 2.076904
689.3660, 15.73877
690.5240, 11.56921
691.6820, 5.588623
692.8390, 4.743530
693.9960, 15.10425
695.1540, 21.96423
696.3110, 51.83923
697.4680, 11.74463
698.6240, 21.34119
699.7810, 63.42566
700.9370, 25.50879
702.0940, 56.59070
703.2500, 31.67175
704.4060, 47.75195
705.5610, 5.831299
706.7170, 28.91028
707.8720, 21.98901
709.0280, 34.06750
710.1830, 35.84070
711.3380, 41.22437
712.4920, 58.20923
713.6470, 82.38232
714.8020, 90.46216
715.9560, 100.5427
717.1100, 113.1641
718.2640, 67.70654
719.4180, 112.7904
720.5720, 101.8787
721.7250, 92.97058
722.8780, 112.0844
724.0320, 88.20081
725.1850, 64.32959
726.3380, 81.47534
727.4900, 101.6318
728.6430, 56.79224
729.7950, 142.9644
730.9470, 99.15259
732.1000, 100.3579
733.2510, 137.5757
734.4030, 121.8146
735.5550, 97.06970
736.7060, 106.3406
737.8570, 148.6252
739.0090, 195.9146
740.1600, 185.2227
741.3100, 236.5381
742.4610, 192.8606
743.6110, 213.1875
744.7620, 217.5193
745.9120, 233.8561
747.0620, 215.1978
748.2120, 207.5442
749.3610, 320.8956
750.5110, 254.2522
751.6600, 279.6140
752.8090, 327.9812
753.9580, 304.3539
755.1070, 319.7323
756.2560, 318.1165
757.4050, 344.0886
758.5530, 425.9027
759.7010, 417.3049
760.8490, 424.7136
761.9970, 470.1292
763.1450, 458.5509
764.2920, 448.9792
765.4400, 465.4146
766.5870, 453.8569
767.7340, 516.3065
768.8810, 499.7632
770.0280, 569.2272
771.1740, 662.6990
772.3210, 600.1781
773.4670, 656.6653
774.6130, 725.1602
775.7590, 617.6631
776.9050, 718.1742
778.0510, 723.6946
779.1960, 776.2261
780.3420, 820.7720
781.4870, 841.3267
782.6320, 978.8899
783.7770, 1013.462
784.9210, 1015.043
786.0660, 1148.634
787.2100, 1120.102
788.3540, 1270.714
789.4980, 1358.347
790.6420, 1423.724
791.7860, 1494.346
792.9300, 1689.040
794.0730, 1782.754
795.2160, 2020.490
796.3590, 2256.546
797.5020, 2489.953
798.6450, 2858.603
799.7880, 3171.775
800.9300, 3378.381
802.0720, 3815.652
803.2150, 4300.460
804.3560, 5041.558
805.4980, 5749.002
806.6400, 6768.791
807.7810, 7964.380
808.9230, 9336.995
810.0640, 11151.40
811.2050, 13374.21
812.3460, 16338.35
813.4860, 19862.71
814.6270, 23832.97
815.7670, 28373.26
816.9070, 32887.81
818.0470, 37222.64
819.1870, 40851.78
820.3270, 43027.59
821.4670, 42879.67
822.6060, 40354.90
823.7450, 37288.01
824.8840, 32581.46
826.0230, 27895.62
827.1620, 23884.79
828.3010, 20358.28
829.4390, 17751.66
830.5770, 15846.06
831.7150, 14373.52
832.8530, 13240.64
833.9910, 12572.95
835.1290, 12030.79
836.2660, 12006.28
837.4030, 12196.79
838.5410, 12661.32
839.6780, 13441.86
840.8140, 14379.42
841.9510, 16193.00
843.0870, 18171.61
844.2240, 20753.23
845.3600, 23645.87
846.4960, 27209.53
847.6320, 31061.21
848.7680, 34681.90
849.9030, 38186.61
851.0380, 40884.34
852.1740, 42154.11
853.3090, 42370.87
854.4440, 40717.65
855.5780, 37723.46
856.7130, 33883.28
857.8470, 29630.13
858.9820, 25645.98
860.1160, 21835.86
861.2500, 18313.77
862.3830, 15430.68
863.5170, 13119.61
864.6500, 11164.56
865.7840, 9219.537
866.9170, 8065.528
868.0500, 6843.535
869.1830, 5906.561
870.3150, 5192.605
871.4480, 4454.669
872.5800, 3977.749
873.7120, 3467.848
874.8440, 3155.966
875.9760, 2774.100
877.1080, 2415.253
878.2390, 2171.425
879.3710, 1921.614
880.5020, 1797.821
881.6330, 1584.046
882.7640, 1440.289
883.8940, 1248.550
885.0250, 1155.829
886.1550, 1000.126
887.2850, 888.4412
888.4160, 797.7742
889.5450, 695.8228
890.6750, 639.4937
891.8050, 551.8802
892.9340, 514.2852
894.0630, 472.7075
895.1930, 425.1482
896.3220, 391.6064
897.4500, 362.2878
898.5790, 347.5768
899.7070, 310.0886
900.8360, 267.6185
901.9640, 230.1661
903.0920, 239.7314
904.2200, 285.3147
905.3470, 217.9156
906.4750, 134.5343
907.6020, 131.1705
908.7290, 189.8245
909.8560, 196.4960
910.9830, 161.1852
912.1100, 156.8920
913.2360, 140.7388
914.3630, 130.9188
915.4890, 155.9011
916.6150, 141.6777
917.7410, 139.4717
918.8670, 101.2828
919.9920, 148.1112
921.1180, 40.95691
922.2430, 103.0387
923.3680, 102.1533
924.4930, 80.33020
925.6180, 77.70312
926.7420, 115.1462
927.8670, 177.3595
928.9910, 172.3705
930.1150, 215.7484
931.2390, 225.7408
932.3630, 343.1218
933.4860, 320.1046
934.6100, 414.9674
935.7330, 411.8557
936.8560, 578.8066
937.9790, 618.0015
939.1020, 647.0957
940.2250, 846.8718
941.3470, 873.5332
942.4700, 1097.468
943.5920, 1338.838
944.7140, 1524.412
945.8360, 1768.869
946.9570, 2060.598
948.0790, 2368.783
949.2000, 2706.968
950.3220, 3099.416
951.4430, 3492.428
952.5640, 3772.998
953.6840, 4041.283
954.8050, 4291.524
955.9250, 4502.837
957.0460, 4640.215
958.1660, 4755.812
959.2860, 4719.021
960.4050, 4487.366
961.5250, 4435.011
962.6440, 4287.733
963.7640, 4008.153
964.8830, 3822.841
966.0020, 3550.830
967.1210, 3207.543
968.2390, 2953.272
969.3580, 2648.026
970.4760, 2350.942
971.5940, 2105.801
972.7120, 1911.588
973.8300, 1678.383
974.9480, 1538.188
976.0650, 1337.001
977.1830, 1162.976
978.3000, 1145.807
979.4170, 1027.648
980.5340, 955.4961
981.6500, 810.3531
982.7670, 767.2186
983.8830, 726.0920
985.0000, 662.9736
986.1160, 629.8633
987.2320, 590.7607
988.3470, 555.6660
989.4630, 525.8706
990.5780, 487.8201
991.6940, 471.4265
992.8090, 430.3617
993.9240, 410.3040
995.0380, 410.2531
996.1530, 356.2092
997.2680, 338.1720
998.3820, 362.1416
999.4960, 292.1177
1000.610, 284.1002
1001.724, 287.0891
1002.837, 216.0842
1003.951, 258.0852
1005.064, 260.0924
1006.177, 223.1053
1007.291, 168.1239
1008.403, 190.1482
1009.516, 168.1779
1010.629, 199.2129
1011.741, 199.2533
1012.853, 168.2987
1013.965, 140.3490
1015.077, 142.4044
1016.189, 168.4645
1017.300, 113.5291
1018.412, 170.5984
1019.523, 152.6719
1020.634, 168.7498
1021.745, 77.83179
1022.856, 159.9178
1023.966, 124.0078
1025.077, 103.1017
1026.187, 153.1991
1027.297, 165.3003
1028.407, 114.4047
1029.517, 125.5126
1030.627, 89.62354
1031.736, 103.7426
1032.845, 133.8645
1033.955, 64.98938
1035.064, 67.11707
1036.172, 33.24719
1037.281, 109.3801
1038.390, 42.51501
1039.498, 77.65222
1040.606, 56.79163
1041.714, 26.93311
1042.822, 50.07629
1043.930, 17.22144
1045.037, 56.36804
1046.145, 4.478760
1047.252, 12.32617
1048.359, 26.17737
1049.466, 7.960449
1050.573, 7.106445
1051.679, 13.93030
1052.786, 17.20715
1053.892, 25.54956
1054.998, 4.301514
1056.104, 4.155396
1057.210, 39.01233
1058.315, 41.19214
1059.421, 24.79016
1060.526, 52.70471
1061.631, 32.64844
1062.736, 37.61169
1063.841, 30.59705
1064.946, 67.60156
1066.050, 11.64478
1067.154, 25.69836
1068.258, 56.76965
1069.362, 40.87561
1070.466, 6.991699
1071.570, 89.14380
1072.674, 2.329712
1073.777, 32.52368
1074.880, 67.73547
1075.983, 25.99011
1077.086, 28.26611
1078.189, 9.435059
1079.291, 28.86816
1080.394, 3.195435
1081.496, 34.53333
1082.598, 41.10083
1083.700, 14.26807
1084.802, 14.34546
1085.903, 17.04602
1087.005, 0.5428470
1088.106, 0.1208500
1089.207, 16.31262
1090.308, 42.23340
1091.409, 12.22449
1092.509, 2.298950
1093.610, 24.81067
1094.710, 2.681885
1095.810, 2.810791
1096.910, 111.2913
1098.010, 13.76746
1099.110, 56.23572
1100.209, 61.69934
1101.309, 29.15833
1102.408, 20.61230
1103.507, 24.05933
1104.606, 59.50012
1105.704, 34.93591
1106.803, 37.36658
1107.901, 53.79211
1108.999, 0.2126460
1110.097, 73.61694
1111.195, 83.01599
1112.293, 94.40942
1113.391, 44.79761
1114.488, 73.18018
1115.585, 79.55713
1116.682, 75.92859
1117.779, 97.29431
1118.876, 90.83948
1119.973, 105.0087
1121.069, 93.35706
1122.165, 78.69971
1123.261, 88.03625
1124.357, 98.36694
1125.453, 67.69165
1126.549, 88.45630
1127.644, 111.3228
1128.739, 104.6292
1129.835, 118.9293
1130.930, 131.2231
1132.024, 146.5109
1133.119, 145.7921
1134.214, 132.0671
1135.308, 139.3357
1136.402, 134.0186
1137.496, 99.85327
1138.590, 112.1025
1139.684, 142.3451
1140.777, 90.58118
1141.871, 109.8108
1142.964, 124.0336
1144.057, 115.2498
1145.150, 131.4323
1146.243, 122.6625
1147.335, 141.8588
1148.428, 141.0483
1149.520, 141.2312
1150.612, 111.4070
1151.704, 114.5759
1152.796, 144.7380
1153.887, 121.8931
1154.979, 145.0448
1156.070, 147.1897
1157.161, 155.3275
1158.252, 140.4585
1159.343, 150.3724
1160.433, 139.0153
1161.524, 149.8090
1162.614, 132.0078
1163.704, 113.1052
1164.794, 131.1974
1165.884, 140.2823
1166.974, 121.3599
1168.063, 192.4301
1169.153, 147.4930
1170.242, 135.5486
1171.331, 172.5969
1172.420, 126.6381
1173.508, 113.6715
1174.597, 156.6978
1175.685, 145.7164
1176.774, 107.8549
1177.862, 131.7391
1178.950, 129.3003
1180.037, 188.0688
1181.125, 119.6765
1182.212, 138.6534
1183.300, 182.6228
1184.387, 132.5847
1185.474, 177.5410
1186.560, 183.2705
1187.647, 182.9777
1188.733, 160.6323
1189.820, 174.9965
1190.906, 179.5096
1191.992, 188.1582
1193.078, 189.0187
1194.163, 192.5212
1195.249, 203.4189
1196.334, 190.9495
1197.419, 190.8894
1198.504, 171.9641
1199.589, 189.0469
1200.674, 199.0865
1201.758, 216.9030
1202.843, 222.3026
1203.927, 195.5780
1205.011, 218.3860
1206.095, 194.5496
1207.179, 243.2981
1208.262, 232.8696
1209.345, 235.1567
1210.429, 259.0510
1211.512, 220.0664
1212.595, 224.1143
1213.677, 202.9192
1214.760, 206.1776
1215.842, 219.8979
1216.925, 212.9221
1218.007, 219.9991
1219.089, 206.0269
1220.171, 192.0114
1221.252, 196.7906
1222.334, 193.9771
1223.415, 197.0376
1224.496, 211.7281
1225.577, 173.5138
1226.658, 234.5352
1227.738, 223.2957
1228.819, 214.7623
1229.899, 146.5173
1230.979, 201.2694
1232.060, 175.0183
1233.139, 196.6165
1234.219, 251.2767
1235.299, 194.0179
1236.378, 154.7563
1237.457, 210.4922
1238.536, 216.2711
1239.615, 133.8494
1240.694, 143.5778
1241.772, 137.3035
1242.851, 151.0269
1243.929, 152.7478
1245.007, 99.46643
1246.085, 129.1827
1247.163, 150.8969
1248.240, 121.6086
1249.318, 170.3181
1250.395, 89.02551
1251.472, 133.7307
1252.549, 78.43372
1253.626, 54.13464
1254.703, 80.83350
1255.779, 113.5304
1256.855, 120.2253
1257.931, 120.9182
1259.007, 122.6093
1260.083, 115.2983
1261.159, 106.9857
1262.234, 118.6714
1263.310, 109.3552
1264.385, 83.03723
1265.460, 59.71777
1266.535, 105.3965
1267.610, 60.10071
1268.684, 85.77649
1269.758, 54.45081
1270.833, 37.12378
1271.907, 89.79517
1272.981, 41.46631
1274.054, 64.13635
1275.128, 65.91553
1276.201, 21.58289
1277.275, 67.24915
1278.348, 77.91418
1279.421, 65.57800
1280.493, 38.24097
1281.566, 85.90649
1282.638, 92.57104
1283.711, 64.08301
1284.783, 19.74670
1285.855, 3.409668
1286.927, 38.10413
1287.998, 3.765625
1289.070, 49.42639
1290.141, 7.086548
1291.212, 18.25391
1292.283, 27.82202
1293.354, 32.90503
1294.425, 40.55347
