##NAMES=Gahnite
##RRUFFID=R040027
##IDEAL CHEMISTRY=Zn^2+^Al_2_O_4_
##LOCALITY=Rowe, Franklin County, Massachusetts, USA
##OWNER=RRUFF
##SOURCE=University of Arizona Mineral Museum
##DESCRIPTION=Dark blue octahedral single crystals embedded in quartz matrix
##STATUS=The identification of this mineral has been confirmed by X-ray diffraction and chemical analysis
##URL=rruff.info/R040027
##MEASURED CHEMISTRY=(Zn_0.83_Fe_0.11_Mg_0.06_)_Σ=1_(Al_0.96_Fe_0.04_)_Σ=2_O_4_
##PIN_ID=L00146
##ORIENTATION=Laser parallel to -c* (0 0 -1). Fiducial mark perpendicular to laser is parallel to -a [-1 0 0]
270.945, 0.000
272.313, 2.476
273.681, 18.444
275.049, 112.114
276.417, 30.990
277.784, 143.750
279.151, 115.192
280.518, 216.179
281.885, 201.612
283.251, 151.419
284.617, 98.545
285.983, 101.944
287.349, 120.582
288.715, 155.431
290.080, 152.472
291.445, 148.682
292.810, 83.044
294.174, 101.544
295.539, 51.169
296.903, 77.906
298.267, 70.747
299.631, 106.682
300.994, 131.708
302.357, 96.820
303.720, 116.012
305.083, 152.277
306.446, 121.615
307.808, 75.023
309.170, 112.497
310.532, 115.026
311.894, 74.607
313.256, 139.236
314.617, 102.909
315.978, 147.624
317.339, 104.376
318.699, 123.166
320.060, 72.991
321.420, 112.849
322.780, 136.739
324.139, 159.659
325.499, 88.609
326.858, 142.589
328.217, 98.595
329.576, 131.662
330.934, 89.778
332.293, 115.915
333.651, 149.073
335.009, 104.252
336.367, 147.451
337.724, 16.670
339.081, 146.923
340.438, 90.240
341.795, 205.611
343.152, 188.000
344.508, 156.398
345.864, 216.788
347.220, 178.174
348.576, 198.559
349.931, 288.947
351.286, 252.338
352.641, 225.734
353.996, 260.137
355.351, 338.546
356.705, 292.962
358.059, 234.387
359.413, 305.821
360.767, 277.264
362.120, 282.716
363.473, 286.178
364.826, 295.650
366.179, 350.132
367.532, 318.624
368.884, 331.127
370.236, 290.640
371.588, 281.164
372.940, 298.697
374.291, 277.241
375.643, 273.797
376.994, 231.363
378.344, 249.939
379.695, 242.526
381.045, 306.123
382.395, 328.731
383.745, 290.349
385.095, 413.977
386.444, 425.646
387.794, 442.775
389.143, 524.156
390.491, 552.799
391.840, 721.453
393.188, 722.117
394.537, 918.792
395.884, 1052.477
397.232, 1154.171
398.580, 1250.876
399.927, 1366.591
401.274, 1603.316
402.621, 1732.053
403.967, 2005.810
405.314, 2220.705
406.660, 2902.402
408.006, 3843.780
409.352, 5235.711
410.697, 7679.126
412.042, 10821.140
413.387, 14682.950
414.732, 17734.768
416.077, 17766.596
417.421, 15157.933
418.765, 10119.089
420.109, 6200.421
421.453, 3911.798
422.797, 2871.213
424.140, 1893.662
425.483, 1480.141
426.826, 1193.648
428.168, 989.180
429.511, 789.735
430.853, 817.312
432.195, 650.909
433.537, 680.525
434.878, 512.159
436.220, 464.810
437.561, 525.478
438.902, 449.160
440.242, 383.857
441.583, 420.569
442.923, 448.294
444.263, 388.033
445.603, 343.784
446.942, 366.547
448.282, 232.321
449.621, 275.107
450.960, 194.905
452.298, 103.713
453.637, 62.531
454.975, 125.359
456.313, 116.197
457.651, 97.045
458.989, 106.902
460.326, 118.769
461.663, 65.644
463.000, 139.528
464.337, 170.420
465.673, 154.322
467.010, 136.231
468.346, 163.149
469.682, 249.075
471.017, 267.009
472.353, 324.638
473.688, 409.901
475.023, 380.858
476.358, 315.823
477.692, 246.794
479.026, 283.773
480.361, 262.760
481.694, 142.752
483.028, 177.752
484.362, 147.759
485.695, 163.772
487.028, 128.792
488.361, 136.656
489.693, 145.849
491.026, 145.887
492.358, 205.932
493.690, 220.982
495.021, 139.039
496.353, 129.102
497.684, 18.171
499.015, 12.753
500.346, 55.672
501.677, 20.588
503.007, 23.500
504.337, 49.406
505.667, 15.691
506.997, 46.794
508.327, 106.903
509.656, 45.018
510.985, 124.139
512.314, 111.266
513.643, 151.399
514.971, 138.539
516.300, 169.188
517.628, 178.834
518.956, 215.990
520.283, 200.153
521.611, 202.321
522.938, 210.494
524.265, 247.673
525.591, 216.858
526.918, 217.048
528.244, 243.244
529.570, 219.444
530.896, 194.646
532.222, 184.202
533.547, 83.007
534.873, 130.291
536.198, 51.377
537.523, 11.401
538.847, 6.928
540.171, 58.400
541.496, 1.169
542.820, 85.934
544.143, 0.700
545.467, 11.461
546.790, 89.219
548.113, 3.020
549.436, 19.737
550.759, 11.505
552.081, 50.743
553.404, 83.985
554.726, 98.223
556.047, 156.465
557.369, 227.711
558.690, 201.961
560.011, 256.215
561.332, 315.477
562.653, 310.747
563.974, 434.023
565.294, 351.307
566.614, 465.598
567.934, 495.896
569.254, 460.201
570.573, 485.512
571.892, 478.830
573.211, 394.154
574.530, 393.483
575.849, 358.820
577.167, 388.162
578.485, 363.511
579.803, 343.175
581.121, 388.021
582.438, 305.593
583.756, 462.964
585.073, 487.344
586.390, 524.729
587.706, 523.118
589.023, 570.513
590.339, 635.913
591.655, 601.323
592.971, 733.739
594.287, 675.165
595.602, 695.600
596.917, 746.041
598.232, 751.486
599.547, 843.939
600.861, 847.397
602.176, 872.863
603.490, 847.334
604.804, 914.813
606.118, 983.338
607.431, 1102.792
608.744, 1217.291
610.057, 1367.726
611.370, 1470.320
612.683, 1736.848
613.995, 1876.380
615.307, 2122.920
616.619, 2460.462
617.931, 2686.010
619.243, 2914.405
620.554, 3110.201
621.865, 3274.700
623.176, 3399.279
624.487, 3472.861
625.797, 3562.449
627.108, 3419.004
628.418, 3393.639
629.728, 3035.241
631.037, 2673.847
632.347, 2424.464
633.656, 2128.083
634.965, 1885.706
636.274, 1705.331
637.582, 1565.960
638.891, 1470.593
640.199, 1300.228
641.507, 1354.762
642.815, 1426.688
644.122, 1459.157
645.430, 1358.587
646.737, 1354.638
648.044, 1418.296
649.350, 1499.958
650.657, 1492.621
651.963, 1633.287
653.269, 1674.957
654.575, 1781.629
655.881, 1855.305
657.186, 1835.981
658.491, 1759.661
659.796, 1571.343
661.101, 1247.027
662.406, 1027.712
663.710, 695.399
665.014, 556.089
666.318, 314.780
667.622, 209.473
668.926, 92.169
670.229, 22.866
671.532, 37.565
672.835, 24.939
674.138, 35.395
675.440, 6.341
676.743, 89.646
678.045, 16.033
679.347, 56.389
680.648, 27.720
681.950, 52.113
683.251, 34.760
684.552, 94.965
685.853, 78.616
687.153, 175.178
688.454, 212.302
689.754, 267.971
691.054, 378.437
692.354, 434.107
693.653, 552.777
694.953, 687.447
696.252, 813.119
697.551, 1054.791
698.849, 1122.463
700.148, 1202.136
701.446, 1377.808
702.744, 1417.479
704.042, 1545.287
705.340, 1452.062
706.637, 1503.888
707.935, 1508.657
709.232, 1328.530
710.529, 1341.281
711.825, 1048.042
713.122, 1007.735
714.418, 926.631
715.714, 761.409
717.010, 713.136
718.305, 633.296
719.601, 563.960
720.896, 580.800
722.191, 527.461
723.486, 556.261
724.780, 472.496
726.075, 565.250
727.369, 542.985
728.663, 495.795
729.956, 564.531
731.250, 532.378
732.543, 543.119
733.836, 577.085
735.129, 629.798
736.422, 645.667
737.714, 763.496
739.007, 773.793
740.299, 824.459
741.591, 892.136
742.882, 1057.787
744.174, 1095.565
745.465, 1154.953
746.756, 1386.572
748.047, 1419.945
749.337, 1712.044
750.628, 1715.005
751.918, 1953.763
753.208, 2102.464
754.498, 2178.768
755.787, 2322.453
757.077, 2241.408
758.366, 2262.405
759.655, 2087.455
760.944, 1950.115
762.232, 1880.481
763.520, 1786.251
764.809, 1651.139
766.096, 1526.878
767.384, 1377.391
768.672, 1368.198
769.959, 1245.887
771.246, 1222.004
772.533, 1148.554
773.820, 1112.375
775.106, 1052.897
776.392, 996.631
777.679, 885.419
778.964, 925.963
780.250, 958.683
781.536, 855.454
782.821, 777.291
784.106, 701.985
785.391, 693.799
786.675, 609.971
787.960, 576.612
789.244, 622.158
790.528, 502.809
791.812, 489.665
793.095, 508.144
794.379, 495.938
795.662, 449.369
796.945, 459.055
798.228, 439.537
799.510, 375.069
800.793, 412.513
802.075, 388.984
803.357, 390.605
804.639, 400.061
805.920, 326.654
807.201, 310.293
808.483, 314.783
809.764, 325.312
811.044, 229.658
812.325, 230.934
813.605, 212.280
814.885, 234.530
816.165, 182.133
817.445, 177.506
818.724, 147.702
820.004, 161.555
821.283, 216.846
822.562, 140.256
823.840, 159.539
825.119, 168.815
826.397, 126.285
827.675, 87.553
828.953, 66.858
830.231, 70.747
831.508, 97.355
832.785, 107.593
834.062, 106.235
835.339, 95.292
836.616, 93.512
837.892, 81.715
839.169, 62.909
840.445, 67.095
841.720, 18.272
842.996, 25.583
844.272, 14.929
845.547, 27.805
846.822, 8.944
848.097, 32.071
849.371, 30.188
850.646, 45.296
851.920, 7.395
853.194, 27.483
854.468, 38.561
855.741, 5.367
857.015, 59.687
858.288, 14.731
859.561, 63.765
860.834, 23.790
862.106, 8.196
863.378, 33.946
864.651, 37.934
865.923, 21.912
867.194, 37.879
868.466, 34.166
869.737, 36.867
871.008, 39.209
872.279, 28.306
873.550, 12.579
874.821, 17.454
876.091, 10.323
877.361, 52.523
878.631, 26.641
879.901, 55.175
881.170, 31.020
882.440, 14.232
883.709, 65.539
884.978, 13.700
886.247, 44.956
887.515, 39.085
888.783, 30.388
890.052, 41.291
891.320, 11.041
892.587, 43.611
893.855, 4.252
895.122, 1.879
896.389, 43.508
897.656, 26.919
898.923, 14.351
900.189, 21.199
901.456, 7.737
902.722, 26.262
903.988, 21.225
905.253, 14.269
906.519, 34.749
907.784, 47.782
909.049, 62.661
910.314, 11.093
911.579, 68.512
912.843, 19.920
914.108, 13.315
915.372, 58.847
916.636, 20.217
917.899, 17.575
919.163, 4.920
920.426, 23.250
921.689, 8.568
922.952, 9.073
924.215, 32.213
925.477, 51.487
926.740, 27.748
928.002, 3.997
929.264, 62.231
930.525, 7.455
931.787, 70.664
933.048, 16.862
934.309, 56.048
935.570, 44.222
936.831, 61.385
938.091, 54.543
939.352, 20.802
940.612, 55.067
941.872, 24.184
943.131, 16.490
944.391, 43.581
945.650, 33.660
946.909, 84.727
948.168, 14.783
949.427, 5.124
950.685, 94.908
951.944, 37.929
953.202, 57.997
954.460, 113.034
955.717, 85.292
956.975, 93.474
958.232, 45.456
959.489, 100.577
960.746, 97.562
962.003, 29.511
963.259, 121.524
964.516, 63.449
965.772, 118.362
967.028, 113.268
968.283, 90.349
969.539, 25.230
970.794, 68.097
972.049, 71.953
973.304, 92.797
974.559, 97.631
975.813, 109.475
977.068, 140.289
978.322, 60.954
979.576, 107.769
980.830, 113.518
982.083, 78.267
983.336, 122.859
984.589, 86.617
985.842, 110.258
987.095, 83.044
988.348, 106.736
989.600, 122.368
990.852, 74.131
992.104, 104.316
993.356, 106.020
994.607, 124.545
995.859, 99.266
997.110, 136.801
998.361, 43.948
999.612, 94.463
1000.862, 103.983
1002.112, 94.416
1003.363, 140.911
1004.613, 53.283
1005.862, 92.935
1007.112, 85.267
1008.361, 76.480
1009.610, 137.053
1010.859, 7.403
1012.108, 96.250
1013.357, 121.710
1014.605, 80.168
1015.853, 131.616
1017.101, 114.733
1018.349, 97.483
1019.597, 119.215
1020.844, 89.908
1022.091, 38.014
1023.338, 115.221
1024.585, 81.982
1025.832, 93.402
1027.078, 114.381
1028.324, 161.862
1029.570, 142.856
1030.816, 96.988
1032.062, 68.861
1033.307, 117.138
1034.552, 86.735
1035.797, 99.058
1037.042, 103.173
1038.287, 103.458
1039.531, 124.847
1040.776, 77.897
1042.020, 92.108
1043.264, 122.804
1044.507, 67.132
1045.751, 126.100
1046.994, 104.355
1048.237, 99.385
1049.480, 32.348
1050.723, 99.543
1051.965, 116.550
1053.207, 64.586
1054.449, 80.414
1055.691, 103.407
1056.933, 52.267
1058.174, 119.758
1059.416, 72.764
1060.657, 79.851
1061.898, 105.865
1063.139, 85.625
1064.379, 93.856
1065.619, 128.638
1066.860, 75.771
1068.100, 77.837
1069.339, 101.886
1070.579, 136.881
1071.818, 61.978
1073.057, 38.092
1074.296, 34.108
1075.535, 106.327
1076.774, 20.342
1078.012, 131.236
1079.250, 94.948
1080.488, 80.853
1081.726, 85.094
1082.964, 53.051
1084.201, 66.450
1085.438, 75.575
1086.675, 52.417
1087.912, 56.348
1089.149, 9.335
1090.385, 22.153
1091.621, 95.427
1092.857, 30.263
1094.093, 57.260
1095.329, 63.248
1096.564, 45.984
1097.800, 81.023
1099.035, 74.899
1100.270, 61.841
1101.504, 21.871
1102.739, 102.794
1103.973, 64.458
1105.207, 78.313
1106.441, 122.178
1107.675, 81.043
1108.908, 57.901
1110.142, 61.752
1111.375, 64.594
1112.608, 34.369
1113.841, 35.196
1115.073, 45.016
1116.305, 53.828
1117.538, 41.633
1118.770, 100.430
1120.001, 43.221
1121.233, 17.003
1122.464, 52.778
1123.696, 32.896
1124.927, 61.300
1126.157, 54.054
1127.388, 51.801
1128.618, 45.541
1129.849, 53.021
1131.079, 39.997
1132.309, 67.574
1133.538, 64.287
1134.768, 63.993
1135.997, 70.693
1137.226, 94.386
1138.455, 20.980
1139.684, 38.664
1140.912, 17.654
1142.140, 6.018
1143.369, 55.682
1144.596, 59.981
1145.824, 71.636
1147.052, 56.283
1148.279, 105.928
1149.506, 20.405
1150.733, 47.224
1151.960, 3.850
1153.187, 56.467
1154.413, 24.125
1155.639, 28.594
1156.865, 7.795
1158.091, 32.870
1159.317, 2.467
1160.542, 17.258
1161.767, 61.639
1162.992, 19.216
1164.217, 90.909
1165.442, 54.480
1166.666, 46.065
1167.891, 16.960
1169.115, 33.666
1170.338, 26.864
1171.562, 50.502
1172.786, 58.050
1174.009, 47.179
1175.232, 74.060
1176.455, 47.494
1177.678, 93.162
1178.900, 79.161
1180.123, 91.764
1181.345, 76.607
1182.567, 90.971
1183.789, 99.645
1185.010, 51.192
1186.232, 116.676
1187.453, 75.154
1188.674, 156.776
1189.895, 136.208
1191.115, 86.870
1192.336, 136.328
1193.556, 53.844
1194.776, 61.686
1195.996, 38.126
1197.216, 63.559
1198.435, 63.329
1199.655, 19.812
1200.874, 100.444
1202.093, 61.851
1203.311, 55.337
1204.530, 42.907
1205.748, 28.176
1206.966, 16.554
1208.184, 27.957
1209.402, 40.345
1210.620, 54.800
1211.837, 74.263
1213.054, 81.731
1214.271, 16.157
1215.488, 80.441
1216.705, 38.875
1217.921, 75.302
1219.138, 74.313
1220.354, 86.804
1221.570, 131.854
1222.785, 33.245
1224.001, 92.612
1225.216, 54.768
1226.431, 55.081
1227.646, 140.448
1228.861, 40.637
1230.075, 85.977
1231.290, 58.231
1232.504, 37.474
1233.718, 58.524
1234.932, 75.758
1236.145, 83.037
1237.359, 80.262
1238.572, 86.584
1239.785, 91.692
1240.998, 88.884
1242.211, 106.082
1243.423, 117.277
1244.635, 95.337
1245.848, 89.396
1247.059, 113.495
1248.271, 105.628
1249.483, 144.698
1250.694, 130.858
1251.905, 190.924
1253.116, 155.860
1254.327, 205.957
1255.538, 136.955
1256.748, 138.077
1257.958, 193.159
1259.168, 162.224
1260.378, 165.253
1261.588, 105.309
1262.797, 138.297
1264.006, 156.379
1265.215, 172.454
1266.424, 121.520
1267.633, 98.579
1268.842, 118.630
1270.050, 160.484
1271.258, 154.413
1272.466, 152.696
1273.674, 152.446
1274.881, 154.913
1276.089, 97.451
1277.296, 139.462
1278.503, 121.447
1279.710, 57.448
1280.916, 108.636
1282.123, 67.563
1283.329, 79.257
1284.535, 53.218
1285.741, 61.015
1286.947, 97.825
1288.152, 49.258
1289.358, 76.062
1290.563, 72.685
1291.768, 71.400
1292.973, 66.307
1294.177, 36.014
1295.382, 69.908
1296.586, 58.767
1297.790, 40.420
1298.994, 30.240
1300.197, 11.030
1301.401, 41.656
1302.604, 26.553
1303.807, 8.742
1305.010, 2.007
1306.213, 22.181
1307.415, 30.601
1308.618, 8.142
1309.820, 1.711
1311.022, 19.325
1312.223, 26.826
1313.425, 22.927
1314.626, 48.714
1315.828, 85.670
1317.029, 83.403
1318.230, 29.130
1319.430, 56.894
1320.631, 18.643
1321.831, 71.350
1323.031, 47.051
1324.231, 0.302
1325.431, 63.373
1326.630, 68.933
1327.830, 2.605
1329.029, 47.268
1330.228, 14.787
1331.427, 70.440
1332.625, 42.158
1333.824, 20.757
1335.022, 108.292
1336.220, 30.753
1337.418, 23.259
1338.616, 41.771
1339.813, 39.368
1341.010, 35.928
1342.208, 33.524
1343.404, 41.114
1344.601, 61.474
1345.798, 37.447
1346.994, 36.901
1348.190, 15.121
1349.386, 15.435
1350.582, 60.086
1351.778, 7.922
1352.973, 43.316
1354.169, 54.906
1355.364, 46.384
1356.559, 38.904
1357.753, 69.412
1358.948, 41.911
1360.142, 101.405
1361.336, 74.939
1362.530, 81.296
1363.724, 136.746
1364.918, 47.666
1366.111, 72.421
1367.305, 88.878
1368.498, 164.510
1369.690, 57.384
1370.883, 77.819
1372.076, 94.261
1373.268, 172.160
1374.460, 133.559
1375.652, 119.335
1376.844, 114.710
1378.035, 114.075
1379.227, 97.511
1380.418, 111.856
1381.609, 119.189
1382.800, 138.499
1383.991, 133.787
1385.181, 140.038
1386.371, 164.273
1387.562, 112.469
1388.751, 129.625
1389.941, 154.754
1391.131, 128.853
1392.320, 181.922
1393.509, 127.960
1394.698, 128.967
1395.887, 153.980
1397.076, 132.927
1398.264, 129.833
1399.453, 146.700
1400.641, 151.320
1401.829, 136.938
1403.016, 173.548
1404.204, 116.123
1405.391, 180.726
1406.578, 173.276
1407.765, 163.860
1408.952, 183.385
1410.139, 154.975
1411.325, 174.425
1412.512, 154.984
1413.698, 163.894
1414.884, 114.603
1416.069, 123.303
1417.255, 148.354
1418.440, 161.340
1419.625, 109.071
1420.810, 143.096
1421.995, 94.458
1423.180, 101.698
1424.364, 112.842
1425.548, 89.165
1426.732, 80.058
1427.916, 91.002
1429.100, 62.010
1430.284, 76.260
1431.467, 58.369
1432.650, 49.301
1433.833, 81.392
1435.016, 36.397
1436.199, 11.594
1437.381, 17.604
1438.563, 37.521
1439.745, 28.371
1440.927, 80.478
1442.109, 37.484
1443.290, 2.589
1444.472, 49.804
1445.653, 60.012
1446.834, 36.124
1448.015, 38.302
1449.195, 65.455
1450.376, 55.283
1451.556, 70.738
1452.736, 75.860
1453.916, 83.975
1455.096, 112.081
1456.275, 73.180
1457.454, 30.274
1458.634, 56.366
1459.813, 26.457
1460.991, 94.549
1462.170, 115.645
1463.348, 49.747
1464.527, 20.836
1465.705, 28.905
1466.883, 21.952
1468.060, 93.979
1469.238, 56.983
1470.415, 50.982
1471.592, 75.014
1472.769, 3.918
1473.946, 62.169
1475.123, 4.739
1476.299, 103.347
1477.476, 19.436
1478.652, 0.526
1479.828, 87.615
1481.003, 28.557
1482.179, 42.704
1483.354, 30.418
1484.529, 79.380
1485.704, 16.599
1486.879, 41.504
1488.054, 23.428
1489.228, 56.456
1490.403, 67.476
1491.577, 6.511
1492.751, 0.250
1493.924, 94.923
1495.098, 7.893
1496.271, 5.863
1497.444, 54.633
1498.618, 35.528
1499.790, 8.478
1500.963, 36.230
1502.135, 4.663
1503.308, 45.299
1504.480, 68.421
1505.652, 17.544
1506.824, 76.207
1507.995, 46.932
1509.167, 62.714
1510.338, 35.148
1511.509, 45.290
1512.680, 37.224
1513.850, 28.408
1515.021, 26.063
1516.191, 17.975
1517.361, 35.003
1518.531, 30.520
1519.701, 57.829
1520.871, 34.340
1522.040, 0.882
1523.209, 37.455
1524.378, 13.566
1525.547, 0.000
##END=



