##NAMES=Gahnite
##RRUFFID=R040027
##IDEAL CHEMISTRY=Zn^2+^Al_2_O_4_
##LOCALITY=Rowe, Franklin County, Massachusetts, USA
##OWNER=RRUFF
##SOURCE=University of Arizona Mineral Museum
##DESCRIPTION=Dark blue octahedral single crystals embedded in quartz matrix
##STATUS=The identification of this mineral has been confirmed by X-ray diffraction and chemical analysis
##URL=rruff.info/R040027
##MEASURED CHEMISTRY=(Zn_0.83_Fe_0.11_Mg_0.06_)_Σ=1_(Al_0.96_Fe_0.04_)_Σ=2_O_4_
##PIN_ID=L00146
##ORIENTATION=Laser parallel to -c* (0 0 -1). Fiducial mark perpendicular to laser is parallel to -a [-1 0 0]
270.945, 0.000
272.313, 1.795
273.681, 30.931
275.049, 17.750
276.417, 12.895
277.784, 91.259
279.151, 104.794
280.518, 137.531
281.885, 113.378
283.251, 155.268
284.617, 105.206
285.983, 109.239
287.349, 94.444
288.715, 106.854
290.080, 97.974
291.445, 105.653
292.810, 93.855
294.174, 47.009
295.539, 53.148
296.903, 81.332
298.267, 83.870
299.631, 133.495
300.994, 107.024
302.357, 66.468
303.720, 77.779
305.083, 25.207
306.446, 71.289
307.808, 5.326
309.170, 44.324
310.532, 98.287
311.894, 35.217
313.256, 72.121
314.617, 62.000
315.978, 42.863
317.339, 12.866
318.699, 68.042
320.060, 81.227
321.420, 102.379
322.780, 51.401
324.139, 60.406
325.499, 80.402
326.858, 35.121
328.217, 34.824
329.576, 119.512
330.934, 25.188
332.293, 131.852
333.651, 17.505
335.009, 22.851
336.367, 68.784
337.724, 4.591
339.081, 3.027
340.438, 28.643
341.795, 96.253
343.152, 121.859
344.508, 54.465
345.864, 46.072
347.220, 12.685
348.576, 94.301
349.931, 20.922
351.286, 54.548
352.641, 74.177
353.996, 52.811
355.351, 125.449
356.705, 27.091
358.059, 122.737
359.413, 56.385
360.767, 60.352
362.120, 65.129
363.473, 96.485
364.826, 109.121
366.179, 58.265
367.532, 137.441
368.884, 122.602
370.236, 111.118
371.588, 29.604
372.940, 14.906
374.291, 5.410
375.643, 44.091
376.994, 43.412
378.344, 33.912
379.695, 74.407
381.045, 15.103
382.395, 28.620
383.745, 29.143
385.095, 19.672
386.444, 39.369
387.794, 46.173
389.143, 60.297
390.491, 81.852
391.840, 77.411
393.188, 99.976
394.537, 177.546
395.884, 159.116
397.232, 257.683
398.580, 306.230
399.927, 386.776
401.274, 418.329
402.621, 453.889
403.967, 601.456
405.314, 634.030
406.660, 806.613
408.006, 1108.334
409.352, 1632.932
410.697, 2444.543
412.042, 3380.157
413.387, 4628.779
414.732, 5442.408
416.077, 5270.047
417.421, 4248.065
418.765, 2852.709
420.109, 1678.554
421.453, 985.405
422.797, 619.257
424.140, 410.119
425.483, 338.983
426.826, 279.852
428.168, 191.722
429.511, 110.594
430.853, 146.468
432.195, 116.343
433.537, 130.218
434.878, 105.094
436.220, 100.968
437.561, 143.843
438.902, 112.718
440.242, 51.594
441.583, 160.472
442.923, 85.385
444.263, 46.228
445.603, 58.104
446.942, 2.980
448.282, 30.856
449.621, 16.282
450.960, 38.426
452.298, 68.573
453.637, 21.750
454.975, 102.900
456.313, 76.058
457.651, 66.220
458.989, 37.614
460.326, 54.548
461.663, 32.713
463.000, 14.123
464.337, 33.039
465.673, 48.798
467.010, 2.363
468.346, 7.468
469.682, 70.288
471.017, 93.077
472.353, 107.870
473.688, 92.667
475.023, 103.470
476.358, 143.277
477.692, 129.089
479.026, 157.906
480.361, 137.057
481.694, 80.884
483.028, 88.482
484.362, 107.260
485.695, 160.104
487.028, 249.953
488.361, 161.808
489.693, 249.668
491.026, 202.535
492.358, 247.408
493.690, 254.286
495.021, 182.169
496.353, 149.060
497.684, 62.956
499.015, 131.858
500.346, 87.767
501.677, 165.681
503.007, 198.602
504.337, 226.528
505.667, 376.458
506.997, 372.380
508.327, 463.290
509.656, 451.186
510.985, 434.080
512.314, 297.979
513.643, 289.881
514.971, 283.791
516.300, 325.707
517.628, 234.175
518.956, 267.878
520.283, 255.817
521.611, 244.668
522.938, 187.755
524.265, 255.917
525.591, 316.887
526.918, 262.864
528.244, 246.849
529.570, 177.842
530.896, 205.843
532.222, 151.852
533.547, 119.868
534.873, 83.891
536.198, 75.923
537.523, 34.962
538.847, 34.009
540.171, 36.064
541.496, 13.873
542.820, 0.198
544.143, 29.276
545.467, 6.362
546.790, 2.456
548.113, 27.559
549.436, 81.668
550.759, 89.787
552.081, 118.912
553.404, 139.964
554.726, 156.187
556.047, 178.336
557.369, 224.493
558.690, 263.658
560.011, 348.831
561.332, 372.011
562.653, 418.198
563.974, 511.393
565.294, 450.594
566.614, 495.802
567.934, 513.018
569.254, 565.240
570.573, 538.470
571.892, 456.707
573.211, 569.951
574.530, 402.201
575.849, 421.460
577.167, 411.727
578.485, 431.001
579.803, 505.283
581.121, 436.575
582.438, 489.875
583.756, 574.185
585.073, 593.506
586.390, 618.835
587.706, 641.287
589.023, 635.520
590.339, 669.875
591.655, 689.239
592.971, 751.315
594.287, 771.396
595.602, 824.233
596.917, 844.365
598.232, 874.662
599.547, 934.156
600.861, 937.782
602.176, 951.228
603.490, 1094.716
604.804, 993.731
606.118, 1149.219
607.431, 1194.258
608.744, 1256.765
610.057, 1450.255
611.370, 1655.780
612.683, 1885.316
613.995, 2051.861
615.307, 2376.420
616.619, 2688.990
617.931, 2848.572
619.243, 3199.167
620.554, 3198.774
621.865, 3476.394
623.176, 3598.026
624.487, 3646.675
625.797, 3834.337
627.108, 3596.009
628.418, 3588.694
629.728, 3300.389
631.037, 2944.095
632.347, 2751.813
633.656, 2451.542
634.965, 2354.286
636.274, 2135.040
637.582, 2100.806
638.891, 2026.587
640.199, 2012.375
641.507, 2074.175
642.815, 2172.982
644.122, 2312.800
645.430, 2636.627
646.737, 2690.465
648.044, 3255.311
649.350, 3866.166
650.657, 4568.031
651.963, 5951.909
653.269, 7013.793
654.575, 8855.688
655.881, 9707.589
657.186, 10279.497
658.491, 10171.420
659.796, 9183.351
661.101, 7195.292
662.406, 5465.240
663.710, 4157.201
665.014, 3189.174
666.318, 2372.163
667.622, 1796.160
668.926, 1405.164
670.229, 1122.177
671.532, 907.197
672.835, 695.226
674.138, 626.261
675.440, 482.304
676.743, 392.354
678.045, 410.410
679.347, 279.474
680.648, 297.545
681.950, 275.624
683.251, 270.602
684.552, 258.678
685.853, 284.019
687.153, 337.881
688.454, 350.986
689.754, 399.104
691.054, 439.228
692.354, 482.357
693.653, 555.493
694.953, 661.635
696.252, 708.782
697.551, 817.935
698.849, 893.094
700.148, 1084.259
701.446, 1089.429
702.744, 1164.604
704.042, 1257.785
705.340, 1171.972
706.637, 1177.163
707.935, 1210.359
709.232, 1034.562
710.529, 1026.769
711.825, 782.980
713.122, 827.197
714.418, 713.419
715.714, 613.646
717.010, 634.083
718.305, 501.458
719.601, 445.780
720.896, 486.343
722.191, 428.889
723.486, 379.608
724.780, 411.568
726.075, 399.074
727.369, 372.637
728.663, 359.959
729.956, 362.079
731.250, 410.090
732.543, 380.497
733.836, 458.115
735.129, 486.442
736.422, 552.861
737.714, 587.126
739.007, 676.157
740.299, 710.858
741.591, 799.600
742.882, 914.168
744.174, 1016.799
745.465, 1069.213
746.756, 1289.871
748.047, 1337.477
749.337, 1636.951
750.628, 1765.697
751.918, 1861.594
753.208, 2028.135
754.498, 2078.571
755.787, 2198.678
757.077, 2208.769
758.366, 2218.872
759.655, 2096.222
760.944, 1888.470
762.232, 1752.116
763.520, 1646.113
764.809, 1557.404
766.096, 1436.721
767.384, 1266.446
768.672, 1231.971
769.959, 1124.438
771.246, 1035.477
772.533, 1066.028
773.820, 1045.402
775.106, 983.030
776.392, 908.226
777.679, 870.381
778.964, 800.506
780.250, 768.490
781.536, 676.855
782.821, 636.668
784.106, 567.544
785.391, 536.926
786.675, 492.902
787.960, 491.692
789.244, 474.251
790.528, 455.728
791.812, 444.875
793.095, 440.421
794.379, 409.762
795.662, 373.410
796.945, 348.580
798.228, 384.048
799.510, 304.448
800.793, 325.791
802.075, 322.114
803.357, 281.441
804.639, 352.859
805.920, 312.195
807.201, 220.742
808.483, 271.219
809.764, 190.728
811.044, 126.186
812.325, 211.609
813.605, 214.945
814.885, 167.295
816.165, 82.573
817.445, 186.941
818.724, 115.389
820.004, 122.861
821.283, 157.123
822.562, 150.512
823.840, 97.764
825.119, 41.011
826.397, 20.366
827.675, 33.602
828.953, 59.833
830.231, 81.059
831.508, 27.279
832.785, 59.498
834.062, 43.706
835.339, 57.907
836.616, 61.103
837.892, 57.884
839.169, 63.475
840.445, 61.652
841.720, 30.822
842.996, 35.985
844.272, 49.142
845.547, 38.292
846.822, 79.435
848.097, 60.566
849.371, 65.989
850.646, 38.826
851.920, 47.942
853.194, 29.051
854.468, 2.848
855.741, 1.244
857.015, 13.326
858.288, 6.787
859.561, 5.543
860.834, 12.484
862.106, 22.444
863.378, 2.418
864.651, 4.404
865.923, 24.602
867.194, 5.391
868.466, 1.406
869.737, 10.567
871.008, 47.468
872.279, 31.515
873.550, 14.510
874.821, 30.565
876.091, 19.657
877.361, 4.764
878.631, 5.885
879.901, 41.018
881.170, 43.172
882.440, 33.348
883.709, 0.542
884.978, 2.250
886.247, 22.058
887.515, 3.171
888.783, 9.384
890.052, 10.654
891.320, 31.907
892.587, 17.552
893.855, 16.462
895.122, 16.773
896.389, 27.101
897.656, 22.447
898.923, 4.188
900.189, 54.179
901.456, 23.582
902.722, 18.996
903.988, 32.437
905.253, 22.154
906.519, 30.310
907.784, 11.794
909.049, 17.704
910.314, 68.810
911.579, 8.647
912.843, 17.910
914.108, 45.390
915.372, 75.009
916.636, 11.602
917.899, 60.770
919.163, 0.869
920.426, 3.524
921.689, 0.195
922.952, 18.119
924.215, 0.420
925.477, 17.706
926.740, 29.022
928.002, 87.313
929.264, 83.552
930.525, 67.781
931.787, 8.998
933.048, 15.630
934.309, 35.554
935.570, 49.726
936.831, 61.887
938.091, 68.035
939.352, 64.276
940.612, 44.300
941.872, 37.414
943.131, 39.517
944.391, 29.877
945.650, 22.686
946.909, 32.751
948.168, 39.803
949.427, 58.040
950.685, 54.080
951.944, 78.997
953.202, 49.011
954.460, 31.003
955.717, 26.184
956.975, 110.694
958.232, 42.648
959.489, 82.720
960.746, 145.650
962.003, 47.569
963.259, 73.602
964.516, 84.497
965.772, 103.433
967.028, 75.304
968.283, 72.164
969.539, 133.012
970.794, 104.848
972.049, 134.672
973.304, 110.485
974.559, 118.001
975.813, 97.074
977.068, 94.860
978.322, 92.617
979.576, 90.460
980.830, 87.222
982.083, 89.952
983.336, 126.855
984.589, 111.584
985.842, 121.279
987.095, 94.962
988.348, 95.687
989.600, 145.346
990.852, 93.787
992.104, 123.283
993.356, 85.875
994.607, 102.167
995.859, 105.681
997.110, 162.974
998.361, 113.850
999.612, 121.185
1000.862, 140.892
1002.112, 75.450
1003.363, 108.646
1004.613, 98.916
1005.862, 112.470
1007.112, 68.633
1008.361, 64.175
1009.610, 122.573
1010.859, 90.148
1012.108, 165.154
1013.357, 90.220
1014.605, 127.242
1015.853, 134.455
1017.101, 98.821
1018.349, 80.153
1019.597, 100.232
1020.844, 68.358
1022.091, 109.901
1023.338, 67.987
1024.585, 136.983
1025.832, 101.359
1027.078, 69.782
1028.324, 150.189
1029.570, 114.856
1030.816, 118.711
1032.062, 94.089
1033.307, 112.482
1034.552, 70.599
1035.797, 112.316
1037.042, 89.703
1038.287, 104.771
1039.531, 61.359
1040.776, 118.538
1042.020, 112.643
1043.264, 206.222
1044.507, 257.222
1045.751, 124.391
1046.994, 130.298
1048.237, 47.625
1049.480, 106.301
1050.723, 123.457
1051.965, 101.892
1053.207, 122.010
1054.449, 115.669
1055.691, 159.254
1056.933, 98.904
1058.174, 108.788
1059.416, 139.427
1060.657, 109.285
1061.898, 47.215
1063.139, 110.264
1064.379, 151.306
1065.619, 100.340
1066.860, 29.056
1068.100, 129.407
1069.339, 113.280
1070.579, 108.261
1071.818, 140.259
1073.057, 126.241
1074.296, 154.259
1075.535, 124.301
1076.774, 124.867
1078.012, 95.149
1079.250, 107.059
1080.488, 106.811
1081.726, 105.636
1082.964, 92.379
1084.201, 93.287
1085.438, 40.236
1086.675, 62.136
1087.912, 77.061
1089.149, 13.235
1090.385, 60.430
1091.621, 117.388
1092.857, 36.162
1094.093, 98.010
1095.329, 94.037
1096.564, 36.758
1097.800, 91.583
1099.035, 52.399
1100.270, 131.208
1101.504, 105.009
1102.739, 134.798
1103.973, 122.583
1105.207, 121.944
1106.441, 138.132
1107.675, 115.894
1108.908, 112.649
1110.142, 102.397
1111.375, 99.137
1112.608, 43.870
1113.841, 58.594
1115.073, 90.311
1116.305, 23.020
1117.538, 57.721
1118.770, 74.413
1120.001, 71.099
1121.233, 50.777
1122.464, 113.448
1123.696, 63.111
1124.927, 65.769
1126.157, 51.420
1127.388, 91.064
1128.618, 16.702
1129.849, 25.334
1131.079, 60.959
1132.309, 58.581
1133.538, 2.803
1134.768, 46.803
1135.997, 62.392
1137.226, 89.986
1138.455, 23.575
1139.684, 91.156
1140.912, 40.697
1142.140, 51.210
1143.369, 44.777
1144.596, 8.369
1145.824, 106.927
1147.052, 61.480
1148.279, 55.030
1149.506, 10.643
1150.733, 87.188
1151.960, 71.804
1153.187, 61.475
1154.413, 5.060
1155.639, 34.778
1156.865, 19.307
1158.091, 12.822
1159.317, 34.532
1160.542, 20.250
1161.767, 40.521
1162.992, 4.265
1164.217, 42.740
1165.442, 89.273
1166.666, 30.860
1167.891, 39.315
1169.115, 44.819
1170.338, 80.404
1171.562, 6.138
1172.786, 32.271
1174.009, 79.718
1175.232, 46.414
1176.455, 86.887
1177.678, 90.449
1178.900, 58.579
1180.123, 67.121
1181.345, 80.659
1182.567, 54.258
1183.789, 119.823
1185.010, 78.352
1186.232, 93.923
1187.453, 86.458
1188.674, 94.943
1189.895, 125.453
1191.115, 149.863
1192.336, 146.475
1193.556, 146.884
1194.776, 65.529
1195.996, 136.363
1197.216, 93.883
1198.435, 126.269
1199.655, 21.482
1200.874, 75.038
1202.093, 46.454
1203.311, 52.874
1204.530, 77.406
1205.748, 46.762
1206.966, 19.112
1208.184, 14.516
1209.402, 70.755
1210.620, 28.312
1211.837, 53.423
1213.054, 96.380
1214.271, 55.857
1215.488, 49.619
1216.705, 34.993
1217.921, 75.343
1219.138, 30.804
1220.354, 89.206
1221.570, 105.876
1222.785, 37.217
1224.001, 46.616
1225.216, 72.094
1226.431, 17.629
1227.646, 70.897
1228.861, 67.168
1230.075, 78.427
1231.290, 81.626
1232.504, 87.896
1233.718, 100.621
1234.932, 101.842
1236.145, 111.609
1237.359, 113.836
1238.572, 89.058
1239.785, 101.274
1240.998, 102.486
1242.211, 148.691
1243.423, 94.891
1244.635, 165.996
1245.848, 87.164
1247.059, 122.347
1248.271, 117.339
1249.483, 158.488
1250.694, 124.653
1251.905, 125.813
1253.116, 148.913
1254.327, 133.060
1255.538, 136.202
1256.748, 206.337
1257.958, 116.417
1259.168, 159.539
1260.378, 208.446
1261.588, 149.386
1262.797, 107.486
1264.006, 85.569
1265.215, 120.206
1266.424, 146.222
1267.633, 129.298
1268.842, 105.368
1270.050, 162.256
1271.258, 104.315
1272.466, 126.276
1273.674, 155.282
1274.881, 49.256
1276.089, 96.031
1277.296, 66.069
1278.503, 93.102
1279.710, 41.106
1280.916, 78.885
1282.123, 39.903
1283.329, 36.917
1284.535, 27.925
1285.741, 13.635
1286.947, 46.517
1288.152, 65.322
1289.358, 25.091
1290.563, 48.900
1291.768, 38.037
1292.973, 4.917
1294.177, 62.582
1295.382, 40.462
1296.586, 28.413
1297.790, 71.226
1298.994, 45.072
1300.197, 26.939
1301.401, 57.866
1302.604, 67.285
1303.807, 62.356
1305.010, 6.077
1306.213, 45.982
1307.415, 25.873
1308.618, 15.243
1309.820, 29.630
1311.022, 11.466
1312.223, 17.142
1313.425, 23.343
1314.626, 30.187
1315.828, 20.027
1317.029, 26.860
1318.230, 36.688
1319.430, 30.511
1320.631, 59.306
1321.831, 11.277
1323.031, 49.084
1324.231, 0.963
1325.431, 4.142
1326.630, 24.828
1327.830, 71.637
1329.029, 76.415
1330.228, 14.018
1331.427, 42.806
1332.625, 40.516
1333.824, 15.271
1335.022, 55.023
1336.220, 61.736
1337.418, 38.299
1338.616, 24.164
1339.813, 8.664
1341.010, 1.751
1342.208, 45.624
1343.404, 19.335
1344.601, 3.825
1345.798, 40.752
1346.994, 20.338
1348.190, 17.048
1349.386, 30.699
1350.582, 30.376
1351.778, 38.129
1352.973, 27.749
1354.169, 1.738
1355.364, 6.396
1356.559, 68.879
1357.753, 23.556
1358.948, 62.387
1360.142, 69.009
1361.336, 47.904
1362.530, 65.513
1363.724, 63.157
1364.918, 65.854
1366.111, 74.909
1367.305, 72.024
1368.498, 85.600
1369.690, 99.265
1370.883, 103.792
1372.076, 105.156
1373.268, 141.796
1374.460, 91.272
1375.652, 75.773
1376.844, 53.289
1378.035, 110.721
1379.227, 99.205
1380.418, 99.746
1381.609, 107.971
1382.800, 111.326
1383.991, 117.663
1385.181, 121.581
1386.371, 134.276
1387.562, 142.553
1388.751, 118.808
1389.941, 157.041
1391.131, 109.265
1392.320, 137.458
1393.509, 88.629
1394.698, 129.783
1395.887, 66.916
1397.076, 173.028
1398.264, 106.123
1399.453, 122.856
1400.641, 92.584
1401.829, 132.278
1403.016, 140.997
1404.204, 145.641
1405.391, 128.185
1406.578, 128.277
1407.765, 130.360
1408.952, 112.722
1410.139, 140.059
1411.325, 143.693
1412.512, 154.259
1413.698, 181.770
1414.884, 108.457
1416.069, 179.852
1417.255, 194.347
1418.440, 145.074
1419.625, 94.294
1420.810, 161.651
1421.995, 125.959
1423.180, 99.375
1424.364, 104.726
1425.548, 94.899
1426.732, 78.758
1427.916, 99.329
1429.100, 114.605
1430.284, 116.867
1431.467, 25.417
1432.650, 61.645
1433.833, 30.330
1435.016, 94.560
1436.199, 59.321
1437.381, 64.316
1438.563, 95.456
1439.745, 50.614
1440.927, 13.146
1442.109, 79.339
1443.290, 48.723
1444.472, 54.064
1445.653, 45.427
1446.834, 45.783
1448.015, 27.869
1449.195, 12.473
1450.376, 87.809
1451.556, 25.140
1452.736, 20.466
1453.916, 9.788
1455.096, 36.110
1456.275, 75.430
1457.454, 65.752
1458.634, 37.077
1459.813, 129.406
1460.991, 36.741
1462.170, 106.084
1463.348, 37.418
1464.527, 111.737
1465.705, 56.042
1466.883, 19.340
1468.060, 75.629
1469.238, 58.094
1470.415, 86.171
1471.592, 13.425
1472.769, 25.312
1473.946, 81.949
1475.123, 35.204
1476.299, 19.464
1477.476, 81.721
1478.652, 22.725
1479.828, 29.823
1481.003, 1.890
1482.179, 46.413
1483.354, 35.264
1484.529, 32.584
1485.704, 8.902
1486.879, 39.983
1488.054, 1.651
1489.228, 36.209
1490.403, 26.604
1491.577, 15.715
1492.751, 56.734
1493.924, 43.725
1495.098, 42.705
1496.271, 16.294
1497.444, 47.585
1498.618, 72.506
1499.790, 57.429
1500.963, 27.039
1502.135, 16.694
1503.308, 8.196
1504.480, 21.750
1505.652, 6.789
1506.824, 18.223
1507.995, 21.944
1509.167, 26.768
1510.338, 35.250
1511.509, 49.614
1512.680, 25.979
1513.850, 42.854
1515.021, 22.085
1516.191, 25.039
1517.361, 3.841
1518.531, 46.563
1519.701, 14.160
1520.871, 56.902
1522.040, 10.290
1523.209, 2.062
1524.378, 0.000
##END=



