##NAMES=Gahnite
##RRUFFID=R040027
##IDEAL CHEMISTRY=Zn^2+^Al_2_O_4_
##LOCALITY=Rowe, Franklin County, Massachusetts, USA
##OWNER=RRUFF
##SOURCE=University of Arizona Mineral Museum
##DESCRIPTION=Dark blue octahedral single crystals embedded in quartz matrix
##STATUS=The identification of this mineral has been confirmed by X-ray diffraction and chemical analysis
##URL=rruff.info/R040027
##MEASURED CHEMISTRY=(Zn_0.83_Fe_0.11_Mg_0.06_)_Σ=1_(Al_0.96_Fe_0.04_)_Σ=2_O_4_
##PIN_ID=L00146
##ORIENTATION=Laser parallel to -c* (0 0 -1). Fiducial mark perpendicular to laser is parallel to -a [-1 0 0]
277.784, 0.000
279.151, 1.232
280.518, 73.247
281.885, 105.373
283.251, 72.957
284.617, 100.735
285.983, 39.257
287.349, 84.649
288.715, 100.003
290.080, 123.367
291.445, 42.762
292.810, 83.105
294.174, 2.284
295.539, 162.563
296.903, 85.207
298.267, 160.393
299.631, 40.928
300.994, 42.535
302.357, 42.208
303.720, 81.939
305.083, 76.727
306.446, 51.565
307.808, 24.547
309.170, 13.387
310.532, 3.364
311.894, 41.384
313.256, 11.451
314.617, 10.561
315.978, 80.710
317.339, 55.895
318.699, 76.111
320.060, 56.357
321.420, 40.629
322.780, 50.926
324.139, 106.247
325.499, 54.590
326.858, 125.954
328.217, 41.337
329.576, 93.740
330.934, 18.162
332.293, 92.602
333.651, 26.059
335.009, 103.546
336.367, 125.054
337.724, 36.577
339.081, 63.115
340.438, 122.667
341.795, 109.233
343.152, 122.813
344.508, 109.432
345.864, 143.139
347.220, 142.621
348.576, 213.619
349.931, 180.372
351.286, 210.131
352.641, 270.888
353.996, 165.644
355.351, 241.399
356.705, 203.157
358.059, 246.917
359.413, 225.679
360.767, 241.443
362.120, 288.211
363.473, 266.983
364.826, 274.760
366.179, 302.538
367.532, 243.317
368.884, 278.102
370.236, 260.893
371.588, 299.690
372.940, 245.493
374.291, 211.303
375.643, 279.119
376.994, 181.941
378.344, 220.771
379.695, 209.607
381.045, 266.450
382.395, 292.300
383.745, 276.157
385.095, 326.526
386.444, 370.893
387.794, 455.771
389.143, 432.656
390.491, 651.808
391.840, 691.057
393.188, 710.956
394.537, 860.862
395.884, 946.776
397.232, 1065.697
398.580, 1256.625
399.927, 1393.561
401.274, 1568.503
402.621, 1648.453
403.967, 2083.410
405.314, 2307.374
406.660, 2813.346
408.006, 3924.342
409.352, 5467.226
410.697, 8009.480
412.042, 10984.054
413.387, 14907.966
414.732, 17479.971
416.077, 16541.979
417.421, 13293.998
418.765, 8676.021
420.109, 5205.051
421.453, 3382.086
422.797, 2280.127
424.140, 1700.994
425.483, 1263.676
426.826, 1043.482
428.168, 976.305
429.511, 775.143
430.853, 718.994
432.195, 615.854
433.537, 631.726
434.878, 533.608
436.220, 461.501
437.561, 471.405
438.902, 404.300
440.242, 362.207
441.583, 405.125
442.923, 413.053
444.263, 293.992
445.603, 327.941
446.942, 233.899
448.282, 206.776
449.621, 220.843
450.960, 143.829
452.298, 95.823
453.637, 61.408
454.975, 95.418
456.313, 37.438
457.651, 105.464
458.989, 91.498
460.326, 21.539
461.663, 34.588
463.000, 142.644
464.337, 160.706
465.673, 140.775
467.010, 95.852
468.346, 175.934
469.682, 227.023
471.017, 241.118
472.353, 226.220
473.688, 284.328
475.023, 352.442
476.358, 309.562
477.692, 259.688
479.026, 235.821
480.361, 154.960
481.694, 209.104
483.028, 131.254
484.362, 113.409
485.695, 121.570
487.028, 156.737
488.361, 177.910
489.693, 100.087
491.026, 177.270
492.358, 204.458
493.690, 116.651
495.021, 149.849
496.353, 105.051
497.684, 20.258
499.015, 51.470
500.346, 14.313
501.677, 9.091
503.007, 23.866
504.337, 2.637
505.667, 73.598
506.997, 15.836
508.327, 103.081
509.656, 89.330
510.985, 142.584
512.314, 105.844
513.643, 104.108
514.971, 204.377
516.300, 111.652
517.628, 151.931
518.956, 216.216
520.283, 189.505
521.611, 150.799
522.938, 225.098
524.265, 176.401
525.591, 187.710
526.918, 219.023
528.244, 262.341
529.570, 207.665
530.896, 204.992
532.222, 178.324
533.547, 82.661
534.873, 31.396
536.198, 51.072
537.523, 4.098
538.847, 47.882
540.171, 19.252
541.496, 12.102
542.820, 116.539
544.143, 1.812
545.467, 91.832
546.790, 54.519
548.113, 78.875
549.436, 48.234
550.759, 39.598
552.081, 39.965
553.404, 91.332
554.726, 164.701
556.047, 190.061
557.369, 241.416
558.690, 253.774
560.011, 301.137
561.332, 338.503
562.653, 373.874
563.974, 397.248
565.294, 376.627
566.614, 480.009
567.934, 545.396
569.254, 477.788
570.573, 434.186
571.892, 414.588
573.211, 443.996
574.530, 391.410
575.849, 390.828
577.167, 428.253
578.485, 342.684
579.803, 425.119
581.121, 530.559
582.438, 530.270
583.756, 549.995
585.073, 604.914
586.390, 546.376
587.706, 503.845
589.023, 589.317
590.339, 576.795
591.655, 622.277
592.971, 657.764
594.287, 692.259
595.602, 729.762
596.917, 790.271
598.232, 795.788
599.547, 968.312
600.861, 952.839
602.176, 907.375
603.490, 1018.914
604.804, 997.464
606.118, 1095.019
607.431, 1125.578
608.744, 1232.141
610.057, 1364.708
611.370, 1501.280
612.683, 1801.857
613.995, 1947.438
615.307, 2280.028
616.619, 2396.621
617.931, 2687.220
619.243, 3021.827
620.554, 3000.437
621.865, 3320.061
623.176, 3309.690
624.487, 3490.327
625.797, 3600.972
627.108, 3318.619
628.418, 3224.272
629.728, 2983.933
631.037, 2606.598
632.347, 2390.266
633.656, 2121.939
634.965, 1875.622
636.274, 1661.311
637.582, 1551.003
638.891, 1454.699
640.199, 1278.397
641.507, 1345.102
642.815, 1354.686
644.122, 1289.322
645.430, 1358.790
646.737, 1375.491
648.044, 1477.225
649.350, 1475.964
650.657, 1544.707
651.963, 1728.453
653.269, 1783.201
654.575, 1963.952
655.881, 2037.703
657.186, 2000.457
658.491, 1876.212
659.796, 1580.969
661.101, 1278.728
662.406, 1018.488
663.710, 663.250
665.014, 536.013
666.318, 328.776
667.622, 279.542
668.926, 150.310
670.229, 124.079
671.532, 17.850
672.835, 10.621
674.138, 14.393
675.440, 23.833
676.743, 107.063
678.045, 27.314
679.347, 43.606
680.648, 18.613
681.950, 26.915
683.251, 54.648
684.552, 133.036
685.853, 131.766
687.153, 136.728
688.454, 254.462
689.754, 290.197
691.054, 429.933
692.354, 394.668
693.653, 651.404
694.953, 691.140
696.252, 827.876
697.551, 1049.616
698.849, 1064.352
700.148, 1309.089
701.446, 1367.396
702.744, 1390.563
704.042, 1541.404
705.340, 1369.199
706.637, 1464.936
707.935, 1387.673
709.232, 1349.465
710.529, 1304.201
711.825, 1027.937
713.122, 995.813
714.418, 864.686
715.714, 776.567
717.010, 730.758
718.305, 644.584
719.601, 640.315
720.896, 578.263
722.191, 503.991
723.486, 574.367
724.780, 452.273
726.075, 534.240
727.369, 482.270
728.663, 528.990
729.956, 604.858
731.250, 492.703
732.543, 603.622
733.836, 638.165
735.129, 583.570
736.422, 733.400
737.714, 728.181
739.007, 840.311
740.299, 834.031
741.591, 976.840
742.882, 996.536
744.174, 1061.600
745.465, 1211.565
746.756, 1344.450
748.047, 1453.366
749.337, 1647.095
750.628, 1813.223
751.918, 1994.275
753.208, 2105.159
754.498, 2170.812
755.787, 2211.673
757.077, 2226.928
758.366, 2165.317
759.655, 2047.252
760.944, 1950.325
762.232, 1889.370
763.520, 1663.222
764.809, 1575.569
766.096, 1493.323
767.384, 1356.776
768.672, 1369.259
769.959, 1251.219
771.246, 1218.938
772.533, 1170.187
773.820, 1075.280
775.106, 1037.801
776.392, 937.557
777.679, 863.344
778.964, 905.054
780.250, 801.516
781.536, 774.314
782.821, 725.642
784.106, 731.075
785.391, 694.346
786.675, 663.037
787.960, 641.703
789.244, 583.498
790.528, 535.268
791.812, 471.020
793.095, 440.579
794.379, 510.081
795.662, 436.657
796.945, 436.250
798.228, 478.729
799.510, 365.353
800.793, 366.862
802.075, 414.401
803.357, 351.851
804.639, 386.304
805.920, 348.010
807.201, 299.569
808.483, 239.989
809.764, 314.658
811.044, 295.062
812.325, 393.459
813.605, 512.162
814.885, 276.147
816.165, 122.185
817.445, 238.204
818.724, 110.696
820.004, 184.770
821.283, 184.115
822.562, 186.453
823.840, 139.793
825.119, 136.126
826.397, 92.460
827.675, 134.037
828.953, 108.354
830.231, 88.664
831.508, 74.964
832.785, 171.256
834.062, 131.606
835.339, 51.881
836.616, 125.149
837.892, 68.630
839.169, 93.063
840.445, 126.304
841.720, 32.535
842.996, 42.757
844.272, 124.194
845.547, 63.507
846.822, 44.701
848.097, 75.885
849.371, 61.280
850.646, 27.447
851.920, 28.616
853.194, 26.761
854.468, 3.105
855.741, 39.014
857.015, 68.123
858.288, 13.222
859.561, 62.310
860.834, 10.613
862.106, 22.449
863.378, 11.525
864.651, 5.562
865.923, 63.587
867.194, 30.603
868.466, 35.607
869.737, 19.600
871.008, 17.339
872.279, 11.372
873.550, 38.578
874.821, 27.483
876.091, 0.585
877.361, 61.490
878.631, 28.595
879.901, 68.466
881.170, 39.557
882.440, 12.291
883.709, 25.118
884.978, 17.934
886.247, 57.738
887.515, 0.531
888.783, 4.310
890.052, 23.077
891.320, 22.168
892.587, 49.571
893.855, 9.701
895.122, 10.991
896.389, 13.703
897.656, 83.616
898.923, 4.032
900.189, 31.335
901.456, 9.722
902.722, 44.873
903.988, 14.543
905.253, 15.926
906.519, 8.620
907.784, 49.150
909.049, 6.331
910.314, 42.829
911.579, 18.318
912.843, 37.138
914.108, 29.582
915.372, 45.013
916.636, 16.568
917.899, 23.830
919.163, 11.201
920.426, 15.902
921.689, 8.071
922.952, 38.743
924.215, 16.274
925.477, 18.961
926.740, 22.231
928.002, 24.488
929.264, 64.742
930.525, 90.973
931.787, 58.193
933.048, 53.400
934.309, 78.596
935.570, 43.834
936.831, 67.005
938.091, 59.164
939.352, 77.312
940.612, 74.447
941.872, 19.571
943.131, 48.681
944.391, 80.779
945.650, 21.975
946.909, 97.049
948.168, 83.113
949.427, 15.166
950.685, 81.209
951.944, 79.240
953.202, 48.270
954.460, 97.291
955.717, 89.305
956.975, 141.311
958.232, 128.534
959.489, 90.287
960.746, 88.315
962.003, 86.401
963.259, 24.363
964.516, 121.393
965.772, 95.336
967.028, 125.249
968.283, 142.188
969.539, 64.455
970.794, 151.955
972.049, 86.123
973.304, 30.977
974.559, 39.818
975.813, 98.647
977.068, 101.464
978.322, 86.167
979.576, 30.903
980.830, 55.684
982.083, 124.453
983.336, 118.156
984.589, 31.901
985.842, 99.847
987.095, 76.427
988.348, 81.019
989.600, 139.569
990.852, 137.796
992.104, 129.377
993.356, 193.161
994.607, 190.595
995.859, 143.236
997.110, 167.217
998.361, 73.680
999.612, 95.746
1000.862, 115.341
1002.112, 94.145
1003.363, 103.569
1004.613, 90.003
1005.862, 63.221
1007.112, 82.930
1008.361, 92.956
1009.610, 110.352
1010.859, 45.937
1012.108, 128.212
1013.357, 73.744
1014.605, 37.315
1015.853, 52.838
1017.101, 74.952
1018.349, 154.182
1019.597, 139.502
1020.844, 105.881
1022.091, 171.468
1023.338, 134.656
1024.585, 113.182
1025.832, 120.543
1027.078, 124.628
1028.324, 120.160
1029.570, 113.810
1030.816, 113.415
1032.062, 88.011
1033.307, 121.191
1034.552, 107.174
1035.797, 143.525
1037.042, 106.388
1038.287, 83.610
1039.531, 60.055
1040.776, 118.569
1042.020, 118.483
1043.264, 90.624
1044.507, 111.300
1045.751, 62.123
1046.994, 102.421
1048.237, 94.537
1049.480, 130.545
1050.723, 117.615
1051.965, 100.919
1053.207, 136.872
1054.449, 111.282
1055.691, 70.573
1056.933, 88.036
1058.174, 40.776
1059.416, 80.028
1060.657, 78.897
1061.898, 149.776
1063.139, 62.657
1064.379, 146.717
1065.619, 87.819
1066.860, 76.831
1068.100, 104.811
1069.339, 52.888
1070.579, 97.806
1071.818, 132.822
1073.057, 96.794
1074.296, 190.838
1075.535, 132.910
1076.774, 72.621
1078.012, 95.588
1079.250, 40.703
1080.488, 96.671
1081.726, 65.939
1082.964, 78.106
1084.201, 62.870
1085.438, 71.842
1086.675, 76.616
1087.912, 76.887
1089.149, 85.837
1090.385, 87.997
1091.621, 80.944
1092.857, 124.861
1094.093, 50.885
1095.329, 35.913
1096.564, 59.817
1097.800, 42.310
1099.035, 58.446
1100.270, 93.325
1101.504, 54.196
1102.739, 113.060
1103.973, 102.848
1105.207, 2.697
1106.441, 66.534
1107.675, 70.184
1108.908, 63.981
1110.142, 139.930
1111.375, 71.738
1112.608, 132.548
1113.841, 78.116
1115.073, 90.793
1116.305, 82.572
1117.538, 114.344
1118.770, 14.888
1120.001, 86.643
1121.233, 56.378
1122.464, 98.120
1123.696, 66.856
1124.927, 72.587
1126.157, 34.312
1127.388, 63.028
1128.618, 90.739
1129.849, 81.442
1131.079, 54.142
1132.309, 68.809
1133.538, 57.497
1134.768, 12.179
1135.997, 63.853
1137.226, 111.520
1138.455, 23.820
1139.684, 63.751
1140.912, 17.395
1142.140, 72.034
1143.369, 25.667
1144.596, 14.147
1145.824, 43.771
1147.052, 13.368
1148.279, 44.795
1149.506, 50.288
1150.733, 43.970
1151.960, 38.677
1153.187, 16.365
1154.413, 8.952
1155.639, 6.403
1156.865, 9.134
1158.091, 15.000
1159.317, 17.238
1160.542, 3.480
1161.767, 26.173
1162.992, 5.810
1164.217, 21.434
1165.442, 0.983
1166.666, 40.646
1167.891, 3.268
1169.115, 0.874
1170.338, 42.846
1171.562, 92.423
1172.786, 31.894
1174.009, 68.489
1175.232, 58.242
1176.455, 39.734
1177.678, 38.643
1178.900, 90.156
1180.123, 41.781
1181.345, 57.778
1182.567, 91.267
1183.789, 74.773
1185.010, 107.435
1186.232, 92.161
1187.453, 99.631
1188.674, 132.183
1189.895, 103.649
1191.115, 71.001
1192.336, 58.476
1193.556, 106.012
1194.776, 64.548
1195.996, 101.068
1197.216, 97.493
1198.435, 83.895
1199.655, 91.451
1200.874, 104.882
1202.093, 88.252
1203.311, 86.393
1204.530, 74.904
1205.748, 66.559
1206.966, 59.976
1208.184, 63.378
1209.402, 39.303
1210.620, 34.216
1211.837, 8.488
1213.054, 2.863
1214.271, 17.332
1215.488, 34.690
1216.705, 57.067
1217.921, 59.536
1219.138, 4.050
1220.354, 88.551
1221.570, 9.019
1222.785, 75.575
1224.001, 62.920
1225.216, 33.230
1226.431, 30.478
1227.646, 133.781
1228.861, 120.059
1230.075, 34.252
1231.290, 85.537
1232.504, 55.497
1233.718, 113.045
1234.932, 83.310
1236.145, 61.570
1237.359, 110.519
1238.572, 45.810
1239.785, 21.054
1240.998, 26.292
1242.211, 95.524
1243.423, 52.751
1244.635, 109.971
1245.848, 111.187
1247.059, 154.398
1248.271, 109.604
1249.483, 117.803
1250.694, 147.784
1251.905, 118.973
1253.116, 102.137
1254.327, 149.315
1255.538, 104.487
1256.748, 135.654
1257.958, 145.694
1259.168, 141.849
1260.378, 149.997
1261.588, 171.139
1262.797, 170.249
1264.006, 120.379
1265.215, 110.491
1266.424, 167.390
1267.633, 131.251
1268.842, 152.441
1270.050, 133.848
1271.258, 122.950
1272.466, 136.856
1273.674, 113.138
1274.881, 89.885
1276.089, 90.763
1277.296, 53.774
1278.503, 52.639
1279.710, 56.646
1280.916, 34.674
1282.123, 29.668
1283.329, 32.336
1284.535, 54.486
1285.741, 30.294
1286.947, 37.082
1288.152, 17.589
1289.358, 8.401
1290.563, 14.906
1291.768, 18.432
1292.973, 29.279
1294.177, 31.022
1295.382, 45.838
1296.586, 21.526
1297.790, 29.422
1298.994, 32.123
1300.197, 7.153
1301.401, 35.737
1302.604, 46.750
1303.807, 34.421
1305.010, 2.567
1306.213, 67.709
1307.415, 5.449
1308.618, 38.962
1309.820, 21.868
1311.022, 52.301
1312.223, 48.706
1313.425, 45.768
1314.626, 11.647
1315.828, 3.520
1317.029, 128.387
1318.230, 33.318
1319.430, 60.356
1320.631, 114.533
1321.831, 49.382
1323.031, 35.225
1324.231, 34.128
1325.431, 34.019
1326.630, 43.847
1327.830, 45.163
1329.029, 53.355
1330.228, 57.372
1331.427, 56.182
1332.625, 64.138
1333.824, 36.938
1335.022, 57.734
1336.220, 47.159
1337.418, 49.311
1338.616, 53.193
1339.813, 37.890
1341.010, 62.560
1342.208, 75.105
1343.404, 27.597
1344.601, 57.175
1345.798, 43.861
1346.994, 23.634
1348.190, 12.379
1349.386, 13.858
1350.582, 19.306
1351.778, 5.088
1352.973, 42.800
1354.169, 56.488
1355.364, 53.170
1356.559, 20.767
1357.753, 72.431
1358.948, 62.304
1360.142, 43.857
1361.336, 64.537
1362.530, 86.175
1363.724, 73.805
1364.918, 77.666
1366.111, 67.344
1367.305, 38.955
1368.498, 60.826
1369.690, 62.930
1370.883, 84.722
1372.076, 95.301
1373.268, 95.863
1374.460, 99.473
1375.652, 123.025
1376.844, 66.562
1378.035, 114.091
1379.227, 144.618
1380.418, 137.118
1381.609, 94.730
1382.800, 127.193
1383.991, 108.431
1385.181, 157.146
1386.371, 96.562
1387.562, 124.127
1388.751, 93.497
1389.941, 151.836
1391.131, 118.125
1392.320, 101.441
1393.509, 161.521
1394.698, 110.304
1395.887, 84.081
1397.076, 133.860
1398.264, 73.635
1399.453, 132.406
1400.641, 196.173
1401.829, 103.847
1403.016, 139.387
1404.204, 150.028
1405.391, 120.524
1406.578, 134.856
1407.765, 130.317
1408.952, 110.926
1410.139, 118.034
1411.325, 137.497
1412.512, 104.121
1413.698, 129.241
1414.884, 109.436
1416.069, 107.887
1417.255, 97.692
1418.440, 122.064
1419.625, 79.370
1420.810, 130.878
1421.995, 90.469
1423.180, 79.867
1424.364, 82.306
1425.548, 106.849
1426.732, 74.418
1427.916, 29.894
1429.100, 60.179
1430.284, 26.744
1431.467, 76.432
1432.650, 28.823
1433.833, 3.320
1435.016, 43.416
1436.199, 13.521
1437.381, 49.589
1438.563, 49.089
1439.745, 14.381
1440.927, 39.169
1442.109, 46.311
1443.290, 45.784
1444.472, 85.179
1445.653, 24.639
1446.834, 6.094
1448.015, 2.454
1449.195, 38.993
1450.376, 51.437
1451.556, 24.877
1452.736, 26.314
1453.916, 66.751
1455.096, 81.185
1456.275, 23.622
1457.454, 44.065
1458.634, 88.503
1459.813, 8.926
1460.991, 74.335
1462.170, 59.734
1463.348, 59.124
1464.527, 37.513
1465.705, 15.896
1466.883, 90.280
1468.060, 54.692
1469.238, 71.124
1470.415, 48.578
1471.592, 51.496
1472.769, 30.480
1473.946, 32.206
1475.123, 45.227
1476.299, 40.474
1477.476, 51.109
1478.652, 67.759
1479.828, 44.138
1481.003, 45.350
1482.179, 10.592
1483.354, 24.589
1484.529, 55.011
1485.704, 0.139
1486.879, 78.783
1488.054, 23.847
1489.228, 103.603
1490.403, 44.956
1491.577, 1.115
1492.751, 16.771
1493.924, 59.134
1495.098, 9.900
1496.271, 57.599
1497.444, 1.072
1498.618, 39.453
1499.790, 48.976
1500.963, 17.573
1502.135, 40.259
1503.308, 38.302
1504.480, 52.520
1505.652, 23.938
1506.824, 58.510
1507.995, 2.626
1509.167, 91.905
1510.338, 52.261
1511.509, 6.694
1512.680, 88.548
1513.850, 1.049
1515.021, 24.556
1516.191, 112.157
1517.361, 11.276
1518.531, 0.385
1519.701, 0.000
##END=



