##NAMES=Gaylussite
##RRUFFID=R040146
##IDEAL CHEMISTRY=Na_2_Ca(CO_3_)_2_&#183;5H_2_O
##LOCALITY=Searles Lake, Trona, San Bernardino County, California, USA
##OWNER=RRUFF
##SOURCE=University of Arizona Mineral Museum
##DESCRIPTION=Colorless crystal fragments
##STATUS=The identification of this mineral has been confirmed by X-ray diffraction and chemical analysis
##URL=rruff.info/R040146
##MEASURED CHEMISTRY=Na_2.00_Ca_1.00_(C_1.00_O_3_)_2_Â·5H_2_O
##PIN_ID=L00275
##ORIENTATION=Laser parallel to b* (0 1 0). Fiducial mark perpendicular to laser is parallel to c [0 0 1]
100.848, 0.000
102.242, 4.844
103.636, 12.990
105.030, 41.602
106.423, 65.636
107.817, 130.726
109.210, 183.697
110.603, 335.499
111.996, 558.732
113.388, 1104.387
114.780, 1422.709
116.172, 1133.122
117.564, 827.177
118.956, 762.516
120.347, 610.853
121.738, 640.950
123.129, 771.610
124.519, 827.657
125.910, 1185.943
127.300, 1390.338
128.690, 1612.736
130.080, 1806.053
131.469, 1685.217
132.858, 1432.150
134.248, 1188.790
135.636, 1017.085
137.025, 839.998
138.413, 706.486
139.801, 705.510
141.189, 663.029
142.577, 598.013
143.964, 511.421
145.352, 504.209
146.739, 419.345
148.125, 426.800
149.512, 449.552
150.898, 453.582
152.284, 485.872
153.670, 494.409
155.056, 598.192
156.441, 666.220
157.827, 815.568
159.212, 1007.179
160.596, 1134.005
161.981, 1296.994
163.365, 1406.161
164.749, 1569.473
166.133, 1627.938
167.517, 1682.606
168.900, 1774.462
170.283, 1884.524
171.666, 2057.808
173.049, 2024.279
174.431, 2033.896
175.813, 1873.651
177.195, 1731.534
178.577, 1572.501
179.959, 1407.536
181.340, 1213.697
182.721, 1047.013
184.102, 832.439
185.483, 642.788
186.863, 494.102
188.244, 393.406
189.624, 284.707
191.003, 283.014
192.383, 187.352
193.762, 155.708
195.141, 138.093
196.520, 104.507
197.899, 157.954
199.277, 84.443
200.656, 92.995
202.034, 160.591
203.411, 90.232
204.789, 149.914
206.166, 166.747
207.543, 199.720
208.920, 180.737
210.297, 196.953
211.673, 155.688
213.049, 147.255
214.425, 170.875
215.801, 89.865
217.176, 110.707
218.552, 57.818
219.927, 119.878
221.302, 10.917
222.676, 134.988
224.051, 82.102
225.425, 116.229
226.799, 147.388
228.173, 168.577
229.546, 205.177
230.919, 235.612
232.292, 266.222
233.665, 298.223
235.038, 324.232
236.410, 339.058
237.782, 363.968
239.154, 412.079
240.526, 494.299
241.898, 516.199
243.269, 670.308
244.640, 708.535
246.011, 864.461
247.381, 1179.784
248.752, 1433.324
250.122, 1836.208
251.492, 2113.279
252.861, 2648.073
254.231, 2905.097
255.600, 3322.448
256.969, 3514.810
258.338, 3555.711
259.707, 3602.359
261.075, 3600.594
262.443, 3648.587
263.811, 3467.345
265.179, 3309.829
266.546, 3024.808
267.914, 2522.854
269.281, 2113.265
270.647, 1718.689
272.014, 1469.873
273.380, 1190.877
274.747, 924.021
276.113, 868.878
277.478, 727.777
278.844, 705.802
280.209, 587.821
281.574, 584.952
282.939, 556.657
284.304, 507.213
285.668, 471.872
287.032, 425.108
288.396, 427.983
289.760, 337.920
291.123, 314.354
292.487, 229.437
293.850, 273.584
295.212, 177.460
296.575, 179.727
297.937, 147.046
299.300, 167.415
300.662, 50.830
302.023, 84.504
303.385, 41.003
304.746, 106.785
306.107, 35.616
307.468, 42.220
308.829, 0.143
310.189, 6.477
311.549, 0.785
312.909, 11.066
314.269, 7.547
315.629, 6.236
316.988, 4.185
318.347, 16.824
319.706, 4.002
321.065, 29.153
322.423, 63.295
323.781, 16.571
325.139, 22.294
326.497, 53.197
327.855, 27.301
329.212, 10.248
330.569, 24.041
331.926, 7.466
333.283, 30.878
334.639, 2.820
335.995, 1.880
337.351, 0.252
338.707, 26.389
340.063, 45.344
341.418, 35.302
342.773, 21.420
344.128, 36.384
345.483, 26.079
346.837, 22.885
348.192, 4.849
349.546, 58.179
350.899, 18.242
352.253, 4.309
353.606, 5.392
354.960, 3.639
356.313, 5.669
357.665, 3.701
359.018, 23.267
360.370, 9.748
361.722, 50.508
363.074, 62.707
364.426, 19.674
365.777, 32.520
367.128, 10.427
368.479, 43.489
369.830, 0.445
371.181, 41.625
372.531, 1.708
373.881, 1.635
375.231, 6.732
376.581, 31.449
377.930, 14.316
379.280, 6.656
380.629, 72.328
381.977, 5.487
383.326, 6.209
384.674, 43.406
386.023, 7.457
387.370, 21.766
388.718, 42.306
390.066, 14.597
391.413, 37.409
392.760, 6.158
394.107, 6.998
395.454, 43.208
396.800, 2.490
398.146, 11.262
399.492, 1.925
400.838, 37.666
402.184, 5.377
403.529, 1.448
404.874, 53.434
406.219, 28.057
407.564, 28.648
408.908, 43.182
410.252, 27.948
411.596, 12.247
412.940, 20.736
414.284, 2.261
415.627, 2.798
416.970, 2.448
418.313, 2.038
419.656, 9.539
420.999, 38.925
422.341, 56.688
423.683, 15.208
425.025, 15.879
426.367, 30.406
427.708, 3.740
429.049, 14.013
430.390, 25.291
431.731, 9.583
433.072, 26.956
434.412, 12.259
435.752, 15.578
437.092, 32.866
438.432, 42.160
439.772, 109.452
441.111, 14.472
442.450, 15.750
443.789, 34.117
445.127, 78.377
446.466, 61.632
447.804, 30.554
449.142, 53.792
450.480, 86.082
451.817, 34.498
453.155, 64.710
454.492, 122.930
455.829, 28.127
457.166, 76.090
458.502, 0.380
459.838, 69.531
461.175, 99.672
462.510, 17.853
463.846, 76.045
465.181, 50.162
466.517, 50.266
467.852, 72.356
469.186, 76.930
470.521, 80.935
471.855, 113.929
473.190, 110.998
474.523, 114.901
475.857, 30.853
477.191, 86.082
478.524, 61.357
479.857, 99.092
481.190, 88.067
482.523, 120.446
483.855, 116.599
485.187, 58.565
486.519, 26.094
487.851, 87.510
489.183, 26.806
490.514, 57.511
491.845, 71.839
493.176, 60.559
494.507, 67.609
495.837, 131.367
497.168, 65.123
498.498, 65.884
499.828, 121.639
501.157, 94.381
502.487, 70.109
503.816, 102.822
505.145, 51.521
506.474, 88.451
507.802, 96.123
509.131, 61.780
510.459, 77.419
511.787, 78.044
513.115, 77.653
514.442, 99.246
515.770, 139.708
517.097, 115.169
518.424, 150.503
519.750, 90.039
521.077, 71.203
522.403, 70.572
523.729, 91.058
525.055, 45.530
526.381, 95.577
527.706, 79.013
529.031, 116.456
530.356, 123.753
531.681, 111.185
533.006, 75.344
534.330, 124.473
535.654, 61.362
536.978, 9.911
538.302, 77.517
539.625, 73.749
540.949, 89.125
542.272, 53.268
543.595, 96.896
544.917, 76.688
546.240, 105.788
547.562, 59.542
548.884, 49.707
550.206, 78.848
551.527, 106.055
552.849, 74.937
554.170, 77.189
555.491, 91.511
556.812, 73.131
558.132, 93.029
559.453, 72.386
560.773, 74.579
562.093, 51.165
563.412, 53.528
564.732, 77.509
566.051, 79.477
567.370, 124.430
568.689, 63.370
570.008, 10.295
571.326, 127.833
572.644, 49.582
573.963, 170.389
575.280, 37.122
576.598, 67.082
577.915, 191.974
579.233, 74.196
580.550, 193.987
581.866, 63.422
583.183, 147.446
584.499, 128.149
585.815, 65.809
587.131, 94.248
588.447, 80.418
589.763, 113.004
591.078, 64.088
592.393, 73.496
593.708, 71.681
595.022, 165.639
596.337, 138.805
597.651, 85.388
598.965, 32.001
600.279, 100.756
601.593, 18.521
602.906, 146.818
604.219, 105.365
605.532, 28.100
606.845, 109.973
608.158, 67.433
609.470, 56.898
610.782, 96.928
612.094, 72.659
613.406, 98.085
614.718, 28.003
616.029, 63.437
617.340, 140.818
618.651, 91.186
619.962, 71.464
621.272, 66.590
622.582, 115.128
623.892, 97.204
625.202, 85.249
626.512, 41.542
627.821, 89.819
629.131, 99.361
630.440, 71.632
631.749, 128.874
633.057, 129.370
634.366, 50.634
635.674, 51.707
636.982, 98.815
638.290, 92.027
639.597, 95.340
640.905, 155.504
642.212, 73.665
643.519, 73.660
644.825, 123.591
646.132, 193.754
647.438, 125.736
648.744, 125.573
650.050, 178.657
651.356, 112.509
652.662, 129.478
653.967, 192.560
655.272, 133.445
656.577, 173.475
657.882, 217.523
659.186, 160.702
660.490, 129.640
661.794, 195.656
663.098, 99.541
664.402, 228.539
665.705, 219.526
667.009, 196.151
668.312, 184.033
669.614, 186.878
670.917, 204.747
672.219, 189.694
673.522, 186.633
674.824, 169.578
676.125, 225.513
677.427, 138.421
678.728, 225.066
680.030, 197.732
681.331, 241.631
682.631, 158.706
683.932, 235.603
685.232, 272.360
686.532, 363.651
687.832, 353.633
689.132, 367.518
690.432, 403.234
691.731, 426.104
693.030, 316.568
694.329, 319.162
695.628, 226.989
696.926, 180.666
698.224, 242.525
699.522, 185.044
700.820, 63.889
702.118, 156.661
703.415, 101.500
704.713, 121.031
706.010, 105.329
707.307, 51.093
708.603, 78.904
709.900, 114.604
711.196, 169.332
712.492, 217.136
713.788, 332.844
715.083, 363.635
716.379, 544.322
717.674, 855.021
718.969, 971.332
720.264, 1395.694
721.558, 1308.399
722.853, 1372.111
724.147, 980.857
725.441, 759.357
726.735, 519.303
728.028, 335.029
729.322, 290.224
730.615, 241.941
731.908, 182.857
733.201, 194.417
734.493, 152.127
735.785, 126.780
737.078, 126.485
738.370, 21.074
739.661, 110.791
740.953, 54.511
742.244, 0.157
743.535, 42.861
744.826, 22.437
746.117, 18.240
747.407, 137.830
748.698, 25.514
749.988, 68.108
751.278, 16.249
752.567, 65.375
753.857, 107.993
755.146, 83.874
756.435, 112.485
757.724, 93.247
759.013, 89.599
760.301, 83.198
761.590, 41.207
762.878, 99.798
764.165, 70.326
765.453, 86.715
766.741, 5.295
768.028, 122.852
769.315, 11.581
770.602, 41.199
771.888, 117.637
773.175, 61.192
774.461, 40.257
775.747, 120.227
777.033, 13.320
778.319, 48.188
779.604, 77.693
780.889, 53.195
782.174, 65.320
783.459, 0.814
784.744, 43.354
786.028, 65.802
787.312, 31.718
788.596, 132.350
789.880, 9.477
791.164, 22.696
792.447, 39.473
793.730, 11.987
795.013, 67.641
796.296, 50.073
797.579, 20.472
798.861, 47.794
800.143, 37.297
801.425, 53.947
802.707, 42.373
803.989, 35.798
805.270, 110.304
806.551, 48.724
807.832, 77.141
809.113, 46.556
810.394, 5.969
811.674, 172.451
812.954, 8.858
814.234, 26.261
815.514, 80.709
816.794, 21.891
818.073, 112.502
819.352, 89.887
820.631, 176.163
821.910, 85.545
823.189, 92.926
824.467, 113.305
825.745, 61.745
827.023, 151.121
828.301, 151.126
829.578, 51.498
830.856, 145.927
832.133, 80.294
833.410, 41.660
834.687, 135.647
835.963, 37.010
837.240, 88.375
838.516, 135.861
839.792, 2.776
841.068, 21.580
842.343, 47.934
843.618, 67.286
844.894, 119.690
846.169, 96.040
847.443, 138.023
848.718, 21.550
849.992, 111.910
851.266, 66.269
852.540, 3.625
853.814, 98.981
855.088, 75.308
856.361, 82.661
857.634, 124.277
858.907, 64.428
860.180, 152.781
861.453, 116.058
862.725, 93.409
863.997, 80.760
865.269, 91.111
866.541, 222.460
867.812, 173.812
869.084, 128.161
870.355, 232.511
871.626, 133.860
872.897, 161.209
874.167, 134.566
875.438, 161.923
876.708, 109.280
877.978, 198.636
879.248, 135.994
880.517, 144.359
881.787, 196.727
883.056, 162.095
884.325, 139.464
885.594, 209.837
886.862, 173.209
888.130, 153.583
889.399, 222.956
890.667, 110.329
891.934, 166.462
893.202, 265.836
894.469, 126.183
895.737, 206.798
897.004, 164.099
898.270, 193.317
899.537, 186.441
900.803, 47.821
902.070, 187.880
903.336, 190.260
904.601, 107.934
905.867, 265.325
907.132, 32.717
908.398, 143.114
909.663, 206.511
910.928, 114.931
912.192, 128.351
913.457, 6.771
914.721, 161.159
915.985, 145.596
917.249, 98.036
918.512, 116.478
919.776, 33.626
921.039, 127.071
922.302, 126.342
923.565, 47.751
924.827, 109.202
926.090, 179.654
927.352, 113.184
928.614, 84.637
929.876, 81.883
931.138, 67.334
932.399, 65.791
933.660, 6.250
934.922, 72.710
936.182, 9.896
937.443, 112.340
938.704, 141.804
939.964, 16.998
941.224, 126.464
942.484, 132.063
943.744, 9.570
945.003, 1.866
946.262, 5.811
947.521, 128.653
948.780, 91.118
950.039, 76.480
951.298, 124.950
952.556, 31.611
953.814, 99.850
955.072, 113.301
956.330, 0.728
957.587, 120.190
958.845, 32.659
960.102, 40.130
961.359, 177.602
962.615, 2.917
963.872, 116.389
965.128, 31.723
966.384, 9.134
967.640, 39.864
968.896, 17.895
970.152, 34.818
971.407, 61.807
972.662, 50.667
973.917, 101.144
975.172, 85.626
976.427, 5.111
977.681, 56.596
978.935, 73.918
980.189, 51.538
981.443, 5.995
982.697, 52.452
983.950, 185.911
985.203, 18.637
986.456, 121.819
987.709, 56.248
988.962, 50.293
990.214, 95.457
991.467, 64.505
992.719, 37.864
993.971, 72.318
995.222, 8.775
996.474, 26.303
997.725, 19.239
998.976, 3.822
1000.227, 23.641
1001.478, 61.121
1002.728, 76.256
1003.978, 166.927
1005.229, 70.439
1006.479, 135.952
1007.728, 97.467
1008.978, 9.120
1010.227, 108.647
1011.476, 43.250
1012.725, 112.778
1013.974, 93.459
1015.223, 68.990
1016.471, 127.649
1017.719, 132.573
1018.967, 84.174
1020.215, 174.769
1021.462, 90.333
1022.710, 161.907
1023.957, 152.662
1025.204, 131.239
1026.451, 278.140
1027.697, 141.884
1028.944, 151.472
1030.190, 207.416
1031.436, 93.290
1032.682, 219.884
1033.928, 115.903
1035.173, 198.496
1036.418, 201.153
1037.663, 193.875
1038.908, 221.477
1040.153, 251.321
1041.398, 198.054
1042.642, 369.667
1043.886, 194.679
1045.130, 316.292
1046.374, 280.138
1047.617, 284.016
1048.860, 501.664
1050.104, 513.902
1051.347, 695.553
1052.589, 696.213
1053.832, 623.375
1055.074, 620.039
1056.316, 535.154
1057.558, 594.816
1058.800, 906.475
1060.042, 748.324
1061.283, 1115.992
1062.524, 1343.658
1063.765, 1542.642
1065.006, 2293.303
1066.247, 3125.289
1067.487, 5086.958
1068.728, 9428.620
1069.968, 19640.762
1071.208, 37592.445
1072.447, 44904.117
1073.687, 32535.955
1074.926, 17857.637
1076.165, 8859.312
1077.404, 5070.999
1078.643, 3122.682
1079.881, 1962.369
1081.120, 1568.250
1082.358, 1186.929
1083.596, 880.698
1084.834, 837.375
1086.071, 603.058
1087.309, 606.729
1088.546, 616.394
1089.783, 460.674
1091.020, 495.474
1092.256, 366.137
1093.493, 345.461
1094.729, 387.040
1095.965, 211.469
1097.201, 276.112
1098.436, 264.749
1099.672, 132.771
1100.907, 336.437
1102.142, 237.831
1103.377, 200.732
1104.612, 200.341
1105.846, 103.858
1107.081, 244.635
1108.315, 271.226
1109.549, 85.809
1110.782, 217.469
1112.016, 110.967
1113.249, 134.883
1114.483, 166.820
1115.716, 12.325
1116.948, 121.182
1118.181, 62.718
1119.413, 13.038
1120.646, 222.916
1121.878, 141.434
1123.110, 101.411
1124.341, 261.088
1125.573, 177.521
1126.804, 252.268
1128.035, 171.113
1129.266, 164.585
1130.497, 108.214
1131.727, 111.888
1132.957, 118.427
1134.188, 213.338
1135.418, 83.869
1136.647, 136.611
1137.877, 7.161
1139.106, 167.130
1140.335, 177.607
1141.564, 173.991
1142.793, 99.870
1144.022, 69.422
1145.250, 114.786
1146.479, 90.240
1147.707, 98.408
1148.934, 158.852
1150.162, 137.820
1151.390, 168.831
1152.617, 181.131
1153.844, 163.807
1155.071, 164.405
1156.298, 75.202
1157.524, 173.805
1158.751, 89.039
1159.977, 233.603
1161.203, 72.120
1162.428, 268.568
1163.654, 81.156
1164.879, 18.326
1166.105, 109.592
1167.330, 111.871
1168.555, 145.000
1169.779, 219.331
1171.004, 12.567
1172.228, 257.714
1173.452, 47.446
1174.676, 85.493
1175.900, 172.813
1177.123, 43.707
1178.346, 60.757
1179.570, 147.246
1180.793, 29.472
1182.015, 186.521
1183.238, 120.966
1184.460, 105.887
1185.683, 216.252
1186.905, 79.327
1188.126, 106.198
1189.348, 245.363
1190.569, 44.679
1191.791, 228.088
1193.012, 96.582
1194.233, 89.898
1195.453, 244.018
1196.674, 25.825
1197.894, 169.976
1199.114, 192.209
1200.334, 24.709
1201.554, 279.951
1202.774, 45.088
1203.993, 188.872
1205.212, 281.477
1206.431, 49.325
1207.650, 228.211
1208.869, 187.967
1210.087, 60.999
1211.305, 211.479
1212.524, 84.018
1213.741, 171.699
1214.959, 263.131
1216.177, 59.203
1217.394, 214.597
1218.611, 287.971
1219.828, 134.657
1221.045, 188.994
1222.261, 288.570
1223.478, 234.455
1224.694, 344.739
1225.910, 191.911
1227.126, 126.408
1228.342, 268.634
1229.557, 138.785
1230.772, 358.971
1231.987, 162.386
1233.202, 195.542
1234.417, 407.671
1235.631, 124.782
1236.846, 145.883
1238.060, 228.968
1239.274, 223.255
1240.488, 288.317
1241.701, 196.365
1242.915, 183.401
1244.128, 308.424
1245.341, 88.428
1246.554, 172.416
1247.767, 319.391
1248.979, 114.354
1250.191, 236.305
1251.403, 215.220
1252.615, 12.115
1253.827, 285.990
1255.039, 206.850
1256.250, 165.694
1257.461, 202.523
1258.672, 102.339
1259.883, 96.134
1261.094, 249.899
1262.304, 112.396
1263.514, 292.127
1264.724, 31.241
1265.934, 130.133
1267.144, 333.737
1268.354, 7.321
1269.563, 147.867
1270.772, 251.393
1271.981, 127.899
1273.190, 237.383
1274.398, 208.821
1275.607, 136.229
1276.815, 138.612
1278.023, 168.973
1279.231, 168.297
1280.439, 166.916
1281.646, 114.874
1282.853, 129.116
1284.060, 70.029
1285.267, 1.785
1286.474, 393.366
1287.681, 78.457
1288.887, 134.519
1290.093, 190.483
1291.299, 75.505
1292.505, 254.446
1293.711, 164.364
1294.916, 61.259
1296.121, 109.128
1297.327, 69.050
1298.531, 98.683
1299.736, 114.392
1300.941, 7.934
1302.145, 92.574
1303.349, 192.180
1304.553, 110.686
1305.757, 118.227
1306.961, 131.588
1308.164, 14.078
1309.367, 212.416
1310.570, 80.537
1311.773, 157.811
1312.976, 199.139
1314.178, 2.528
1315.381, 199.769
1316.583, 20.859
1317.785, 58.103
1318.987, 235.994
1320.188, 3.984
1321.390, 39.167
1322.591, 175.934
1323.792, 10.742
1324.993, 125.805
1326.193, 163.415
1327.394, 7.576
1328.594, 239.343
1329.794, 81.168
1330.994, 21.088
1332.194, 282.736
1333.394, 4.529
1334.593, 78.301
1335.792, 64.705
1336.991, 58.518
1338.190, 71.005
1339.389, 98.472
1340.587, 26.152
1341.786, 83.223
1342.984, 70.856
1344.182, 88.467
1345.379, 213.555
1346.577, 71.125
1347.774, 138.222
1348.972, 185.750
1350.169, 26.741
1351.365, 246.556
1352.562, 114.012
1353.759, 61.452
1354.955, 288.468
1356.151, 4.127
1357.347, 12.935
1358.543, 232.287
1359.738, 60.362
1360.934, 236.499
1362.129, 263.804
1363.324, 11.099
1364.519, 318.231
1365.713, 105.505
1366.908, 52.773
1368.102, 360.036
1369.296, 27.178
1370.490, 104.302
1371.684, 171.211
1372.877, 1.701
1374.071, 165.195
1375.264, 102.267
1376.457, 159.246
1377.650, 236.284
1378.843, 173.347
1380.035, 211.645
1381.227, 320.274
1382.419, 108.878
1383.611, 427.455
1384.803, 305.561
1385.995, 233.781
1387.186, 532.275
1388.377, 409.479
1389.568, 347.820
1390.759, 465.841
1391.950, 443.799
1393.140, 561.795
1394.331, 765.594
1395.521, 512.184
1396.711, 710.195
1397.900, 778.078
1399.090, 645.966
1400.279, 733.726
1401.469, 591.587
1402.658, 568.957
1403.847, 693.780
1405.035, 321.148
1406.224, 458.794
1407.412, 518.286
1408.600, 245.128
1409.788, 474.332
1410.976, 311.071
1412.164, 344.850
1413.351, 461.975
1414.538, 198.773
1415.725, 354.397
1416.912, 421.976
1418.099, 246.258
1419.285, 281.867
1420.472, 428.182
1421.658, 260.881
1422.844, 455.785
1424.030, 432.376
1425.215, 225.736
1426.401, 760.279
1427.586, 463.732
1428.771, 518.995
1429.956, 576.142
1431.141, 360.630
1432.325, 525.789
1433.510, 781.799
1434.694, 507.337
1435.878, 787.884
1437.062, 654.006
1438.245, 609.590
1439.429, 700.266
1440.612, 416.570
1441.795, 472.714
1442.978, 666.397
1444.161, 330.873
1445.343, 385.134
1446.526, 610.558
1447.708, 182.636
1448.890, 507.885
1450.072, 423.582
1451.253, 179.195
1452.435, 434.260
1453.616, 349.658
1454.797, 204.959
1455.978, 410.157
1457.159, 265.251
1458.340, 180.326
1459.520, 505.301
1460.700, 130.157
1461.880, 434.898
1463.060, 309.582
1464.240, 144.228
1465.420, 408.940
1466.599, 183.679
1467.778, 108.349
1468.957, 323.056
1470.136, 187.847
1471.315, 252.615
1472.493, 407.385
1473.671, 122.170
1474.849, 256.988
1476.027, 352.012
1477.205, 37.021
1478.383, 292.064
1479.560, 317.131
1480.737, 102.458
1481.914, 417.924
1483.091, 23.467
1484.268, 159.091
1485.444, 394.784
1486.621, 40.488
1487.797, 316.218
1488.973, 241.982
1490.149, 37.799
1491.324, 303.687
1492.500, 169.671
1493.675, 165.763
1494.850, 291.978
1496.025, 38.325
1497.200, 204.825
1498.374, 291.489
1499.548, 31.672
1500.723, 195.358
1501.897, 302.572
1503.071, 69.980
1504.244, 257.612
1505.418, 155.507
1506.591, 33.708
1507.764, 302.258
1508.937, 111.205
1510.110, 42.631
1511.282, 338.825
1512.455, 74.497
1513.627, 229.155
1514.799, 271.789
1515.971, 1.104
1517.143, 236.591
1518.314, 45.188
1519.486, 0.000
##END=



