##NAMES=Gaylussite
##RRUFFID=R040146
##IDEAL CHEMISTRY=Na_2_Ca(CO_3_)_2_&#183;5H_2_O
##LOCALITY=Searles Lake, Trona, San Bernardino County, California, USA
##OWNER=RRUFF
##SOURCE=University of Arizona Mineral Museum
##DESCRIPTION=Colorless crystal fragments
##STATUS=The identification of this mineral has been confirmed by X-ray diffraction and chemical analysis
##URL=rruff.info/R040146
##MEASURED CHEMISTRY=Na_2.00_Ca_1.00_(C_1.00_O_3_)_2_Â·5H_2_O
##PIN_ID=L00288
##ORIENTATION=Laser parallel to a* (1 0 0). Fiducial mark perpendicular to laser is parallel to -b [0 -1 0]
93.873, 0.000
95.268, 7.725
96.663, 103.414
98.058, 392.389
99.453, 1078.955
100.848, 2263.835
102.242, 3488.793
103.636, 4350.394
105.030, 3812.237
106.423, 2759.610
107.817, 1621.638
109.210, 893.472
110.603, 591.200
111.996, 497.143
113.388, 651.785
114.780, 758.711
116.172, 973.590
117.564, 950.142
118.956, 1169.298
120.347, 1235.705
121.738, 1523.378
123.129, 1593.721
124.519, 1615.751
125.910, 1427.414
127.300, 1089.634
128.690, 875.371
130.080, 810.588
131.469, 800.242
132.858, 818.284
134.248, 834.670
135.636, 618.361
137.025, 490.312
138.413, 402.489
139.801, 383.867
141.189, 234.428
142.577, 211.156
143.964, 128.767
145.352, 157.241
146.739, 251.388
148.125, 356.531
149.512, 492.250
150.898, 723.827
152.284, 1028.995
153.670, 1394.585
155.056, 2058.502
156.441, 2879.434
157.827, 4034.329
159.212, 5632.213
160.596, 7508.244
161.981, 9811.409
163.365, 11724.761
164.749, 13398.243
166.133, 13411.771
167.517, 12595.317
168.900, 10818.878
170.283, 8612.386
171.666, 6915.854
173.049, 5161.304
174.431, 4110.736
175.813, 2976.119
177.195, 2305.396
178.577, 1663.521
179.959, 1163.561
181.340, 883.551
182.721, 530.505
184.102, 376.427
185.483, 141.338
186.863, 102.238
188.244, 46.129
189.624, 33.013
191.003, 16.891
192.383, 28.234
193.762, 51.363
195.141, 71.497
196.520, 137.635
197.899, 173.781
199.277, 172.896
200.656, 89.347
202.034, 57.572
203.411, 15.883
204.789, 80.968
206.166, 177.370
207.543, 250.608
208.920, 266.052
210.297, 310.557
211.673, 220.668
213.049, 223.842
214.425, 161.715
215.801, 104.315
217.176, 122.849
218.552, 43.119
219.927, 46.401
221.302, 35.291
222.676, 72.657
224.051, 128.487
225.425, 184.113
226.799, 277.910
228.173, 397.788
229.546, 477.102
230.919, 545.729
232.292, 617.938
233.665, 660.245
235.038, 615.302
236.410, 551.406
237.782, 444.127
239.154, 406.158
240.526, 302.387
241.898, 178.417
243.269, 195.968
244.640, 210.334
246.011, 200.318
247.381, 285.610
248.752, 334.036
250.122, 411.559
251.492, 490.437
252.861, 733.365
254.231, 869.137
255.600, 1197.881
256.969, 1412.302
258.338, 1691.937
259.707, 2186.447
261.075, 2550.095
262.443, 2896.674
263.811, 2825.921
265.179, 3003.750
266.546, 2737.775
267.914, 2440.179
269.281, 2159.518
270.647, 1826.857
272.014, 1748.309
273.380, 1547.744
274.747, 1468.103
276.113, 1440.112
277.478, 1493.856
278.844, 1523.048
280.209, 1447.950
281.574, 1423.004
282.939, 1335.985
284.304, 1272.060
285.668, 1034.092
287.032, 914.230
288.396, 785.448
289.760, 628.428
291.123, 534.595
292.487, 412.626
293.850, 328.688
295.212, 238.742
296.575, 169.756
297.937, 156.916
299.300, 104.814
300.662, 99.686
302.023, 30.727
303.385, 7.432
304.746, 29.265
306.107, 10.194
307.468, 49.821
308.829, 59.997
310.189, 3.412
311.549, 34.986
312.909, 87.658
314.269, 64.368
315.629, 98.135
316.988, 13.963
318.347, 70.829
319.706, 27.752
321.065, 42.720
322.423, 12.739
323.781, 17.800
325.139, 47.905
326.497, 17.065
327.855, 2.728
329.212, 32.521
330.569, 14.823
331.926, 56.174
333.283, 31.416
334.639, 9.967
335.995, 51.475
337.351, 26.947
338.707, 65.380
340.063, 126.777
341.418, 104.140
342.773, 163.469
344.128, 69.765
345.483, 77.026
346.837, 49.254
348.192, 70.446
349.546, 75.604
350.899, 60.728
352.253, 41.815
353.606, 1.135
354.960, 17.866
356.313, 71.380
357.665, 21.302
359.018, 79.585
360.370, 14.492
361.722, 22.096
363.074, 57.223
364.426, 37.375
365.777, 13.849
367.128, 29.332
368.479, 13.698
369.830, 9.962
371.181, 16.875
372.531, 25.199
373.881, 23.187
375.231, 39.107
376.581, 11.949
377.930, 23.715
379.280, 35.433
380.629, 34.110
381.977, 44.752
383.326, 33.361
384.674, 40.931
386.023, 28.466
387.370, 24.957
388.718, 125.382
390.066, 44.765
391.413, 51.093
392.760, 125.364
394.107, 40.573
395.454, 89.734
396.800, 55.835
398.146, 116.890
399.492, 58.902
400.838, 46.868
402.184, 45.791
403.529, 56.668
404.874, 42.603
406.219, 95.292
407.564, 41.052
408.908, 46.771
410.252, 76.454
411.596, 57.098
412.940, 83.701
414.284, 53.268
415.627, 108.791
416.970, 106.279
418.313, 103.734
419.656, 94.160
420.999, 92.389
422.341, 78.936
423.683, 83.295
425.025, 79.634
426.367, 73.943
427.708, 83.772
429.049, 79.465
430.390, 99.675
431.731, 117.851
433.072, 125.994
434.412, 155.105
435.752, 79.182
437.092, 110.219
438.432, 160.228
439.772, 110.202
441.111, 158.139
442.450, 139.039
443.789, 165.904
445.127, 153.732
446.466, 170.525
447.804, 149.281
449.142, 139.001
450.480, 192.813
451.817, 149.465
453.155, 183.080
454.492, 175.659
455.829, 177.202
457.166, 185.709
458.502, 149.188
459.838, 209.629
461.175, 219.035
462.510, 170.423
463.846, 232.774
465.181, 209.801
466.517, 273.578
467.852, 160.306
469.186, 180.615
470.521, 228.158
471.855, 200.983
473.190, 247.869
474.523, 193.339
475.857, 238.166
477.191, 205.767
478.524, 197.544
479.857, 290.649
481.190, 186.355
482.523, 318.021
483.855, 270.467
485.187, 238.497
486.519, 222.540
487.851, 248.422
489.183, 277.455
490.514, 245.182
491.845, 293.925
493.176, 292.983
494.507, 285.066
495.837, 353.074
497.168, 274.624
498.498, 326.281
499.828, 323.840
501.157, 323.371
502.487, 326.886
503.816, 264.374
505.145, 358.819
506.474, 362.257
507.802, 359.173
509.131, 466.501
510.459, 444.809
511.787, 469.822
513.115, 446.169
514.442, 447.366
515.770, 529.551
517.097, 488.538
518.424, 550.802
519.750, 477.865
521.077, 471.203
522.403, 547.249
523.729, 464.049
525.055, 516.369
526.381, 383.773
527.706, 419.708
529.031, 393.977
530.356, 357.013
531.681, 387.382
533.006, 297.933
534.330, 284.356
535.654, 278.266
536.978, 178.127
538.302, 299.419
539.625, 168.070
540.949, 242.630
542.272, 170.466
543.595, 109.908
544.917, 209.540
546.240, 187.728
547.562, 191.745
548.884, 162.468
550.206, 226.037
551.527, 270.734
552.849, 141.540
554.170, 228.864
555.491, 158.192
556.812, 177.852
558.132, 141.360
559.453, 191.023
560.773, 165.344
562.093, 146.599
563.412, 158.100
564.732, 210.192
566.051, 167.336
567.370, 227.317
568.689, 214.432
570.008, 200.195
571.326, 270.510
572.644, 151.334
573.963, 225.490
575.280, 137.603
576.598, 200.771
577.915, 190.770
579.233, 133.643
580.550, 228.444
581.866, 116.992
583.183, 189.827
584.499, 229.333
585.815, 142.701
587.131, 216.422
588.447, 128.847
589.763, 181.676
591.078, 136.590
592.393, 164.634
593.708, 174.745
595.022, 132.044
596.337, 162.698
597.651, 84.792
598.965, 84.490
600.279, 136.531
601.593, 141.464
602.906, 156.514
604.219, 111.488
605.532, 87.633
606.845, 124.580
608.158, 34.511
609.470, 107.739
610.782, 124.671
612.094, 94.833
613.406, 87.840
614.718, 89.795
616.029, 168.740
617.340, 87.551
618.651, 112.679
619.962, 142.802
621.272, 68.664
622.582, 153.058
623.892, 133.072
625.202, 60.227
626.512, 154.173
627.821, 139.090
629.131, 129.136
630.440, 121.168
631.749, 122.221
633.057, 160.313
634.366, 101.400
635.674, 169.575
636.982, 139.882
638.290, 172.087
639.597, 164.314
640.905, 182.462
642.212, 227.794
643.519, 157.091
644.825, 168.262
646.132, 274.466
647.438, 199.643
648.744, 265.831
650.050, 252.203
651.356, 266.415
652.662, 281.513
653.967, 315.721
655.272, 311.861
656.577, 294.076
657.882, 292.276
659.186, 367.296
660.490, 274.489
661.794, 369.844
663.098, 309.236
664.402, 380.411
665.705, 397.588
667.009, 324.752
668.312, 434.988
669.614, 341.434
670.917, 388.587
672.219, 338.749
673.522, 316.915
674.824, 278.076
676.125, 235.324
677.427, 297.484
678.728, 291.702
680.030, 242.887
681.331, 274.274
682.631, 210.458
683.932, 219.684
685.232, 224.917
686.532, 178.146
687.832, 250.388
689.132, 222.642
690.432, 272.898
691.731, 244.317
693.030, 179.588
694.329, 278.866
695.628, 158.331
696.926, 215.612
698.224, 107.997
699.522, 105.318
700.820, 146.604
702.118, 112.971
703.415, 103.261
704.713, 131.556
706.010, 91.847
707.307, 149.139
708.603, 14.433
709.900, 89.722
711.196, 118.014
712.492, 103.304
713.788, 186.594
715.083, 175.883
716.379, 244.172
717.674, 308.463
718.969, 338.758
720.264, 565.055
721.558, 537.354
722.853, 575.653
724.147, 403.956
725.441, 298.262
726.735, 341.568
728.028, 116.877
729.322, 165.187
730.615, 162.500
731.908, 23.812
733.201, 155.121
734.493, 45.431
735.785, 148.741
737.078, 133.050
738.370, 25.638
739.661, 77.663
740.953, 71.966
742.244, 2.271
743.535, 99.576
744.826, 23.883
746.117, 91.190
747.407, 29.497
748.698, 73.803
749.988, 49.107
751.278, 35.585
752.567, 45.705
753.857, 84.994
755.146, 48.285
756.435, 83.575
757.724, 45.864
759.013, 117.152
760.301, 20.441
761.590, 42.875
762.878, 27.162
764.165, 22.682
765.453, 35.592
766.741, 10.865
768.028, 37.175
769.315, 69.446
770.602, 35.283
771.888, 92.969
773.175, 29.222
774.461, 68.527
775.747, 89.688
777.033, 57.096
778.319, 54.117
779.604, 18.302
780.889, 14.463
782.174, 64.646
783.459, 35.172
784.744, 57.044
786.028, 52.207
787.312, 19.631
788.596, 105.577
789.880, 30.727
791.164, 0.876
792.447, 28.022
793.730, 24.166
795.013, 132.308
796.296, 2.450
797.579, 11.588
798.861, 111.724
800.143, 19.142
801.425, 58.981
802.707, 64.104
803.989, 2.225
805.270, 86.342
806.551, 64.542
807.832, 92.539
809.113, 33.382
810.394, 40.679
811.674, 56.284
812.954, 46.658
814.234, 74.754
815.514, 5.784
816.794, 20.186
818.073, 120.906
819.352, 43.923
820.631, 74.971
821.910, 26.984
823.189, 2.005
824.467, 47.002
825.745, 78.008
827.023, 50.012
828.301, 81.014
829.578, 17.985
830.856, 91.004
832.133, 32.992
833.410, 80.979
834.687, 5.996
835.963, 13.023
837.240, 136.947
838.516, 46.916
839.792, 63.882
841.068, 81.032
842.343, 89.995
843.618, 142.955
844.894, 16.694
846.169, 68.650
847.443, 110.930
848.718, 7.881
849.992, 164.828
851.266, 27.772
852.540, 42.713
853.814, 136.652
855.088, 32.589
856.361, 201.522
857.634, 57.478
858.907, 114.406
860.180, 156.333
861.453, 87.258
862.725, 89.018
863.997, 128.957
865.269, 51.875
866.541, 247.792
867.812, 90.707
869.084, 124.620
870.355, 199.532
871.626, 56.441
872.897, 249.348
874.167, 108.255
875.438, 99.159
876.708, 155.063
877.978, 91.964
879.248, 221.864
880.517, 109.779
881.787, 133.691
883.056, 172.602
884.325, 80.512
885.594, 116.308
886.862, 141.214
888.130, 147.099
889.399, 185.001
890.667, 104.903
891.934, 157.563
893.202, 198.462
894.469, 127.361
895.737, 208.060
897.004, 65.960
898.270, 217.753
899.537, 113.651
900.803, 56.466
902.070, 231.362
903.336, 102.257
904.601, 184.237
905.867, 181.116
907.132, 63.006
908.398, 185.895
909.663, 71.781
910.928, 71.658
912.192, 139.542
913.457, 9.309
914.721, 120.168
915.985, 197.961
917.249, 76.690
918.512, 112.516
919.776, 34.238
921.039, 121.075
922.302, 114.954
923.565, 50.864
924.827, 195.741
926.090, 126.539
927.352, 80.345
928.614, 147.217
929.876, 28.730
931.138, 166.601
932.399, 111.351
933.660, 74.083
934.922, 149.952
936.182, 20.821
937.443, 134.688
938.704, 126.553
939.964, 19.387
941.224, 229.257
942.484, 125.063
943.744, 117.737
945.003, 41.531
946.262, 92.308
947.521, 119.174
948.780, 69.859
950.039, 62.582
951.298, 126.446
952.556, 63.283
953.814, 172.145
955.072, 96.008
956.330, 34.693
957.587, 136.555
958.845, 50.526
960.102, 30.387
961.359, 91.311
962.615, 30.843
963.872, 182.003
965.128, 28.976
966.384, 46.858
967.640, 42.372
968.896, 6.992
970.152, 109.823
971.407, 16.647
972.662, 110.478
973.917, 116.231
975.172, 88.772
976.427, 76.602
977.681, 59.433
978.935, 55.266
980.189, 120.098
981.443, 30.848
982.697, 34.681
983.950, 128.467
985.203, 105.701
986.456, 155.916
987.709, 57.736
988.962, 56.517
990.214, 104.290
991.467, 44.928
992.719, 33.836
993.971, 62.600
995.222, 54.635
996.474, 113.158
997.725, 7.102
998.976, 41.638
1000.227, 72.193
1001.478, 63.932
1002.728, 196.571
1003.978, 149.365
1005.229, 65.114
1006.479, 223.785
1007.728, 18.607
1008.978, 129.358
1010.227, 164.154
1011.476, 63.904
1012.725, 212.656
1013.974, 20.711
1015.223, 81.476
1016.471, 189.262
1017.719, 74.025
1018.967, 144.111
1020.215, 127.900
1021.462, 102.688
1022.710, 214.496
1023.957, 134.653
1025.204, 173.468
1026.451, 271.636
1027.697, 159.450
1028.944, 240.272
1030.190, 212.074
1031.436, 114.895
1032.682, 232.731
1033.928, 177.935
1035.173, 255.771
1036.418, 183.690
1037.663, 172.542
1038.908, 318.405
1040.153, 183.695
1041.398, 293.774
1042.642, 283.656
1043.886, 185.750
1045.130, 383.630
1046.374, 327.912
1047.617, 325.807
1048.860, 544.700
1050.104, 468.006
1051.347, 758.897
1052.589, 700.893
1053.832, 631.888
1055.074, 701.784
1056.316, 572.844
1057.558, 730.738
1058.800, 932.631
1060.042, 931.750
1061.283, 1307.641
1062.524, 1436.530
1063.765, 1817.532
1065.006, 2611.418
1066.247, 3503.620
1067.487, 5978.511
1068.728, 10972.396
1069.968, 23087.576
1071.208, 43871.477
1072.447, 50215.355
1073.687, 36599.262
1074.926, 20353.145
1076.165, 10057.041
1077.404, 5761.026
1078.643, 3414.932
1079.881, 2177.057
1081.120, 1730.972
1082.358, 1198.885
1083.596, 999.909
1084.834, 890.820
1086.071, 591.963
1087.309, 689.891
1088.546, 562.814
1089.783, 541.261
1091.020, 499.187
1092.256, 350.110
1093.493, 421.032
1094.729, 407.950
1095.965, 254.866
1097.201, 368.776
1098.436, 276.684
1099.672, 287.900
1100.907, 364.801
1102.142, 140.703
1103.377, 249.002
1104.612, 199.896
1105.846, 150.787
1107.081, 306.837
1108.315, 183.735
1109.549, 152.816
1110.782, 179.774
1112.016, 106.124
1113.249, 151.237
1114.483, 127.756
1115.716, 16.349
1116.948, 179.534
1118.181, 74.346
1119.413, 142.227
1120.646, 190.069
1121.878, 85.941
1123.110, 244.200
1124.341, 164.064
1125.573, 125.924
1126.804, 258.562
1128.035, 64.412
1129.266, 187.482
1130.497, 164.329
1131.727, 85.171
1132.957, 96.133
1134.188, 53.933
1135.418, 99.917
1136.647, 183.088
1137.877, 70.910
1139.106, 154.178
1140.335, 158.231
1141.564, 72.036
1142.793, 224.233
1144.022, 10.346
1145.250, 91.381
1146.479, 198.567
1147.707, 130.343
1148.934, 171.123
1150.162, 69.330
1151.390, 40.087
1152.617, 196.250
1153.844, 97.995
1155.071, 47.733
1156.298, 125.229
1157.524, 55.955
1158.751, 165.744
1159.977, 67.771
1161.203, 0.525
1162.428, 240.654
1163.654, 67.535
1164.879, 121.214
1166.105, 8.109
1167.330, 90.771
1168.555, 164.615
1169.779, 86.720
1171.004, 1.356
1172.228, 204.108
1173.452, 3.165
1174.676, 116.771
1175.900, 171.569
1177.123, 59.842
1178.346, 191.703
1179.570, 161.405
1180.793, 7.932
1182.015, 135.966
1183.238, 84.736
1184.460, 161.232
1185.683, 161.789
1186.905, 5.925
1188.126, 53.390
1189.348, 172.096
1190.569, 57.646
1191.791, 209.604
1193.012, 10.161
1194.233, 120.236
1195.453, 150.789
1196.674, 16.388
1197.894, 190.790
1199.114, 90.838
1200.334, 91.331
1201.554, 240.665
1202.774, 78.313
1203.993, 236.623
1205.212, 275.339
1206.431, 65.199
1207.650, 253.475
1208.869, 199.136
1210.087, 58.470
1211.305, 211.711
1212.524, 46.557
1213.741, 149.820
1214.959, 222.275
1216.177, 6.313
1217.394, 278.857
1218.611, 155.362
1219.828, 131.067
1221.045, 246.204
1222.261, 148.042
1223.478, 109.201
1224.694, 246.302
1225.910, 72.591
1227.126, 162.666
1228.342, 204.938
1229.557, 103.809
1230.772, 288.846
1231.987, 70.075
1233.202, 212.145
1234.417, 300.254
1235.631, 6.842
1236.846, 196.116
1238.060, 193.063
1239.274, 153.450
1240.488, 155.367
1241.701, 195.274
1242.915, 168.175
1244.128, 195.065
1245.341, 64.946
1246.554, 226.817
1247.767, 221.680
1248.979, 44.534
1250.191, 316.375
1251.403, 172.208
1252.615, 103.034
1253.827, 251.849
1255.039, 98.655
1256.250, 129.451
1257.461, 258.234
1258.672, 91.013
1259.883, 237.782
1261.094, 181.548
1262.304, 199.454
1263.514, 282.194
1264.724, 460.924
1265.934, 384.643
1267.144, 277.349
1268.354, 54.042
1269.563, 181.711
1270.772, 220.371
1271.981, 13.131
1273.190, 242.761
1274.398, 96.361
1275.607, 159.271
1276.815, 292.812
1278.023, 121.317
1279.231, 235.798
1280.439, 114.272
1281.646, 69.739
1282.853, 253.196
1284.060, 46.611
1285.267, 51.029
1286.474, 237.376
1287.681, 58.689
1288.887, 130.083
1290.093, 95.151
1291.299, 19.404
1292.505, 238.979
1293.711, 153.198
1294.916, 50.402
1296.121, 272.583
1297.327, 14.343
1298.531, 163.800
1299.736, 158.922
1300.941, 17.945
1302.145, 212.022
1303.349, 140.036
1304.553, 82.075
1305.757, 208.094
1306.961, 31.204
1308.164, 111.765
1309.367, 182.670
1310.570, 74.427
1311.773, 214.138
1312.976, 112.979
1314.178, 46.196
1315.381, 280.595
1316.583, 8.983
1317.785, 54.765
1318.987, 265.142
1320.188, 10.146
1321.390, 176.540
1322.591, 195.228
1323.792, 43.122
1324.993, 206.493
1326.193, 42.721
1327.394, 44.703
1328.594, 247.768
1329.794, 25.713
1330.994, 26.771
1332.194, 170.062
1333.394, 28.709
1334.593, 130.704
1335.792, 41.885
1336.991, 37.739
1338.190, 205.219
1339.389, 115.542
1340.587, 101.850
1341.786, 145.735
1342.984, 23.010
1344.182, 118.163
1345.379, 180.767
1346.577, 77.994
1347.774, 242.041
1348.972, 56.352
1350.169, 36.534
1351.365, 230.474
1352.562, 60.625
1353.759, 135.763
1354.955, 183.822
1356.151, 30.933
1357.347, 143.715
1358.543, 95.189
1359.738, 3.256
1360.934, 276.978
1362.129, 71.383
1363.324, 37.413
1364.519, 233.432
1365.713, 21.421
1366.908, 142.366
1368.102, 255.477
1369.296, 105.400
1370.490, 154.069
1371.684, 103.250
1372.877, 14.109
1374.071, 225.820
1375.264, 29.266
1376.457, 138.226
1377.650, 125.966
1378.843, 9.766
1380.035, 210.841
1381.227, 262.414
1382.419, 49.074
1383.611, 375.515
1384.803, 176.485
1385.995, 186.439
1387.186, 421.057
1388.377, 175.558
1389.568, 287.455
1390.759, 390.162
1391.950, 178.764
1393.140, 368.364
1394.331, 383.185
1395.521, 435.996
1396.711, 598.788
1397.900, 479.128
1399.090, 379.881
1400.279, 503.729
1401.469, 317.180
1402.658, 361.721
1403.847, 416.205
1405.035, 183.447
1406.224, 363.027
1407.412, 351.151
1408.600, 214.309
1409.788, 412.972
1410.976, 157.948
1412.164, 231.448
1413.351, 378.918
1414.538, 128.367
1415.725, 331.297
1416.912, 286.138
1418.099, 76.233
1419.285, 300.260
1420.472, 245.214
1421.658, 197.459
1422.844, 377.957
1424.030, 170.963
1425.215, 126.154
1426.401, 446.411
1427.586, 117.212
1428.771, 376.629
1429.956, 318.605
1431.141, 96.383
1432.325, 361.290
1433.510, 285.320
1434.694, 32.780
1435.878, 415.105
1437.062, 213.120
1438.245, 226.027
1439.429, 340.846
1440.612, 112.153
1441.795, 182.451
1442.978, 351.312
1444.161, 138.053
1445.343, 250.379
1446.526, 350.285
1447.708, 169.146
1448.890, 390.958
1450.072, 254.583
1451.253, 254.464
1452.435, 364.458
1453.616, 188.417
1454.797, 307.442
1455.978, 377.312
1457.159, 185.114
1458.340, 364.846
1459.520, 386.507
1460.700, 144.088
1461.880, 464.588
1463.060, 196.012
1464.240, 334.359
1465.420, 320.621
1466.599, 94.815
1467.778, 124.930
1468.957, 282.995
1470.136, 160.701
1471.315, 267.660
1472.493, 297.799
1473.671, 26.953
1474.849, 352.100
1476.027, 330.263
1477.205, 168.521
1478.383, 308.738
1479.560, 214.358
1480.737, 157.873
1481.914, 405.433
1483.091, 81.968
1484.268, 237.532
1485.444, 360.117
1486.621, 26.281
1487.797, 429.320
1488.973, 197.154
1490.149, 55.025
1491.324, 333.907
1492.500, 108.795
1493.675, 178.698
1494.850, 340.634
1496.025, 35.618
1497.200, 295.670
1498.374, 256.819
1499.548, 2.690
1500.723, 391.009
1501.897, 188.426
1503.071, 8.958
1504.244, 339.562
1505.418, 139.332
1506.591, 73.919
1507.764, 338.229
1508.937, 21.439
1510.110, 186.667
1511.282, 335.858
1512.455, 17.431
1513.627, 216.989
1514.799, 274.143
1515.971, 61.565
1517.143, 326.158
1518.314, 123.270
1519.486, 69.413
1520.657, 365.271
1521.828, 0.986
1522.999, 88.249
1524.169, 0.000
##END=



