##NAMES=Gaylussite
##RRUFFID=R040146
##IDEAL CHEMISTRY=Na_2_Ca(CO_3_)_2_&#183;5H_2_O
##LOCALITY=Searles Lake, Trona, San Bernardino County, California, USA
##OWNER=RRUFF
##SOURCE=University of Arizona Mineral Museum
##DESCRIPTION=Colorless crystal fragments
##STATUS=The identification of this mineral has been confirmed by X-ray diffraction and chemical analysis
##URL=rruff.info/R040146
##MEASURED CHEMISTRY=Na_2.00_Ca_1.00_(C_1.00_O_3_)_2_Â·5H_2_O
##PIN_ID=L00288
##ORIENTATION=Laser parallel to a* (1 0 0). Fiducial mark perpendicular to laser is parallel to -b [0 -1 0]
91.081, 0.000
92.477, 698.854
93.873, 1592.626
95.268, 1825.365
96.663, 1841.577
98.058, 1361.155
99.453, 1173.452
100.848, 1183.979
102.242, 1049.861
103.636, 1092.913
105.030, 699.112
106.423, 398.578
107.817, 245.836
109.210, 294.200
110.603, 819.863
111.996, 1353.158
113.388, 2328.362
114.780, 2767.297
116.172, 3062.396
117.564, 2509.910
118.956, 2120.928
120.347, 1548.021
121.738, 1006.128
123.129, 796.163
124.519, 582.026
125.910, 390.644
127.300, 304.974
128.690, 155.976
130.080, 113.592
131.469, 73.764
132.858, 26.564
134.248, 54.504
135.636, 53.924
137.025, 130.031
138.413, 127.802
139.801, 117.265
141.189, 61.446
142.577, 14.369
143.964, 15.054
145.352, 103.615
146.739, 176.537
148.125, 330.903
149.512, 527.654
150.898, 646.833
152.284, 949.355
153.670, 1277.009
155.056, 1812.700
156.441, 2393.474
157.827, 3140.327
159.212, 4097.302
160.596, 4994.598
161.981, 6038.194
163.365, 6607.978
164.749, 7058.047
166.133, 6638.269
167.517, 5758.500
168.900, 4668.732
170.283, 3551.000
171.666, 2894.262
173.049, 2090.524
174.431, 1847.729
175.813, 1550.874
177.195, 1545.025
178.577, 1481.196
179.959, 1382.377
181.340, 1211.544
182.721, 952.707
184.102, 838.877
185.483, 613.046
186.863, 555.198
188.244, 613.329
189.624, 557.451
191.003, 716.567
192.383, 734.679
193.762, 724.792
195.141, 641.905
196.520, 448.959
197.899, 345.106
199.277, 207.489
200.656, 175.211
202.034, 156.576
203.411, 145.695
204.789, 200.674
206.166, 308.521
207.543, 514.451
208.920, 436.334
210.297, 551.701
211.673, 514.440
213.049, 557.049
214.425, 491.101
215.801, 346.153
217.176, 384.187
218.552, 451.209
219.927, 485.583
221.302, 548.469
222.676, 771.841
224.051, 1108.330
225.425, 1385.848
226.799, 1839.842
228.173, 2239.262
229.546, 2785.300
230.919, 3030.728
232.292, 3317.253
233.665, 3190.382
235.038, 2864.126
236.410, 2401.454
237.782, 1940.973
239.154, 1531.778
240.526, 1186.317
241.898, 895.490
243.269, 847.417
244.640, 640.556
246.011, 537.139
247.381, 522.719
248.752, 457.581
250.122, 543.476
251.492, 497.092
252.861, 694.221
254.231, 620.630
255.600, 660.841
256.969, 543.562
258.338, 511.007
259.707, 472.391
261.075, 321.335
262.443, 319.784
263.811, 175.633
265.179, 155.688
266.546, 221.938
267.914, 110.283
269.281, 243.530
270.647, 150.674
272.014, 323.470
273.380, 239.583
274.747, 266.686
276.113, 402.927
277.478, 476.214
278.844, 566.892
280.209, 635.736
281.574, 702.480
282.939, 716.535
284.304, 777.555
285.668, 761.111
287.032, 742.208
288.396, 662.012
289.760, 553.896
291.123, 511.784
292.487, 418.847
293.850, 350.950
295.212, 258.251
296.575, 267.410
297.937, 262.223
299.300, 165.510
300.662, 86.535
302.023, 113.514
303.385, 35.380
304.746, 55.809
306.107, 8.361
307.468, 25.454
308.829, 34.096
310.189, 32.038
311.549, 37.979
312.909, 42.246
314.269, 3.637
315.629, 42.633
316.988, 5.944
318.347, 45.845
319.706, 13.513
321.065, 19.703
322.423, 48.123
323.781, 4.418
325.139, 48.070
326.497, 19.498
327.855, 5.935
329.212, 46.667
330.569, 36.687
331.926, 68.930
333.283, 43.340
334.639, 48.582
335.995, 42.793
337.351, 124.003
338.707, 45.173
340.063, 150.297
341.418, 80.447
342.773, 86.511
344.128, 70.545
345.483, 16.549
346.837, 35.116
348.192, 50.458
349.546, 24.367
350.899, 70.241
352.253, 39.084
353.606, 22.896
354.960, 11.674
356.313, 87.415
357.665, 37.124
359.018, 30.199
360.370, 47.429
361.722, 48.994
363.074, 48.522
364.426, 33.993
365.777, 49.574
367.128, 21.766
368.479, 51.959
369.830, 38.251
371.181, 7.390
372.531, 0.539
373.881, 4.527
375.231, 30.580
376.581, 23.289
377.930, 68.877
379.280, 25.899
380.629, 33.644
381.977, 76.646
383.326, 37.999
384.674, 12.393
386.023, 65.169
387.370, 13.690
388.718, 34.171
390.066, 48.597
391.413, 52.962
392.760, 107.246
394.107, 16.468
395.454, 87.643
396.800, 87.763
398.146, 32.828
399.492, 67.821
400.838, 11.747
402.184, 23.616
403.529, 6.443
404.874, 65.225
406.219, 78.975
407.564, 63.688
408.908, 111.366
410.252, 9.006
411.596, 106.595
412.940, 33.154
414.284, 36.678
415.627, 86.161
416.970, 111.606
418.313, 81.025
419.656, 1.572
420.999, 55.788
422.341, 16.116
423.683, 6.597
425.025, 106.649
426.367, 9.136
427.708, 100.021
429.049, 102.151
430.390, 121.248
431.731, 153.311
433.072, 74.342
434.412, 177.336
435.752, 60.299
437.092, 55.222
438.432, 149.104
439.772, 82.952
441.111, 161.763
442.450, 166.543
443.789, 105.293
445.127, 115.027
446.466, 71.728
447.804, 115.391
449.142, 61.029
450.480, 172.627
451.817, 59.194
453.155, 139.721
454.492, 134.214
455.829, 6.675
457.166, 126.083
458.502, 71.468
459.838, 123.819
461.175, 217.146
462.510, 65.460
463.846, 215.757
465.181, 88.330
466.517, 192.615
467.852, 109.820
469.186, 135.056
470.521, 185.260
471.855, 141.973
473.190, 270.112
474.523, 161.019
475.857, 192.571
477.191, 201.292
478.524, 160.215
479.857, 258.196
481.190, 142.505
482.523, 197.357
483.855, 276.347
485.187, 218.542
486.519, 156.386
487.851, 224.949
489.183, 225.033
490.514, 205.758
491.845, 161.497
493.176, 252.679
494.507, 183.360
495.837, 306.013
497.168, 164.637
498.498, 167.232
499.828, 303.792
501.157, 158.330
502.487, 396.853
503.816, 628.349
505.145, 639.816
506.474, 910.471
507.802, 742.623
509.131, 458.945
510.459, 365.671
511.787, 404.997
513.115, 331.994
514.442, 315.476
515.770, 359.479
517.097, 288.711
518.424, 432.412
519.750, 378.709
521.077, 328.524
522.403, 467.521
523.729, 390.244
525.055, 363.065
526.381, 378.851
527.706, 419.693
529.031, 376.222
530.356, 324.439
531.681, 353.553
533.006, 413.159
534.330, 321.467
535.654, 359.094
536.978, 223.638
538.302, 406.774
539.625, 308.317
540.949, 362.043
542.272, 276.569
543.595, 307.323
544.917, 413.802
546.240, 363.042
547.562, 337.910
548.884, 299.404
550.206, 304.281
551.527, 445.070
552.849, 337.526
554.170, 406.375
555.491, 444.656
556.812, 419.911
558.132, 590.116
559.453, 343.044
560.773, 540.496
562.093, 456.337
563.412, 474.599
564.732, 588.364
566.051, 417.311
567.370, 600.992
568.689, 558.179
570.008, 558.518
571.326, 682.635
572.644, 454.533
573.963, 751.562
575.280, 668.414
576.598, 663.628
577.915, 764.366
579.233, 603.057
580.550, 799.325
581.866, 550.532
583.183, 727.985
584.499, 646.874
585.815, 620.833
587.131, 694.711
588.447, 583.501
589.763, 614.517
591.078, 587.545
592.393, 487.939
593.708, 553.126
595.022, 473.246
596.337, 477.243
597.651, 445.169
598.965, 351.587
600.279, 435.571
601.593, 415.522
602.906, 370.975
604.219, 418.652
605.532, 299.917
606.845, 384.146
608.158, 263.101
609.470, 327.988
610.782, 311.880
612.094, 271.623
613.406, 354.307
614.718, 197.791
616.029, 357.814
617.340, 335.841
618.651, 150.425
619.962, 303.964
621.272, 242.850
622.582, 320.562
623.892, 310.798
625.202, 248.635
626.512, 347.094
627.821, 323.674
629.131, 326.462
630.440, 318.069
631.749, 272.895
633.057, 330.625
634.366, 149.442
635.674, 288.271
636.982, 169.971
638.290, 195.788
639.597, 350.636
640.905, 173.459
642.212, 360.292
643.519, 268.195
644.825, 285.932
646.132, 365.408
647.438, 239.246
648.744, 400.093
650.050, 305.957
651.356, 356.812
652.662, 377.660
653.967, 285.500
655.272, 356.304
656.577, 257.111
657.882, 300.929
659.186, 388.965
660.490, 282.767
661.794, 400.563
663.098, 204.889
664.402, 367.685
665.705, 312.476
667.009, 274.260
668.312, 376.048
669.614, 274.831
670.917, 319.608
672.219, 344.384
673.522, 250.159
674.824, 416.943
676.125, 259.724
677.427, 260.516
678.728, 252.304
680.030, 179.108
681.331, 322.930
682.631, 243.764
683.932, 281.616
685.232, 332.469
686.532, 210.340
687.832, 296.213
689.132, 196.089
690.432, 274.972
691.731, 313.874
693.030, 140.790
694.329, 315.708
695.628, 167.108
696.926, 188.053
698.224, 168.998
699.522, 153.972
700.820, 279.945
702.118, 119.930
703.415, 72.913
704.713, 243.901
706.010, 142.892
707.307, 186.882
708.603, 92.874
709.900, 26.863
711.196, 210.857
712.492, 39.850
713.788, 136.841
715.083, 41.837
716.379, 208.833
717.674, 291.835
718.969, 16.843
720.264, 304.858
721.558, 91.873
722.853, 157.888
724.147, 132.905
725.441, 1.080
726.735, 185.942
728.028, 65.963
729.322, 19.989
730.615, 133.018
731.908, 1.047
733.201, 182.076
734.493, 4.895
735.785, 152.143
737.078, 105.184
738.370, 59.769
739.661, 186.263
740.953, 9.295
742.244, 22.660
743.535, 152.375
744.826, 8.412
746.117, 167.447
747.407, 158.482
748.698, 10.521
749.988, 215.558
751.278, 65.599
752.567, 85.644
753.857, 109.691
755.146, 22.740
756.435, 195.790
757.724, 66.160
759.013, 135.858
760.301, 6.878
761.590, 30.098
762.878, 126.913
764.165, 53.928
765.453, 125.944
766.741, 23.966
768.028, 119.989
769.315, 185.014
770.602, 42.950
771.888, 159.067
773.175, 33.088
774.461, 46.889
775.747, 216.113
777.033, 65.881
778.319, 84.093
779.604, 61.070
780.889, 19.952
782.174, 106.020
783.459, 23.994
784.744, 87.970
786.028, 124.948
787.312, 15.927
788.596, 177.908
789.880, 61.890
791.164, 107.873
792.447, 193.858
793.730, 40.155
795.013, 182.126
796.296, 75.097
797.579, 19.932
798.861, 216.458
800.143, 61.578
801.425, 67.355
802.707, 117.291
803.989, 3.226
805.270, 250.163
806.551, 25.101
807.832, 172.040
809.113, 73.979
810.394, 52.922
811.674, 157.865
812.954, 56.190
814.234, 175.728
815.514, 146.646
816.794, 44.433
818.073, 267.705
819.352, 126.606
820.631, 258.509
821.910, 93.979
823.189, 70.885
824.467, 220.793
825.745, 156.702
827.023, 139.614
828.301, 186.803
829.578, 46.717
830.856, 249.633
832.133, 104.550
833.410, 46.469
834.687, 167.746
835.963, 52.667
837.240, 294.591
838.516, 58.515
839.792, 124.440
841.068, 76.761
842.343, 65.689
843.618, 175.618
844.894, 104.268
846.169, 107.199
847.443, 315.130
848.718, 0.938
849.992, 205.990
851.266, 116.919
852.540, 107.848
853.814, 324.780
855.088, 29.711
856.361, 279.645
857.634, 306.578
858.907, 171.512
860.180, 321.447
861.453, 291.480
862.725, 331.416
863.997, 390.293
865.269, 232.232
866.541, 567.168
867.812, 244.483
869.084, 284.425
870.355, 435.368
871.626, 252.312
872.897, 521.165
874.167, 385.125
875.438, 352.085
876.708, 331.050
877.978, 307.017
879.248, 275.797
880.517, 287.768
881.787, 239.739
883.056, 322.641
884.325, 120.623
885.594, 194.454
886.862, 399.439
888.130, 123.163
889.399, 343.153
890.667, 173.145
891.934, 166.736
893.202, 345.730
894.469, 180.629
895.737, 411.547
897.004, 196.563
898.270, 262.478
899.537, 287.498
900.803, 73.544
902.070, 361.500
903.336, 219.548
904.601, 41.617
905.867, 381.686
907.132, 148.757
908.398, 234.794
909.663, 199.868
910.928, 129.107
912.192, 331.188
913.457, 101.171
914.721, 198.681
915.985, 275.774
917.249, 89.870
918.512, 270.967
919.776, 102.044
921.039, 210.146
922.302, 276.249
923.565, 87.953
924.827, 227.060
926.090, 136.169
927.352, 89.627
928.614, 263.739
929.876, 73.007
931.138, 265.125
932.399, 220.244
933.660, 7.342
934.922, 231.464
936.182, 207.581
937.443, 135.707
938.704, 161.835
939.964, 129.283
941.224, 155.059
942.484, 131.193
943.744, 135.329
945.003, 172.466
946.262, 27.623
947.521, 228.505
948.780, 198.636
950.039, 9.308
951.298, 311.822
952.556, 69.319
953.814, 158.453
955.072, 60.589
956.330, 80.643
957.587, 204.782
958.845, 137.928
960.102, 133.075
961.359, 217.225
962.615, 43.377
963.872, 259.545
965.128, 91.420
966.384, 74.580
967.640, 160.847
968.896, 49.528
970.152, 150.616
971.407, 10.764
972.662, 37.087
973.917, 229.050
975.172, 51.207
976.427, 31.367
977.681, 145.528
978.935, 67.308
980.189, 130.839
981.443, 76.979
982.697, 4.120
983.950, 185.264
985.203, 84.590
986.456, 247.520
987.709, 59.726
988.962, 31.842
990.214, 254.043
991.467, 11.838
992.719, 61.279
993.971, 178.398
995.222, 58.480
996.474, 218.618
997.725, 53.717
998.976, 61.845
1000.227, 235.519
1001.478, 48.647
1002.728, 247.782
1003.978, 197.237
1005.229, 34.376
1006.479, 259.516
1007.728, 110.656
1008.978, 47.800
1010.227, 168.946
1011.476, 2.909
1012.725, 215.237
1013.974, 81.740
1015.223, 61.891
1016.471, 304.138
1017.719, 11.708
1018.967, 232.514
1020.215, 226.021
1021.462, 192.244
1022.710, 363.493
1023.957, 122.653
1025.204, 327.906
1026.451, 398.952
1027.697, 123.208
1028.944, 377.478
1030.190, 276.164
1031.436, 169.436
1032.682, 347.710
1033.928, 97.875
1035.173, 308.150
1036.418, 248.931
1037.663, 111.456
1038.908, 261.753
1040.153, 248.418
1041.398, 208.721
1042.642, 456.042
1043.886, 142.932
1045.130, 460.253
1046.374, 436.029
1047.617, 135.594
1048.860, 514.922
1050.104, 530.156
1051.347, 654.481
1052.589, 764.807
1053.832, 500.227
1055.074, 778.549
1056.316, 537.171
1057.558, 669.502
1058.800, 952.831
1060.042, 749.898
1061.283, 1194.260
1062.524, 1235.626
1063.765, 1539.973
1065.006, 2402.344
1066.247, 2974.818
1067.487, 5247.187
1068.728, 9689.553
1069.968, 20422.193
1071.208, 39224.551
1072.447, 44706.910
1073.687, 32569.537
1074.926, 17751.904
1076.165, 8464.266
1077.404, 4896.688
1078.643, 3009.055
1079.881, 1881.816
1081.120, 1674.196
1082.358, 1097.573
1083.596, 1015.090
1084.834, 1015.467
1086.071, 671.838
1087.309, 785.206
1088.546, 670.571
1089.783, 501.160
1091.020, 661.517
1092.256, 359.871
1093.493, 548.220
1094.729, 634.565
1095.965, 262.604
1097.201, 456.021
1098.436, 399.364
1099.672, 252.304
1100.907, 495.644
1102.142, 181.996
1103.377, 377.526
1104.612, 354.869
1105.846, 176.209
1107.081, 473.444
1108.315, 295.774
1109.549, 155.271
1110.782, 466.593
1112.016, 58.909
1113.249, 296.687
1114.483, 329.008
1115.716, 39.323
1116.948, 311.668
1118.181, 98.748
1119.413, 205.257
1120.646, 456.563
1121.878, 81.299
1123.110, 307.062
1124.341, 275.353
1125.573, 200.638
1126.804, 426.147
1128.035, 67.144
1129.266, 229.766
1130.497, 262.027
1131.727, 96.283
1132.957, 289.755
1134.188, 232.642
1135.418, 46.878
1136.647, 378.765
1137.877, 50.988
1139.106, 212.465
1140.335, 237.582
1141.564, 90.784
1142.793, 311.154
1144.022, 123.622
1145.250, 192.804
1146.479, 255.387
1147.707, 146.555
1148.934, 241.764
1150.162, 175.663
1151.390, 6.811
1152.617, 378.425
1153.844, 105.554
1155.071, 187.674
1156.298, 334.168
1157.524, 89.272
1158.751, 231.372
1159.977, 378.701
1161.203, 3.781
1162.428, 453.148
1163.654, 67.773
1164.879, 238.823
1166.105, 342.491
1167.330, 39.524
1168.555, 262.546
1169.779, 262.291
1171.004, 33.707
1172.228, 331.183
1173.452, 0.486
1174.676, 188.425
1175.900, 306.781
1177.123, 22.698
1178.346, 272.602
1179.570, 205.301
1180.793, 14.816
1182.015, 297.147
1183.238, 16.262
1184.460, 68.091
1185.683, 274.626
1186.905, 44.764
1188.126, 193.555
1189.348, 305.395
1190.569, 6.837
1191.791, 366.904
1193.012, 20.465
1194.233, 79.232
1195.453, 301.175
1196.674, 75.061
1197.894, 184.549
1199.114, 228.497
1200.334, 45.733
1201.554, 401.811
1202.774, 73.129
1203.993, 195.646
1205.212, 343.178
1206.431, 16.466
1207.650, 321.939
1208.869, 233.181
1210.087, 8.082
1211.305, 373.337
1212.524, 127.330
1213.741, 176.723
1214.959, 398.113
1216.177, 88.006
1217.394, 281.370
1218.611, 422.776
1219.828, 93.130
1221.045, 375.454
1222.261, 257.122
1223.478, 144.422
1224.694, 429.709
1225.910, 67.546
1227.126, 185.805
1228.342, 294.051
1229.557, 126.574
1230.772, 366.792
1231.987, 178.001
1233.202, 279.195
1234.417, 440.377
1235.631, 107.550
1236.846, 342.707
1238.060, 213.849
1239.274, 184.973
1240.488, 376.088
1241.701, 217.193
1242.915, 148.296
1244.128, 379.389
1245.341, 160.472
1246.554, 281.544
1247.767, 312.605
1248.979, 123.658
1250.191, 384.697
1251.403, 285.727
1252.615, 20.747
1253.827, 447.752
1255.039, 128.727
1256.250, 239.688
1257.461, 420.640
1258.672, 61.563
1259.883, 452.490
1261.094, 223.403
1262.304, 164.199
1263.514, 475.088
1264.724, 125.976
1265.934, 286.817
1267.144, 447.649
1268.354, 41.528
1269.563, 329.263
1270.772, 330.039
1271.981, 120.806
1273.190, 451.557
1274.398, 92.298
1275.607, 272.939
1276.815, 413.568
1278.023, 124.150
1279.231, 234.711
1280.439, 255.258
1281.646, 45.695
1282.853, 396.209
1284.060, 116.612
1285.267, 107.064
1286.474, 377.495
1287.681, 137.905
1288.887, 198.295
1290.093, 308.682
1291.299, 70.946
1292.505, 289.381
1293.711, 169.675
1294.916, 39.956
1296.121, 310.186
1297.327, 70.068
1298.531, 250.247
1299.736, 350.412
1300.941, 90.558
1302.145, 210.688
1303.349, 180.798
1304.553, 100.896
1305.757, 340.973
1306.961, 110.677
1308.164, 60.719
1309.367, 410.649
1310.570, 239.341
1311.773, 350.583
1312.976, 290.206
1314.178, 59.901
1315.381, 449.950
1316.583, 26.874
1317.785, 96.689
1318.987, 515.694
1320.188, 24.526
1321.390, 185.222
1322.591, 344.536
1323.792, 34.251
1324.993, 383.942
1326.193, 151.729
1327.394, 11.386
1328.594, 390.520
1329.794, 30.106
1330.994, 9.479
1332.194, 328.685
1333.394, 18.234
1334.593, 327.767
1335.792, 255.717
1336.991, 25.223
1338.190, 412.263
1339.389, 111.501
1340.587, 150.965
1341.786, 264.566
1342.984, 84.010
1344.182, 123.439
1345.379, 379.702
1346.577, 20.887
1347.774, 468.212
1348.972, 157.593
1350.169, 53.035
1351.365, 455.587
1352.562, 5.076
1353.759, 94.246
1354.955, 371.580
1356.151, 40.890
1357.347, 210.090
1358.543, 311.778
1359.738, 51.075
1360.934, 390.094
1362.129, 149.630
1363.324, 158.922
1364.519, 457.923
1365.713, 77.183
1366.908, 246.444
1368.102, 635.656
1369.296, 44.924
1370.490, 363.815
1371.684, 393.009
1372.877, 92.132
1374.071, 401.105
1375.264, 170.875
1376.457, 269.953
1377.650, 439.009
1378.843, 249.003
1380.035, 477.683
1381.227, 566.245
1382.419, 164.292
1383.611, 744.425
1384.803, 594.470
1385.995, 424.545
1387.186, 1034.625
1388.377, 474.497
1389.568, 833.593
1390.759, 1063.428
1391.950, 623.426
1393.140, 1092.901
1394.331, 1332.822
1395.521, 1032.543
1396.711, 1512.463
1397.900, 1397.351
1399.090, 1206.928
1400.279, 1536.340
1401.469, 996.136
1402.658, 1085.654
1403.847, 1154.642
1405.035, 614.069
1406.224, 873.427
1407.412, 782.916
1408.600, 264.746
1409.788, 844.278
1410.976, 332.918
1412.164, 371.867
1413.351, 650.912
1414.538, 210.419
1415.725, 549.475
1416.912, 597.819
1418.099, 224.579
1419.285, 623.770
1420.472, 465.114
1421.658, 202.463
1422.844, 676.748
1424.030, 475.755
1425.215, 123.594
1426.401, 830.579
1427.586, 274.077
1428.771, 500.967
1429.956, 708.201
1431.141, 275.641
1432.325, 684.051
1433.510, 732.730
1434.694, 330.729
1435.878, 895.116
1437.062, 473.858
1438.245, 384.725
1439.429, 809.919
1440.612, 287.534
1441.795, 566.091
1442.978, 833.711
1444.161, 302.063
1445.343, 529.875
1446.526, 678.286
1447.708, 315.630
1448.890, 633.426
1450.072, 511.729
1451.253, 289.994
1452.435, 778.216
1453.616, 166.426
1454.797, 434.584
1455.978, 802.673
1457.159, 220.700
1458.340, 538.665
1459.520, 596.562
1460.700, 224.385
1461.880, 772.226
1463.060, 299.996
1464.240, 257.697
1465.420, 675.330
1466.599, 282.964
1467.778, 310.608
1468.957, 618.193
1470.136, 245.698
1471.315, 513.398
1472.493, 611.378
1473.671, 119.495
1474.849, 587.637
1476.027, 395.870
1477.205, 264.209
1478.383, 602.582
1479.560, 290.944
1480.737, 229.415
1481.914, 708.146
1483.091, 66.959
1484.268, 385.811
1485.444, 464.699
1486.621, 16.345
1487.797, 672.653
1488.973, 391.694
1490.149, 180.787
1491.324, 569.946
1492.500, 319.192
1493.675, 298.535
1494.850, 618.001
1496.025, 137.607
1497.200, 507.381
1498.374, 507.325
1499.548, 32.566
1500.723, 547.710
1501.897, 538.166
1503.071, 38.815
1504.244, 599.239
1505.418, 343.034
1506.591, 133.788
1507.764, 604.732
1508.937, 125.883
1510.110, 237.250
1511.282, 628.826
1512.455, 80.548
1513.627, 465.549
1514.799, 593.253
1515.971, 0.367
1517.143, 565.719
1518.314, 260.088
1519.486, 1.730
1520.657, 664.643
1521.828, 28.441
1522.999, 0.000
##END=



