##NAMES=Gaylussite
##RRUFFID=R040146
##IDEAL CHEMISTRY=Na_2_Ca(CO_3_)_2_&#183;5H_2_O
##LOCALITY=Searles Lake, Trona, San Bernardino County, California, USA
##OWNER=RRUFF
##SOURCE=University of Arizona Mineral Museum
##DESCRIPTION=Colorless crystal fragments
##STATUS=The identification of this mineral has been confirmed by X-ray diffraction and chemical analysis
##URL=rruff.info/R040146
##MEASURED CHEMISTRY=Na_2.00_Ca_1.00_(C_1.00_O_3_)_2_Â·5H_2_O
##PIN_ID=L00288
##ORIENTATION=Laser parallel to a* (1 0 0). Fiducial mark perpendicular to laser is parallel to -b [0 -1 0]
95.268, 0.000
96.663, 5.055
98.058, 4.498
99.453, 50.710
100.848, 211.757
102.242, 308.026
103.636, 396.366
105.030, 366.383
106.423, 377.122
107.817, 290.896
109.210, 288.190
110.603, 384.607
111.996, 560.839
113.388, 750.641
114.780, 881.817
116.172, 975.208
117.564, 865.677
118.956, 804.103
120.347, 681.384
121.738, 509.435
123.129, 449.177
124.519, 393.544
125.910, 381.484
127.300, 343.954
128.690, 298.911
130.080, 322.327
131.469, 314.172
132.858, 333.419
134.248, 467.040
135.636, 565.010
137.025, 663.306
138.413, 773.895
139.801, 850.746
141.189, 860.836
142.577, 814.146
143.964, 619.662
145.352, 570.369
146.739, 432.296
148.125, 452.354
149.512, 406.574
150.898, 370.945
152.284, 457.459
153.670, 481.127
155.056, 564.955
156.441, 627.947
157.827, 778.087
159.212, 903.357
160.596, 997.742
161.981, 1237.288
163.365, 1320.010
164.749, 1491.845
166.133, 1618.822
167.517, 1720.954
168.900, 1950.181
170.283, 2047.487
171.666, 2307.861
173.049, 2178.373
174.431, 2143.958
175.813, 1732.630
177.195, 1406.370
178.577, 1129.141
179.959, 792.842
181.340, 639.517
182.721, 448.167
184.102, 305.804
185.483, 214.444
186.863, 223.105
188.244, 150.806
189.624, 106.528
191.003, 36.277
192.383, 75.057
193.762, 38.861
195.141, 51.692
196.520, 0.418
197.899, 32.500
199.277, 22.445
200.656, 3.418
202.034, 47.420
203.411, 73.448
204.789, 116.499
206.166, 87.574
207.543, 185.669
208.920, 143.783
210.297, 211.918
211.673, 166.385
213.049, 195.061
214.425, 156.226
215.801, 88.369
217.176, 78.561
218.552, 66.659
219.927, 42.236
221.302, 5.779
222.676, 47.218
224.051, 54.454
225.425, 42.263
226.799, 95.467
228.173, 65.762
229.546, 166.508
230.919, 120.399
232.292, 153.556
233.665, 219.005
235.038, 190.925
236.410, 244.950
237.782, 257.998
239.154, 278.257
240.526, 290.699
241.898, 287.515
243.269, 353.802
244.640, 394.403
246.011, 482.633
247.381, 617.018
248.752, 680.785
250.122, 852.352
251.492, 950.201
252.861, 1286.904
254.231, 1580.412
255.600, 1993.750
256.969, 2434.710
258.338, 3084.740
259.707, 3660.471
261.075, 4309.768
262.443, 4910.423
263.811, 4980.391
265.179, 5011.836
266.546, 4651.414
267.914, 4120.191
269.281, 3442.137
270.647, 2792.233
272.014, 2349.506
273.380, 1801.845
274.747, 1608.134
276.113, 1344.682
277.478, 1182.730
278.844, 1074.880
280.209, 932.644
281.574, 957.572
282.939, 924.436
284.304, 887.555
285.668, 810.135
287.032, 743.520
288.396, 729.190
289.760, 587.327
291.123, 569.896
292.487, 474.402
293.850, 416.706
295.212, 368.586
296.575, 277.241
297.937, 260.973
299.300, 208.307
300.662, 241.018
302.023, 129.771
303.385, 112.167
304.746, 152.410
306.107, 132.889
307.468, 135.824
308.829, 78.502
310.189, 90.979
311.549, 102.784
312.909, 17.286
314.269, 82.206
315.629, 48.730
316.988, 33.263
318.347, 9.806
319.706, 39.358
321.065, 34.212
322.423, 1.791
323.781, 60.363
325.139, 24.060
326.497, 12.480
327.855, 12.898
329.212, 4.315
330.569, 34.271
331.926, 4.859
333.283, 13.447
334.639, 39.964
335.995, 9.620
337.351, 0.772
338.707, 20.645
340.063, 37.934
341.418, 28.489
342.773, 31.082
344.128, 1.652
345.483, 7.779
346.837, 19.788
348.192, 4.647
349.546, 29.917
350.899, 34.479
352.253, 28.961
353.606, 16.593
354.960, 17.855
356.313, 13.691
357.665, 27.744
359.018, 25.208
360.370, 10.693
361.722, 31.170
363.074, 28.343
364.426, 10.148
365.777, 5.355
367.128, 14.103
368.479, 18.610
369.830, 14.874
371.181, 16.398
372.531, 25.126
373.881, 38.660
375.231, 1.069
376.581, 41.495
377.930, 7.000
379.280, 4.593
380.629, 1.957
381.977, 19.433
383.326, 2.960
384.674, 1.330
386.023, 30.309
387.370, 10.039
388.718, 11.375
390.066, 49.035
391.413, 2.341
392.760, 23.819
394.107, 14.128
395.454, 27.396
396.800, 25.959
398.146, 45.384
399.492, 47.399
400.838, 22.948
402.184, 11.878
403.529, 3.460
404.874, 14.601
406.219, 13.259
407.564, 29.114
408.908, 31.228
410.252, 25.458
411.596, 45.645
412.940, 15.700
414.284, 21.744
415.627, 14.224
416.970, 16.859
418.313, 4.858
419.656, 11.159
420.999, 53.807
422.341, 24.759
423.683, 59.891
425.025, 34.858
426.367, 0.171
427.708, 44.167
429.049, 35.133
430.390, 45.432
431.731, 36.993
433.072, 32.957
434.412, 68.919
435.752, 7.879
437.092, 37.829
438.432, 2.225
439.772, 2.296
441.111, 56.740
442.450, 34.647
443.789, 7.799
445.127, 31.687
446.466, 18.268
447.804, 26.438
449.142, 19.326
450.480, 45.176
451.817, 26.029
453.155, 30.065
454.492, 41.905
455.829, 17.262
457.166, 29.634
458.502, 28.433
459.838, 74.220
461.175, 32.000
462.510, 31.772
463.846, 57.532
465.181, 18.289
466.517, 50.035
467.852, 29.767
469.186, 41.486
470.521, 103.195
471.855, 37.895
473.190, 70.583
474.523, 35.262
475.857, 67.936
477.191, 90.601
478.524, 72.258
479.857, 147.904
481.190, 42.542
482.523, 61.167
483.855, 129.783
485.187, 83.390
486.519, 65.335
487.851, 105.646
489.183, 72.927
490.514, 66.419
491.845, 121.978
493.176, 70.531
494.507, 72.075
495.837, 102.175
497.168, 7.703
498.498, 103.204
499.828, 112.034
501.157, 76.521
502.487, 89.974
503.816, 81.448
505.145, 81.913
506.474, 105.120
507.802, 102.568
509.131, 147.841
510.459, 133.712
511.787, 91.689
513.115, 127.865
514.442, 94.265
515.770, 106.889
517.097, 67.270
518.424, 135.359
519.750, 109.542
521.077, 102.374
522.403, 131.185
523.729, 87.519
525.055, 91.286
526.381, 62.608
527.706, 101.140
529.031, 99.410
530.356, 61.703
531.681, 103.987
533.006, 66.822
534.330, 40.879
535.654, 92.936
536.978, 53.755
538.302, 104.952
539.625, 41.655
540.949, 75.456
542.272, 47.664
543.595, 75.634
544.917, 84.504
546.240, 79.661
547.562, 73.773
548.884, 34.892
550.206, 84.042
551.527, 42.804
552.849, 57.935
554.170, 94.019
555.491, 33.132
556.812, 48.208
558.132, 69.300
559.453, 41.041
560.773, 79.115
562.093, 38.855
563.412, 75.387
564.732, 56.297
566.051, 32.850
567.370, 90.879
568.689, 34.901
570.008, 48.628
571.326, 66.631
572.644, 65.423
573.963, 134.338
575.280, 42.591
576.598, 83.340
577.915, 113.623
579.233, 51.959
580.550, 96.910
581.866, 0.233
583.183, 79.052
584.499, 61.971
585.815, 21.777
587.131, 63.678
588.447, 23.571
589.763, 13.454
591.078, 76.324
592.393, 62.440
593.708, 80.297
595.022, 65.299
596.337, 80.126
597.651, 64.531
598.965, 31.903
600.279, 98.723
601.593, 24.434
602.906, 69.432
604.219, 57.052
605.532, 55.252
606.845, 39.888
608.158, 63.074
609.470, 93.161
610.782, 26.512
612.094, 51.913
613.406, 53.581
614.718, 31.696
616.029, 100.794
617.340, 55.098
618.651, 81.817
619.962, 104.929
621.272, 65.260
622.582, 82.959
623.892, 43.825
625.202, 87.466
626.512, 109.660
627.821, 55.120
629.131, 70.788
630.440, 85.135
631.749, 112.791
633.057, 110.828
634.366, 70.472
635.674, 75.110
636.982, 56.743
638.290, 130.369
639.597, 77.694
640.905, 112.294
642.212, 193.902
643.519, 123.505
644.825, 134.104
646.132, 153.699
647.438, 119.292
648.744, 196.878
650.050, 144.375
651.356, 133.951
652.662, 106.119
653.967, 127.691
655.272, 181.159
656.577, 156.719
657.882, 174.277
659.186, 126.520
660.490, 109.073
661.794, 181.621
663.098, 133.814
664.402, 153.354
665.705, 136.888
667.009, 101.420
668.312, 158.945
669.614, 123.466
670.917, 120.991
672.219, 108.510
673.522, 169.029
674.824, 159.521
676.125, 113.534
677.427, 134.048
678.728, 105.561
680.030, 71.076
681.331, 195.591
682.631, 166.801
683.932, 158.267
685.232, 196.775
686.532, 137.282
687.832, 200.742
689.132, 165.964
690.432, 197.464
691.731, 241.686
693.030, 179.188
694.329, 209.625
695.628, 124.130
696.926, 98.398
698.224, 124.900
699.522, 107.248
700.820, 128.743
702.118, 60.235
703.415, 128.733
704.713, 100.226
706.010, 62.381
707.307, 123.867
708.603, 68.160
709.900, 130.610
711.196, 148.088
712.492, 104.174
713.788, 209.546
715.083, 204.021
716.379, 350.345
717.674, 481.828
718.969, 609.135
720.264, 858.621
721.558, 828.096
722.853, 827.328
724.147, 606.811
725.441, 443.075
726.735, 346.524
728.028, 214.008
729.322, 156.490
730.615, 143.969
731.908, 94.378
733.201, 143.860
734.493, 47.343
735.785, 120.831
737.078, 64.316
738.370, 2.626
739.661, 111.104
740.953, 53.578
742.244, 37.681
743.535, 68.156
744.826, 31.295
746.117, 62.171
747.407, 2.639
748.698, 60.103
749.988, 55.565
751.278, 35.029
752.567, 24.491
753.857, 51.958
755.146, 22.305
756.435, 23.775
757.724, 4.992
759.013, 47.461
760.301, 53.930
761.590, 3.399
762.878, 29.840
764.165, 31.691
765.453, 62.756
766.741, 25.990
768.028, 41.441
769.315, 95.872
770.602, 22.781
771.888, 60.645
773.175, 25.072
774.461, 7.502
775.747, 98.917
777.033, 11.662
778.319, 33.891
779.604, 19.299
780.889, 41.711
782.174, 70.125
783.459, 22.540
784.744, 25.953
786.028, 43.367
787.312, 25.219
788.596, 49.322
789.880, 20.720
791.164, 48.118
792.447, 57.516
793.730, 11.913
795.013, 62.310
796.296, 19.708
797.579, 43.105
798.861, 63.502
800.143, 61.899
801.425, 41.596
802.707, 26.993
803.989, 12.611
805.270, 35.777
806.551, 7.836
807.832, 50.546
809.113, 6.072
810.394, 7.312
811.674, 89.697
812.954, 25.919
814.234, 24.550
815.514, 47.920
816.794, 9.710
818.073, 74.064
819.352, 39.428
820.631, 82.843
821.910, 17.208
823.189, 16.573
824.467, 65.723
825.745, 32.090
827.023, 38.456
828.301, 51.834
829.578, 7.798
830.856, 77.565
832.133, 35.929
833.410, 69.293
834.687, 72.789
835.963, 26.846
837.240, 82.505
838.516, 10.857
839.792, 40.209
841.068, 33.563
842.343, 12.083
843.618, 71.265
844.894, 46.614
846.169, 65.964
847.443, 95.410
848.718, 7.763
849.992, 111.116
851.266, 45.471
852.540, 37.827
853.814, 100.185
855.088, 89.543
856.361, 138.902
857.634, 75.263
858.907, 147.624
860.180, 148.987
861.453, 61.352
862.725, 160.719
863.997, 98.086
865.269, 32.455
866.541, 118.828
867.812, 106.202
869.084, 90.579
870.355, 178.956
871.626, 52.335
872.897, 189.716
874.167, 76.099
875.438, 135.484
876.708, 113.871
877.978, 32.262
879.248, 107.656
880.517, 60.065
881.787, 99.476
883.056, 133.887
884.325, 55.302
885.594, 104.719
886.862, 123.137
888.130, 119.557
889.399, 179.979
890.667, 82.402
891.934, 99.473
893.202, 79.905
894.469, 130.346
895.737, 116.790
897.004, 46.239
898.270, 116.692
899.537, 110.149
900.803, 69.308
902.070, 136.769
903.336, 106.233
904.601, 84.698
905.867, 203.166
907.132, 47.635
908.398, 147.108
909.663, 38.583
910.928, 69.902
912.192, 131.394
913.457, 34.888
914.721, 103.187
915.985, 110.688
917.249, 44.858
918.512, 107.364
919.776, 36.912
921.039, 73.425
922.302, 102.939
923.565, 61.721
924.827, 74.241
926.090, 58.763
927.352, 49.535
928.614, 82.062
929.876, 6.406
931.138, 103.125
932.399, 4.660
933.660, 16.197
934.922, 75.738
936.182, 54.281
937.443, 9.827
938.704, 109.375
939.964, 6.866
941.224, 58.687
942.484, 63.243
943.744, 15.802
945.003, 53.364
946.262, 21.929
947.521, 95.497
948.780, 27.067
950.039, 55.641
951.298, 127.218
952.556, 12.201
953.814, 83.379
955.072, 20.963
956.330, 48.635
957.587, 81.225
958.845, 10.220
960.102, 64.817
961.359, 95.948
962.615, 42.551
963.872, 71.157
965.128, 5.922
966.384, 95.690
967.640, 63.306
968.896, 16.726
970.152, 103.892
971.407, 3.472
972.662, 55.167
973.917, 46.808
975.172, 26.546
976.427, 1.097
977.681, 29.744
978.935, 0.606
980.189, 78.046
981.443, 31.206
982.697, 13.867
983.950, 90.531
985.203, 34.801
986.456, 71.861
987.709, 55.829
988.962, 40.498
990.214, 42.171
991.467, 34.848
992.719, 27.529
993.971, 67.490
995.222, 23.177
996.474, 37.868
997.725, 6.438
998.976, 21.260
1000.227, 60.961
1001.478, 71.665
1002.728, 98.378
1003.978, 85.085
1005.229, 106.800
1006.479, 113.519
1007.728, 56.240
1008.978, 88.968
1010.227, 114.699
1011.476, 75.433
1012.725, 161.171
1013.974, 72.968
1015.223, 95.713
1016.471, 191.656
1017.719, 121.410
1018.967, 117.192
1020.215, 171.978
1021.462, 111.768
1022.710, 180.562
1023.957, 109.479
1025.204, 173.281
1026.451, 241.086
1027.697, 98.554
1028.944, 190.367
1030.190, 170.315
1031.436, 134.134
1032.682, 242.960
1033.928, 118.092
1035.173, 249.926
1036.418, 185.792
1037.663, 166.633
1038.908, 282.481
1040.153, 185.466
1041.398, 228.320
1042.642, 338.186
1043.886, 277.551
1045.130, 384.423
1046.374, 343.232
1047.617, 366.110
1048.860, 568.989
1050.104, 661.993
1051.347, 776.879
1052.589, 837.776
1053.832, 690.762
1055.074, 722.665
1056.316, 722.679
1057.558, 771.710
1058.800, 990.627
1060.042, 1078.341
1061.283, 1512.276
1062.524, 1786.214
1063.765, 2185.720
1065.006, 3001.668
1066.247, 4297.694
1067.487, 7038.658
1068.728, 13085.623
1069.968, 28192.781
1071.208, 53959.773
1072.447, 61296.758
1073.687, 44673.773
1074.926, 24400.777
1076.165, 11667.780
1077.404, 6564.790
1078.643, 3824.799
1079.881, 2521.713
1081.120, 2003.768
1082.358, 1394.791
1083.596, 1153.927
1084.834, 925.953
1086.071, 764.036
1087.309, 722.073
1088.546, 614.111
1089.783, 529.060
1091.020, 514.109
1092.256, 393.158
1093.493, 356.218
1094.729, 461.278
1095.965, 244.339
1097.201, 388.402
1098.436, 251.466
1099.672, 256.738
1100.907, 290.802
1102.142, 186.567
1103.377, 238.697
1104.612, 148.764
1105.846, 115.835
1107.081, 230.124
1108.315, 183.199
1109.549, 132.382
1110.782, 199.460
1112.016, 75.537
1113.249, 165.797
1114.483, 187.783
1115.716, 19.868
1116.948, 165.955
1118.181, 80.634
1119.413, 88.013
1120.646, 182.052
1121.878, 108.140
1123.110, 175.579
1124.341, 155.882
1125.573, 127.179
1126.804, 184.267
1128.035, 141.358
1129.266, 109.702
1130.497, 123.896
1131.727, 94.985
1132.957, 116.211
1134.188, 84.168
1135.418, 86.277
1136.647, 226.723
1137.877, 58.816
1139.106, 156.097
1140.335, 136.261
1141.564, 64.352
1142.793, 124.445
1144.022, 39.537
1145.250, 68.627
1146.479, 62.829
1147.707, 59.917
1148.934, 116.153
1150.162, 97.239
1151.390, 23.321
1152.617, 111.492
1153.844, 70.599
1155.071, 59.676
1156.298, 121.376
1157.524, 26.449
1158.751, 147.522
1159.977, 38.710
1161.203, 3.777
1162.428, 188.067
1163.654, 4.480
1164.879, 30.576
1166.105, 116.815
1167.330, 33.866
1168.555, 115.946
1169.779, 80.436
1171.004, 0.477
1172.228, 165.763
1173.452, 70.097
1174.676, 12.874
1175.900, 94.521
1177.123, 52.412
1178.346, 108.573
1179.570, 113.692
1180.793, 4.331
1182.015, 75.115
1183.238, 27.454
1184.460, 81.417
1185.683, 142.533
1186.905, 4.626
1188.126, 100.575
1189.348, 107.490
1190.569, 23.569
1191.791, 120.506
1193.012, 14.322
1194.233, 63.583
1195.453, 97.487
1196.674, 13.464
1197.894, 70.430
1199.114, 88.550
1200.334, 25.729
1201.554, 73.645
1202.774, 24.205
1203.993, 21.067
1205.212, 122.269
1206.431, 39.774
1207.650, 167.047
1208.869, 101.228
1210.087, 3.674
1211.305, 139.181
1212.524, 38.154
1213.741, 115.349
1214.959, 123.203
1216.177, 18.213
1217.394, 142.980
1218.611, 151.025
1219.828, 57.353
1221.045, 134.112
1222.261, 95.005
1223.478, 84.961
1224.694, 186.702
1225.910, 56.492
1227.126, 57.313
1228.342, 68.127
1229.557, 40.170
1230.772, 106.879
1231.987, 57.332
1233.202, 106.122
1234.417, 190.812
1235.631, 59.809
1236.846, 153.584
1238.060, 117.252
1239.274, 101.151
1240.488, 89.799
1241.701, 105.443
1242.915, 76.391
1244.128, 155.027
1245.341, 26.705
1246.554, 110.332
1247.767, 128.953
1248.979, 62.812
1250.191, 177.425
1251.403, 126.034
1252.615, 27.639
1253.827, 131.223
1255.039, 54.800
1256.250, 126.372
1257.461, 179.938
1258.672, 38.499
1259.883, 129.052
1261.094, 83.601
1262.304, 123.344
1263.514, 167.880
1264.724, 38.586
1265.934, 117.927
1267.144, 140.436
1268.354, 16.034
1269.563, 119.528
1270.772, 37.021
1271.981, 87.577
1273.190, 131.054
1274.398, 27.524
1275.607, 64.127
1276.815, 145.548
1278.023, 56.959
1279.231, 127.529
1280.439, 85.929
1281.646, 20.321
1282.853, 161.854
1284.060, 47.221
1285.267, 75.758
1286.474, 140.102
1287.681, 149.426
1288.887, 109.775
1290.093, 101.083
1291.299, 45.385
1292.505, 173.664
1293.711, 59.934
1294.916, 96.184
1296.121, 157.403
1297.327, 75.614
1298.531, 90.863
1299.736, 129.043
1300.941, 10.199
1302.145, 135.361
1303.349, 98.493
1304.553, 70.613
1305.757, 134.717
1306.961, 45.754
1308.164, 23.836
1309.367, 171.700
1310.570, 80.255
1311.773, 202.753
1312.976, 93.734
1314.178, 20.703
1315.381, 155.660
1316.583, 42.486
1317.785, 36.421
1318.987, 171.344
1320.188, 27.597
1321.390, 90.498
1322.591, 132.257
1323.792, 0.865
1324.993, 150.998
1326.193, 17.547
1327.394, 26.385
1328.594, 175.181
1329.794, 1.006
1330.994, 68.789
1332.194, 159.437
1333.394, 13.793
1334.593, 123.955
1335.792, 65.194
1336.991, 40.917
1338.190, 108.692
1339.389, 100.391
1340.587, 82.079
1341.786, 83.633
1342.984, 18.701
1344.182, 35.945
1345.379, 92.495
1346.577, 9.881
1347.774, 179.626
1348.972, 31.109
1350.169, 32.303
1351.365, 166.484
1352.562, 27.043
1353.759, 4.407
1354.955, 87.597
1356.151, 58.125
1357.347, 22.569
1358.543, 84.083
1359.738, 19.414
1360.934, 111.901
1362.129, 40.913
1363.324, 14.389
1364.519, 201.841
1365.713, 71.307
1366.908, 54.768
1368.102, 195.262
1369.296, 0.735
1370.490, 83.150
1371.684, 83.844
1372.877, 36.293
1374.071, 141.483
1375.264, 10.017
1376.457, 83.188
1377.650, 144.526
1378.843, 37.947
1380.035, 81.984
1381.227, 116.347
1382.419, 17.649
1383.611, 201.512
1384.803, 132.612
1385.995, 39.700
1387.186, 221.564
1388.377, 96.563
1389.568, 131.616
1390.759, 172.430
1391.950, 51.346
1393.140, 175.169
1394.331, 189.176
1395.521, 176.170
1396.711, 175.532
1397.900, 199.082
1399.090, 171.771
1400.279, 221.679
1401.469, 210.146
1402.658, 220.868
1403.847, 227.710
1405.035, 62.150
1406.224, 185.679
1407.412, 245.502
1408.600, 115.314
1409.788, 209.861
1410.976, 88.462
1412.164, 120.125
1413.351, 232.854
1414.538, 94.810
1415.725, 225.390
1416.912, 233.820
1418.099, 79.017
1419.285, 220.461
1420.472, 122.417
1421.658, 66.663
1422.844, 198.823
1424.030, 114.796
1425.215, 68.782
1426.401, 314.671
1427.586, 63.687
1428.771, 143.327
1429.956, 169.913
1431.141, 96.163
1432.325, 240.260
1433.510, 244.605
1434.694, 116.466
1435.878, 251.345
1437.062, 159.041
1438.245, 121.793
1439.429, 207.514
1440.612, 81.576
1441.795, 163.854
1442.978, 245.140
1444.161, 87.835
1445.343, 237.976
1446.526, 203.458
1447.708, 127.619
1448.890, 269.321
1450.072, 155.731
1451.253, 147.203
1452.435, 248.520
1453.616, 103.226
1454.797, 200.630
1455.978, 256.799
1457.159, 114.445
1458.340, 188.142
1459.520, 207.274
1460.700, 115.866
1461.880, 366.478
1463.060, 171.045
1464.240, 127.568
1465.420, 232.570
1466.599, 96.988
1467.778, 213.348
1468.957, 244.411
1470.136, 140.469
1471.315, 195.658
1472.493, 278.502
1473.671, 135.311
1474.849, 226.523
1476.027, 243.272
1477.205, 148.910
1478.383, 228.998
1479.560, 169.125
1480.737, 143.287
1481.914, 287.540
1483.091, 92.668
1484.268, 188.044
1485.444, 217.392
1486.621, 127.826
1487.797, 311.269
1488.973, 136.812
1490.149, 126.422
1491.324, 255.119
1492.500, 119.822
1493.675, 101.538
1494.850, 251.259
1496.025, 74.015
1497.200, 266.803
1498.374, 223.648
1499.548, 81.571
1500.723, 247.578
1501.897, 176.703
1503.071, 27.074
1504.244, 224.255
1505.418, 155.694
1506.591, 166.250
1507.764, 205.929
1508.937, 81.735
1510.110, 87.689
1511.282, 304.525
1512.455, 38.800
1513.627, 197.333
1514.799, 224.564
1515.971, 22.891
1517.143, 181.426
1518.314, 36.279
1519.486, 6.714
1520.657, 210.468
1521.828, 0.325
1522.999, 11.778
1524.169, 0.000
##END=



