##NAMES=Gaylussite
##RRUFFID=R040146
##IDEAL CHEMISTRY=Na_2_Ca(CO_3_)_2_&#183;5H_2_O
##LOCALITY=Searles Lake, Trona, San Bernardino County, California, USA
##OWNER=RRUFF
##SOURCE=University of Arizona Mineral Museum
##DESCRIPTION=Colorless crystal fragments
##STATUS=The identification of this mineral has been confirmed by X-ray diffraction and chemical analysis
##URL=rruff.info/R040146
##MEASURED CHEMISTRY=Na_2.00_Ca_1.00_(C_1.00_O_3_)_2_Â·5H_2_O
##PIN_ID=L00275
##ORIENTATION=Laser parallel to b* (0 1 0). Fiducial mark perpendicular to laser is parallel to c [0 0 1]
99.453, 0.000
100.848, 5.562
102.242, 29.665
103.636, 83.850
105.030, 146.352
106.423, 175.168
107.817, 231.760
109.210, 420.859
110.603, 731.906
111.996, 1067.781
113.388, 1533.650
114.780, 1415.207
116.172, 1660.026
117.564, 1144.649
118.956, 820.438
120.347, 605.127
121.738, 522.491
123.129, 489.337
124.519, 604.502
125.910, 755.862
127.300, 1026.336
128.690, 1127.845
130.080, 1257.300
131.469, 1272.603
132.858, 1151.670
134.248, 1027.430
135.636, 811.822
137.025, 649.800
138.413, 608.320
139.801, 548.343
141.189, 512.833
142.577, 486.747
143.964, 537.043
145.352, 563.690
146.739, 581.663
148.125, 731.937
149.512, 783.502
150.898, 868.407
152.284, 1034.854
153.670, 1216.682
155.056, 1416.917
156.441, 1736.496
157.827, 2030.350
159.212, 2450.398
160.596, 2733.621
161.981, 3014.908
163.365, 3091.307
164.749, 3048.813
166.133, 2955.423
167.517, 2779.136
168.900, 2751.962
170.283, 2822.895
171.666, 3083.964
173.049, 3048.159
174.431, 3163.488
175.813, 3024.915
177.195, 2954.465
178.577, 2805.125
179.959, 2506.866
181.340, 2199.702
182.721, 1881.609
184.102, 1553.464
185.483, 1176.285
186.863, 908.105
188.244, 742.946
189.624, 543.843
191.003, 428.764
192.383, 365.705
193.762, 269.674
195.141, 276.676
196.520, 203.713
197.899, 162.057
199.277, 162.162
200.656, 99.844
202.034, 122.121
203.411, 55.896
204.789, 85.324
206.166, 43.375
207.543, 85.157
208.920, 25.043
210.297, 83.094
211.673, 54.608
213.049, 75.385
214.425, 66.390
215.801, 33.858
217.176, 58.448
218.552, 9.098
219.927, 59.445
221.302, 1.163
222.676, 52.268
224.051, 26.736
225.425, 23.238
226.799, 106.772
228.173, 82.337
229.546, 98.933
230.919, 159.557
232.292, 172.220
233.665, 175.915
235.038, 179.818
236.410, 167.951
237.782, 151.799
239.154, 136.729
240.526, 116.760
241.898, 118.876
243.269, 134.265
244.640, 167.839
246.011, 158.860
247.381, 185.559
248.752, 256.274
250.122, 208.461
251.492, 335.589
252.861, 364.371
254.231, 375.206
255.600, 422.071
256.969, 404.081
258.338, 446.858
259.707, 393.746
261.075, 382.336
262.443, 419.545
263.811, 333.120
265.179, 312.113
266.546, 341.568
267.914, 244.156
269.281, 189.485
270.647, 200.899
272.014, 153.434
273.380, 79.429
274.747, 88.637
276.113, 111.057
277.478, 89.393
278.844, 98.603
280.209, 96.702
281.574, 92.102
282.939, 126.132
284.304, 102.408
285.668, 129.102
287.032, 155.570
288.396, 62.452
289.760, 63.084
291.123, 16.822
292.487, 45.078
293.850, 26.914
295.212, 12.193
296.575, 35.782
297.937, 23.780
299.300, 8.375
300.662, 14.287
302.023, 45.128
303.385, 53.125
304.746, 57.769
306.107, 64.117
307.468, 82.771
308.829, 46.971
310.189, 13.685
311.549, 16.014
312.909, 73.677
314.269, 24.034
315.629, 83.955
316.988, 6.851
318.347, 57.891
319.706, 55.512
321.065, 18.962
322.423, 52.525
323.781, 14.085
325.139, 74.327
326.497, 2.284
327.855, 16.447
329.212, 0.981
330.569, 74.363
331.926, 7.107
333.283, 7.415
334.639, 50.069
335.995, 7.439
337.351, 10.941
338.707, 26.492
340.063, 35.720
341.418, 40.100
342.773, 48.746
344.128, 41.839
345.483, 44.365
346.837, 48.889
348.192, 40.298
349.546, 50.028
350.899, 26.562
352.253, 33.098
353.606, 23.691
354.960, 8.232
356.313, 27.775
357.665, 48.320
359.018, 30.867
360.370, 43.416
361.722, 35.610
363.074, 43.491
364.426, 18.193
365.777, 25.229
367.128, 19.733
368.479, 6.211
369.830, 8.697
371.181, 5.044
372.531, 19.578
373.881, 6.995
375.231, 25.396
376.581, 28.455
377.930, 10.989
379.280, 32.364
380.629, 7.845
381.977, 26.192
383.326, 16.462
384.674, 3.141
386.023, 8.631
387.370, 8.504
388.718, 16.832
390.066, 21.196
391.413, 17.482
392.760, 28.831
394.107, 16.858
395.454, 36.630
396.800, 13.929
398.146, 33.222
399.492, 17.510
400.838, 32.034
402.184, 42.314
403.529, 3.584
404.874, 21.845
406.219, 44.911
407.564, 40.327
408.908, 71.544
410.252, 5.251
411.596, 74.934
412.940, 25.115
414.284, 25.288
415.627, 40.452
416.970, 54.594
418.313, 13.732
419.656, 7.856
420.999, 44.969
422.341, 2.076
423.683, 45.166
425.025, 3.746
426.367, 22.678
427.708, 2.617
429.049, 47.449
430.390, 5.525
431.731, 67.599
433.072, 3.319
434.412, 73.752
435.752, 14.827
437.092, 5.103
438.432, 0.049
439.772, 5.991
441.111, 44.187
442.450, 89.213
443.789, 44.404
445.127, 65.426
446.466, 41.445
447.804, 90.459
449.142, 42.470
450.480, 91.475
451.817, 61.476
453.155, 38.472
454.492, 96.458
455.829, 83.440
457.166, 65.256
458.502, 77.227
459.838, 30.192
461.175, 82.037
462.510, 24.782
463.846, 11.377
465.181, 57.146
466.517, 42.465
467.852, 19.671
469.186, 35.054
470.521, 83.698
471.855, 42.570
473.190, 110.104
474.523, 11.515
475.857, 2.771
477.191, 24.610
478.524, 30.577
479.857, 86.762
481.190, 55.343
482.523, 74.637
483.855, 70.642
485.187, 41.041
486.519, 27.019
487.851, 35.897
489.183, 66.957
490.514, 50.632
491.845, 75.426
493.176, 68.146
494.507, 82.627
495.837, 113.333
497.168, 17.778
498.498, 59.458
499.828, 24.137
501.157, 95.801
502.487, 94.457
503.816, 31.103
505.145, 68.735
506.474, 89.364
507.802, 59.984
509.131, 74.595
510.459, 128.195
511.787, 121.787
513.115, 65.370
514.442, 122.943
515.770, 98.507
517.097, 90.062
518.424, 122.608
519.750, 112.147
521.077, 21.677
522.403, 82.189
523.729, 59.696
525.055, 41.192
526.381, 144.674
527.706, 161.148
529.031, 77.463
530.356, 116.822
531.681, 156.042
533.006, 84.479
534.330, 108.710
535.654, 138.130
536.978, 28.542
538.302, 150.888
539.625, 65.273
540.949, 157.390
542.272, 85.758
543.595, 81.705
544.917, 45.285
546.240, 40.289
547.562, 124.347
548.884, 72.577
550.206, 111.867
551.527, 174.537
552.849, 169.854
554.170, 58.660
555.491, 178.959
556.812, 94.946
558.132, 142.227
559.453, 55.261
560.773, 172.523
562.093, 123.776
563.412, 191.182
564.732, 119.215
566.051, 72.929
567.370, 140.149
568.689, 146.360
570.008, 152.114
571.326, 216.309
572.644, 186.505
573.963, 184.171
575.280, 167.334
576.598, 205.497
577.915, 213.958
579.233, 223.145
580.550, 212.283
581.866, 212.909
583.183, 171.008
584.499, 199.471
585.815, 188.822
587.131, 180.227
588.447, 220.298
589.763, 174.090
591.078, 176.413
592.393, 165.674
593.708, 136.735
595.022, 95.806
596.337, 144.860
597.651, 152.197
598.965, 43.788
600.279, 101.954
601.593, 43.968
602.906, 160.757
604.219, 95.753
605.532, 78.425
606.845, 84.594
608.158, 79.239
609.470, 102.206
610.782, 87.131
612.094, 94.600
613.406, 117.543
614.718, 94.633
616.029, 63.512
617.340, 74.435
618.651, 71.550
619.962, 82.236
621.272, 79.416
622.582, 54.529
623.892, 54.263
625.202, 37.743
626.512, 36.543
627.821, 48.721
629.131, 30.807
630.440, 89.370
631.749, 73.255
633.057, 104.851
634.366, 63.359
635.674, 24.522
636.982, 26.789
638.290, 13.329
639.597, 111.431
640.905, 68.286
642.212, 88.143
643.519, 93.791
644.825, 102.053
646.132, 89.600
647.438, 101.444
648.744, 83.328
650.050, 126.165
651.356, 102.006
652.662, 128.248
653.967, 65.076
655.272, 82.014
656.577, 75.718
657.882, 68.807
659.186, 72.610
660.490, 150.406
661.794, 143.621
663.098, 59.670
664.402, 171.448
665.705, 65.139
667.009, 138.907
668.312, 119.668
669.614, 86.452
670.917, 87.145
672.219, 82.888
673.522, 96.625
674.824, 103.355
676.125, 148.762
677.427, 61.482
678.728, 120.220
680.030, 75.816
681.331, 176.372
682.631, 142.676
683.932, 109.374
685.232, 190.065
686.532, 131.864
687.832, 166.557
689.132, 245.234
690.432, 234.934
691.731, 291.604
693.030, 285.269
694.329, 302.069
695.628, 243.727
696.926, 190.249
698.224, 171.897
699.522, 147.081
700.820, 142.724
702.118, 122.928
703.415, 104.071
704.713, 171.707
706.010, 207.353
707.307, 140.979
708.603, 106.605
709.900, 29.282
711.196, 143.718
712.492, 194.335
713.788, 206.949
715.083, 125.558
716.379, 209.920
717.674, 305.521
718.969, 261.115
720.264, 461.708
721.558, 455.299
722.853, 393.882
724.147, 237.478
725.441, 230.068
726.735, 158.661
728.028, 55.249
729.322, 125.834
730.615, 120.416
731.908, 58.992
733.201, 116.564
734.493, 44.136
735.785, 104.708
737.078, 115.275
738.370, 15.156
739.661, 40.393
740.953, 72.945
742.244, 2.495
743.535, 116.060
744.826, 70.610
746.117, 18.163
747.407, 58.708
748.698, 55.258
749.988, 83.805
751.278, 74.352
752.567, 36.904
753.857, 77.460
755.146, 11.850
756.435, 72.403
757.724, 59.787
759.013, 93.334
760.301, 131.878
761.590, 18.420
762.878, 88.957
764.165, 54.492
765.453, 123.023
766.741, 40.552
768.028, 88.080
769.315, 21.604
770.602, 89.125
771.888, 94.642
773.175, 40.156
774.461, 55.329
775.747, 147.148
777.033, 27.627
778.319, 70.083
779.604, 32.538
780.889, 33.829
782.174, 52.120
783.459, 65.545
784.744, 28.768
786.028, 94.249
787.312, 45.729
788.596, 4.237
789.880, 50.721
791.164, 39.102
792.447, 78.061
793.730, 40.714
795.013, 61.168
796.296, 106.620
797.579, 42.931
798.861, 131.490
800.143, 18.913
801.425, 8.333
802.707, 74.749
803.989, 57.837
805.270, 137.542
806.551, 1.083
807.832, 85.286
809.113, 70.652
810.394, 25.979
811.674, 97.370
812.954, 60.721
814.234, 44.069
815.514, 158.416
816.794, 16.237
818.073, 160.410
819.352, 131.820
820.631, 113.647
821.910, 89.976
823.189, 20.303
824.467, 124.627
825.745, 40.951
827.023, 35.272
828.301, 70.592
829.578, 8.089
830.856, 149.723
832.133, 104.332
833.410, 11.356
834.687, 54.159
835.963, 9.460
837.240, 118.769
838.516, 66.076
839.792, 6.382
841.068, 23.686
842.343, 37.988
843.618, 19.290
844.894, 67.262
846.169, 29.561
847.443, 114.859
848.718, 35.160
849.992, 42.459
851.266, 25.758
852.540, 102.943
853.814, 151.299
855.088, 94.541
856.361, 13.784
857.634, 104.029
858.907, 11.273
860.180, 80.518
861.453, 104.761
862.725, 11.004
863.997, 54.063
865.269, 51.306
866.541, 204.549
867.812, 55.792
869.084, 111.035
870.355, 140.279
871.626, 119.523
872.897, 182.768
874.167, 142.015
875.438, 150.262
876.708, 96.520
877.978, 108.100
879.248, 189.034
880.517, 116.292
881.787, 165.549
883.056, 167.807
884.325, 168.067
885.594, 174.326
886.862, 267.585
888.130, 99.844
889.399, 317.119
890.667, 185.395
891.934, 229.877
893.202, 318.128
894.469, 165.406
895.737, 289.712
897.004, 237.991
898.270, 187.271
899.537, 240.304
900.803, 154.585
902.070, 213.869
903.336, 314.153
904.601, 175.449
905.867, 301.720
907.132, 171.019
908.398, 165.989
909.663, 228.289
910.928, 121.594
912.192, 188.898
913.457, 245.204
914.721, 182.323
915.985, 197.632
917.249, 157.941
918.512, 93.251
919.776, 55.562
921.039, 84.876
922.302, 185.059
923.565, 76.374
924.827, 162.691
926.090, 152.009
927.352, 31.241
928.614, 118.563
929.876, 78.833
931.138, 114.157
932.399, 67.469
933.660, 50.791
934.922, 159.120
936.182, 232.451
937.443, 18.754
938.704, 127.088
939.964, 2.423
941.224, 97.430
942.484, 120.770
943.744, 52.164
945.003, 136.509
946.262, 15.863
947.521, 97.218
948.780, 156.575
950.039, 81.829
951.298, 164.188
952.556, 86.475
953.814, 85.653
955.072, 123.018
956.330, 72.394
957.587, 107.762
958.845, 105.727
960.102, 29.100
961.359, 118.476
962.615, 56.916
963.872, 108.295
965.128, 47.677
966.384, 36.060
967.640, 8.572
968.896, 14.761
970.152, 5.422
971.407, 20.538
972.662, 14.850
973.917, 59.238
975.172, 69.615
976.427, 18.021
977.681, 60.429
978.935, 18.843
980.189, 16.258
981.443, 21.007
982.697, 14.593
983.950, 94.821
985.203, 39.650
986.456, 140.757
987.709, 115.805
988.962, 34.227
990.214, 128.651
991.467, 19.951
992.719, 51.405
993.971, 105.849
995.222, 25.733
996.474, 45.784
997.725, 47.231
998.976, 109.698
1000.227, 86.167
1001.478, 70.637
1002.728, 87.120
1003.978, 68.652
1005.229, 74.683
1006.479, 76.176
1007.728, 55.958
1008.978, 61.458
1010.227, 63.602
1011.476, 77.437
1012.725, 100.958
1013.974, 115.096
1015.223, 103.241
1016.471, 155.943
1017.719, 149.477
1018.967, 163.048
1020.215, 243.774
1021.462, 107.430
1022.710, 133.009
1023.957, 167.364
1025.204, 189.944
1026.451, 192.773
1027.697, 125.371
1028.944, 192.961
1030.190, 300.735
1031.436, 61.325
1032.682, 231.922
1033.928, 143.893
1035.173, 143.490
1036.418, 255.109
1037.663, 212.084
1038.908, 173.706
1040.153, 199.565
1041.398, 229.260
1042.642, 400.896
1043.886, 248.838
1045.130, 221.474
1046.374, 384.228
1047.617, 211.938
1048.860, 513.584
1050.104, 572.535
1051.347, 595.316
1052.589, 653.173
1053.832, 525.453
1055.074, 635.298
1056.316, 641.095
1057.558, 580.759
1058.800, 885.423
1060.042, 738.834
1061.283, 1025.513
1062.524, 1348.190
1063.765, 1598.211
1065.006, 2342.897
1066.247, 3044.675
1067.487, 5027.363
1068.728, 9290.049
1069.968, 19473.148
1071.208, 37525.855
1072.447, 43828.531
1073.687, 29971.512
1074.926, 15864.200
1076.165, 7766.889
1077.404, 4480.192
1078.643, 2782.899
1079.881, 1823.606
1081.120, 1474.311
1082.358, 1058.014
1083.596, 810.732
1084.834, 737.449
1086.071, 581.280
1087.309, 524.991
1088.546, 474.700
1089.783, 452.931
1091.020, 348.636
1092.256, 358.423
1093.493, 220.134
1094.729, 374.843
1095.965, 386.547
1097.201, 256.385
1098.436, 169.083
1099.672, 188.791
1100.907, 203.535
1102.142, 161.236
1103.377, 174.290
1104.612, 151.983
1105.846, 148.692
1107.081, 265.041
1108.315, 256.743
1109.549, 180.441
1110.782, 230.319
1112.016, 79.018
1113.249, 213.768
1114.483, 177.458
1115.716, 12.143
1116.948, 185.961
1118.181, 144.328
1119.413, 106.478
1120.646, 241.097
1121.878, 54.762
1123.110, 160.446
1124.341, 216.321
1125.573, 56.971
1126.804, 234.608
1128.035, 98.246
1129.266, 111.878
1130.497, 74.304
1131.727, 155.628
1132.957, 65.399
1134.188, 71.027
1135.418, 40.085
1136.647, 106.939
1137.877, 127.661
1139.106, 95.235
1140.335, 56.384
1141.564, 128.944
1142.793, 156.738
1144.022, 46.545
1145.250, 238.237
1146.479, 168.081
1147.707, 81.795
1148.934, 144.309
1150.162, 170.551
1151.390, 43.319
1152.617, 172.666
1153.844, 182.494
1155.071, 0.008
1156.298, 92.389
1157.524, 98.602
1158.751, 173.069
1159.977, 284.874
1161.203, 14.349
1162.428, 242.295
1163.654, 44.859
1164.879, 146.274
1166.105, 158.616
1167.330, 59.011
1168.555, 76.393
1169.779, 125.676
1171.004, 7.965
1172.228, 147.493
1173.452, 32.028
1174.676, 98.272
1175.900, 158.294
1177.123, 58.571
1178.346, 109.835
1179.570, 234.125
1180.793, 19.401
1182.015, 142.799
1183.238, 159.181
1184.460, 45.617
1185.683, 243.931
1186.905, 57.148
1188.126, 97.282
1189.348, 306.192
1190.569, 42.350
1191.791, 198.441
1193.012, 92.228
1194.233, 103.293
1195.453, 170.519
1196.674, 54.751
1197.894, 95.774
1199.114, 78.350
1200.334, 29.034
1201.554, 81.924
1202.774, 94.666
1203.993, 137.595
1205.212, 203.509
1206.431, 5.438
1207.650, 192.317
1208.869, 207.184
1210.087, 55.859
1211.305, 150.695
1212.524, 114.516
1213.741, 140.351
1214.959, 241.143
1216.177, 49.003
1217.394, 196.764
1218.611, 336.509
1219.828, 76.552
1221.045, 257.265
1222.261, 198.964
1223.478, 30.016
1224.694, 318.679
1225.910, 199.442
1227.126, 152.489
1228.342, 258.108
1229.557, 160.042
1230.772, 264.780
1231.987, 124.354
1233.202, 161.999
1234.417, 282.541
1235.631, 43.070
1236.846, 157.812
1238.060, 134.315
1239.274, 169.868
1240.488, 240.351
1241.701, 218.821
1242.915, 124.351
1244.128, 268.798
1245.341, 182.232
1246.554, 148.656
1247.767, 217.067
1248.979, 74.468
1250.191, 263.855
1251.403, 301.227
1252.615, 38.572
1253.827, 294.902
1255.039, 171.216
1256.250, 117.517
1257.461, 317.803
1258.672, 149.075
1259.883, 202.321
1261.094, 192.537
1262.304, 130.612
1263.514, 247.795
1264.724, 53.942
1265.934, 67.061
1267.144, 276.159
1268.354, 18.757
1269.563, 113.273
1270.772, 180.288
1271.981, 21.286
1273.190, 251.259
1274.398, 185.165
1275.607, 96.053
1276.815, 173.926
1278.023, 130.777
1279.231, 113.609
1280.439, 101.424
1281.646, 8.523
1282.853, 133.217
1284.060, 187.931
1285.267, 26.377
1286.474, 196.263
1287.681, 109.897
1288.887, 26.486
1290.093, 130.982
1291.299, 37.465
1292.505, 122.048
1293.711, 237.514
1294.916, 12.036
1296.121, 103.363
1297.327, 33.609
1298.531, 90.938
1299.736, 230.249
1300.941, 29.203
1302.145, 27.540
1303.349, 207.681
1304.553, 84.880
1305.757, 161.021
1306.961, 63.854
1308.164, 19.954
1309.367, 184.856
1310.570, 110.091
1311.773, 228.902
1312.976, 245.723
1314.178, 29.592
1315.381, 198.518
1316.583, 137.647
1317.785, 19.529
1318.987, 214.142
1320.188, 38.965
1321.390, 189.771
1322.591, 184.374
1323.792, 22.137
1324.993, 152.873
1326.193, 120.213
1327.394, 51.094
1328.594, 214.555
1329.794, 70.826
1330.994, 18.431
1332.194, 233.775
1333.394, 31.265
1334.593, 143.798
1335.792, 190.007
1336.991, 2.501
1338.190, 221.860
1339.389, 112.245
1340.587, 37.325
1341.786, 224.781
1342.984, 107.040
1344.182, 247.206
1345.379, 190.395
1346.577, 27.538
1347.774, 166.712
1348.972, 196.001
1350.169, 35.725
1351.365, 249.788
1352.562, 170.018
1353.759, 16.766
1354.955, 157.093
1356.151, 169.271
1357.347, 16.348
1358.543, 375.030
1359.738, 20.826
1360.934, 242.894
1362.129, 229.009
1363.324, 69.098
1364.519, 255.901
1365.713, 154.979
1366.908, 7.052
1368.102, 318.521
1369.296, 111.746
1370.490, 54.771
1371.684, 199.792
1372.877, 41.186
1374.071, 100.818
1375.264, 195.804
1376.457, 114.676
1377.650, 310.682
1378.843, 225.734
1380.035, 79.440
1381.227, 419.588
1382.419, 119.800
1383.611, 299.849
1384.803, 339.974
1385.995, 117.743
1387.186, 399.859
1388.377, 239.261
1389.568, 219.125
1390.759, 509.101
1391.950, 249.117
1393.140, 308.955
1394.331, 497.807
1395.521, 414.318
1396.711, 443.947
1397.900, 552.658
1399.090, 442.136
1400.279, 471.753
1401.469, 430.928
1402.658, 317.599
1403.847, 412.969
1405.035, 222.324
1406.224, 290.604
1407.412, 434.560
1408.600, 150.612
1409.788, 338.663
1410.976, 297.671
1412.164, 191.007
1413.351, 419.868
1414.538, 258.448
1415.725, 336.183
1416.912, 383.214
1418.099, 231.035
1419.285, 219.922
1420.472, 417.346
1421.658, 165.317
1422.844, 392.808
1424.030, 401.459
1425.215, 212.724
1426.401, 649.395
1427.586, 417.013
1428.771, 405.724
1429.956, 531.828
1431.141, 333.632
1432.325, 621.937
1433.510, 720.538
1434.694, 377.820
1435.878, 639.649
1437.062, 588.104
1438.245, 341.681
1439.429, 688.227
1440.612, 271.053
1441.795, 419.231
1442.978, 646.813
1444.161, 372.395
1445.343, 310.230
1446.526, 557.452
1447.708, 186.714
1448.890, 464.325
1450.072, 472.059
1451.253, 149.259
1452.435, 506.704
1453.616, 204.037
1454.797, 221.425
1455.978, 498.721
1457.159, 165.916
1458.340, 243.061
1459.520, 450.146
1460.700, 97.140
1461.880, 244.065
1463.060, 361.002
1464.240, 257.915
1465.420, 454.868
1466.599, 291.802
1467.778, 78.714
1468.957, 375.702
1470.136, 212.764
1471.315, 239.782
1472.493, 506.755
1473.671, 133.855
1474.849, 230.926
1476.027, 468.072
1477.205, 795.238
1478.383, 452.454
1479.560, 319.768
1480.737, 37.229
1481.914, 454.734
1483.091, 182.295
1484.268, 129.997
1485.444, 427.844
1486.621, 14.282
1487.797, 203.623
1488.973, 381.571
1490.149, 119.575
1491.324, 317.656
1492.500, 265.829
1493.675, 114.104
1494.850, 372.495
1496.025, 171.009
1497.200, 149.666
1498.374, 378.477
1499.548, 12.539
1500.723, 236.628
1501.897, 315.985
1503.071, 25.546
1504.244, 371.213
1505.418, 290.916
1506.591, 80.856
1507.764, 421.056
1508.937, 141.537
1510.110, 5.121
1511.282, 504.985
1512.455, 5.464
1513.627, 256.422
1514.799, 477.439
1515.971, 33.993
1517.143, 296.095
1518.314, 190.179
1519.486, 0.000
##END=



