##NAMES=Gaylussite
##RRUFFID=R040146
##IDEAL CHEMISTRY=Na_2_Ca(CO_3_)_2_&#183;5H_2_O
##LOCALITY=Searles Lake, Trona, San Bernardino County, California, USA
##OWNER=RRUFF
##SOURCE=University of Arizona Mineral Museum
##DESCRIPTION=Colorless crystal fragments
##STATUS=The identification of this mineral has been confirmed by X-ray diffraction and chemical analysis
##URL=rruff.info/R040146
##MEASURED CHEMISTRY=Na_2.00_Ca_1.00_(C_1.00_O_3_)_2_Â·5H_2_O
##PIN_ID=L00282
##ORIENTATION=Laser parallel to (1 0 1). Fiducial mark perpendicular to laser is parallel to -b [0 -1 0]
96.663, 0.000
98.058, 3.796
99.453, 100.052
100.848, 339.203
102.242, 530.584
103.636, 616.044
105.030, 594.154
106.423, 445.325
107.817, 348.477
109.210, 354.890
110.603, 443.026
111.996, 672.415
113.388, 1047.694
114.780, 1231.584
116.172, 1298.870
117.564, 1065.378
118.956, 979.002
120.347, 798.755
121.738, 640.532
123.129, 665.133
124.519, 607.357
125.910, 611.143
127.300, 627.442
128.690, 560.215
130.080, 603.427
131.469, 533.050
132.858, 555.064
134.248, 508.448
135.636, 504.176
137.025, 435.230
138.413, 482.587
139.801, 509.219
141.189, 436.152
142.577, 367.394
143.964, 246.857
145.352, 250.449
146.739, 157.270
148.125, 186.827
149.512, 113.840
150.898, 141.824
152.284, 126.963
153.670, 115.270
155.056, 144.700
156.441, 150.267
157.827, 134.968
159.212, 163.821
160.596, 257.787
161.981, 237.859
163.365, 299.063
164.749, 310.412
166.133, 316.994
167.517, 303.674
168.900, 257.486
170.283, 235.435
171.666, 254.485
173.049, 139.606
174.431, 143.843
175.813, 57.188
177.195, 98.611
178.577, 70.090
179.959, 8.619
181.340, 16.078
182.721, 28.519
184.102, 17.000
185.483, 13.492
186.863, 5.960
188.244, 5.599
189.624, 43.825
191.003, 39.238
192.383, 6.637
193.762, 26.016
195.141, 0.365
196.520, 9.695
197.899, 13.999
199.277, 33.265
200.656, 7.499
202.034, 27.287
203.411, 34.126
204.789, 44.989
206.166, 28.872
207.543, 57.772
208.920, 0.922
210.297, 43.863
211.673, 33.824
213.049, 50.808
214.425, 87.812
215.801, 54.306
217.176, 70.338
218.552, 124.716
219.927, 68.817
221.302, 114.344
222.676, 125.422
224.051, 97.511
225.425, 162.611
226.799, 154.077
228.173, 184.181
229.546, 272.161
230.919, 232.251
232.292, 296.782
233.665, 340.144
235.038, 436.800
236.410, 480.447
237.782, 444.489
239.154, 546.180
240.526, 634.831
241.898, 720.565
243.269, 814.397
244.640, 1017.085
246.011, 1201.138
247.381, 1452.251
248.752, 1702.511
250.122, 2092.329
251.492, 2528.359
252.861, 3039.775
254.231, 3521.766
255.600, 4049.568
256.969, 4574.891
258.338, 5068.863
259.707, 5710.688
261.075, 6272.720
262.443, 6676.747
263.811, 6711.101
265.179, 6524.000
266.546, 5953.444
267.914, 5135.028
269.281, 4232.807
270.647, 3405.682
272.014, 2830.961
273.380, 2194.076
274.747, 1797.097
276.113, 1516.111
277.478, 1222.504
278.844, 1059.438
280.209, 881.280
281.574, 830.968
282.939, 702.691
284.304, 614.471
285.668, 592.303
287.032, 419.181
288.396, 381.186
289.760, 388.377
291.123, 332.043
292.487, 324.074
293.850, 273.138
295.212, 254.448
296.575, 233.313
297.937, 207.470
299.300, 185.695
300.662, 144.130
302.023, 98.523
303.385, 82.759
304.746, 57.631
306.107, 118.279
307.468, 53.828
308.829, 32.478
310.189, 68.764
311.549, 19.297
312.909, 45.600
314.269, 35.914
315.629, 22.240
316.988, 41.577
318.347, 3.740
319.706, 26.616
321.065, 6.984
322.423, 23.734
323.781, 43.114
325.139, 6.501
326.497, 20.292
327.855, 23.690
329.212, 21.407
330.569, 29.815
331.926, 7.774
333.283, 16.666
334.639, 11.080
335.995, 27.496
337.351, 43.912
338.707, 3.671
340.063, 21.744
341.418, 16.840
342.773, 59.167
344.128, 5.423
345.483, 17.064
346.837, 72.471
348.192, 37.712
349.546, 31.995
350.899, 29.353
352.253, 26.756
353.606, 7.508
354.960, 2.649
356.313, 12.694
357.665, 8.778
359.018, 27.841
360.370, 13.537
361.722, 11.706
363.074, 16.632
364.426, 36.056
365.777, 12.304
367.128, 37.339
368.479, 38.995
369.830, 41.336
371.181, 21.337
372.531, 22.974
373.881, 3.714
375.231, 58.592
376.581, 14.894
377.930, 35.809
379.280, 39.471
380.629, 10.230
381.977, 0.035
383.326, 6.289
384.674, 31.335
386.023, 12.925
387.370, 2.810
388.718, 17.400
390.066, 33.335
391.413, 6.080
392.760, 29.167
394.107, 15.402
395.454, 18.852
396.800, 8.023
398.146, 42.084
399.492, 15.183
400.838, 3.238
402.184, 52.689
403.529, 0.869
404.874, 64.153
406.219, 8.711
407.564, 54.282
408.908, 61.265
410.252, 8.241
411.596, 4.796
412.940, 23.152
414.284, 3.929
415.627, 39.973
416.970, 61.874
418.313, 13.235
419.656, 76.636
420.999, 7.497
422.341, 12.349
423.683, 56.177
425.025, 54.027
426.367, 55.419
427.708, 0.258
429.049, 29.593
430.390, 14.555
431.731, 29.722
433.072, 24.083
434.412, 6.170
435.752, 11.277
437.092, 14.384
438.432, 8.156
439.772, 22.529
441.111, 28.834
442.450, 42.414
443.789, 53.156
445.127, 54.894
446.466, 64.626
447.804, 62.453
449.142, 41.173
450.480, 33.886
451.817, 19.591
453.155, 86.283
454.492, 99.969
455.829, 51.647
457.166, 69.319
458.502, 13.999
459.838, 48.663
461.175, 8.319
462.510, 41.964
463.846, 118.599
465.181, 60.237
466.517, 87.866
467.852, 7.513
469.186, 36.088
470.521, 69.677
471.855, 43.259
473.190, 90.830
474.523, 82.393
475.857, 66.947
477.191, 102.492
478.524, 41.028
479.857, 105.401
481.190, 64.919
482.523, 40.428
483.855, 68.925
485.187, 98.412
486.519, 40.893
487.851, 117.361
489.183, 45.826
490.514, 83.278
491.845, 124.720
493.176, 64.811
494.507, 71.234
495.837, 143.648
497.168, 74.051
498.498, 129.450
499.828, 106.594
501.157, 96.974
502.487, 36.564
503.816, 109.919
505.145, 63.916
506.474, 122.263
507.802, 160.600
509.131, 94.927
510.459, 102.246
511.787, 119.555
513.115, 138.854
514.442, 94.145
515.770, 121.142
517.097, 116.417
518.424, 111.684
519.750, 128.445
521.077, 148.881
522.403, 139.123
523.729, 128.357
525.055, 97.576
526.381, 89.791
527.706, 107.859
529.031, 100.797
530.356, 115.982
531.681, 117.801
533.006, 93.966
534.330, 125.605
535.654, 148.751
536.978, 97.888
538.302, 145.729
539.625, 66.847
540.949, 108.001
542.272, 118.641
543.595, 55.523
544.917, 63.423
546.240, 62.447
547.562, 48.823
548.884, 32.371
550.206, 38.478
551.527, 56.488
552.849, 57.711
554.170, 42.644
555.491, 77.616
556.812, 86.458
558.132, 119.428
559.453, 17.320
560.773, 142.659
562.093, 19.757
563.412, 104.811
564.732, 47.723
566.051, 94.278
567.370, 117.171
568.689, 68.056
570.008, 94.405
571.326, 95.053
572.644, 59.825
573.963, 84.458
575.280, 100.309
576.598, 90.132
577.915, 123.125
579.233, 103.997
580.550, 136.471
581.866, 86.748
583.183, 67.508
584.499, 78.295
585.815, 101.074
587.131, 72.661
588.447, 74.362
589.763, 69.006
591.078, 79.730
592.393, 31.202
593.708, 28.941
595.022, 27.975
596.337, 68.092
597.651, 77.835
598.965, 62.111
600.279, 62.147
601.593, 58.797
602.906, 87.629
604.219, 56.290
605.532, 38.943
606.845, 75.636
608.158, 75.188
609.470, 73.633
610.782, 86.609
612.094, 107.319
613.406, 110.051
614.718, 66.642
616.029, 105.984
617.340, 51.606
618.651, 73.155
619.962, 111.376
621.272, 108.761
622.582, 95.747
623.892, 134.293
625.202, 73.832
626.512, 128.993
627.821, 127.166
629.131, 93.902
630.440, 138.263
631.749, 151.764
633.057, 130.258
634.366, 162.971
635.674, 105.224
636.982, 175.985
638.290, 159.451
639.597, 140.011
640.905, 132.085
642.212, 120.529
643.519, 136.611
644.825, 186.644
646.132, 157.448
647.438, 108.551
648.744, 150.547
650.050, 192.384
651.356, 190.754
652.662, 234.147
653.967, 267.534
655.272, 228.917
656.577, 224.470
657.882, 229.837
659.186, 218.207
660.490, 276.971
661.794, 276.329
663.098, 252.412
664.402, 289.757
665.705, 262.096
667.009, 240.429
668.312, 263.754
669.614, 268.075
670.917, 223.390
672.219, 267.700
673.522, 232.014
674.824, 306.313
676.125, 297.473
677.427, 259.765
678.728, 280.057
680.030, 284.343
681.331, 299.625
682.631, 307.006
683.932, 290.188
685.232, 343.469
686.532, 359.755
687.832, 429.035
689.132, 388.315
690.432, 418.590
691.731, 390.862
693.030, 286.128
694.329, 276.389
695.628, 165.705
696.926, 168.941
698.224, 73.199
699.522, 76.549
700.820, 105.667
702.118, 125.891
703.415, 109.505
704.713, 133.153
706.010, 58.867
707.307, 79.722
708.603, 22.891
709.900, 56.060
711.196, 83.994
712.492, 64.218
713.788, 163.442
715.083, 34.662
716.379, 56.914
717.674, 116.126
718.969, 93.573
720.264, 169.796
721.558, 78.891
722.853, 125.111
724.147, 154.326
725.441, 72.537
726.735, 61.745
728.028, 57.955
729.322, 46.160
730.615, 3.634
731.908, 3.440
733.201, 67.739
734.493, 13.923
735.785, 51.100
737.078, 71.279
738.370, 35.543
739.661, 91.605
740.953, 53.749
742.244, 33.889
743.535, 31.030
744.826, 51.167
746.117, 42.310
747.407, 39.462
748.698, 46.326
749.988, 22.159
751.278, 23.983
752.567, 58.131
753.857, 148.279
755.146, 0.426
756.435, 106.565
757.724, 13.700
759.013, 75.831
760.301, 72.958
761.590, 29.982
762.878, 91.102
764.165, 30.220
765.453, 35.335
766.741, 18.449
768.028, 14.560
769.315, 54.667
770.602, 51.229
771.888, 111.839
773.175, 33.910
774.461, 22.023
775.747, 86.030
777.033, 30.918
778.319, 41.110
779.604, 74.135
780.889, 22.842
782.174, 33.171
783.459, 5.183
784.744, 17.190
786.028, 67.196
787.312, 44.199
788.596, 58.199
789.880, 79.198
791.164, 3.806
792.447, 42.184
793.730, 11.171
795.013, 108.155
796.296, 51.140
797.579, 4.879
798.861, 105.095
800.143, 16.931
801.425, 76.028
802.707, 67.987
803.989, 28.944
805.270, 91.472
806.551, 84.425
807.832, 33.377
809.113, 11.673
810.394, 1.267
811.674, 130.203
812.954, 30.137
814.234, 92.148
815.514, 76.718
816.794, 40.350
818.073, 114.556
819.352, 88.461
820.631, 133.365
821.910, 59.267
823.189, 55.455
824.467, 49.694
825.745, 35.703
827.023, 29.634
828.301, 98.530
829.578, 10.575
830.856, 106.310
832.133, 95.626
833.410, 75.509
834.687, 105.046
835.963, 76.460
837.240, 64.808
838.516, 58.687
839.792, 51.603
841.068, 41.602
842.343, 62.479
843.618, 71.355
844.894, 95.558
846.169, 52.433
847.443, 74.307
848.718, 16.179
849.992, 61.051
851.266, 65.922
852.540, 4.793
853.814, 84.666
855.088, 37.540
856.361, 97.412
857.634, 83.284
858.907, 78.157
860.180, 136.032
861.453, 146.907
862.725, 77.571
863.997, 71.448
865.269, 58.326
866.541, 149.203
867.812, 115.081
869.084, 138.896
870.355, 255.778
871.626, 167.661
872.897, 222.546
874.167, 143.433
875.438, 172.319
876.708, 199.208
877.978, 270.098
879.248, 181.987
880.517, 197.877
881.787, 249.768
883.056, 248.658
884.325, 291.544
885.594, 280.904
886.862, 295.343
888.130, 230.977
889.399, 251.872
890.667, 173.768
891.934, 236.699
893.202, 271.597
894.469, 274.500
895.737, 260.360
897.004, 225.209
898.270, 287.117
899.537, 267.018
900.803, 267.059
902.070, 281.823
903.336, 268.645
904.601, 271.487
905.867, 301.409
907.132, 175.333
908.398, 227.658
909.663, 223.585
910.928, 119.350
912.192, 195.280
913.457, 168.211
914.721, 231.106
915.985, 158.051
917.249, 132.952
918.512, 100.875
919.776, 41.729
921.039, 163.554
922.302, 136.506
923.565, 123.708
924.827, 106.663
926.090, 101.008
927.352, 109.661
928.614, 100.621
929.876, 81.150
931.138, 93.115
932.399, 54.082
933.660, 24.152
934.922, 85.101
936.182, 46.854
937.443, 78.743
938.704, 128.722
939.964, 101.701
941.224, 66.685
942.484, 105.670
943.744, 80.032
945.003, 108.023
946.262, 12.911
947.521, 73.905
948.780, 69.902
950.039, 32.257
951.298, 144.259
952.556, 27.881
953.814, 39.887
955.072, 97.896
956.330, 19.116
957.587, 104.891
958.845, 53.902
960.102, 15.913
961.359, 20.925
962.615, 57.761
963.872, 36.782
965.128, 31.207
966.384, 21.190
967.640, 101.847
968.896, 28.052
970.152, 35.069
971.407, 24.103
972.662, 2.138
973.917, 12.792
975.172, 14.367
976.427, 6.717
977.681, 2.679
978.935, 7.356
980.189, 39.403
981.443, 32.584
982.697, 17.365
983.950, 47.684
985.203, 23.265
986.456, 84.783
987.709, 37.833
988.962, 6.886
990.214, 52.028
991.467, 8.914
992.719, 2.156
993.971, 43.448
995.222, 14.476
996.474, 104.609
997.725, 56.695
998.976, 49.788
1000.227, 49.830
1001.478, 72.925
1002.728, 70.888
1003.978, 135.986
1005.229, 74.089
1006.479, 112.197
1007.728, 84.308
1008.978, 137.428
1010.227, 84.550
1011.476, 17.672
1012.725, 110.807
1013.974, 58.206
1015.223, 113.348
1016.471, 70.547
1017.719, 69.695
1018.967, 101.857
1020.215, 160.285
1021.462, 86.583
1022.710, 173.768
1023.957, 135.138
1025.204, 136.326
1026.451, 159.088
1027.697, 147.402
1028.944, 86.602
1030.190, 114.897
1031.436, 114.920
1032.682, 230.595
1033.928, 165.146
1035.173, 183.370
1036.418, 210.625
1037.663, 148.131
1038.908, 253.403
1040.153, 300.822
1041.398, 163.069
1042.642, 354.329
1043.886, 213.098
1045.130, 285.357
1046.374, 336.775
1047.617, 285.406
1048.860, 505.669
1050.104, 664.295
1051.347, 702.808
1052.589, 787.095
1053.832, 666.141
1055.074, 659.427
1056.316, 652.158
1057.558, 737.549
1058.800, 854.941
1060.042, 933.534
1061.283, 1281.908
1062.524, 1559.202
1063.765, 1981.257
1065.006, 2610.548
1066.247, 3724.046
1067.487, 6264.424
1068.728, 11618.711
1069.968, 24443.295
1071.208, 47897.609
1072.447, 54961.918
1073.687, 37436.539
1074.926, 19920.926
1076.165, 9665.290
1077.404, 5390.010
1078.643, 3215.330
1079.881, 2060.000
1081.120, 1667.398
1082.358, 1211.728
1083.596, 912.356
1084.834, 751.691
1086.071, 625.534
1087.309, 615.040
1088.546, 530.368
1089.783, 471.235
1091.020, 403.711
1092.256, 371.173
1093.493, 335.833
1094.729, 429.149
1095.965, 209.582
1097.201, 297.289
1098.436, 174.592
1099.672, 172.232
1100.907, 251.532
1102.142, 86.831
1103.377, 206.531
1104.612, 146.824
1105.846, 107.536
1107.081, 145.567
1108.315, 137.842
1109.549, 107.430
1110.782, 115.954
1112.016, 105.218
1113.249, 129.887
1114.483, 179.247
1115.716, 31.097
1116.948, 124.538
1118.181, 133.787
1119.413, 51.397
1120.646, 141.808
1121.878, 35.040
1123.110, 171.645
1124.341, 142.542
1125.573, 113.645
1126.804, 222.303
1128.035, 78.503
1129.266, 155.933
1130.497, 137.193
1131.727, 75.945
1132.957, 97.455
1134.188, 62.250
1135.418, 113.684
1136.647, 184.103
1137.877, 30.249
1139.106, 90.709
1140.335, 161.784
1141.564, 3.134
1142.793, 167.737
1144.022, 105.014
1145.250, 142.371
1146.479, 94.310
1147.707, 157.477
1148.934, 160.707
1150.162, 150.136
1151.390, 20.372
1152.617, 180.997
1153.844, 139.134
1155.071, 83.275
1156.298, 209.402
1157.524, 110.468
1158.751, 129.510
1159.977, 206.187
1161.203, 10.464
1162.428, 195.401
1163.654, 62.068
1164.879, 118.089
1166.105, 115.462
1167.330, 16.504
1168.555, 48.407
1169.779, 149.828
1171.004, 40.817
1172.228, 222.370
1173.452, 5.714
1174.676, 59.110
1175.900, 125.417
1177.123, 67.551
1178.346, 62.394
1179.570, 57.151
1180.793, 16.227
1182.015, 122.195
1183.238, 93.851
1184.460, 34.566
1185.683, 91.983
1186.905, 60.298
1188.126, 107.273
1189.348, 147.425
1190.569, 17.833
1191.791, 162.842
1193.012, 68.254
1194.233, 18.176
1195.453, 212.075
1196.674, 29.538
1197.894, 57.177
1199.114, 151.941
1200.334, 2.339
1201.554, 143.193
1202.774, 16.195
1203.993, 94.647
1205.212, 196.475
1206.431, 25.266
1207.650, 100.715
1208.869, 167.275
1210.087, 32.075
1211.305, 197.258
1212.524, 72.943
1213.741, 101.658
1214.959, 218.942
1216.177, 64.383
1217.394, 133.633
1218.611, 160.896
1219.828, 59.458
1221.045, 114.657
1222.261, 121.235
1223.478, 38.749
1224.694, 265.893
1225.910, 53.488
1227.126, 119.853
1228.342, 202.063
1229.557, 68.174
1230.772, 205.326
1231.987, 26.741
1233.202, 97.926
1234.417, 245.057
1235.631, 24.395
1236.846, 104.609
1238.060, 107.557
1239.274, 60.808
1240.488, 179.727
1241.701, 114.631
1242.915, 48.524
1244.128, 198.402
1245.341, 64.265
1246.554, 145.112
1247.767, 232.947
1248.979, 49.766
1250.191, 146.569
1251.403, 150.344
1252.615, 12.107
1253.827, 165.853
1255.039, 73.577
1256.250, 89.285
1257.461, 197.979
1258.672, 53.657
1259.883, 107.317
1261.094, 95.967
1262.304, 105.563
1263.514, 226.153
1264.724, 31.277
1265.934, 113.263
1267.144, 215.783
1268.354, 23.249
1269.563, 151.718
1270.772, 172.174
1271.981, 0.401
1273.190, 210.992
1274.398, 101.350
1275.607, 141.690
1276.815, 163.988
1278.023, 79.260
1279.231, 92.506
1280.439, 94.735
1281.646, 96.920
1282.853, 246.074
1284.060, 84.118
1285.267, 24.780
1286.474, 107.288
1287.681, 50.112
1288.887, 14.868
1290.093, 100.092
1291.299, 17.023
1292.505, 141.914
1293.711, 124.783
1294.916, 75.630
1296.121, 58.454
1297.327, 83.297
1298.531, 9.074
1299.736, 133.782
1300.941, 8.533
1302.145, 147.121
1303.349, 150.751
1304.553, 17.653
1305.757, 89.901
1306.961, 13.169
1308.164, 26.671
1309.367, 143.091
1310.570, 29.461
1311.773, 132.951
1312.976, 163.076
1314.178, 46.690
1315.381, 136.636
1316.583, 29.751
1317.785, 11.029
1318.987, 220.708
1320.188, 1.813
1321.390, 86.009
1322.591, 152.083
1323.792, 37.890
1324.993, 90.058
1326.193, 111.806
1327.394, 5.138
1328.594, 170.868
1329.794, 28.598
1330.994, 0.461
1332.194, 93.338
1333.394, 53.820
1334.593, 142.203
1335.792, 150.681
1336.991, 20.531
1338.190, 84.202
1339.389, 85.753
1340.587, 53.467
1341.786, 140.003
1342.984, 5.492
1344.182, 113.186
1345.379, 152.380
1346.577, 15.964
1347.774, 185.224
1348.972, 69.748
1350.169, 74.334
1351.365, 151.605
1352.562, 121.074
1353.759, 95.605
1354.955, 212.715
1356.151, 72.213
1357.347, 60.484
1358.543, 243.981
1359.738, 75.574
1360.934, 184.555
1362.129, 152.082
1363.324, 76.445
1364.519, 249.493
1365.713, 63.756
1366.908, 75.027
1368.102, 216.986
1369.296, 51.625
1370.490, 2.543
1371.684, 130.310
1372.877, 7.530
1374.071, 135.446
1375.264, 68.840
1376.457, 118.376
1377.650, 126.215
1378.843, 73.889
1380.035, 96.191
1381.227, 286.479
1382.419, 81.689
1383.611, 308.686
1384.803, 336.837
1385.995, 205.309
1387.186, 461.327
1388.377, 297.949
1389.568, 296.997
1390.759, 497.083
1391.950, 329.769
1393.140, 532.594
1394.331, 724.125
1395.521, 577.146
1396.711, 810.559
1397.900, 803.015
1399.090, 719.856
1400.279, 801.863
1401.469, 719.201
1402.658, 708.591
1403.847, 710.207
1405.035, 370.140
1406.224, 504.386
1407.412, 585.857
1408.600, 295.356
1409.788, 521.120
1410.976, 378.031
1412.164, 189.849
1413.351, 427.349
1414.538, 248.011
1415.725, 497.306
1416.912, 490.052
1418.099, 290.315
1419.285, 395.315
1420.472, 404.188
1421.658, 394.381
1422.844, 518.081
1424.030, 521.083
1425.215, 436.068
1426.401, 777.088
1427.586, 511.232
1428.771, 527.318
1429.956, 743.954
1431.141, 608.852
1432.325, 776.828
1433.510, 897.273
1434.694, 606.812
1435.878, 781.821
1437.062, 726.743
1438.245, 612.559
1439.429, 772.507
1440.612, 563.328
1441.795, 500.909
1442.978, 685.554
1444.161, 443.109
1445.343, 512.700
1446.526, 546.658
1447.708, 308.563
1448.890, 448.688
1450.072, 417.090
1451.253, 202.814
1452.435, 490.027
1453.616, 349.801
1454.797, 236.482
1455.978, 417.085
1457.159, 180.599
1458.340, 163.058
1459.520, 374.455
1460.700, 155.790
1461.880, 373.024
1463.060, 242.168
1464.240, 223.319
1465.420, 336.429
1466.599, 197.466
1467.778, 187.472
1468.957, 273.477
1470.136, 93.505
1471.315, 276.605
1472.493, 343.687
1473.671, 59.863
1474.849, 137.049
1476.027, 269.217
1477.205, 48.441
1478.383, 243.812
1479.560, 243.195
1480.737, 45.547
1481.914, 335.020
1483.091, 54.637
1484.268, 148.295
1485.444, 240.066
1486.621, 3.874
1487.797, 245.720
1488.973, 174.573
1490.149, 66.449
1491.324, 157.358
1492.500, 46.316
1493.675, 177.341
1494.850, 303.445
1496.025, 3.354
1497.200, 174.950
1498.374, 264.896
1499.548, 39.678
1500.723, 186.268
1501.897, 243.151
1503.071, 38.386
1504.244, 207.959
1505.418, 148.803
1506.591, 93.635
1507.764, 258.729
1508.937, 62.789
1510.110, 5.664
1511.282, 324.871
1512.455, 4.470
1513.627, 154.406
1514.799, 240.216
1515.971, 36.441
1517.143, 203.042
1518.314, 88.502
1519.486, 0.157
1520.657, 0.000
##END=



