##NAMES=Gaylussite
##RRUFFID=R040146
##IDEAL CHEMISTRY=Na_2_Ca(CO_3_)_2_&#183;5H_2_O
##LOCALITY=Searles Lake, Trona, San Bernardino County, California, USA
##OWNER=RRUFF
##SOURCE=University of Arizona Mineral Museum
##DESCRIPTION=Colorless crystal fragments
##STATUS=The identification of this mineral has been confirmed by X-ray diffraction and chemical analysis
##URL=rruff.info/R040146
##MEASURED CHEMISTRY=Na_2.00_Ca_1.00_(C_1.00_O_3_)_2_Â·5H_2_O
##PIN_ID=L00275
##ORIENTATION=Laser parallel to b* (0 1 0). Fiducial mark perpendicular to laser is parallel to c [0 0 1]
99.453, 0.000
100.848, 4.909
102.242, 16.433
103.636, 22.168
105.030, 71.634
106.423, 92.764
107.817, 186.537
109.210, 202.991
110.603, 340.777
111.996, 568.923
113.388, 1187.701
114.780, 1317.548
116.172, 1035.024
117.564, 911.780
118.956, 798.533
120.347, 713.056
121.738, 625.153
123.129, 677.655
124.519, 646.416
125.910, 771.308
127.300, 816.224
128.690, 950.069
130.080, 917.767
131.469, 994.250
132.858, 876.457
134.248, 824.335
135.636, 778.844
137.025, 816.947
138.413, 857.608
139.801, 899.792
141.189, 840.467
142.577, 846.590
143.964, 708.118
145.352, 624.019
146.739, 581.264
148.125, 504.830
149.512, 484.154
150.898, 488.843
152.284, 469.258
153.670, 525.928
155.056, 563.838
156.441, 626.977
157.827, 652.341
159.212, 775.953
160.596, 950.775
161.981, 1104.820
163.365, 1179.054
164.749, 1386.489
166.133, 1554.087
167.517, 1742.860
168.900, 1940.833
170.283, 2102.049
171.666, 2290.502
173.049, 2237.102
174.431, 2117.865
175.813, 1823.824
177.195, 1486.927
178.577, 1234.177
179.959, 965.566
181.340, 781.073
182.721, 599.692
184.102, 547.229
185.483, 413.784
186.863, 425.325
188.244, 328.888
189.624, 298.487
191.003, 280.114
192.383, 224.779
193.762, 212.748
195.141, 204.225
196.520, 167.019
197.899, 195.863
199.277, 168.756
200.656, 185.707
202.034, 164.729
203.411, 196.813
204.789, 219.951
206.166, 302.140
207.543, 411.382
208.920, 331.678
210.297, 399.030
211.673, 355.436
213.049, 375.898
214.425, 318.414
215.801, 228.354
217.176, 240.697
218.552, 226.357
219.927, 185.043
221.302, 169.774
222.676, 172.915
224.051, 147.832
225.425, 182.679
226.799, 176.583
228.173, 167.344
229.546, 216.296
230.919, 253.293
232.292, 287.594
233.665, 288.687
235.038, 306.315
236.410, 299.922
237.782, 307.420
239.154, 305.369
240.526, 352.687
241.898, 343.667
243.269, 400.806
244.640, 480.054
246.011, 549.343
247.381, 704.161
248.752, 831.556
250.122, 1071.120
251.492, 1281.316
252.861, 1495.108
254.231, 1917.313
255.600, 2219.922
256.969, 2467.766
258.338, 2674.590
259.707, 2850.339
261.075, 3044.879
262.443, 3173.655
263.811, 3024.840
265.179, 2945.844
266.546, 2675.920
267.914, 2326.736
269.281, 1939.474
270.647, 1577.426
272.014, 1369.467
273.380, 1108.635
274.747, 989.137
276.113, 882.186
277.478, 786.996
278.844, 825.494
280.209, 686.689
281.574, 705.921
282.939, 646.533
284.304, 665.630
285.668, 608.209
287.032, 648.890
288.396, 518.664
289.760, 443.524
291.123, 452.926
292.487, 458.120
293.850, 344.211
295.212, 270.731
296.575, 304.961
297.937, 254.253
299.300, 236.777
300.662, 175.883
302.023, 146.905
303.385, 71.451
304.746, 120.273
306.107, 81.867
307.468, 97.772
308.829, 54.449
310.189, 12.166
311.549, 50.921
312.909, 46.710
314.269, 57.896
315.629, 19.751
316.988, 41.749
318.347, 11.980
319.706, 21.929
321.065, 45.265
322.423, 36.268
323.781, 38.460
325.139, 23.286
326.497, 16.362
327.855, 8.460
329.212, 18.359
330.569, 0.752
331.926, 22.595
333.283, 13.420
334.639, 27.229
335.995, 17.025
337.351, 27.232
338.707, 18.466
340.063, 62.730
341.418, 47.997
342.773, 12.446
344.128, 39.162
345.483, 38.128
346.837, 14.429
348.192, 56.741
349.546, 43.064
350.899, 32.603
352.253, 38.738
353.606, 33.200
354.960, 27.345
356.313, 18.023
357.665, 51.549
359.018, 23.181
360.370, 40.482
361.722, 9.628
363.074, 20.614
364.426, 10.036
365.777, 3.669
367.128, 22.893
368.479, 20.451
369.830, 8.063
371.181, 36.049
372.531, 9.482
373.881, 6.046
375.231, 63.919
376.581, 19.460
377.930, 36.000
379.280, 13.542
380.629, 43.086
381.977, 18.639
383.326, 40.989
384.674, 22.001
386.023, 10.437
387.370, 24.878
388.718, 23.484
390.066, 59.007
391.413, 22.664
392.760, 7.750
394.107, 37.847
395.454, 39.739
396.800, 12.258
398.146, 26.209
399.492, 12.801
400.838, 15.388
402.184, 31.777
403.529, 23.130
404.874, 2.473
406.219, 5.190
407.564, 10.241
408.908, 0.652
410.252, 17.010
411.596, 16.695
412.940, 15.396
414.284, 7.895
415.627, 7.177
416.970, 72.989
418.313, 7.281
419.656, 3.464
420.999, 41.187
422.341, 12.560
423.683, 16.256
425.025, 31.028
426.367, 8.353
427.708, 73.740
429.049, 34.979
430.390, 52.750
431.731, 10.259
433.072, 17.991
434.412, 35.432
435.752, 20.794
437.092, 30.148
438.432, 27.124
439.772, 8.498
441.111, 24.109
442.450, 41.372
443.789, 18.730
445.127, 8.997
446.466, 63.596
447.804, 102.368
449.142, 65.830
450.480, 77.206
451.817, 16.479
453.155, 26.804
454.492, 70.138
455.829, 21.474
457.166, 58.420
458.502, 48.771
459.838, 31.042
461.175, 14.308
462.510, 18.567
463.846, 7.818
465.181, 30.057
466.517, 59.289
467.852, 31.587
469.186, 54.814
470.521, 82.608
471.855, 83.827
473.190, 76.041
474.523, 31.250
475.857, 68.451
477.191, 44.664
478.524, 35.253
479.857, 135.990
481.190, 35.163
482.523, 62.327
483.855, 91.483
485.187, 19.635
486.519, 66.902
487.851, 138.036
489.183, 55.165
490.514, 36.036
491.845, 87.132
493.176, 69.884
494.507, 65.807
495.837, 139.416
497.168, 60.248
498.498, 78.321
499.828, 64.387
501.157, 66.490
502.487, 48.550
503.816, 70.414
505.145, 83.521
506.474, 80.747
507.802, 102.578
509.131, 89.594
510.459, 78.602
511.787, 80.842
513.115, 61.832
514.442, 63.719
515.770, 86.124
517.097, 61.085
518.424, 56.036
519.750, 57.975
521.077, 24.974
522.403, 34.713
523.729, 107.618
525.055, 61.551
526.381, 116.429
527.706, 88.647
529.031, 71.923
530.356, 50.771
531.681, 68.397
533.006, 72.272
534.330, 45.766
535.654, 93.048
536.978, 112.183
538.302, 84.625
539.625, 100.931
540.949, 114.010
542.272, 22.067
543.595, 42.146
544.917, 146.993
546.240, 128.706
547.562, 61.409
548.884, 2.102
550.206, 58.766
551.527, 64.419
552.849, 47.624
554.170, 8.484
555.491, 81.197
556.812, 38.104
558.132, 104.357
559.453, 31.174
560.773, 98.725
562.093, 34.267
563.412, 55.501
564.732, 91.815
566.051, 37.786
567.370, 39.502
568.689, 79.651
570.008, 84.981
571.326, 114.293
572.644, 50.367
573.963, 108.844
575.280, 38.007
576.598, 71.379
577.915, 126.489
579.233, 44.112
580.550, 74.456
581.866, 64.576
583.183, 140.589
584.499, 55.715
585.815, 56.692
587.131, 97.278
588.447, 72.570
589.763, 24.362
591.078, 36.281
592.393, 11.397
593.708, 13.785
595.022, 23.800
596.337, 14.488
597.651, 57.643
598.965, 41.261
600.279, 82.319
601.593, 59.466
602.906, 101.346
604.219, 41.849
605.532, 32.964
606.845, 51.065
608.158, 58.155
609.470, 70.234
610.782, 133.844
612.094, 55.986
613.406, 61.036
614.718, 1.287
616.029, 64.064
617.340, 117.068
618.651, 80.018
619.962, 90.780
621.272, 95.188
622.582, 80.162
623.892, 110.847
625.202, 63.793
626.512, 134.793
627.821, 30.720
629.131, 104.643
630.440, 77.557
631.749, 138.450
633.057, 90.970
634.366, 70.845
635.674, 38.599
636.982, 30.142
638.290, 78.979
639.597, 145.447
640.905, 76.266
642.212, 124.075
643.519, 57.023
644.825, 85.813
646.132, 113.875
647.438, 97.603
648.744, 96.897
650.050, 118.651
651.356, 143.398
652.662, 130.589
653.967, 133.320
655.272, 134.007
656.577, 132.722
657.882, 65.412
659.186, 71.103
660.490, 71.506
661.794, 151.187
663.098, 85.414
664.402, 187.080
665.705, 148.737
667.009, 119.387
668.312, 68.026
669.614, 149.666
670.917, 167.181
672.219, 146.705
673.522, 143.316
674.824, 142.774
676.125, 118.128
677.427, 60.495
678.728, 63.935
680.030, 67.702
681.331, 60.468
682.631, 124.190
683.932, 104.769
685.232, 141.346
686.532, 205.851
687.832, 218.981
689.132, 160.430
690.432, 132.916
691.731, 217.893
693.030, 102.444
694.329, 199.990
695.628, 70.881
696.926, 204.421
698.224, 166.963
699.522, 136.299
700.820, 168.293
702.118, 162.827
703.415, 164.354
704.713, 120.711
706.010, 106.144
707.307, 198.433
708.603, 174.788
709.900, 130.822
711.196, 351.593
712.492, 223.089
713.788, 430.954
715.083, 414.447
716.379, 571.152
717.674, 844.635
718.969, 1204.398
720.264, 1578.645
721.558, 1566.115
722.853, 1466.979
724.147, 1106.894
725.441, 815.355
726.735, 614.816
728.028, 441.275
729.322, 286.733
730.615, 271.188
731.908, 235.102
733.201, 234.523
734.493, 84.964
735.785, 195.407
737.078, 121.830
738.370, 36.279
739.661, 118.129
740.953, 116.363
742.244, 15.606
743.535, 154.009
744.826, 47.392
746.117, 120.028
747.407, 198.949
748.698, 45.165
749.988, 111.462
751.278, 48.068
752.567, 80.451
753.857, 102.734
755.146, 62.777
756.435, 73.169
757.724, 73.483
759.013, 90.849
760.301, 75.897
761.590, 81.771
762.878, 74.951
764.165, 39.215
765.453, 105.578
766.741, 6.946
768.028, 56.174
769.315, 58.458
770.602, 61.873
771.888, 121.366
773.175, 10.681
774.461, 1.006
775.747, 122.301
777.033, 17.609
778.319, 50.918
779.604, 44.226
780.889, 15.539
782.174, 57.752
783.459, 22.472
784.744, 21.759
786.028, 79.043
787.312, 36.326
788.596, 63.608
789.880, 67.870
791.164, 20.746
792.447, 87.467
793.730, 24.743
795.013, 137.019
796.296, 48.292
797.579, 14.436
798.861, 109.702
800.143, 2.035
801.425, 13.224
802.707, 159.480
803.989, 31.739
805.270, 70.995
806.551, 5.750
807.832, 76.500
809.113, 82.748
810.394, 45.996
811.674, 113.242
812.954, 48.441
814.234, 42.676
815.514, 122.914
816.794, 40.841
818.073, 136.380
819.352, 91.600
820.631, 173.820
821.910, 70.040
823.189, 7.231
824.467, 49.449
825.745, 96.704
827.023, 152.923
828.301, 162.562
829.578, 68.155
830.856, 165.375
832.133, 87.733
833.410, 48.926
834.687, 96.675
835.963, 23.147
837.240, 155.072
838.516, 23.421
839.792, 38.640
841.068, 46.860
842.343, 58.081
843.618, 90.303
844.894, 82.525
846.169, 99.750
847.443, 93.147
848.718, 21.802
849.992, 86.411
851.266, 39.049
852.540, 63.262
853.814, 136.480
855.088, 45.701
856.361, 135.921
857.634, 65.143
858.907, 84.365
860.180, 56.597
861.453, 139.830
862.725, 91.065
863.997, 110.310
865.269, 18.563
866.541, 208.817
867.812, 97.075
869.084, 112.335
870.355, 214.599
871.626, 96.863
872.897, 153.133
874.167, 60.404
875.438, 99.677
876.708, 69.955
877.978, 152.237
879.248, 138.521
880.517, 148.806
881.787, 86.093
883.056, 86.403
884.325, 26.714
885.594, 116.029
886.862, 152.347
888.130, 11.333
889.399, 164.985
890.667, 30.693
891.934, 19.507
893.202, 147.819
894.469, 48.138
895.737, 127.173
897.004, 55.497
898.270, 47.823
899.537, 190.155
900.803, 84.492
902.070, 148.836
903.336, 186.188
904.601, 43.551
905.867, 207.921
907.132, 21.296
908.398, 55.675
909.663, 95.056
910.928, 125.440
912.192, 145.828
913.457, 132.119
914.721, 147.630
915.985, 92.044
917.249, 66.462
918.512, 71.883
919.776, 24.049
921.039, 30.478
922.302, 86.911
923.565, 69.017
924.827, 54.462
926.090, 69.780
927.352, 67.752
928.614, 112.207
929.876, 14.614
931.138, 103.075
932.399, 45.538
933.660, 47.675
934.922, 89.146
936.182, 103.610
937.443, 93.078
938.704, 129.561
939.964, 103.049
941.224, 113.535
942.484, 88.026
943.744, 89.519
945.003, 135.021
946.262, 23.527
947.521, 77.036
948.780, 111.549
950.039, 5.979
951.298, 146.499
952.556, 22.741
953.814, 58.250
955.072, 71.782
956.330, 60.316
957.587, 120.854
958.845, 65.949
960.102, 29.500
961.359, 87.055
962.615, 58.613
963.872, 64.620
965.128, 24.759
966.384, 61.329
967.640, 46.901
968.896, 38.927
970.152, 79.508
971.407, 18.093
972.662, 46.682
973.917, 79.275
975.172, 19.868
976.427, 2.530
977.681, 65.075
978.935, 28.316
980.189, 128.289
981.443, 28.899
982.697, 103.487
983.950, 66.085
985.203, 44.303
986.456, 65.263
987.709, 133.209
988.962, 36.217
990.214, 130.490
991.467, 44.062
992.719, 37.639
993.971, 117.219
995.222, 25.805
996.474, 122.395
997.725, 16.989
998.976, 141.604
1000.227, 166.875
1001.478, 19.504
1002.728, 125.122
1003.978, 143.752
1005.229, 106.389
1006.479, 153.030
1007.728, 122.445
1008.978, 75.340
1010.227, 91.010
1011.476, 69.683
1012.725, 60.360
1013.974, 155.692
1015.223, 145.377
1016.471, 96.163
1017.719, 214.035
1018.967, 165.761
1020.215, 220.594
1021.462, 108.326
1022.710, 253.083
1023.957, 220.962
1025.204, 141.724
1026.451, 307.776
1027.697, 166.693
1028.944, 174.490
1030.190, 231.535
1031.436, 158.349
1032.682, 298.164
1033.928, 217.980
1035.173, 263.800
1036.418, 237.694
1037.663, 234.825
1038.908, 170.275
1040.153, 292.176
1041.398, 302.513
1042.642, 361.399
1043.886, 250.175
1045.130, 442.065
1046.374, 376.146
1047.617, 303.058
1048.860, 644.971
1050.104, 618.968
1051.347, 768.084
1052.589, 763.017
1053.832, 654.296
1055.074, 688.232
1056.316, 711.521
1057.558, 721.539
1058.800, 992.480
1060.042, 937.704
1061.283, 1323.649
1062.524, 1591.597
1063.765, 1949.015
1065.006, 2699.965
1066.247, 3833.112
1067.487, 6096.125
1068.728, 11279.078
1069.968, 23872.635
1071.208, 46475.594
1072.447, 54748.547
1073.687, 38661.531
1074.926, 20474.512
1076.165, 10117.489
1077.404, 5780.631
1078.643, 3613.612
1079.881, 2235.595
1081.120, 1828.664
1082.358, 1324.646
1083.596, 1048.700
1084.834, 982.700
1086.071, 713.707
1087.309, 664.706
1088.546, 569.704
1089.783, 510.702
1091.020, 480.700
1092.256, 395.719
1093.493, 363.742
1094.729, 520.762
1095.965, 358.781
1097.201, 360.024
1098.436, 309.041
1099.672, 177.102
1100.907, 242.120
1102.142, 172.138
1103.377, 307.315
1104.612, 313.329
1105.846, 153.342
1107.081, 319.634
1108.315, 261.644
1109.549, 168.822
1110.782, 227.946
1112.016, 16.950
1113.249, 131.950
1114.483, 277.175
1115.716, 37.309
1116.948, 137.302
1118.181, 122.303
1119.413, 90.713
1120.646, 240.709
1121.878, 83.701
1123.110, 161.095
1124.341, 290.083
1125.573, 174.029
1126.804, 222.310
1128.035, 57.490
1129.266, 163.832
1130.497, 217.882
1131.727, 40.640
1132.957, 19.601
1134.188, 165.122
1135.418, 25.921
1136.647, 203.282
1137.877, 0.905
1139.106, 194.268
1140.335, 150.823
1141.564, 50.751
1142.793, 158.097
1144.022, 62.342
1145.250, 129.569
1146.479, 95.247
1147.707, 48.149
1148.934, 91.338
1150.162, 226.111
1151.390, 120.093
1152.617, 227.934
1153.844, 159.052
1155.071, 122.925
1156.298, 64.099
1157.524, 122.275
1158.751, 111.129
1159.977, 223.479
1161.203, 35.458
1162.428, 274.668
1163.654, 30.718
1164.879, 11.522
1166.105, 186.823
1167.330, 35.611
1168.555, 149.389
1169.779, 134.469
1171.004, 38.230
1172.228, 201.082
1173.452, 10.584
1174.676, 44.317
1175.900, 172.903
1177.123, 18.569
1178.346, 75.271
1179.570, 211.694
1180.793, 110.486
1182.015, 232.335
1183.238, 76.973
1184.460, 21.627
1185.683, 160.719
1186.905, 82.066
1188.126, 183.689
1189.348, 233.343
1190.569, 7.929
1191.791, 246.660
1193.012, 57.275
1194.233, 116.841
1195.453, 248.424
1196.674, 86.092
1197.894, 58.886
1199.114, 188.021
1200.334, 11.270
1201.554, 141.214
1202.774, 26.387
1203.993, 88.843
1205.212, 182.330
1206.431, 42.539
1207.650, 161.956
1208.869, 261.750
1210.087, 43.377
1211.305, 289.973
1212.524, 65.549
1213.741, 99.208
1214.959, 288.526
1216.177, 4.466
1217.394, 169.755
1218.611, 240.230
1219.828, 145.827
1221.045, 203.079
1222.261, 178.401
1223.478, 81.857
1224.694, 126.258
1225.910, 164.671
1227.126, 100.857
1228.342, 168.131
1229.557, 112.561
1230.772, 229.706
1231.987, 125.040
1233.202, 139.223
1234.417, 298.329
1235.631, 166.784
1236.846, 286.103
1238.060, 124.172
1239.274, 215.707
1240.488, 217.753
1241.701, 219.789
1242.915, 84.098
1244.128, 230.116
1245.341, 129.126
1246.554, 172.120
1247.767, 193.105
1248.979, 102.182
1250.191, 242.146
1251.403, 326.102
1252.615, 2.047
1253.827, 231.976
1255.039, 102.895
1256.250, 115.800
1257.461, 285.695
1258.672, 191.562
1259.883, 91.438
1261.094, 113.300
1262.304, 188.152
1263.514, 243.990
1264.724, 55.814
1265.934, 158.793
1267.144, 290.572
1268.354, 58.335
1269.563, 151.363
1270.772, 244.072
1271.981, 79.769
1273.190, 217.449
1274.398, 65.113
1275.607, 133.729
1276.815, 184.331
1278.023, 211.913
1279.231, 131.413
1280.439, 153.938
1281.646, 93.556
1282.853, 243.037
1284.060, 99.326
1285.267, 37.731
1286.474, 289.117
1287.681, 62.479
1288.887, 78.803
1290.093, 82.107
1291.299, 32.624
1292.505, 199.607
1293.711, 89.820
1294.916, 8.016
1296.121, 137.188
1297.327, 18.340
1298.531, 102.471
1299.736, 176.582
1300.941, 40.326
1302.145, 84.721
1303.349, 166.751
1304.553, 56.763
1305.757, 107.755
1306.961, 86.052
1308.164, 9.979
1309.367, 188.795
1310.570, 75.495
1311.773, 187.290
1312.976, 194.953
1314.178, 56.299
1315.381, 272.407
1316.583, 136.972
1317.785, 63.359
1318.987, 233.001
1320.188, 24.479
1321.390, 20.059
1322.591, 262.371
1323.792, 0.897
1324.993, 134.402
1326.193, 118.885
1327.394, 82.657
1328.594, 227.707
1329.794, 5.814
1330.994, 35.174
1332.194, 302.475
1333.394, 16.790
1334.593, 131.083
1335.792, 207.469
1336.991, 36.276
1338.190, 180.771
1339.389, 151.975
1340.587, 21.842
1341.786, 95.241
1342.984, 42.188
1344.182, 109.301
1345.379, 182.053
1346.577, 34.131
1347.774, 157.842
1348.972, 145.810
1350.169, 27.839
1351.365, 259.572
1352.562, 67.570
1353.759, 56.553
1354.955, 276.059
1356.151, 95.016
1357.347, 71.764
1358.543, 375.422
1359.738, 37.345
1360.934, 308.651
1362.129, 104.554
1363.324, 5.449
1364.519, 228.335
1365.713, 131.213
1366.908, 96.091
1368.102, 288.818
1369.296, 62.693
1370.490, 156.568
1371.684, 126.264
1372.877, 25.961
1374.071, 177.744
1375.264, 101.515
1376.457, 134.249
1377.650, 202.987
1378.843, 67.521
1380.035, 93.277
1381.227, 322.788
1382.419, 76.948
1383.611, 333.051
1384.803, 255.806
1385.995, 82.724
1387.186, 342.665
1388.377, 244.419
1389.568, 261.970
1390.759, 373.659
1391.950, 126.381
1393.140, 334.964
1394.331, 545.619
1395.521, 295.950
1396.711, 376.711
1397.900, 486.996
1399.090, 297.370
1400.279, 507.642
1401.469, 328.219
1402.658, 338.756
1403.847, 419.087
1405.035, 239.430
1406.224, 369.284
1407.412, 368.956
1408.600, 105.505
1409.788, 384.639
1410.976, 253.366
1412.164, 81.293
1413.351, 207.193
1414.538, 147.116
1415.725, 346.479
1416.912, 334.742
1418.099, 196.322
1419.285, 156.482
1420.472, 309.375
1421.658, 211.334
1422.844, 380.071
1424.030, 258.642
1425.215, 195.897
1426.401, 465.385
1427.586, 322.958
1428.771, 351.557
1429.956, 439.449
1431.141, 202.907
1432.325, 472.371
1433.510, 526.570
1434.694, 164.676
1435.878, 472.938
1437.062, 332.225
1438.245, 210.283
1439.429, 478.136
1440.612, 307.047
1441.795, 295.750
1442.978, 503.889
1444.161, 260.385
1445.343, 319.379
1446.526, 368.079
1447.708, 246.422
1448.890, 419.135
1450.072, 377.678
1451.253, 266.445
1452.435, 484.117
1453.616, 209.898
1454.797, 168.412
1455.978, 326.261
1457.159, 234.605
1458.340, 242.659
1459.520, 460.835
1460.700, 118.923
1461.880, 346.920
1463.060, 294.820
1464.240, 172.617
1465.420, 440.312
1466.599, 177.505
1467.778, 215.107
1468.957, 391.966
1470.136, 189.500
1471.315, 247.065
1472.493, 284.693
1473.671, 82.500
1474.849, 370.284
1476.027, 338.287
1477.205, 116.282
1478.383, 304.379
1479.560, 242.562
1480.737, 190.727
1481.914, 358.879
1483.091, 137.002
1484.268, 145.140
1485.444, 263.264
1486.621, 61.457
1487.797, 249.720
1488.973, 308.203
1490.149, 56.918
1491.324, 335.671
1492.500, 214.466
1493.675, 173.316
1494.850, 362.248
1496.025, 41.303
1497.200, 240.514
1498.374, 279.867
1499.548, 30.633
1500.723, 219.014
1501.897, 358.814
1503.071, 48.783
1504.244, 318.955
1505.418, 239.364
1506.591, 80.035
1507.764, 430.970
1508.937, 52.205
1510.110, 113.734
1511.282, 375.703
1512.455, 75.668
1513.627, 195.947
1514.799, 356.122
1515.971, 45.968
1517.143, 344.816
1518.314, 184.838
1519.486, 2.722
1520.657, 390.211
1521.828, 193.504
1522.999, 0.000
##END=



