##NAMES=Gaylussite
##RRUFFID=R040146
##IDEAL CHEMISTRY=Na_2_Ca(CO_3_)_2_&#183;5H_2_O
##LOCALITY=Searles Lake, Trona, San Bernardino County, California, USA
##OWNER=RRUFF
##SOURCE=University of Arizona Mineral Museum
##DESCRIPTION=Colorless crystal fragments
##STATUS=The identification of this mineral has been confirmed by X-ray diffraction and chemical analysis
##URL=rruff.info/R040146
##MEASURED CHEMISTRY=Na_2.00_Ca_1.00_(C_1.00_O_3_)_2_Â·5H_2_O
##PIN_ID=L00282
##ORIENTATION=Laser parallel to (1 0 1). Fiducial mark perpendicular to laser is parallel to -b [0 -1 0]
93.873, 0.000
95.268, 3.693
96.663, 35.743
98.058, 682.908
99.453, 1902.050
100.848, 4210.322
102.242, 6493.147
103.636, 8155.869
105.030, 7127.582
106.423, 4880.029
107.817, 2990.382
109.210, 1641.715
110.603, 1282.618
111.996, 1157.159
113.388, 1536.712
114.780, 1577.834
116.172, 1686.521
117.564, 1653.108
118.956, 2041.085
120.347, 2358.531
121.738, 2777.177
123.129, 3238.883
124.519, 3195.849
125.910, 2861.193
127.300, 2087.009
128.690, 1309.391
130.080, 871.439
131.469, 466.210
132.858, 209.744
134.248, 103.068
135.636, 10.203
137.025, 27.841
138.413, 2.483
139.801, 108.991
141.189, 153.885
142.577, 340.390
143.964, 429.446
145.352, 646.183
146.739, 664.181
148.125, 876.490
149.512, 888.212
150.898, 945.517
152.284, 1096.317
153.670, 1174.380
155.056, 1288.587
156.441, 1648.870
157.827, 1969.222
159.212, 2550.649
160.596, 3300.217
161.981, 4060.010
163.365, 4518.215
164.749, 4657.682
166.133, 4740.318
167.517, 4239.039
168.900, 3486.827
170.283, 2524.656
171.666, 1885.526
173.049, 1222.425
174.431, 874.312
175.813, 588.187
177.195, 394.021
178.577, 337.779
179.959, 161.527
181.340, 118.301
182.721, 34.114
184.102, 51.026
185.483, 125.116
186.863, 164.159
188.244, 169.154
189.624, 153.104
191.003, 138.016
192.383, 77.901
193.762, 140.763
195.141, 67.607
196.520, 96.435
197.899, 32.251
199.277, 4.051
200.656, 149.034
202.034, 219.812
203.411, 386.907
204.789, 527.821
206.166, 640.026
207.543, 776.725
208.920, 676.801
210.297, 714.429
211.673, 571.530
213.049, 509.882
214.425, 406.412
215.801, 353.882
217.176, 469.263
218.552, 436.625
219.927, 501.968
221.302, 545.319
222.676, 665.104
224.051, 605.340
225.425, 644.677
226.799, 673.009
228.173, 688.489
229.546, 859.032
230.919, 937.055
232.292, 976.249
233.665, 1040.060
235.038, 1051.455
236.410, 970.243
237.782, 851.015
239.154, 838.331
240.526, 751.249
241.898, 633.529
243.269, 770.294
244.640, 765.232
246.011, 840.794
247.381, 970.546
248.752, 1127.904
250.122, 1446.070
251.492, 1624.970
252.861, 2056.152
254.231, 2402.916
255.600, 2771.090
256.969, 3066.306
258.338, 3389.375
259.707, 3888.338
261.075, 4114.934
262.443, 4526.497
263.811, 4483.456
265.179, 4509.404
266.546, 4092.501
267.914, 3468.867
269.281, 3045.301
270.647, 2550.098
272.014, 2171.965
273.380, 1822.640
274.747, 1595.630
276.113, 1532.573
277.478, 1353.408
278.844, 1300.103
280.209, 1113.261
281.574, 1086.319
282.939, 908.045
284.304, 871.209
285.668, 734.817
287.032, 573.304
288.396, 523.706
289.760, 375.125
291.123, 334.433
292.487, 287.729
293.850, 242.839
295.212, 261.014
296.575, 211.046
297.937, 215.250
299.300, 119.231
300.662, 114.150
302.023, 173.628
303.385, 94.424
304.746, 123.058
306.107, 70.370
307.468, 76.406
308.829, 37.234
310.189, 41.894
311.549, 86.476
312.909, 49.047
314.269, 59.602
315.629, 6.862
316.988, 42.638
318.347, 5.113
319.706, 47.553
321.065, 57.968
322.423, 6.643
323.781, 106.707
325.139, 40.037
326.497, 72.336
327.855, 51.608
329.212, 90.848
330.569, 75.060
331.926, 85.243
333.283, 110.396
334.639, 130.522
335.995, 175.622
337.351, 214.694
338.707, 220.154
340.063, 232.333
341.418, 217.749
342.773, 215.713
344.128, 180.651
345.483, 158.563
346.837, 160.293
348.192, 195.592
349.546, 97.089
350.899, 133.427
352.253, 111.456
353.606, 41.320
354.960, 23.960
356.313, 74.713
357.665, 27.112
359.018, 49.305
360.370, 24.987
361.722, 24.147
363.074, 9.056
364.426, 50.615
365.777, 44.244
367.128, 38.938
368.479, 20.697
369.830, 43.542
371.181, 0.529
372.531, 10.525
373.881, 20.526
375.231, 36.364
376.581, 28.214
377.930, 54.971
379.280, 43.792
380.629, 9.526
381.977, 38.227
383.326, 18.898
384.674, 8.464
386.023, 50.134
387.370, 3.704
388.718, 19.225
390.066, 7.707
391.413, 38.137
392.760, 16.507
394.107, 10.799
395.454, 19.021
396.800, 3.819
398.146, 41.285
399.492, 23.356
400.838, 53.372
402.184, 24.353
403.529, 13.289
404.874, 55.186
406.219, 12.954
407.564, 53.864
408.908, 109.645
410.252, 56.391
411.596, 43.106
412.940, 20.786
414.284, 57.425
415.627, 76.039
416.970, 9.625
418.313, 40.182
419.656, 33.708
420.999, 106.214
422.341, 80.708
423.683, 77.182
425.025, 116.661
426.367, 50.113
427.708, 65.531
429.049, 64.917
430.390, 79.268
431.731, 59.585
433.072, 63.864
434.412, 96.105
435.752, 66.318
437.092, 76.492
438.432, 93.629
439.772, 132.730
441.111, 62.793
442.450, 70.818
443.789, 124.051
445.127, 57.009
446.466, 128.926
447.804, 145.809
449.142, 154.658
450.480, 139.801
451.817, 156.482
453.155, 149.323
454.492, 185.170
455.829, 159.847
457.166, 206.526
458.502, 135.139
459.838, 179.717
461.175, 187.262
462.510, 192.789
463.846, 266.564
465.181, 191.049
466.517, 238.549
467.852, 214.441
469.186, 265.421
470.521, 292.868
471.855, 276.481
473.190, 279.576
474.523, 280.389
475.857, 230.561
477.191, 364.351
478.524, 246.750
479.857, 350.194
481.190, 267.716
482.523, 364.594
483.855, 366.184
485.187, 358.226
486.519, 256.258
487.851, 384.427
489.183, 364.842
490.514, 291.419
491.845, 452.531
493.176, 380.873
494.507, 370.680
495.837, 460.570
497.168, 377.487
498.498, 453.379
499.828, 513.247
501.157, 495.089
502.487, 478.908
503.816, 486.702
505.145, 542.471
506.474, 600.205
507.802, 623.913
509.131, 652.625
510.459, 676.897
511.787, 760.567
513.115, 710.195
514.442, 807.739
515.770, 822.899
517.097, 796.410
518.424, 879.058
519.750, 828.343
521.077, 855.515
522.403, 870.816
523.729, 963.087
525.055, 819.716
526.381, 723.724
527.706, 779.033
529.031, 650.457
530.356, 565.418
531.681, 561.119
533.006, 454.303
534.330, 451.632
535.654, 461.463
536.978, 322.086
538.302, 408.183
539.625, 330.062
540.949, 373.050
542.272, 220.771
543.595, 283.014
544.917, 250.930
546.240, 262.774
547.562, 255.407
548.884, 248.555
550.206, 191.312
551.527, 197.260
552.849, 203.838
554.170, 189.638
555.491, 252.661
556.812, 287.710
558.132, 203.171
559.453, 109.545
560.773, 292.160
562.093, 218.213
563.412, 239.959
564.732, 337.531
566.051, 222.926
567.370, 282.439
568.689, 335.378
570.008, 232.883
571.326, 374.166
572.644, 159.988
573.963, 299.479
575.280, 224.300
576.598, 292.848
577.915, 248.989
579.233, 244.737
580.550, 275.662
581.866, 126.289
583.183, 255.233
584.499, 213.985
585.815, 170.337
587.131, 228.048
588.447, 178.681
589.763, 200.420
591.078, 218.669
592.393, 180.163
593.708, 185.462
595.022, 162.855
596.337, 205.578
597.651, 123.104
598.965, 156.739
600.279, 124.047
601.593, 39.358
602.906, 164.089
604.219, 158.170
605.532, 101.132
606.845, 124.060
608.158, 19.696
609.470, 130.333
610.782, 184.931
612.094, 64.784
613.406, 159.616
614.718, 88.319
616.029, 136.674
617.340, 108.114
618.651, 97.011
619.962, 192.869
621.272, 31.485
622.582, 184.489
623.892, 95.229
625.202, 96.582
626.512, 168.971
627.821, 156.892
629.131, 181.757
630.440, 221.313
631.749, 212.098
633.057, 208.749
634.366, 114.875
635.674, 184.426
636.982, 153.364
638.290, 186.695
639.597, 313.832
640.905, 146.373
642.212, 246.229
643.519, 171.372
644.825, 278.911
646.132, 257.832
647.438, 185.130
648.744, 314.716
650.050, 297.838
651.356, 372.353
652.662, 346.438
653.967, 345.258
655.272, 373.898
656.577, 407.642
657.882, 353.142
659.186, 522.867
660.490, 399.367
661.794, 566.818
663.098, 478.260
664.402, 522.697
665.705, 542.123
667.009, 434.541
668.312, 571.011
669.614, 502.411
670.917, 514.870
672.219, 364.257
673.522, 327.695
674.824, 314.077
676.125, 459.480
677.427, 313.859
678.728, 334.413
680.030, 234.890
681.331, 343.301
682.631, 253.513
683.932, 292.947
685.232, 353.518
686.532, 361.033
687.832, 394.496
689.132, 426.098
690.432, 455.558
691.731, 426.872
693.030, 287.629
694.329, 338.086
695.628, 276.955
696.926, 202.516
698.224, 247.047
699.522, 173.575
700.820, 291.050
702.118, 143.771
703.415, 224.223
704.713, 287.673
706.010, 233.210
707.307, 174.655
708.603, 131.095
709.900, 137.531
711.196, 164.965
712.492, 139.395
713.788, 137.827
715.083, 29.253
716.379, 126.673
717.674, 296.086
718.969, 121.497
720.264, 325.904
721.558, 144.306
722.853, 146.711
724.147, 179.110
725.441, 110.502
726.735, 143.888
728.028, 119.268
729.322, 94.646
730.615, 60.019
731.908, 14.617
733.201, 104.735
734.493, 40.917
735.785, 63.402
737.078, 93.714
738.370, 114.982
739.661, 103.253
740.953, 65.481
742.244, 21.703
743.535, 33.916
744.826, 37.121
746.117, 101.318
747.407, 51.511
748.698, 24.305
749.988, 74.858
751.278, 15.015
752.567, 92.163
753.857, 110.304
755.146, 69.439
756.435, 86.567
757.724, 30.558
759.013, 95.539
760.301, 1.630
761.590, 22.713
762.878, 97.785
764.165, 78.521
765.453, 105.578
766.741, 29.629
768.028, 66.534
769.315, 69.567
770.602, 5.443
771.888, 137.568
773.175, 33.574
774.461, 46.430
775.747, 107.531
777.033, 112.794
778.319, 65.090
779.604, 23.071
780.889, 7.254
782.174, 14.584
783.459, 15.588
784.744, 116.221
786.028, 43.101
787.312, 4.106
788.596, 92.673
789.880, 98.445
791.164, 5.211
792.447, 39.034
793.730, 2.310
795.013, 146.405
796.296, 26.109
797.579, 36.196
798.861, 145.468
800.143, 16.874
801.425, 5.212
802.707, 84.412
803.989, 1.973
805.270, 166.010
806.551, 1.394
807.832, 20.368
809.113, 60.941
810.394, 33.506
811.674, 89.316
812.954, 32.867
814.234, 91.203
815.514, 156.736
816.794, 136.652
818.073, 190.650
819.352, 131.165
820.631, 150.785
821.910, 85.311
823.189, 117.804
824.467, 83.402
825.745, 222.970
827.023, 86.441
828.301, 154.528
829.578, 93.988
830.856, 167.414
832.133, 60.939
833.410, 80.377
834.687, 166.313
835.963, 33.263
837.240, 166.290
838.516, 73.880
839.792, 88.266
841.068, 147.441
842.343, 70.945
843.618, 182.309
844.894, 76.929
846.169, 95.277
847.443, 149.119
848.718, 10.451
849.992, 79.772
851.266, 88.102
852.540, 4.593
853.814, 98.696
855.088, 40.131
856.361, 147.401
857.634, 116.773
858.907, 81.029
860.180, 211.276
861.453, 176.601
862.725, 126.833
863.997, 210.130
865.269, 172.347
866.541, 275.557
867.812, 250.884
869.084, 176.650
870.355, 258.839
871.626, 206.022
872.897, 272.197
874.167, 169.380
875.438, 211.557
876.708, 143.728
877.978, 165.894
879.248, 299.052
880.517, 100.206
881.787, 274.352
883.056, 287.458
884.325, 119.415
885.594, 223.475
886.862, 310.597
888.130, 214.979
889.399, 353.926
890.667, 180.992
891.934, 178.687
893.202, 208.779
894.469, 237.717
895.737, 249.465
897.004, 127.262
898.270, 283.067
899.537, 223.135
900.803, 161.011
902.070, 321.340
903.336, 241.304
904.601, 135.013
905.867, 275.040
907.132, 145.104
908.398, 193.026
909.663, 166.014
910.928, 210.884
912.192, 245.901
913.457, 168.519
914.721, 109.223
915.985, 186.235
917.249, 179.167
918.512, 229.190
919.776, 234.396
921.039, 164.776
922.302, 249.654
923.565, 138.965
924.827, 169.966
926.090, 123.678
927.352, 163.437
928.614, 217.423
929.876, 89.002
931.138, 187.832
932.399, 91.031
933.660, 92.182
934.922, 223.787
936.182, 98.440
937.443, 53.399
938.704, 248.114
939.964, 113.394
941.224, 180.311
942.484, 175.245
943.744, 91.788
945.003, 73.938
946.262, 68.278
947.521, 189.203
948.780, 107.818
950.039, 74.133
951.298, 245.047
952.556, 19.432
953.814, 150.702
955.072, 100.535
956.330, 3.178
957.587, 117.703
958.845, 23.005
960.102, 120.556
961.359, 142.274
962.615, 4.876
963.872, 169.974
965.128, 71.438
966.384, 153.345
967.640, 71.630
968.896, 16.557
970.152, 109.272
971.407, 39.071
972.662, 59.866
973.917, 124.775
975.172, 39.564
976.427, 45.279
977.681, 112.059
978.935, 33.218
980.189, 83.936
981.443, 40.332
982.697, 47.403
983.950, 165.309
985.203, 83.991
986.456, 194.891
987.709, 30.136
988.962, 19.813
990.214, 194.670
991.467, 15.720
992.719, 35.443
993.971, 96.969
995.222, 3.631
996.474, 185.490
997.725, 7.890
998.976, 75.766
1000.227, 88.022
1001.478, 21.427
1002.728, 252.343
1003.978, 180.365
1005.229, 29.984
1006.479, 193.354
1007.728, 41.175
1008.978, 79.804
1010.227, 132.342
1011.476, 46.965
1012.725, 168.586
1013.974, 50.442
1015.223, 100.077
1016.471, 174.926
1017.719, 105.697
1018.967, 158.383
1020.215, 218.561
1021.462, 127.237
1022.710, 182.953
1023.957, 86.286
1025.204, 260.996
1026.451, 190.292
1027.697, 205.385
1028.944, 162.100
1030.190, 262.348
1031.436, 109.051
1032.682, 282.775
1033.928, 176.107
1035.173, 267.823
1036.418, 198.977
1037.663, 232.096
1038.908, 180.831
1040.153, 258.648
1041.398, 240.809
1042.642, 463.576
1043.886, 190.716
1045.130, 426.470
1046.374, 357.100
1047.617, 274.107
1048.860, 598.867
1050.104, 652.759
1051.347, 871.877
1052.589, 850.645
1053.832, 660.132
1055.074, 738.889
1056.316, 747.943
1057.558, 826.699
1058.800, 1035.449
1060.042, 904.777
1061.283, 1343.521
1062.524, 1622.260
1063.765, 1841.602
1065.006, 2870.349
1066.247, 3689.746
1067.487, 6278.776
1068.728, 11717.500
1069.968, 24356.881
1071.208, 45665.590
1072.447, 51754.297
1073.687, 36643.414
1074.926, 19842.105
1076.165, 9660.901
1077.404, 5550.012
1078.643, 3298.696
1079.881, 2197.772
1081.120, 1746.562
1082.358, 1175.370
1083.596, 1014.231
1084.834, 962.918
1086.071, 652.222
1087.309, 690.826
1088.546, 669.492
1089.783, 588.529
1091.020, 527.180
1092.256, 326.023
1093.493, 514.919
1094.729, 533.551
1095.965, 312.222
1097.201, 471.070
1098.436, 289.672
1099.672, 278.885
1100.907, 377.474
1102.142, 135.031
1103.377, 234.068
1104.612, 332.632
1105.846, 150.807
1107.081, 330.417
1108.315, 328.770
1109.549, 127.687
1110.782, 306.445
1112.016, 54.688
1113.249, 193.170
1114.483, 207.846
1115.716, 6.305
1116.948, 194.852
1118.181, 112.415
1119.413, 231.648
1120.646, 289.981
1121.878, 78.344
1123.110, 187.518
1124.341, 155.918
1125.573, 164.179
1126.804, 233.504
1128.035, 30.202
1129.266, 139.421
1130.497, 145.957
1131.727, 44.150
1132.957, 112.927
1134.188, 76.663
1135.418, 44.671
1136.647, 203.971
1137.877, 52.201
1139.106, 272.712
1140.335, 11.396
1141.564, 169.401
1142.793, 178.273
1144.022, 56.847
1145.250, 245.397
1146.479, 155.498
1147.707, 194.487
1148.934, 222.602
1150.162, 90.663
1151.390, 29.522
1152.617, 238.798
1153.844, 187.125
1155.071, 95.363
1156.298, 174.641
1157.524, 183.312
1158.751, 301.571
1159.977, 250.129
1161.203, 88.570
1162.428, 391.769
1163.654, 100.956
1164.879, 118.751
1166.105, 361.292
1167.330, 49.095
1168.555, 177.278
1169.779, 245.313
1171.004, 46.999
1172.228, 382.164
1173.452, 40.930
1174.676, 88.517
1175.900, 300.460
1177.123, 58.528
1178.346, 226.097
1179.570, 239.867
1180.793, 47.699
1182.015, 295.868
1183.238, 96.471
1184.460, 103.863
1185.683, 323.435
1186.905, 181.818
1188.126, 99.299
1189.348, 250.125
1190.569, 2.345
1191.791, 365.096
1193.012, 17.209
1194.233, 154.446
1195.453, 332.231
1196.674, 59.617
1197.894, 127.888
1199.114, 349.188
1200.334, 46.908
1201.554, 313.882
1202.774, 154.603
1203.993, 251.522
1205.212, 318.841
1206.431, 86.329
1207.650, 263.167
1208.869, 261.051
1210.087, 93.201
1211.305, 359.960
1212.524, 77.258
1213.741, 164.559
1214.959, 371.230
1216.177, 78.912
1217.394, 295.525
1218.611, 382.677
1219.828, 140.136
1221.045, 266.668
1222.261, 214.120
1223.478, 141.374
1224.694, 347.823
1225.910, 155.392
1227.126, 221.783
1228.342, 218.515
1229.557, 205.947
1230.772, 312.271
1231.987, 99.102
1233.202, 245.853
1234.417, 382.106
1235.631, 158.998
1236.846, 285.515
1238.060, 201.652
1239.274, 188.268
1240.488, 354.363
1241.701, 240.437
1242.915, 196.491
1244.128, 322.522
1245.341, 108.530
1246.554, 264.513
1247.767, 290.475
1248.979, 146.421
1250.191, 282.345
1251.403, 328.243
1252.615, 34.124
1253.827, 399.977
1255.039, 165.803
1256.250, 201.603
1257.461, 277.379
1258.672, 262.863
1259.883, 298.592
1261.094, 274.301
1262.304, 239.514
1263.514, 405.164
1264.724, 70.753
1265.934, 256.339
1267.144, 381.894
1268.354, 77.234
1269.563, 232.720
1270.772, 278.178
1271.981, 53.606
1273.190, 378.968
1274.398, 63.833
1275.607, 219.074
1276.815, 334.228
1278.023, 148.997
1279.231, 293.998
1280.439, 168.850
1281.646, 131.477
1282.853, 216.404
1284.060, 0.980
1285.267, 25.822
1286.474, 290.117
1287.681, 94.844
1288.887, 99.536
1290.093, 163.875
1291.299, 1.535
1292.505, 65.790
1293.711, 257.480
1294.916, 51.937
1296.121, 76.123
1297.327, 30.013
1298.531, 154.316
1299.736, 208.582
1300.941, 22.614
1302.145, 96.793
1303.349, 190.933
1304.553, 95.029
1305.757, 139.082
1306.961, 47.145
1308.164, 26.811
1309.367, 280.505
1310.570, 195.769
1311.773, 268.007
1312.976, 171.253
1314.178, 125.042
1315.381, 338.585
1316.583, 18.554
1317.785, 42.104
1318.987, 325.051
1320.188, 31.867
1321.390, 151.550
1322.591, 264.391
1323.792, 62.270
1324.993, 191.006
1326.193, 103.629
1327.394, 13.176
1328.594, 389.544
1329.794, 2.255
1330.994, 55.319
1332.194, 238.262
1333.394, 19.180
1334.593, 213.764
1335.792, 225.610
1336.991, 41.513
1338.190, 260.450
1339.389, 122.999
1340.587, 55.761
1341.786, 163.837
1342.984, 33.832
1344.182, 98.816
1345.379, 271.196
1346.577, 26.212
1347.774, 296.044
1348.972, 168.565
1350.169, 121.059
1351.365, 302.938
1352.562, 45.378
1353.759, 52.210
1354.955, 300.214
1356.151, 132.560
1357.347, 124.225
1358.543, 446.380
1359.738, 48.654
1360.934, 450.246
1362.129, 133.687
1363.324, 65.873
1364.519, 347.626
1365.713, 59.779
1366.908, 81.806
1368.102, 323.676
1369.296, 35.755
1370.490, 277.442
1371.684, 180.735
1372.877, 42.565
1374.071, 264.312
1375.264, 136.446
1376.457, 147.459
1377.650, 258.980
1378.843, 101.992
1380.035, 181.021
1381.227, 464.859
1382.419, 148.596
1383.611, 472.265
1384.803, 455.558
1385.995, 289.442
1387.186, 572.803
1388.377, 485.474
1389.568, 548.808
1390.759, 662.256
1391.950, 565.934
1393.140, 639.461
1394.331, 982.159
1395.521, 825.670
1396.711, 1138.118
1397.900, 1150.460
1399.090, 872.832
1400.279, 1155.958
1401.469, 838.698
1402.658, 1000.797
1403.847, 1030.992
1405.035, 592.616
1406.224, 743.980
1407.412, 653.404
1408.600, 355.202
1409.788, 775.807
1410.976, 426.475
1412.164, 387.147
1413.351, 598.552
1414.538, 339.595
1415.725, 663.291
1416.912, 736.013
1418.099, 247.733
1419.285, 635.841
1420.472, 684.316
1421.658, 410.276
1422.844, 771.498
1424.030, 573.896
1425.215, 420.037
1426.401, 1118.543
1427.586, 708.441
1428.771, 784.317
1429.956, 827.994
1431.141, 648.340
1432.325, 887.424
1433.510, 910.814
1434.694, 615.933
1435.878, 1016.368
1437.062, 836.418
1438.245, 706.546
1439.429, 866.407
1440.612, 526.146
1441.795, 645.041
1442.978, 933.069
1444.161, 491.907
1445.343, 490.958
1446.526, 719.217
1447.708, 446.744
1448.890, 565.869
1450.072, 554.963
1451.253, 352.922
1452.435, 601.849
1453.616, 291.645
1454.797, 291.305
1455.978, 630.841
1457.159, 260.228
1458.340, 409.464
1459.520, 488.552
1460.700, 167.507
1461.880, 556.307
1463.060, 214.982
1464.240, 263.554
1465.420, 542.043
1466.599, 320.426
1467.778, 228.698
1468.957, 556.921
1470.136, 215.486
1471.315, 344.293
1472.493, 483.145
1473.671, 202.163
1474.849, 371.223
1476.027, 570.429
1477.205, 79.678
1478.383, 409.149
1479.560, 308.646
1480.737, 178.403
1481.914, 568.164
1483.091, 38.001
1484.268, 197.896
1485.444, 487.902
1486.621, 37.981
1487.797, 518.138
1488.973, 308.321
1490.149, 208.557
1491.324, 368.762
1492.500, 339.189
1493.675, 259.762
1494.850, 520.520
1496.025, 11.492
1497.200, 332.667
1498.374, 464.048
1499.548, 123.597
1500.723, 425.301
1501.897, 387.217
1503.071, 14.374
1504.244, 443.782
1505.418, 255.885
1506.591, 218.234
1507.764, 480.854
1508.937, 136.443
1510.110, 288.818
1511.282, 649.268
1512.455, 7.495
1513.627, 333.012
1514.799, 512.534
1515.971, 146.587
1517.143, 536.641
1518.314, 247.248
1519.486, 0.229
1520.657, 0.000
##END=



