##NAMES=Gehlenite
##RRUFFID=R060841
##IDEAL CHEMISTRY=Ca_2_Al(SiAl)O_7_
##LOCALITY=Monzoni, Tyrol, Italy
##OWNER=RRUFF
##SOURCE=Michael Scott
##DESCRIPTION=Brown rectangular prism
##STATUS=The identification of this mineral has been confirmed by X-ray diffraction and chemical analysis
##URL=rruff.info/R060841
##MEASURED CHEMISTRY=(Ca_1.92_Na_0.07_K_0.01_)_Σ=2_(Al_0.62_Mg_0.25_Fe^2+^_0.13_)_Σ=1_(Si_1.46_Al_0.54_)O_7_ ; = lighter phase, and the darker phase is calcite
##PIN_ID=L00662
##ORIENTATION=Laser parallel to a* (1 0 0). Fiducial mark perpendicular to laser is parallel to c [0 0 1]
174.0950, 0.0000000E+00
175.3240, 7.252930
176.5520, 233.0156
177.7810, 154.2529
179.0090, 223.3867
180.2370, 42.13770
181.4640, 53.53613
182.6920, 13.44922
183.9190, 207.1309
185.1460, 325.3340
186.3730, 636.2266
187.6000, 906.3105
188.8270, 1401.562
190.0530, 1640.162
191.2800, 1860.213
192.5060, 2299.398
193.7320, 2593.262
194.9580, 3034.168
196.1830, 3400.566
197.4090, 3718.977
198.6340, 3857.986
199.8590, 4139.316
201.0840, 4149.965
202.3090, 4462.262
203.5340, 4364.523
204.7580, 4424.842
205.9820, 4213.996
207.2060, 4017.498
208.4300, 4201.881
209.6540, 4077.743
210.8780, 4154.736
212.1010, 4354.598
213.3240, 4248.129
214.5470, 4508.179
215.7700, 4444.625
216.9930, 4826.371
218.2150, 4765.332
219.4380, 5176.441
220.6600, 5430.635
221.8820, 5598.865
223.1040, 5960.182
224.3260, 6179.996
225.5470, 6519.782
226.7680, 6897.350
227.9900, 7474.317
229.2110, 7414.864
230.4310, 7854.537
231.6520, 8042.807
232.8720, 8246.114
234.0930, 8580.717
235.3130, 8575.676
236.5330, 8773.680
237.7530, 8681.551
238.9720, 8946.883
240.1920, 8914.666
241.4110, 8959.960
242.6300, 9186.789
243.8490, 9037.159
245.0680, 9089.027
246.2860, 9634.403
247.5040, 9321.700
248.7230, 9389.485
249.9410, 9138.638
251.1590, 9181.946
252.3760, 9176.504
253.5940, 9204.376
254.8110, 9225.615
256.0280, 9150.254
257.2450, 8991.323
258.4620, 9040.848
259.6790, 9399.856
260.8950, 9716.360
262.1120, 9026.386
263.3280, 8190.943
264.5440, 7723.045
265.7600, 7764.701
266.9750, 7412.924
268.1910, 7268.719
269.4060, 6856.094
270.6210, 6771.055
271.8360, 6811.451
273.0510, 6734.885
274.2650, 6420.589
275.4800, 6561.212
276.6940, 6512.525
277.9080, 6612.599
279.1220, 6816.035
280.3360, 7038.043
281.5490, 7215.453
282.7630, 7492.959
283.9760, 7850.045
285.1890, 8254.089
286.4020, 8691.237
287.6150, 9157.374
288.8270, 9931.823
290.0400, 10301.49
291.2520, 11284.66
292.4640, 11989.61
293.6760, 12959.03
294.8870, 13796.38
296.0990, 14452.82
297.3100, 15308.81
298.5210, 16372.93
299.7320, 17019.89
300.9430, 17438.93
302.1540, 18089.03
303.3640, 18397.06
304.5750, 18884.16
305.7850, 18758.01
306.9950, 18625.84
308.2050, 18279.86
309.4140, 17577.85
310.6240, 16955.03
311.8330, 15920.91
313.0420, 15115.31
314.2510, 14244.68
315.4600, 13070.01
316.6680, 12340.54
317.8770, 11194.62
319.0850, 10362.45
320.2930, 9601.032
321.5010, 8625.026
322.7090, 7995.305
323.9160, 7573.793
325.1240, 6927.947
326.3310, 6500.145
327.5380, 5974.095
328.7450, 5674.609
329.9520, 5167.428
331.1580, 4806.492
332.3650, 4461.754
333.5710, 4243.172
334.7770, 4112.711
335.9830, 3933.338
337.1880, 3637.025
338.3940, 3448.745
339.5990, 3284.477
340.8040, 3128.198
342.0090, 3108.896
343.2140, 2734.554
344.4190, 2820.158
345.6230, 2736.699
346.8280, 2552.167
348.0320, 2601.551
349.2360, 2540.834
350.4400, 2354.005
351.6430, 2288.051
352.8470, 2405.961
354.0500, 2330.729
355.2530, 2119.344
356.4560, 2145.805
357.6590, 1911.104
358.8620, 1915.242
360.0640, 1800.214
361.2660, 1675.016
362.4680, 1474.646
363.6700, 1370.105
364.8720, 1219.389
366.0740, 1064.406
367.2750, 884.4248
368.4760, 795.1670
369.6770, 578.7227
370.8780, 489.0791
372.0790, 345.2236
373.2800, 137.3262
374.4800, 216.4316
375.6800, 244.4893
376.8800, 224.2061
378.0800, 11.63477
379.2800, 46.61035
380.4790, 18.06738
381.6790, 87.23242
382.8780, 18.42676
384.0770, 199.5781
385.2760, 314.0322
386.4750, 345.9121
387.6730, 340.2188
388.8720, 255.9473
390.0700, 247.0684
391.2680, 326.5723
392.4660, 451.4756
393.6630, 413.8047
394.8610, 555.5498
396.0580, 429.7402
397.2550, 455.3428
398.4520, 556.3623
399.6490, 364.8174
400.8460, 438.6602
402.0420, 422.9053
403.2390, 448.5479
404.4350, 426.5898
405.6310, 426.0244
406.8270, 440.8506
408.0220, 347.0664
409.2180, 384.6484
410.4130, 413.6035
411.6080, 305.9365
412.8030, 327.3984
413.9980, 239.6504
415.1920, 286.0137
416.3870, 125.7344
417.5810, 146.7891
418.7750, 16.22559
419.9690, 103.0029
421.1630, 39.80664
422.3570, 204.1973
423.5500, 152.1465
424.7430, 334.5117
425.9360, 409.2539
427.1290, 393.4512
428.3220, 487.0156
429.5150, 466.8994
430.7070, 455.1426
431.8990, 496.7461
433.0910, 637.7432
434.2830, 363.1455
435.4750, 602.9609
436.6670, 400.2529
437.8580, 417.0303
439.0490, 459.3555
440.2400, 531.2861
441.4310, 451.9102
442.6220, 412.2666
443.8130, 457.4941
445.0030, 451.4912
446.1930, 522.3975
447.3830, 547.1748
448.5730, 609.8340
449.7630, 666.3721
450.9520, 767.7920
452.1420, 852.1025
453.3310, 799.3057
454.5200, 992.4062
455.7090, 895.4121
456.8980, 1092.328
458.0860, 1129.165
459.2740, 1151.930
460.4630, 1318.622
461.6510, 1462.248
462.8380, 1505.809
464.0260, 1712.244
465.2140, 1712.570
466.4010, 1900.776
467.5880, 1936.859
468.7750, 1969.817
469.9620, 2015.653
471.1490, 2082.367
472.3350, 2162.948
473.5220, 2241.397
474.7080, 2334.712
475.8940, 2451.894
477.0800, 2372.939
478.2650, 2549.895
479.4510, 2422.795
480.6360, 2378.664
481.8210, 2415.530
483.0060, 2379.420
484.1910, 2417.365
485.3760, 2590.401
486.5600, 2368.577
487.7440, 2437.906
488.9290, 2289.404
490.1130, 2252.096
491.2960, 2169.956
492.4800, 2243.005
493.6630, 2169.240
494.8470, 2144.640
496.0300, 2303.186
497.2130, 2126.848
498.3960, 2282.584
499.5780, 2390.362
500.7610, 2415.132
501.9430, 2516.844
503.1250, 2425.447
504.3070, 2634.925
505.4890, 2662.276
506.6710, 2695.504
507.8520, 2849.609
509.0330, 2830.926
510.2140, 2857.349
511.3950, 2902.258
512.5760, 2909.080
513.7570, 3125.004
514.9370, 3133.500
516.1170, 3389.450
517.2980, 3341.865
518.4780, 3564.599
519.6570, 3684.842
520.8370, 3893.862
522.0160, 3878.803
523.1960, 3979.669
524.3750, 3975.061
525.5540, 4197.645
526.7320, 4036.735
527.9110, 3875.531
529.0890, 3679.223
530.2680, 3383.178
531.4460, 3188.336
532.6240, 2785.975
533.8010, 2635.553
534.9790, 2453.232
536.1560, 2120.226
537.3340, 2041.391
538.5110, 1881.719
539.6880, 1830.490
540.8650, 1661.427
542.0410, 1630.385
543.2180, 1468.713
544.3940, 1447.044
545.5700, 1376.791
546.7460, 1357.949
547.9220, 1197.184
549.0970, 1305.538
550.2730, 1435.837
551.4480, 1350.845
552.6230, 1299.109
553.7980, 1439.247
554.9730, 1481.066
556.1470, 1686.521
557.3210, 1715.172
558.4960, 1893.992
559.6700, 2067.609
560.8440, 2132.543
562.0170, 2472.159
563.1910, 2615.750
564.3640, 2730.150
565.5380, 2631.754
566.7110, 2747.777
567.8840, 2750.472
569.0560, 2701.083
570.2290, 2813.536
571.4010, 2781.886
572.5740, 2834.208
573.7460, 3094.940
574.9180, 2699.313
576.0890, 2804.121
577.2610, 3234.465
578.4320, 3019.782
579.6040, 3333.349
580.7750, 3519.298
581.9450, 3777.623
583.1160, 4006.694
584.2870, 4332.682
585.4570, 4590.938
586.6270, 5023.253
587.7980, 5600.949
588.9670, 6000.832
590.1370, 6539.064
591.3070, 7405.619
592.4760, 8041.685
593.6450, 9022.195
594.8140, 9753.569
595.9830, 10995.65
597.1520, 12203.61
598.3210, 13333.78
599.4890, 15012.98
600.6570, 16648.23
601.8250, 18446.53
602.9930, 20439.87
604.1610, 22534.25
605.3290, 25007.68
606.4960, 27539.16
607.6630, 29822.68
608.8300, 32767.26
609.9970, 34867.88
611.1640, 37513.54
612.3300, 39146.28
613.4970, 40742.05
614.6630, 41992.88
615.8290, 42302.75
616.9950, 42064.70
618.1610, 40897.26
619.3260, 39762.96
620.4920, 37967.23
621.6570, 36214.15
622.8220, 34652.89
623.9870, 32855.68
625.1520, 31105.46
626.3160, 29351.13
627.4810, 28624.29
628.6450, 27442.73
629.8090, 26319.15
630.9730, 25515.70
632.1370, 24583.60
633.3000, 23638.87
634.4640, 22782.86
635.6270, 21590.52
636.7900, 20700.67
637.9530, 19673.75
639.1160, 18784.42
640.2780, 17929.04
641.4410, 17225.69
642.6030, 16610.99
643.7650, 16876.75
644.9270, 16787.53
646.0890, 17470.32
647.2500, 18286.13
648.4120, 20035.96
649.5730, 21699.81
650.7340, 24161.69
651.8950, 26141.60
653.0560, 28538.55
654.2160, 30452.52
655.3770, 33137.55
656.5370, 34034.65
657.6970, 34156.80
658.8570, 34028.00
660.0170, 33427.25
661.1760, 32599.62
662.3360, 31117.06
663.4950, 29646.61
664.6540, 27413.28
665.8130, 25685.05
666.9720, 23883.99
668.1310, 21705.11
669.2890, 19965.42
670.4470, 18237.94
671.6050, 16624.62
672.7630, 15087.47
673.9210, 13856.52
675.0790, 12592.80
676.2360, 11450.30
677.3930, 10209.05
678.5510, 9487.023
679.7080, 8512.228
680.8640, 7827.688
682.0210, 7238.359
683.1770, 6693.255
684.3340, 6025.376
685.4900, 5612.729
686.6460, 5150.305
687.8020, 4755.107
688.9570, 4430.143
690.1130, 4021.381
691.2680, 3775.836
692.4230, 3759.517
693.5780, 3433.393
694.7330, 3301.471
695.8880, 3209.729
697.0420, 2836.180
698.1960, 2763.782
699.3510, 2767.542
700.5040, 2687.423
701.6580, 2634.448
702.8120, 2580.473
703.9650, 2411.803
705.1190, 2426.115
706.2720, 2373.506
707.4250, 2260.974
708.5780, 2248.520
709.7300, 2309.143
710.8830, 2175.841
712.0350, 2223.619
713.1870, 2345.473
714.3390, 2418.400
715.4910, 2422.410
716.6430, 2611.494
717.7940, 2989.660
718.9460, 3400.905
720.0970, 3785.229
721.2480, 4316.632
722.3990, 4840.111
723.5500, 5577.672
724.7000, 6317.311
725.8500, 6929.030
727.0010, 7602.828
728.1510, 8096.701
729.3010, 8346.653
730.4500, 8434.681
731.6000, 8456.784
732.7490, 8346.960
733.8980, 8118.209
735.0470, 7406.528
736.1960, 7028.920
737.3450, 6408.385
738.4940, 5665.922
739.6420, 5015.528
740.7900, 4612.207
741.9380, 4073.958
743.0860, 3441.783
744.2340, 2814.680
745.3810, 2353.648
746.5290, 2021.690
747.6760, 1523.806
748.8230, 1321.995
749.9700, 875.2568
751.1170, 733.5918
752.2630, 677.0000
753.4100, 308.4824
754.5560, 177.0381
755.7020, 104.3311
756.8480, 261.7188
757.9940, 361.1943
759.1390, 480.8027
760.2850, 595.6045
761.4300, 713.6523
762.5750, 841.0107
763.7200, 1028.745
764.8650, 1082.642
766.0100, 1133.665
767.1540, 1227.909
768.2980, 1133.732
769.4420, 1203.086
770.5860, 1193.007
771.7300, 1109.486
772.8740, 1041.483
774.0170, 922.9580
775.1610, 762.8486
776.3040, 638.0684
777.4470, 427.5713
778.5900, 206.1982
779.7320, 31.09863
780.8750, 313.4375
782.0170, 597.6475
783.1590, 785.3564
784.3010, 1165.938
785.4430, 1463.600
786.5850, 1776.345
787.7260, 2255.172
788.8680, 2636.084
790.0090, 2979.077
791.1500, 3682.154
792.2910, 4230.316
793.4310, 4727.564
794.5720, 5145.896
795.7120, 5759.312
796.8520, 6153.814
797.9920, 6545.402
799.1320, 6607.074
800.2720, 6665.834
801.4120, 6741.678
802.5510, 6611.607
803.6900, 6543.623
804.8290, 6273.725
805.9680, 5998.910
807.1070, 5971.182
808.2450, 5353.537
809.3840, 5325.979
810.5220, 5228.502
811.6600, 5235.109
812.7980, 4881.799
813.9360, 4808.570
815.0730, 4518.424
816.2110, 4566.361
817.3480, 4654.376
818.4850, 4444.473
819.6220, 4740.649
820.7590, 4419.921
821.8960, 4506.283
823.0320, 4520.768
824.1680, 4624.360
825.3040, 4768.089
826.4400, 4750.923
827.5760, 4862.894
828.7120, 4896.025
829.8470, 5306.327
830.9830, 5184.799
832.1180, 5675.449
833.2530, 5995.244
834.3880, 6033.184
835.5220, 6511.287
836.6570, 6881.533
837.7910, 7163.961
838.9250, 7397.555
840.0590, 7694.547
841.1930, 8009.242
842.3270, 8148.321
843.4600, 8327.559
844.5940, 8442.942
845.7270, 8545.443
846.8600, 8641.152
847.9930, 8686.225
849.1250, 8683.419
850.2580, 8488.744
851.3900, 8542.113
852.5230, 8496.220
853.6550, 8446.418
854.7870, 8312.726
855.9180, 8178.428
857.0500, 8227.260
858.1810, 8270.184
859.3130, 8181.189
860.4440, 8079.285
861.5750, 8312.493
862.7050, 8268.816
863.8360, 8238.229
864.9660, 8166.727
866.0970, 8159.327
867.2270, 8049.023
868.3570, 8035.826
869.4870, 7942.590
870.6160, 7765.740
871.7460, 7798.850
872.8750, 7662.057
874.0040, 7661.355
875.1330, 7742.736
876.2620, 7844.195
877.3910, 8095.729
878.5190, 8397.975
879.6470, 8814.392
880.7760, 9287.805
881.9040, 9883.655
883.0310, 10581.57
884.1590, 11254.58
885.2870, 12414.67
886.4140, 13173.84
887.5410, 14198.08
888.6680, 15124.39
889.7950, 16047.78
890.9220, 16853.22
892.0480, 17873.19
893.1750, 18609.13
894.3010, 19745.64
895.4270, 20799.61
896.5530, 22108.90
897.6790, 23513.26
898.8040, 24488.77
899.9300, 25969.49
901.0550, 27365.87
902.1800, 28347.09
903.3050, 29465.46
904.4300, 30194.84
905.5540, 30437.98
906.6790, 30485.90
907.8030, 30033.22
908.9270, 29500.00
910.0510, 29106.43
911.1750, 28343.08
912.2990, 27319.26
913.4220, 26398.62
914.5450, 25833.09
915.6690, 24956.04
916.7920, 24084.66
917.9140, 23466.41
919.0370, 23168.28
920.1600, 22933.26
921.2820, 22671.37
922.4040, 22725.59
923.5260, 22812.92
924.6480, 22921.38
925.7700, 22966.95
926.8910, 22851.63
928.0130, 22605.43
929.1340, 22392.34
930.2550, 21936.37
931.3760, 21304.50
932.4970, 20535.75
933.6170, 19996.10
934.7380, 18968.52
935.8580, 17932.15
936.9780, 17065.83
938.0980, 15904.63
939.2180, 15240.53
940.3370, 14368.54
941.4570, 13722.66
942.5760, 13340.88
943.6950, 13084.21
944.8140, 12706.64
945.9330, 12483.18
947.0520, 12596.82
948.1700, 12595.56
949.2890, 12635.40
950.4070, 12621.34
951.5250, 12903.38
952.6430, 12868.53
953.7600, 12973.77
954.8780, 13117.62
955.9950, 12757.31
957.1120, 12698.26
958.2290, 12381.43
959.3460, 11973.48
960.4630, 11733.32
961.5800, 11270.58
962.6960, 10759.20
963.8120, 10438.21
964.9280, 9853.701
966.0440, 9423.411
967.1600, 9367.622
968.2760, 8866.245
969.3910, 8716.998
970.5060, 8547.423
971.6210, 8477.963
972.7360, 8492.700
973.8510, 8160.137
974.9660, 8001.400
976.0800, 8174.945
977.1950, 8172.162
978.3090, 7963.150
979.4230, 7987.744
980.5370, 8187.635
981.6500, 7733.062
982.7640, 7923.836
983.8770, 7740.738
984.9900, 7903.184
986.1030, 7908.604
987.2160, 8255.165
988.3290, 8234.637
989.4420, 8607.664
990.5540, 8622.540
991.6660, 8818.786
992.7780, 8862.985
993.8900, 8844.728
995.0020, 9073.719
996.1140, 8969.260
997.2250, 8889.974
998.3360, 8796.177
999.4470, 8633.015
1000.558, 8453.886
1001.669, 8052.674
1002.780, 7845.541
1003.890, 7523.629
1005.001, 7257.729
1006.111, 6986.064
1007.221, 6560.873
1008.331, 6306.221
1009.440, 6060.825
1010.550, 5846.033
1011.659, 5562.387
1012.768, 5296.275
1013.877, 5032.896
1014.986, 4709.027
1016.095, 4480.473
1017.204, 4166.872
1018.312, 3834.404
1019.420, 3919.959
1020.528, 3684.869
1021.636, 3557.553
1022.744, 3348.898
1023.852, 3192.286
1024.959, 3076.436
1026.066, 2878.400
1027.173, 2863.477
1028.280, 2699.828
1029.387, 2614.939
1030.494, 2517.872
1031.600, 2458.925
1032.707, 2299.182
1033.813, 2348.853
1034.919, 2250.699
1036.025, 2269.323
1037.130, 2083.301
1038.236, 2073.121
1039.341, 2066.184
1040.446, 1939.745
1041.552, 1843.342
1042.656, 1864.567
1043.761, 1765.860
1044.866, 1588.544
1045.970, 1613.453
1047.074, 1574.325
1048.179, 1351.227
1049.282, 1440.169
1050.386, 1251.828
1051.490, 1197.870
1052.593, 1187.641
1053.697, 1165.480
1054.800, 1060.070
1055.903, 1101.869
1057.006, 1005.576
1058.108, 971.9658
1059.211, 905.3911
1060.313, 837.8999
1061.415, 972.5586
1062.517, 923.8188
1063.619, 773.2266
1064.721, 777.4507
1065.823, 621.5571
1066.924, 709.7754
1068.025, 638.8247
1069.126, 640.7988
1070.227, 489.9824
1071.328, 548.6421
1072.429, 605.8765
1073.529, 422.6650
1074.629, 544.6045
1075.729, 468.5605
1076.829, 426.3936
1077.929, 453.0649
1079.029, 401.4009
1080.128, 276.7891
1081.228, 187.0396
1082.327, 120.5044
1083.426, 144.0918
1084.525, 91.74707
1085.623, 52.90332
1086.722, 80.97461
1087.820, 46.58643
1088.919, 186.7227
1090.017, 119.6860
1091.115, 222.5366
1092.212, 101.0347
1093.310, 228.5215
1094.407, 307.3291
1095.505, 339.2124
1096.602, 340.3877
1097.699, 369.6274
1098.795, 244.1279
1099.892, 228.8032
1100.989, 304.7134
1102.085, 230.0581
1103.181, 353.7739
1104.277, 319.6069
1105.373, 293.5186
1106.469, 301.4937
1107.564, 237.1582
1108.660, 274.7656
1109.755, 202.5264
1110.850, 256.0078
1111.945, 206.7305
1113.040, 195.6538
1114.134, 196.7075
1115.229, 130.7319
1116.323, 103.2471
1117.417, 50.90234
1118.511, 176.5142
1119.605, 75.43457
1120.698, 32.66309
1121.792, 105.9585
1122.885, 19.40332
1123.978, 68.65430
1125.071, 36.87451
1126.164, 45.11621
1127.257, 50.24121
1128.349, 51.41064
1129.442, 68.94385
1130.534, 12.63916
1131.626, 40.62061
1132.718, 5.003418
1133.810, 2.967285
1134.901, 12.70361
1135.993, 0.2036130
1137.084, 51.57471
1138.175, 45.92969
1139.266, 113.3076
1140.357, 149.4019
1141.448, 176.5698
1142.538, 119.7178
1143.628, 195.4731
1144.719, 113.1221
1145.809, 207.8730
1146.898, 195.6323
1147.988, 90.58252
1149.078, 119.1362
1150.167, 284.1714
1151.256, 149.6348
1152.345, 284.4639
1153.434, 238.1709
1154.523, 299.2402
1155.612, 209.3169
1156.700, 230.9932
1157.788, 294.3252
1158.877, 286.6465
1159.964, 327.0840
1161.052, 381.3354
1162.140, 382.4888
1163.227, 404.8330
1164.315, 387.3677
1165.402, 412.9897
1166.489, 355.8184
1167.576, 358.2124
1168.663, 422.5679
1169.749, 447.2490
1170.836, 315.1587
1171.922, 340.2578
1173.008, 415.2422
1174.094, 334.9185
1175.180, 422.6753
1176.265, 420.1768
1177.351, 442.4985
1178.436, 450.6626
1179.521, 451.1855
1180.606, 514.4702
1181.691, 445.0854
1182.776, 490.5693
1183.860, 474.9224
1184.944, 535.1460
1186.029, 485.2402
1187.113, 507.2783
1188.197, 582.1123
1189.280, 572.8184
1190.364, 551.8203
1191.447, 514.2686
1192.531, 607.5850
1193.614, 569.7744
1194.697, 611.1060
1195.779, 636.0361
1196.862, 605.8882
1197.945, 642.7236
1199.027, 656.2695
1200.109, 601.9849
1201.191, 722.2725
1202.273, 579.4355
1203.355, 680.4678
1204.436, 638.3721
1205.518, 628.1475
1206.599, 650.7930
1207.680, 682.3096
1208.761, 772.6987
1209.842, 734.9639
1210.922, 769.3730
1212.003, 700.5664
1213.083, 662.4639
1214.163, 637.5986
1215.243, 747.2266
1216.323, 745.7290
1217.402, 661.6045
1218.482, 770.5938
1219.561, 687.6982
1220.641, 630.1587
1221.720, 733.7544
1222.798, 701.4780
1223.877, 723.7534
1224.956, 671.7476
1226.034, 664.1992
1227.112, 601.1489
1228.191, 578.3569
1229.269, 556.9980
1230.346, 551.7070
1231.424, 579.3545
1232.501, 604.1899
1233.579, 544.9531
1234.656, 481.4189
1235.733, 418.1504
1236.810, 502.1108
1237.886, 418.6562
1238.963, 377.4893
1240.039, 485.5273
1241.116, 465.8555
1242.192, 445.9478
1243.268, 410.5425
1244.343, 335.6226
1245.419, 396.5293
1246.494, 377.8540
1247.570, 324.1611
1248.645, 331.9028
1249.720, 356.0747
1250.795, 329.6411
1251.869, 355.3198
1252.944, 347.5859
1254.018, 327.8521
1255.093, 345.8018
1256.167, 329.9673
1257.240, 338.9131
1258.314, 340.4673
1259.388, 342.5107
1260.461, 377.3740
1261.535, 258.7383
1262.608, 302.0537
1263.681, 238.2417
1264.753, 286.1577
1265.826, 223.0146
1266.899, 317.5869
1267.971, 242.6338
1269.043, 316.0918
1270.115, 233.2456
1271.187, 210.8818
1272.259, 295.9238
1273.330, 288.4072
1274.402, 212.8369
1275.473, 183.2026
1276.544, 109.2012
1277.615, 166.1885
1278.686, 287.9893
1279.756, 126.7129
1280.827, 245.0283
1281.897, 247.5117
1282.967, 132.3008
1284.037, 103.6890
1285.107, 168.6880
1286.177, 220.8999
1287.247, 180.8560
1288.316, 153.5840
1289.385, 155.6250
1290.454, 67.23926
1291.523, 224.5146
1292.592, 193.8115
1293.661, 195.9106
1294.729, 118.0649
1295.797, 191.7173
1296.866, 170.2490
1297.934, 64.18164
1299.001, 332.1294
1300.069, 137.8350
1301.137, 131.7363
1302.204, 173.2256
1303.271, 119.4136
1304.338, 147.6675
1305.405, 157.4136
1306.472, 161.7368
1307.539, 171.0337
1308.605, 177.2427
1309.671, 196.6670
1310.737, 201.6421
1311.803, 216.8203
1312.869, 204.8604
1313.935, 220.7607
1315.000, 164.0259
1316.066, 216.9912
1317.131, 211.2002
1318.196, 72.89941
1319.261, 189.5664
1320.326, 255.2314
1321.390, 273.1641
1322.455, 98.90527
1323.519, 172.6465
1324.583, 147.0864
1325.647, 117.2646
1326.711, 225.8472
1327.775, 79.56494
1328.838, 185.6582
1329.902, 191.3940
1330.965, 242.5845
1332.028, 194.1958
1333.091, 176.4399
1334.153, 164.1318
1335.216, 232.6104
1336.279, 153.1719
1337.341, 188.2842
1338.403, 57.97021
1339.465, 76.71387
1340.527, 114.1626
