##NAMES=Gehlenite
##RRUFFID=R060841
##IDEAL CHEMISTRY=Ca_2_Al(SiAl)O_7_
##LOCALITY=Monzoni, Tyrol, Italy
##OWNER=RRUFF
##SOURCE=Michael Scott
##DESCRIPTION=Brown rectangular prism
##STATUS=The identification of this mineral has been confirmed by X-ray diffraction and chemical analysis
##URL=rruff.info/R060841
##MEASURED CHEMISTRY=(Ca_1.92_Na_0.07_K_0.01_)_Σ=2_(Al_0.62_Mg_0.25_Fe^2+^_0.13_)_Σ=1_(Si_1.46_Al_0.54_)O_7_ ; = lighter phase, and the darker phase is calcite
##PIN_ID=L01166
##ORIENTATION=Laser parallel to c* (0 0 1). Fiducial mark perpendicular to laser is parallel to b [0 1 0]
185.1460, 0.0000000E+00
186.3730, 76.62695
187.6000, 16.01367
188.8270, 147.8828
190.0530, 268.2617
191.2800, 414.4004
192.5060, 555.2637
193.7320, 664.4785
194.9580, 792.0723
196.1830, 870.5371
197.4090, 939.1328
198.6340, 1029.742
199.8590, 1085.711
201.0840, 1109.572
202.3090, 1079.541
203.5340, 1121.801
204.7580, 868.0820
205.9820, 743.1777
207.2060, 458.6953
208.4300, 594.3066
209.6540, 431.7500
210.8780, 611.0098
212.1010, 563.3398
213.3240, 642.0488
214.5470, 817.2168
215.7700, 900.4707
216.9930, 1268.404
218.2150, 1206.689
219.4380, 1518.053
220.6600, 1553.277
221.8820, 1806.180
223.1040, 2083.619
224.3260, 2464.484
225.5470, 2707.703
226.7680, 2829.213
227.9900, 2944.961
229.2110, 3343.906
230.4310, 3448.014
231.6520, 3579.260
232.8720, 3547.615
234.0930, 3642.256
235.3130, 3680.068
236.5330, 3644.553
237.7530, 3537.264
238.9720, 3361.109
240.1920, 3375.232
241.4110, 3288.242
242.6300, 3189.982
243.8490, 3088.342
245.0680, 2929.555
246.2860, 2891.691
247.5040, 2832.820
248.7230, 2616.996
249.9410, 2580.270
251.1590, 2453.691
252.3760, 2238.299
253.5940, 2145.137
254.8110, 1873.242
256.0280, 1914.646
257.2450, 1968.387
258.4620, 1889.506
259.6790, 2306.105
260.8950, 1914.121
262.1120, 2056.064
263.3280, 1424.529
264.5440, 1098.703
265.7600, 1054.615
266.9750, 978.2891
268.1910, 935.7422
269.4060, 899.9902
270.6210, 770.0527
271.8360, 946.9395
273.0510, 756.6602
274.2650, 770.2266
275.4800, 956.6445
276.6940, 826.9199
277.9080, 767.0605
279.1220, 855.0723
280.3360, 1008.957
281.5490, 1006.069
282.7630, 1073.820
283.9760, 1158.161
285.1890, 1114.141
286.4020, 1365.995
287.6150, 1195.920
288.8270, 1361.211
290.0400, 1495.865
291.2520, 1648.131
292.4640, 1853.242
293.6760, 1821.642
294.8870, 2087.461
296.0990, 2151.587
297.3100, 2343.685
298.5210, 2302.145
299.7320, 2449.637
300.9430, 2436.807
302.1540, 2398.314
303.3640, 2412.852
304.5750, 2425.420
305.7850, 2449.016
306.9950, 2398.638
308.2050, 2305.279
309.4140, 2148.932
310.6240, 2255.584
311.8330, 2027.220
313.0420, 2066.829
314.2510, 2080.396
315.4600, 1998.911
316.6680, 1956.373
317.8770, 1931.785
319.0850, 1863.149
320.2930, 1877.648
321.5010, 1865.577
322.7090, 1870.987
323.9160, 1891.191
325.1240, 1835.364
326.3310, 1849.506
327.5380, 1911.619
328.7450, 1786.709
329.9520, 1904.778
331.1580, 1931.657
332.3650, 1867.422
333.5710, 1886.747
334.7770, 1962.207
335.9830, 1928.266
337.1880, 2123.819
338.3940, 2039.794
339.5990, 1936.128
340.8040, 2178.773
342.0090, 2161.690
343.2140, 2186.845
344.4190, 2181.211
345.6230, 2018.766
346.8280, 2090.485
348.0320, 1996.350
349.2360, 1991.343
350.4400, 1991.452
351.6430, 2119.664
352.8470, 2084.966
354.0500, 1955.353
355.2530, 2080.812
356.4560, 1849.344
357.6590, 1780.932
358.8620, 1577.566
360.0640, 1585.241
361.2660, 1262.943
362.4680, 1458.666
363.6700, 990.4043
364.8720, 922.1523
366.0740, 881.9062
367.2750, 727.6641
368.4760, 626.4229
369.6770, 406.1807
370.8780, 475.9355
372.0790, 136.6855
373.2800, 140.4316
374.4800, 205.1719
375.6800, 257.9043
376.8800, 10.63086
378.0800, 133.3271
379.2800, 119.9873
380.4790, 85.37695
381.6790, 89.84082
382.8780, 199.3965
384.0770, 144.0859
385.2760, 76.90918
386.4750, 109.8604
387.6730, 174.9570
388.8720, 246.2148
390.0700, 401.6475
391.2680, 357.2891
392.4660, 311.1260
393.6630, 417.1387
394.8610, 316.3516
396.0580, 359.7363
397.2550, 438.2979
398.4520, 458.0527
399.6490, 442.0039
400.8460, 377.1426
402.0420, 615.4502
403.2390, 402.9824
404.4350, 501.6846
405.6310, 428.5781
406.8270, 262.6426
408.0220, 423.8301
409.2180, 381.1836
410.4130, 382.6904
411.6080, 377.3477
412.8030, 46.15234
413.9980, 113.0166
415.1920, 113.0449
416.3870, 218.5615
417.5810, 238.0957
418.7750, 432.0898
419.9690, 718.0635
421.1630, 856.0166
422.3570, 1016.952
423.5500, 1137.870
424.7430, 1287.011
425.9360, 1580.622
427.1290, 1529.375
428.3220, 1731.973
429.5150, 1775.604
430.7070, 2020.587
431.8990, 1928.585
433.0910, 1741.231
434.2830, 1777.545
435.4750, 1834.555
436.6670, 1704.191
437.8580, 1586.488
439.0490, 1591.389
440.2400, 1517.933
441.4310, 1481.023
442.6220, 1468.215
443.8130, 1419.056
445.0030, 1502.872
446.1930, 1478.729
447.3830, 1430.627
448.5730, 1266.564
449.7630, 1407.544
450.9520, 1577.564
452.1420, 1796.626
453.3310, 1583.729
454.5200, 1864.875
455.7090, 1808.062
456.8980, 1825.294
458.0860, 1999.567
459.2740, 2300.885
460.4630, 2338.247
461.6510, 2455.654
462.8380, 2542.108
464.0260, 2650.606
465.2140, 2764.152
466.4010, 2851.636
467.5880, 3054.386
468.7750, 3077.074
469.9620, 3136.812
471.1490, 3326.603
472.3350, 3360.095
473.5220, 3577.416
474.7080, 3587.502
475.8940, 3656.717
477.0800, 3867.059
478.2650, 3692.530
479.4510, 3913.873
480.6360, 3858.998
481.8210, 4060.986
483.0060, 3849.166
484.1910, 3663.436
485.3760, 3618.850
486.5600, 3491.440
487.7440, 3400.294
488.9290, 3284.377
490.1130, 3132.675
491.2960, 3170.179
492.4800, 3028.911
493.6630, 3038.717
494.8470, 2880.048
496.0300, 3011.442
497.2130, 2975.023
498.3960, 2885.789
499.5780, 2884.688
500.7610, 2819.754
501.9430, 3050.924
503.1250, 3011.212
504.3070, 3233.578
505.4890, 3227.004
506.6710, 3441.488
507.8520, 3651.989
509.0330, 3750.506
510.2140, 4156.037
511.3950, 4204.586
512.5760, 4602.147
513.7570, 4744.726
514.9370, 4904.318
516.1170, 4970.928
517.2980, 5120.553
518.4780, 5271.191
519.6570, 5437.289
520.8370, 5543.961
522.0160, 5383.080
523.1960, 5494.359
524.3750, 5341.353
525.5540, 5342.462
526.7320, 5468.041
527.9110, 5338.844
529.0890, 5078.588
530.2680, 5129.261
531.4460, 4735.480
532.6240, 4798.975
533.8010, 4545.285
534.9790, 4457.537
536.1560, 4384.183
537.3340, 4425.213
538.5110, 4151.260
539.6880, 3873.087
540.8650, 3692.429
542.0410, 3750.863
543.2180, 3676.460
544.3940, 3455.196
545.5700, 3389.373
546.7460, 3303.469
547.9220, 3104.270
549.0970, 3206.612
550.2730, 2931.971
551.4480, 2698.141
552.6230, 2692.359
553.7980, 2558.062
554.9730, 2395.695
556.1470, 2503.298
557.3210, 2533.994
558.4960, 2494.742
559.6700, 2627.541
560.8440, 2768.392
562.0170, 2747.295
563.1910, 2812.747
564.3640, 2862.754
565.5380, 2841.312
566.7110, 2828.422
567.8840, 2908.584
569.0560, 2662.799
570.2290, 2799.067
571.4010, 2725.391
572.5740, 2575.768
573.7460, 2681.203
574.9180, 2562.694
576.0890, 2789.246
577.2610, 2816.857
578.4320, 2882.531
579.6040, 2915.270
580.7750, 3062.072
581.9450, 3127.942
583.1160, 3445.880
584.2870, 3754.886
585.4570, 3910.965
586.6270, 4188.113
587.7980, 4526.330
588.9670, 5139.615
590.1370, 5898.973
591.3070, 6132.399
592.4760, 6959.224
593.6450, 8160.455
594.8140, 8479.089
595.9830, 9309.788
597.1520, 10383.56
598.3210, 11486.39
599.4890, 12783.30
600.6570, 14330.27
601.8250, 16251.30
602.9930, 17746.41
604.1610, 19923.58
605.3290, 21793.81
606.4960, 24192.11
607.6630, 26379.48
608.8300, 28488.91
609.9970, 30908.42
611.1640, 33112.45
612.3300, 35143.09
613.4970, 36495.46
614.6630, 37785.45
615.8290, 38143.89
616.9950, 38298.11
618.1610, 38147.93
619.3260, 37108.27
620.4920, 35974.73
621.6570, 34268.24
622.8220, 32569.62
623.9870, 31788.27
625.1520, 29883.64
626.3160, 27983.72
627.4810, 26983.70
628.6450, 25837.73
629.8090, 25099.23
630.9730, 24098.75
632.1370, 23040.40
633.3000, 22133.76
634.4640, 21243.06
635.6270, 20447.88
636.7900, 19533.10
637.9530, 19543.86
639.1160, 17976.89
640.2780, 17043.08
641.4410, 17112.17
642.6030, 16608.10
643.7650, 15919.72
644.9270, 16165.67
646.0890, 16567.84
647.2500, 17770.45
648.4120, 18841.17
649.5730, 20523.78
650.7340, 22620.39
651.8950, 24549.02
653.0560, 26738.64
654.2160, 28423.27
655.3770, 30083.90
656.5370, 31485.52
657.6970, 32355.15
658.8570, 32436.78
660.0170, 32229.43
661.1760, 31555.08
662.3360, 30347.80
663.4950, 29020.56
664.6540, 27365.36
665.8130, 25681.24
666.9720, 23770.20
668.1310, 21945.19
669.2890, 20406.24
670.4470, 18911.35
671.6050, 17218.56
672.7630, 15985.90
673.9210, 14951.36
675.0790, 13510.92
676.2360, 12886.61
677.3930, 11829.41
678.5510, 10980.33
679.7080, 10101.39
680.8640, 9428.587
682.0210, 8806.922
683.1770, 8256.379
684.3340, 7635.018
685.4900, 7336.785
686.6460, 6763.701
687.8020, 6748.749
688.9570, 6157.886
690.1130, 5905.152
691.2680, 5573.535
692.4230, 5309.035
693.5780, 5299.650
694.7330, 4684.293
695.8880, 4857.982
697.0420, 4629.662
698.1960, 4373.338
699.3510, 4362.004
700.5040, 4008.664
701.6580, 3851.317
702.8120, 3681.963
703.9650, 3578.600
705.1190, 3380.011
706.2720, 3131.854
707.4250, 3008.468
708.5780, 2863.074
709.7300, 2663.672
710.8830, 2579.261
712.0350, 2448.842
713.1870, 2319.415
714.3390, 2042.978
715.4910, 2030.531
716.6430, 1768.075
717.7940, 1861.608
718.9460, 1778.132
720.0970, 1869.644
721.2480, 2030.145
722.3990, 1984.634
723.5500, 2179.110
724.7000, 2299.575
725.8500, 2232.029
727.0010, 2389.468
728.1510, 2543.895
729.3010, 2675.307
730.4500, 2586.704
731.6000, 2556.088
732.7490, 2479.457
733.8980, 2437.812
735.0470, 2093.150
736.1960, 2109.475
737.3450, 1833.782
738.4940, 1716.074
739.6420, 1358.351
740.7900, 1147.608
741.9380, 936.8496
743.0860, 659.0732
744.2340, 404.2793
745.3810, 500.4668
746.5290, 284.6357
747.6760, 218.7852
748.8230, 113.9141
749.9700, 64.01465
751.1170, 118.9287
752.2630, 189.0146
753.4100, 224.2812
754.5560, 217.7480
755.7020, 255.4141
756.8480, 420.3008
757.9940, 450.4951
759.1390, 401.0137
760.2850, 507.8350
761.4300, 127.0137
762.5750, 327.3506
763.7200, 463.9541
764.8650, 778.8955
766.0100, 666.3408
767.1540, 608.2324
768.2980, 575.5410
769.4420, 656.2490
770.5860, 650.3994
771.7300, 648.9902
772.8740, 609.0195
774.0170, 503.4668
775.1610, 496.2773
776.3040, 309.4453
777.4470, 439.8740
778.5900, 199.6318
779.7320, 245.5908
780.8750, 97.77539
782.0170, 40.10742
783.1590, 28.55469
784.3010, 321.8867
785.4430, 270.3047
786.5850, 519.6992
787.7260, 719.0693
788.8680, 785.4180
790.0090, 1166.743
791.1500, 1333.046
792.2910, 1407.328
793.4310, 1821.588
794.5720, 2095.825
795.7120, 2425.041
796.8520, 2554.235
797.9920, 2901.408
799.1320, 3003.560
800.2720, 3219.689
801.4120, 3591.800
802.5510, 3560.887
803.6900, 3740.952
804.8290, 3793.996
805.9680, 3903.019
807.1070, 3914.019
808.2450, 3907.994
809.3840, 4090.949
810.5220, 4039.883
811.6600, 4180.791
812.7980, 4249.676
813.9360, 4226.537
815.0730, 4405.373
816.2110, 4314.186
817.3480, 4468.973
818.4850, 4690.734
819.6220, 4634.471
820.7590, 4616.178
821.8960, 4842.861
823.0320, 4929.515
824.1680, 4981.148
825.3040, 5117.756
826.4400, 5291.354
827.5760, 5438.939
828.7120, 5625.883
829.8470, 5806.344
830.9830, 6020.684
832.1180, 6250.246
833.2530, 6476.844
834.3880, 6836.456
835.5220, 7261.069
836.6570, 7497.458
837.7910, 7763.330
838.9250, 7987.977
840.0590, 8555.643
841.1930, 8636.367
842.3270, 9198.142
843.4600, 9424.910
844.5940, 9758.712
845.7270, 9982.543
846.8600, 10270.37
847.9930, 10851.21
849.1250, 11157.01
850.2580, 11360.85
851.3900, 11702.67
852.5230, 11807.50
853.6550, 12058.31
854.7870, 12512.10
855.9180, 12535.87
857.0500, 12871.64
858.1810, 12971.39
859.3130, 13340.13
860.4440, 13219.86
861.5750, 13433.55
862.7050, 13361.23
863.8360, 13520.91
864.9660, 13467.59
866.0970, 13510.29
867.2270, 13372.02
868.3570, 13264.74
869.4870, 13095.48
870.6160, 12990.23
871.7460, 12847.97
872.8750, 12489.71
874.0040, 12638.44
875.1330, 12334.15
876.2620, 12206.84
877.3910, 12223.54
878.5190, 12192.21
879.6470, 12209.87
880.7760, 12377.51
881.9040, 12716.14
883.0310, 12969.75
884.1590, 13701.34
885.2870, 13914.46
886.4140, 14613.02
887.5410, 15231.91
888.6680, 15807.22
889.7950, 16379.17
890.9220, 16999.37
892.0480, 17606.06
893.1750, 18118.26
894.3010, 18733.42
895.4270, 19630.56
896.5530, 20478.85
897.6790, 21494.94
898.8040, 22698.34
899.9300, 23651.06
901.0550, 24649.92
902.1800, 25656.79
903.3050, 26384.23
904.4300, 27114.69
905.5540, 27590.05
906.6790, 27525.76
907.8030, 27604.56
908.9270, 27036.89
910.0510, 26453.87
911.1750, 25711.35
912.2990, 25275.62
913.4220, 24421.77
914.5450, 23642.06
915.6690, 23672.55
916.7920, 23066.39
917.9140, 21898.94
919.0370, 21730.15
920.1600, 21389.29
921.2820, 20825.17
922.4040, 21158.21
923.5260, 21114.29
924.6480, 20746.39
925.7700, 21350.54
926.8910, 21284.73
928.0130, 20815.96
929.1340, 20677.22
930.2550, 20483.53
931.3760, 19821.86
932.4970, 19458.23
933.6170, 18386.65
934.7380, 17639.10
935.8580, 16749.58
936.9780, 15944.11
938.0980, 15038.67
939.2180, 14140.27
940.3370, 13392.90
941.4570, 12658.57
942.5760, 12024.29
943.6950, 11416.04
944.8140, 10884.15
945.9330, 10417.65
947.0520, 9983.510
948.1700, 9676.947
949.2890, 9350.668
950.4070, 9153.323
951.5250, 8974.337
952.6430, 8766.387
953.7600, 8534.686
954.8780, 8411.596
955.9950, 8048.754
957.1120, 7890.950
958.2290, 7656.121
959.3460, 7350.911
960.4630, 6979.804
961.5800, 6799.193
962.6960, 6523.391
963.8120, 6235.488
964.9280, 6110.266
966.0440, 5888.738
967.1600, 5745.059
968.2760, 5442.676
969.3910, 5432.436
970.5060, 5196.623
971.6210, 5161.123
972.7360, 5007.783
973.8510, 5152.334
974.9660, 4873.511
976.0800, 5069.167
977.1950, 4660.717
978.3090, 4589.599
979.4230, 4452.840
980.5370, 4324.529
981.6500, 4214.045
982.7640, 4120.332
983.8770, 4019.450
984.9900, 4095.986
986.1030, 3829.129
987.2160, 3613.967
988.3290, 3487.477
989.4420, 3600.209
990.5540, 3402.234
991.6660, 3288.085
992.7780, 3032.455
993.8900, 3033.949
995.0020, 2830.322
996.1140, 2742.796
997.2250, 2711.046
998.3360, 2637.831
999.4470, 2411.870
1000.558, 2455.579
1001.669, 2190.497
1002.780, 2263.484
1003.890, 2139.449
1005.001, 1951.824
1006.111, 1843.629
1007.221, 1779.741
1008.331, 1617.128
1009.440, 1747.143
1010.550, 1645.714
1011.659, 1672.796
1012.768, 1496.832
1013.877, 1567.858
1014.986, 1457.164
1016.095, 1508.438
1017.204, 1401.245
1018.312, 1361.662
1019.420, 1249.698
1020.528, 1260.701
1021.636, 1183.632
1022.744, 1153.039
1023.852, 1117.037
1024.959, 1075.548
1026.066, 1056.308
1027.173, 1013.664
1028.280, 945.7520
1029.387, 913.4971
1030.494, 969.3379
1031.600, 1017.308
1032.707, 848.6797
1033.813, 1010.438
1034.919, 967.7793
1036.025, 869.5996
1037.130, 1012.575
1038.236, 872.3740
1039.341, 889.5557
1040.446, 1217.496
1041.552, 1056.604
1042.656, 952.9316
1043.761, 795.7012
1044.866, 980.2227
1045.970, 800.1572
1047.074, 1025.188
1048.179, 866.8945
1049.282, 857.0254
1050.386, 740.7988
1051.490, 680.6865
1052.593, 670.5527
1053.697, 687.2598
1054.800, 570.2451
1055.903, 518.3154
1057.006, 614.4980
1058.108, 560.4688
1059.211, 581.9648
1060.313, 520.8711
1061.415, 447.1787
1062.517, 376.5137
1063.619, 480.4248
1064.721, 552.5371
1065.823, 449.7471
1066.924, 479.8818
1068.025, 399.9248
1069.126, 354.3145
1070.227, 447.1250
1071.328, 346.1523
1072.429, 195.4736
1073.529, 320.3008
1074.629, 434.8418
1075.729, 165.7783
1076.829, 297.8262
1077.929, 277.5664
1079.029, 354.8213
1080.128, 489.0312
1081.228, 320.4131
1082.327, 430.1748
1083.426, 443.1201
1084.525, 321.7783
1085.623, 442.4326
1086.722, 332.2393
1087.820, 351.8486
1088.919, 164.4668
1090.017, 40.95996
1091.115, 24.30469
1092.212, 100.4180
1093.310, 87.06836
1094.407, 158.6611
1095.505, 36.88574
1096.602, 167.4932
1097.699, 76.02441
1098.795, 245.6680
1099.892, 189.2500
1100.989, 121.2842
1102.085, 220.3340
1103.181, 41.35449
1104.277, 205.2891
1105.373, 184.3818
1106.469, 318.6582
1107.564, 307.2725
1108.660, 63.57715
1109.755, 225.2295
1110.850, 212.1611
1111.945, 57.16211
1113.040, 131.2969
1114.134, 27.46484
1115.229, 164.9102
1116.323, 46.21387
1117.417, 114.5645
1118.511, 6.782227
1119.605, 27.82129
1120.698, 4.663086
1121.792, 54.63965
1122.885, 17.46191
1123.978, 23.19727
1125.071, 83.78223
1126.164, 122.9053
1127.257, 17.45312
1128.349, 27.36523
1129.442, 81.25098
1130.534, 98.84766
1131.626, 123.1338
1132.718, 44.52441
1133.810, 138.9707
1134.901, 40.85254
1135.993, 19.26367
1137.084, 49.96777
1138.175, 4.994141
1139.266, 51.82910
1140.357, 85.37500
1141.448, 37.88477
1142.538, 87.19238
1143.628, 23.80566
1144.719, 117.2871
1145.809, 45.06250
1146.898, 49.02832
1147.988, 38.91406
1149.078, 38.76074
1150.167, 29.22266
1151.256, 22.39941
1152.345, 27.03906
1153.434, 4.819336
1154.523, 14.96289
1155.612, 3.429688
1156.700, 34.34570
1157.788, 63.65820
1158.877, 135.5996
1159.964, 253.3545
1161.052, 275.9619
1162.140, 267.7383
1163.227, 206.2207
1164.315, 157.7666
1165.402, 126.1670
1166.489, 115.0840
1167.576, 276.3193
1168.663, 148.3623
1169.749, 137.2705
1170.836, 205.3271
1171.922, 117.3613
1173.008, 119.1416
1174.094, 111.0000
1175.180, 44.78906
1176.265, 195.5186
1177.351, 213.2539
1178.436, 315.9395
1179.521, 242.0723
1180.606, 545.4492
1181.691, 332.4434
1182.776, 357.7539
1183.860, 179.6123
1184.944, 328.3945
1186.029, 310.1064
1187.113, 285.8750
1188.197, 169.4443
1189.280, 216.4736
1190.364, 357.8887
1191.447, 263.4424
1192.531, 259.0000
1193.614, 361.1963
1194.697, 314.0381
1195.779, 291.5547
1196.862, 310.8848
1197.945, 332.7920
1199.027, 250.5781
1200.109, 432.4668
1201.191, 337.1543
1202.273, 267.1475
1203.355, 384.8457
1204.436, 230.3838
1205.518, 357.7715
1206.599, 330.0850
1207.680, 422.5293
1208.761, 278.6982
1209.842, 288.1045
1210.922, 251.1279
1212.003, 392.0732
1213.083, 345.9453
1214.163, 438.7451
1215.243, 411.4717
1216.323, 372.1250
1217.402, 460.7051
1218.482, 412.2119
1219.561, 467.6465
1220.641, 393.1885
1221.720, 331.9561
1222.798, 236.5830
1223.877, 416.6738
1224.956, 301.3535
1226.034, 384.2393
1227.112, 335.8389
1228.191, 347.7051
1229.269, 286.8760
1230.346, 358.3311
1231.424, 337.8027
1232.501, 286.8096
1233.579, 254.4639
1234.656, 250.3828
1235.733, 255.4688
1236.810, 213.3408
1237.886, 193.6953
1238.963, 200.0723
1240.039, 218.1748
1241.116, 187.8320
1242.192, 201.1318
1243.268, 192.4844
1244.343, 217.8125
1245.419, 160.5938
1246.494, 152.6182
1247.570, 193.1494
1248.645, 255.9473
1249.720, 134.0361
1250.795, 237.8691
1251.869, 178.3691
1252.944, 141.0078
1254.018, 190.0889
1255.093, 148.0439
1256.167, 273.0469
1257.240, 128.9141
1258.314, 105.9658
1259.388, 186.4453
1260.461, 167.6338
1261.535, 133.1162
1262.608, 103.3516
1263.681, 163.4805
1264.753, 137.5947
1265.826, 233.2637
1266.899, 127.4668
1267.971, 142.3252
1269.043, 252.8740
1270.115, 13.83301
1271.187, 45.11914
1272.259, 130.8574
1273.330, 10.60254
1274.402, 63.32031
1275.473, 10.71973
1276.544, 98.11035
1277.615, 28.92969
1278.686, 72.58301
1279.756, 178.6230
1280.827, 172.1533
1281.897, 175.8408
1282.967, 168.9814
1284.037, 105.6416
1285.107, 58.45703
1286.177, 4.864258
1287.247, 8.612305
1288.316, 54.29102
1289.385, 76.64062
1290.454, 59.56348
1291.523, 44.30957
1292.592, 51.27637
1293.661, 71.97949
1294.729, 128.3027
1295.797, 121.3252
1296.866, 109.8320
1297.934, 125.8232
1299.001, 72.85059
1300.069, 62.40820
1301.137, 103.9688
1302.204, 65.64355
1303.271, 61.66113
1304.338, 47.22949
1305.405, 28.46387
1306.472, 22.71680
1307.539, 210.3438
1308.605, 61.61035
1309.671, 165.2568
1310.737, 42.79785
1311.803, 226.3662
1312.869, 198.0566
1313.935, 150.4326
1315.000, 99.70605
1316.066, 175.8057
1317.131, 6.074219
1318.196, 188.7764
1319.261, 75.02832
1320.326, 55.83887
1321.390, 128.5820
1322.455, 203.7090
1323.519, 77.59082
1324.583, 35.33496
1325.647, 191.1143
1326.711, 174.9414
1327.775, 95.38184
1328.838, 193.3604
1329.902, 22.08008
1330.965, 73.46582
1332.028, 93.30273
1333.091, 161.3848
1334.153, 133.0303
1335.216, 57.52148
1336.279, 205.2773
1337.341, 30.57617
1338.403, 187.2568
1339.465, 194.2441
1340.527, 101.8105
1341.588, 171.1484
1342.650, 299.7314
1343.711, 180.2764
1344.772, 365.6240
1345.834, 229.2959
1346.894, 171.5752
1347.955, 62.02441
1349.016, 136.3418
1350.076, 173.3799
