##NAMES=Gehlenite
##RRUFFID=R060841
##IDEAL CHEMISTRY=Ca_2_Al(SiAl)O_7_
##LOCALITY=Monzoni, Tyrol, Italy
##OWNER=RRUFF
##SOURCE=Michael Scott
##DESCRIPTION=Brown rectangular prism
##STATUS=The identification of this mineral has been confirmed by X-ray diffraction and chemical analysis
##URL=rruff.info/R060841
##MEASURED CHEMISTRY=(Ca_1.92_Na_0.07_K_0.01_)_Σ=2_(Al_0.62_Mg_0.25_Fe^2+^_0.13_)_Σ=1_(Si_1.46_Al_0.54_)O_7_ ; = lighter phase, and the darker phase is calcite
##PIN_ID=L01166
##ORIENTATION=Laser parallel to c* (0 0 1). Fiducial mark perpendicular to laser is parallel to b [0 1 0]
169.1790, 0.0000000E+00
170.4080, 251.9834
171.6380, 260.9766
172.8670, 100.2236
174.0950, 19.90039
175.3240, 16.94922
176.5520, 49.39355
177.7810, 100.8672
179.0090, 7.501953
180.2370, 158.3926
181.4640, 173.7207
182.6920, 385.8311
183.9190, 306.4180
185.1460, 396.3389
186.3730, 840.3232
187.6000, 826.9990
188.8270, 1069.983
190.0530, 1177.928
191.2800, 1299.531
192.5060, 1310.537
193.7320, 1654.732
194.9580, 1805.068
196.1830, 1764.903
197.4090, 1842.609
198.6340, 2134.354
199.8590, 2049.003
201.0840, 2384.151
202.3090, 2429.436
203.5340, 2284.566
204.7580, 2241.305
205.9820, 2055.459
207.2060, 1981.895
208.4300, 1958.518
209.6540, 2010.257
210.8780, 2003.058
212.1010, 2114.955
213.3240, 2349.672
214.5470, 2363.418
215.7700, 2684.090
216.9930, 2831.696
218.2150, 2908.278
219.4380, 3153.465
220.6600, 3358.059
221.8820, 3707.033
223.1040, 4125.256
224.3260, 4391.510
225.5470, 4745.202
226.7680, 4894.919
227.9900, 5402.158
229.2110, 5553.199
230.4310, 5678.895
231.6520, 6015.217
232.8720, 6126.240
234.0930, 6172.025
235.3130, 5972.639
236.5330, 6174.133
237.7530, 6037.557
238.9720, 5802.960
240.1920, 5842.389
241.4110, 5523.885
242.6300, 5523.572
243.8490, 5294.725
245.0680, 5093.340
246.2860, 4858.456
247.5040, 4681.619
248.7230, 4508.577
249.9410, 4348.319
251.1590, 4218.865
252.3760, 4100.074
253.5940, 4000.962
254.8110, 3854.542
256.0280, 3732.828
257.2450, 3535.570
258.4620, 3514.477
259.6790, 3452.508
260.8950, 3351.932
262.1120, 3097.420
263.3280, 3041.274
264.5440, 2906.491
265.7600, 2884.000
266.9750, 2855.023
268.1910, 2747.716
269.4060, 2772.597
270.6210, 2758.958
271.8360, 2819.524
273.0510, 2868.828
274.2650, 2919.200
275.4800, 3099.927
276.6940, 3254.330
277.9080, 3435.158
279.1220, 3473.666
280.3360, 3663.513
281.5490, 3725.530
282.7630, 3680.752
283.9760, 3664.940
285.1890, 3713.239
286.4020, 3949.248
287.6150, 4056.057
288.8270, 4116.630
290.0400, 4119.830
291.2520, 4232.473
292.4640, 4122.696
293.6760, 4298.869
294.8870, 4226.977
296.0990, 4282.005
297.3100, 4407.943
298.5210, 4318.779
299.7320, 4430.502
300.9430, 4255.103
302.1540, 4373.579
303.3640, 4152.934
304.5750, 4209.172
305.7850, 4241.297
306.9950, 4029.312
308.2050, 3972.425
309.4140, 3953.035
310.6240, 3671.750
311.8330, 3405.373
313.0420, 3315.905
314.2510, 3067.354
315.4600, 2828.697
316.6680, 2751.584
317.8770, 2661.983
319.0850, 2348.607
320.2930, 2405.258
321.5010, 2244.021
322.7090, 2235.436
323.9160, 2166.031
325.1240, 2028.775
326.3310, 2007.645
327.5380, 1989.619
328.7450, 1883.678
329.9520, 1765.804
331.1580, 1652.982
332.3650, 1672.199
333.5710, 1681.440
334.7770, 1729.696
335.9830, 1494.956
337.1880, 1563.213
338.3940, 1617.461
339.5990, 1469.693
340.8040, 1185.906
342.0090, 1238.093
343.2140, 1281.246
344.4190, 1287.354
345.6230, 1253.411
346.8280, 1119.409
348.0320, 1045.345
349.2360, 1038.216
350.4400, 1035.019
351.6430, 945.0420
352.8470, 796.4160
354.0500, 779.0098
355.2530, 661.5361
356.4560, 547.9912
357.6590, 480.3789
358.8620, 470.6953
360.0640, 606.9434
361.2660, 412.1260
362.4680, 379.2412
363.6700, 304.2891
364.8720, 171.2627
366.0740, 169.1465
367.2750, 58.30371
368.4760, 135.4365
369.6770, 83.99707
370.8780, 191.7578
372.0790, 231.7529
373.2800, 244.0020
374.4800, 283.0938
375.6800, 369.2656
376.8800, 308.3027
378.0800, 329.5918
379.2800, 371.1328
380.4790, 324.9287
381.6790, 348.9648
382.8780, 387.2422
384.0770, 378.7617
385.2760, 407.5596
386.4750, 291.5176
387.6730, 428.7197
388.8720, 350.1592
390.0700, 333.8125
391.2680, 512.6729
392.4660, 254.7822
393.6630, 346.0723
394.8610, 345.5625
396.0580, 301.2520
397.2550, 359.1240
398.4520, 324.1953
399.6490, 394.4492
400.8460, 329.3857
402.0420, 186.5439
403.2390, 210.3242
404.4350, 19.74902
405.6310, 87.74023
406.8270, 90.66309
408.0220, 193.5186
409.2180, 203.3076
410.4130, 298.0332
411.6080, 522.6875
412.8030, 590.2529
413.9980, 709.6045
415.1920, 943.6768
416.3870, 1101.402
417.5810, 1357.729
418.7750, 1712.672
419.9690, 1844.223
421.1630, 2001.380
422.3570, 2350.138
423.5500, 2474.531
424.7430, 2725.584
425.9360, 3043.281
427.1290, 3335.659
428.3220, 3344.740
429.5150, 3349.517
430.7070, 3358.064
431.8990, 3568.499
433.0910, 3548.931
434.2830, 3598.373
435.4750, 3493.834
436.6670, 3367.316
437.8580, 3143.820
439.0490, 3218.349
440.2400, 3049.899
441.4310, 3045.475
442.6220, 3077.077
443.8130, 2871.705
445.0030, 2998.360
446.1930, 2940.045
447.3830, 2859.760
448.5730, 2858.503
449.7630, 2840.729
450.9520, 2881.088
452.1420, 2904.930
453.3310, 2916.805
454.5200, 3034.715
455.7090, 3428.661
456.8980, 3391.144
458.0860, 3494.044
459.2740, 3581.681
460.4630, 3551.694
461.6510, 3701.709
462.8380, 3873.725
464.0260, 3941.748
465.2140, 4135.770
466.4010, 4292.792
467.5880, 4725.809
468.7750, 4653.611
469.9620, 5036.832
471.1490, 4772.838
472.3350, 4586.840
473.5220, 4935.842
474.7080, 4844.838
475.8940, 4927.840
477.0800, 5086.861
478.2650, 5082.934
479.4510, 5123.062
480.6360, 4954.277
481.8210, 4835.574
483.0060, 4642.949
484.1910, 4505.452
485.3760, 4323.059
486.5600, 4879.799
487.7440, 5119.687
488.9290, 4424.762
490.1130, 3424.023
491.2960, 3660.496
492.4800, 3070.244
493.6630, 3083.026
494.8470, 2712.082
496.0300, 2521.324
497.2130, 2355.766
498.3960, 2235.387
499.5780, 2276.061
500.7610, 2169.642
501.9430, 2205.352
503.1250, 2218.664
504.3070, 2135.481
505.4890, 2304.290
506.6710, 2200.744
507.8520, 2212.812
509.0330, 2398.949
510.2140, 2608.977
511.3950, 2624.243
512.5760, 2924.835
513.7570, 2920.762
514.9370, 3153.285
516.1170, 3391.153
517.2980, 3259.689
518.4780, 3304.945
519.6570, 3230.162
520.8370, 3187.188
522.0160, 3243.757
523.1960, 3267.383
524.3750, 3063.668
525.5540, 2891.723
526.7320, 2805.489
527.9110, 2761.637
529.0890, 2443.261
530.2680, 2436.473
531.4460, 2082.825
532.6240, 2248.416
533.8010, 2041.999
534.9790, 1968.998
536.1560, 2175.498
537.3340, 1966.271
538.5110, 1748.068
539.6880, 1898.482
540.8650, 1877.345
542.0410, 1825.060
543.2180, 1989.123
544.3940, 1713.426
545.5700, 1702.513
546.7460, 1629.319
547.9220, 1738.732
549.0970, 1867.332
550.2730, 1769.840
551.4480, 1796.487
552.6230, 1856.630
553.7980, 1885.158
554.9730, 1965.754
556.1470, 2128.420
557.3210, 2340.158
558.4960, 2307.971
559.6700, 2554.857
560.8440, 2944.822
562.0170, 2833.865
563.1910, 2774.990
564.3640, 3089.197
565.5380, 3060.491
566.7110, 3238.870
567.8840, 3106.336
569.0560, 3268.895
570.2290, 3300.542
571.4010, 3147.281
572.5740, 3219.117
573.7460, 3255.048
574.9180, 3234.072
576.0890, 3334.192
577.2610, 3532.406
578.4320, 3471.716
579.6040, 3632.121
580.7750, 3939.620
581.9450, 4401.215
583.1160, 4354.902
584.2870, 4560.689
585.4570, 5031.570
586.6270, 5594.545
587.7980, 6021.615
588.9670, 6568.821
590.1370, 7245.042
591.3070, 7948.218
592.4760, 8685.848
593.6450, 9641.393
594.8140, 10612.04
595.9830, 11770.24
597.1520, 12952.60
598.3210, 14440.52
599.4890, 16000.54
600.6570, 17673.66
601.8250, 19730.87
602.9930, 21952.17
604.1610, 24610.57
605.3290, 27104.06
606.4960, 29829.65
607.6630, 32929.33
608.8300, 35658.11
609.9970, 38700.98
611.1640, 41436.96
612.3300, 44507.02
613.4970, 46409.18
614.6630, 48085.43
615.8290, 48814.05
616.9950, 48664.50
618.1610, 48227.46
619.3260, 46731.28
620.4920, 45208.95
621.6570, 43007.03
622.8220, 40895.68
623.9870, 39148.91
625.1520, 37179.16
626.3160, 35584.56
627.4810, 33719.58
628.6450, 32595.10
629.8090, 31393.71
630.9730, 30093.25
632.1370, 29116.17
633.3000, 27917.43
634.4640, 26617.72
635.6270, 25654.67
636.7900, 24468.31
637.9530, 23356.12
639.1160, 22270.30
640.2780, 21356.33
641.4410, 20536.48
642.6030, 19894.86
643.7650, 19412.10
644.9270, 19547.02
646.0890, 20240.37
647.2500, 21402.62
648.4120, 22913.00
649.5730, 24760.47
650.7340, 27550.02
651.8950, 30374.68
653.0560, 33308.47
654.2160, 36167.39
655.3770, 38320.46
656.5370, 40363.68
657.6970, 41714.07
658.8570, 41734.62
660.0170, 41201.37
661.1760, 40345.28
662.3360, 38769.38
663.4950, 37123.62
664.6540, 34580.06
665.8130, 33809.68
666.9720, 30237.49
668.1310, 27468.48
669.2890, 25488.63
670.4470, 23514.97
671.6050, 21366.48
672.7630, 19835.16
673.9210, 18288.05
675.0790, 16578.08
676.2360, 15290.28
677.3930, 13895.65
678.5510, 13139.16
679.7080, 11914.85
680.8640, 11223.69
682.0210, 10522.70
683.1770, 9753.869
684.3340, 9187.153
685.4900, 8466.560
686.6460, 8045.025
687.8020, 7452.537
688.9570, 7064.096
690.1130, 6795.695
691.2680, 6291.332
692.4230, 6024.008
693.5780, 5798.498
694.7330, 5561.945
695.8880, 5523.245
697.0420, 5296.062
698.1960, 5340.913
699.3510, 5245.801
700.5040, 4952.720
701.6580, 4860.675
702.8120, 4666.663
703.9650, 4509.688
705.1190, 4398.743
706.2720, 4330.835
707.4250, 4015.958
708.5780, 3956.113
709.7300, 3756.304
710.8830, 3457.525
712.0350, 3464.777
713.1870, 3197.062
714.3390, 2948.379
715.4910, 2899.727
716.6430, 2774.104
717.7940, 2716.513
718.9460, 2696.951
720.0970, 2690.418
721.2480, 2833.915
722.3990, 3047.440
723.5500, 3100.994
724.7000, 3550.573
725.8500, 3513.182
727.0010, 3685.816
728.1510, 3691.477
729.3010, 3796.162
730.4500, 3900.875
731.6000, 3815.610
732.7490, 3863.371
733.8980, 3622.156
735.0470, 3360.965
736.1960, 3151.795
737.3450, 2897.648
738.4940, 2602.524
739.6420, 2227.423
740.7900, 2025.341
741.9380, 1730.280
743.0860, 1512.240
744.2340, 1196.221
745.3810, 1002.222
746.5290, 753.2402
747.6760, 588.2773
748.8230, 548.3320
749.9700, 390.4053
751.1170, 293.4951
752.2630, 211.6016
753.4100, 30.72461
754.5560, 25.15723
755.7020, 138.0693
756.8480, 164.0713
757.9940, 268.1777
759.1390, 253.4463
760.2850, 225.8711
761.4300, 405.4395
762.5750, 321.2480
763.7200, 430.2559
764.8650, 468.5205
766.0100, 615.0664
767.1540, 612.4404
768.2980, 703.2324
769.4420, 625.9043
770.5860, 627.9443
771.7300, 625.3584
772.8740, 585.1035
774.0170, 625.2803
775.1610, 561.7920
776.3040, 533.6455
777.4470, 560.8252
778.5900, 481.3496
779.7320, 499.1738
780.8750, 495.3105
782.0170, 313.7578
783.1590, 287.4199
784.3010, 125.4629
785.4430, 110.2627
786.5850, 181.6484
787.7260, 410.5664
788.8680, 536.4922
790.0090, 736.4229
791.1500, 930.2188
792.2910, 1119.300
793.4310, 1293.247
794.5720, 1644.198
795.7120, 1779.153
796.8520, 2042.111
797.9920, 2239.071
799.1320, 2435.033
800.2720, 2481.996
801.4120, 2548.959
802.5510, 2521.923
803.6900, 2538.635
804.8290, 2524.313
805.9680, 2502.803
807.1070, 2443.758
808.2450, 2421.710
809.3840, 2392.488
810.5220, 2344.600
811.6600, 2345.538
812.7980, 2286.469
813.9360, 2263.394
815.0730, 2293.311
816.2110, 2380.221
817.3480, 2348.122
818.4850, 2216.013
819.6220, 2378.896
820.7590, 2232.769
821.8960, 2240.631
823.0320, 2423.481
824.1680, 2473.320
825.3040, 2506.148
826.4400, 2567.995
827.5760, 2649.857
828.7120, 2847.762
829.8470, 2996.326
830.9830, 3152.664
832.1180, 3412.683
833.2530, 3539.749
834.3880, 3747.849
835.5220, 4049.969
836.6570, 4335.131
837.7910, 4468.348
838.9250, 4639.635
840.0590, 4943.961
841.1930, 5231.316
842.3270, 5512.711
843.4600, 5724.107
844.5940, 5823.541
845.7270, 5871.033
846.8600, 5886.559
847.9930, 6281.100
849.1250, 6500.693
850.2580, 6485.315
851.3900, 6622.939
852.5230, 6861.596
853.6550, 6872.258
854.7870, 6996.920
855.9180, 7016.585
857.0500, 7168.200
858.1810, 7337.907
859.3130, 7434.564
860.4440, 7523.209
861.5750, 7560.871
862.7050, 7589.527
863.8360, 7670.355
864.9660, 7870.863
866.0970, 7800.529
867.2270, 7918.183
868.3570, 7983.826
869.4870, 7857.467
870.6160, 7689.137
871.7460, 7580.810
872.8750, 7535.475
874.0040, 7725.129
875.1330, 7791.800
876.2620, 7994.474
877.3910, 8268.862
878.5190, 8563.769
879.6470, 8962.520
880.7760, 9441.210
881.9040, 9959.896
883.0310, 10668.58
884.1590, 11517.24
885.2870, 12566.90
886.4140, 13554.55
887.5410, 14505.18
888.6680, 15381.81
889.7950, 16550.14
890.9220, 19430.75
892.0480, 22006.92
893.1750, 23677.32
894.3010, 20151.93
895.4270, 21277.25
896.5530, 22565.06
897.6790, 23860.37
898.8040, 25466.76
899.9300, 26913.11
901.0550, 28478.85
902.1800, 30068.21
903.3050, 31538.57
904.4300, 31773.08
905.5540, 32398.29
906.6790, 32740.25
907.8030, 32359.25
908.9270, 31894.68
910.0510, 31271.50
911.1750, 30685.23
912.2990, 29701.67
913.4220, 28883.36
914.5450, 28149.99
915.6690, 27046.49
916.7920, 26358.22
917.9140, 25700.33
919.0370, 25282.11
920.1600, 25160.07
921.2820, 24550.00
922.4040, 24698.94
923.5260, 24784.91
924.6480, 24821.92
925.7700, 24887.97
926.8910, 24613.05
928.0130, 24774.18
929.1340, 24484.33
930.2550, 23931.52
931.3760, 23361.75
932.4970, 22593.02
933.6170, 21718.32
934.7380, 20380.65
935.8580, 19530.02
936.9780, 18021.42
938.0980, 17349.87
939.2180, 16009.34
940.3370, 14904.85
941.4570, 13886.40
942.5760, 13056.99
943.6950, 12420.60
944.8140, 11766.26
945.9330, 11382.95
947.0520, 10798.67
948.1700, 10433.44
949.2890, 9962.229
950.4070, 9855.059
951.5250, 9648.920
952.6430, 9327.819
953.7600, 9162.753
954.8780, 9048.720
955.9950, 8623.720
957.1120, 8485.752
958.2290, 7945.820
959.3460, 7698.924
960.4630, 7165.936
961.5800, 7017.728
962.6960, 6604.604
963.8120, 6244.717
964.9280, 5892.459
966.0440, 5513.788
967.1600, 5281.348
968.2760, 5005.429
969.3910, 4845.570
970.5060, 4641.502
971.6210, 4492.104
972.7360, 4482.570
973.8510, 4321.719
974.9660, 4006.029
976.0800, 4176.317
977.1950, 3878.166
978.3090, 3898.271
979.4230, 3626.828
980.5370, 3486.596
981.6500, 3487.354
982.7640, 3229.534
983.8770, 3294.130
984.9900, 3134.155
986.1030, 3041.658
987.2160, 3061.410
988.3290, 2952.311
989.4420, 2871.670
990.5540, 2729.962
991.6660, 2636.813
992.7780, 2518.749
993.8900, 2323.693
995.0020, 2386.332
996.1140, 2363.376
997.2250, 2048.355
998.3360, 2216.688
999.4470, 1991.468
1000.558, 2025.071
1001.669, 1985.325
1002.780, 1942.415
1003.890, 1915.638
1005.001, 1848.875
1006.111, 1803.339
1007.221, 1706.965
1008.331, 1668.945
1009.440, 1602.952
1010.550, 1634.920
1011.659, 1568.068
1012.768, 1528.054
1013.877, 1677.474
1014.986, 1359.078
1016.095, 1508.456
1017.204, 1516.098
1018.312, 1376.254
1019.420, 1380.646
1020.528, 1518.138
1021.636, 1407.533
1022.744, 1458.510
1023.852, 1632.603
1024.959, 1418.538
1026.066, 1323.850
1027.173, 1238.428
1028.280, 1290.315
1029.387, 1310.065
1030.494, 1293.845
1031.600, 1168.212
1032.707, 1173.295
1033.813, 1180.467
1034.919, 1157.539
1036.025, 1169.002
1037.130, 1135.104
1038.236, 1093.715
1039.341, 1094.981
1040.446, 1063.519
1041.552, 1028.162
1042.656, 1018.903
1043.761, 1006.935
1044.866, 963.0938
1045.970, 924.4932
1047.074, 909.6123
1048.179, 860.3711
1049.282, 720.1523
1050.386, 780.8965
1051.490, 771.0049
1052.593, 579.9922
1053.697, 659.6396
1054.800, 535.3740
1055.903, 637.9043
1057.006, 532.9541
1058.108, 466.6484
1059.211, 344.1709
1060.313, 501.3008
1061.415, 286.4414
1062.517, 452.4473
1063.619, 292.7568
1064.721, 140.9541
1065.823, 267.1562
1066.924, 322.9668
1068.025, 241.7646
1069.126, 172.7891
1070.227, 209.1055
1071.328, 197.0020
1072.429, 261.1514
1073.529, 118.1904
1074.629, 44.51367
1075.729, 189.7578
1076.829, 244.9482
1077.929, 265.9150
1079.029, 222.1865
1080.128, 302.0635
1081.228, 293.9453
1082.327, 521.7207
1083.426, 410.4014
1084.525, 429.4951
1085.623, 513.5859
1086.722, 392.1221
1087.820, 246.9229
1088.919, 126.8496
1090.017, 78.76953
1091.115, 91.22461
1092.212, 113.3428
1093.310, 106.5176
1094.407, 200.2451
1095.505, 153.0137
1096.602, 159.9268
1097.699, 229.9092
1098.795, 214.0215
1099.892, 154.9854
1100.989, 108.4746
1102.085, 180.0576
1103.181, 235.7734
1104.277, 294.6523
1105.373, 159.5127
1106.469, 127.6201
1107.564, 172.5400
1108.660, 19.71875
1109.755, 148.8652
1110.850, 233.3809
1111.945, 138.8662
1113.040, 72.78809
1114.134, 204.8008
1115.229, 113.7207
1116.323, 7.005859
1117.417, 124.1182
1118.511, 30.52246
1119.605, 0.9365230
1120.698, 6.372070
1121.792, 57.31055
1122.885, 56.25879
1123.978, 127.2490
1125.071, 132.5322
1126.164, 63.19238
1127.257, 31.84570
1128.349, 33.16211
1129.442, 10.79297
1130.534, 22.63770
1131.626, 61.82617
1132.718, 108.0547
1133.810, 22.95605
1134.901, 96.19727
1135.993, 4.166016
1137.084, 63.80664
1138.175, 84.57227
1139.266, 47.80664
1140.357, 17.53711
1141.448, 3.343750
1142.538, 13.92383
1143.628, 79.34082
1144.719, 31.08984
1145.809, 60.32520
1146.898, 70.78516
1147.988, 118.4463
1149.078, 85.79980
1150.167, 78.28223
1151.256, 150.2480
1152.345, 178.1328
1153.434, 136.0605
1154.523, 186.1924
1155.612, 72.33984
1156.700, 102.2529
1157.788, 193.6572
1158.877, 157.2148
1159.964, 210.5830
1161.052, 229.1279
1162.140, 93.92383
1163.227, 224.8389
1164.315, 239.7168
1165.402, 135.2812
1166.489, 256.2178
1167.576, 168.1641
1168.663, 154.4902
1169.749, 196.9482
1170.836, 180.7861
1171.922, 256.8955
1173.008, 243.9854
1174.094, 223.0898
1175.180, 236.7998
1176.265, 152.4766
1177.351, 250.2451
1178.436, 226.9658
1179.521, 261.8818
1180.606, 310.7031
1181.691, 252.2793
1182.776, 307.2803
1183.860, 185.9922
1184.944, 212.0488
1186.029, 222.3691
1187.113, 326.8477
1188.197, 206.0938
1189.280, 227.9551
1190.364, 310.4824
1191.447, 307.7695
1192.531, 340.5293
1193.614, 268.0195
1194.697, 294.2627
1195.779, 293.1963
1196.862, 386.1914
1197.945, 404.8086
1199.027, 333.7402
1200.109, 263.0869
1201.191, 362.5781
1202.273, 300.5703
1203.355, 325.5908
1204.436, 260.5830
1205.518, 273.1719
1206.599, 284.4590
1207.680, 335.4746
1208.761, 265.7148
1209.842, 352.4629
1210.922, 348.6377
1212.003, 371.6533
1213.083, 391.3984
1214.163, 289.6240
1215.243, 287.3369
1216.323, 428.4238
1217.402, 351.1963
1218.482, 318.3682
1219.561, 316.1133
1220.641, 460.8037
1221.720, 468.6963
1222.798, 307.1953
1223.877, 439.5762
1224.956, 385.1475
1226.034, 387.1377
1227.112, 368.8799
1228.191, 351.7910
1229.269, 270.8545
1230.346, 403.1221
1231.424, 366.0918
1232.501, 450.3564
1233.579, 378.9141
1234.656, 265.5723
1235.733, 118.5117
1236.810, 207.3662
1237.886, 227.0879
1238.963, 204.2109
1240.039, 254.0400
1241.116, 191.3867
1242.192, 331.4854
1243.268, 262.5928
1244.343, 180.2070
1245.419, 275.3672
1246.494, 176.0615
1247.570, 208.2402
1248.645, 225.1348
1249.720, 149.8438
1250.795, 134.9355
1251.869, 186.2979
1252.944, 140.9453
1254.018, 186.4707
1255.093, 179.9922
1256.167, 212.7393
1257.240, 223.3965
1258.314, 192.7295
1259.388, 231.6729
1260.461, 105.1328
1261.535, 84.73047
1262.608, 153.6396
1263.681, 33.67480
1264.753, 92.15918
1265.826, 93.80371
1266.899, 197.9043
1267.971, 71.26465
1269.043, 280.2314
1270.115, 213.1357
1271.187, 111.0439
1272.259, 113.7324
1273.330, 56.54688
1274.402, 94.89355
1275.473, 145.0146
1276.544, 66.32715
1277.615, 135.3369
1278.686, 32.79492
1279.756, 126.9785
1280.827, 66.02539
1281.897, 138.1309
1282.967, 7.939453
1284.037, 64.95996
1285.107, 12.44434
1286.177, 69.56543
1287.247, 17.55957
1288.316, 31.95215
1289.385, 18.11133
1290.454, 22.63867
1291.523, 20.89355
1292.592, 44.52637
1293.661, 130.1641
1294.729, 181.0127
1295.797, 104.6152
1296.866, 178.6982
1297.934, 180.5752
1299.001, 151.7754
1300.069, 182.2803
1301.137, 198.1318
1302.204, 144.3789
1303.271, 165.4893
1304.338, 71.60742
1305.405, 111.9639
1306.472, 50.96289
1307.539, 131.9209
1308.605, 196.9053
1309.671, 80.04785
1310.737, 185.8965
1311.803, 95.92871
1312.869, 203.1943
1313.935, 84.64941
1315.000, 110.1338
1316.066, 102.4404
1317.131, 91.16211
1318.196, 87.67480
1319.261, 144.4033
1320.326, 182.0791
1321.390, 238.8506
1322.455, 180.3086
1323.519, 129.5840
1324.583, 222.0391
1325.647, 166.8438
1326.711, 266.6191
1327.775, 101.1279
1328.838, 132.3027
1329.902, 193.8525
1330.965, 136.1025
1332.028, 319.4219
1333.091, 267.7549
1334.153, 294.9062
1335.216, 219.4922
1336.279, 300.7158
