##NAMES=Gehlenite
##RRUFFID=R060841
##IDEAL CHEMISTRY=Ca_2_Al(SiAl)O_7_
##LOCALITY=Monzoni, Tyrol, Italy
##OWNER=RRUFF
##SOURCE=Michael Scott
##DESCRIPTION=Brown rectangular prism
##STATUS=The identification of this mineral has been confirmed by X-ray diffraction and chemical analysis
##URL=rruff.info/R060841
##MEASURED CHEMISTRY=(Ca_1.92_Na_0.07_K_0.01_)_Σ=2_(Al_0.62_Mg_0.25_Fe^2+^_0.13_)_Σ=1_(Si_1.46_Al_0.54_)O_7_ ; = lighter phase, and the darker phase is calcite
##PIN_ID=L00662
##ORIENTATION=Laser parallel to a* (1 0 0). Fiducial mark perpendicular to laser is parallel to c [0 0 1]
198.6340, 0.0000000E+00
199.8590, 0.6708980
201.0840, 85.74707
202.3090, 92.40381
203.5340, 144.5942
204.7580, 32.86230
205.9820, 83.47266
207.2060, 4.556152
208.4300, 96.52100
209.6540, 99.62402
210.8780, 237.3472
212.1010, 254.4316
213.3240, 374.6958
214.5470, 503.9053
215.7700, 634.7393
216.9930, 775.8545
218.2150, 1012.983
219.4380, 1270.950
220.6600, 1460.686
221.8820, 1769.262
223.1040, 2131.891
224.3260, 2350.674
225.5470, 2715.586
226.7680, 2928.542
227.9900, 3193.851
229.2110, 3522.838
230.4310, 3658.630
231.6520, 3857.507
232.8720, 4032.258
234.0930, 4192.754
235.3130, 4261.043
236.5330, 4290.214
237.7530, 4219.311
238.9720, 4117.406
240.1920, 3956.662
241.4110, 4014.263
242.6300, 3822.528
243.8490, 3738.708
245.0680, 3632.577
246.2860, 3476.323
247.5040, 3399.465
248.7230, 3263.789
249.9410, 3150.637
251.1590, 3024.094
252.3760, 2935.126
253.5940, 2823.220
254.8110, 2712.301
256.0280, 2606.981
257.2450, 2490.810
258.4620, 2543.391
259.6790, 2558.611
260.8950, 2575.458
262.1120, 2361.902
263.3280, 2196.938
264.5440, 2027.584
265.7600, 1920.897
266.9750, 1885.930
268.1910, 1742.883
269.4060, 1641.174
270.6210, 1645.970
271.8360, 1559.052
273.0510, 1439.014
274.2650, 1362.824
275.4800, 1351.932
276.6940, 1348.529
277.9080, 1393.073
279.1220, 1407.570
280.3360, 1479.229
281.5490, 1402.382
282.7630, 1575.075
283.9760, 1489.732
285.1890, 1542.271
286.4020, 1640.789
287.6150, 1806.811
288.8270, 1921.706
290.0400, 1995.198
291.2520, 2257.673
292.4640, 2364.280
293.6760, 2531.346
294.8870, 2737.097
296.0990, 2780.625
297.3100, 2985.758
298.5210, 3211.319
299.7320, 3293.855
300.9430, 3537.237
302.1540, 3690.805
303.3640, 3693.566
304.5750, 3717.699
305.7850, 3710.825
306.9950, 3835.097
308.2050, 3820.141
309.4140, 3689.654
310.6240, 3598.181
311.8330, 3461.092
313.0420, 3305.620
314.2510, 3154.884
315.4600, 2986.621
316.6680, 2781.394
317.8770, 2630.923
319.0850, 2405.427
320.2930, 2197.462
321.5010, 2171.170
322.7090, 1975.840
323.9160, 1989.839
325.1240, 1817.356
326.3310, 1680.986
327.5380, 1635.833
328.7450, 1565.080
329.9520, 1366.098
331.1580, 1320.888
332.3650, 1252.453
333.5710, 1226.796
334.7770, 1073.921
335.9830, 1028.832
337.1880, 1006.532
338.3940, 921.3965
339.5990, 895.3164
340.8040, 822.4080
342.0090, 751.3005
343.2140, 683.9963
344.4190, 693.6277
345.6230, 591.2283
346.8280, 592.7571
348.0320, 575.0371
349.2360, 476.3447
350.4400, 491.1580
351.6430, 533.4185
352.8470, 477.6221
354.0500, 466.7476
355.2530, 445.8733
356.4560, 386.7043
357.6590, 395.5090
358.8620, 328.3174
360.0640, 331.7954
361.2660, 239.1750
362.4680, 293.3918
363.6700, 218.4714
364.8720, 183.3518
366.0740, 160.0483
367.2750, 177.5576
368.4760, 162.8757
369.6770, 104.9958
370.8780, 63.90625
372.0790, 69.59644
373.2800, 7.062744
374.4800, 69.28833
375.6800, 17.28540
376.8800, 7.958496
378.0800, 4.448975
379.2800, 70.18457
380.4790, 96.18213
381.6790, 110.4175
382.8780, 127.9285
384.0770, 138.7974
385.2760, 123.8906
386.4750, 127.2615
387.6730, 121.9136
388.8720, 129.8499
390.0700, 86.07935
391.2680, 88.59937
392.4660, 136.4165
393.6630, 99.54761
394.8610, 131.9863
396.0580, 124.7429
397.2550, 91.81885
398.4520, 82.20459
399.6490, 88.89819
400.8460, 95.89941
402.0420, 151.2056
403.2390, 71.82666
404.4350, 86.73486
405.6310, 172.9280
406.8270, 101.4219
408.0220, 128.1907
409.2180, 151.2354
410.4130, 167.5559
411.6080, 124.1499
412.8030, 39.00098
413.9980, 64.08740
415.1920, 124.4170
416.3870, 177.0063
417.5810, 85.87207
418.7750, 135.9927
419.9690, 67.37866
421.1630, 91.01318
422.3570, 54.90527
423.5500, 117.0493
424.7430, 63.47070
425.9360, 62.15601
427.1290, 29.12012
428.3220, 22.34912
429.5150, 10.52051
430.7070, 45.30518
431.8990, 24.19263
433.0910, 37.76172
434.2830, 86.95850
435.4750, 110.7664
436.6670, 74.18628
437.8580, 151.2317
439.0490, 65.92969
440.2400, 133.2820
441.4310, 137.2981
442.6220, 105.9939
443.8130, 182.3936
445.0030, 213.4807
446.1930, 192.2981
447.3830, 229.8110
448.5730, 282.0278
449.7630, 341.9541
450.9520, 333.6663
452.1420, 372.1028
453.3310, 351.3000
454.5200, 429.2883
455.7090, 516.0715
456.8980, 492.6733
458.0860, 589.1240
459.2740, 563.4556
460.4630, 578.6831
461.6510, 660.8225
462.8380, 769.8794
464.0260, 781.8555
465.2140, 861.7578
466.4010, 820.5957
467.5880, 1016.372
468.7750, 1080.094
469.9620, 1061.765
471.1490, 1174.389
472.3350, 1147.971
473.5220, 1247.511
474.7080, 1245.011
475.8940, 1163.471
477.0800, 1198.894
478.2650, 1270.281
479.4510, 1285.621
480.6360, 1167.880
481.8210, 1095.842
483.0060, 1050.188
484.1910, 1018.604
485.3760, 940.3013
486.5600, 921.9402
487.7440, 847.1692
488.9290, 778.3088
490.1130, 707.0381
491.2960, 614.1890
492.4800, 532.2026
493.6630, 444.8564
494.8470, 371.0210
496.0300, 379.8354
497.2130, 263.6621
498.3960, 209.3967
499.5780, 240.6821
500.7610, 64.01660
501.9430, 1.675781
503.1250, 65.30444
504.3070, 109.7012
505.4890, 14.70972
506.6710, 20.64233
507.8520, 81.92627
509.0330, 83.71680
510.2140, 74.79004
511.3950, 174.5400
512.5760, 169.9336
513.7570, 233.0012
514.9370, 220.2483
516.1170, 299.5044
517.2980, 297.6895
518.4780, 367.5249
519.6570, 393.4336
520.8370, 398.2886
522.0160, 412.6484
523.1960, 415.3784
524.3750, 342.2202
525.5540, 406.9731
526.7320, 297.0586
527.9110, 218.0981
529.0890, 293.9507
530.2680, 214.1675
531.4460, 138.9194
532.6240, 174.4565
533.8010, 167.8784
534.9790, 144.3472
536.1560, 177.1836
537.3340, 89.04297
538.5110, 105.4214
539.6880, 79.93652
540.8650, 237.1313
542.0410, 186.9868
543.2180, 330.4897
544.3940, 251.6147
545.5700, 458.8193
546.7460, 504.1914
547.9220, 642.2617
549.0970, 721.9336
550.2730, 805.0454
551.4480, 1096.834
552.6230, 1225.727
553.7980, 1417.479
554.9730, 1784.713
556.1470, 1825.517
557.3210, 2235.679
558.4960, 2448.692
559.6700, 2774.581
560.8440, 2920.484
562.0170, 3227.857
563.1910, 3415.916
564.3640, 3482.412
565.5380, 3859.183
566.7110, 3772.497
567.8840, 3868.079
569.0560, 3840.919
570.2290, 3823.375
571.4010, 3916.770
572.5740, 3832.366
573.7460, 3937.697
574.9180, 3832.427
576.0890, 4006.012
577.2610, 4115.016
578.4320, 4163.689
579.6040, 4375.277
580.7750, 4589.095
581.9450, 4992.775
583.1160, 5232.582
584.2870, 5521.250
585.4570, 6042.680
586.6270, 6388.354
587.7980, 6913.030
588.9670, 7457.957
590.1370, 7936.197
591.3070, 8837.790
592.4760, 9714.445
593.6450, 10455.37
594.8140, 11648.31
595.9830, 12739.62
597.1520, 14091.99
598.3210, 15478.42
599.4890, 17179.90
600.6570, 18970.43
601.8250, 21036.03
602.9930, 23138.68
604.1610, 25671.39
605.3290, 28042.16
606.4960, 31054.00
607.6630, 33847.89
608.8300, 36681.84
609.9970, 39257.86
611.1640, 41477.95
612.3300, 43596.10
613.4970, 45301.32
614.6630, 45819.59
615.8290, 46280.94
616.9950, 46396.37
618.1610, 45262.85
619.3260, 44123.40
620.4920, 42486.02
621.6570, 40159.96
622.8220, 38550.76
623.9870, 36515.11
625.1520, 34764.36
626.3160, 32951.59
627.4810, 31759.40
628.6450, 30191.47
629.8090, 29585.05
630.9730, 28087.89
632.1370, 27088.94
633.3000, 26285.88
634.4640, 25113.59
635.6270, 24070.53
636.7900, 23069.97
637.9530, 21768.63
639.1160, 21020.26
640.2780, 19957.42
641.4410, 18972.81
642.6030, 18598.55
643.7650, 18222.44
644.9270, 18287.38
646.0890, 19075.36
647.2500, 19976.43
648.4120, 21586.57
649.5730, 23437.79
650.7340, 25682.09
651.8950, 27774.46
653.0560, 30089.91
654.2160, 32265.45
655.3770, 33796.08
656.5370, 35297.81
657.6970, 35525.64
658.8570, 35796.56
660.0170, 35012.60
661.1760, 34169.74
662.3360, 32644.01
663.4950, 30751.42
664.6540, 28796.96
665.8130, 26679.65
666.9720, 24418.48
668.1310, 22311.46
669.2890, 20477.59
670.4470, 18444.85
671.6050, 16585.27
672.7630, 15232.82
673.9210, 13681.51
675.0790, 12264.35
676.2360, 11007.33
677.3930, 9791.461
678.5510, 9131.738
679.7080, 8138.156
680.8640, 7339.711
682.0210, 6639.408
683.1770, 6023.245
684.3340, 5493.240
685.4900, 4847.371
686.6460, 4575.643
687.8020, 4202.079
688.9570, 4031.659
690.1130, 3653.394
691.2680, 3451.287
692.4230, 3227.345
693.5780, 3017.558
694.7330, 2834.900
695.8880, 2938.382
697.0420, 2748.019
698.1960, 2609.824
699.3510, 2775.775
700.5040, 2573.886
701.6580, 2642.138
702.8120, 2733.538
703.9650, 2574.077
705.1190, 2623.770
706.2720, 2673.605
707.4250, 2612.583
708.5780, 2711.694
709.7300, 2624.935
710.8830, 2816.305
712.0350, 2886.792
713.1870, 2891.398
714.3390, 3141.123
715.4910, 3476.963
716.6430, 3793.916
717.7940, 4438.984
718.9460, 5089.165
720.0970, 5656.463
721.2480, 6408.874
722.3990, 7315.397
723.5500, 8236.034
724.7000, 9121.782
725.8500, 9974.642
727.0010, 11012.61
728.1510, 11299.70
729.3010, 11762.89
730.4500, 12034.19
731.6000, 11983.60
732.7490, 11805.12
733.8980, 11435.75
735.0470, 10978.49
736.1960, 10102.34
737.3450, 9394.299
738.4940, 8508.365
739.6420, 7606.542
740.7900, 6936.831
741.9380, 5933.230
743.0860, 5161.741
744.2340, 4618.365
745.3810, 3941.098
746.5290, 3379.945
747.6760, 2910.903
748.8230, 2680.976
749.9700, 2010.159
751.1170, 1806.458
752.2630, 1560.869
753.4100, 1216.394
754.5560, 972.1553
755.7020, 669.0859
756.8480, 401.6538
757.9940, 109.6367
759.1390, 135.2729
760.2850, 351.1665
761.4300, 529.6367
762.5750, 709.6851
763.7200, 836.7349
764.8650, 934.2905
766.0100, 1023.299
767.1540, 1065.218
768.2980, 1086.502
769.4420, 1072.727
770.5860, 1071.363
771.7300, 965.4082
772.8740, 809.8101
774.0170, 746.4917
775.1610, 659.4219
776.3040, 494.5610
777.4470, 171.8325
778.5900, 9.4727002E-02
779.7320, 340.7222
780.8750, 573.6611
782.0170, 787.7207
783.1590, 1157.901
784.3010, 1495.205
785.4430, 1798.630
786.5850, 2091.179
787.7260, 2671.849
788.8680, 2992.644
790.0090, 3644.560
791.1500, 4162.600
792.2910, 4585.764
793.4310, 5221.053
794.5720, 5741.464
795.7120, 6055.000
796.8520, 6497.660
797.9920, 6657.446
799.1320, 6825.354
800.2720, 6656.390
801.4120, 6480.548
802.5510, 6180.831
803.6900, 5736.239
804.8290, 5385.771
805.9680, 4993.426
807.1070, 4471.206
808.2450, 4129.110
809.3840, 3657.139
810.5220, 3226.292
811.6600, 2845.567
812.7980, 2648.966
813.9360, 2416.491
815.0730, 2223.137
816.2110, 1990.908
817.3480, 1929.802
818.4850, 1836.818
819.6220, 1894.961
820.7590, 1781.257
821.8960, 1830.718
823.0320, 1858.353
824.1680, 1933.167
825.3040, 2132.170
826.4400, 2139.367
827.5760, 2514.765
828.7120, 2739.367
829.8470, 3033.183
830.9830, 3174.218
832.1180, 3512.471
833.2530, 3842.950
834.3880, 4284.647
835.5220, 4681.570
836.6570, 4937.702
837.7910, 5242.041
838.9250, 5478.600
840.0590, 5728.361
841.1930, 5824.347
842.3270, 5985.893
843.4600, 6155.953
844.5940, 6089.534
845.7270, 6191.308
846.8600, 6046.282
847.9930, 5906.450
849.1250, 5725.799
850.2580, 5516.331
851.3900, 5411.034
852.5230, 4980.875
853.6550, 4830.846
854.7870, 4470.940
855.9180, 4307.154
857.0500, 4165.487
858.1810, 4049.937
859.3130, 3841.335
860.4440, 3553.192
861.5750, 3483.006
862.7050, 3363.942
863.8360, 3281.008
864.9660, 3240.215
866.0970, 3168.574
867.2270, 3104.077
868.3570, 2964.718
869.4870, 2931.498
870.6160, 2838.421
871.7460, 2890.479
872.8750, 2911.679
874.0040, 3122.015
875.1330, 3361.477
876.2620, 3692.070
877.3910, 4004.787
878.5190, 4548.627
879.6470, 5008.592
880.7760, 5863.682
881.9040, 6624.890
883.0310, 7507.223
884.1590, 8459.677
885.2870, 9363.248
886.4140, 10700.93
887.5410, 11765.73
888.6680, 12826.65
889.7950, 13799.67
890.9220, 14652.81
892.0480, 15713.06
893.1750, 16745.43
894.3010, 17781.90
895.4270, 19037.23
896.5530, 20273.89
897.6790, 21820.17
898.8040, 22813.75
899.9300, 24565.51
901.0550, 25736.88
902.1800, 26855.17
903.3050, 27964.15
904.4300, 28781.04
905.5540, 28774.92
906.6790, 28670.08
907.8030, 28633.67
908.9270, 27606.22
910.0510, 27138.45
911.1750, 26448.65
912.2990, 25261.07
913.4220, 24571.17
914.5450, 23798.21
915.6690, 22832.02
916.7920, 22146.97
917.9140, 21458.06
919.0370, 21150.29
920.1600, 20885.64
921.2820, 20650.13
922.4040, 20714.76
923.5260, 20728.52
924.6480, 20953.41
925.7700, 20412.43
926.8910, 20799.58
928.0130, 20619.86
929.1340, 20222.26
930.2550, 19662.80
931.3760, 19197.46
932.4970, 18394.25
933.6170, 17629.15
934.7380, 16649.19
935.8580, 15694.36
936.9780, 14833.64
938.0980, 13922.04
939.2180, 13339.57
940.3370, 12795.22
941.4570, 12078.98
942.5760, 11745.87
943.6950, 11371.87
944.8140, 11180.99
945.9330, 10872.23
947.0520, 11178.58
948.1700, 11315.04
949.2890, 11159.62
950.4070, 11564.31
951.5250, 11439.11
952.6430, 11729.03
953.7600, 11845.19
954.8780, 11881.15
955.9950, 11702.61
957.1120, 11793.48
958.2290, 11442.12
959.3460, 11205.73
960.4630, 10919.04
961.5800, 10453.10
962.6960, 10197.40
963.8120, 9678.753
964.9280, 9367.361
966.0440, 9033.535
967.1600, 8709.416
968.2760, 8510.935
969.3910, 8310.676
970.5060, 8149.812
971.6210, 7965.362
972.7360, 7922.130
973.8510, 7903.894
974.9660, 7851.329
976.0800, 7748.395
977.1950, 7655.078
978.3090, 7546.779
979.4230, 7508.837
980.5370, 7640.572
981.6500, 7575.661
982.7640, 7711.481
983.8770, 7940.247
984.9900, 7974.130
986.1030, 8064.256
987.2160, 8525.209
988.3290, 8630.550
989.4420, 8915.159
990.5540, 9199.304
991.6660, 9486.709
992.7780, 9614.426
993.8900, 9785.634
995.0020, 9809.721
996.1140, 9920.446
997.2250, 9964.633
998.3360, 9894.467
999.4470, 9702.049
1000.558, 9561.638
1001.669, 9266.147
1002.780, 8800.124
1003.890, 8547.928
1005.001, 8316.089
1006.111, 7760.888
1007.221, 7481.885
1008.331, 7205.665
1009.440, 6831.623
1010.550, 6519.573
1011.659, 6128.138
1012.768, 5826.011
1013.877, 5511.159
1014.986, 5187.304
1016.095, 4928.584
1017.204, 4747.715
1018.312, 4445.798
1019.420, 4247.619
1020.528, 4090.917
1021.636, 3792.301
1022.744, 3674.944
1023.852, 3601.657
1024.959, 3443.635
1026.066, 3295.794
1027.173, 3144.556
1028.280, 2902.369
1029.387, 2868.970
1030.494, 2629.163
1031.600, 2604.512
1032.707, 2497.802
1033.813, 2457.194
1034.919, 2456.283
1036.025, 2334.919
1037.130, 2188.945
1038.236, 2062.055
1039.341, 2008.739
1040.446, 1943.434
1041.552, 1780.406
1042.656, 1781.274
1043.761, 1549.150
1044.866, 1609.584
1045.970, 1508.729
1047.074, 1441.274
1048.179, 1381.944
1049.282, 1322.296
1050.386, 1309.042
1051.490, 1166.288
1052.593, 1154.440
1053.697, 1052.586
1054.800, 1074.121
1055.903, 977.1729
1057.006, 932.1887
1058.108, 1018.260
1059.211, 1016.092
1060.313, 856.9402
1061.415, 836.7402
1062.517, 802.7458
1063.619, 799.7346
1064.721, 744.5466
1065.823, 694.2310
1066.924, 657.8579
1068.025, 607.4094
1069.126, 666.1816
1070.227, 602.7886
1071.328, 596.7649
1072.429, 637.0474
1073.529, 554.3833
1074.629, 514.6714
1075.729, 500.8269
1076.829, 506.2214
1077.929, 455.2681
1079.029, 420.5833
1080.128, 359.9585
1081.228, 299.2908
1082.327, 220.3008
1083.426, 131.2590
1084.525, 80.03540
1085.623, 5.009766
1086.722, 113.4224
1087.820, 146.8337
1088.919, 178.3948
1090.017, 200.1199
1091.115, 225.0815
1092.212, 245.8665
1093.310, 267.5535
1094.407, 281.1902
1095.505, 307.9668
1096.602, 322.0466
1097.699, 325.3162
1098.795, 346.9280
1099.892, 319.7822
1100.989, 333.9226
1102.085, 271.2910
1103.181, 272.8335
1104.277, 308.7910
1105.373, 244.9849
1106.469, 320.3420
1107.564, 309.8569
1108.660, 203.7781
1109.755, 151.9487
1110.850, 201.1895
1111.945, 223.8660
1113.040, 193.6038
1114.134, 153.5852
1115.229, 148.9092
1116.323, 99.28247
1117.417, 11.96802
1118.511, 64.09033
1119.605, 96.24487
1120.698, 147.1626
1121.792, 197.1262
1122.885, 184.8652
1123.978, 198.5144
1125.071, 149.2275
1126.164, 90.69043
1127.257, 132.1104
1128.349, 78.36035
1129.442, 22.49292
1130.534, 18.47144
1131.626, 16.48743
1132.718, 39.26025
1133.810, 33.89453
1134.901, 22.38611
1135.993, 58.61938
1137.084, 28.77649
1138.175, 47.72144
1139.266, 112.5220
1140.357, 80.25439
1141.448, 121.9136
1142.538, 131.3721
1143.628, 129.6680
1144.719, 123.8391
1145.809, 172.8832
1146.898, 132.8091
1147.988, 134.6073
1149.078, 258.2775
1150.167, 213.8778
1151.256, 191.3440
1152.345, 253.6776
1153.434, 240.8925
1154.523, 242.0836
1155.612, 231.3129
1156.700, 295.3605
1157.788, 254.3289
1158.877, 335.1965
1159.964, 372.7257
1161.052, 326.1731
1162.140, 329.7040
1163.227, 356.9113
1164.315, 374.9973
1165.402, 334.1121
1166.489, 413.9685
1167.576, 403.8387
1168.663, 430.6090
1169.749, 398.1254
1170.836, 432.5236
1171.922, 431.8037
1173.008, 471.9640
1174.094, 510.0056
1175.180, 452.9292
1176.265, 520.7333
1177.351, 467.4144
1178.436, 458.0056
1179.521, 498.4388
1180.606, 453.7495
1181.691, 523.0249
1182.776, 546.1393
1183.860, 548.3538
1184.944, 486.2361
1186.029, 569.9326
1187.113, 577.5083
1188.197, 562.9626
1189.280, 618.2968
1190.364, 612.5104
1191.447, 621.6514
1192.531, 569.6233
1193.614, 570.4722
1194.697, 609.1997
1195.779, 635.8081
1196.862, 645.2955
1197.945, 658.6649
1199.027, 600.9177
1200.109, 635.0479
1201.191, 605.0557
1202.273, 636.9409
1203.355, 681.7249
1204.436, 686.3730
1205.518, 710.9016
1206.599, 646.5103
1207.680, 721.8503
1208.761, 666.0232
1209.842, 741.0786
1210.922, 736.0155
1212.003, 695.8342
1213.083, 698.5325
1214.163, 732.1108
1215.243, 674.6062
1216.323, 759.9896
1217.402, 723.3989
1218.482, 720.2772
1219.561, 713.7490
1220.641, 725.4364
1221.720, 694.3490
1222.798, 694.3394
1223.877, 695.5642
1224.956, 658.5565
1226.034, 654.7211
1227.112, 620.0879
1228.191, 620.1379
1229.269, 591.4631
1230.346, 577.1318
1231.424, 545.5601
1232.501, 511.5826
1233.579, 548.2595
1234.656, 506.2546
1235.733, 471.9319
1236.810, 421.5630
1237.886, 431.5426
1238.963, 422.8796
1240.039, 380.2010
1241.116, 416.1505
1242.192, 355.3602
1243.268, 344.1936
1244.343, 363.2922
1245.419, 312.4235
1246.494, 348.4213
1247.570, 356.1055
1248.645, 309.9360
1249.720, 348.3486
1250.795, 308.4614
1251.869, 365.0686
1252.944, 382.3280
1254.018, 303.6989
1255.093, 360.1387
1256.167, 321.2140
1257.240, 348.0115
1258.314, 335.3217
1259.388, 317.0316
1260.461, 287.8694
1261.535, 290.6683
1262.608, 285.5464
1263.681, 279.9775
1264.753, 300.4353
1265.826, 280.6578
1266.899, 292.1533
1267.971, 295.4360
1269.043, 267.7695
1270.115, 248.8821
1271.187, 264.1389
1272.259, 278.4211
1273.330, 294.4893
1274.402, 294.4077
1275.473, 268.0176
1276.544, 286.6610
1277.615, 259.5297
1278.686, 243.0265
1279.756, 244.9146
1280.827, 245.5643
1281.897, 249.7637
1282.967, 220.6549
1284.037, 181.4294
1285.107, 193.8884
1286.177, 184.2035
1287.247, 177.7793
1288.316, 236.2554
1289.385, 223.0109
1290.454, 174.0820
1291.523, 222.1886
1292.592, 232.4386
1293.661, 186.7423
1294.729, 257.5339
1295.797, 186.1881
1296.866, 180.4412
1297.934, 224.2195
1299.001, 213.4811
1300.069, 218.7491
1301.137, 211.8700
1302.204, 209.5551
1303.271, 206.4270
1304.338, 198.7960
1305.405, 204.1763
1306.472, 187.1509
1307.539, 203.0880
1308.605, 205.1549
1309.671, 166.7664
1310.737, 173.8142
1311.803, 119.1849
1312.869, 167.3583
1313.935, 196.9259
1315.000, 179.0105
1316.066, 210.9639
1317.131, 200.2759
1318.196, 209.2776
1319.261, 156.1953
1320.326, 176.0927
1321.390, 169.4376
1322.455, 171.6388
1323.519, 183.9274
1324.583, 188.6593
1325.647, 186.4547
1326.711, 191.6718
1327.775, 177.0988
1328.838, 164.6180
1329.902, 154.9615
1330.965, 136.3899
1332.028, 193.2054
1333.091, 141.8289
1334.153, 86.42676
1335.216, 120.8721
1336.279, 157.4275
1337.341, 136.6115
1338.403, 179.1636
1339.465, 140.7778
1340.527, 151.0898
1341.588, 166.3468
1342.650, 104.7072
1343.711, 69.27209
1344.772, 107.6797
1345.834, 110.9547
1346.894, 125.2642
1347.955, 130.7594
1349.016, 48.12500
1350.076, 121.5417
1351.136, 103.0619
1352.197, 84.70483
1353.257, 123.3199
1354.316, 127.0660
1355.376, 111.8164
1356.436, 85.72583
1357.495, 122.6877
1358.554, 104.7507
1359.613, 71.85315
1360.672, 49.57715
