##NAMES=Gmelinite-Na
##RRUFFID=R050371
##IDEAL CHEMISTRY=Na_4_(Si_8_Al_4_)O_24_&#183;11H_2_O
##LOCALITY=Cairns Bay, Flinders Range, Australia
##OWNER=RRUFF
##SOURCE=Eugene Schlepp
##DESCRIPTION=Colorless to pink crystals lining a basalt vug
##STATUS=The identification of this mineral has been confirmed by X-ray diffraction and chemical analysis
##URL=rruff.info/R050371
##MEASURED CHEMISTRY=Na_3.81_(Si_8.13_Al_3.88_)O_24_Â·4.27H_2_O
##PIN_ID=L01937
##ORIENTATION=Laser parallel to -c* (0 0 -1). Fiducial mark perpendicular to laser is parallel to a [1 0 0]
246.6460, 0.0000000E+00
247.8630, 103.4609
249.0810, 0.2578130
250.2980, 83.48242
251.5140, 116.1748
252.7310, 172.9043
253.9470, 178.3906
255.1640, 94.63574
256.3800, 224.9521
257.5960, 304.3721
258.8120, 586.5488
260.0270, 572.6777
261.2430, 529.1631
262.4580, 444.9424
263.6730, 183.9551
264.8880, 190.9697
266.1030, 377.9355
267.3170, 188.7998
268.5320, 92.50879
269.7460, 86.00488
270.9600, 54.75586
272.1740, 20.18848
273.3880, 136.1953
274.6010, 57.93945
275.8150, 23.92773
277.0280, 9.839844
278.2410, 39.38867
279.4540, 104.9346
280.6670, 24.99707
281.8790, 183.5537
283.0920, 175.5879
284.3040, 186.0723
285.5160, 280.9756
286.7280, 316.2715
287.9400, 415.9316
289.1510, 575.9375
290.3630, 730.2598
291.5740, 845.8789
292.7850, 945.7910
293.9960, 1189.002
295.2070, 1313.520
296.4170, 1501.339
297.6280, 1743.451
298.8380, 1796.847
300.0480, 1937.518
301.2580, 2235.451
302.4680, 2350.644
303.6770, 2781.085
304.8870, 2921.770
306.0960, 3068.691
307.3050, 3986.848
308.5140, 4311.235
309.7230, 4641.847
310.9310, 5109.680
312.1400, 5680.724
313.3480, 6390.977
314.5560, 7014.436
315.7640, 7764.092
316.9720, 8230.940
318.1790, 8985.981
319.3870, 9687.188
320.5940, 9841.489
321.8010, 10113.87
323.0080, 10207.33
324.2150, 10229.86
325.4210, 9928.461
326.6280, 9391.125
327.8340, 8788.844
329.0400, 8163.629
330.2460, 7482.476
331.4510, 6874.260
332.6570, 6192.245
333.8620, 5539.077
335.0680, 5226.002
336.2730, 4444.104
337.4780, 4077.336
338.6820, 3405.751
339.8870, 3128.461
341.0910, 2874.503
342.2950, 2433.790
343.5000, 2158.231
344.7030, 1941.816
345.9070, 1768.515
347.1110, 1552.072
348.3140, 1362.204
349.5170, 1199.186
350.7200, 1065.255
351.9230, 911.4141
353.1260, 877.6621
354.3290, 885.9990
355.5310, 857.4229
356.7330, 715.9355
357.9350, 655.5342
359.1370, 697.2207
360.3390, 804.9932
361.5400, 803.8525
362.7420, 880.7529
363.9430, 907.2666
365.1440, 953.0605
366.3450, 983.3418
367.5460, 937.7461
368.7460, 1036.236
369.9470, 1108.814
371.1470, 1252.471
372.3470, 1456.205
373.5470, 1455.016
374.7460, 1529.902
375.9460, 1868.863
377.1450, 1886.898
378.3450, 2044.008
379.5440, 2282.188
380.7430, 2411.441
381.9410, 2882.764
383.1400, 3014.156
384.3380, 3159.617
385.5370, 3464.146
386.7350, 3477.742
387.9320, 3920.405
389.1300, 4092.132
390.3280, 4286.923
391.5250, 4761.494
392.7220, 5085.314
393.9190, 5509.381
395.1160, 6014.109
396.3130, 6737.824
397.5100, 7357.512
398.7060, 8005.119
399.9020, 9101.534
401.0980, 10006.17
402.2940, 11252.83
403.4900, 12052.29
404.6860, 13337.40
405.8810, 14363.52
407.0760, 15703.79
408.2710, 16417.06
409.4660, 16822.64
410.6610, 17018.42
411.8550, 16814.34
413.0500, 16415.19
414.2440, 16378.21
415.4380, 15051.24
416.6320, 13849.29
417.8260, 13060.44
419.0190, 11604.07
420.2130, 10243.79
421.4060, 9444.289
422.5990, 8551.289
423.7920, 7733.123
424.9850, 7090.424
426.1770, 6373.711
427.3700, 5877.457
428.5620, 5511.856
429.7540, 5326.384
430.9460, 5036.590
432.1380, 4990.248
433.3290, 4881.688
434.5210, 4730.711
435.7120, 4721.877
436.9030, 4766.758
438.0940, 4850.121
439.2850, 4757.427
440.4750, 4956.396
441.6660, 4941.213
442.8560, 5002.571
444.0460, 5387.632
445.2360, 5349.115
446.4260, 5402.139
447.6160, 5782.744
448.8050, 6109.409
449.9940, 6440.131
451.1830, 6509.910
452.3720, 6826.745
453.5610, 7052.635
454.7500, 7431.577
455.9380, 7900.570
457.1260, 8345.618
458.3150, 8678.716
459.5020, 9309.864
460.6900, 9842.058
461.8780, 10498.30
463.0650, 11259.59
464.2530, 11973.92
465.4400, 12813.31
466.6270, 13800.74
467.8130, 14876.21
469.0000, 15676.73
470.1870, 17150.29
471.3730, 18306.90
472.5590, 19234.56
473.7450, 20923.26
474.9310, 22572.99
476.1160, 23940.78
477.3020, 25586.55
478.4870, 27593.86
479.6720, 29334.85
480.8570, 31539.89
482.0420, 33755.91
483.2270, 36267.37
484.4110, 38525.34
485.5960, 40764.55
486.7800, 43026.71
487.9640, 45228.89
489.1480, 46912.82
490.3310, 49221.07
491.5150, 50584.57
492.6980, 51758.89
493.8810, 52392.23
495.0640, 52976.62
496.2470, 53054.05
497.4300, 52118.50
498.6120, 51435.98
499.7950, 49904.48
500.9770, 48146.02
502.1590, 45812.59
503.3410, 42991.19
504.5220, 40232.81
505.7040, 37167.47
506.8850, 34096.14
508.0660, 31146.85
509.2470, 27882.58
510.4280, 24757.33
511.6090, 22281.11
512.7890, 19583.92
513.9700, 17555.74
515.1500, 15438.59
516.3300, 13543.46
517.5100, 11889.35
518.6900, 10725.27
519.8690, 9551.205
521.0490, 8383.160
522.2280, 7635.135
523.4070, 6541.130
524.5860, 5842.143
525.7640, 5067.175
526.9430, 4586.224
528.1210, 4133.290
529.3000, 3833.373
530.4780, 3337.474
531.6560, 3104.590
532.8330, 2653.721
534.0110, 2422.876
535.1880, 2286.434
536.3650, 1861.932
537.5430, 1720.621
538.7190, 1710.319
539.8960, 1411.490
541.0730, 1270.803
542.2490, 1119.291
543.4250, 1196.517
544.6020, 958.4536
545.7780, 805.8882
546.9530, 730.8999
548.1290, 571.7114
549.3040, 511.6382
550.4800, 503.4941
551.6550, 453.4097
552.8300, 399.0352
554.0040, 300.9336
555.1790, 270.6367
556.3540, 193.8071
557.5280, 100.6157
558.7020, 57.82227
559.8760, 70.03174
561.0500, 34.44434
562.2230, 50.04443
563.3970, 47.62061
564.5700, 110.7544
565.7430, 72.93506
566.9160, 73.20557
568.0890, 52.36621
569.2620, 88.49316
570.4340, 90.60498
571.6070, 156.3110
572.7790, 225.5146
573.9510, 203.5039
575.1230, 109.9214
576.2940, 145.3105
577.4660, 120.7476
578.6370, 12.21973
579.8080, 86.64404
580.9790, 28.13623
582.1500, 71.63086
583.3210, 55.85645
584.4910, 23.65283
585.6620, 189.8335
586.8320, 17.67529
588.0020, 77.81494
589.1720, 39.32324
590.3410, 109.8413
591.5110, 107.3638
592.6800, 108.8901
593.8500, 130.4185
595.0190, 188.9702
596.1880, 97.54980
597.3560, 134.1445
598.5250, 144.7383
599.6930, 94.33203
600.8620, 155.9243
602.0300, 135.5298
603.1970, 116.1431
604.3650, 51.75586
605.5330, 189.4077
606.7000, 231.0557
607.8680, 143.7085
609.0350, 118.3760
610.2020, 173.0498
611.3680, 176.7285
612.5350, 51.43164
613.7010, 103.1255
614.8680, 82.84033
616.0340, 119.5454
617.2000, 11.74756
618.3660, 56.06152
619.5310, 12.58252
620.6970, 11.24170
621.8620, 89.90723
623.0270, 3.587402
624.1920, 40.74219
625.3570, 26.11035
626.5220, 80.49365
627.6860, 68.08496
628.8500, 2.672852
630.0140, 129.2588
631.1780, 18.83643
632.3420, 196.3945
633.5060, 161.9360
634.6700, 223.4614
635.8330, 207.9810
636.9960, 230.4951
638.1590, 299.9907
639.3220, 360.4795
640.4850, 402.9502
641.6470, 447.3999
642.8100, 535.8296
643.9720, 574.2393
645.1340, 617.6260
646.2960, 709.9922
647.4570, 744.3433
648.6190, 724.6719
649.7800, 874.9756
650.9420, 897.2607
652.1030, 872.5220
653.2640, 971.7568
654.4240, 926.9673
655.5850, 836.1538
656.7450, 891.3149
657.9060, 724.4502
659.0660, 784.5581
660.2260, 723.6387
661.3850, 643.6914
662.5450, 549.7139
663.7040, 642.7075
664.8640, 656.6709
666.0230, 444.6045
667.1820, 425.5083
668.3410, 301.3809
669.4990, 377.2217
670.6580, 285.3779
671.8160, 378.8052
672.9740, 217.6304
674.1320, 109.3398
675.2900, 134.2773
676.4480, 22.47266
677.6050, 106.0952
678.7630, 16.73633
679.9200, 96.62646
681.0770, 66.14209
682.2340, 74.38330
683.3900, 6.789551
684.5470, 71.83105
685.7030, 84.93848
686.8590, 64.48682
688.0150, 33.18408
689.1710, 126.3804
690.3270, 18.44482
691.4830, 15.72607
692.6380, 93.69824
693.7930, 26.62451
694.9480, 14.38623
696.1030, 27.74072
697.2580, 140.6826
698.4130, 74.07227
699.5670, 127.0938
700.7210, 20.14111
701.8750, 116.3979
703.0290, 115.6895
704.1830, 99.46387
705.3370, 203.8823
706.4900, 142.7466
707.6430, 365.9746
708.7970, 270.4189
709.9490, 169.7939
711.1020, 325.7676
712.2550, 271.8091
713.4070, 201.5469
714.5600, 292.3359
715.7120, 306.6650
716.8640, 282.7427
718.0160, 241.7085
719.1670, 334.1201
720.3190, 353.5552
721.4700, 334.3760
722.6210, 354.1348
723.7720, 412.5151
724.9230, 385.4102
726.0740, 414.5635
727.2250, 393.6899
728.3750, 456.8931
729.5250, 419.3354
730.6750, 442.6538
731.8250, 524.5947
732.9750, 446.5659
734.1240, 510.3057
735.2740, 500.4941
736.4230, 554.9917
737.5720, 582.6968
738.7210, 518.2329
739.8700, 589.1030
741.0190, 644.5049
742.1670, 622.5176
743.3150, 692.7300
744.4630, 701.8457
745.6110, 758.9443
746.7590, 819.4854
747.9070, 825.1455
749.0540, 928.3706
750.2020, 1052.248
751.3490, 1050.781
752.4960, 1124.998
753.6430, 1308.299
754.7890, 1392.230
755.9360, 1482.746
757.0820, 1496.030
758.2280, 1757.684
759.3740, 1706.472
760.5200, 1850.523
761.6660, 2021.364
762.8120, 1913.877
763.9570, 2017.272
765.1020, 2042.354
766.2470, 2029.403
767.3920, 2031.693
768.5370, 2021.554
769.6810, 1951.842
770.8260, 1976.341
771.9700, 1801.887
773.1140, 1786.735
774.2580, 1727.477
775.4020, 1696.861
776.5460, 1701.462
777.6890, 1608.517
778.8320, 1483.528
779.9750, 1484.408
781.1180, 1383.284
782.2610, 1389.800
783.4040, 1297.655
784.5460, 1228.632
785.6890, 1165.069
786.8310, 1187.414
787.9730, 1232.537
789.1150, 1175.710
790.2560, 1118.733
791.3980, 1156.835
792.5390, 1091.140
793.6810, 981.2139
794.8220, 1068.294
795.9630, 1001.077
797.1030, 944.7671
798.2440, 818.2554
799.3840, 770.9883
800.5240, 762.8892
801.6650, 675.0396
802.8040, 644.3911
803.9440, 686.5132
805.0840, 594.4746
806.2230, 528.3564
807.3630, 447.1738
808.5020, 489.9277
809.6410, 383.6187
810.7790, 516.2871
811.9180, 339.4736
813.0570, 268.6851
814.1950, 389.6641
815.3330, 375.5977
816.4710, 359.0210
817.6090, 357.2642
818.7470, 314.2954
819.8840, 230.5513
821.0220, 257.0557
822.1590, 338.0229
823.2960, 247.3774
824.4330, 248.8940
825.5690, 127.2588
826.7060, 287.6533
827.8420, 158.9492
828.9790, 211.9849
830.1150, 210.7256
831.2510, 176.1113
832.3860, 46.98730
833.5220, 50.19971
834.6570, 79.96777
835.7930, 21.27490
836.9280, 100.2339
838.0630, 70.50635
839.1980, 63.75684
840.3320, 155.9072
841.4670, 138.7983
842.6010, 27.30859
843.7350, 34.47754
844.8690, 43.13818
846.0030, 36.71533
847.1370, 91.81738
848.2700, 13.33496
849.4040, 97.82471
850.5370, 46.05762
851.6700, 68.48096
852.8030, 39.86914
853.9360, 89.21289
855.0680, 54.45166
856.2000, 83.68604
857.3330, 61.86328
858.4650, 137.9897
859.5970, 83.04590
860.7290, 91.06934
861.8600, 30.02051
862.9920, 22.09180
864.1230, 7.705078
865.2540, 29.42773
866.3850, 32.08545
867.5160, 50.67725
868.6460, 57.79346
869.7770, 71.37061
870.9070, 32.06055
872.0370, 68.15674
873.1670, 43.31543
874.2970, 51.41211
875.4270, 32.55029
876.5570, 10.60400
877.6860, 13.26465
878.8150, 137.9331
879.9440, 59.72510
881.0730, 11.67432
882.2020, 52.15039
883.3300, 23.72363
884.4590, 18.37939
885.5870, 94.11328
886.7150, 88.03516
887.8430, 86.87109
888.9710, 112.1108
890.0990, 21.95947
891.2260, 54.89258
892.3530, 21.69531
893.4810, 87.54150
894.6080, 59.88672
895.7340, 80.32520
896.8610, 21.86865
897.9880, 14.51855
899.1140, 13.13525
900.2400, 26.15527
901.3660, 25.60791
902.4920, 74.44287
903.6180, 10.37061
904.7430, 75.63916
905.8690, 58.60254
906.9940, 33.51611
908.1190, 33.62012
909.2440, 33.82764
910.3690, 23.89355
911.4930, 35.43408
912.6180, 26.16797
913.7420, 88.72168
914.8660, 67.23047
915.9900, 50.69434
917.1140, 119.1123
918.2380, 20.48730
919.3610, 23.18359
920.4850, 85.08740
921.6080, 89.31592
922.7310, 14.49805
923.8540, 94.63721
924.9760, 112.7314
926.0990, 75.78564
927.2210, 9.798828
928.3440, 46.76904
929.4660, 27.36670
930.5880, 80.58691
931.7090, 84.43604
932.8310, 114.8486
933.9520, 203.0205
935.0740, 106.7593
936.1950, 141.4624
937.3160, 75.13037
938.4360, 112.2163
939.5570, 132.3594
940.6780, 181.9229
941.7980, 170.4541
942.9180, 162.9526
944.0380, 179.4194
945.1580, 111.7744
946.2780, 165.1797
947.3970, 131.2271
948.5170, 178.0835
949.6360, 145.3696
950.7550, 158.5713
951.8740, 253.7158
952.9930, 212.9053
954.1110, 330.9521
955.2300, 243.6309
956.3480, 332.4355
957.4660, 182.5635
958.5840, 350.3628
959.7020, 397.2163
960.8190, 360.4858
961.9370, 434.5645
963.0540, 436.9858
964.1710, 470.0571
965.2880, 497.8740
966.4050, 567.5723
967.5220, 643.0503
968.6380, 680.6348
969.7550, 774.7080
970.8710, 819.0820
971.9870, 846.3647
973.1030, 889.3613
974.2190, 951.4434
975.3340, 992.2412
976.4500, 1085.451
977.5650, 1124.613
978.6800, 1191.977
979.7950, 1319.546
980.9100, 1302.990
982.0250, 1338.224
983.1390, 1417.959
984.2530, 1635.227
985.3680, 1571.873
986.4820, 1691.861
987.5950, 1561.398
988.7090, 1542.575
989.8230, 1625.372
990.9360, 1670.487
992.0490, 1623.372
993.1620, 1715.786
994.2750, 1718.878
995.3880, 1777.030
996.5010, 1859.384
997.6130, 1884.181
998.7250, 1997.838
999.8370, 2077.194
1000.949, 2022.613
1002.061, 2099.347
1003.173, 1985.989
1004.284, 2067.960
1005.396, 2136.102
1006.507, 2235.033
1007.618, 2230.692
1008.729, 2398.462
1009.839, 2281.837
1010.950, 2353.618
1012.060, 2379.728
1013.171, 2265.578
1014.281, 2380.462
1015.391, 2350.305
1016.500, 2323.644
1017.610, 2370.804
1018.719, 2398.339
1019.829, 2375.161
1020.938, 2335.269
1022.047, 2375.633
1023.156, 2272.851
1024.264, 2234.382
1025.373, 2297.335
1026.481, 2146.958
1027.589, 2228.516
1028.697, 2183.862
1029.805, 2126.977
1030.913, 2096.814
1032.020, 2052.466
1033.128, 1923.964
1034.235, 2025.819
1035.342, 1820.648
1036.449, 1955.470
1037.556, 1741.374
1038.663, 1868.587
1039.769, 1679.744
1040.875, 1706.794
1041.981, 1749.486
1043.087, 1599.229
1044.193, 1517.274
1045.299, 1499.046
1046.404, 1569.163
1047.510, 1461.563
1048.615, 1446.892
1049.720, 1567.169
1050.825, 1489.753
1051.930, 1575.943
1053.034, 1585.959
1054.139, 1622.461
1055.243, 1613.002
1056.347, 1609.709
1057.451, 1847.314
1058.555, 1784.017
1059.658, 1959.587
1060.762, 1998.903
1061.865, 2035.397
1062.968, 2137.833
1064.071, 2231.515
1065.174, 2361.329
1066.277, 2455.108
1067.380, 2690.155
1068.482, 2831.042
1069.584, 3047.101
1070.686, 3152.905
1071.788, 3316.089
1072.890, 3478.005
1073.992, 3597.129
1075.093, 3803.269
1076.194, 3947.768
1077.295, 3920.059
1078.396, 4183.200
1079.497, 4266.775
1080.598, 4389.002
1081.698, 4565.232
1082.799, 4813.740
1083.899, 4940.828
1084.999, 5042.104
1086.099, 5131.397
1087.199, 5420.161
1088.298, 5452.771
1089.398, 5681.605
1090.497, 5708.967
1091.596, 5797.683
1092.695, 5965.561
1093.794, 6121.976
1094.892, 6111.443
1095.991, 6294.183
1097.089, 6414.669
1098.187, 6470.900
1099.285, 6680.907
1100.383, 6636.740
1101.481, 6653.146
1102.579, 6835.702
1103.676, 6802.958
1104.773, 6857.106
1105.870, 6841.463
1106.967, 6730.504
1108.064, 6830.189
1109.161, 6727.719
1110.257, 6695.448
1111.353, 6708.459
1112.449, 6595.931
1113.545, 6618.864
1114.641, 6567.495
1115.737, 6555.339
1116.832, 6502.204
1117.928, 6428.556
1119.023, 6404.463
1120.118, 6467.112
1121.213, 6232.361
1122.308, 6254.338
1123.402, 6096.336
1124.497, 5856.241
1125.591, 6003.278
1126.685, 5639.337
1127.779, 5652.417
1128.873, 5501.370
1129.967, 5358.657
1131.060, 5209.825
1132.153, 5019.017
1133.247, 4909.233
1134.340, 4876.473
1135.433, 4658.756
1136.525, 4559.087
1137.618, 4359.459
1138.710, 4400.855
1139.802, 4198.274
1140.895, 4078.459
1141.987, 4019.223
1143.078, 3736.762
1144.170, 3743.329
1145.261, 3496.962
1146.353, 3380.616
1147.444, 3222.302
1148.535, 3195.029
1149.626, 3051.791
1150.716, 2957.586
1151.807, 2758.436
1152.897, 2713.306
1153.988, 2586.227
1155.078, 2540.179
1156.168, 2456.164
1157.257, 2316.172
1158.347, 2289.203
1159.436, 2073.284
1160.526, 1962.406
1161.615, 1891.578
1162.704, 1802.780
1163.793, 1788.008
1164.881, 1569.272
1165.970, 1504.572
1167.058, 1505.927
1168.147, 1446.339
1169.235, 1257.792
1170.323, 1206.265
1171.410, 1125.758
1172.498, 1074.272
1173.585, 1010.828
1174.673, 955.4155
1175.760, 883.6431
1176.847, 789.6714
1177.934, 718.3516
1179.020, 646.0576
1180.107, 525.7900
1181.193, 491.5513
1182.279, 460.3311
1183.365, 482.1318
1184.451, 445.9663
1185.537, 389.8193
1186.623, 429.6919
1187.708, 259.5908
1188.793, 317.5078
1189.878, 212.4453
1190.963, 189.4009
1192.048, 158.3779
1193.133, 217.3740
1194.217, 158.3901
1195.302, 175.4263
1196.386, 131.4805
1197.470, 185.5518
1198.554, 180.6396
1199.638, 44.74463
1200.721, 223.8662
1201.805, 1.006836
1202.888, 78.16846
1203.971, 8.349609
1205.054, 46.54785
1206.137, 4.236816
1207.219, 15.00830
1208.302, 37.23145
1209.384, 14.51221
1210.466, 1.754395
1211.548, 133.0356
1212.630, 9.667480
1213.712, 91.35938
1214.794, 29.93066
1215.875, 44.23438
1216.956, 14.44531
1218.037, 35.11621
1219.118, 14.78369
1220.199, 42.55811
1221.280, 35.08545
1222.360, 59.72656
1223.441, 42.62354
1224.521, 49.01172
1225.601, 58.65186
1226.681, 19.69971
1227.760, 116.9341
1228.840, 35.60010
1229.919, 6.266602
1230.999, 19.91943
1232.078, 22.56738
1233.157, 14.20605
1234.236, 33.83936
1235.314, 97.47314
1236.393, 6.124023
1237.471, 20.23340
1238.549, 116.3970
1239.627, 38.93604
1240.705, 25.71924
1241.783, 55.37500
1242.860, 1.956543
1243.938, 14.70410
1245.015, 69.63867
1246.092, 35.99365
1247.169, 68.64160
1248.246, 59.70312
1249.323, 10.94189
1250.399, 0.4077150
1251.475, 59.95557
1252.552, 137.3286
1253.628, 13.27686
1254.703, 117.1060
1255.779, 116.4971
1256.855, 158.8975
1257.930, 205.3076
1259.005, 182.7266
1260.080, 177.1553
1261.155, 110.1401
1262.230, 98.62988
1263.305, 220.0820
1264.379, 56.54199
1265.454, 209.0093
1266.528, 141.7500
1267.602, 248.9722
1268.676, 259.5391
1269.750, 198.7617
1270.823, 324.9648
1271.897, 210.6279
1272.970, 253.5371
1274.043, 305.0591
1275.116, 363.5942
1276.189, 351.4009
1277.261, 374.6606
1278.334, 305.1992
1279.406, 311.7422
1280.478, 254.5703
1281.550, 388.1196
1282.622, 373.7974
1283.694, 416.6758
1284.766, 418.3691
1285.837, 492.9727
1286.908, 406.6953
1287.979, 395.2847
1289.050, 408.8530
1290.121, 495.5107
1291.192, 493.1626
1292.262, 501.1914
1293.333, 516.3853
1294.403, 536.0781
1295.473, 613.9712
1296.543, 612.7754
1297.613, 711.2261
1298.682, 661.7910
1299.752, 697.3535
1300.821, 757.9941
1301.890, 626.3701
1302.959, 811.1353
1304.028, 694.7041
1305.096, 867.3418
1306.165, 779.0034
1307.233, 851.8799
1308.301, 840.0381
1309.370, 818.6016
1310.437, 918.1309
1311.505, 842.9556
1312.573, 862.0112
1313.640, 901.5312
1314.708, 832.1133
1315.775, 974.3423
1316.842, 937.8643
1317.908, 890.7515
1318.975, 826.4614
1320.042, 913.3525
1321.108, 883.8760
1322.174, 744.6094
1323.240, 845.7832
1324.306, 794.3057
1325.372, 816.8276
1326.438, 732.3486
1327.503, 727.8687
1328.568, 762.4795
1329.634, 651.3110
1330.699, 787.1357
1331.763, 592.4121
1332.828, 744.2578
1333.893, 617.8691
1334.957, 619.3374
1336.021, 603.4731
1337.085, 578.9819
1338.149, 502.1123
1339.213, 629.6631
1340.277, 601.1680
1341.340, 574.4102
1342.404, 472.0859
1343.467, 540.6045
1344.530, 333.2441
1345.593, 436.2803
1346.655, 444.7012
1347.718, 387.3306
1348.780, 506.3735
1349.843, 344.6084
1350.905, 428.6743
1351.967, 362.1533
1353.028, 335.6494
1354.090, 409.7114
1355.152, 389.3662
1356.213, 297.1191
1357.274, 329.0518
1358.335, 264.1631
1359.396, 178.7607
1360.457, 239.6494
1361.517, 192.4014
1362.578, 239.4116
1363.638, 223.7954
1364.698, 361.0679
1365.758, 171.4395
1366.818, 318.4277
1367.878, 238.7129
1368.937, 132.8223
1369.997, 162.3560
1371.056, 120.4316
1372.115, 174.8213
1373.174, 82.36719
1374.232, 96.99756
1375.291, 110.1445
1376.350, 120.2666
1377.408, 0.7416990
1378.466, 117.5098
1379.524, 180.5698
1380.582, 42.60889
1381.640, 62.74854
1382.697, 135.7642
1383.754, 106.7720
1384.812, 88.76709
1385.869, 83.03564
1386.926, 149.2031
1387.983, 16.14307
1389.039, 43.07031
1390.096, 135.9849
1391.152, 56.88867
1392.208, 125.7778
1393.264, 27.88867
1394.320, 13.06250
1395.376, 41.97705
1396.431, 14.05566
1397.487, 52.14307
1398.542, 4.791016
1399.597, 25.50977
1400.652, 95.18945
1401.707, 63.80762
1402.762, 136.4727
1403.816, 113.7441
1404.871, 74.62939
