##NAMES=Gmelinite-Na
##RRUFFID=R050371
##IDEAL CHEMISTRY=Na_4_(Si_8_Al_4_)O_24_&#183;11H_2_O
##LOCALITY=Cairns Bay, Flinders Range, Australia
##OWNER=RRUFF
##SOURCE=Eugene Schlepp
##DESCRIPTION=Colorless to pink crystals lining a basalt vug
##STATUS=The identification of this mineral has been confirmed by X-ray diffraction and chemical analysis
##URL=rruff.info/R050371
##MEASURED CHEMISTRY=Na_3.81_(Si_8.13_Al_3.88_)O_24_Â·4.27H_2_O
##PIN_ID=L01937
##ORIENTATION=Laser parallel to -c* (0 0 -1). Fiducial mark perpendicular to laser is parallel to a [1 0 0]
264.8880, 0.0000000E+00
266.1030, 118.7119
267.3170, 138.8271
268.5320, 266.7510
269.7460, 353.6895
270.9600, 169.0527
272.1740, 9.944336
273.3880, 33.06738
274.6010, 17.58203
275.8150, 4.602539
277.0280, 18.33105
278.2410, 7.646484
279.4540, 10.55273
280.6670, 22.42090
281.8790, 5.889648
283.0920, 19.36816
284.3040, 51.06543
285.5160, 149.0801
286.7280, 338.3047
287.9400, 273.6494
289.1510, 360.0361
290.3630, 547.3936
291.5740, 528.6572
292.7850, 662.7695
293.9960, 785.6787
295.2070, 881.3359
296.4170, 1136.699
297.6280, 1096.729
298.8380, 1417.389
300.0480, 1500.646
301.2580, 1894.472
302.4680, 2063.903
303.6770, 2169.655
304.8870, 2491.928
306.0960, 2777.623
307.3050, 2988.736
308.5140, 3455.254
309.7230, 3995.169
310.9310, 4488.468
312.1400, 5083.131
313.3480, 5576.694
314.5560, 6098.488
315.7640, 6595.151
316.9720, 7079.119
318.1790, 7558.600
319.3870, 8252.922
320.5940, 8331.734
321.8010, 8609.816
323.0080, 8822.154
324.2150, 8661.736
325.4210, 8434.559
326.6280, 8194.611
327.8340, 8203.892
329.0400, 7143.385
330.2460, 6632.090
331.4510, 5773.998
332.6570, 5589.102
333.8620, 4750.398
335.0680, 4282.885
336.2730, 3757.553
337.4780, 3429.373
338.6820, 2968.576
339.8870, 2584.093
341.0910, 2189.945
342.2950, 1984.783
343.5000, 1653.664
344.7030, 1481.703
345.9070, 1306.980
347.1110, 999.4570
348.3140, 932.1523
349.5170, 837.0381
350.7200, 657.1504
351.9230, 668.4043
353.1260, 548.8311
354.3290, 595.4746
355.5310, 420.2471
356.7330, 382.1113
357.9350, 294.0498
359.1370, 473.0635
360.3390, 317.1621
361.5400, 451.3389
362.7420, 504.5938
363.9430, 423.9277
365.1440, 549.3438
366.3450, 530.8379
367.5460, 572.4111
368.7460, 614.0605
369.9470, 712.7891
371.1470, 810.6006
372.3470, 899.4961
373.5470, 972.4746
374.7460, 1098.543
375.9460, 1209.016
377.1450, 1341.965
378.3450, 1469.313
379.5440, 1630.293
380.7430, 1835.224
381.9410, 1973.781
383.1400, 2205.407
384.3380, 2390.099
385.5370, 2480.854
386.7350, 2824.676
387.9320, 3060.559
389.1300, 3205.505
390.3280, 3493.515
391.5250, 3961.584
392.7220, 4228.714
393.9190, 4672.900
395.1160, 5039.145
396.3130, 5578.727
397.5100, 6113.801
398.7060, 6877.213
399.9020, 7643.705
401.0980, 8597.248
402.2940, 9327.852
403.4900, 10431.52
404.6860, 11479.26
405.8810, 12325.10
407.0760, 13210.06
408.2710, 13709.14
409.4660, 14113.96
410.6610, 14176.48
411.8550, 14167.66
413.0500, 13545.36
414.2440, 13009.01
415.4380, 12353.90
416.6320, 11565.79
417.8260, 10289.78
419.0190, 9611.698
420.2130, 8588.478
421.4060, 7909.529
422.5990, 7120.625
423.7920, 6489.839
424.9850, 5902.242
426.1770, 5348.863
427.3700, 5128.453
428.5620, 4797.490
429.7540, 4405.703
430.9460, 4332.719
432.1380, 4080.695
433.3290, 4011.037
434.5210, 3966.391
435.7120, 3887.145
436.9030, 3996.966
438.0940, 3930.715
439.2850, 4039.148
440.4750, 4096.926
441.6660, 4208.026
442.8560, 4265.285
444.0460, 4414.777
445.2360, 4405.025
446.4260, 4734.590
447.6160, 4859.213
448.8050, 5147.906
449.9940, 5122.666
451.1830, 5397.496
452.3720, 5722.387
453.5610, 5862.595
454.7500, 6295.611
455.9380, 6965.688
457.1260, 7203.822
458.3150, 7332.012
459.5020, 8057.258
460.6900, 8373.554
461.8780, 8824.902
463.0650, 9530.356
464.2530, 10075.80
465.4400, 10889.30
466.6270, 11735.84
467.8130, 12453.43
469.0000, 13606.06
470.1870, 14360.73
471.3730, 15622.44
472.5590, 16762.20
473.7450, 17795.99
474.9310, 19401.82
476.1160, 20841.50
477.3020, 22261.40
478.4870, 23940.44
479.6720, 25798.41
480.8570, 27218.38
482.0420, 29471.77
483.2270, 31430.85
484.4110, 33130.09
485.5960, 35255.23
486.7800, 37128.76
487.9640, 39037.96
489.1480, 40583.38
490.3310, 42432.64
491.5150, 43364.95
492.6980, 44351.41
493.8810, 45306.76
495.0640, 45663.14
496.2470, 45392.55
497.4300, 44769.97
498.6120, 44171.41
499.7950, 42832.89
500.9770, 41437.38
502.1590, 39493.89
503.3410, 36924.43
504.5220, 34413.99
505.7040, 31898.57
506.8850, 29140.16
508.0660, 26183.78
509.2470, 23772.41
510.4280, 21320.07
511.6090, 18887.74
512.7890, 16636.43
513.9700, 15018.13
515.1500, 13112.85
516.3300, 11567.58
517.5100, 10469.33
518.6900, 8979.098
519.8690, 7996.877
521.0490, 7117.666
522.2280, 6259.471
523.4070, 5686.286
524.5860, 4903.115
525.7640, 4367.951
526.9430, 4063.803
528.1210, 3546.661
529.3000, 3102.529
530.4780, 2780.569
531.6560, 2533.173
532.8330, 2122.068
534.0110, 1876.044
535.1880, 1780.260
536.3650, 1612.653
537.5430, 1373.946
538.7190, 1289.609
539.8960, 1167.289
541.0730, 964.4346
542.2490, 967.4092
543.4250, 869.7373
544.6020, 839.1816
545.7780, 551.2129
546.9530, 653.5312
548.1290, 448.6182
549.3040, 304.0527
550.4800, 385.3760
551.6550, 366.6152
552.8300, 393.1113
554.0040, 171.0283
555.1790, 157.8027
556.3540, 100.9746
557.5280, 135.4004
558.7020, 93.96777
559.8760, 51.38672
561.0500, 54.19824
562.2230, 36.70801
563.3970, 82.68262
564.5700, 121.0098
565.7430, 78.29199
566.9160, 216.0420
568.0890, 73.99219
569.2620, 81.04688
570.4340, 165.9082
571.6070, 71.91016
572.7790, 87.93066
573.9510, 108.8799
575.1230, 154.9658
576.2940, 42.30859
577.4660, 90.83594
578.6370, 22.92188
579.8080, 59.10352
580.9790, 131.3086
582.1500, 84.56445
583.3210, 101.7402
584.4910, 0.9892580
585.6620, 42.34961
586.8320, 5.291016
588.0020, 71.94922
589.1720, 187.6064
590.3410, 32.26172
591.5110, 126.9160
592.6800, 75.56445
593.8500, 1.792969
595.0190, 97.83984
596.1880, 144.4756
597.3560, 104.1064
598.5250, 84.76562
599.6930, 72.44727
600.8620, 41.96094
602.0300, 42.78223
603.1970, 7.458984
604.3650, 47.12012
605.5330, 56.76758
606.7000, 144.4023
607.8680, 181.0244
609.0350, 138.6348
610.2020, 112.2314
611.3680, 101.7021
612.5350, 187.4199
613.7010, 39.02539
614.8680, 47.61719
616.0340, 0.1943360
617.2000, 157.7617
618.3660, 27.31152
619.5310, 53.86914
620.6970, 1.412109
621.8620, 14.95020
623.0270, 75.48242
624.1920, 36.01562
625.3570, 158.5557
626.5220, 63.89746
627.6860, 113.5811
628.8500, 39.04883
630.0140, 146.4961
631.1780, 209.9229
632.3420, 58.35059
633.5060, 165.7803
634.6700, 147.1992
635.8330, 163.5908
636.9960, 201.9570
638.1590, 357.2988
639.3220, 431.6143
640.4850, 446.9023
641.6470, 357.1650
642.8100, 437.4062
643.9720, 552.6221
645.1340, 496.8125
646.2960, 699.9775
647.4570, 636.1172
648.6190, 723.2314
649.7800, 831.3193
650.9420, 695.3789
652.1030, 710.4111
653.2640, 830.4258
654.4240, 723.4141
655.5850, 710.3809
656.7450, 695.3213
657.9060, 717.2295
659.0660, 595.1055
660.2260, 578.9512
661.3850, 600.7637
662.5450, 561.5469
663.7040, 439.2969
664.8640, 371.0137
666.0230, 387.6973
667.1820, 290.3477
668.3410, 258.9639
669.4990, 160.6191
670.6580, 21.16602
671.8160, 243.6514
672.9740, 191.1035
674.1320, 138.9092
675.2900, 104.2852
676.4480, 129.9580
677.6050, 89.74219
678.7630, 91.06934
679.9200, 72.68750
681.0770, 25.16797
682.2340, 40.87891
683.3900, 18.17188
684.5470, 27.46094
685.7030, 27.17773
686.8590, 28.55664
688.0150, 11.32422
689.1710, 8.775391
690.3270, 54.14160
691.4830, 24.97754
692.6380, 62.94629
693.7930, 117.8809
694.9480, 35.72754
696.1030, 186.3330
697.2580, 39.82910
698.4130, 49.39062
699.5670, 88.71973
700.7210, 72.22168
701.8750, 74.63672
703.0290, 155.7861
704.1830, 139.1709
705.3370, 240.4229
706.4900, 286.2295
707.6430, 320.9561
708.7970, 407.9180
709.9490, 358.0156
711.1020, 340.6465
712.2550, 233.0625
713.4070, 267.6758
714.5600, 145.9922
715.7120, 386.5264
716.8640, 226.2529
718.0160, 298.4580
719.1670, 296.5557
720.3190, 292.7676
721.4700, 198.7256
722.6210, 388.2246
723.7720, 290.4717
724.9230, 371.2061
726.0740, 411.7480
727.2250, 318.8584
728.3750, 421.0615
729.5250, 469.1855
730.6750, 417.4238
731.8250, 383.7373
732.9750, 494.1689
734.1240, 342.4883
735.2740, 569.3027
736.4230, 386.4658
737.5720, 523.1055
738.7210, 425.0000
739.8700, 645.7607
741.0190, 541.1582
742.1670, 653.5371
743.3150, 553.8740
744.4630, 582.5000
745.6110, 704.7930
746.7590, 844.3643
747.9070, 796.8535
749.0540, 680.1006
750.2020, 878.4326
751.3490, 1059.526
752.4960, 955.4629
753.6430, 1119.759
754.7890, 1157.472
755.9360, 1294.576
757.0820, 1479.440
758.2280, 1542.771
759.3740, 1614.339
760.5200, 1665.782
761.6660, 1758.129
762.8120, 1827.957
763.9570, 1742.525
765.1020, 1766.949
766.2470, 1899.357
767.3920, 1831.086
768.5370, 1706.675
769.6810, 1623.463
770.8260, 1683.302
771.9700, 1557.523
773.1140, 1652.272
774.2580, 1624.966
775.4020, 1557.605
776.5460, 1566.008
777.6890, 1461.065
778.8320, 1468.188
779.9750, 1288.530
781.1180, 1201.472
782.2610, 1151.338
783.4040, 1100.273
784.5460, 1042.209
785.6890, 992.0938
786.8310, 996.4160
787.9730, 928.8818
789.1150, 1007.063
790.2560, 887.6875
791.3980, 958.3018
792.5390, 904.5752
793.6810, 878.6611
794.8220, 908.4688
795.9630, 716.3027
797.1030, 741.1025
798.2440, 709.6279
799.3840, 743.5039
800.5240, 704.3857
801.6650, 600.3975
802.8040, 598.6982
803.9440, 599.2617
805.0840, 471.4512
806.2230, 344.5859
807.3630, 397.5010
808.5020, 450.1436
809.6410, 365.1094
810.7790, 264.9482
811.9180, 481.5146
813.0570, 276.8359
814.1950, 240.2109
815.3330, 338.1611
816.4710, 286.0439
817.6090, 248.4111
818.7470, 203.8994
819.8840, 286.9785
821.0220, 267.8887
822.1590, 232.1602
823.2960, 140.0908
824.4330, 98.19629
825.5690, 135.8965
826.7060, 112.7803
827.8420, 155.4482
828.9790, 144.9512
830.1150, 167.9990
831.2510, 151.1533
832.3860, 188.8779
833.5220, 203.3145
834.6570, 168.4365
835.7930, 99.06152
836.9280, 72.93359
838.0630, 128.5723
839.1980, 53.23340
840.3320, 130.1875
841.4670, 169.0342
842.6010, 147.2910
843.7350, 19.65820
844.8690, 83.97266
846.0030, 26.76660
847.1370, 74.44043
848.2700, 32.60742
849.4040, 59.63184
850.5370, 93.72168
851.6700, 44.36621
852.8030, 33.38086
853.9360, 19.26270
855.0680, 77.17969
856.2000, 8.057617
857.3330, 66.89941
858.4650, 138.5176
859.5970, 3.298828
860.7290, 99.01465
861.8600, 50.30957
862.9920, 33.27148
864.1230, 25.79883
865.2540, 26.26660
866.3850, 103.6787
867.5160, 80.04395
868.6460, 39.35840
869.7770, 7.376953
870.9070, 24.81836
872.0370, 103.0400
873.1670, 96.01758
874.2970, 96.89160
875.4270, 115.7539
876.5570, 64.42871
877.6860, 168.2910
878.8150, 176.9697
879.9440, 94.60547
881.0730, 160.5449
882.2020, 80.49316
883.3300, 86.24512
884.4590, 8.298828
885.5870, 58.90332
886.7150, 56.59668
887.8430, 12.62305
888.9710, 62.79199
890.0990, 36.08301
891.2260, 79.97363
892.3530, 78.01270
893.4810, 26.90625
894.6080, 74.21973
895.7340, 48.43066
896.8610, 58.71777
897.9880, 86.08496
899.1140, 81.54980
900.2400, 41.89551
901.3660, 18.67871
902.4920, 11.69043
903.6180, 40.01562
904.7430, 77.69922
905.8690, 82.50098
906.9940, 24.39160
908.1190, 475.6602
909.2440, 275.6777
910.3690, 551.6621
911.4930, 431.6133
912.6180, 703.5283
913.7420, 452.4824
914.8660, 4.736328
915.9900, 23.07227
917.1140, 24.84277
918.2380, 2.578125
919.3610, 36.42383
920.4850, 11.06543
921.6080, 91.55371
922.7310, 41.14160
923.8540, 93.69336
924.9760, 43.78613
926.0990, 7.321289
927.2210, 41.89355
928.3440, 52.48242
929.4660, 102.8252
930.5880, 80.13965
931.7090, 72.42383
932.8310, 228.6768
933.9520, 21.90625
935.0740, 306.1035
936.1950, 84.27441
937.3160, 148.4180
938.4360, 32.53516
939.5570, 186.6230
940.6780, 114.6846
941.7980, 204.6465
942.9180, 16.65918
944.0380, 102.6562
945.1580, 147.6289
946.2780, 85.18555
947.3970, 199.1113
948.5170, 235.6797
949.6360, 283.0762
950.7550, 149.8682
951.8740, 255.4268
952.9930, 86.81836
954.1110, 245.0303
955.2300, 228.5898
956.3480, 142.0771
957.4660, 359.4199
958.5840, 310.3027
959.7020, 312.7432
960.8190, 368.6836
961.9370, 245.4766
963.0540, 420.6924
964.1710, 424.8818
965.2880, 371.2246
966.4050, 393.4854
967.5220, 569.9170
968.6380, 427.3965
969.7550, 703.7393
970.8710, 588.6826
971.9870, 822.4678
973.1030, 830.7256
974.2190, 870.2490
975.3340, 861.5410
976.4500, 959.9883
977.5650, 1065.391
978.6800, 1038.206
979.7950, 1147.221
980.9100, 1032.409
982.0250, 1212.362
983.1390, 1247.632
984.2530, 1338.416
985.3680, 1220.546
986.4820, 1193.116
987.5950, 1347.479
988.7090, 1544.482
989.8230, 1464.488
990.9360, 1335.081
992.0490, 1549.996
993.1620, 1517.335
994.2750, 1568.721
995.3880, 1641.888
996.5010, 1612.952
997.6130, 1621.409
998.7250, 1727.722
999.8370, 1835.064
1000.949, 1787.239
1002.061, 1919.283
1003.173, 1743.907
1004.284, 1869.838
1005.396, 1900.222
1006.507, 1956.203
1007.618, 1901.655
1008.729, 1991.799
1009.839, 1992.023
1010.950, 1970.559
1012.060, 2075.008
1013.171, 2092.524
1014.281, 1934.700
1015.391, 2045.156
1016.500, 1966.281
1017.610, 2048.438
1018.719, 2041.786
1019.829, 2000.996
1020.938, 1982.396
1022.047, 2034.898
1023.156, 1991.991
1024.264, 1872.810
1025.373, 2000.991
1026.481, 1764.271
1027.589, 1877.130
1028.697, 1789.745
1029.805, 1731.030
1030.913, 1791.723
1032.020, 1738.750
1033.128, 1800.120
1034.235, 1600.234
1035.342, 1657.668
1036.449, 1564.553
1037.556, 1481.708
1038.663, 1558.614
1039.769, 1561.283
1040.875, 1482.662
1041.981, 1400.467
1043.087, 1330.280
1044.193, 1376.101
1045.299, 1332.930
1046.404, 1349.767
1047.510, 1309.612
1048.615, 1306.525
1049.720, 1189.831
1050.825, 1319.144
1051.930, 1364.343
1053.034, 1428.746
1054.139, 1334.654
1055.243, 1368.330
1056.347, 1406.049
1057.451, 1555.547
1058.555, 1522.787
1059.658, 1597.991
1060.762, 1703.494
1061.865, 1733.141
1062.968, 1913.022
1064.071, 2094.833
1065.174, 2231.637
1066.277, 2263.041
1067.380, 2477.681
1068.482, 2526.740
1069.584, 2577.690
1070.686, 2810.777
1071.788, 2775.561
1072.890, 3016.675
1073.992, 3181.804
1075.093, 3149.947
1076.194, 3373.768
1077.295, 3445.941
1078.396, 3755.129
1079.497, 3812.317
1080.598, 3857.536
1081.698, 4066.772
1082.799, 4300.594
1083.899, 4342.864
1084.999, 4546.318
1086.099, 4491.158
1087.199, 4711.481
1088.298, 4778.822
1089.398, 5083.180
1090.497, 5084.557
1091.596, 5013.584
1092.695, 5169.707
1093.794, 5395.625
1094.892, 5279.646
1095.991, 5514.481
1097.089, 5574.977
1098.187, 5652.488
1099.285, 5502.373
1100.383, 5808.922
1101.481, 5646.488
1102.579, 5717.070
1103.676, 5939.678
1104.773, 5830.307
1105.870, 5829.953
1106.967, 5980.571
1108.064, 6012.262
1109.161, 5756.994
1110.257, 5780.719
1111.353, 5721.469
1112.449, 5663.238
1113.545, 5801.145
1114.641, 5834.969
1115.737, 5787.664
1116.832, 5718.602
1117.928, 5686.277
1119.023, 5558.326
1120.118, 5476.602
1121.213, 5648.553
1122.308, 5513.539
1123.402, 5478.551
1124.497, 5143.146
1125.591, 5134.195
1126.685, 4936.852
1127.779, 4769.969
1128.873, 4801.128
1129.967, 4565.305
1131.060, 4237.500
1132.153, 4478.723
1133.247, 4254.965
1134.340, 4374.240
1135.433, 4108.543
1136.525, 3975.864
1137.618, 3640.218
1138.710, 3645.625
1139.802, 3715.084
1140.895, 3435.562
1141.987, 3453.062
1143.078, 3323.609
1144.170, 3028.006
1145.261, 3143.587
1146.353, 2936.224
1147.444, 2956.878
1148.535, 2668.553
1149.626, 2613.245
1150.716, 2493.965
1151.807, 2307.727
1152.897, 2377.527
1153.988, 2186.351
1155.078, 2132.191
1156.168, 2133.067
1157.257, 1845.964
1158.347, 1859.902
1159.436, 1809.862
1160.526, 1690.864
1161.615, 1618.910
1162.704, 1542.784
1163.793, 1471.122
1164.881, 1395.296
1165.970, 1309.487
1167.058, 1245.707
1168.147, 1029.964
1169.235, 1115.238
1170.323, 976.5547
1171.410, 1091.916
1172.498, 877.3027
1173.585, 829.7041
1174.673, 590.1221
1175.760, 649.5547
1176.847, 738.0049
1177.934, 729.4707
1179.020, 357.9512
1180.107, 585.4521
1181.193, 540.9707
1182.279, 300.5068
1183.365, 451.0605
1184.451, 409.6309
1185.537, 289.2207
1186.623, 357.8271
1187.708, 411.4502
1188.793, 328.0947
1189.878, 315.7676
1190.963, 267.4580
1192.048, 286.1758
1193.133, 158.9082
1194.217, 260.6562
1195.302, 106.4189
1196.386, 18.80273
1197.470, 72.98535
1198.554, 268.7891
1199.638, 11.60645
1200.721, 52.43652
1201.805, 120.2842
1202.888, 73.14453
1203.971, 133.0195
1205.054, 76.90820
1206.137, 143.8105
1207.219, 49.72656
1208.302, 48.65625
1209.384, 89.59961
1210.466, 41.55664
1211.548, 50.41504
1212.630, 20.49219
1213.712, 23.49609
1214.794, 6.501953
1215.875, 18.49121
1216.956, 78.52637
1218.037, 123.5566
1219.118, 47.59863
1220.199, 55.65332
1221.280, 84.27637
1222.360, 65.22754
1223.441, 99.19238
1224.521, 16.18555
1225.601, 35.17383
1226.681, 131.8359
1227.760, 5.854492
1228.840, 9.105469
1229.919, 146.9395
1230.999, 62.65527
1232.078, 124.5518
1233.157, 56.19434
1234.236, 86.28125
1235.314, 37.37891
1236.393, 149.5098
1237.471, 126.0127
1238.549, 228.9062
1239.627, 82.08691
1240.705, 15.09180
1241.783, 80.10547
1242.860, 131.8711
1243.938, 43.09863
1245.015, 69.91992
1246.092, 26.96191
1247.169, 35.00684
1248.246, 21.06055
1249.323, 25.11914
1250.399, 50.81738
1251.475, 29.94824
1252.552, 41.21094
1253.628, 5.829102
1254.703, 65.13477
1255.779, 3.493164
1256.855, 38.48242
1257.930, 96.46289
1259.005, 109.4521
1260.080, 11.55273
1261.155, 21.46680
1262.230, 138.4922
1263.305, 31.49023
1264.379, 136.5273
1265.454, 84.99902
1266.528, 65.04785
1267.602, 119.1016
1268.676, 70.18359
1269.750, 138.2500
1270.823, 88.99902
1271.897, 202.0752
1272.970, 89.84668
1274.043, 148.1855
1275.116, 110.9893
1276.189, 99.08691
1277.261, 265.4463
1278.334, 252.4902
1279.406, 129.7432
1280.478, 268.7920
1281.550, 188.8799
1282.622, 311.9385
1283.694, 321.9932
1284.766, 139.2959
1285.837, 238.5049
1286.908, 188.5635
1287.979, 228.6230
1289.050, 315.6816
1290.121, 426.1572
1291.192, 409.1348
1292.262, 347.2715
1293.333, 384.4805
1294.403, 392.6709
1295.473, 355.7227
1296.543, 296.9033
1297.613, 478.9512
1298.682, 344.0439
1299.752, 422.2119
1300.821, 381.2500
1301.890, 424.2842
1302.959, 418.3145
1304.028, 398.3418
1305.096, 474.6514
1306.165, 445.8096
1307.233, 584.9170
1308.301, 504.9268
1309.370, 485.9297
1310.437, 596.9307
1311.505, 513.9277
1312.573, 659.9189
1313.640, 433.9102
1314.708, 522.9023
1315.775, 490.8945
1316.842, 587.2793
1317.908, 580.2715
1318.975, 517.2646
1320.042, 449.4424
1321.108, 549.4336
1322.174, 571.4238
1323.240, 659.4141
1324.306, 548.4033
1325.372, 680.0195
1326.438, 529.0049
1327.503, 513.9912
1328.568, 581.9756
1329.634, 387.1123
1330.699, 372.0938
1331.763, 469.0732
1332.828, 526.0508
1333.893, 578.0273
1334.957, 471.0020
1336.021, 495.9766
1337.085, 382.9414
1338.149, 505.9053
1339.213, 253.8623
1340.277, 203.8193
1341.340, 323.2422
1342.404, 222.1953
1343.467, 329.9795
1344.530, 408.3945
1345.593, 238.3428
1346.655, 158.2695
1347.718, 358.1953
1348.780, 286.8154
1349.843, 456.0723
1350.905, 389.2539
1351.967, 333.6357
1353.028, 440.9258
1354.090, 426.4170
1355.152, 305.2646
1356.213, 367.9639
1357.274, 204.4385
1358.335, 347.2061
1359.396, 320.0381
1360.457, 23.79492
1361.517, 205.5420
1362.578, 297.4639
1363.638, 229.1289
1364.698, 36.53516
1365.758, 265.8291
1366.818, 243.6240
1367.878, 174.5029
1368.937, 317.2529
1369.997, 258.9902
1371.056, 206.7539
1372.115, 142.9697
1373.174, 255.2910
1374.232, 172.7559
1375.291, 173.6055
1376.350, 264.0986
1377.408, 131.3848
1378.466, 31.99902
1379.524, 256.6533
1380.582, 135.2451
1381.640, 190.0791
1382.697, 61.65625
1383.754, 61.33887
1384.812, 71.88672
1385.869, 239.4307
1386.926, 106.9678
1387.983, 81.25586
1389.039, 113.7822
1390.096, 19.69727
1391.152, 153.8037
1392.208, 5.392578
1393.264, 147.8730
1394.320, 184.3398
1395.376, 71.87305
1396.431, 259.6475
1397.487, 2.097656
1398.542, 212.5068
1399.597, 139.9121
1400.652, 111.4775
1401.707, 113.1436
1402.762, 64.12695
1403.816, 34.32520
1404.871, 202.5117
1405.925, 40.67676
1406.979, 98.82324
1408.033, 73.00293
1409.086, 81.12988
1410.140, 132.3389
1411.194, 40.41406
1412.247, 48.62305
1413.300, 211.6719
1414.353, 113.7178
1415.406, 289.5840
1416.458, 5.426758
1417.511, 271.3037
1418.563, 275.0781
1419.616, 51.82617
1420.668, 56.54297
