##NAMES=Gmelinite-Na
##RRUFFID=R050371
##IDEAL CHEMISTRY=Na_4_(Si_8_Al_4_)O_24_&#183;11H_2_O
##LOCALITY=Cairns Bay, Flinders Range, Australia
##OWNER=RRUFF
##SOURCE=Eugene Schlepp
##DESCRIPTION=Colorless to pink crystals lining a basalt vug
##STATUS=The identification of this mineral has been confirmed by X-ray diffraction and chemical analysis
##URL=rruff.info/R050371
##MEASURED CHEMISTRY=Na_3.81_(Si_8.13_Al_3.88_)O_24_Â·4.27H_2_O
##PIN_ID=L01937
##ORIENTATION=Laser parallel to -c* (0 0 -1). Fiducial mark perpendicular to laser is parallel to a [1 0 0]
264.8880, 0.0000000E+00
266.1030, 113.0215
267.3170, 89.57129
268.5320, 48.45020
269.7460, 133.2500
270.9600, 99.61719
272.1740, 45.04883
273.3880, 31.81348
274.6010, 10.85645
275.8150, 101.5117
277.0280, 6.429688
278.2410, 12.17188
279.4540, 58.09961
280.6670, 83.78027
281.8790, 8.960938
283.0920, 36.42578
284.3040, 175.2598
285.5160, 215.4248
286.7280, 236.8145
287.9400, 383.3418
289.1510, 442.9268
290.3630, 567.5010
291.5740, 639.0000
292.7850, 750.1484
293.9960, 869.5547
295.2070, 975.5146
296.4170, 1100.206
297.6280, 1219.590
298.8380, 1612.632
300.0480, 1712.478
301.2580, 1981.557
302.4680, 2126.367
303.6770, 2400.681
304.8870, 2657.457
306.0960, 3002.664
307.3050, 3359.688
308.5140, 3805.037
309.7230, 4236.758
310.9310, 4798.590
312.1400, 5430.799
313.3480, 5960.367
314.5560, 6589.281
315.7640, 7207.521
316.9720, 7734.082
318.1790, 8400.953
319.3870, 8775.120
320.5940, 9226.582
321.8010, 9486.328
323.0080, 9434.354
324.2150, 9311.649
325.4210, 9299.205
326.6280, 8842.005
327.8340, 8262.051
329.0400, 7655.328
330.2460, 7166.832
331.4510, 6556.555
332.6570, 6022.488
333.8620, 5364.627
335.0680, 4805.967
336.2730, 4318.506
337.4780, 3711.203
338.6820, 3543.931
339.8870, 2873.685
341.0910, 2541.461
342.2950, 2389.242
343.5000, 1959.070
344.7030, 1719.967
345.9070, 1451.906
347.1110, 1289.981
348.3140, 1094.684
349.5170, 956.6582
350.7200, 847.3623
351.9230, 677.3789
353.1260, 692.5635
354.3290, 592.9795
355.5310, 625.5332
356.7330, 524.1680
357.9350, 413.9004
359.1370, 440.7188
360.3390, 510.6191
361.5400, 427.6045
362.7420, 401.6758
363.9430, 554.8320
365.1440, 498.0938
366.3450, 620.4561
367.5460, 701.9150
368.7460, 731.5205
369.9470, 844.2139
371.1470, 895.9873
372.3470, 1001.895
373.5470, 1053.907
374.7460, 1089.035
375.9460, 1384.330
377.1450, 1422.716
378.3450, 1695.217
379.5440, 1744.812
380.7430, 1993.480
381.9410, 2265.215
383.1400, 2409.018
384.3380, 2599.885
385.5370, 2819.816
386.7350, 3064.812
387.9320, 3230.873
389.1300, 3380.994
390.3280, 3715.178
391.5250, 4055.418
392.7220, 4423.108
393.9190, 4815.080
395.1160, 5346.495
396.3130, 5897.965
397.5100, 6481.491
398.7060, 7202.069
399.9020, 8166.701
401.0980, 8759.388
402.2940, 9674.169
403.4900, 10787.02
404.6860, 11576.00
405.8810, 12597.08
407.0760, 13372.31
408.2710, 13963.64
409.4660, 14381.93
410.6610, 14774.19
411.8550, 14555.39
413.0500, 14348.59
414.2440, 13747.58
415.4380, 12862.71
416.6320, 11964.89
417.8260, 11385.04
419.0190, 10077.41
420.2130, 9132.971
421.4060, 8173.461
422.5990, 7659.340
423.7920, 6997.675
424.9850, 6304.223
426.1770, 5738.270
427.3700, 5530.863
428.5620, 5283.352
429.7540, 4789.138
430.9460, 4677.602
432.1380, 4411.900
433.3290, 4377.129
434.5210, 4331.149
435.7120, 4466.000
436.9030, 4459.264
438.0940, 4458.145
439.2850, 4733.467
440.4750, 4616.000
441.6660, 4750.896
442.8560, 4911.482
444.0460, 5062.980
445.2360, 5071.465
446.4260, 5343.027
447.6160, 5591.666
448.8050, 5795.270
449.9940, 6138.667
451.1830, 6380.094
452.3720, 6812.840
453.5610, 6940.832
454.7500, 7287.887
455.9380, 7562.006
457.1260, 7969.186
458.3150, 8582.423
459.5020, 8806.717
460.6900, 9570.070
461.8780, 10037.47
463.0650, 10906.19
464.2530, 11628.70
465.4400, 12192.33
466.6270, 13344.55
467.8130, 14252.21
469.0000, 15293.90
470.1870, 16213.24
471.3730, 17818.51
472.5590, 18699.34
473.7450, 20095.27
474.9310, 21519.18
476.1160, 22817.12
477.3020, 24765.86
478.4870, 26323.50
479.6720, 28032.56
480.8570, 30105.65
482.0420, 32211.92
483.2270, 33853.38
484.4110, 35941.97
485.5960, 38025.46
486.7800, 39908.85
487.9640, 41997.36
489.1480, 43455.70
490.3310, 45212.71
491.5150, 46502.61
492.6980, 47296.05
493.8810, 47843.79
495.0640, 48372.25
496.2470, 48415.73
497.4300, 47952.25
498.6120, 47114.77
499.7950, 45581.32
500.9770, 43783.91
502.1590, 41399.50
503.3410, 39028.11
504.5220, 36804.76
505.7040, 34045.42
506.8850, 30970.10
508.0660, 28142.79
509.2470, 25656.50
510.4280, 22817.23
511.6090, 20476.98
512.7890, 18123.74
513.9700, 16093.52
515.1500, 14255.31
516.3300, 12643.11
517.5100, 11029.93
518.6900, 9818.764
519.8690, 8641.604
521.0490, 7739.455
522.2280, 6827.318
523.4070, 6003.189
524.5860, 5368.070
525.7640, 4659.959
526.9430, 4268.856
528.1210, 3777.760
529.3000, 3348.671
530.4780, 2944.590
531.6560, 2743.514
532.8330, 2537.643
534.0110, 2225.805
535.1880, 2027.029
536.3650, 1759.130
537.5430, 1618.385
538.7190, 1402.856
539.8960, 1229.434
541.0730, 1053.146
542.2490, 866.4131
543.4250, 906.8262
544.6020, 799.8198
545.7780, 806.7715
546.9530, 519.5254
548.1290, 608.3701
549.3040, 506.8169
550.4800, 417.4160
551.6550, 385.2407
552.8300, 281.1943
554.0040, 244.9697
555.1790, 194.1211
556.3540, 186.8154
557.5280, 279.5571
558.7020, 142.2295
559.8760, 67.00879
561.0500, 35.89990
562.2230, 61.07959
563.3970, 43.08936
564.5700, 34.11230
565.7430, 37.83301
566.9160, 21.42871
568.0890, 79.25391
569.2620, 21.79639
570.4340, 52.84521
571.6070, 120.1030
572.7790, 77.98389
573.9510, 108.8882
575.1230, 134.6851
576.2940, 112.6831
577.4660, 195.7290
578.6370, 106.8516
579.8080, 37.01465
580.9790, 77.94482
582.1500, 114.1421
583.3210, 106.3940
584.4910, 29.69922
585.6620, 14.98926
586.8320, 73.67139
588.0020, 206.3521
589.1720, 21.97217
590.3410, 45.70996
591.5110, 36.38916
592.6800, 122.0630
593.8500, 116.7305
595.0190, 195.3906
596.1880, 161.9355
597.3560, 50.68262
598.5250, 114.3130
599.6930, 78.93799
600.8620, 108.5674
602.0300, 22.19971
603.1970, 17.16357
604.3650, 62.45898
605.5330, 10.07666
606.7000, 20.31738
607.8680, 47.26514
609.0350, 148.8345
610.2020, 64.59375
611.3680, 4.932129
612.5350, 83.45215
613.7010, 38.95605
614.8680, 66.46387
616.0340, 69.95557
617.2000, 11.57373
618.3660, 56.11914
619.5310, 109.2871
620.6970, 95.68750
621.8620, 44.09131
623.0270, 77.52539
624.1920, 30.21045
625.3570, 10.94580
626.5220, 62.30469
627.6860, 46.53076
628.8500, 3.262207
630.0140, 12.09912
631.1780, 28.01270
632.3420, 105.0923
633.5060, 44.14746
634.6700, 182.1743
635.8330, 175.1851
636.9960, 276.1719
638.1590, 254.1333
639.3220, 367.0811
640.4850, 365.0000
641.6470, 467.8896
642.8100, 437.7549
643.9720, 472.5913
645.1340, 528.3989
646.2960, 636.1758
647.4570, 561.9224
648.6190, 783.6377
649.7800, 653.3213
650.9420, 699.9741
652.1030, 774.6030
653.2640, 798.2021
654.4240, 749.7671
655.5850, 629.2998
656.7450, 694.7988
657.9060, 620.2642
659.0660, 587.6958
660.2260, 669.0928
661.3850, 644.4541
662.5450, 551.7798
663.7040, 527.0684
664.8640, 404.3203
666.0230, 455.5347
667.1820, 371.0190
668.3410, 288.8530
669.4990, 247.9546
670.6580, 290.0190
671.8160, 178.0435
672.9740, 174.0762
674.1320, 163.0186
675.2900, 23.91895
676.4480, 43.89209
677.6050, 67.66699
678.7630, 112.1240
679.9200, 36.96973
681.0770, 72.12305
682.2340, 143.4814
683.3900, 14.37939
684.5470, 64.63086
685.7030, 2.992188
686.8590, 40.58789
688.0150, 148.1753
689.1710, 77.62939
690.3270, 44.41064
691.4830, 3.788574
692.6380, 123.9111
693.7930, 13.44336
694.9480, 137.9087
696.1030, 83.45508
697.2580, 13.47949
698.4130, 85.49023
699.5670, 48.55566
700.7210, 127.3096
701.8750, 87.49023
703.0290, 277.4551
704.1830, 126.8682
705.3370, 108.1489
706.4900, 322.6123
707.6430, 227.7666
708.7970, 210.1128
709.9490, 341.0757
711.1020, 321.2295
712.2550, 322.1934
713.4070, 257.3057
714.5600, 333.2734
715.7120, 400.4883
716.8640, 457.8101
718.0160, 312.5503
719.1670, 226.2100
720.3190, 388.1284
721.4700, 378.6255
722.6210, 381.3770
723.7720, 436.5234
724.9230, 411.4331
726.0740, 410.2109
727.2250, 402.4243
728.3750, 545.7568
729.5250, 500.7197
730.6750, 552.9097
731.8250, 479.2422
732.9750, 551.2129
734.1240, 505.0649
735.2740, 556.6328
736.4230, 604.4248
737.5720, 668.0186
738.7210, 597.0205
739.8700, 590.8530
741.0190, 602.1465
742.1670, 597.0425
743.3150, 660.7388
744.4630, 772.4302
745.6110, 815.7524
746.7590, 851.1899
747.9070, 962.2485
749.0540, 1004.390
750.2020, 984.0688
751.3490, 1093.032
752.4960, 1243.887
753.6430, 1278.912
754.7890, 1433.220
755.9360, 1515.709
757.0820, 1487.827
758.2280, 1741.403
759.3740, 1766.257
760.5200, 1800.640
761.6660, 1886.791
762.8120, 1909.290
763.9570, 1922.164
765.1020, 1934.101
766.2470, 1977.137
767.3920, 1943.839
768.5370, 1917.052
769.6810, 1874.034
770.8260, 1765.938
771.9700, 1687.387
773.1140, 1756.091
774.2580, 1605.069
775.4020, 1491.703
776.5460, 1532.136
777.6890, 1542.252
778.8320, 1442.210
779.9750, 1279.185
781.1180, 1304.258
782.2610, 1224.456
783.4040, 1295.324
784.5460, 1287.090
785.6890, 1209.735
786.8310, 1062.494
787.9730, 1090.198
789.1150, 1072.523
790.2560, 873.9858
791.3980, 920.1675
792.5390, 931.9868
793.6810, 910.7256
794.8220, 758.5508
795.9630, 775.5464
797.1030, 724.7524
798.2440, 670.6641
799.3840, 710.8389
800.5240, 577.3955
801.6650, 615.9287
802.8040, 585.7075
803.9440, 587.1226
805.0840, 520.0820
806.2230, 508.4150
807.3630, 412.7954
808.5020, 475.0605
809.6410, 340.0703
810.7790, 404.9941
811.9180, 448.8027
813.0570, 313.6851
814.1950, 344.3594
815.3330, 166.7637
816.4710, 301.0068
817.6090, 268.0596
818.7470, 302.5029
819.8840, 220.7456
821.0220, 176.3511
822.1590, 226.9409
823.2960, 208.6719
824.4330, 191.2539
825.5690, 211.1753
826.7060, 123.8853
827.8420, 194.3296
828.9790, 229.6074
830.1150, 107.0249
831.2510, 132.0264
832.3860, 94.44727
833.5220, 180.7808
834.6570, 159.1455
835.7930, 129.3682
836.9280, 57.24463
838.0630, 86.18311
839.1980, 91.22852
840.3320, 52.85449
841.4670, 59.58008
842.6010, 82.91553
843.7350, 15.56885
844.8690, 77.58887
846.0030, 98.61426
847.1370, 4.963867
848.2700, 56.26660
849.4040, 54.52734
850.5370, 22.60645
851.6700, 104.8013
852.8030, 24.03320
853.9360, 8.096680
855.0680, 29.81738
856.2000, 70.95947
857.3330, 81.93213
858.4650, 101.8784
859.5970, 8.200684
860.7290, 102.6548
861.8600, 16.46045
862.9920, 43.20703
864.1230, 61.09912
865.2540, 5.502930
866.3850, 30.04297
867.5160, 18.52881
868.6460, 35.95996
869.7770, 40.06689
870.9070, 65.66650
872.0370, 33.94531
873.1670, 1.172852
874.2970, 38.65967
875.4270, 37.44141
876.5570, 46.30176
877.6860, 29.63867
878.8150, 14.78076
879.9440, 3.988281
881.0730, 14.98926
882.2020, 12.42676
883.3300, 51.94385
884.4590, 32.39795
885.5870, 56.90234
886.7150, 26.51416
887.8430, 72.11768
888.9710, 8.160645
890.0990, 118.3916
891.2260, 66.41943
892.3530, 44.30762
893.4810, 43.24658
894.6080, 81.25781
895.7340, 9.639648
896.8610, 30.50732
897.9880, 7.689453
899.1140, 108.9058
900.2400, 34.78662
901.3660, 18.56299
902.4920, 67.03564
903.6180, 56.11621
904.7430, 105.1455
905.8690, 2.652832
906.9940, 17.11816
908.1190, 36.45459
909.2440, 8.086426
910.3690, 3.238281
911.4930, 53.47754
912.6180, 89.74121
913.7420, 111.9243
914.8660, 18.92676
915.9900, 52.17676
917.1140, 6.244629
918.2380, 69.27490
919.3610, 77.27148
920.4850, 90.23438
921.6080, 47.16357
922.7310, 44.05957
923.8540, 40.07861
924.9760, 7.267090
926.0990, 86.50830
927.2210, 17.25244
928.3440, 69.96436
929.4660, 71.64453
930.5880, 13.29443
931.7090, 19.91260
932.8310, 130.4995
933.9520, 124.0591
935.0740, 70.59033
936.1950, 178.0942
937.3160, 131.5718
938.4360, 47.02344
939.5570, 113.4468
940.6780, 111.8447
941.7980, 86.21680
942.9180, 123.5640
944.0380, 107.8872
945.1580, 196.1382
946.2780, 128.4150
947.3970, 218.6689
948.5170, 168.7729
949.6360, 175.0020
950.7550, 98.47852
951.8740, 131.0537
952.9930, 246.3867
954.1110, 168.4712
955.2300, 274.1982
956.3480, 275.7539
957.4660, 339.5776
958.5840, 342.3452
959.7020, 316.0498
960.8190, 345.8291
961.9370, 427.2100
963.0540, 482.9204
964.1710, 509.8262
965.2880, 396.1426
966.4050, 480.6670
967.5220, 521.9575
968.6380, 677.6987
969.7550, 683.3721
970.8710, 603.9194
971.9870, 722.8901
973.1030, 792.1812
974.2190, 833.5269
975.3340, 1007.469
976.4500, 978.5298
977.5650, 1070.842
978.6800, 1117.104
979.7950, 1226.379
980.9100, 1192.816
982.0250, 1284.454
983.1390, 1247.527
984.2530, 1359.586
985.3680, 1532.052
986.4820, 1484.499
987.5950, 1415.512
988.7090, 1490.532
989.8230, 1635.239
990.9360, 1561.536
992.0490, 1647.925
993.1620, 1621.405
994.2750, 1686.605
995.3880, 1784.081
996.5010, 1730.633
997.6130, 1933.707
998.7250, 1734.713
999.8370, 1878.921
1000.949, 1919.854
1002.061, 1937.599
1003.173, 2001.005
1004.284, 2026.772
1005.396, 2055.138
1006.507, 2076.223
1007.618, 2118.448
1008.729, 2195.208
1009.839, 2032.081
1010.950, 2262.436
1012.060, 2189.876
1013.171, 2146.291
1014.281, 2226.424
1015.391, 2232.909
1016.500, 2272.839
1017.610, 2081.092
1018.719, 2104.617
1019.829, 2154.649
1020.938, 2292.831
1022.047, 2158.003
1023.156, 2144.015
1024.264, 2154.688
1025.373, 2035.371
1026.481, 2002.494
1027.589, 2047.737
1028.697, 1873.648
1029.805, 1864.825
1030.913, 1845.036
1032.020, 1837.736
1033.128, 1901.141
1034.235, 1759.566
1035.342, 1814.761
1036.449, 1741.351
1037.556, 1720.909
1038.663, 1664.686
1039.769, 1580.992
1040.875, 1632.432
1041.981, 1519.869
1043.087, 1558.981
1044.193, 1522.390
1045.299, 1495.947
1046.404, 1501.771
1047.510, 1466.705
1048.615, 1465.571
1049.720, 1414.290
1050.825, 1437.852
1051.930, 1446.661
1053.034, 1515.540
1054.139, 1500.491
1055.243, 1618.281
1056.347, 1681.078
1057.451, 1581.205
1058.555, 1711.713
1059.658, 1686.747
1060.762, 1806.511
1061.865, 1940.517
1062.968, 2126.550
1064.071, 2196.006
1065.174, 2363.219
1066.277, 2397.518
1067.380, 2470.829
1068.482, 2635.964
1069.584, 2744.298
1070.686, 2936.645
1071.788, 3009.747
1072.890, 3091.116
1073.992, 3369.497
1075.093, 3541.832
1076.194, 3541.237
1077.295, 3677.655
1078.396, 3906.087
1079.497, 4027.531
1080.598, 4211.060
1081.698, 4337.530
1082.799, 4511.014
1083.899, 4734.513
1084.999, 4827.027
1086.099, 4995.555
1087.199, 5097.098
1088.298, 5168.914
1089.398, 5309.925
1090.497, 5218.513
1091.596, 5575.956
1092.695, 5595.707
1093.794, 5979.340
1094.892, 5828.992
1095.991, 5921.133
1097.089, 5871.815
1098.187, 6080.158
1099.285, 6019.544
1100.383, 6162.275
1101.481, 6187.021
1102.579, 6303.783
1103.676, 6379.560
1104.773, 6224.358
1105.870, 6139.233
1106.967, 6280.469
1108.064, 6365.010
1109.161, 6309.717
1110.257, 6126.600
1111.353, 6253.255
1112.449, 6132.194
1113.545, 6109.151
1114.641, 6070.868
1115.737, 6095.540
1116.832, 5959.558
1117.928, 5991.205
1119.023, 5954.468
1120.118, 5851.124
1121.213, 5757.109
1122.308, 5689.897
1123.402, 5500.063
1124.497, 5447.520
1125.591, 5372.741
1126.685, 5114.966
1127.779, 5180.828
1128.873, 4996.367
1129.967, 4881.645
1131.060, 4711.958
1132.153, 4604.731
1133.247, 4535.780
1134.340, 4409.753
1135.433, 4310.902
1136.525, 4238.942
1137.618, 3981.368
1138.710, 3952.818
1139.802, 3764.288
1140.895, 3711.791
1141.987, 3541.324
1143.078, 3525.891
1144.170, 3449.495
1145.261, 3257.127
1146.353, 3315.779
1147.444, 3096.454
1148.535, 2917.147
1149.626, 2868.873
1150.716, 2796.627
1151.807, 2591.416
1152.897, 2552.219
1153.988, 2355.080
1155.078, 2452.963
1156.168, 2320.861
1157.257, 2180.987
1158.347, 2003.755
1159.436, 1919.746
1160.526, 1844.773
1161.615, 1832.818
1162.704, 1632.886
1163.793, 1676.973
1164.881, 1616.105
1165.970, 1418.251
1167.058, 1435.419
1168.147, 1315.599
1169.235, 1209.792
1170.323, 1117.998
1171.410, 1085.221
1172.498, 1081.457
1173.585, 844.7153
1174.673, 876.9902
1175.760, 880.2798
1176.847, 726.5962
1177.934, 734.9258
1179.020, 650.2661
1180.107, 652.6250
1181.193, 521.0054
1182.279, 502.3994
1183.365, 485.8042
1184.451, 416.2241
1185.537, 370.6548
1186.623, 425.0967
1187.708, 405.5508
1188.793, 300.0522
1189.878, 364.5679
1190.963, 304.0942
1192.048, 378.6318
1193.133, 275.1812
1194.217, 278.7402
1195.302, 142.3110
1196.386, 231.8931
1197.470, 253.4844
1198.554, 162.0840
1199.638, 136.6938
1200.721, 94.31396
1201.805, 97.94189
1202.888, 98.58057
1203.971, 175.2275
1205.054, 205.8833
1206.137, 101.5474
1207.219, 126.2207
1208.302, 53.90137
1209.384, 188.5908
1210.466, 3.711914
1211.548, 119.9917
1212.630, 69.70410
1213.712, 67.42383
1214.794, 24.15088
1215.875, 63.88477
1216.956, 115.6274
1218.037, 10.62305
1219.118, 15.86865
1220.199, 41.88770
1221.280, 25.34814
1222.360, 31.58447
1223.441, 55.17432
1224.521, 67.93896
1225.601, 107.2891
1226.681, 60.43994
1227.760, 17.82520
1228.840, 108.0898
1229.919, 17.60156
1230.999, 11.29883
1232.078, 22.00146
1233.157, 47.70996
1234.236, 3.612793
1235.314, 23.85889
1236.393, 49.14795
1237.471, 70.45264
1238.549, 37.78662
1239.627, 76.98193
1240.705, 52.26904
1241.783, 9.220215
1242.860, 45.57373
1243.938, 49.73926
1245.015, 10.99316
1246.092, 25.63770
1247.169, 8.681152
1248.246, 151.0498
1249.323, 33.50586
1250.399, 23.93311
1251.475, 92.38330
1252.552, 19.03369
1253.628, 18.31982
1254.703, 9.173828
1255.779, 52.93262
1256.855, 4.570801
1257.930, 50.08057
1259.005, 33.38135
1260.080, 69.94092
1261.155, 27.53564
1262.230, 44.78613
1263.305, 1.367188
1264.379, 3.825195
1265.454, 67.40820
1266.528, 22.96973
1267.602, 57.38330
1268.676, 90.87109
1269.750, 42.37109
1270.823, 80.81299
1271.897, 80.37305
1272.970, 130.9644
1274.043, 147.7793
1275.116, 161.2837
1276.189, 69.65576
1277.261, 125.1348
1278.334, 149.5630
1279.406, 55.92920
1280.478, 203.4390
1281.550, 183.7998
1282.622, 33.73682
1283.694, 98.59375
1284.766, 123.0000
1285.837, 153.3491
1286.908, 186.6938
1287.979, 103.0352
1289.050, 70.37500
1290.121, 137.7070
1291.192, 203.0483
1292.262, 204.3730
1293.333, 161.8223
1294.403, 211.3271
1295.473, 181.6377
1296.543, 134.9424
1297.613, 290.2568
1298.682, 193.5508
1299.752, 158.0938
1300.821, 220.4321
1301.890, 309.7065
1302.959, 327.9746
1304.028, 356.5195
1305.096, 368.7168
1306.165, 361.1240
1307.233, 323.4644
1308.301, 316.8745
1309.370, 220.2393
1310.437, 245.4521
1311.505, 235.6558
1312.573, 202.5835
1313.640, 378.7720
1314.708, 329.9561
1315.775, 290.1353
1316.842, 429.8857
1317.908, 261.1084
1318.975, 358.3882
1320.042, 276.5479
1321.108, 396.8730
1322.174, 384.0215
1323.240, 368.1641
1324.306, 435.3003
1325.372, 300.4307
1326.438, 340.5557
1327.503, 225.6733
1328.568, 327.0557
1329.634, 324.1602
1330.699, 134.2593
1331.763, 343.3506
1332.828, 311.4351
1333.893, 317.6108
1334.957, 245.6812
1336.021, 296.7456
1337.085, 310.9028
1338.149, 199.9526
1339.213, 302.9233
1340.277, 333.9595
1341.340, 418.9771
1342.404, 221.9834
1343.467, 213.9824
1344.530, 230.1841
1345.593, 283.1826
1346.655, 291.6221
1347.718, 288.0117
1348.780, 331.0483
1349.843, 255.2935
1350.905, 224.2275
1351.967, 200.1426
1353.028, 128.0493
1354.090, 226.5015
1355.152, 135.3809
1356.213, 177.0742
1357.274, 171.2480
1358.335, 122.1182
1359.396, 148.7959
1360.457, 137.1904
1361.517, 135.7231
1362.578, 157.4868
1363.638, 133.1821
1364.698, 161.8296
1365.758, 114.8784
1366.818, 70.87939
1367.878, 78.02783
1368.937, 7.001953
1369.997, 34.14014
1371.056, 89.83398
1372.115, 68.78076
1373.174, 149.8091
1374.232, 88.46973
1375.291, 109.5747
1376.350, 109.2798
1377.408, 156.5479
1378.466, 123.8184
1379.524, 18.29199
1380.582, 54.22363
1381.640, 153.4575
1382.697, 38.98340
1383.754, 92.51270
1384.812, 118.3843
1385.869, 115.5698
1386.926, 64.16357
1387.983, 73.76758
1389.039, 5.186523
1390.096, 129.4985
1391.152, 53.31250
1392.208, 91.79492
1393.264, 168.8604
1394.320, 9.630859
1395.376, 57.71777
1396.431, 55.05566
1397.487, 69.38281
1398.542, 41.69238
1399.597, 12.01025
1400.652, 25.26660
1401.707, 55.53223
1402.762, 134.8179
1403.816, 62.04980
1404.871, 74.26367
1405.925, 138.4673
1406.979, 54.62500
1408.033, 98.76318
1409.086, 48.93994
1410.140, 0.1406250
1411.194, 78.20264
1412.247, 124.2510
1413.300, 96.28369
1414.353, 125.3013
1415.406, 92.30518
1416.458, 175.2407
1417.511, 90.13672
1418.563, 111.5669
1419.616, 63.42627
1420.668, 49.74902
