##NAMES=Gmelinite-Na
##RRUFFID=R060168
##IDEAL CHEMISTRY=Na_4_(Si_8_Al_4_)O_24_&#183;11H_2_O
##LOCALITY=Five Islands, Nova Scotia, Canada
##OWNER=RRUFF
##SOURCE=Guy Ouellet
##DESCRIPTION=Salmon-red interpenetrating prismatic rhombohedral crystals
##STATUS=The identification of this mineral has been confirmed by X-ray diffraction and chemical analysis
##URL=rruff.info/R060168
##MEASURED CHEMISTRY=(Na_3.90_Ca_0.10_)(Si_7.90_Al_4.10_)O_24_Â·8.98H_2_O
##PIN_ID=M01916
##ORIENTATION=Laser parallel to a* (1 0 0). Fiducial mark perpendicular to laser is parallel to c [0 0 1]
234.8960, 0.0000000E+00
236.1210, 58.57910
237.3450, 11.75098
238.5690, 69.68750
239.7930, 10.80371
241.0170, 41.46680
242.2410, 257.1143
243.4640, 122.2803
244.6870, 238.3535
245.9100, 73.14941
247.1330, 162.0469
248.3560, 224.3438
249.5780, 1.702148
250.8000, 165.7910
252.0230, 75.19043
253.2440, 295.2051
254.4660, 182.4199
255.6880, 306.1211
256.9090, 382.1357
258.1300, 230.5586
259.3510, 325.7656
260.5720, 261.6963
261.7920, 303.3799
263.0130, 219.8047
264.2330, 166.6240
265.4530, 185.8291
266.6730, 138.4072
267.8920, 96.64160
269.1120, 53.68359
270.3310, 38.69824
271.5500, 22.71191
272.7690, 40.28027
273.9880, 100.7832
275.2060, 15.87598
276.4240, 18.69531
277.6430, 22.25977
278.8600, 8.579102
280.0780, 68.66699
281.2960, 146.4639
282.5130, 242.7988
283.7300, 277.3301
284.9470, 534.0566
286.1640, 521.9814
287.3810, 751.1172
288.5970, 908.4707
289.8130, 904.0430
291.0290, 1228.826
292.2450, 1191.815
293.4610, 1467.006
294.6760, 1868.391
295.8910, 1851.966
297.1060, 2158.729
298.3210, 2501.674
299.5360, 2612.799
300.7510, 2965.099
301.9650, 3156.569
303.1790, 3424.209
304.3930, 3914.014
305.6070, 4408.982
306.8200, 4687.108
308.0340, 5233.381
309.2470, 5588.771
310.4600, 6519.255
311.6730, 7159.822
312.8850, 7777.467
314.0980, 8526.180
315.3100, 9076.942
316.5220, 9741.755
317.7340, 10323.63
318.9460, 10712.56
320.1570, 10949.54
321.3690, 11275.58
322.5800, 11329.69
323.7910, 11164.87
325.0010, 10639.12
326.2120, 10246.36
327.4220, 9606.581
328.6330, 9120.812
329.8430, 8327.141
331.0520, 7788.510
332.2620, 6750.990
333.4720, 6217.590
334.6810, 5557.336
335.8900, 4826.258
337.0990, 4368.368
338.3070, 3867.832
339.5160, 3169.520
340.7240, 2881.360
341.9320, 2559.340
343.1400, 2252.453
344.3480, 1863.645
345.5560, 1669.912
346.7630, 1408.253
347.9700, 1013.669
349.1770, 950.1582
350.3840, 1002.722
351.5910, 694.3584
352.7970, 657.0703
354.0040, 481.8535
355.2100, 492.7100
356.4160, 438.6377
357.6220, 497.6406
358.8270, 465.0439
360.0320, 331.8584
361.2380, 417.0732
362.4430, 450.3594
363.6470, 368.7207
364.8520, 515.1523
366.0560, 568.6523
367.2610, 564.2217
368.4650, 716.8564
369.6690, 765.5596
370.8720, 873.3281
372.0760, 1135.162
373.2790, 996.0596
374.4820, 1103.022
375.6850, 1368.048
376.8880, 1582.136
378.0910, 1837.285
379.2930, 1991.496
380.4950, 2253.392
381.6970, 2352.998
382.8990, 2736.285
384.1010, 2944.545
385.3020, 3085.368
386.5040, 3495.311
387.7050, 3678.162
388.9060, 4022.008
390.1060, 4140.820
391.3070, 4372.306
392.5070, 4875.077
393.7080, 5089.879
394.9080, 5420.161
396.1070, 6134.020
397.3070, 6505.658
398.5070, 7286.381
399.7060, 7998.693
400.9050, 8889.166
402.1040, 9923.686
403.3030, 10802.24
404.5010, 11820.88
405.7000, 13046.65
406.8980, 13938.56
408.0960, 15022.56
409.2940, 15745.67
410.4910, 16413.89
411.6890, 16743.38
412.8860, 16852.56
414.0830, 16747.91
415.2800, 16240.68
416.4770, 15600.87
417.6730, 14743.36
418.8690, 13610.49
420.0660, 12529.33
421.2620, 11332.36
422.4570, 10492.73
423.6530, 9542.714
424.8480, 8177.707
426.0440, 7685.135
427.2390, 6986.637
428.4340, 6336.443
429.6280, 6144.107
430.8230, 5414.711
432.0170, 5485.600
433.2110, 4936.426
434.4050, 5406.331
435.5990, 4647.543
436.7930, 4726.852
437.9860, 4620.623
439.1800, 4585.329
440.3730, 4454.790
441.5660, 4421.477
442.7580, 4564.648
443.9510, 4754.928
445.1430, 4719.379
446.3350, 4860.828
447.5270, 5108.236
448.7190, 5234.781
449.9110, 5368.105
451.1020, 5673.740
452.2930, 5989.420
453.4850, 6259.146
454.6750, 6472.912
455.8660, 6888.722
457.0570, 7003.576
458.2470, 7860.471
459.4370, 8134.410
460.6270, 8843.390
461.8170, 9480.410
463.0070, 9986.475
464.1960, 10636.58
465.3850, 11516.73
466.5750, 12163.91
467.7630, 13350.14
468.9520, 14170.40
470.1410, 15426.71
471.3290, 16694.06
472.5170, 17867.44
473.7050, 19202.88
474.8930, 20690.34
476.0810, 22348.84
477.2680, 24059.39
478.4560, 26011.82
479.6430, 28050.59
480.8300, 30297.24
482.0160, 32637.93
483.2030, 34911.92
484.3890, 37371.41
485.5760, 39773.20
486.7620, 42250.03
487.9480, 44898.88
489.1330, 46649.04
490.3190, 48994.94
491.5040, 50399.89
492.6890, 52174.86
493.8740, 52809.85
495.0590, 53075.02
496.2440, 53384.08
497.4280, 52777.16
498.6120, 51736.26
499.7960, 50380.39
500.9800, 48548.56
502.1640, 46184.77
503.3470, 43539.96
504.5310, 40996.22
505.7140, 37601.48
506.8970, 34514.76
508.0800, 31266.08
509.2620, 28382.94
510.4450, 25433.78
511.6270, 22952.16
512.8090, 20289.57
513.9910, 18011.99
515.1730, 16199.44
516.3550, 14170.91
517.5360, 12505.39
518.7170, 11026.90
519.8980, 9714.433
521.0790, 8859.980
522.2600, 7835.553
523.4400, 6963.141
524.6210, 6086.756
525.8010, 5571.392
526.9810, 4795.053
528.1610, 4472.740
529.3400, 3867.454
530.5200, 3643.306
531.6990, 3137.070
532.8780, 2986.859
534.0570, 2544.897
535.2360, 2366.218
536.4140, 1952.504
537.5930, 1943.405
538.7710, 1629.473
539.9490, 1535.428
541.1270, 1414.596
542.3040, 1372.976
543.4820, 1173.420
544.6590, 1057.074
545.8360, 996.4717
547.0130, 1019.157
548.1900, 880.7852
549.3670, 876.4707
550.5430, 776.1172
551.7190, 611.4004
552.8960, 581.5566
554.0710, 535.3398
555.2470, 459.9102
556.4230, 404.9619
557.5980, 265.6709
558.7730, 273.5059
559.9480, 127.5420
561.1230, 216.9189
562.2980, 222.3301
563.4720, 78.99805
564.6470, 156.6396
565.8210, 56.02051
566.9950, 12.16602
568.1690, 40.44336
569.3420, 73.74805
570.5160, 3.425781
571.6890, 36.80176
572.8620, 42.21484
574.0350, 106.3477
575.2080, 66.96973
576.3800, 176.4785
577.5530, 69.61621
578.7250, 54.72852
579.8970, 353.1211
581.0690, 66.83008
582.2410, 141.6143
583.4120, 147.3838
584.5830, 32.08887
585.7550, 58.92188
586.9260, 57.22461
588.0960, 159.6260
589.2670, 12.55273
590.4380, 24.35547
591.6080, 111.7266
592.7780, 47.80762
593.9480, 104.8887
595.1180, 115.9756
596.2870, 60.08496
597.4570, 182.2168
598.6260, 40.34766
599.7950, 184.4883
600.9640, 112.6416
602.1330, 186.7910
603.3010, 210.9336
604.4700, 138.0811
605.6380, 111.2285
606.8060, 193.3701
607.9740, 196.5303
609.1420, 163.6855
610.3090, 193.8477
611.4760, 119.0039
612.6440, 215.1670
613.8110, 172.3369
614.9770, 256.5186
616.1440, 196.6875
617.3110, 184.9053
618.4770, 95.12500
619.6430, 80.36133
620.8090, 78.60547
621.9750, 118.8594
623.1400, 60.11816
624.3060, 183.3848
625.4710, 69.66504
626.6360, 57.93555
627.8010, 123.1934
628.9660, 9.439453
630.1300, 94.66992
631.2950, 205.8857
632.4590, 98.08887
633.6230, 196.2910
634.7870, 51.47949
635.9510, 252.6514
637.1140, 209.8203
638.2780, 109.0098
639.4410, 309.1826
640.6040, 432.3438
641.7670, 473.4863
642.9290, 426.6104
644.0920, 596.7285
645.2540, 538.8252
646.4160, 609.9023
647.5780, 730.9580
648.7400, 529.9902
649.9020, 779.0020
651.0630, 773.9912
652.2250, 679.9590
653.3860, 801.9199
654.5470, 720.8662
655.7080, 859.7871
656.8680, 794.6836
658.0290, 769.5576
659.1890, 768.4219
660.3490, 668.2607
661.5090, 641.0742
662.6690, 583.8584
663.8280, 644.6172
664.9880, 475.3545
666.1470, 482.0674
667.3060, 561.7539
668.4650, 319.4111
669.6240, 159.0400
670.7820, 335.6377
671.9410, 216.2061
673.0990, 142.7451
674.2570, 37.74805
675.4150, 101.6758
676.5720, 221.0645
677.7300, 175.0869
678.8870, 231.7637
680.0450, 169.2725
681.2020, 128.4277
682.3590, 121.8945
683.5150, 63.20996
684.6720, 152.3691
685.8280, 60.92773
686.9840, 90.52051
688.1400, 47.39453
689.2960, 35.33301
690.4520, 28.66699
691.6070, 1.795898
692.7630, 53.14355
693.9180, 82.05176
695.0730, 89.73047
696.2280, 34.61230
697.3820, 13.60938
698.5370, 164.1436
699.6910, 49.03027
700.8450, 86.25098
701.9990, 22.44336
703.1530, 76.96875
704.3070, 102.3311
705.4600, 62.01172
706.6130, 33.08789
707.7660, 222.5068
708.9190, 132.9629
710.0720, 233.4062
711.2250, 10.04492
712.3770, 213.8535
713.5300, 111.9668
714.6820, 319.4600
715.8340, 189.9766
716.9850, 179.7715
718.1370, 243.4414
719.2880, 312.8027
720.4400, 73.52344
721.5910, 257.4434
722.7420, 227.5635
723.8930, 282.1230
725.0430, 352.4268
726.1940, 339.0947
727.3440, 229.4307
728.4940, 278.0762
729.6440, 267.4111
730.7940, 277.3066
731.9430, 305.5146
733.0930, 376.1875
734.2420, 367.3145
735.3910, 312.8096
736.5400, 361.1143
737.6890, 431.4590
738.8370, 377.5361
739.9860, 397.3477
741.1340, 534.4463
742.2820, 605.7910
743.4300, 463.5098
744.5780, 423.9062
745.7250, 603.8125
746.8730, 701.7305
748.0200, 620.8867
749.1670, 668.3662
750.3140, 790.7979
751.4610, 829.3105
752.6070, 885.9727
753.7540, 961.2822
754.9000, 951.8730
756.0460, 1047.978
757.1920, 1100.868
758.3380, 1215.763
759.4830, 1291.455
760.6280, 1427.884
761.7740, 1563.680
762.9190, 1649.419
764.0640, 1749.372
765.2080, 1804.328
766.3530, 1902.976
767.4970, 1885.925
768.6420, 1915.336
769.7860, 1855.765
770.9300, 1906.562
772.0730, 1850.893
773.2170, 1767.322
774.3600, 1767.002
775.5040, 1660.803
776.6470, 1655.859
777.7900, 1458.476
778.9320, 1535.381
780.0750, 1464.424
781.2170, 1522.469
782.3600, 1471.275
783.5020, 1406.239
784.6440, 1316.389
785.7850, 1284.318
786.9270, 1095.807
788.0680, 1096.669
789.2100, 1128.023
790.3510, 1163.613
791.4920, 983.9531
792.6320, 1084.577
793.7730, 812.3291
794.9130, 902.2383
796.0540, 920.5879
797.1940, 906.0879
798.3340, 832.3057
799.4730, 840.3486
800.6130, 713.1211
801.7520, 755.0898
802.8920, 784.0859
804.0310, 648.5527
805.1700, 571.4102
806.3090, 598.7646
807.4470, 496.3760
808.5860, 570.1748
809.7240, 460.2734
810.8620, 426.6436
812.0000, 496.6240
813.1380, 472.8262
814.2750, 242.1963
815.4130, 316.4248
816.5500, 412.6240
817.6870, 311.7500
818.8240, 420.4463
819.9610, 228.0391
821.0980, 272.3809
822.2340, 232.9414
823.3700, 272.1689
824.5070, 145.4141
825.6430, 253.5576
826.7780, 118.0186
827.9140, 102.1523
829.0500, 169.6855
830.1850, 112.5488
831.3200, 253.5762
832.4550, 218.0781
833.5900, 172.8926
834.7250, 122.5469
835.8590, 99.96680
836.9930, 90.02344
838.1280, 87.31641
839.2620, 124.6748
840.3950, 120.3262
841.5290, 149.1846
842.6630, 197.2441
843.7960, 22.87598
844.9290, 75.40039
846.0620, 89.24902
847.1950, 26.44434
848.3280, 155.7627
849.4600, 34.74219
850.5930, 62.19629
851.7250, 154.3594
852.8570, 89.12109
853.9890, 224.7910
855.1210, 93.67969
856.2520, 79.74609
857.3840, 47.81836
858.5150, 1.210938
859.6460, 132.5967
860.7770, 152.4736
861.9080, 85.30371
863.0380, 154.0723
864.1690, 1.280273
865.2990, 232.3877
866.4290, 142.0068
867.5590, 114.5684
868.6890, 11.07227
869.8190, 46.49609
870.9480, 53.52734
872.0770, 69.05762
873.2070, 5.778320
874.3360, 18.69336
875.4640, 120.3066
876.5930, 428.2500
877.7220, 5.142578
878.8500, 19.96387
879.9780, 165.7197
881.1060, 55.57812
882.2340, 53.02051
883.3620, 14.43848
884.4890, 91.02148
885.6170, 21.57324
886.7440, 24.25195
887.8710, 44.01367
888.9980, 23.86816
890.1240, 45.76953
891.2510, 82.83594
892.3770, 73.97852
893.5040, 39.22852
894.6300, 53.56738
895.7560, 35.00000
896.8810, 42.51855
898.0070, 75.12500
899.1330, 43.16406
900.2580, 34.39844
901.3830, 62.57910
902.5080, 8.708008
903.6330, 86.78027
904.7570, 65.89355
905.8820, 40.22461
907.0060, 56.66504
908.1300, 20.50488
909.2540, 27.70605
910.3780, 126.9902
911.5020, 55.60059
912.6250, 0.1435550
913.7490, 57.62891
914.8720, 23.06641
915.9950, 28.54492
917.1180, 127.7744
918.2400, 128.0498
919.3630, 140.2803
920.4850, 187.5830
921.6080, 36.61719
922.7300, 168.7178
923.8520, 33.77930
924.9730, 52.20605
926.0950, 18.26562
927.2160, 155.6172
928.3380, 107.4609
929.4590, 52.26562
930.5800, 57.97363
931.7010, 114.7129
932.8210, 197.3604
933.9420, 139.9697
935.0620, 43.54297
936.1820, 10.92676
937.3020, 14.44043
938.4220, 14.99902
939.5420, 142.3984
940.6610, 5.761719
941.7810, 138.0850
942.9000, 102.3750
944.0190, 12.62891
945.1380, 115.8447
946.2570, 156.0410
947.3750, 72.23145
948.4940, 114.3896
949.6120, 95.97852
950.7300, 142.5889
951.8480, 71.65137
952.9660, 194.3232
954.0830, 159.3359
955.2010, 184.6025
956.3180, 233.0859
957.4350, 270.3779
958.5520, 156.8672
959.6690, 267.7578
960.7860, 221.2217
961.9020, 291.0518
963.0190, 326.0566
964.1350, 440.4971
965.2510, 386.1279
966.3670, 421.6748
967.4830, 424.0850
968.5980, 507.2998
969.7140, 551.2246
970.8290, 603.1455
971.9440, 667.7354
973.0590, 732.4189
974.1740, 748.4961
975.2880, 827.5273
976.4030, 936.8291
977.5170, 755.3428
978.6310, 1000.442
979.7450, 950.2207
980.8590, 1104.160
981.9730, 1146.982
983.0860, 1250.345
984.2000, 1299.142
985.3130, 1413.111
986.4260, 1367.428
987.5390, 1366.364
988.6520, 1391.952
989.7640, 1309.908
990.8770, 1521.736
991.9890, 1619.127
993.1010, 1650.830
994.2130, 1509.973
995.3250, 1728.184
996.4370, 1654.020
997.5480, 1822.213
998.6590, 1986.945
999.7710, 1838.443
1000.882, 2029.553
1001.993, 1888.534
1003.103, 1912.992
1004.214, 1964.932
1005.324, 2096.442
1006.434, 2050.081
1007.545, 1930.618
1008.655, 1970.363
1009.764, 1954.312
1010.874, 2060.912
1011.983, 2091.206
1013.093, 2111.063
1014.202, 2232.182
1015.311, 2100.729
1016.420, 1897.207
1017.528, 2066.384
1018.637, 1997.179
1019.745, 1988.961
1020.854, 1988.602
1021.962, 1967.030
1023.070, 1944.756
1024.177, 1944.667
1025.285, 1988.227
1026.392, 1905.908
1027.500, 1839.810
1028.607, 1762.852
1029.714, 1844.101
1030.821, 1711.922
1031.927, 1768.741
1033.034, 1731.290
1034.140, 1728.766
1035.246, 1904.502
1036.352, 1673.689
1037.458, 1584.459
1038.564, 1381.241
1039.670, 1497.600
1040.775, 1527.366
1041.880, 1329.838
1042.986, 1402.142
1044.090, 1408.270
1045.195, 1441.084
1046.300, 1415.362
1047.404, 1397.136
1048.509, 1332.795
1049.613, 1279.396
1050.717, 1247.590
1051.821, 1226.804
1052.925, 1215.575
1054.028, 1367.583
1055.132, 1278.466
1056.235, 1259.920
1057.338, 1416.828
1058.441, 1326.448
1059.544, 1348.263
1060.647, 1578.739
1061.749, 1631.035
1062.851, 1542.121
1063.954, 1616.712
1065.056, 1725.101
1066.158, 1758.468
1067.259, 1910.257
1068.361, 1996.415
1069.462, 2102.125
1070.564, 2327.755
1071.665, 2364.861
1072.766, 2616.528
1073.867, 2703.645
1074.967, 2819.921
1076.068, 2937.591
1077.168, 3005.133
1078.268, 3094.354
1079.368, 3113.986
1080.468, 3185.531
1081.568, 3520.278
1082.668, 3637.978
1083.767, 3694.795
1084.866, 3810.084
1085.966, 3927.930
1087.065, 4179.790
1088.163, 4089.670
1089.262, 4296.564
1090.361, 4534.478
1091.459, 4516.053
1092.557, 4670.537
1093.655, 4752.062
1094.753, 4838.436
1095.851, 4966.081
1096.949, 5078.467
1098.046, 5179.512
1099.143, 5266.486
1100.241, 5357.564
1101.338, 5447.805
1102.434, 5596.941
1103.531, 5621.720
1104.628, 5706.197
1105.724, 5781.125
1106.820, 5753.319
1107.916, 5812.948
1109.012, 5837.822
1110.108, 5878.446
1111.204, 5897.139
1112.299, 6010.346
1113.395, 6063.118
1114.490, 6026.836
1115.585, 6060.794
1116.680, 6013.221
1117.775, 5987.632
1118.869, 6150.670
1119.964, 6059.117
1121.058, 6016.580
1122.152, 6022.062
1123.246, 5921.565
1124.340, 5950.270
1125.434, 5771.824
1126.527, 5589.399
1127.620, 5520.991
1128.714, 5478.604
1129.807, 5310.234
1130.900, 5143.908
1131.992, 5119.601
1133.085, 4970.312
1134.178, 4826.049
1135.270, 4862.812
1136.362, 4650.617
1137.454, 4588.475
1138.546, 4580.355
1139.638, 4405.268
1140.729, 4344.213
1141.821, 4209.180
1142.912, 4066.306
1144.003, 3978.179
1145.094, 3763.218
1146.185, 3798.275
1147.276, 3623.381
1148.366, 3586.506
1149.456, 3389.665
1150.547, 3306.846
1151.637, 3241.062
1152.727, 3087.315
1153.816, 3018.607
1154.906, 2734.937
1155.995, 2764.309
1157.085, 2689.741
1158.174, 2379.222
1159.263, 2376.761
1160.352, 2265.365
1161.441, 2307.009
1162.529, 2084.690
1163.618, 1986.421
1164.706, 1834.200
1165.794, 1940.001
1166.882, 1850.828
1167.970, 1642.681
1169.058, 1624.556
1170.145, 1489.452
1171.232, 1364.386
1172.320, 1339.345
1173.407, 1294.331
1174.494, 1181.356
1175.580, 1162.442
1176.667, 1083.559
1177.754, 1003.716
1178.840, 972.2734
1179.926, 884.1748
1181.012, 855.3291
1182.098, 751.5820
1183.184, 633.8564
1184.269, 586.1504
1185.355, 572.4629
1186.440, 444.7969
1187.525, 516.1494
1188.610, 416.5234
1189.695, 334.9336
1190.780, 252.3721
1191.864, 211.8281
1192.949, 180.3057
1194.033, 162.8027
1195.117, 138.3369
1196.201, 149.8906
1197.285, 155.4629
1198.369, 164.0547
1199.452, 138.6748
1200.536, 151.2998
1201.619, 85.95703
1202.702, 41.63574
1203.785, 30.33301
1204.868, 152.0508
1205.950, 90.78711
1207.033, 104.5420
1208.115, 68.68359
1209.197, 28.91406
1210.279, 51.86426
1211.361, 15.66211
1212.443, 45.47656
1213.525, 53.31055
1214.606, 67.83691
1215.687, 38.00781
1216.769, 16.87207
1217.850, 85.75195
1218.930, 86.65625
1220.011, 12.57715
1221.092, 85.48340
1222.172, 15.56055
1223.252, 40.62305
1224.333, 98.68457
1225.413, 28.23242
1226.492, 18.16504
1227.572, 32.11719
1228.652, 143.9141
1229.731, 11.01074
1230.810, 2.045898
1231.889, 108.9111
1232.968, 60.11426
1234.047, 31.12988
1235.126, 40.14062
1236.204, 28.84863
1237.283, 116.1436
1238.361, 90.15820
1239.439, 34.19238
1240.517, 92.21191
1241.595, 41.25488
1242.673, 92.28223
1243.750, 58.67188
1244.827, 28.63867
1245.905, 93.62500
1246.982, 221.6240
1248.059, 10.36230
1249.135, 67.66016
1250.212, 57.69434
1251.288, 34.74316
1252.365, 29.80566
1253.441, 22.11719
1254.517, 63.96094
1255.593, 176.0537
1256.669, 22.15820
1257.744, 116.2783
1258.820, 233.4102
1259.895, 199.4180
1260.970, 183.5908
1262.045, 195.7822
1263.120, 249.9678
1264.195, 194.1846
1265.270, 107.4141
1266.344, 258.3955
1267.418, 125.6523
1268.492, 395.9248
1269.566, 350.2080
1270.640, 252.5049
1271.714, 247.8115
1272.788, 420.1299
1273.861, 309.4600
1274.934, 379.7988
1276.007, 359.1494
1277.080, 349.5107
1278.153, 373.8809
1279.226, 271.2598
1280.299, 374.6475
1281.371, 460.0449
1282.443, 461.4502
1283.515, 360.8633
1284.587, 452.5088
1285.659, 462.0879
1286.731, 572.5234
1287.802, 481.1133
1288.874, 606.1025
1289.945, 581.0684
1291.016, 611.0361
1292.087, 609.5000
1293.158, 622.6807
1294.229, 721.1787
1295.299, 766.2695
1296.370, 734.7480
1297.440, 656.4277
1298.510, 750.9717
1299.580, 711.8213
1300.650, 735.4883
1301.720, 799.7393
1302.789, 820.6514
1303.859, 872.4385
1304.928, 988.5967
1305.997, 984.5439
1307.066, 949.0752
1308.135, 1020.573
1309.203, 981.0723
1310.272, 1020.569
1311.340, 955.0664
1312.409, 1117.562
1313.477, 1044.058
1314.545, 1150.558
1315.612, 1047.065
1316.680, 1023.578
1317.748, 1015.096
1318.815, 1135.620
1319.882, 977.1504
1320.949, 1120.685
1322.016, 957.2236
1323.083, 963.7676
1324.150, 915.3174
1325.216, 905.8711
1326.283, 1017.431
1327.349, 979.9932
1328.415, 982.5605
1329.481, 893.1328
1330.547, 936.7080
1331.613, 772.2891
1332.678, 728.8740
1333.744, 788.4629
1334.809, 678.0566
1335.874, 728.6543
1336.939, 818.7119
1338.004, 751.4453
1339.068, 742.0547
1340.133, 765.6689
1341.197, 585.3271
1342.262, 534.9502
1343.326, 581.9395
1344.390, 733.5723
1345.453, 511.2070
1346.517, 545.1533
1347.581, 428.7988
1348.644, 466.4492
1349.707, 479.4570
1350.770, 450.2266
1351.833, 415.3086
1352.896, 461.5625
1353.959, 395.1934
1355.022, 452.0664
1356.084, 544.9150
1357.146, 468.7373
1358.208, 237.3828
1359.270, 332.3164
1360.332, 220.0527
1361.394, 347.4658
1362.455, 369.1367
1363.517, 240.0283
1364.578, 365.4453
1365.639, 273.3262
1366.700, 240.9443
1367.761, 316.5996
1368.822, 291.7295
1369.883, 179.1709
1370.943, 220.2686
1372.003, 275.7822
1373.063, 114.9590
1374.123, 224.4297
1375.183, 110.9014
1376.243, 155.7627
1377.303, 344.2373
1378.362, 247.7119
1379.421, 196.2217
1380.481, 121.6992
1381.540, 127.9971
1382.598, 165.5205
1383.657, 300.0000
1384.716, 129.4775
1385.774, 142.9570
1386.833, 27.15625
1387.891, 82.35938
1388.949, 205.8984
1390.007, 3.704102
1391.065, 90.15820
1392.122, 115.6123
1393.180, 7.463867
1394.237, 156.9609
1395.294, 112.7588
