##NAMES=Gmelinite-Na
##RRUFFID=R060168
##IDEAL CHEMISTRY=Na_4_(Si_8_Al_4_)O_24_&#183;11H_2_O
##LOCALITY=Five Islands, Nova Scotia, Canada
##OWNER=RRUFF
##SOURCE=Guy Ouellet
##DESCRIPTION=Salmon-red interpenetrating prismatic rhombohedral crystals
##STATUS=The identification of this mineral has been confirmed by X-ray diffraction and chemical analysis
##URL=rruff.info/R060168
##MEASURED CHEMISTRY=(Na_3.90_Ca_0.10_)(Si_7.90_Al_4.10_)O_24_Â·8.98H_2_O
##PIN_ID=M01916
##ORIENTATION=Laser parallel to a* (1 0 0). Fiducial mark perpendicular to laser is parallel to c [0 0 1]
249.5780, 0.0000000E+00
250.8000, 1.604492
252.0230, 305.1953
253.2440, 175.5684
254.4660, 7.518555
255.6880, 193.1084
256.9090, 146.7646
258.1300, 300.1201
259.3510, 288.8984
260.5720, 288.6924
261.7920, 249.6855
263.0130, 270.1357
264.2330, 243.7549
265.4530, 256.3545
266.6730, 144.1670
267.8920, 176.2900
269.1120, 292.8086
270.3310, 159.2334
271.5500, 142.2373
272.7690, 95.80859
273.9880, 111.1543
275.2060, 199.7012
276.4240, 237.8047
277.6430, 303.0430
278.8600, 411.0322
280.0780, 368.0010
281.2960, 366.9150
282.5130, 359.0137
283.7300, 598.5049
284.9470, 612.5664
286.1640, 712.3594
287.3810, 689.0225
288.5970, 986.6836
289.8130, 1026.461
291.0290, 1116.446
292.2450, 1262.007
293.4610, 1384.260
294.6760, 1302.357
295.8910, 1306.583
297.1060, 1364.158
298.3210, 1437.306
299.5360, 1434.894
300.7510, 1476.378
301.9650, 1415.190
303.1790, 1513.816
304.3930, 1661.442
305.6070, 1404.646
306.8200, 1512.646
308.0340, 1669.964
309.2470, 1556.426
310.4600, 1901.019
311.6730, 1793.725
312.8850, 1821.525
314.0980, 1909.411
315.3100, 1964.387
316.5220, 1948.453
317.7340, 1914.614
318.9460, 1879.456
320.1570, 1779.238
321.3690, 1700.704
322.5800, 1600.303
323.7910, 1416.089
325.0010, 1410.059
326.2120, 1091.211
327.4220, 942.5400
328.6330, 949.0400
329.8430, 706.7021
331.0520, 795.5186
332.2620, 401.4814
333.4720, 382.5869
334.6810, 162.8262
335.8900, 222.1924
337.0990, 57.67480
338.3070, 81.26758
339.5160, 35.03711
340.7240, 12.75781
341.9320, 32.35059
343.1400, 118.3662
344.3480, 53.29297
345.5560, 108.1309
346.7630, 79.89844
347.9700, 159.6045
349.1770, 37.26367
350.3840, 331.8799
351.5910, 84.45215
352.7970, 212.9756
354.0040, 154.4463
355.2100, 201.8633
356.4160, 131.2217
357.6220, 0.4814450
358.8270, 65.24512
360.0320, 44.07324
361.2380, 46.96680
362.4430, 47.92676
363.6470, 46.95117
364.8520, 352.0420
366.0560, 297.1865
367.2610, 496.3398
368.4650, 684.4580
369.6690, 637.4648
370.8720, 758.3643
372.0760, 1005.146
373.2790, 1244.714
374.4820, 1223.123
375.6850, 1314.377
376.8880, 1572.664
378.0910, 1821.047
379.2930, 2105.528
380.4950, 2502.109
381.6970, 2453.790
382.8990, 2621.568
384.1010, 3019.447
385.3020, 3304.426
386.5040, 3714.500
387.7050, 3977.675
388.9060, 4210.947
390.1060, 4549.316
391.3070, 4844.784
392.5070, 5202.346
393.7080, 5730.006
394.9080, 6142.199
396.1070, 6950.290
397.3070, 7357.961
398.5070, 8289.718
399.7060, 8888.265
400.9050, 9695.126
402.1040, 10507.02
403.3030, 11180.93
404.5010, 11830.85
405.7000, 12363.91
406.8980, 12817.70
408.0960, 13117.61
409.2940, 13231.50
410.4910, 13221.37
411.6890, 12764.21
412.8860, 12496.03
414.0830, 11635.84
415.2800, 11022.66
416.4770, 10259.47
417.6730, 9368.245
418.8690, 8595.981
420.0660, 7646.660
421.2620, 7051.256
422.4570, 6395.779
423.6530, 5751.240
424.8480, 5425.647
426.0440, 4853.014
427.2390, 4499.357
428.4340, 4358.680
429.6280, 3783.979
430.8230, 3767.277
432.0170, 3675.564
433.2110, 3533.884
434.4050, 3611.212
435.5990, 3715.582
436.7930, 3552.958
437.9860, 3945.316
439.1800, 3894.577
440.3730, 4122.723
441.5660, 4259.652
442.7580, 4477.377
443.9510, 5016.932
445.1430, 5243.670
446.3350, 5565.200
447.5270, 6003.036
448.7190, 6671.957
449.9110, 7101.939
451.1020, 7513.029
452.2930, 8246.212
453.4850, 9334.482
454.6750, 10330.88
455.8660, 11026.35
457.0570, 12097.89
458.2470, 13078.52
459.4370, 13841.27
460.6270, 15101.10
461.8170, 15855.04
463.0070, 16677.04
464.1960, 17443.11
465.3850, 18216.24
466.5750, 18801.46
467.7630, 19103.74
468.9520, 19640.10
470.1410, 20421.51
471.3290, 21034.98
472.5170, 22114.51
473.7050, 23017.10
474.8930, 24009.75
476.0810, 25129.46
477.2680, 26587.22
478.4560, 28129.54
479.6430, 29904.67
480.8300, 31758.45
482.0160, 33769.31
483.2030, 35820.89
484.3890, 37649.68
485.5760, 39674.95
486.7620, 41769.09
487.9480, 43408.57
489.1330, 44688.87
490.3190, 45722.20
491.5040, 46280.81
492.6890, 46662.32
493.8740, 46637.21
495.0590, 46246.36
496.2440, 45612.93
497.4280, 44484.12
498.6120, 43038.57
499.7960, 41320.70
500.9800, 38955.35
502.1640, 36542.07
503.3470, 34244.78
504.5310, 31656.58
505.7140, 29006.47
506.8970, 26751.44
508.0800, 24096.60
509.2620, 22076.82
510.4450, 20043.09
511.6270, 18034.41
512.8090, 16325.61
513.9910, 14651.33
515.1730, 13201.70
516.3550, 11760.24
517.5360, 10649.83
518.7170, 9525.481
519.8980, 8602.188
521.0790, 7598.948
522.2600, 6910.178
523.4400, 6323.640
524.6210, 5725.567
525.8010, 5408.548
526.9810, 4967.582
528.1610, 4616.669
529.3400, 4289.869
530.5200, 3978.510
531.6990, 3685.244
532.8780, 3477.539
534.0570, 3261.884
535.2360, 3088.279
536.4140, 2890.232
537.5930, 2729.203
538.7710, 2533.725
539.9490, 2373.280
541.1270, 2216.876
542.3040, 2264.508
543.4820, 2215.178
544.6590, 2209.651
545.8360, 2237.383
547.0130, 2180.399
548.1900, 2286.212
549.3670, 2131.060
550.5430, 2153.562
551.7190, 2057.861
552.8960, 1873.816
554.0710, 1832.806
555.2470, 1628.253
556.4230, 1452.106
557.5980, 1457.205
558.7730, 1252.341
559.9480, 1083.516
561.1230, 962.7285
562.2980, 851.9795
563.4720, 797.3037
564.6470, 899.7031
565.8210, 624.0703
566.9950, 761.4746
568.1690, 521.7031
569.3420, 688.2236
570.5160, 561.7441
571.6890, 456.9189
572.8620, 375.6611
574.0350, 361.4365
575.2080, 401.2861
576.3800, 326.6279
577.5530, 389.9277
578.7250, 223.8418
579.8970, 219.7959
581.0690, 158.7852
582.2410, 145.6826
583.4120, 218.7549
584.5830, 361.9756
585.7550, 297.9990
586.9260, 425.3623
588.0960, 237.1719
589.2670, 198.0889
590.4380, 238.6660
591.6080, 240.1758
592.7780, 422.0889
593.9480, 552.6865
595.1180, 614.2383
596.2870, 616.4795
597.4570, 663.4434
598.6260, 625.0127
599.7950, 736.4580
600.9640, 725.7510
602.1330, 828.3623
603.3010, 855.6543
604.4700, 976.0195
605.6380, 981.9121
606.8060, 808.8652
607.9740, 926.9629
609.1420, 845.3730
610.3090, 873.8428
611.4760, 678.8232
612.6440, 723.1084
613.8110, 750.5469
614.9770, 797.9629
616.1440, 774.0732
617.3110, 586.2715
618.4770, 761.4531
619.6430, 551.1475
620.8090, 502.8369
621.9750, 500.5332
623.1400, 395.8730
624.3060, 533.3066
625.4710, 508.8369
626.6360, 573.3242
627.8010, 339.8740
628.9660, 534.4746
630.1300, 438.2725
631.2950, 371.0508
632.4590, 583.9580
633.6230, 502.1885
634.7870, 509.3047
635.9510, 646.4697
637.1140, 478.7324
638.2780, 590.0576
639.4410, 594.4658
640.6040, 743.9453
641.7670, 741.4424
642.9290, 811.9717
644.0920, 891.5215
645.2540, 950.0859
646.4160, 994.6709
647.5780, 1283.265
648.7400, 1093.865
649.9020, 1167.506
651.0630, 953.1523
652.2250, 1073.818
653.3860, 1196.490
654.5470, 984.1641
655.7080, 1063.849
656.8680, 958.5352
658.0290, 902.2402
659.1890, 929.9541
660.3490, 992.6670
661.5090, 825.4062
662.6690, 876.1455
663.8280, 734.8818
664.9880, 622.6172
666.1470, 684.3486
667.3060, 565.0791
668.4650, 659.8066
669.6240, 517.5283
670.7820, 556.2461
671.9410, 456.9590
673.0990, 376.6670
674.2570, 322.3662
675.4150, 462.0615
676.5720, 389.7461
677.7300, 295.4229
678.8870, 384.0898
680.0450, 146.7451
681.2020, 101.3916
682.3590, 172.4775
683.5150, 79.49902
684.6720, 303.2627
685.8280, 110.8613
686.9840, 123.4473
688.1400, 172.0195
689.2960, 26.57715
690.4520, 57.12012
691.6070, 41.64648
692.7630, 147.1592
693.9180, 70.97949
695.0730, 163.5254
696.2280, 17.11523
697.3820, 27.21582
698.5370, 29.39062
699.6910, 58.46484
700.8450, 93.48535
701.9990, 12.53711
703.1530, 8.427734
704.3070, 127.4688
705.4600, 107.2031
706.6130, 62.18066
707.7660, 23.32031
708.9190, 147.6855
710.0720, 54.21191
711.2250, 23.94922
712.3770, 140.4082
713.5300, 41.04102
714.6820, 151.6748
715.8340, 15.84375
716.9850, 15.26172
718.1370, 54.02051
719.2880, 59.44727
720.4400, 147.6221
721.5910, 29.01758
722.7420, 75.12305
723.8930, 103.6191
725.0430, 74.52148
726.1940, 158.6641
727.3440, 141.7969
728.4940, 49.91016
729.6440, 145.6533
730.7940, 86.07324
731.9430, 62.73145
733.0930, 203.3447
734.2420, 14.60352
735.3910, 28.18652
736.5400, 35.68945
737.6890, 175.1807
738.8370, 59.25879
739.9860, 108.7266
741.1340, 50.47559
742.2820, 45.95801
743.4300, 8.422852
744.5780, 28.28125
745.7250, 24.11523
746.8730, 94.53320
748.0200, 96.57715
749.1670, 248.0752
750.3140, 163.8193
751.4610, 135.9736
752.6070, 16.64258
753.7540, 260.7910
754.9000, 240.3662
756.0460, 312.6201
757.1920, 152.3975
758.3380, 162.5303
759.4830, 172.2852
760.6280, 370.0107
761.7740, 273.0791
762.9190, 262.8721
764.0640, 464.3838
765.2080, 451.5762
766.3530, 305.3125
767.4970, 97.56641
768.6420, 446.6826
769.7860, 322.3457
770.9300, 264.5020
772.0730, 412.3555
773.2170, 354.4355
774.3600, 475.2061
775.5040, 359.9814
776.6470, 497.5771
777.7900, 519.6670
778.9320, 597.2373
780.0750, 616.6270
781.2170, 781.2158
782.3600, 818.2783
783.5020, 1108.594
784.6440, 1171.097
785.7850, 1291.125
786.9270, 1557.332
788.0680, 1739.753
789.2100, 1990.833
790.3510, 2065.359
791.4920, 2205.064
792.6320, 2437.005
793.7730, 2657.416
794.9130, 2816.278
796.0540, 2880.030
797.1940, 2972.640
798.3340, 2927.315
799.4730, 2937.203
800.6130, 2946.152
801.7520, 2711.898
802.8920, 2639.946
804.0310, 2383.854
805.1700, 2305.520
806.3090, 1939.175
807.4470, 1758.940
808.5860, 1655.484
809.7240, 1369.961
810.8620, 1250.131
812.0000, 1290.578
813.1380, 1208.604
814.2750, 1025.554
815.4130, 977.4307
816.5500, 967.2344
817.6870, 803.9648
818.8240, 793.7383
819.9610, 772.3223
821.0980, 636.8311
822.2340, 521.2637
823.3700, 498.6240
824.5070, 685.9082
825.6430, 890.1191
826.7780, 718.8750
827.9140, 469.3154
829.0500, 563.3027
830.1850, 370.2119
831.3200, 553.6260
832.4550, 383.5918
833.5900, 270.2734
834.7250, 257.8730
835.8590, 268.3926
836.9930, 276.8291
838.1280, 266.6758
839.2620, 298.4248
840.3950, 263.5469
841.5290, 325.6582
842.6630, 348.6895
843.7960, 275.8584
844.9290, 249.6904
846.0620, 235.4795
847.1950, 221.4893
848.3280, 292.0488
849.4600, 188.4492
850.5930, 313.7324
851.7250, 209.0293
852.8570, 233.2236
853.9890, 278.3096
855.1210, 207.6025
856.2520, 358.2344
857.3840, 156.2051
858.5150, 94.79688
859.6460, 100.5059
860.7770, 106.2031
861.9080, 108.5098
863.0380, 88.22559
864.1690, 96.98438
865.2990, 38.93848
866.4290, 122.9043
867.5590, 80.42480
868.6890, 201.2129
869.8190, 30.99316
870.9480, 181.0430
872.0770, 81.31543
873.2070, 127.9365
874.3360, 83.63770
875.4640, 11.55566
876.5930, 51.87109
877.7220, 40.56934
878.8500, 68.85938
879.9780, 122.1055
881.1060, 61.96875
882.2340, 53.63574
883.3620, 4.057617
884.4890, 54.12598
885.6170, 42.75098
886.7440, 137.0166
887.8710, 18.91602
888.9980, 55.10742
890.1240, 36.61230
891.2510, 96.50586
892.3770, 58.40527
893.5040, 95.09375
894.6300, 55.55078
895.7560, 30.04492
896.8810, 11.65332
898.0070, 44.22852
899.1330, 125.6670
900.2580, 187.1279
901.3830, 85.52441
902.5080, 111.1484
903.6330, 31.06641
904.7570, 137.0000
905.8820, 19.10645
907.0060, 127.5811
908.1300, 103.0605
909.2540, 18.36328
910.3780, 136.1152
911.5020, 14.52930
912.6250, 13.13672
913.7490, 131.1025
914.8720, 37.71973
915.9950, 11.35254
917.1180, 33.34473
918.2400, 5.266602
919.3630, 70.10742
920.4850, 148.8857
921.6080, 84.39453
922.7300, 100.2002
923.8520, 17.26562
924.9730, 191.1807
926.0950, 128.5723
927.2160, 12.90527
928.3380, 159.1699
929.4590, 24.61914
930.5800, 7.505859
931.7010, 211.5762
932.8210, 69.40234
933.9420, 208.5117
935.0620, 147.3750
936.1820, 208.1885
937.3020, 81.96387
938.4220, 94.68555
939.5420, 131.3604
940.6610, 112.9844
941.7810, 65.56543
942.9000, 97.09473
944.0190, 92.57910
945.1380, 151.0117
946.2570, 56.40820
947.3750, 229.7539
948.4940, 391.0566
949.6120, 275.3213
950.7300, 133.5459
951.8480, 125.7266
952.9660, 88.24219
954.0830, 111.9736
955.2010, 110.0400
956.3180, 217.0771
957.4350, 211.0703
958.5520, 235.0322
959.6690, 106.9512
960.7860, 278.8447
961.9020, 141.7041
963.0190, 328.5410
964.1350, 447.3340
965.2510, 421.7217
966.3670, 361.4482
967.4830, 345.9014
968.5980, 396.8398
969.7140, 408.6465
970.8290, 501.4980
971.9440, 524.3438
973.0590, 592.0996
974.1740, 668.9629
975.2880, 668.6133
976.4030, 742.5176
977.5170, 752.4785
978.6310, 945.1250
979.7450, 724.5605
980.8590, 662.8438
981.9730, 968.9980
983.0860, 902.6074
984.2000, 893.4023
985.3130, 931.1270
986.4260, 907.2852
987.5390, 1076.631
988.6520, 1139.211
989.7640, 989.2969
990.8770, 1252.158
991.9890, 1240.447
993.1010, 1231.215
994.2130, 1171.254
995.3250, 1233.611
996.4370, 1222.127
997.5480, 1326.322
998.6590, 1391.979
999.7710, 1404.646
1000.882, 1387.068
1001.993, 1486.637
1003.103, 1440.078
1004.214, 1490.838
1005.324, 1560.271
1006.434, 1389.342
1007.545, 1428.324
1008.655, 1249.777
1009.764, 1364.535
1010.874, 1361.693
1011.983, 1403.582
1013.093, 1428.621
1014.202, 1549.912
1015.311, 1506.238
1016.420, 1523.441
1017.528, 1500.186
1018.637, 1603.418
1019.745, 1412.346
1020.854, 1585.801
1021.962, 1575.682
1023.070, 1512.014
1024.177, 1780.861
1025.285, 1718.078
1026.392, 1713.906
1027.500, 1858.607
1028.607, 1610.037
1029.714, 1785.436
1030.821, 1719.434
1031.927, 1774.648
1033.034, 1650.086
1034.140, 1503.787
1035.246, 1766.885
1036.352, 1623.406
1037.458, 1730.000
1038.564, 1603.990
1039.670, 1695.430
1040.775, 1610.109
1041.880, 1376.506
1042.986, 1617.152
1044.090, 1660.734
1045.195, 1458.439
1046.300, 1472.588
1047.404, 1456.197
1048.509, 1343.930
1049.613, 1340.734
1050.717, 1230.342
1051.821, 1296.971
1052.925, 1456.354
1054.028, 1508.152
1055.132, 1457.361
1056.235, 1393.002
1057.338, 1211.572
1058.441, 1427.639
1059.544, 1351.467
1060.647, 1284.006
1061.749, 1428.412
1062.851, 1315.273
1063.954, 1455.580
1065.056, 1579.914
1066.158, 1672.850
1067.259, 1653.158
1068.361, 1673.637
1069.462, 1738.895
1070.564, 1898.809
1071.665, 2152.986
1072.766, 1986.176
1073.867, 2134.107
1074.967, 2139.078
1076.068, 2089.371
1077.168, 2127.521
1078.268, 2313.098
1079.368, 2485.162
1080.468, 2538.234
1081.568, 2599.428
1082.668, 2890.496
1083.767, 2923.982
1084.866, 2803.488
1085.966, 3014.051
1087.065, 3037.596
1088.163, 3311.189
1089.262, 3255.775
1090.361, 3314.914
1091.459, 3488.541
1092.557, 3624.912
1093.655, 3530.076
1094.753, 3796.727
1095.851, 3793.439
1096.949, 3981.170
1098.046, 3779.926
1099.143, 4010.371
1100.241, 3936.176
1101.338, 3964.004
1102.434, 4249.859
1103.531, 4098.742
1104.628, 4022.652
1105.724, 4197.590
1106.820, 3947.553
1107.916, 4004.545
1109.012, 4073.568
1110.108, 4036.615
1111.204, 3967.693
1112.299, 4095.801
1113.395, 4018.938
1114.490, 4063.109
1115.585, 4042.312
1116.680, 3982.547
1117.775, 4176.812
1118.869, 3955.109
1119.964, 4110.438
1121.058, 3941.799
1122.152, 4148.195
1123.246, 3887.619
1124.340, 3903.078
1125.434, 3734.584
1126.527, 3831.133
1127.620, 3720.725
1128.714, 3638.773
1129.807, 3622.607
1130.900, 3442.742
1131.992, 3495.508
1133.085, 3387.311
1134.178, 3316.156
1135.270, 3263.838
1136.362, 3138.748
1137.454, 3087.953
1138.546, 2918.969
1139.638, 2812.021
1140.729, 2714.217
1141.821, 2708.268
1142.912, 2614.459
1144.003, 2526.691
1145.094, 2548.996
1146.185, 2477.336
1147.276, 2551.719
1148.366, 2328.139
1149.456, 2285.613
1150.547, 2103.129
1151.637, 2133.707
1152.727, 1979.322
1153.816, 2071.992
1154.906, 1987.814
1155.995, 1860.482
1157.085, 1857.303
1158.174, 1750.191
1159.263, 1703.762
1160.352, 1637.121
1161.441, 1599.170
1162.529, 1558.268
1163.618, 1492.410
1164.706, 1233.590
1165.794, 1102.818
1166.882, 1009.086
1167.970, 1223.434
1169.058, 967.8613
1170.145, 875.3789
1171.232, 932.9707
1172.320, 653.6465
1173.407, 669.3613
1174.494, 599.1309
1175.580, 478.9434
1176.667, 751.8047
1177.754, 591.7188
1178.840, 544.6699
1179.926, 343.6914
1181.012, 397.7656
1182.098, 328.8828
1183.184, 315.0488
1184.269, 245.2520
1185.355, 187.4941
1186.440, 251.8066
1187.525, 135.1562
1188.610, 279.5605
1189.695, 45.00000
1190.780, 101.4785
1191.864, 19.00000
1192.949, 17.44531
1194.033, 88.83984
1195.117, 43.21875
1196.201, 33.42969
1197.285, 1.857422
1198.369, 16.10938
1199.452, 93.32812
1200.536, 53.46094
1201.619, 43.70898
1202.702, 4.164063
1203.785, 60.92578
1204.868, 66.00391
1205.950, 42.02734
1207.033, 38.97266
1208.115, 69.98828
1209.197, 81.06250
1210.279, 24.84570
1211.361, 57.72070
1212.443, 53.58008
1213.525, 24.58789
1214.606, 61.79102
1215.687, 139.9668
1216.769, 54.26562
1217.850, 89.46289
1218.930, 112.8164
1220.011, 76.86523
1221.092, 326.4668
1222.172, 105.1680
1223.252, 48.79492
1224.333, 110.4023
1225.413, 86.02344
1226.492, 223.4922
1227.572, 74.99414
1228.652, 52.46289
1229.731, 153.0996
1230.810, 111.6973
1231.889, 253.3418
1232.968, 305.0215
1234.047, 303.9980
1235.126, 262.4961
1236.204, 283.2930
1237.283, 287.1660
1238.361, 195.0762
1239.439, 175.0352
1240.517, 140.0469
1241.595, 296.1113
1242.673, 360.2109
1243.750, 408.3477
1244.827, 498.5176
1245.905, 471.7246
1246.982, 340.9688
1248.059, 476.2441
1249.135, 362.5566
1250.212, 538.9043
1251.288, 567.2891
1252.365, 599.7227
1253.441, 418.1875
1254.517, 775.6895
1255.593, 644.2246
1256.669, 864.7988
1257.744, 649.4102
1258.820, 939.0566
1259.895, 853.7363
1260.970, 812.4512
1262.045, 932.2012
1263.120, 962.9844
1264.195, 877.7988
1265.270, 884.6465
1266.344, 971.5293
1267.418, 976.4434
1268.492, 1083.393
1269.566, 1110.992
1270.640, 1297.006
1271.714, 1286.049
1272.788, 1206.125
1273.861, 1445.230
1274.934, 1182.367
1276.007, 1423.537
1277.080, 1413.736
1278.153, 1597.965
1279.226, 1626.221
1280.299, 1525.104
1281.371, 1750.418
1282.443, 1809.760
1283.515, 1696.129
1284.587, 1757.010
1285.659, 1918.432
1286.731, 2049.945
1287.802, 1867.545
1288.874, 2021.641
1289.945, 2050.172
1291.016, 2316.727
1292.087, 2272.309
1293.158, 2294.914
1294.229, 2435.535
1295.299, 2426.188
1296.370, 2570.865
1297.440, 2622.531
1298.510, 2769.617
1299.580, 2823.213
1300.650, 2788.992
1301.720, 2636.850
1302.789, 2645.672
1303.859, 2577.623
1304.928, 2674.645
1305.997, 2855.525
1307.066, 2866.428
1308.135, 2853.012
1309.203, 2949.926
1310.272, 2839.883
1311.340, 2981.855
1312.409, 2861.844
1313.477, 3019.844
1314.545, 2982.873
1315.612, 2852.926
1316.680, 2847.002
1317.748, 2887.102
1318.815, 3075.225
1319.882, 2861.375
1320.949, 2487.148
1322.016, 2731.791
1323.083, 2571.654
1324.150, 2865.570
1325.216, 2624.838
1326.283, 2488.062
1327.349, 2420.096
1328.415, 2426.445
1329.481, 2388.807
1330.547, 2171.820
1331.613, 2230.227
1332.678, 2066.861
1333.744, 2180.320
1334.809, 1903.389
1335.874, 1899.896
1336.939, 1867.279
1338.004, 1921.832
1339.068, 1821.742
1340.133, 1693.627
1341.197, 1690.188
1342.262, 1588.834
1343.326, 1614.502
1344.390, 1538.881
1345.453, 1377.756
1346.517, 1420.465
1347.581, 1315.223
1348.644, 1228.473
1349.707, 1245.928
1350.770, 1238.389
1351.833, 1227.742
1352.896, 1188.232
1353.959, 1193.678
1355.022, 1097.592
1356.084, 1065.141
1357.146, 973.8066
1358.208, 941.7793
1359.270, 896.9785
1360.332, 827.9941
1361.394, 680.9980
1362.455, 860.1035
1363.517, 761.7812
1364.578, 712.0312
1365.639, 855.4199
1366.700, 689.5527
1367.761, 615.1914
1368.822, 556.7656
1369.883, 676.8730
1370.943, 618.7695
1372.003, 473.9434
1373.063, 608.9961
1374.123, 529.0625
1375.183, 429.1152
1376.243, 406.1875
1377.303, 457.3398
1378.362, 487.4453
1379.421, 203.8496
1380.481, 253.9902
1381.540, 326.1445
1382.598, 101.3164
1383.657, 305.7539
1384.716, 183.8379
1385.774, 251.1309
1386.833, 253.5332
1387.891, 250.7324
1388.949, 255.9473
1390.007, 208.1738
1391.065, 194.4102
1392.122, 63.68555
1393.180, 187.9453
1394.237, 260.2559
1395.294, 320.5391
1396.351, 1.167969
1397.408, 236.0293
1398.465, 173.2344
1399.522, 64.44727
1400.578, 166.6484
1401.635, 235.8398
1402.691, 28.89648
1403.747, 172.9160
1404.803, 65.81445
1405.859, 53.70703
1406.914, 72.40625
1407.970, 52.45898
