##NAMES=Gmelinite-Na
##RRUFFID=R060168
##IDEAL CHEMISTRY=Na_4_(Si_8_Al_4_)O_24_&#183;11H_2_O
##LOCALITY=Five Islands, Nova Scotia, Canada
##OWNER=RRUFF
##SOURCE=Guy Ouellet
##DESCRIPTION=Salmon-red interpenetrating prismatic rhombohedral crystals
##STATUS=The identification of this mineral has been confirmed by X-ray diffraction and chemical analysis
##URL=rruff.info/R060168
##MEASURED CHEMISTRY=(Na_3.90_Ca_0.10_)(Si_7.90_Al_4.10_)O_24_Â·8.98H_2_O
##PIN_ID=M00975
##ORIENTATION=Laser parallel to c* (0 0 1). Fiducial mark perpendicular to laser is parallel to a [1 0 0]
248.3560, 0.0000000E+00
249.5780, 38.85547
250.8000, 5.2733999E-02
252.0230, 41.85938
253.2440, 90.06836
254.4660, 18.88477
255.6880, 187.0381
256.9090, 137.4424
258.1300, 310.6875
259.3510, 301.3164
260.5720, 338.4131
261.7920, 485.3408
263.0130, 283.8838
264.2330, 257.4980
265.4530, 159.2402
266.6730, 175.9102
267.8920, 74.45605
269.1120, 266.8271
270.3310, 102.2812
271.5500, 111.8369
272.7690, 89.62402
273.9880, 33.44238
275.2060, 84.64844
276.4240, 24.72559
277.6430, 99.65723
278.8600, 71.11816
280.0780, 25.91211
281.2960, 169.5430
282.5130, 196.4668
283.7300, 255.8369
284.9470, 340.6367
286.1640, 489.8428
287.3810, 529.4297
288.5970, 672.3672
289.8130, 756.6377
291.0290, 1007.215
292.2450, 1101.077
293.4610, 1393.205
294.6760, 1668.596
295.8910, 1691.247
297.1060, 1890.173
298.3210, 2105.369
299.5360, 2372.838
300.7510, 2686.565
301.9650, 2804.547
303.1790, 3254.771
304.3930, 3373.233
305.6070, 3812.923
306.8200, 4226.834
308.0340, 4556.961
309.2470, 5133.298
310.4600, 5878.840
311.6730, 6141.582
312.8850, 6406.518
314.0980, 7605.645
315.3100, 7944.955
316.5220, 8080.446
317.7340, 8411.115
318.9460, 8546.958
320.1570, 8783.968
321.3690, 8789.132
322.5800, 8805.385
323.7910, 8794.712
325.0010, 8306.107
326.2120, 8080.575
327.4220, 7610.105
328.6330, 7163.688
329.8430, 6547.316
331.0520, 6133.998
332.2620, 5446.740
333.4720, 4863.499
334.6810, 4290.184
335.8900, 3747.091
337.0990, 3329.170
338.3070, 2801.613
339.5160, 2597.602
340.7240, 2264.809
341.9320, 1980.292
343.1400, 1649.954
344.3480, 1511.888
345.5560, 1281.047
346.7630, 992.3594
347.9700, 1031.831
349.1770, 832.4521
350.3840, 725.1533
351.5910, 696.9336
352.7970, 607.7920
354.0040, 490.7295
355.2100, 361.7441
356.4160, 406.8369
357.6220, 409.0068
358.8270, 438.2539
360.0320, 238.5781
361.2380, 186.9775
362.4430, 373.4541
363.6470, 549.0059
364.8520, 369.6328
366.0560, 505.3350
367.2610, 549.1123
368.4650, 535.9619
369.6690, 817.8867
370.8720, 795.8838
372.0760, 888.9531
373.2790, 1103.095
374.4820, 1057.307
375.6850, 1366.588
376.8880, 1539.938
378.0910, 1594.357
379.2930, 1783.845
380.4950, 1924.400
381.6970, 2142.021
382.8990, 2332.705
384.1010, 2561.455
385.3020, 2827.269
386.5040, 3029.145
387.7050, 3273.853
388.9060, 3550.083
390.1060, 3761.144
391.3070, 4066.264
392.5070, 4371.443
393.7080, 4760.144
394.9080, 5006.245
396.1070, 5667.490
397.3070, 6177.877
398.5070, 6739.328
399.7060, 7512.311
400.9050, 8015.621
402.1040, 8976.902
403.3030, 9889.145
404.5010, 10478.42
405.7000, 11413.42
406.8980, 12001.09
408.0960, 12648.76
409.2940, 13480.81
410.4910, 13671.67
411.6890, 13979.83
412.8860, 14094.48
414.0830, 13828.93
415.2800, 13369.39
416.4770, 12917.51
417.6730, 12169.07
418.8690, 11462.12
420.0660, 10460.04
421.2620, 9504.125
422.4570, 8596.403
423.6530, 7844.782
424.8480, 7126.328
426.0440, 6537.896
427.2390, 5995.562
428.4340, 5651.313
429.6280, 5166.494
430.8230, 4832.459
432.0170, 4510.056
433.2110, 4264.430
434.4050, 4080.139
435.5990, 3984.635
436.7930, 3892.062
437.9860, 3874.531
439.1800, 3970.529
440.3730, 3953.451
441.5660, 3787.775
442.7580, 3957.292
443.9510, 4023.360
445.1430, 4446.976
446.3350, 4325.199
447.5270, 4522.514
448.7190, 4578.418
449.9110, 4807.377
451.1020, 5221.393
452.2930, 5406.514
453.4850, 5535.631
454.6750, 5990.801
455.8660, 6407.018
457.0570, 6694.283
458.2470, 7376.597
459.4370, 7694.957
460.6270, 8304.359
461.8170, 8757.809
463.0070, 9319.306
464.1960, 9965.840
465.3850, 10658.42
466.5750, 11382.04
467.7630, 12234.71
468.9520, 13154.41
470.1410, 14027.16
471.3290, 15050.94
472.5170, 16368.78
473.7050, 17476.64
474.8930, 18829.55
476.0810, 20192.50
477.2680, 21704.21
478.4560, 23400.98
479.6430, 25093.58
480.8300, 27098.69
482.0160, 29157.84
483.2030, 31249.03
484.3890, 33475.25
485.5760, 35321.50
486.7620, 36876.81
487.9480, 38959.14
489.1330, 40564.50
490.3190, 42669.93
491.5040, 43573.35
492.6890, 44207.81
493.8740, 45290.30
495.0590, 45172.82
496.2440, 45302.37
497.4280, 44363.93
498.6120, 43804.54
499.7960, 42503.18
500.9800, 40775.85
502.1640, 38778.53
503.3470, 36243.24
504.5310, 33733.98
505.7140, 31711.76
506.8970, 28930.54
508.0800, 26251.36
509.2620, 23635.21
510.4450, 21426.07
511.6270, 19178.95
512.8090, 17117.87
513.9910, 14988.80
515.1730, 13335.76
516.3550, 11843.74
517.5360, 10452.74
518.7170, 9363.758
519.8980, 8205.796
521.0790, 7406.856
522.2600, 6510.936
523.4400, 5747.033
524.6210, 5120.051
525.8010, 4618.286
526.9810, 4066.438
528.1610, 3567.605
529.3400, 3259.791
530.5200, 2897.992
531.6990, 2577.211
532.8780, 2352.713
534.0570, 2012.802
535.2360, 1940.234
536.4140, 1750.562
537.5930, 1562.209
538.7710, 1470.320
539.9490, 1242.914
541.1270, 1127.014
542.3040, 1093.451
543.4820, 1050.931
544.6590, 880.3340
545.8360, 834.9082
547.0130, 772.2656
548.1900, 616.7285
549.3670, 707.9756
550.5430, 511.4844
551.7190, 367.2646
552.8960, 415.0205
554.0710, 385.2910
555.2470, 345.3340
556.4230, 343.3535
557.5980, 263.9248
558.7730, 289.4492
559.9480, 187.2734
561.1230, 173.0879
562.2980, 134.6045
563.4720, 145.0625
564.6470, 117.5078
565.8210, 91.33008
566.9950, 67.91602
568.1690, 37.43555
569.3420, 64.93457
570.5160, 32.36035
571.6890, 102.0859
572.8620, 226.3857
574.0350, 137.9385
575.2080, 122.8760
576.3800, 74.32422
577.5530, 92.41699
578.7250, 212.2549
579.8970, 100.3574
581.0690, 133.6025
582.2410, 138.3369
583.4120, 34.67090
584.5830, 78.73730
585.7550, 52.09082
586.9260, 128.4580
588.0960, 71.74023
589.2670, 29.01660
590.4380, 7.813477
591.6080, 34.77344
592.7780, 0.4951170
593.9480, 29.22168
595.1180, 12.86328
596.2870, 122.5176
597.4570, 11.17090
598.6260, 168.8252
599.7950, 55.48242
600.9640, 142.1582
602.1330, 218.8330
603.3010, 239.5020
604.4700, 259.1826
605.6380, 201.8975
606.8060, 220.6221
607.9740, 230.3604
609.1420, 348.1074
610.3090, 296.8496
611.4760, 189.5898
612.6440, 268.3408
613.8110, 189.0898
614.9770, 231.8545
616.1440, 128.6318
617.3110, 220.4033
618.4770, 32.17383
619.6430, 10.95508
620.8090, 155.7285
621.9750, 97.49316
623.1400, 77.25586
624.3060, 50.00977
625.4710, 129.7510
626.6360, 136.4951
627.8010, 114.2568
628.9660, 115.0088
630.1300, 23.75000
631.2950, 154.4766
632.4590, 167.1924
633.6230, 69.89746
634.7870, 257.6006
635.9510, 229.2979
637.1140, 251.9805
638.2780, 218.6602
639.4410, 187.3223
640.6040, 324.9658
641.7670, 295.5957
642.9290, 427.2061
644.0920, 488.7974
645.2540, 517.3696
646.4160, 609.9272
647.5780, 639.4619
648.7400, 668.9736
649.9020, 634.4634
651.0630, 565.9287
652.2250, 730.3721
653.3860, 597.7905
654.5470, 701.1865
655.7080, 596.5576
656.8680, 588.9028
658.0290, 540.2227
659.1890, 509.4888
660.3490, 539.7842
661.5090, 467.0244
662.6690, 458.2378
663.8280, 417.4243
664.9880, 398.5825
666.1470, 375.5732
667.3060, 338.8174
668.4650, 319.8916
669.6240, 252.9365
670.7820, 201.9512
671.9410, 238.9414
673.0990, 129.0576
674.2570, 118.0825
675.4150, 6.960449
676.5720, 24.47314
677.7300, 0.7241210
678.8870, 22.99951
680.0450, 20.06201
681.2020, 38.28418
682.3590, 49.04297
683.5150, 43.91406
684.6720, 40.91650
685.8280, 75.06982
686.9840, 49.32568
688.1400, 7.020996
689.2960, 9.927246
690.4520, 21.85352
691.6070, 10.55713
692.7630, 15.25049
693.9180, 21.19678
695.0730, 23.54248
696.2280, 35.33008
697.3820, 0.8725590
698.5370, 17.67383
699.6910, 32.22412
700.8450, 42.04541
701.9990, 115.6421
703.1530, 55.85840
704.3070, 92.93994
705.4600, 27.88965
706.6130, 32.62988
707.7660, 139.7510
708.9190, 163.0117
710.0720, 138.5142
711.2250, 106.7681
712.3770, 128.7363
713.5300, 207.6592
714.6820, 90.80664
715.8340, 230.0781
716.9850, 164.0259
718.1370, 203.2773
719.2880, 285.6592
720.4400, 95.43848
721.5910, 290.7603
722.7420, 159.0342
723.8930, 257.4009
725.0430, 406.6567
726.1940, 190.3340
727.3440, 175.0342
728.4940, 184.9111
729.6440, 147.8530
730.7940, 208.1855
731.9430, 208.3262
733.0930, 318.9839
734.2420, 292.8613
735.3910, 314.5757
736.5400, 391.4663
737.6890, 316.4185
738.8370, 396.5005
739.9860, 447.0391
741.1340, 413.2393
742.2820, 443.0005
743.4300, 570.1021
744.5780, 505.3774
745.7250, 466.1104
746.8730, 461.1675
748.0200, 574.5923
749.1670, 593.4717
750.3140, 612.4199
751.4610, 735.2461
752.6070, 704.6426
753.7540, 807.1362
754.9000, 929.4155
756.0460, 1003.049
757.1920, 1091.055
758.3380, 1131.185
759.4830, 1099.924
760.6280, 1262.714
761.7740, 1397.311
762.9190, 1370.658
764.0640, 1477.333
765.2080, 1558.361
766.3530, 1519.338
767.4970, 1709.865
768.6420, 1504.745
769.7860, 1530.316
770.9300, 1603.145
772.0730, 1514.820
773.2170, 1495.583
774.3600, 1556.691
775.5040, 1358.215
776.6470, 1375.732
777.7900, 1352.115
778.9320, 1238.379
780.0750, 1300.400
781.2170, 1233.726
782.3600, 1183.016
783.5020, 1147.917
784.6440, 1039.529
785.7850, 1045.174
786.9270, 1055.704
788.0680, 989.2080
789.2100, 1032.735
790.3510, 1049.167
791.4920, 765.6938
792.6320, 884.8901
793.7730, 748.1147
794.9130, 828.1890
796.0540, 732.2031
797.1940, 697.2681
798.3340, 641.1909
799.4730, 703.0249
800.6130, 673.7998
801.7520, 639.0093
802.8920, 676.6738
804.0310, 562.2681
805.1700, 538.8857
806.3090, 515.3594
807.4470, 440.7734
808.5860, 360.1270
809.7240, 322.4209
810.8620, 336.5430
812.0000, 344.5449
813.1380, 213.6118
814.2750, 352.3213
815.4130, 377.5308
816.5500, 253.2222
817.6870, 201.3682
818.8240, 321.1411
819.9610, 226.8335
821.0980, 204.5664
822.2340, 190.0894
823.3700, 114.7905
824.5070, 232.3477
825.6430, 130.0840
826.7780, 7.520508
827.9140, 75.63428
829.0500, 130.7334
830.1850, 111.2764
831.3200, 28.01025
832.4550, 104.7183
833.5900, 97.83301
834.7250, 45.04834
835.8590, 109.7349
836.9930, 126.4995
838.1280, 0.4541020
839.2620, 96.59668
840.3950, 9.387207
841.5290, 113.2949
842.6630, 141.9736
843.7960, 74.77441
844.9290, 59.54590
846.0620, 42.34229
847.1950, 106.9604
848.3280, 112.3677
849.4600, 181.9341
850.5930, 81.81445
851.7250, 89.13379
852.8570, 43.03516
853.9890, 1.616211
855.1210, 43.35693
856.2520, 28.16943
857.3840, 127.3916
858.5150, 97.13525
859.6460, 0.5566410
860.7770, 155.1890
861.9080, 85.77637
863.0380, 72.20215
864.1690, 112.4775
865.2990, 85.71094
866.4290, 21.68262
867.5590, 87.83447
868.6890, 81.07324
869.8190, 22.97900
870.9480, 78.03320
872.0770, 52.99072
873.2070, 3.891602
874.3360, 47.27441
875.4640, 70.46582
876.5930, 127.1523
877.7220, 30.21240
878.8500, 116.6602
879.9780, 25.23584
881.1060, 49.89160
882.2340, 24.63965
883.3620, 36.53467
884.4890, 9.654297
885.6170, 43.28564
886.7440, 5.688477
887.8710, 69.39746
888.9980, 56.58252
890.1240, 17.14111
891.2510, 14.18994
892.3770, 53.58887
893.5040, 11.92383
894.6300, 31.38281
895.7560, 23.20898
896.8810, 30.12939
898.0070, 52.41748
899.1330, 42.34180
900.2580, 99.17969
901.3830, 3.875488
902.5080, 0.1220700
903.6330, 75.82666
904.7570, 1.269531
905.8820, 7.417969
907.0060, 38.62256
908.1300, 25.89844
909.2540, 0.7626950
910.3780, 41.62500
911.5020, 55.91602
912.6250, 71.41406
913.7490, 11.12891
914.8720, 124.2759
915.9950, 34.64062
917.1180, 25.96387
918.2400, 12.75488
919.3630, 180.4761
920.4850, 129.6714
921.6080, 139.8291
922.7300, 128.9502
923.8520, 106.4639
924.9730, 111.9331
926.0950, 72.09766
927.2160, 134.0737
928.3380, 110.0151
929.4590, 182.9219
930.5800, 196.7954
931.7010, 96.63574
932.8210, 113.4419
933.9420, 153.2158
935.0620, 246.9575
936.1820, 57.66748
937.3020, 41.34326
938.4220, 130.9863
939.5420, 82.59814
940.6610, 187.1787
941.7810, 177.7295
942.9000, 141.2505
944.0190, 118.7368
945.1380, 95.03809
946.2570, 184.3716
947.3750, 92.72754
948.4940, 234.5396
949.6120, 230.9238
950.7300, 160.3286
951.8480, 153.3174
952.9660, 143.1880
954.0830, 140.0361
955.2010, 162.2661
956.3180, 179.0542
957.4350, 233.7710
958.5520, 266.0220
959.6690, 254.9619
960.7860, 347.3916
961.9020, 311.0571
963.0190, 307.8506
964.1350, 409.3496
965.2510, 338.6987
966.3670, 454.4683
967.4830, 499.7905
968.5980, 543.0425
969.7140, 586.8271
970.8290, 573.2817
971.9440, 698.9355
973.0590, 587.9907
974.1740, 797.4663
975.2880, 794.2700
976.4030, 973.0229
977.5170, 1091.780
978.6310, 1153.218
979.7450, 987.2866
980.8590, 1114.397
981.9730, 1124.733
983.0860, 1130.223
984.2000, 1299.707
985.3130, 1167.031
986.4260, 1333.414
987.5390, 1379.866
988.6520, 1479.606
989.7640, 1462.367
990.8770, 1481.395
991.9890, 1619.760
993.1010, 1692.470
994.2130, 1660.272
995.3250, 1765.632
996.4370, 1563.710
997.5480, 1736.955
998.6590, 1710.433
999.7710, 1836.790
1000.882, 1861.654
1001.993, 1793.629
1003.103, 1877.156
1004.214, 1857.351
1005.324, 1823.654
1006.434, 1879.725
1007.545, 1753.680
1008.655, 1810.449
1009.764, 1883.708
1010.874, 1976.250
1011.983, 1938.176
1013.093, 1879.707
1014.202, 1912.009
1015.311, 1760.800
1016.420, 1895.213
1017.528, 1761.204
1018.637, 1811.687
1019.745, 1811.047
1020.854, 1891.475
1021.962, 1925.280
1023.070, 1750.934
1024.177, 1838.751
1025.285, 1725.159
1026.392, 1767.144
1027.500, 1790.950
1028.607, 1669.097
1029.714, 1557.140
1030.821, 1620.324
1031.927, 1639.707
1033.034, 1543.709
1034.140, 1533.199
1035.246, 1610.101
1036.352, 1488.906
1037.458, 1517.465
1038.564, 1366.316
1039.670, 1480.861
1040.775, 1344.510
1041.880, 1456.018
1042.986, 1416.134
1044.090, 1350.783
1045.195, 1367.391
1046.300, 1255.083
1047.404, 1283.845
1048.509, 1441.801
1049.613, 1172.404
1050.717, 1389.993
1051.821, 1250.924
1052.925, 1300.097
1054.028, 1358.190
1055.132, 1227.350
1056.235, 1305.487
1057.338, 1349.556
1058.441, 1432.671
1059.544, 1479.645
1060.647, 1517.902
1061.749, 1547.086
1062.851, 1559.374
1063.954, 1651.676
1065.056, 1687.121
1066.158, 1715.184
1067.259, 1841.529
1068.361, 1938.889
1069.462, 2082.039
1070.564, 2216.150
1071.665, 2134.557
1072.766, 2314.896
1073.867, 2262.334
1074.967, 2409.788
1076.068, 2653.263
1077.168, 2750.769
1078.268, 2899.275
1079.368, 2912.320
1080.468, 3082.236
1081.568, 3157.612
1082.668, 3259.332
1083.767, 3274.927
1084.866, 3472.797
1085.966, 3515.828
1087.065, 3764.271
1088.163, 3734.942
1089.262, 3871.678
1090.361, 4096.643
1091.459, 4017.834
1092.557, 4167.052
1093.655, 4250.068
1094.753, 4511.125
1095.851, 4570.280
1096.949, 4546.850
1098.046, 4671.031
1099.143, 4695.495
1100.241, 4783.209
1101.338, 4933.508
1102.434, 5127.242
1103.531, 5137.244
1104.628, 5216.287
1105.724, 5244.777
1106.820, 5198.870
1107.916, 5263.006
1109.012, 5316.244
1110.108, 5225.322
1111.204, 5424.550
1112.299, 5526.766
1113.395, 5461.004
1114.490, 5327.266
1115.585, 5483.549
1116.680, 5439.851
1117.775, 5727.780
1118.869, 5730.129
1119.964, 5747.502
1121.058, 5859.906
1122.152, 5763.335
1123.246, 5753.791
1124.340, 5478.270
1125.434, 5338.769
1126.527, 5135.302
1127.620, 4857.855
1128.714, 4845.385
1129.807, 4582.986
1130.900, 4621.648
1131.992, 4461.342
1133.085, 4318.062
1134.178, 4167.812
1135.270, 4172.618
1136.362, 4096.463
1137.454, 4032.330
1138.546, 3944.984
1139.638, 3815.156
1140.729, 3709.132
1141.821, 3579.133
1142.912, 3431.158
1144.003, 3290.227
1145.094, 3246.360
1146.185, 3094.540
1147.276, 3001.764
1148.366, 2991.024
1149.456, 2905.311
1150.547, 2817.640
1151.637, 2500.013
1152.727, 2618.421
1153.816, 2330.876
1154.906, 2325.377
1155.995, 2292.913
1157.085, 2067.512
1158.174, 2109.166
1159.263, 2027.863
1160.352, 1964.586
1161.441, 1791.345
1162.529, 1786.139
1163.618, 1644.959
1164.706, 1463.820
1165.794, 1527.741
1166.882, 1362.691
1167.970, 1394.668
1169.058, 1251.670
1170.145, 1201.699
1171.232, 1142.021
1172.320, 1184.867
1173.407, 989.0176
1174.494, 983.2031
1175.580, 897.4258
1176.667, 797.6738
1177.754, 816.9492
1178.840, 751.2539
1179.926, 688.6006
1181.012, 608.9707
1182.098, 608.3643
1183.184, 479.7881
1184.269, 510.2314
1185.355, 423.6953
1186.440, 424.1807
1187.525, 413.6855
1188.610, 226.2119
1189.695, 286.7598
1190.780, 390.3291
1191.864, 241.3604
1192.949, 213.4268
1194.033, 121.1582
1195.117, 30.80859
1196.201, 41.47852
1197.285, 100.1699
1198.369, 23.87891
1199.452, 94.60840
1200.536, 213.3584
1201.619, 46.12891
1202.702, 537.9199
1203.785, 249.2021
1204.868, 369.5596
1205.950, 3.407227
1207.033, 1.274414
1208.115, 31.16113
1209.197, 90.93457
1210.279, 42.04199
1211.361, 52.14355
1212.443, 81.24121
1213.525, 45.65137
1214.606, 123.4375
1215.687, 6.553711
1216.769, 27.34668
1217.850, 64.26465
1218.930, 30.79688
1220.011, 58.85156
1221.092, 62.90820
1222.172, 39.96875
1223.252, 7.024414
1224.333, 34.06543
1225.413, 9.102539
1226.492, 19.97656
1227.572, 34.43945
1228.652, 40.14453
1229.731, 45.15039
1230.810, 57.03516
1231.889, 19.16602
1232.968, 70.16797
1234.047, 3.821289
1235.126, 57.17480
1236.204, 76.82324
1237.283, 3.835938
1238.361, 20.86426
1239.439, 8.908203
1240.517, 2.965820
1241.595, 34.03809
1242.673, 26.75977
1243.750, 36.22754
1244.827, 30.34570
1245.905, 15.47656
1246.982, 12.37695
1248.059, 35.77539
1249.135, 33.94434
1250.212, 101.1270
1251.288, 122.3457
1252.365, 118.8076
1253.441, 98.83789
1254.517, 89.09766
1255.593, 116.3701
1256.669, 68.65723
1257.744, 18.04395
1258.820, 44.25781
1259.895, 194.5762
1260.970, 49.66113
1262.045, 194.0625
1263.120, 150.3037
1264.195, 240.5674
1265.270, 187.9404
1266.344, 152.3252
1267.418, 153.7207
1268.492, 149.1367
1269.566, 191.4541
1270.640, 200.1064
1271.714, 286.5459
1272.788, 355.9805
1273.861, 364.4844
1274.934, 367.4443
1276.007, 373.7852
1277.080, 319.8682
1278.153, 399.8896
1279.226, 215.6943
1280.299, 340.5068
1281.371, 335.3564
1282.443, 414.8828
1283.515, 269.4258
1284.587, 423.9160
1285.659, 317.2100
1286.731, 576.5869
1287.802, 450.9443
1288.874, 481.6611
1289.945, 518.2637
1291.016, 559.9863
1292.087, 655.9873
1293.158, 585.1279
1294.229, 686.0859
1295.299, 636.9326
1296.370, 579.5234
1297.440, 696.1641
1298.510, 742.0215
1299.580, 749.1553
1300.650, 644.8193
1301.720, 747.7354
1302.789, 668.3320
1303.859, 717.0156
1304.928, 876.3701
1305.997, 932.7354
1307.066, 925.7686
1308.135, 740.0879
1309.203, 997.7598
1310.272, 1297.506
1311.340, 1099.516
1312.409, 1035.084
1313.477, 1016.648
1314.545, 884.2168
1315.612, 978.7881
1316.680, 928.3643
1317.748, 968.0127
1318.815, 843.6738
1319.882, 901.2607
1320.949, 852.8506
1322.016, 906.4414
1323.083, 910.0371
1324.150, 905.6348
1325.216, 852.2344
1326.283, 859.8389
1327.349, 831.4434
1328.415, 705.0518
1329.481, 685.6631
1330.547, 741.2754
1331.613, 704.8906
1332.678, 572.5098
1333.744, 646.1309
1334.809, 677.7510
1335.874, 573.3594
1336.939, 624.9863
1338.004, 574.0947
1339.068, 489.4707
1340.133, 647.7471
1341.197, 551.2441
1342.262, 475.8857
1343.326, 523.2725
1344.390, 438.8594
1345.453, 385.5088
1346.517, 458.5312
1347.581, 546.1416
1348.644, 354.5449
1349.707, 410.8604
1350.770, 254.0547
1351.833, 255.5186
1352.896, 236.9111
1353.959, 219.2295
1355.022, 215.1445
1356.084, 277.4678
1357.146, 268.5322
1358.208, 178.3516
1359.270, 284.6094
1360.332, 233.5908
1361.394, 209.1777
1362.455, 84.76367
1363.517, 108.8564
1364.578, 31.31934
1365.639, 59.04590
1366.700, 47.95996
1367.761, 189.9053
1368.822, 65.28418
1369.883, 137.9229
1370.943, 183.3096
1372.003, 108.0469
1373.063, 178.3857
1374.123, 160.7988
1375.183, 112.4756
1376.243, 72.49219
1377.303, 82.99414
1378.362, 95.29199
1379.421, 35.54785
1380.481, 51.28711
1381.540, 130.1074
1382.598, 51.34473
1383.657, 99.78613
1384.716, 143.3262
1385.774, 152.5918
1386.833, 61.59375
1387.891, 7.083984
1388.949, 34.16113
1390.007, 8.335938
1391.065, 8.494141
1392.122, 106.6367
1393.180, 86.76758
1394.237, 81.31934
1395.294, 6.292969
1396.351, 54.87305
1397.408, 28.41992
1398.465, 85.53320
1399.522, 9.754883
1400.578, 8.775391
1401.635, 0.7773440
1402.691, 83.75977
1403.747, 141.7891
1404.803, 60.83105
1405.859, 27.11426
