##NAMES=Gmelinite-Na
##RRUFFID=R060168
##IDEAL CHEMISTRY=Na_4_(Si_8_Al_4_)O_24_&#183;11H_2_O
##LOCALITY=Five Islands, Nova Scotia, Canada
##OWNER=RRUFF
##SOURCE=Guy Ouellet
##DESCRIPTION=Salmon-red interpenetrating prismatic rhombohedral crystals
##STATUS=The identification of this mineral has been confirmed by X-ray diffraction and chemical analysis
##URL=rruff.info/R060168
##MEASURED CHEMISTRY=(Na_3.90_Ca_0.10_)(Si_7.90_Al_4.10_)O_24_Â·8.98H_2_O
##PIN_ID=M01916
##ORIENTATION=Laser parallel to a* (1 0 0). Fiducial mark perpendicular to laser is parallel to c [0 0 1]
249.5780, 0.0000000E+00
250.8000, 171.2910
252.0230, 279.0469
253.2440, 1.554688
254.4660, 99.93359
255.6880, 212.4844
256.9090, 140.8047
258.1300, 332.1289
259.3510, 346.3848
260.5720, 726.7109
261.7920, 391.1855
263.0130, 333.3203
264.2330, 88.81250
265.4530, 253.5859
266.6730, 302.5508
267.8920, 148.6191
269.1120, 151.7168
270.3310, 139.7695
271.5500, 70.70312
272.7690, 134.4551
273.9880, 43.03320
275.2060, 173.8027
276.4240, 16.10938
277.6430, 7.667969
278.8600, 98.84180
280.0780, 27.59961
281.2960, 19.91016
282.5130, 108.7480
283.7300, 142.0918
284.9470, 176.9121
286.1640, 446.1953
287.3810, 520.9043
288.5970, 607.0098
289.8130, 658.4805
291.0290, 765.9121
292.2450, 784.6348
293.4610, 990.8516
294.6760, 1043.559
295.8910, 1200.760
297.1060, 1326.799
298.3210, 1425.396
299.5360, 1528.268
300.7510, 1643.436
301.9650, 1648.887
303.1790, 1740.609
304.3930, 1960.590
305.6070, 2038.820
306.8200, 2363.291
308.0340, 2582.992
309.2470, 2833.174
310.4600, 3208.055
311.6730, 3327.400
312.8850, 3717.951
314.0980, 3815.701
315.3100, 4122.639
316.5220, 4446.762
317.7340, 4747.068
318.9460, 4776.547
320.1570, 4975.195
321.3690, 4942.008
322.5800, 5069.963
323.7910, 4640.984
325.0010, 4478.023
326.2120, 4052.115
327.4220, 4050.256
328.6330, 3519.449
329.8430, 3220.682
331.0520, 3045.959
332.2620, 2633.291
333.4720, 2400.688
334.6810, 2244.133
335.8900, 1947.484
337.0990, 1711.918
338.3070, 1499.439
339.5160, 1280.182
340.7240, 1020.141
341.9320, 1071.314
343.1400, 812.7363
344.3480, 898.4219
345.5560, 678.2441
346.7630, 779.3691
347.9700, 654.8574
349.1770, 527.5430
350.3840, 405.3086
351.5910, 517.1348
352.7970, 519.0176
354.0040, 590.9629
355.2100, 620.9668
356.4160, 428.0352
357.6220, 598.1621
358.8270, 500.3477
360.0320, 659.5957
361.2380, 627.9043
362.4430, 546.2734
363.6470, 610.7012
364.8520, 568.1914
366.0560, 586.8379
367.2610, 723.3477
368.4650, 705.0176
369.6690, 723.7461
370.8720, 941.5352
372.0760, 898.4395
373.2790, 947.3984
374.4820, 1011.412
375.6850, 1154.480
376.8880, 1314.604
378.0910, 1448.779
379.2930, 1512.008
380.4950, 1673.289
381.6970, 1872.621
382.8990, 1977.002
384.1010, 2210.434
385.3020, 2369.465
386.5040, 2634.443
387.7050, 2729.021
388.9060, 3037.645
390.1060, 3218.312
391.3070, 3348.027
392.5070, 3639.789
393.7080, 3989.590
394.9080, 4225.910
396.1070, 4965.688
397.3070, 5297.900
398.5070, 5915.402
399.7060, 6503.588
400.9050, 7263.969
402.1040, 8054.287
403.3030, 8781.652
404.5010, 9635.080
405.7000, 10548.59
406.8980, 10945.05
408.0960, 11634.16
409.2940, 11996.83
410.4910, 11948.22
411.6890, 12179.80
412.8860, 11922.50
414.0830, 11704.37
415.2800, 10888.39
416.4770, 10406.52
417.6730, 9473.773
418.8690, 8869.691
420.0660, 7841.979
421.2620, 7249.557
422.4570, 6557.238
423.6530, 5961.014
424.8480, 5368.883
426.0440, 4781.834
427.2390, 4226.297
428.4340, 3958.418
429.6280, 3908.516
430.8230, 3687.988
432.0170, 3427.346
433.2110, 3372.699
434.4050, 3282.098
435.5990, 3176.363
436.7930, 3053.170
437.9860, 3226.504
439.1800, 3311.041
440.3730, 3210.078
441.5660, 3518.562
442.7580, 3319.672
443.9510, 3657.598
445.1430, 4104.246
446.3350, 3923.686
447.5270, 4149.688
448.7190, 4354.930
449.9110, 4862.221
451.1020, 5069.559
452.2930, 5525.945
453.4850, 5754.379
454.6750, 6147.855
455.8660, 6682.379
457.0570, 7232.945
458.2470, 7718.551
459.4370, 8136.199
460.6270, 8819.889
461.8170, 9346.723
463.0070, 10068.38
464.1960, 10692.18
465.3850, 11251.02
466.5750, 12159.89
467.7630, 12422.81
468.9520, 13272.76
470.1410, 13604.74
471.3290, 14365.76
472.5170, 15377.81
473.7050, 16090.91
474.8930, 16924.03
476.0810, 17841.18
477.2680, 19270.37
478.4560, 20462.59
479.6430, 22082.84
480.8300, 23447.12
482.0160, 25177.45
483.2030, 26878.80
484.3890, 28684.34
485.5760, 30273.75
486.7620, 31996.17
487.9480, 33748.77
489.1330, 35107.14
490.3190, 36613.75
491.5040, 37670.59
492.6890, 38390.15
493.8740, 39234.72
495.0590, 39069.31
496.2440, 39050.92
497.4280, 38470.55
498.6120, 37216.21
499.7960, 36269.88
500.9800, 34184.57
502.1640, 32400.27
503.3470, 30413.00
504.5310, 28025.74
505.7140, 25922.50
506.8970, 24059.28
508.0800, 21561.07
509.2620, 19623.88
510.4450, 17507.70
511.6270, 15869.54
512.8090, 13892.39
513.9910, 12401.26
515.1730, 11191.14
516.3550, 9815.031
517.5360, 8748.938
518.7170, 7971.855
519.8980, 6872.787
521.0790, 6289.729
522.2600, 5662.684
523.4400, 5027.648
524.6210, 4502.621
525.8010, 4032.207
526.9810, 3585.602
528.1610, 3298.605
529.3400, 3056.617
530.5200, 2895.637
531.6990, 2336.666
532.8780, 2070.703
534.0570, 2086.748
535.2360, 1823.799
536.4140, 1738.855
537.5930, 1634.928
538.7710, 1339.018
539.9490, 1187.125
541.1270, 1248.377
542.3040, 1064.818
543.4820, 1058.992
544.6590, 920.1895
545.8360, 946.4492
547.0130, 970.8809
548.1900, 843.1289
549.3670, 707.9531
550.5430, 600.2695
551.7190, 495.6680
552.8960, 393.4023
554.0710, 465.2598
555.2470, 564.9844
556.4230, 638.6445
557.5980, 454.6992
558.7730, 629.9180
559.9480, 216.7559
561.1230, 158.3750
562.2980, 91.22852
563.4720, 169.2734
564.6470, 166.3418
565.8210, 155.6426
566.9950, 138.3574
568.1690, 183.1152
569.3420, 62.97852
570.5160, 123.8555
571.6890, 127.7324
572.8620, 50.60547
574.0350, 152.8066
575.2080, 119.1465
576.3800, 79.76758
577.5530, 200.8418
578.7250, 14.37891
579.8970, 39.46875
581.0690, 84.24023
582.2410, 154.4805
583.4120, 226.1836
584.5830, 173.5605
585.7550, 215.1406
586.9260, 45.74219
588.0960, 54.37109
589.2670, 22.04883
590.4380, 94.12109
591.6080, 89.41992
592.7780, 186.0273
593.9480, 110.6738
595.1180, 107.6582
596.2870, 108.6582
597.4570, 56.73438
598.6260, 140.1543
599.7950, 79.27148
600.9640, 217.3477
602.1330, 386.0332
603.3010, 175.2773
604.4700, 383.7910
605.6380, 252.4922
606.8060, 309.5996
607.9740, 383.6016
609.1420, 295.5195
610.3090, 354.8008
611.4760, 272.9531
612.6440, 267.3672
613.8110, 126.0664
614.9770, 239.7676
616.1440, 112.5156
617.3110, 115.2852
618.4770, 290.0449
619.6430, 163.7871
620.8090, 200.5156
621.9750, 96.24609
623.1400, 81.96484
624.3060, 50.67383
625.4710, 173.4043
626.6360, 140.1191
627.8010, 65.81836
628.9660, 240.5391
630.1300, 183.2598
631.2950, 64.01562
632.4590, 543.6641
633.6230, 371.3438
634.7870, 205.0020
635.9510, 439.6387
637.1140, 346.2520
638.2780, 459.8438
639.4410, 594.4316
640.6040, 419.9961
641.7670, 471.5449
642.9290, 624.3691
644.0920, 735.5664
645.2540, 898.0469
646.4160, 900.5020
647.5780, 859.9316
648.7400, 889.3359
649.9020, 844.7148
651.0630, 774.0703
652.2250, 998.3984
653.3860, 1011.699
654.5470, 886.9746
655.7080, 1067.236
656.8680, 961.4316
658.0290, 1137.736
659.1890, 903.9355
660.3490, 813.1055
661.5090, 813.2422
662.6690, 860.3457
663.8280, 784.4160
664.9880, 818.4531
666.1470, 690.4570
667.3060, 689.4258
668.4650, 500.3594
669.6240, 468.2598
670.7820, 402.1250
671.9410, 627.9570
673.0990, 505.7500
674.2570, 455.5098
675.4150, 446.2305
676.5720, 318.9121
677.7300, 307.5566
678.8870, 237.1621
680.0450, 205.9180
681.2020, 168.0156
682.3590, 253.8184
683.5150, 252.4277
684.6720, 233.0195
685.8280, 198.6738
686.9840, 263.9883
688.1400, 118.3906
689.2960, 247.1152
690.4520, 67.99023
691.6070, 115.1523
692.7630, 11.67773
693.9180, 49.12891
695.0730, 110.9688
696.2280, 117.5977
697.3820, 53.41797
698.5370, 184.9609
699.6910, 26.61914
700.8450, 205.6484
701.9990, 38.41211
703.1530, 174.5039
704.3070, 123.0156
705.4600, 184.1230
706.6130, 159.9102
707.7660, 155.2227
708.9190, 141.0547
710.0720, 136.0449
711.2250, 118.3867
712.3770, 63.50195
713.5300, 63.75391
714.6820, 118.3770
715.8340, 77.29297
716.9850, 2.822266
718.1370, 108.1465
719.2880, 64.54883
720.4400, 129.9355
721.5910, 221.7285
722.7420, 157.9824
723.8930, 77.33984
725.0430, 96.16602
726.1940, 95.93164
727.3440, 75.51953
728.4940, 226.5332
729.6440, 183.3750
730.7940, 134.1152
731.9430, 45.29883
733.0930, 189.5957
734.2420, 193.0527
735.3910, 176.1387
736.5400, 94.00195
737.6890, 166.6562
738.8370, 175.8223
739.9860, 310.3359
741.1340, 145.9863
742.2820, 87.00000
743.4300, 280.9648
744.5780, 184.7910
745.7250, 38.20508
746.8730, 239.0566
748.0200, 162.7324
749.1670, 193.9180
750.3140, 138.5293
751.4610, 375.7812
752.6070, 336.9492
753.7540, 429.0586
754.9000, 437.6680
756.0460, 495.6562
757.1920, 574.9980
758.3380, 679.3633
759.4830, 757.3574
760.6280, 784.5039
761.7740, 774.7656
762.9190, 826.0312
764.0640, 839.9883
765.2080, 863.3613
766.3530, 911.6035
767.4970, 907.4297
768.6420, 907.1777
769.7860, 912.8984
770.9300, 938.7344
772.0730, 950.2695
773.2170, 926.4180
774.3600, 899.7852
775.5040, 952.2715
776.6470, 903.1582
777.7900, 812.4570
778.9320, 883.2598
780.0750, 836.7012
781.2170, 959.9414
782.3600, 864.9258
783.5020, 880.6953
784.6440, 929.3730
785.7850, 926.8555
786.9270, 995.1660
788.0680, 1065.852
789.2100, 1095.596
790.3510, 1099.965
791.4920, 1092.488
792.6320, 1369.100
793.7730, 1329.707
794.9130, 1325.018
796.0540, 1380.484
797.1940, 1317.766
798.3340, 1373.193
799.4730, 1530.533
800.6130, 1374.490
801.7520, 1313.668
802.8920, 1237.832
804.0310, 974.0605
805.1700, 1069.734
806.3090, 1091.881
807.4470, 907.2578
808.5860, 866.9570
809.7240, 873.3457
810.8620, 577.0176
812.0000, 607.3047
813.1380, 613.8008
814.2750, 499.9043
815.4130, 429.9375
816.5500, 367.8984
817.6870, 277.2891
818.8240, 336.8242
819.9610, 373.5625
821.0980, 367.2305
822.2340, 341.8848
823.3700, 417.2070
824.5070, 380.6582
825.6430, 291.4805
826.7780, 244.7539
827.9140, 49.89258
829.0500, 196.6270
830.1850, 57.18164
831.3200, 302.8008
832.4550, 61.42969
833.5900, 14.59570
834.7250, 140.5234
835.8590, 152.7734
836.9930, 56.18750
838.1280, 267.3457
839.2620, 48.75000
840.3950, 95.03906
841.5290, 137.5273
842.6630, 200.1875
843.7960, 219.0781
844.9290, 140.1250
846.0620, 133.4414
847.1950, 203.7051
848.3280, 28.86914
849.4600, 24.72656
850.5930, 10.50195
851.7250, 40.64648
852.8570, 33.23633
853.9890, 70.52344
855.1210, 180.2891
856.2520, 26.65039
857.3840, 11.61523
858.5150, 18.16797
859.6460, 164.2734
860.7770, 83.75781
861.9080, 115.3438
863.0380, 258.8711
864.1690, 106.2637
865.2990, 4.208984
866.4290, 134.8711
867.5590, 67.25000
868.6890, 10.10352
869.8190, 26.46289
870.9480, 58.85547
872.0770, 71.02539
873.2070, 87.76758
874.3360, 168.7383
875.4640, 19.67188
876.5930, 53.08789
877.7220, 12.50977
878.8500, 33.71094
879.9780, 37.65820
881.1060, 10.12109
882.2340, 47.39844
883.3620, 61.93750
884.4890, 9.062500
885.6170, 47.89844
886.7440, 211.7754
887.8710, 27.91016
888.9980, 203.6953
890.1240, 101.6738
891.2510, 39.21484
892.3770, 109.0312
893.5040, 11.77930
894.6300, 34.54688
895.7560, 18.03125
896.8810, 3.533203
898.0070, 126.0391
899.1330, 9.240234
900.2580, 35.44922
901.3830, 130.4121
902.5080, 39.41797
903.6330, 82.51758
904.7570, 60.74219
905.8820, 53.04688
907.0060, 74.54492
908.1300, 148.0781
909.2540, 77.54883
910.3780, 45.95898
911.5020, 43.69141
912.6250, 47.56055
913.7490, 14.24609
914.8720, 89.87109
915.9950, 109.9258
917.1180, 7.074219
918.2400, 68.85352
919.3630, 72.72070
920.4850, 99.53516
921.6080, 0.7109380
922.7300, 10.98047
923.8520, 9.611328
924.9730, 49.18164
926.0950, 12.69727
927.2160, 50.84766
928.3380, 116.4785
929.4590, 255.7695
930.5800, 166.9688
931.7010, 191.1211
932.8210, 136.2227
933.9420, 137.5938
935.0620, 217.2754
936.1820, 136.2305
937.3020, 119.1367
938.4220, 83.99609
939.5420, 199.8047
940.6610, 63.56836
941.7810, 0.7187500
942.9000, 129.9434
944.0190, 193.5723
945.1380, 96.15820
946.2570, 167.6953
947.3750, 97.19922
948.4940, 231.6621
949.6120, 205.1250
950.7300, 168.5879
951.8480, 14.87305
952.9660, 157.7617
954.0830, 323.8789
955.2010, 331.1074
956.3180, 125.2793
957.4350, 319.3203
958.5520, 219.6172
959.6690, 262.7461
960.7860, 409.4824
961.9020, 376.9902
963.0190, 439.1309
964.1350, 370.7656
965.2510, 519.6602
966.3670, 438.4746
967.4830, 550.7500
968.5980, 432.6914
969.7140, 596.8359
970.8290, 478.0176
971.9440, 429.2461
973.0590, 430.9004
974.1740, 626.1348
975.2880, 806.8652
976.4030, 706.9160
977.5170, 989.2363
978.6310, 852.6113
979.7450, 891.6328
980.8590, 915.6016
981.9730, 1055.840
983.0860, 1007.408
984.2000, 1024.176
985.3130, 1058.842
986.4260, 1023.670
987.5390, 1286.330
988.6520, 1084.650
989.7640, 1398.676
990.8770, 1364.197
991.9890, 1228.848
993.1010, 1582.115
994.2130, 1455.996
995.3250, 1633.379
996.4370, 1581.012
997.5480, 1538.234
998.6590, 1728.760
999.7710, 1699.387
1000.882, 1897.033
1001.993, 1767.162
1003.103, 1997.098
1004.214, 1946.801
1005.324, 1833.795
1006.434, 1685.936
1007.545, 1911.209
1008.655, 1671.895
1009.764, 2011.156
1010.874, 1941.207
1011.983, 1812.816
1013.093, 1907.398
1014.202, 1851.049
1015.311, 1754.033
1016.420, 1904.502
1017.528, 1907.070
1018.637, 2000.055
1019.745, 1938.543
1020.854, 1973.311
1021.962, 1984.090
1023.070, 2029.857
1024.177, 2005.053
1025.285, 2043.795
1026.392, 2012.111
1027.500, 1994.336
1028.607, 1903.859
1029.714, 1916.279
1030.821, 1928.258
1031.927, 1977.137
1033.034, 1926.414
1034.140, 1854.207
1035.246, 1927.922
1036.352, 1800.393
1037.458, 1881.199
1038.564, 1757.420
1039.670, 1586.172
1040.775, 1733.389
1041.880, 1625.920
1042.986, 1569.168
1044.090, 1463.229
1045.195, 1595.818
1046.300, 1562.930
1047.404, 1397.477
1048.509, 1714.830
1049.613, 1448.283
1050.717, 1356.443
1051.821, 1277.752
1052.925, 1398.086
1054.028, 1414.551
1055.132, 1420.264
1056.235, 1569.256
1057.338, 1453.262
1058.441, 1390.576
1059.544, 1404.678
1060.647, 1658.621
1061.749, 1560.510
1062.851, 1632.625
1063.954, 1510.529
1065.056, 1566.551
1066.158, 1667.363
1067.259, 1691.203
1068.361, 1798.002
1069.462, 1952.236
1070.564, 2011.064
1071.665, 2133.766
1072.766, 2297.959
1073.867, 2338.621
1074.967, 2440.990
1076.068, 2588.904
1077.168, 2638.141
1078.268, 2725.033
1079.368, 2787.488
1080.468, 2927.832
1081.568, 3015.545
1082.668, 3285.566
1083.767, 3243.316
1084.866, 3307.426
1085.966, 3534.705
1087.065, 3576.047
1088.163, 3833.256
1089.262, 3744.006
1090.361, 4026.430
1091.459, 3943.820
1092.557, 4288.996
1093.655, 4330.412
1094.753, 4336.166
1095.851, 4188.621
1096.949, 4446.264
1098.046, 4390.758
1099.143, 4692.268
1100.241, 4829.867
1101.338, 4745.889
1102.434, 4773.461
1103.531, 4770.051
1104.628, 4904.980
1105.724, 5002.607
1106.820, 4993.273
1107.916, 5096.244
1109.012, 5110.549
1110.108, 5188.270
1111.204, 5234.012
1112.299, 5232.771
1113.395, 5209.547
1114.490, 5442.340
1115.585, 5166.160
1116.680, 5352.799
1117.775, 5478.508
1118.869, 5544.145
1119.964, 5552.943
1121.058, 5334.596
1122.152, 5409.607
1123.246, 5367.084
1124.340, 5319.787
1125.434, 5436.168
1126.527, 5250.988
1127.620, 5052.031
1128.714, 5005.168
1129.807, 4785.320
1130.900, 4936.496
1131.992, 4588.703
1133.085, 4590.934
1134.178, 4488.188
1135.270, 4603.471
1136.362, 4365.793
1137.454, 4316.143
1138.546, 4388.518
1139.638, 4170.914
1140.729, 4037.336
1141.821, 4225.783
1142.912, 3978.279
1144.003, 4046.812
1145.094, 3814.377
1146.185, 3779.973
1147.276, 3624.598
1148.366, 3724.270
1149.456, 3665.988
1150.547, 3461.748
1151.637, 3326.555
1152.727, 3350.387
1153.816, 3076.254
1154.906, 3070.213
1155.995, 3200.234
1157.085, 3155.285
1158.174, 3001.947
1159.263, 2555.520
1160.352, 2582.729
1161.441, 2483.965
1162.529, 2279.234
1163.618, 2415.572
1164.706, 1874.955
1165.794, 2009.367
1166.882, 1950.848
1167.970, 1934.375
1169.058, 1921.139
1170.145, 1692.602
1171.232, 1728.291
1172.320, 1545.021
1173.407, 1265.775
1174.494, 1332.559
1175.580, 1215.365
1176.667, 1316.217
1177.754, 1005.111
1178.840, 957.0449
1179.926, 1040.000
1181.012, 743.9805
1182.098, 751.9961
1183.184, 757.0332
1184.269, 793.0996
1185.355, 455.1895
1186.440, 463.3105
1187.525, 341.4590
1188.610, 346.6367
1189.695, 410.8379
1190.780, 469.0664
1191.864, 457.7988
1192.949, 305.6699
1194.033, 413.0234
1195.117, 237.4004
1196.201, 118.8027
1197.285, 265.2266
1198.369, 105.6758
1199.452, 27.15039
1200.536, 43.59570
1201.619, 38.40820
1202.702, 45.71484
1203.785, 42.28516
1204.868, 192.8809
1205.950, 73.50000
1207.033, 95.11914
1208.115, 184.7617
1209.197, 33.57227
1210.279, 36.89648
1211.361, 198.2109
1212.443, 203.1445
1213.525, 252.0215
1214.606, 140.5430
1215.687, 70.09570
1216.769, 66.34570
1217.850, 21.18750
1218.930, 80.70898
1220.011, 3.759766
1221.092, 88.25000
1222.172, 64.23633
1223.252, 112.2754
1224.333, 5.193359
1225.413, 149.3594
1226.492, 92.06641
1227.572, 36.49219
1228.652, 177.0742
1229.731, 3.677734
1230.810, 76.69531
1231.889, 220.9180
1232.968, 192.5566
1234.047, 28.77930
1235.126, 166.8945
1236.204, 137.5898
1237.283, 28.30859
1238.361, 159.9531
1239.439, 204.7480
1240.517, 176.4688
1241.595, 9.208984
1242.673, 82.98047
1243.750, 36.79102
1244.827, 45.96484
1245.905, 278.5195
1246.982, 223.4160
1248.059, 372.3555
1249.135, 692.3145
1250.212, 557.8379
1251.288, 272.3203
1252.365, 435.3555
1253.441, 365.4238
1254.517, 206.5137
1255.593, 413.6250
1256.669, 201.7539
1257.744, 341.9043
1258.820, 523.0762
1259.895, 453.2676
1260.970, 363.4766
1262.045, 438.7793
1263.120, 602.1914
1264.195, 705.5352
1265.270, 752.0469
1266.344, 571.3574
1267.418, 684.0312
1268.492, 679.1738
1269.566, 669.5137
1270.640, 823.5332
1271.714, 675.9805
1272.788, 827.4512
1273.861, 860.2539
1274.934, 854.2285
1276.007, 1041.713
1277.080, 966.2129
1278.153, 842.7324
1279.226, 819.8027
1280.299, 787.5156
1281.371, 757.4277
1282.443, 844.5137
1283.515, 793.1172
1284.587, 940.5449
1285.659, 1050.180
1286.731, 1178.951
1287.802, 1057.615
1288.874, 1216.229
1289.945, 1200.920
1291.016, 1196.623
1292.087, 1379.340
1293.158, 1585.963
1294.229, 1380.705
1295.299, 1742.482
1296.370, 1750.543
1297.440, 1613.059
1298.510, 1624.604
1299.580, 1676.207
1300.650, 1770.027
1301.720, 1811.447
1302.789, 2032.270
1303.859, 2043.100
1304.928, 2014.750
1305.997, 1885.600
1307.066, 2130.451
1308.135, 2026.314
1309.203, 2033.182
1310.272, 1891.057
1311.340, 2177.938
1312.409, 2111.828
1313.477, 2319.721
1314.545, 2189.625
1315.612, 2130.537
1316.680, 2015.463
1317.748, 2067.400
1318.815, 2003.348
1319.882, 2072.309
1320.949, 1854.279
1322.016, 2011.260
1323.083, 1928.250
1324.150, 1768.252
1325.216, 1821.266
1326.283, 1920.289
1327.349, 1887.324
1328.415, 1775.369
1329.481, 1855.426
1330.547, 1822.494
1331.613, 1595.576
1332.678, 1591.668
1333.744, 1667.773
1334.809, 1570.963
1335.874, 1632.096
1336.939, 1818.238
1338.004, 1336.152
1339.068, 1289.924
1340.133, 1455.676
1341.197, 1064.137
1342.262, 1130.900
1343.326, 986.7109
1344.390, 1140.988
1345.453, 1169.234
1346.517, 905.6406
1347.581, 1010.426
1348.644, 828.6680
1349.707, 924.9668
1350.770, 958.5078
1351.833, 899.8340
1352.896, 1074.852
1353.959, 874.2051
1355.022, 920.3965
1356.084, 697.7734
1357.146, 556.2207
1358.208, 487.5430
1359.270, 528.4844
1360.332, 530.1719
1361.394, 802.9883
1362.455, 581.3672
1363.517, 604.8047
1364.578, 579.4355
1365.639, 425.8008
1366.700, 522.6055
1367.761, 354.9805
1368.822, 540.4375
1369.883, 418.5312
1370.943, 250.1152
1372.003, 339.5625
1373.063, 518.1035
1374.123, 380.4238
1375.183, 166.0312
1376.243, 383.3711
1377.303, 383.7383
1378.362, 203.1875
1379.421, 394.6562
1380.481, 195.8262
1381.540, 290.3633
1382.598, 111.0801
1383.657, 241.4863
1384.716, 136.0254
1385.774, 186.6719
1386.833, 87.10352
1387.891, 259.5430
1388.949, 216.2188
1390.007, 129.9648
1391.065, 280.4297
1392.122, 130.3535
1393.180, 312.8965
1394.237, 75.38281
1395.294, 323.1836
1396.351, 201.6777
1397.408, 33.17969
1398.465, 85.68555
1399.522, 60.25781
1400.578, 0.7792970
1401.635, 3.724609
1402.691, 81.22461
1403.747, 130.7109
1404.803, 145.6426
1405.859, 15.39258
1406.914, 220.9199
1407.970, 62.00391
