##NAMES=Gmelinite-Na
##RRUFFID=R060168
##IDEAL CHEMISTRY=Na_4_(Si_8_Al_4_)O_24_&#183;11H_2_O
##LOCALITY=Five Islands, Nova Scotia, Canada
##OWNER=RRUFF
##SOURCE=Guy Ouellet
##DESCRIPTION=Salmon-red interpenetrating prismatic rhombohedral crystals
##STATUS=The identification of this mineral has been confirmed by X-ray diffraction and chemical analysis
##URL=rruff.info/R060168
##MEASURED CHEMISTRY=(Na_3.90_Ca_0.10_)(Si_7.90_Al_4.10_)O_24_Â·8.98H_2_O
##PIN_ID=M00975
##ORIENTATION=Laser parallel to c* (0 0 1). Fiducial mark perpendicular to laser is parallel to a [1 0 0]
242.2410, 0.0000000E+00
243.4640, 0.2578130
244.6870, 49.90332
245.9100, 9.025391
247.1330, 75.46582
248.3560, 72.11719
249.5780, 132.1758
250.8000, 124.3779
252.0230, 74.19043
253.2440, 120.7578
254.4660, 257.8330
255.6880, 155.0449
256.9090, 337.4170
258.1300, 423.0469
259.3510, 465.5684
260.5720, 456.1475
261.7920, 515.9492
263.0130, 385.8174
264.2330, 344.3633
265.4530, 208.3516
266.6730, 180.9619
267.8920, 60.09961
269.1120, 15.74902
270.3310, 53.11133
271.5500, 14.49707
272.7690, 49.42480
273.9880, 57.91016
275.2060, 30.03223
276.4240, 21.61133
277.6430, 61.85352
278.8600, 73.29297
280.0780, 55.80957
281.2960, 14.32324
282.5130, 351.8730
283.7300, 243.3789
284.9470, 314.1758
286.1640, 425.2500
287.3810, 597.5771
288.5970, 741.1436
289.8130, 907.1289
291.0290, 1109.996
292.2450, 1269.290
293.4610, 1497.828
294.6760, 1709.604
295.8910, 1870.614
297.1060, 1976.853
298.3210, 2327.312
299.5360, 2503.990
300.7510, 2932.881
301.9650, 3290.979
303.1790, 3525.280
304.3930, 4001.781
305.6070, 4463.481
306.8200, 4840.373
308.0340, 5515.456
309.2470, 6064.724
310.4600, 6871.174
311.6730, 7327.803
312.8850, 8047.608
314.0980, 8743.587
315.3100, 9011.718
316.5220, 9747.959
317.7340, 10084.30
318.9460, 10361.73
320.1570, 10690.25
321.3690, 10728.84
322.5800, 10155.52
323.7910, 10053.25
325.0010, 9754.035
326.2120, 9248.892
327.4220, 8778.817
328.6330, 8226.369
329.8430, 7475.753
331.0520, 6983.686
332.2620, 6178.668
333.4720, 5510.695
334.6810, 4796.844
335.8900, 4251.572
337.0990, 3843.616
338.3070, 3357.308
339.5160, 2866.205
340.7240, 2650.271
341.9320, 2335.498
343.1400, 1940.857
344.3480, 1749.321
345.5560, 1492.883
346.7630, 1353.541
347.9700, 1195.295
349.1770, 955.1426
350.3840, 913.0820
351.5910, 691.1152
352.7970, 569.2412
354.0040, 625.4609
355.2100, 573.7705
356.4160, 483.1709
357.6220, 447.6592
358.8270, 526.2383
360.0320, 531.9053
361.2380, 512.6602
362.4430, 465.5020
363.6470, 533.4326
364.8520, 659.4502
366.0560, 510.5537
367.2610, 730.7471
368.4650, 709.0254
369.6690, 974.3867
370.8720, 960.1270
372.0760, 1184.350
373.2790, 1052.951
374.4820, 1280.629
375.6850, 1491.385
376.8880, 1585.217
378.0910, 1840.124
379.2930, 2149.104
380.4950, 2332.159
381.6970, 2489.284
382.8990, 2687.482
384.1010, 2897.749
385.3020, 3141.905
386.5040, 3357.490
387.7050, 3638.758
388.9060, 3887.012
390.1060, 4051.236
391.3070, 4440.406
392.5070, 4857.531
393.7080, 5217.621
394.9080, 5799.646
396.1070, 6479.570
397.3070, 7082.361
398.5070, 7776.223
399.7060, 8812.092
400.9050, 9579.927
402.1040, 10552.83
403.3030, 11533.98
404.5010, 12565.23
405.7000, 13430.66
406.8980, 14541.22
408.0960, 15299.92
409.2940, 16039.79
410.4910, 16416.79
411.6890, 16387.94
412.8860, 16070.63
414.0830, 15922.37
415.2800, 15074.45
416.4770, 14439.49
417.6730, 13601.88
418.8690, 12665.24
420.0660, 11620.20
421.2620, 10543.84
422.4570, 9550.395
423.6530, 8669.350
424.8480, 7921.967
426.0440, 7230.344
427.2390, 6640.111
428.4340, 6122.957
429.6280, 5776.143
430.8230, 5507.198
432.0170, 5057.010
433.2110, 4901.145
434.4050, 4662.090
435.5990, 4598.289
436.7930, 4699.241
437.9860, 4582.502
439.1800, 4573.096
440.3730, 4439.357
441.5660, 4711.273
442.7580, 4590.658
443.9510, 4788.241
445.1430, 5013.074
446.3350, 5088.771
447.5270, 5473.525
448.7190, 5647.333
449.9110, 5909.194
451.1020, 6134.109
452.2930, 6546.074
453.4850, 6657.091
454.6750, 7167.156
455.8660, 7492.273
457.0570, 8166.438
458.2470, 8514.648
459.4370, 9220.903
460.6270, 9762.207
461.8170, 10434.56
463.0070, 11136.95
464.1960, 11965.38
465.3850, 12698.86
466.5750, 13521.38
467.7630, 14755.95
468.9520, 15712.56
470.1410, 16897.21
471.3290, 18107.90
472.5170, 19789.64
473.7050, 21146.42
474.8930, 22566.24
476.0810, 24594.10
477.2680, 26420.00
478.4560, 28386.94
479.6430, 30363.93
480.8300, 32712.96
482.0160, 35018.25
483.2030, 37546.41
484.3890, 40246.55
485.5760, 42344.74
486.7620, 44564.94
487.9480, 46696.49
489.1330, 48210.76
490.3190, 50442.56
491.5040, 51675.90
492.6890, 52422.26
493.8740, 52975.68
495.0590, 52998.13
496.2440, 52765.60
497.4280, 52160.09
498.6120, 50790.60
499.7960, 49300.16
500.9800, 47119.74
502.1640, 44884.34
503.3470, 41967.98
504.5310, 39140.63
505.7140, 36044.32
506.8970, 33299.03
508.0800, 30093.76
509.2620, 27182.53
510.4450, 24385.31
511.6270, 21545.11
512.8090, 19193.94
513.9910, 17142.79
515.1730, 15280.67
516.3550, 13579.56
517.5360, 12009.50
518.7170, 10618.58
519.8980, 9354.362
521.0790, 8328.336
522.2600, 7388.328
523.4400, 6514.738
524.6210, 5870.366
525.8010, 5160.410
526.9810, 4726.508
528.1610, 4357.689
529.3400, 3738.420
530.5200, 3440.150
531.6990, 3129.104
532.8780, 2653.565
534.0570, 2541.401
535.2360, 2177.239
536.4140, 1799.339
537.5930, 1887.411
538.7710, 1479.602
539.9490, 1413.260
541.1270, 1320.639
542.3040, 1178.250
543.4820, 1025.917
544.6590, 939.9902
545.8360, 782.8955
547.0130, 773.6602
548.1900, 683.7861
549.3670, 688.2080
550.5430, 581.4746
551.7190, 522.4961
552.8960, 461.0566
554.0710, 411.8594
555.2470, 240.7451
556.4230, 373.7246
557.5980, 198.3145
558.7730, 290.8154
559.9480, 139.8447
561.1230, 7.784180
562.2980, 12.00781
563.4720, 115.8291
564.6470, 35.72949
565.8210, 13.32422
566.9950, 52.47168
568.1690, 9.387695
569.3420, 102.4893
570.5160, 85.23047
571.6890, 121.8428
572.8620, 93.53809
574.0350, 118.1982
575.2080, 111.8740
576.3800, 94.15234
577.5530, 86.24609
578.7250, 42.69238
579.8970, 95.14941
581.0690, 37.15137
582.2410, 52.55664
583.4120, 35.56543
584.5830, 11.16992
585.7550, 9.750000
586.9260, 67.70215
588.0960, 48.14648
589.2670, 12.58398
590.4380, 48.02051
591.6080, 78.43945
592.7780, 73.84863
593.9480, 135.2490
595.1180, 163.9883
596.2870, 99.36914
597.4570, 193.7373
598.6260, 178.0957
599.7950, 162.4434
600.9640, 179.7793
602.1330, 171.4023
603.3010, 187.4229
604.4700, 188.7324
605.6380, 208.6387
606.8060, 235.3320
607.9740, 213.6113
609.1420, 228.8809
610.3090, 180.1523
611.4760, 254.4180
612.6440, 433.6807
613.8110, 198.9404
614.9770, 218.1992
616.1440, 141.4492
617.3110, 431.6934
618.4770, 129.9473
619.6430, 223.1982
620.8090, 108.4492
621.9750, 45.70508
623.1400, 91.93848
624.3060, 110.1787
625.4710, 108.4316
626.6360, 212.6621
627.8010, 50.87305
628.9660, 227.0605
630.1300, 12.24023
631.2950, 225.3906
632.4590, 234.5156
633.6230, 232.6221
634.7870, 138.7012
635.9510, 226.7617
637.1140, 290.7969
638.2780, 221.8076
639.4410, 438.8125
640.6040, 392.7910
641.7670, 434.7432
642.9290, 505.6650
644.0920, 615.5566
645.2540, 649.6670
646.4160, 717.4277
647.5780, 731.0586
648.7400, 773.8389
649.9020, 758.6025
651.0630, 699.3340
652.2250, 774.0312
653.3860, 742.2559
654.5470, 664.3369
655.7080, 747.9453
656.8680, 764.5215
658.0290, 752.0703
659.1890, 636.5850
660.3490, 644.0869
661.5090, 418.5537
662.6690, 346.9834
663.8280, 292.3789
664.9880, 354.7363
666.1470, 244.0576
667.3060, 231.3398
668.4650, 107.5869
669.6240, 116.7891
670.7820, 84.94629
671.9410, 55.56836
673.0990, 118.1172
674.2570, 49.12988
675.4150, 91.31641
676.5720, 100.8662
677.7300, 92.72852
678.8870, 48.32617
680.0450, 47.24219
681.2020, 123.9385
682.3590, 11.68457
683.5150, 80.28906
684.6720, 60.09766
685.8280, 72.30469
686.9840, 39.46777
688.1400, 5.427734
689.2960, 123.6279
690.4520, 22.75879
691.6070, 93.87891
692.7630, 80.56543
693.9180, 35.72461
695.0730, 1.381836
696.2280, 6.355469
697.3820, 70.55078
698.5370, 13.94629
699.6910, 138.6201
700.8450, 101.8799
701.9990, 78.90820
703.1530, 198.3281
704.3070, 37.62109
705.4600, 6.088867
706.6130, 45.97852
707.7660, 134.8271
708.9190, 223.4697
710.0720, 225.8730
711.2250, 215.4922
712.3770, 200.5098
713.5300, 192.7881
714.6820, 314.3301
715.8340, 285.2832
716.9850, 358.7939
718.1370, 376.1719
719.2880, 232.0352
720.4400, 326.7988
721.5910, 328.6270
722.7420, 279.6836
723.8930, 350.3809
725.0430, 374.2402
726.1940, 417.4746
727.3440, 387.9590
728.4940, 356.1377
729.6440, 469.6133
730.7940, 382.7197
731.9430, 370.6797
733.0930, 279.8398
734.2420, 424.2783
735.3910, 504.3613
736.5400, 532.7090
737.6890, 616.8770
738.8370, 476.1113
739.9860, 565.8643
741.1340, 499.7217
742.2820, 589.2842
743.4300, 591.1738
744.5780, 620.1494
745.7250, 673.3252
746.8730, 723.6123
748.0200, 718.1484
749.1670, 869.0508
750.3140, 842.7695
751.4610, 904.0020
752.6070, 1062.095
753.7540, 1081.228
754.9000, 1094.207
756.0460, 1291.965
757.1920, 1428.770
758.3380, 1469.203
759.4830, 1524.770
760.6280, 1699.754
761.7740, 1881.155
762.9190, 1729.697
764.0640, 1840.825
765.2080, 2044.772
766.3530, 1942.797
767.4970, 2104.542
768.6420, 2006.686
769.7860, 2032.251
770.9300, 2079.461
772.0730, 1836.457
773.2170, 1987.212
774.3600, 1796.612
775.5040, 1794.806
776.6470, 1759.749
777.7900, 1665.176
778.9320, 1663.954
780.0750, 1555.495
781.2170, 1455.842
782.3600, 1424.725
783.5020, 1515.869
784.6440, 1264.651
785.7850, 1381.102
786.9270, 1198.500
788.0680, 1160.746
789.2100, 1130.636
790.3510, 1233.460
791.4920, 1128.718
792.6320, 1137.824
793.7730, 1097.002
794.9130, 999.5156
796.0540, 977.1924
797.1940, 1032.928
798.3340, 962.6924
799.4730, 944.3721
800.6130, 848.7422
801.7520, 740.2949
802.8920, 809.8799
804.0310, 685.9648
805.1700, 590.3682
806.3090, 603.0742
807.4470, 534.3467
808.5860, 568.5986
809.7240, 489.2188
810.8620, 464.2314
812.0000, 402.9746
813.1380, 303.6035
814.2750, 476.6211
815.4130, 423.3926
816.5500, 247.1836
817.6870, 409.4619
818.8240, 258.3906
819.9610, 211.3799
821.0980, 212.0000
822.2340, 265.6943
823.3700, 216.2529
824.5070, 165.7363
825.6430, 101.2188
826.7780, 141.1338
827.9140, 303.2480
829.0500, 161.7764
830.1850, 384.0156
831.3200, 191.1289
832.4550, 200.1074
833.5900, 58.45215
834.7250, 162.8418
835.8590, 70.67188
836.9930, 112.5596
838.1280, 197.1094
839.2620, 103.0215
840.3950, 188.2764
841.5290, 78.51172
842.6630, 33.24609
843.7960, 101.6846
844.9290, 126.2500
846.0620, 106.4893
847.1950, 97.33398
848.3280, 79.28516
849.4600, 154.1328
850.5930, 137.9209
851.7250, 220.1885
852.8570, 147.3008
853.9890, 106.6465
855.1210, 150.9404
856.2520, 61.70703
857.3840, 89.81152
858.5150, 154.8760
859.6460, 192.6826
860.7770, 93.72754
861.9080, 336.7305
863.0380, 199.6836
864.1690, 258.5869
865.2990, 172.4316
866.4290, 246.2363
867.5590, 315.9922
868.6890, 203.7002
869.8190, 121.0078
870.9480, 191.6162
872.0770, 113.1748
873.2070, 140.6836
874.3360, 110.1396
875.4640, 209.5459
876.5930, 1.905273
877.7220, 39.19629
878.8500, 1.567383
879.9780, 94.60059
881.1060, 51.22949
882.2340, 19.78516
883.3620, 28.20605
884.4890, 9.278320
885.6170, 23.83984
886.7440, 17.63770
887.8710, 32.92969
888.9980, 3.300781
890.1240, 18.41602
891.2510, 80.24414
892.3770, 34.85449
893.5040, 46.54492
894.6300, 66.31836
895.7560, 48.81250
896.8810, 84.10254
898.0070, 103.1191
899.1330, 28.75195
900.2580, 43.57715
901.3830, 8.355469
902.5080, 33.91699
903.6330, 62.73926
904.7570, 63.35449
905.8820, 0.9267580
907.0060, 163.4443
908.1300, 12.07520
909.2540, 31.34863
910.3780, 62.72754
911.5020, 67.93359
912.6250, 3.320313
913.7490, 107.5283
914.8720, 145.6973
915.9950, 182.8291
917.1180, 142.9248
918.2400, 70.98633
919.3630, 30.99219
920.4850, 75.97070
921.6080, 44.69434
922.7300, 88.23633
923.8520, 161.0391
924.9730, 176.9492
926.0950, 34.35449
927.2160, 47.64746
928.3380, 12.04199
929.4590, 28.41992
930.5800, 94.73730
931.7010, 83.73828
932.8210, 36.70898
933.9420, 37.77148
935.0620, 93.42090
936.1820, 30.75879
937.3020, 4.594727
938.4220, 96.72852
939.5420, 2.157227
940.6610, 6.094727
941.7810, 96.31641
942.9000, 34.51953
944.0190, 50.69727
945.1380, 92.85254
946.2570, 17.00977
947.3750, 112.8740
948.4940, 0.3232420
949.6120, 12.38770
950.7300, 60.70410
951.8480, 57.46582
952.9660, 72.30762
954.0830, 30.59277
955.2010, 7.654297
956.3180, 16.81445
957.4350, 204.2646
958.5520, 175.5635
959.6690, 321.5596
960.7860, 62.71094
961.9020, 177.6709
963.0190, 153.5215
964.1350, 222.8496
965.2510, 147.0928
966.3670, 437.6494
967.4830, 353.2842
968.5980, 490.4736
969.7140, 324.0391
970.8290, 540.7861
971.9440, 651.2588
973.0590, 774.1396
974.1740, 700.5781
975.2880, 757.4443
976.4030, 859.6895
977.5170, 742.1543
978.6310, 835.7285
979.7450, 859.3262
980.8590, 1055.289
981.9730, 1191.082
983.0860, 1269.805
984.2000, 1121.837
985.3130, 1267.085
986.4260, 1295.121
987.5390, 1318.021
988.6520, 1504.414
989.7640, 1389.335
990.8770, 1572.735
991.9890, 1637.000
993.1010, 1756.192
994.2130, 1757.248
995.3250, 1794.413
996.4370, 1853.000
997.5480, 1921.947
998.6590, 2139.139
999.7710, 2095.963
1000.882, 2254.096
1001.993, 2152.307
1003.103, 2238.252
1004.214, 2134.852
1005.324, 2239.744
1006.434, 2223.216
1007.545, 2186.981
1008.655, 2211.527
1009.764, 2275.489
1010.874, 2211.073
1011.983, 2314.307
1013.093, 2092.938
1014.202, 2080.419
1015.311, 2282.637
1016.420, 1984.329
1017.528, 2159.409
1018.637, 2135.711
1019.745, 2025.130
1020.854, 2081.973
1021.962, 2190.894
1023.070, 1980.711
1024.177, 2157.617
1025.285, 1996.685
1026.392, 1930.641
1027.500, 2126.906
1028.607, 2005.977
1029.714, 1895.325
1030.821, 1755.374
1031.927, 1779.279
1033.034, 1821.514
1034.140, 1829.896
1035.246, 1830.096
1036.352, 1718.296
1037.458, 1751.800
1038.564, 1735.318
1039.670, 1593.135
1040.775, 1620.101
1041.880, 1563.213
1042.986, 1572.657
1044.090, 1582.248
1045.195, 1523.401
1046.300, 1413.269
1047.404, 1448.097
1048.509, 1517.104
1049.613, 1501.385
1050.717, 1377.275
1051.821, 1494.022
1052.925, 1334.556
1054.028, 1436.360
1055.132, 1344.162
1056.235, 1450.058
1057.338, 1506.253
1058.441, 1564.457
1059.544, 1570.171
1060.647, 1617.979
1061.749, 1685.658
1062.851, 1795.947
1063.954, 1910.017
1065.056, 2004.971
1066.158, 2125.503
1067.259, 2153.742
1068.361, 2277.896
1069.462, 2449.814
1070.564, 2358.332
1071.665, 2528.573
1072.766, 2754.373
1073.867, 2854.281
1074.967, 2803.020
1076.068, 3249.158
1077.168, 3310.484
1078.268, 3345.941
1079.368, 3656.688
1080.468, 3719.186
1081.568, 3798.225
1082.668, 4044.363
1083.767, 4143.982
1084.866, 4275.365
1085.966, 4538.833
1087.065, 4343.867
1088.163, 4525.959
1089.262, 4723.285
1090.361, 4940.867
1091.459, 5047.988
1092.557, 5137.020
1093.655, 5303.651
1094.753, 5316.301
1095.851, 5519.774
1096.949, 5509.625
1098.046, 5577.318
1099.143, 5816.594
1100.241, 5827.316
1101.338, 5912.062
1102.434, 6041.886
1103.531, 6103.394
1104.628, 6173.382
1105.724, 6274.722
1106.820, 6310.403
1107.916, 6399.771
1109.012, 6357.390
1110.108, 6320.666
1111.204, 6361.582
1112.299, 6422.518
1113.395, 6380.551
1114.490, 6381.724
1115.585, 6535.237
1116.680, 6336.235
1117.775, 6557.246
1118.869, 6521.617
1119.964, 6385.657
1121.058, 6603.712
1122.152, 6486.967
1123.246, 6356.053
1124.340, 6259.154
1125.434, 6174.275
1126.527, 6026.406
1127.620, 5839.556
1128.714, 5817.715
1129.807, 5723.891
1130.900, 5554.081
1131.992, 5518.286
1133.085, 5364.504
1134.178, 5232.736
1135.270, 5084.984
1136.362, 5000.246
1137.454, 4878.534
1138.546, 4840.847
1139.638, 4565.174
1140.729, 4445.519
1141.821, 4419.883
1142.912, 4379.271
1144.003, 4202.680
1145.094, 4048.117
1146.185, 3768.572
1147.276, 3672.795
1148.366, 3524.539
1149.456, 3458.066
1150.547, 3281.621
1151.637, 3255.205
1152.727, 3096.051
1153.816, 3054.467
1154.906, 2847.141
1155.995, 2765.843
1157.085, 2704.592
1158.174, 2560.373
1159.263, 2464.193
1160.352, 2352.630
1161.441, 2229.284
1162.529, 2123.873
1163.618, 2027.854
1164.706, 1927.853
1165.794, 1895.869
1166.882, 1817.905
1167.970, 1862.974
1169.058, 1769.059
1170.145, 1635.166
1171.232, 1439.294
1172.320, 1447.445
1173.407, 1336.620
1174.494, 1156.817
1175.580, 1113.033
1176.667, 1070.286
1177.754, 990.5586
1178.840, 975.6777
1179.926, 888.1729
1181.012, 934.5020
1182.098, 783.8457
1183.184, 770.2051
1184.269, 641.5918
1185.355, 648.9922
1186.440, 478.4238
1187.525, 406.8682
1188.610, 339.3281
1189.695, 346.8018
1190.780, 457.3008
1191.864, 329.8154
1192.949, 186.3467
1194.033, 322.9004
1195.117, 197.4697
1196.201, 196.0752
1197.285, 66.69727
1198.369, 117.3320
1199.452, 100.9824
1200.536, 68.35254
1201.619, 13.30371
1202.702, 39.97363
1203.785, 107.6582
1204.868, 39.64062
1205.950, 0.9208980
1207.033, 4.947266
1208.115, 30.50195
1209.197, 3.775391
1210.279, 0.7636720
1211.361, 13.71973
1212.443, 45.48730
1213.525, 113.2695
1214.606, 159.0771
1215.687, 32.89844
1216.769, 62.26758
1217.850, 21.44629
1218.930, 157.3809
1220.011, 3.219727
1221.092, 89.07129
1222.172, 45.06738
1223.252, 140.7900
1224.333, 110.6582
1225.413, 117.4619
1226.492, 26.62109
1227.572, 8.218750
1228.652, 74.92969
1229.731, 104.9004
1230.810, 82.74219
1231.889, 2.595703
1232.968, 129.5420
1234.047, 45.72656
1235.126, 122.8408
1236.204, 4.842773
1237.283, 105.5127
1238.361, 72.77637
1239.439, 3.454102
1240.517, 69.26855
1241.595, 104.9189
1242.673, 39.06055
1243.750, 1.690430
1244.827, 47.54102
1245.905, 35.21680
1246.982, 152.0225
1248.059, 23.15723
1249.135, 92.65918
1250.212, 155.5527
1251.288, 3.406250
1252.365, 220.2910
1253.441, 107.2148
1254.517, 58.14648
1255.593, 202.0898
1256.669, 81.04492
1257.744, 111.0098
1258.820, 147.9932
1259.895, 203.9873
1260.970, 296.1016
1262.045, 305.1152
1263.120, 386.1367
1264.195, 313.1924
1265.270, 460.2305
1266.344, 357.6592
1267.418, 250.0420
1268.492, 247.1084
1269.566, 318.1826
1270.640, 494.2793
1271.714, 370.3809
1272.788, 424.4883
1273.861, 385.4346
1274.934, 512.5586
1276.007, 542.6895
1277.080, 469.8311
1278.153, 507.9795
1279.226, 451.1357
1280.299, 443.2969
1281.371, 466.4648
1282.443, 331.6367
1283.515, 404.8145
1284.587, 551.9941
1285.659, 386.2979
1286.731, 453.4844
1287.802, 635.1904
1288.874, 522.4756
1289.945, 547.6670
1291.016, 587.9268
1292.087, 701.1641
1293.158, 512.3613
1294.229, 713.5576
1295.299, 696.7549
1296.370, 508.9502
1297.440, 747.2109
1298.510, 705.5195
1299.580, 798.7109
1300.650, 741.4160
1301.720, 782.6016
1302.789, 848.9463
1303.859, 904.1260
1304.928, 1092.303
1305.997, 997.5615
1307.066, 1085.558
1308.135, 897.7188
1309.203, 984.8750
1310.272, 1019.025
1311.340, 986.1719
1312.409, 972.3105
1313.477, 996.4443
1314.545, 1323.582
1315.612, 1180.723
1316.680, 1141.867
1317.748, 973.0137
1318.815, 940.1641
1319.882, 934.7178
1320.949, 1059.473
1322.016, 940.6338
1323.083, 1042.795
1324.150, 969.9600
1325.216, 697.1270
1326.283, 910.2979
1327.349, 789.4697
1328.415, 951.6436
1329.481, 677.1338
1330.547, 689.3135
1331.613, 776.4961
1332.678, 632.6807
1333.744, 536.4404
1334.809, 577.5684
1335.874, 482.6055
1336.939, 385.7129
1338.004, 447.7754
1339.068, 378.9082
1340.133, 507.0869
1341.197, 387.2637
1342.262, 305.4355
1343.326, 495.6104
1344.390, 359.7881
1345.453, 390.2607
1346.517, 379.6104
1347.581, 292.7949
1348.644, 274.9707
1349.707, 246.1582
1350.770, 296.4482
1351.833, 244.9297
1352.896, 322.8311
1353.959, 180.1982
1355.022, 193.1953
1356.084, 161.3584
1357.146, 132.9531
1358.208, 206.1123
1359.270, 223.2715
1360.332, 177.3701
1361.394, 113.0771
1362.455, 169.2637
1363.517, 62.57715
1364.578, 66.89746
1365.639, 121.9912
1366.700, 2.976563
1367.761, 36.86621
1368.822, 8.003906
1369.883, 5.051758
1370.943, 118.5371
1372.003, 255.6719
1373.063, 69.10156
1374.123, 174.9482
1375.183, 140.2168
1376.243, 87.03516
1377.303, 24.28320
1378.362, 39.59180
1379.421, 252.4336
1380.481, 130.5381
1381.540, 201.6191
1382.598, 117.7021
1383.657, 189.8506
1384.716, 117.9941
1385.774, 157.4512
1386.833, 191.0400
1387.891, 44.38184
1388.949, 74.46875
1390.007, 77.55566
1391.065, 68.78125
1392.122, 86.87109
1393.180, 16.57910
1394.237, 0.5000000
1395.294, 128.5742
1396.351, 165.6484
1397.408, 7.227539
1398.465, 145.4307
1399.522, 102.5029
1400.578, 13.57715
