##NAMES=Gmelinite-Na
##RRUFFID=R050371
##IDEAL CHEMISTRY=Na_4_(Si_8_Al_4_)O_24_&#183;11H_2_O
##LOCALITY=Cairns Bay, Flinders Range, Australia
##OWNER=RRUFF
##SOURCE=Eugene Schlepp
##DESCRIPTION=Colorless to pink crystals lining a basalt vug
##STATUS=The identification of this mineral has been confirmed by X-ray diffraction and chemical analysis
##URL=rruff.info/R050371
##MEASURED CHEMISTRY=Na_3.81_(Si_8.13_Al_3.88_)O_24_Â·4.27H_2_O
##PIN_ID=L01149
##ORIENTATION=Laser parallel to a* (1 0 0). Fiducial mark perpendicular to laser is parallel to c [0 0 1]
244.2110, 0.0000000E+00
245.4290, 8.1055000E-02
246.6460, 45.59814
247.8630, 115.1147
249.0810, 35.64990
250.2980, 14.30029
251.5140, 29.22998
252.7310, 36.13818
253.9470, 42.17871
255.1640, 118.8711
256.3800, 171.5215
257.5960, 306.8950
258.8120, 403.9365
260.0270, 598.0029
261.2430, 369.4214
262.4580, 276.6611
263.6730, 188.6895
264.8880, 330.4663
266.1030, 94.95166
267.3170, 117.1021
268.5320, 20.11865
269.7460, 24.25537
270.9600, 102.8013
272.1740, 9.314941
273.3880, 19.69189
274.6010, 35.80225
275.8150, 56.81641
277.0280, 36.63232
278.2410, 29.52637
279.4540, 72.51514
280.6670, 12.58936
281.8790, 129.7207
283.0920, 161.2158
284.3040, 151.0518
285.5160, 379.2056
286.7280, 408.6592
287.9400, 519.3926
289.1510, 685.3877
290.3630, 840.6357
291.5740, 1014.139
292.7850, 1004.897
293.9960, 1259.906
295.2070, 1425.160
296.4170, 1482.653
297.6280, 1706.382
298.8380, 1927.342
300.0480, 2134.528
301.2580, 2420.933
302.4680, 2644.553
303.6770, 3077.382
304.8870, 3425.421
306.0960, 3697.665
307.3050, 4526.112
308.5140, 4763.754
309.7230, 5619.591
310.9310, 6108.614
312.1400, 6646.823
313.3480, 7409.209
314.5560, 8165.771
315.7640, 8760.506
316.9720, 9323.389
318.1790, 9997.349
319.3870, 10350.37
320.5940, 10486.46
321.8010, 10677.60
323.0080, 10559.80
324.2150, 10343.06
325.4210, 10036.37
326.6280, 9566.744
327.8340, 8822.187
329.0400, 8222.681
330.2460, 7477.183
331.4510, 6881.706
332.6570, 6118.274
333.8620, 5484.913
335.0680, 4810.654
336.2730, 4312.536
337.4780, 3825.666
338.6820, 3308.965
339.8870, 2908.425
341.0910, 2577.000
342.2950, 2315.667
343.5000, 2091.463
344.7030, 1707.370
345.9070, 1568.376
347.1110, 1350.478
348.3140, 1102.708
349.5170, 1040.059
350.7200, 948.5010
351.9230, 818.8779
353.1260, 767.2065
354.3290, 667.3896
355.5310, 688.2012
356.7330, 670.0952
357.9350, 626.0698
359.1370, 628.1436
360.3390, 608.2900
361.5400, 642.5166
362.7420, 713.8271
363.9430, 772.2871
365.1440, 856.8721
366.3450, 974.5669
367.5460, 1048.123
368.7460, 1030.180
369.9470, 1199.098
371.1470, 1268.087
372.3470, 1266.148
373.5470, 1518.279
374.7460, 1551.480
375.9460, 1780.751
377.1450, 1932.089
378.3450, 2167.495
379.5440, 2442.966
380.7430, 2505.504
381.9410, 2780.106
383.1400, 2894.772
384.3380, 3206.501
385.5370, 3552.292
386.7350, 3580.144
387.9320, 4036.056
389.1300, 4358.273
390.3280, 4604.040
391.5250, 5059.902
392.7220, 5606.663
393.9190, 6054.321
395.1160, 6775.802
396.3130, 7632.324
397.5100, 8464.812
398.7060, 9294.385
399.9020, 10115.21
401.0980, 11213.99
402.2940, 12220.56
403.4900, 13314.21
404.6860, 14328.83
405.8810, 15508.59
407.0760, 16202.50
408.2710, 16611.56
409.4660, 16914.77
410.6610, 16925.11
411.8550, 16424.57
413.0500, 15837.51
414.2440, 14815.22
415.4380, 13846.04
416.6320, 12726.20
417.8260, 11665.22
419.0190, 10676.68
420.2130, 9702.300
421.4060, 8746.603
422.5990, 7806.978
423.7920, 7173.689
424.9850, 6688.234
426.1770, 6298.571
427.3700, 5779.691
428.5620, 5514.317
429.7540, 5115.467
430.9460, 4843.932
432.1380, 4768.365
433.3290, 4640.228
434.5210, 4654.710
435.7120, 4650.898
436.9030, 4770.291
438.0940, 4694.605
439.2850, 4708.982
440.4750, 4843.269
441.6660, 4761.447
442.8560, 4897.005
444.0460, 5070.883
445.2360, 5151.552
446.4260, 5249.274
447.6160, 5618.051
448.8050, 5684.860
449.9940, 5923.062
451.1830, 6230.222
452.3720, 6502.205
453.5610, 6883.267
454.7500, 7272.055
455.9380, 7761.180
457.1260, 8251.602
458.3150, 8546.568
459.5020, 9288.503
460.6900, 9943.809
461.8780, 10361.25
463.0650, 11303.95
464.2530, 12401.39
465.4400, 13203.95
466.6270, 14350.38
467.8130, 15263.94
469.0000, 16472.68
470.1870, 17573.41
471.3730, 18971.09
472.5590, 20288.81
473.7450, 21915.57
474.9310, 23451.38
476.1160, 25553.22
477.3020, 27609.11
478.4870, 29599.15
479.6720, 31716.12
480.8570, 33995.09
482.0420, 36189.59
483.2270, 38621.30
484.4110, 41023.22
485.5960, 43248.83
486.7800, 45526.00
487.9640, 47653.22
489.1480, 49852.48
490.3310, 51107.85
491.5150, 52490.16
492.6980, 53577.50
493.8810, 53593.86
495.0640, 54066.25
496.2470, 53396.66
497.4300, 52554.12
498.6120, 51356.60
499.7950, 49689.09
500.9770, 47330.63
502.1590, 44606.19
503.3410, 42014.77
504.5220, 39130.37
505.7040, 35859.02
506.8850, 32507.67
508.0660, 29560.35
509.2470, 26571.05
510.4280, 23561.78
511.6090, 21239.52
512.7890, 18485.29
513.9700, 16670.08
515.1500, 14655.89
516.3300, 12975.72
517.5100, 11216.57
518.6900, 10151.44
519.8690, 8817.320
521.0490, 7741.223
522.2280, 7022.145
523.4070, 6211.083
524.5860, 5473.037
525.7640, 4938.008
526.9430, 4324.994
528.1210, 3855.995
529.3000, 3517.013
530.4780, 3086.044
531.6560, 2806.142
532.8330, 2590.564
534.0110, 2229.671
535.1880, 2144.693
536.3650, 1888.189
537.5430, 1587.909
538.7190, 1514.742
539.8960, 1287.943
541.0730, 1246.544
542.2490, 1052.334
543.4250, 1022.966
544.6020, 763.2207
545.7780, 843.4590
546.9530, 749.0513
548.1290, 665.4951
549.3040, 429.6084
550.4800, 471.0166
551.6550, 420.6709
552.8300, 291.9800
554.0040, 270.0991
555.1790, 221.2104
556.3540, 172.3174
557.5280, 245.5156
558.7020, 149.3008
559.8760, 134.3755
561.0500, 185.3257
562.2230, 4.492188
563.3970, 45.67676
564.5700, 16.01904
565.7430, 48.29395
566.9160, 62.81152
568.0890, 78.74121
569.2620, 162.0088
570.4340, 134.2905
571.6070, 26.62451
572.7790, 116.9668
573.9510, 34.19385
575.1230, 93.57275
576.2940, 12.02393
577.4660, 7.373047
578.6370, 33.25391
579.8080, 20.89551
580.9790, 57.45654
582.1500, 52.81348
583.3210, 4.816895
584.4910, 41.54150
585.6620, 99.09766
586.8320, 19.74219
588.0020, 71.39062
589.1720, 31.95654
590.3410, 12.29883
591.5110, 94.63770
592.6800, 31.98682
593.8500, 23.38623
595.0190, 37.23193
596.1880, 10.85303
597.3560, 51.47656
598.5250, 41.10498
599.6930, 41.26172
600.8620, 9.358887
602.0300, 0.6479490
603.1970, 7.384766
604.3650, 30.24756
605.5330, 22.99707
606.7000, 13.21387
607.8680, 42.18750
609.0350, 0.1567380
610.2020, 2.407715
611.3680, 44.14990
612.5350, 22.79541
613.7010, 64.44238
614.8680, 110.1001
616.0340, 76.75732
617.2000, 47.41992
618.3660, 6.073730
619.5310, 51.71875
620.6970, 97.64062
621.8620, 9.958984
623.0270, 36.44971
624.1920, 37.89697
625.3570, 14.37109
626.5220, 52.12549
627.6860, 122.6260
628.8500, 46.11182
630.0140, 28.58984
631.1780, 57.05908
632.3420, 115.5146
633.5060, 166.9546
634.6700, 222.3789
635.8330, 251.7856
636.9960, 303.4106
638.1590, 234.5493
639.3220, 377.9048
640.4850, 433.2417
641.6470, 447.5591
642.8100, 594.8599
643.9720, 590.1401
645.1340, 677.4004
646.2960, 687.6460
647.4570, 782.8701
648.6190, 806.0732
649.7800, 806.2544
650.9420, 782.4131
652.1030, 905.5508
653.2640, 797.6650
654.4240, 855.7544
655.5850, 821.8203
656.7450, 809.8613
657.9060, 786.8770
659.0660, 677.8677
660.2260, 619.8320
661.3850, 583.2378
662.5450, 506.6777
663.7040, 495.5591
664.8640, 457.4116
666.0230, 385.2354
667.1820, 341.0298
668.3410, 316.7952
669.4990, 174.5308
670.6580, 162.2363
671.8160, 93.91064
672.9740, 212.8621
674.1320, 57.51221
675.2900, 104.3655
676.4480, 1.150146
677.6050, 0.7551270
678.7630, 33.52686
679.9200, 24.66797
681.0770, 74.16650
682.2340, 6.660156
683.3900, 39.78540
684.5470, 45.65674
685.7030, 2.285645
686.8590, 62.41943
688.0150, 40.08911
689.1710, 43.69263
690.3270, 46.56567
691.4830, 26.98364
692.6380, 36.02563
693.7930, 34.07080
694.9480, 51.87378
696.1030, 43.78247
697.2580, 78.09692
698.4130, 93.13501
699.5670, 92.92432
700.7210, 129.9075
701.8750, 130.6738
703.0290, 116.8159
704.1830, 118.3667
705.3370, 215.5496
706.4900, 172.4868
707.6430, 303.2410
708.7970, 237.0742
709.9490, 237.6707
711.1020, 241.4236
712.2550, 207.5032
713.4070, 258.3774
714.5600, 364.3965
715.7120, 316.7410
716.8640, 339.3787
718.0160, 292.5098
719.1670, 308.3220
720.3190, 428.3469
721.4700, 352.7754
722.6210, 393.3896
723.7720, 464.9360
724.9230, 375.3047
726.0740, 456.7759
727.2250, 505.2520
728.3750, 493.1421
729.5250, 603.1426
730.6750, 592.1411
731.8250, 542.4307
732.9750, 618.5317
734.1240, 546.7415
735.2740, 530.0361
736.4230, 564.9224
737.5720, 606.0269
738.7210, 598.3906
739.8700, 631.4155
741.0190, 657.1462
742.1670, 675.2832
743.3150, 775.1660
744.4630, 747.1118
745.6110, 894.9988
746.7590, 847.6372
747.9070, 952.9565
749.0540, 1068.081
750.2020, 1172.568
751.3490, 1206.392
752.4960, 1310.435
753.6430, 1436.868
754.7890, 1503.837
755.9360, 1661.548
757.0820, 1798.889
758.2280, 1882.581
759.3740, 1897.757
760.5200, 2019.238
761.6660, 2004.722
762.8120, 2033.854
763.9570, 2007.359
765.1020, 2027.353
766.2470, 2031.225
767.3920, 1877.556
768.5370, 1926.739
769.6810, 1952.744
770.8260, 1753.594
771.9700, 1696.167
773.1140, 1624.809
774.2580, 1673.172
775.4020, 1546.878
776.5460, 1484.188
777.6890, 1486.492
778.8320, 1363.559
779.9750, 1362.224
781.1180, 1303.250
782.2610, 1287.237
783.4040, 1269.394
784.5460, 1219.226
785.6890, 1255.099
786.8310, 1135.790
787.9730, 1109.529
789.1150, 974.5051
790.2560, 994.8906
791.3980, 964.1909
792.5390, 935.5613
793.6810, 918.7920
794.8220, 879.4885
795.9630, 811.1846
797.1030, 809.1113
798.2440, 795.8452
799.3840, 764.5527
800.5240, 638.1973
801.6650, 610.7122
802.8040, 572.1802
803.9440, 556.5813
805.0840, 514.0154
806.2230, 450.3950
807.3630, 364.6257
808.5020, 414.7566
809.6410, 280.5317
810.7790, 344.5896
811.9180, 285.7007
813.0570, 293.3049
814.1950, 317.6541
815.3330, 258.8604
816.4710, 236.6643
817.6090, 285.0366
818.7470, 250.1870
819.8840, 243.4609
821.0220, 202.0796
822.1590, 217.6812
823.2960, 109.8955
824.4330, 173.2219
825.5690, 128.8438
826.7060, 163.1333
827.8420, 78.14111
828.9790, 147.4551
830.1150, 100.9211
831.2510, 40.36670
832.3860, 105.4241
833.5220, 120.0813
834.6570, 122.7654
835.7930, 124.7070
836.9280, 67.56299
838.0630, 84.76025
839.1980, 47.89551
840.3320, 68.86621
841.4670, 38.78174
842.6010, 74.06860
843.7350, 33.12598
844.8690, 59.46143
846.0030, 40.73242
847.1370, 91.98413
848.2700, 4.804932
849.4040, 43.21338
850.5370, 63.33008
851.6700, 61.40771
852.8030, 45.56982
853.9360, 4.639893
855.0680, 34.21802
856.2000, 7.554688
857.3330, 57.75537
858.4650, 1.553467
859.5970, 5.929932
860.7290, 25.62939
861.8600, 18.13184
862.9920, 15.30884
864.1230, 28.03857
865.2540, 4.727783
866.3850, 18.51782
867.5160, 9.726807
868.6460, 28.87695
869.7770, 8.977783
870.9070, 5.020264
872.0370, 5.996582
873.1670, 10.86914
874.2970, 11.22632
875.4270, 12.43237
876.5570, 26.70483
877.6860, 22.04980
878.8150, 30.46313
879.9440, 32.95044
881.0730, 33.51270
882.2020, 15.14990
883.3300, 29.85156
884.4590, 7.376709
885.5870, 1.445557
886.7150, 24.32349
887.8430, 61.26807
888.9710, 21.29858
890.0990, 47.39307
891.2260, 9.435059
892.3530, 10.78491
893.4810, 16.06030
894.6080, 94.39404
895.7340, 17.79858
896.8610, 38.73999
897.9880, 42.75293
899.1140, 44.69800
900.2400, 62.88696
901.3660, 39.44897
902.4920, 24.25757
903.6180, 25.02197
904.7430, 2.842529
905.8690, 1.291504
906.9940, 34.38135
908.1190, 7.430176
909.2440, 53.43677
910.3690, 5.596436
911.4930, 35.32642
912.6180, 21.20947
913.7420, 62.05249
914.8660, 14.14258
915.9900, 40.61768
917.1140, 34.34009
918.2380, 29.97559
919.3610, 39.65845
920.4850, 14.25562
921.6080, 41.81494
922.7310, 14.33862
923.8540, 12.17505
924.9760, 67.27148
926.0990, 71.68433
927.2210, 39.06299
928.3440, 56.40747
929.4660, 38.71851
930.5880, 42.99585
931.7090, 81.24048
932.8310, 111.4534
933.9520, 101.6362
935.0740, 100.7896
936.1950, 123.9136
937.3160, 111.0088
938.4360, 181.0759
939.5570, 87.11499
940.6780, 84.12573
941.7980, 177.1084
942.9180, 153.0642
944.0380, 123.9937
945.1580, 178.5869
946.2780, 164.4236
947.3970, 163.9958
948.5170, 203.5862
949.6360, 196.2832
950.7550, 173.7395
951.8740, 196.0952
952.9930, 196.4229
954.1110, 246.1523
955.2300, 240.6162
956.3480, 289.9001
957.4660, 346.2837
958.5840, 276.0950
959.7020, 316.3525
960.8190, 460.4585
961.9370, 442.7522
963.0540, 471.5396
964.1710, 449.8145
965.2880, 545.8984
966.4050, 639.2065
967.5220, 598.3477
968.6380, 645.5503
969.7550, 630.7561
970.8710, 715.3445
971.9870, 844.7769
973.1030, 910.7458
974.2190, 974.2925
975.3340, 1079.121
976.4500, 1137.506
977.5650, 1211.160
978.6800, 1275.647
979.7950, 1322.380
980.9100, 1380.848
982.0250, 1391.865
983.1390, 1401.620
984.2530, 1395.162
985.3680, 1487.953
986.4820, 1449.745
987.5950, 1564.056
988.7090, 1555.959
989.8230, 1627.413
990.9360, 1588.197
992.0490, 1659.977
993.1620, 1673.195
994.2750, 1858.163
995.3880, 1760.518
996.5010, 1911.728
997.6130, 1917.878
998.7250, 1930.586
999.8370, 2051.794
1000.949, 1968.097
1002.061, 2080.176
1003.173, 2120.701
1004.284, 2093.804
1005.396, 2136.767
1006.507, 2214.083
1007.618, 2128.126
1008.729, 2194.180
1009.839, 2308.193
1010.950, 2263.346
1012.060, 2249.827
1013.171, 2338.817
1014.281, 2340.689
1015.391, 2326.568
1016.500, 2327.639
1017.610, 2325.830
1018.719, 2390.227
1019.829, 2290.288
1020.938, 2217.959
1022.047, 2259.356
1023.156, 2117.309
1024.264, 2135.671
1025.373, 2115.240
1026.481, 2099.002
1027.589, 2082.483
1028.697, 2059.403
1029.805, 2000.577
1030.913, 2013.465
1032.020, 1968.484
1033.128, 1914.418
1034.235, 1841.283
1035.342, 1839.218
1036.449, 1810.621
1037.556, 1732.034
1038.663, 1680.677
1039.769, 1717.428
1040.875, 1663.405
1041.981, 1603.264
1043.087, 1654.349
1044.193, 1609.042
1045.299, 1605.081
1046.404, 1675.075
1047.510, 1588.256
1048.615, 1647.789
1049.720, 1642.911
1050.825, 1642.023
1051.930, 1577.915
1053.034, 1632.715
1054.139, 1668.160
1055.243, 1697.371
1056.347, 1815.484
1057.451, 1820.312
1058.555, 1849.682
1059.658, 1996.090
1060.762, 2037.378
1061.865, 2207.758
1062.968, 2258.083
1064.071, 2374.444
1065.174, 2434.985
1066.277, 2567.672
1067.380, 2752.337
1068.482, 2964.019
1069.584, 3098.784
1070.686, 3209.548
1071.788, 3392.333
1072.890, 3473.038
1073.992, 3615.752
1075.093, 3839.569
1076.194, 3966.398
1077.295, 4054.236
1078.396, 4158.087
1079.497, 4434.951
1080.598, 4527.654
1081.698, 4641.597
1082.799, 4901.498
1083.899, 5060.411
1084.999, 5109.339
1086.099, 5227.528
1087.199, 5385.480
1088.298, 5504.446
1089.398, 5585.429
1090.497, 5727.898
1091.596, 5836.349
1092.695, 5994.359
1093.794, 6086.854
1094.892, 6280.015
1095.991, 6423.084
1097.089, 6429.508
1098.187, 6426.607
1099.285, 6372.006
1100.383, 6443.960
1101.481, 6645.283
1102.579, 6583.481
1103.676, 6581.130
1104.773, 6693.237
1105.870, 6678.663
1106.967, 6638.073
1108.064, 6585.322
1109.161, 6544.792
1110.257, 6516.467
1111.353, 6477.635
1112.449, 6424.846
1113.545, 6465.532
1114.641, 6321.828
1115.737, 6457.381
1116.832, 6248.101
1117.928, 6348.753
1119.023, 6262.200
1120.118, 6179.172
1121.213, 6069.961
1122.308, 6025.358
1123.402, 5911.033
1124.497, 5740.499
1125.591, 5507.085
1126.685, 5420.697
1127.779, 5097.403
1128.873, 5146.189
1129.967, 5042.442
1131.060, 4826.643
1132.153, 4714.716
1133.247, 4587.186
1134.340, 4454.092
1135.433, 4377.866
1136.525, 4313.658
1137.618, 4192.610
1138.710, 4011.450
1139.802, 3933.313
1140.895, 3688.207
1141.987, 3732.126
1143.078, 3498.070
1144.170, 3367.041
1145.261, 3326.038
1146.353, 3125.063
1147.444, 3085.116
1148.535, 2944.192
1149.626, 2808.296
1150.716, 2642.416
1151.807, 2634.555
1152.897, 2422.720
1153.988, 2440.917
1155.078, 2282.139
1156.168, 2298.391
1157.257, 2052.666
1158.347, 1996.966
1159.436, 1852.289
1160.526, 1782.653
1161.615, 1691.038
1162.704, 1664.437
1163.793, 1543.864
1164.881, 1555.304
1165.970, 1347.777
1167.058, 1279.262
1168.147, 1221.769
1169.235, 1123.295
1170.323, 1060.838
1171.410, 994.3953
1172.498, 914.9680
1173.585, 907.5593
1174.673, 856.1665
1175.760, 818.7917
1176.847, 708.4246
1177.934, 730.0730
1179.020, 658.7344
1180.107, 564.4111
1181.193, 584.0994
1182.279, 454.8018
1183.365, 483.5222
1184.451, 383.2563
1185.537, 414.0032
1186.623, 380.7615
1187.708, 274.5315
1188.793, 310.3154
1189.878, 294.1099
1190.963, 218.9153
1192.048, 245.7319
1193.133, 204.5591
1194.217, 189.3975
1195.302, 184.2458
1196.386, 93.84937
1197.470, 166.8516
1198.554, 205.2451
1199.638, 210.8889
1200.721, 85.67798
1201.805, 129.4636
1202.888, 105.5437
1203.971, 78.85449
1205.054, 146.4617
1206.137, 40.33228
1207.219, 106.4666
1208.302, 103.8440
1209.384, 20.13110
1210.466, 51.89551
1211.548, 2.931885
1212.630, 56.03882
1213.712, 20.01660
1214.794, 35.00195
1215.875, 11.00586
1216.956, 22.99097
1218.037, 5.994629
1219.118, 3.004883
1220.199, 6.021484
1221.280, 18.72412
1222.360, 11.93164
1223.441, 37.90503
1224.521, 29.88599
1225.601, 10.12891
1226.681, 10.84839
1227.760, 11.74463
1228.840, 31.79053
1229.919, 23.23633
1230.999, 8.337158
1232.078, 0.3750000
1233.157, 33.58276
1234.236, 21.54883
1235.314, 27.49365
1236.393, 3.108643
1237.471, 42.92334
1238.549, 13.03979
1239.627, 4.095459
1240.705, 102.5522
1241.783, 17.54224
1242.860, 44.55322
1243.938, 70.55347
1245.015, 0.3950200
1246.092, 24.38721
1247.169, 89.41992
1248.246, 36.13379
1249.323, 5.884766
1250.399, 20.86572
1251.475, 47.83179
1252.552, 16.98682
1253.628, 12.14160
1254.703, 11.69556
1255.779, 10.23096
1256.855, 48.56494
1257.930, 5.338623
1259.005, 22.57886
1260.080, 20.76367
1261.155, 1.272705
1262.230, 5.943359
1263.305, 6.902344
1264.379, 15.99390
1265.454, 29.47510
1266.528, 8.846436
1267.602, 52.19043
1268.676, 73.96191
1269.750, 52.79492
1270.823, 26.70532
1271.897, 44.47363
1272.970, 30.35425
1274.043, 37.09131
1275.116, 39.96338
1276.189, 78.85474
1277.261, 95.73950
1278.334, 44.72119
1279.406, 146.5974
1280.478, 81.49121
1281.550, 121.3899
1282.622, 132.2944
1283.694, 82.09766
1284.766, 132.0383
1285.837, 139.6421
1286.908, 63.47876
1287.979, 164.8381
1289.050, 178.5593
1290.121, 133.2964
1291.192, 134.0046
1292.262, 181.1597
1293.333, 190.9932
1294.403, 151.6838
1295.473, 207.3726
1296.543, 186.0520
1297.613, 258.7244
1298.682, 282.6172
1299.752, 254.3853
1300.821, 248.5403
1301.890, 212.4536
1302.959, 217.4785
1304.028, 259.7031
1305.096, 227.5151
1306.165, 256.1580
1307.233, 278.0593
1308.301, 248.6790
1309.370, 317.2610
1310.437, 311.2495
1311.505, 265.8757
1312.573, 315.9834
1313.640, 359.6248
1314.708, 232.2563
1315.775, 314.9028
1316.842, 331.4678
1317.908, 374.0618
1318.975, 312.7700
1320.042, 334.3660
1321.108, 346.9761
1322.174, 274.5754
1323.240, 253.0789
1324.306, 258.6890
1325.372, 285.1809
1326.438, 243.7017
1327.503, 316.2903
1328.568, 304.2302
1329.634, 293.2617
1330.699, 272.1487
1331.763, 272.6616
1332.828, 268.1875
1333.893, 268.6277
1334.957, 228.0957
1336.021, 220.6062
1337.085, 215.0249
1338.149, 241.4363
1339.213, 240.9983
1340.277, 201.4780
1341.340, 215.8569
1342.404, 166.3320
1343.467, 185.6943
1344.530, 185.9167
1345.593, 118.2932
1346.655, 220.7334
1347.718, 143.0439
1348.780, 184.3770
1349.843, 134.2078
1350.905, 124.3337
1351.967, 189.2544
1353.028, 157.6147
1354.090, 185.2725
1355.152, 112.4187
1356.213, 153.1897
1357.274, 105.3677
1358.335, 65.82178
1359.396, 94.99121
1360.457, 134.2607
1361.517, 127.1240
1362.578, 76.37622
1363.638, 4.001709
1364.698, 92.13110
1365.758, 127.4331
1366.818, 61.52905
1367.878, 44.69434
1368.937, 77.20142
1369.997, 120.3428
1371.056, 72.00488
1372.115, 39.17261
1373.174, 60.22559
1374.232, 67.00146
1375.291, 26.71558
1376.350, 14.08301
1377.408, 10.61890
1378.466, 35.14062
1379.524, 80.20020
1380.582, 92.09082
1381.640, 110.4592
1382.697, 56.24438
1383.754, 109.0859
1384.812, 46.96753
1385.869, 26.84155
1386.926, 64.16797
1387.983, 25.50708
1389.039, 67.08618
1390.096, 50.12451
1391.152, 2.281738
1392.208, 61.59937
1393.264, 24.31763
1394.320, 6.116943
1395.376, 76.56738
1396.431, 13.76343
1397.487, 35.96362
1398.542, 80.58130
1399.597, 58.18384
1400.652, 62.76978
1401.707, 45.31836
1402.762, 40.53076
