##NAMES=Goethite
##RRUFFID=R050142
##IDEAL CHEMISTRY=Fe^3+^O(OH)
##LOCALITY=Park County, Colorado, USA
##OWNER=RRUFF
##SOURCE=Dave Bunk Minerals
##DESCRIPTION=Radiating spray of black to brown platy crystals
##STATUS=The identification of this mineral has been confirmed by X-ray diffraction and chemical analysis
##URL=rruff.info/R050142
##MEASURED CHEMISTRY=FeO(OH)
##PIN_ID=M00090
##ORIENTATION=Laser parallel to b* (0 1 0). Fiducial mark perpendicular to laser is parallel to -c [0 0 -1]
164.853, 0.000
166.235, 231.309
167.617, 17.004
168.998, 291.885
170.380, 270.760
171.761, 262.914
173.142, 40.295
174.523, 80.959
175.904, 73.051
177.284, 35.725
178.664, 316.371
180.044, 74.660
181.424, 328.635
182.803, 260.029
184.183, 317.037
185.562, 451.916
186.940, 117.445
188.319, 285.607
189.698, 482.742
191.076, 897.484
192.454, 482.320
193.831, 775.648
195.209, 678.871
196.586, 577.111
197.963, 628.811
199.340, 613.277
200.717, 904.938
202.093, 729.145
203.470, 770.246
204.846, 916.648
206.221, 811.846
207.597, 712.230
208.972, 624.430
210.347, 795.514
211.722, 824.721
213.097, 884.756
214.472, 820.207
215.846, 716.537
217.220, 731.084
218.594, 627.832
219.967, 801.863
221.341, 710.666
222.714, 778.213
224.087, 717.650
225.460, 785.201
226.832, 846.750
228.204, 788.830
229.577, 659.953
230.948, 505.586
232.320, 396.295
233.692, 575.854
235.063, 584.309
236.434, 522.113
237.805, 583.924
239.175, 426.163
240.545, 632.532
241.916, 411.605
243.286, 442.938
244.655, 409.733
246.025, 518.303
247.394, 629.606
248.763, 662.590
250.132, 851.223
251.501, 636.060
252.869, 829.543
254.237, 745.497
255.605, 636.049
256.973, 635.203
258.340, 666.278
259.708, 584.769
261.075, 528.213
262.442, 558.368
263.808, 533.178
265.175, 491.558
266.541, 393.062
267.907, 393.850
269.273, 382.438
270.639, 459.741
272.004, 385.421
273.369, 308.891
274.734, 218.603
276.099, 243.613
277.463, 267.296
278.828, 240.679
280.192, 183.733
281.556, 226.436
282.919, 88.797
284.283, 90.809
285.646, 152.462
287.009, 213.728
288.372, 214.587
289.734, 385.034
291.097, 525.054
292.459, 724.643
293.821, 1343.781
295.183, 1502.461
296.544, 2251.698
297.905, 3223.104
299.266, 3875.130
300.627, 4177.762
301.988, 3959.418
303.348, 3511.153
304.709, 2962.621
306.069, 2433.620
307.428, 1774.329
308.788, 1194.224
310.147, 774.382
311.507, 533.629
312.865, 442.823
314.224, 280.989
315.583, 68.128
316.941, 64.845
318.299, 111.069
319.657, 3.543
321.015, 8.500
322.372, 33.391
323.729, 129.571
325.086, 276.082
326.443, 253.251
327.800, 221.008
329.156, 130.934
330.512, 111.986
331.868, 194.383
333.224, 178.105
334.579, 113.495
335.935, 130.111
337.290, 20.937
338.645, 48.588
339.999, 20.878
341.354, 156.504
342.708, 65.308
344.062, 7.773
345.416, 149.375
346.769, 204.958
348.123, 190.540
349.476, 85.083
350.829, 217.537
352.182, 89.807
353.534, 292.369
354.887, 224.044
356.239, 354.602
357.591, 444.683
358.942, 294.116
360.294, 402.310
361.645, 770.141
362.996, 957.034
364.347, 903.055
365.698, 647.947
367.048, 692.443
368.398, 626.214
369.748, 749.066
371.098, 830.862
372.448, 801.312
373.797, 821.689
375.146, 931.411
376.495, 940.599
377.844, 988.757
379.192, 1045.713
380.540, 1153.357
381.889, 1281.239
383.236, 1442.150
384.584, 1626.102
385.932, 1829.604
387.279, 2062.099
388.626, 2294.125
389.973, 2815.772
391.319, 3316.670
392.666, 3986.638
394.012, 4815.635
395.358, 5943.570
396.704, 7262.265
398.049, 8490.707
399.394, 9588.601
400.740, 10076.412
402.084, 10112.936
403.429, 9500.052
404.774, 8435.364
406.118, 7430.226
407.462, 6523.895
408.806, 5377.057
410.150, 4320.045
411.493, 3752.295
412.836, 3164.795
414.179, 2905.164
415.522, 2686.459
416.865, 2516.807
418.207, 2395.810
419.549, 2594.491
420.891, 2183.097
422.233, 2040.703
423.575, 2387.561
424.916, 1873.436
426.257, 1460.853
427.598, 1406.846
428.939, 1171.440
430.279, 1186.296
431.619, 1130.932
432.959, 1036.401
434.299, 1020.699
435.639, 1003.739
436.978, 1095.363
438.318, 957.322
439.657, 969.729
440.996, 1011.136
442.334, 811.835
443.673, 833.261
445.011, 920.975
446.349, 838.769
447.687, 798.268
449.024, 768.816
450.361, 879.086
451.699, 719.850
453.036, 729.690
454.372, 801.001
455.709, 720.209
457.045, 729.773
458.381, 695.714
459.717, 773.520
461.053, 773.924
462.388, 824.091
463.724, 849.266
465.059, 876.720
466.394, 791.604
467.728, 796.393
469.063, 884.368
470.397, 840.831
471.731, 922.500
473.065, 900.631
474.398, 821.782
475.732, 798.008
477.065, 769.441
478.398, 856.629
479.731, 849.771
481.063, 789.800
482.396, 819.665
483.728, 791.867
485.060, 769.970
486.391, 738.223
487.723, 676.447
489.054, 760.284
490.385, 666.504
491.716, 612.165
493.047, 619.052
494.377, 697.143
495.708, 661.833
497.038, 726.022
498.368, 716.280
499.697, 701.121
501.027, 701.868
502.356, 684.353
503.685, 665.144
505.014, 663.497
506.342, 759.156
507.671, 611.544
508.999, 784.336
510.327, 729.237
511.655, 741.961
512.982, 657.580
514.310, 718.801
515.637, 704.020
516.964, 722.361
518.291, 691.259
519.617, 723.710
520.944, 649.880
522.270, 652.174
523.596, 791.068
524.921, 866.567
526.247, 815.825
527.572, 833.104
528.897, 857.936
530.222, 819.122
531.547, 918.497
532.871, 913.602
534.196, 1088.654
535.520, 1073.019
536.844, 1127.277
538.167, 1271.601
539.491, 1326.044
540.814, 1530.834
542.137, 1616.033
543.460, 1831.792
544.783, 2088.199
546.105, 2165.193
547.427, 2312.060
548.749, 2398.806
550.071, 2405.533
551.393, 2412.048
552.714, 2268.771
554.035, 2175.467
555.356, 2052.087
556.677, 1958.438
557.998, 1814.959
559.318, 1701.010
560.638, 1587.318
561.958, 1403.785
563.278, 1379.746
564.597, 1185.955
565.917, 1109.988
567.236, 1106.005
568.555, 1011.592
569.874, 996.387
571.192, 850.996
572.511, 776.613
573.829, 809.949
575.147, 842.211
576.464, 776.532
577.782, 756.891
579.099, 709.132
580.416, 634.241
581.733, 656.259
583.050, 602.001
584.366, 611.324
585.683, 566.129
586.999, 619.325
588.315, 476.137
589.630, 444.034
590.946, 406.734
592.261, 434.025
593.576, 458.212
594.891, 411.186
596.206, 395.748
597.520, 348.457
598.834, 448.633
600.148, 337.191
601.462, 319.519
602.776, 406.033
604.089, 377.775
605.402, 342.973
606.715, 344.854
608.028, 381.841
609.341, 309.879
610.653, 303.770
611.965, 299.493
613.277, 188.958
614.589, 222.639
615.901, 197.383
617.212, 187.912
618.523, 237.981
619.834, 248.751
621.145, 201.754
622.456, 328.762
623.766, 180.812
625.076, 159.445
626.386, 265.087
627.696, 245.977
629.006, 215.833
630.315, 182.532
631.624, 201.152
632.933, 250.766
634.242, 242.518
635.551, 260.651
636.859, 286.123
638.167, 254.798
639.475, 207.406
640.783, 219.986
642.090, 224.682
643.398, 132.248
644.705, 235.582
646.012, 329.916
647.318, 84.502
648.625, 192.804
649.931, 268.984
651.237, 159.344
652.543, 205.172
653.849, 254.961
655.155, 256.142
656.460, 253.842
657.765, 265.548
659.070, 312.632
660.375, 250.307
661.679, 349.408
662.984, 415.524
664.288, 262.313
665.592, 329.050
666.895, 446.171
668.199, 442.189
669.502, 444.368
670.805, 433.101
672.108, 489.348
673.411, 428.103
674.713, 536.077
676.016, 572.542
677.318, 548.718
678.620, 617.587
679.921, 587.460
681.223, 692.532
682.524, 705.341
683.825, 619.175
685.126, 634.603
686.427, 655.537
687.727, 709.196
689.028, 695.854
690.328, 668.004
691.628, 650.860
692.927, 597.735
694.227, 574.017
695.526, 468.638
696.825, 461.513
698.124, 416.314
699.423, 351.860
700.721, 430.371
702.020, 253.944
703.318, 332.627
704.616, 275.080
705.913, 225.248
707.211, 262.410
708.508, 168.618
709.805, 149.514
711.102, 142.994
712.399, 179.170
713.695, 110.545
714.992, 195.650
716.288, 108.408
717.584, 44.346
718.879, 138.303
720.175, 54.280
721.470, 72.681
722.765, 53.623
724.060, 133.744
725.355, 61.570
726.649, 84.514
727.944, 60.146
729.238, 107.958
730.532, 104.638
731.825, 70.298
733.119, 42.989
734.412, 52.639
735.705, 66.529
736.998, 72.545
738.291, 126.710
739.584, 8.307
740.876, 66.043
742.168, 35.447
743.460, 62.755
744.752, 39.364
746.043, 34.336
747.334, 29.598
748.626, 34.427
749.916, 63.324
751.207, 16.315
752.498, 78.851
753.788, 46.802
755.078, 19.042
756.368, 16.252
757.658, 2.516
758.947, 27.086
760.237, 78.576
761.526, 113.933
762.815, 57.311
764.104, 19.146
765.392, 24.098
766.680, 66.328
767.969, 45.447
769.257, 44.307
770.544, 25.212
771.832, 60.977
773.119, 9.218
774.406, 19.757
775.693, 1.787
776.980, 10.629
778.267, 14.978
779.553, 15.955
780.839, 5.474
782.125, 21.618
783.411, 5.310
784.697, 24.355
785.982, 4.542
787.267, 22.645
788.552, 11.537
789.837, 35.460
791.122, 13.311
792.406, 21.081
793.690, 1.784
794.974, 36.160
796.258, 0.166
797.542, 30.197
798.825, 19.149
800.108, 21.067
801.391, 767.406
802.674, 360.861
803.957, 664.778
805.239, 558.023
806.522, 423.816
807.804, 356.808
809.085, 284.012
810.367, 8.224
811.649, 10.424
812.930, 30.328
814.211, 17.096
815.492, 31.742
816.772, 30.330
818.053, 94.053
819.333, 24.779
820.613, 57.441
821.893, 28.853
823.173, 39.873
824.452, 56.636
825.732, 2.557
827.011, 10.271
828.290, 60.875
829.568, 24.997
830.847, 22.099
832.125, 25.174
833.403, 13.769
834.681, 45.738
835.959, 19.247
837.236, 17.790
838.514, 80.140
839.791, 14.950
841.068, 12.073
842.345, 8.228
843.621, 56.413
844.898, 40.350
846.174, 5.089
847.450, 0.195
848.726, 64.508
850.001, 105.877
851.277, 11.678
852.552, 25.791
853.827, 41.700
855.102, 6.829
856.376, 13.602
857.651, 32.026
858.925, 0.432
860.199, 85.722
861.473, 0.894
862.746, 14.857
864.020, 6.930
865.293, 49.946
866.566, 18.963
867.839, 50.690
869.112, 6.766
870.384, 75.466
871.656, 61.899
872.928, 49.716
874.200, 14.172
875.472, 41.696
876.744, 22.135
878.015, 53.895
879.286, 28.344
880.557, 99.880
881.828, 34.306
883.098, 58.928
884.369, 56.693
885.639, 41.612
886.909, 44.301
888.178, 24.658
889.448, 20.061
890.717, 24.527
891.987, 3.376
893.256, 10.001
894.524, 5.281
895.793, 97.414
897.061, 66.653
898.330, 75.829
899.598, 17.936
900.865, 7.010
902.133, 45.084
903.401, 15.729
904.668, 136.227
905.935, 184.438
907.202, 79.213
908.468, 77.760
909.735, 75.693
911.001, 149.513
912.267, 81.481
913.533, 80.660
914.799, 110.980
916.064, 101.060
917.330, 72.536
918.595, 79.465
919.860, 73.564
921.124, 67.793
922.389, 89.496
923.653, 71.092
924.918, 135.014
926.182, 144.657
927.445, 177.540
928.709, 185.337
929.972, 162.172
931.236, 108.020
932.499, 145.867
933.761, 164.668
935.024, 87.531
936.286, 150.197
937.549, 139.324
938.811, 76.992
940.073, 159.146
941.334, 224.632
942.596, 170.264
943.857, 40.671
945.118, 179.487
946.379, 75.161
947.640, 146.030
948.900, 85.723
950.161, 94.558
951.421, 178.667
952.681, 132.685
953.940, 145.771
955.200, 140.807
956.459, 115.466
957.719, 127.708
958.978, 130.940
960.236, 192.163
961.495, 180.375
962.753, 181.062
964.012, 164.750
965.270, 142.104
966.527, 146.806
967.785, 267.030
969.043, 217.288
970.300, 181.291
971.557, 237.744
972.814, 109.551
974.071, 125.262
975.327, 149.881
976.583, 192.624
977.840, 139.121
979.095, 217.067
980.351, 202.881
981.607, 271.078
982.862, 202.719
984.117, 290.366
985.372, 333.017
986.627, 248.047
987.882, 283.653
989.136, 443.025
990.390, 351.878
991.644, 408.333
992.898, 448.903
994.152, 484.639
995.405, 437.858
996.659, 535.523
997.912, 475.965
999.165, 494.980
1000.417, 496.632
1001.670, 566.003
1002.922, 571.423
1004.174, 579.071
1005.426, 461.723
1006.678, 534.279
1007.930, 466.642
1009.181, 478.741
1010.432, 467.476
1011.683, 346.397
1012.934, 344.146
1014.185, 391.430
1015.435, 368.836
1016.685, 401.646
1017.935, 305.561
1019.185, 301.245
1020.435, 343.383
1021.684, 418.181
1022.934, 415.910
1024.183, 319.591
1025.432, 313.498
1026.680, 283.578
1027.929, 271.018
1029.177, 299.720
1030.425, 250.650
1031.673, 217.487
1032.921, 342.626
1034.169, 193.355
1035.416, 235.077
1036.663, 258.321
1037.911, 216.994
1039.157, 265.397
1040.404, 210.649
1041.650, 313.721
1042.897, 299.926
1044.143, 146.758
1045.389, 192.391
1046.634, 223.217
1047.880, 265.004
1049.125, 240.837
1050.371, 167.958
1051.615, 207.635
1052.860, 215.354
1054.105, 205.791
1055.349, 276.627
1056.593, 243.464
1057.837, 249.307
1059.081, 164.154
1060.325, 173.002
1061.568, 345.854
1062.812, 202.706
1064.055, 187.560
1065.298, 302.412
1066.540, 201.268
1067.783, 264.126
1069.025, 222.986
1070.267, 155.848
1071.509, 184.716
1072.751, 202.587
1073.993, 305.459
1075.234, 261.343
1076.475, 208.229
1077.716, 337.117
1078.957, 261.009
1080.198, 211.902
1081.438, 216.797
1082.679, 208.694
1083.919, 255.594
1085.159, 253.787
1086.398, 250.046
1087.638, 291.312
1088.877, 236.227
1090.116, 265.147
1091.355, 274.071
1092.594, 229.003
1093.833, 256.808
1095.071, 253.746
1096.309, 308.689
1097.547, 340.635
1098.785, 301.584
1100.023, 299.534
1101.260, 308.492
1102.498, 226.456
1103.735, 278.423
1104.972, 267.390
1106.208, 275.359
1107.445, 323.329
1108.681, 406.311
1109.918, 323.293
1111.154, 373.276
1112.389, 238.264
1113.625, 286.256
1114.860, 335.270
1116.096, 242.288
1117.331, 286.316
1118.566, 244.354
1119.800, 264.396
1121.035, 213.446
1122.269, 230.522
1123.503, 304.604
1124.737, 209.704
1125.971, 289.822
1127.205, 231.947
1128.438, 213.081
1129.671, 161.218
1130.904, 216.371
1132.137, 187.532
1133.370, 205.706
1134.602, 218.888
1135.834, 150.086
1137.066, 188.287
1138.298, 183.501
1139.530, 169.719
1140.762, 87.945
1141.993, 81.191
1143.224, 55.444
1144.455, 84.718
1145.686, 6.996
1146.917, 86.278
1148.147, 78.567
1149.377, 47.879
1150.607, 84.222
1151.837, 56.572
1153.067, 71.937
1154.296, 112.306
1155.526, 30.316
1156.755, 2.950
1157.984, 46.583
1159.213, 50.233
1160.441, 22.092
1161.670, 2.427
1162.898, 43.771
1164.126, 9.124
1165.354, 39.520
1166.581, 21.821
1167.809, 33.835
1169.036, 31.503
1170.263, 52.816
1171.490, 32.140
1172.717, 25.532
1173.943, 2.213
1175.170, 33.105
1176.396, 90.430
1177.622, 1.242
1178.848, 33.087
1180.073, 22.581
1181.299, 36.743
1182.524, 36.069
1183.749, 5.600
1184.974, 114.728
1186.199, 214.060
1187.423, 104.396
1188.648, 140.738
1189.872, 111.097
1191.096, 127.466
1192.320, 89.846
1193.543, 118.234
1194.767, 123.623
1195.990, 60.029
1197.213, 40.438
1198.436, 108.852
1199.659, 43.273
1200.881, 187.699
1202.104, 177.137
1203.326, 104.578
1204.548, 114.023
1205.770, 156.472
1206.991, 222.922
1208.213, 298.375
1209.434, 242.831
1210.655, 180.288
1211.876, 215.748
1213.096, 184.211
1214.317, 132.675
1215.537, 223.142
1216.757, 192.609
1217.977, 276.080
1219.197, 185.553
1220.417, 191.024
1221.636, 236.500
1222.855, 209.923
1224.074, 239.271
1225.293, 224.933
1226.512, 277.414
1227.731, 250.895
1228.949, 288.376
1230.167, 225.859
1231.385, 271.344
1232.603, 279.829
1233.820, 264.315
1235.038, 332.807
1236.255, 246.301
1237.472, 367.799
1238.689, 294.302
1239.906, 190.807
1241.122, 389.316
1242.338, 253.832
1243.555, 375.350
1244.771, 416.872
1245.986, 352.397
1247.202, 257.021
1248.417, 410.555
1249.633, 277.503
1250.848, 367.043
1252.063, 316.586
1253.277, 291.198
1254.492, 341.163
1255.706, 385.717
1256.920, 370.296
1258.134, 451.855
1259.348, 426.584
1260.562, 514.016
1261.775, 558.845
1262.988, 434.416
1264.201, 416.016
1265.414, 498.772
1266.627, 415.355
1267.839, 488.044
1269.052, 497.258
1270.264, 503.667
1271.476, 507.999
1272.688, 491.632
1273.899, 511.555
1275.111, 518.957
1276.322, 533.032
1277.533, 565.895
1278.744, 566.287
1279.955, 609.997
1281.165, 625.611
1282.376, 476.227
1283.586, 565.331
1284.796, 548.952
1286.006, 589.867
1287.215, 651.634
1288.425, 573.266
1289.634, 622.958
1290.843, 676.646
1292.052, 611.114
1293.261, 574.829
1294.469, 666.475
1295.678, 580.164
1296.886, 722.465
1298.094, 618.277
1299.302, 744.935
1300.509, 736.594
1301.717, 576.305
1302.924, 587.574
1304.131, 578.363
1305.338, 575.941
1306.545, 596.615
1307.752, 629.037
1308.958, 632.719
1310.164, 574.271
1311.370, 580.073
1312.576, 533.181
1313.782, 548.736
1314.987, 537.663
1316.193, 484.116
1317.398, 531.794
1318.603, 536.792
1319.807, 516.014
1321.012, 418.666
1322.216, 542.318
1323.421, 516.577
1324.625, 453.192
1325.829, 520.288
1327.032, 483.890
1328.236, 513.464
1329.439, 488.432
1330.642, 394.982
1331.845, 378.525
1333.048, 457.037
1334.251, 383.544
1335.453, 400.050
1336.656, 521.550
1337.858, 463.037
1339.060, 367.518
1340.261, 348.687
1341.463, 403.157
1342.664, 419.657
1343.866, 275.115
1345.067, 354.566
1346.267, 357.009
1347.468, 342.444
1348.669, 384.870
1349.869, 305.771
1351.069, 262.179
1352.269, 258.582
1353.469, 245.976
1354.668, 220.364
1355.868, 221.543
1357.067, 205.016
1358.266, 208.499
1359.465, 201.781
1360.664, 188.051
1361.862, 221.311
1363.061, 208.559
1364.259, 215.772
1365.457, 164.971
1366.655, 137.154
1367.852, 132.376
1369.050, 212.465
1370.247, 139.600
1371.444, 154.723
1372.641, 217.837
1373.838, 80.949
1375.035, 63.065
1376.231, 152.199
1377.427, 73.381
1378.623, 61.171
1379.819, 49.965
1381.015, 133.763
1382.211, 137.563
1383.406, 78.367
1384.601, 78.174
1385.796, 64.981
1386.991, 126.791
1388.185, 63.591
1389.380, 33.382
1390.574, 18.175
1391.768, 103.941
1392.962, 1.707
1394.156, 109.473
1395.350, 127.217
1396.543, 21.945
1397.736, 30.333
1398.929, 48.381
1400.122, 29.067
1401.315, 39.743
1402.507, 15.416
1403.700, 36.917
1404.892, 10.725
1406.084, 90.363
1407.276, 31.002
1408.467, 15.637
1409.659, 37.262
1410.850, 24.119
1412.041, 0.477
1413.232, 3.376
1414.423, 1.965
1415.614, 31.641
1416.804, 1.381
1417.994, 55.159
1419.184, 6.049
1420.374, 9.234
1421.564, 17.415
1422.753, 26.413
1423.943, 92.265
1425.132, 104.123
1426.321, 6.992
1427.510, 79.868
1428.698, 16.750
1429.887, 21.360
1431.075, 102.500
1432.263, 37.369
1433.451, 39.246
1434.639, 82.135
1435.827, 36.024
1437.014, 98.927
1438.201, 44.840
1439.388, 5.765
1440.575, 30.707
1441.762, 79.665
1442.949, 155.646
1444.135, 118.646
1445.321, 38.671
1446.507, 132.723
1447.693, 155.800
1448.879, 100.904
1450.064, 193.021
1451.250, 147.110
1452.435, 237.275
1453.620, 138.413
1454.805, 74.560
1455.989, 117.504
1457.174, 101.728
1458.358, 73.729
1459.542, 78.709
1460.726, 89.192
1461.910, 62.795
1463.093, 123.070
1464.277, 150.464
1465.460, 127.839
1466.643, 112.744
1467.826, 218.306
1469.009, 89.379
1470.191, 180.350
1471.373, 141.210
1472.556, 142.462
1473.738, 49.172
1474.919, 107.564
1476.101, 166.246
1477.283, 112.868
1478.464, 103.340
1479.645, 153.501
1480.826, 68.386
1482.007, 35.271
1483.187, 130.578
1484.368, 26.655
1485.548, 60.575
1486.728, 155.324
1487.908, 91.884
1489.088, 138.275
1490.268, 58.676
1491.447, 1.820
1492.626, 82.623
1493.805, 40.217
1494.984, 131.909
1496.163, 49.884
1497.341, 145.012
1498.520, 104.281
1499.698, 120.581
1500.876, 9.209
1502.054, 63.896
1503.232, 52.715
1504.409, 69.403
1505.586, 51.948
1506.763, 45.821
1507.940, 90.279
1509.117, 36.077
1510.294, 89.299
1511.470, 30.501
1512.647, 40.951
1513.823, 29.141
1514.999, 19.401
1516.174, 35.247
1517.350, 49.809
1518.526, 0.000
##END=



