##NAMES=Goethite
##RRUFFID=R050142
##IDEAL CHEMISTRY=Fe^3+^O(OH)
##LOCALITY=Park County, Colorado, USA
##OWNER=RRUFF
##SOURCE=Dave Bunk Minerals
##DESCRIPTION=Radiating spray of black to brown platy crystals
##STATUS=The identification of this mineral has been confirmed by X-ray diffraction and chemical analysis
##URL=rruff.info/R050142
##MEASURED CHEMISTRY=FeO(OH)
##PIN_ID=M00090
##ORIENTATION=Laser parallel to b* (0 1 0). Fiducial mark perpendicular to laser is parallel to -c [0 0 -1]
164.853, 0.000
166.235, 0.934
167.617, 38.994
168.998, 149.969
170.380, 279.291
171.761, 291.197
173.142, 276.123
174.523, 345.154
175.904, 390.105
177.284, 257.662
178.664, 313.186
180.044, 190.748
181.424, 145.926
182.803, 123.067
184.183, 23.938
185.562, 9.550
186.940, 298.301
188.319, 482.301
189.698, 260.879
191.076, 126.005
192.454, 129.265
193.831, 184.946
195.209, 625.048
196.586, 854.160
197.963, 609.544
199.340, 395.471
200.717, 596.207
202.093, 370.447
203.470, 308.170
204.846, 271.409
206.221, 294.938
207.597, 259.451
208.972, 373.154
210.347, 360.577
211.722, 382.120
213.097, 242.814
214.472, 304.628
215.846, 206.388
217.220, 447.836
218.594, 307.424
219.967, 354.480
221.341, 98.948
222.714, 195.428
224.087, 380.532
225.460, 274.859
226.832, 339.683
228.204, 314.986
229.577, 174.219
230.948, 243.996
232.320, 248.090
233.692, 428.233
235.063, 405.460
236.434, 393.969
237.805, 505.803
239.175, 584.847
240.545, 679.602
241.916, 843.317
243.286, 950.548
244.655, 1095.436
246.025, 1435.165
247.394, 1575.358
248.763, 1595.337
250.132, 1449.721
251.501, 1285.431
252.869, 1244.141
254.237, 1115.557
255.605, 957.739
256.973, 870.575
258.340, 885.649
259.708, 920.307
261.075, 785.397
262.442, 838.454
263.808, 649.933
265.175, 642.871
266.541, 703.092
267.907, 629.583
269.273, 564.592
270.639, 639.740
272.004, 511.332
273.369, 581.467
274.734, 570.523
276.099, 657.883
277.463, 503.061
278.828, 476.282
280.192, 398.574
281.556, 407.188
282.919, 405.518
284.283, 393.650
285.646, 331.593
287.009, 304.392
288.372, 277.141
289.734, 236.081
291.097, 224.925
292.459, 263.237
293.821, 341.284
295.183, 260.214
296.544, 220.075
297.905, 320.799
299.266, 322.093
300.627, 402.913
301.988, 344.002
303.348, 383.804
304.709, 424.060
306.069, 402.986
307.428, 252.029
308.788, 290.561
310.147, 138.005
311.507, 68.662
312.865, 63.338
314.224, 80.343
315.583, 25.959
316.941, 12.226
318.299, 58.677
319.657, 78.218
321.015, 43.688
322.372, 46.462
323.729, 4.588
325.086, 57.095
326.443, 54.945
327.800, 129.139
329.156, 88.498
330.512, 182.024
331.868, 131.688
333.224, 4.401
334.579, 40.199
335.935, 15.467
337.290, 107.562
338.645, 63.229
339.999, 28.679
341.354, 14.292
342.708, 81.700
344.062, 58.827
345.416, 2.909
346.769, 138.011
348.123, 30.649
349.476, 13.428
350.829, 24.420
352.182, 9.885
353.534, 52.379
354.887, 63.184
356.239, 86.476
357.591, 114.398
358.942, 88.877
360.294, 127.904
361.645, 121.454
362.996, 140.199
364.347, 30.895
365.698, 156.619
367.048, 92.665
368.398, 194.149
369.748, 248.322
371.098, 227.927
372.448, 287.589
373.797, 191.767
375.146, 273.585
376.495, 323.377
377.844, 387.985
379.192, 447.661
380.540, 377.997
381.889, 511.323
383.236, 421.438
384.584, 521.381
385.932, 615.783
387.279, 704.811
388.626, 728.001
389.973, 831.064
391.319, 869.621
392.666, 827.804
394.012, 972.186
395.358, 1180.255
396.704, 1209.903
398.049, 1541.164
399.394, 1781.077
400.740, 1779.132
402.084, 1947.137
403.429, 1936.105
404.774, 1824.250
406.118, 1710.303
407.462, 1562.083
408.806, 1373.505
410.150, 1133.525
411.493, 1059.103
412.836, 990.385
414.179, 910.406
415.522, 1100.109
416.865, 1025.873
418.207, 1022.459
419.549, 1027.965
420.891, 1005.221
422.233, 914.389
423.575, 882.758
424.916, 880.125
426.257, 662.490
427.598, 683.593
428.939, 608.735
430.279, 586.381
431.619, 505.572
432.959, 529.894
434.299, 563.514
435.639, 413.272
436.978, 533.829
438.318, 601.606
439.657, 512.601
440.996, 482.312
442.334, 445.289
443.673, 552.222
445.011, 552.125
446.349, 507.858
447.687, 477.158
449.024, 471.859
450.361, 521.336
451.699, 541.464
453.036, 581.292
454.372, 570.580
455.709, 625.562
457.045, 638.515
458.381, 677.372
459.717, 674.785
461.053, 699.109
462.388, 698.854
463.724, 717.707
465.059, 730.352
466.394, 760.123
467.728, 819.907
469.063, 858.220
470.397, 910.026
471.731, 933.833
473.065, 986.179
474.398, 1031.428
475.732, 1052.981
477.065, 1099.247
478.398, 1170.231
479.731, 1206.536
481.063, 1235.425
482.396, 1235.492
483.728, 1253.473
485.060, 1314.796
486.391, 1269.999
487.723, 1247.575
489.054, 1080.403
490.385, 1137.633
491.716, 949.276
493.047, 906.203
494.377, 1044.352
495.708, 914.432
497.038, 909.920
498.368, 857.006
499.697, 888.481
501.027, 835.730
502.356, 834.389
503.685, 854.099
505.014, 784.406
506.342, 860.147
507.671, 849.543
508.999, 803.999
510.327, 856.947
511.655, 828.593
512.982, 801.674
514.310, 871.236
515.637, 937.862
516.964, 944.781
518.291, 999.954
519.617, 1058.700
520.944, 1153.819
522.270, 1237.743
523.596, 1256.797
524.921, 1274.089
526.247, 1422.151
527.572, 1582.308
528.897, 1611.523
530.222, 1733.091
531.547, 1959.393
532.871, 2022.099
534.196, 2248.914
535.520, 2495.334
536.844, 2770.082
538.167, 3082.216
539.491, 3508.371
540.814, 4056.432
542.137, 4518.860
543.460, 5200.825
544.783, 5883.142
546.105, 6565.779
547.427, 7158.706
548.749, 7831.771
550.071, 8125.083
551.393, 8218.468
552.714, 8311.908
554.035, 7985.824
555.356, 7530.679
556.677, 7055.345
557.998, 6450.073
559.318, 5834.804
560.638, 5229.205
561.958, 4683.879
563.278, 4258.070
564.597, 3843.340
565.917, 3518.176
567.236, 3152.862
568.555, 2817.371
569.874, 2551.912
571.192, 2235.076
572.511, 2095.675
573.829, 1887.596
575.147, 1781.567
576.464, 1612.969
577.782, 1378.005
579.099, 1345.512
580.416, 1171.837
581.733, 1096.247
583.050, 983.271
584.366, 870.043
585.683, 846.875
586.999, 789.729
588.315, 728.285
589.630, 702.731
590.946, 504.687
592.261, 521.982
593.576, 472.698
594.891, 472.374
596.206, 453.180
597.520, 448.324
598.834, 435.088
600.148, 401.830
601.462, 401.230
602.776, 378.080
604.089, 367.997
605.402, 320.639
606.715, 382.179
608.028, 354.500
609.341, 310.189
610.653, 322.795
611.965, 289.523
613.277, 253.143
614.589, 224.044
615.901, 286.853
617.212, 263.918
618.523, 259.309
619.834, 292.090
621.145, 286.672
622.456, 296.660
623.766, 245.921
625.076, 174.263
626.386, 168.987
627.696, 161.423
629.006, 243.743
630.315, 189.563
631.624, 215.817
632.933, 213.223
634.242, 186.444
635.551, 213.670
636.859, 152.004
638.167, 159.276
639.475, 220.667
640.783, 164.406
642.090, 230.574
643.398, 187.692
644.705, 134.081
646.012, 152.183
647.318, 154.971
648.625, 302.943
649.931, 219.340
651.237, 254.736
652.543, 305.180
653.849, 277.505
655.155, 265.696
656.460, 214.278
657.765, 303.592
659.070, 284.770
660.375, 309.236
661.679, 364.562
662.984, 270.003
664.288, 362.636
665.592, 322.204
666.895, 356.886
668.199, 341.167
669.502, 339.660
670.805, 382.958
672.108, 425.447
673.411, 511.059
674.713, 502.142
676.016, 461.346
677.318, 480.632
678.620, 560.890
679.921, 507.158
681.223, 619.143
682.524, 534.656
683.825, 624.846
685.126, 584.725
686.427, 618.134
687.727, 611.294
689.028, 489.096
690.328, 572.891
691.628, 495.444
692.927, 499.558
694.227, 411.327
695.526, 429.421
696.825, 439.910
698.124, 420.492
699.423, 304.350
700.721, 285.518
702.020, 252.947
703.318, 287.063
704.616, 213.026
705.913, 237.010
707.211, 244.984
708.508, 170.723
709.805, 183.526
711.102, 149.196
712.399, 193.769
713.695, 159.532
714.992, 139.092
716.288, 198.820
717.584, 113.362
718.879, 39.875
720.175, 101.449
721.470, 15.975
722.765, 32.484
724.060, 55.948
725.355, 27.344
726.649, 13.312
727.944, 41.004
729.238, 108.295
730.532, 37.395
731.825, 80.886
733.119, 19.901
734.412, 33.306
735.705, 42.466
736.998, 18.398
738.291, 8.288
739.584, 16.799
740.876, 13.863
742.168, 21.525
743.460, 8.554
744.752, 3.702
746.043, 31.697
747.334, 14.678
748.626, 7.645
749.916, 56.614
751.207, 63.553
752.498, 42.479
753.788, 37.389
755.078, 5.287
756.368, 44.141
757.658, 37.995
758.947, 15.754
760.237, 31.473
761.526, 20.207
762.815, 62.776
764.104, 20.446
765.392, 56.932
766.680, 64.474
767.969, 75.586
769.257, 58.131
770.544, 89.264
771.832, 63.661
773.119, 4.038
774.406, 39.240
775.693, 24.346
776.980, 46.033
778.267, 47.452
779.553, 52.658
780.839, 15.561
782.125, 64.438
783.411, 10.280
784.697, 98.461
785.982, 47.411
787.267, 6.465
788.552, 45.500
789.837, 43.416
791.122, 16.438
792.406, 32.195
793.690, 5.976
794.974, 7.997
796.258, 60.780
797.542, 70.828
798.825, 7.688
800.108, 14.686
801.391, 87.004
802.674, 25.378
803.957, 24.781
805.239, 31.637
806.522, 18.631
807.804, 48.725
809.085, 31.208
810.367, 19.225
811.649, 50.516
812.930, 29.507
814.211, 14.431
815.492, 31.654
816.772, 21.222
818.053, 3.074
819.333, 16.099
820.613, 36.305
821.893, 28.555
823.173, 31.941
824.452, 28.176
825.732, 9.453
827.011, 25.198
828.290, 4.397
829.568, 43.882
830.847, 44.586
832.125, 49.031
833.403, 7.545
834.681, 39.153
835.959, 11.807
837.236, 57.505
838.514, 0.796
839.791, 13.057
841.068, 4.705
842.345, 2.502
843.621, 16.318
844.898, 48.176
846.174, 55.915
847.450, 34.045
848.726, 53.010
850.001, 28.985
851.277, 28.010
852.552, 19.554
853.827, 23.302
855.102, 10.514
856.376, 22.308
857.651, 53.084
858.925, 42.725
860.199, 39.453
861.473, 34.819
862.746, 29.149
864.020, 42.419
865.293, 32.667
866.566, 56.775
867.839, 86.069
869.112, 62.271
870.384, 93.718
871.656, 119.797
872.928, 64.562
874.200, 68.578
875.472, 64.226
876.744, 66.934
878.015, 75.652
879.286, 104.392
880.557, 84.727
881.828, 86.427
883.098, 67.398
884.369, 64.043
885.639, 135.878
886.909, 67.061
888.178, 145.676
889.448, 165.320
890.717, 95.440
891.987, 97.760
893.256, 70.267
894.524, 12.752
895.793, 98.252
897.061, 31.689
898.330, 144.094
899.598, 130.606
900.865, 115.039
902.133, 54.431
903.401, 66.020
904.668, 59.892
905.935, 80.137
907.202, 95.617
908.468, 91.953
909.735, 132.443
911.001, 85.897
912.267, 117.250
913.533, 102.660
914.799, 135.015
916.064, 146.403
917.330, 155.878
918.595, 174.361
919.860, 139.868
921.124, 138.414
922.389, 103.880
923.653, 168.470
924.918, 112.945
926.182, 84.059
927.445, 216.417
928.709, 145.827
929.972, 130.199
931.236, 223.570
932.499, 90.955
933.761, 194.181
935.024, 233.604
936.286, 200.796
937.549, 122.351
938.811, 115.686
940.073, 155.844
941.334, 188.159
942.596, 117.458
943.857, 143.640
945.118, 150.404
946.379, 177.011
947.640, 174.789
948.900, 157.134
950.161, 142.516
951.421, 210.628
952.681, 189.024
953.940, 152.487
955.200, 223.307
956.459, 144.472
957.719, 200.660
958.978, 196.788
960.236, 268.036
961.495, 243.977
962.753, 180.378
964.012, 215.619
965.270, 124.998
966.527, 119.077
967.785, 102.280
969.043, 132.378
970.300, 80.279
971.557, 135.229
972.814, 118.067
974.071, 187.301
975.327, 139.325
976.583, 231.529
977.840, 191.532
979.095, 151.404
980.351, 206.793
981.607, 172.051
982.862, 252.215
984.117, 207.396
985.372, 229.557
986.627, 197.991
987.882, 213.290
989.136, 193.108
990.390, 274.625
991.644, 371.602
992.898, 458.814
994.152, 424.374
995.405, 412.927
996.659, 502.712
997.912, 469.924
999.165, 502.469
1000.417, 522.673
1001.670, 574.466
1002.922, 563.898
1004.174, 500.041
1005.426, 512.467
1006.678, 472.824
1007.930, 322.548
1009.181, 462.671
1010.432, 368.857
1011.683, 437.488
1012.934, 292.154
1014.185, 345.309
1015.435, 306.729
1016.685, 275.567
1017.935, 236.765
1019.185, 249.111
1020.435, 243.989
1021.684, 211.452
1022.934, 250.141
1024.183, 204.315
1025.432, 170.838
1026.680, 82.549
1027.929, 185.922
1029.177, 158.338
1030.425, 61.782
1031.673, 171.231
1032.921, 138.684
1034.169, 86.100
1035.416, 89.519
1036.663, 3.985
1037.911, 95.435
1039.157, 96.911
1040.404, 22.392
1041.650, 153.879
1042.897, 60.372
1044.143, 89.870
1045.389, 73.758
1046.634, 124.265
1047.880, 72.642
1049.125, 120.159
1050.371, 61.683
1051.615, 162.211
1052.860, 163.726
1054.105, 53.264
1055.349, 134.808
1056.593, 121.356
1057.837, 59.910
1059.081, 86.469
1060.325, 20.035
1061.568, 103.322
1062.812, 121.207
1064.055, 247.764
1065.298, 176.353
1066.540, 178.947
1067.783, 93.547
1069.025, 191.152
1070.267, 153.097
1071.509, 170.185
1072.751, 162.003
1073.993, 170.631
1075.234, 167.265
1076.475, 161.736
1077.716, 191.554
1078.957, 165.213
1080.198, 124.878
1081.438, 157.550
1082.679, 160.229
1083.919, 227.914
1085.159, 186.605
1086.398, 237.304
1087.638, 196.009
1088.877, 257.720
1090.116, 290.439
1091.355, 230.166
1092.594, 334.899
1093.833, 277.502
1095.071, 233.388
1096.309, 236.145
1097.547, 309.911
1098.785, 324.684
1100.023, 322.464
1101.260, 281.253
1102.498, 309.053
1103.735, 378.882
1104.972, 313.727
1106.208, 345.579
1107.445, 413.438
1108.681, 320.308
1109.918, 383.184
1111.154, 343.077
1112.389, 353.983
1113.625, 380.906
1114.860, 315.845
1116.096, 374.794
1117.331, 290.778
1118.566, 314.771
1119.800, 414.775
1121.035, 381.793
1122.269, 376.830
1123.503, 463.890
1124.737, 442.969
1125.971, 475.088
1127.205, 416.219
1128.438, 391.382
1129.671, 269.558
1130.904, 303.757
1132.137, 190.964
1133.370, 128.181
1134.602, 170.426
1135.834, 131.692
1137.066, 181.983
1138.298, 159.288
1139.530, 200.606
1140.762, 159.934
1141.993, 141.278
1143.224, 92.634
1144.455, 135.008
1145.686, 75.406
1146.917, 150.813
1148.147, 32.242
1149.377, 2.680
1150.607, 79.140
1151.837, 32.355
1153.067, 8.854
1154.296, 13.334
1155.526, 14.806
1156.755, 20.275
1157.984, 22.031
1159.213, 20.745
1160.441, 27.672
1161.670, 19.133
1162.898, 23.407
1164.126, 29.044
1165.354, 40.485
1166.581, 20.935
1167.809, 33.383
1169.036, 0.837
1170.263, 27.283
1171.490, 18.731
1172.717, 4.179
1173.943, 8.631
1175.170, 85.945
1176.396, 3.519
1177.622, 57.101
1178.848, 59.692
1180.073, 29.292
1181.299, 47.900
1182.524, 101.517
1183.749, 76.142
1184.974, 107.302
1186.199, 157.359
1187.423, 132.008
1188.648, 151.666
1189.872, 171.330
1191.096, 132.002
1192.320, 137.683
1193.543, 98.375
1194.767, 130.073
1195.990, 173.780
1197.213, 250.495
1198.436, 234.217
1199.659, 272.980
1200.881, 251.685
1202.104, 269.430
1203.326, 319.182
1204.548, 267.942
1205.770, 306.708
1206.991, 301.482
1208.213, 406.263
1209.434, 331.050
1210.655, 437.845
1211.876, 398.646
1213.096, 310.455
1214.317, 456.270
1215.537, 412.091
1216.757, 521.919
1217.977, 524.754
1219.197, 436.596
1220.417, 461.444
1221.636, 591.299
1222.855, 487.161
1224.074, 581.029
1225.293, 595.903
1226.512, 456.784
1227.731, 667.670
1228.949, 640.562
1230.167, 649.461
1231.385, 589.366
1232.603, 587.276
1233.820, 650.192
1235.038, 715.115
1236.255, 715.045
1237.472, 632.983
1238.689, 755.932
1239.906, 677.887
1241.122, 789.852
1242.338, 715.824
1243.555, 750.805
1244.771, 736.794
1245.986, 724.791
1247.202, 766.811
1248.417, 801.811
1249.633, 830.007
1250.848, 794.038
1252.063, 811.076
1253.277, 898.123
1254.492, 975.177
1255.706, 953.238
1256.920, 996.308
1258.134, 961.385
1259.348, 930.315
1260.562, 941.407
1261.775, 1058.505
1262.988, 1060.046
1264.201, 940.157
1265.414, 1123.277
1266.627, 1038.403
1267.839, 1063.535
1269.052, 1084.080
1270.264, 1172.226
1271.476, 1205.641
1272.688, 1221.467
1273.899, 1169.529
1275.111, 1182.702
1276.322, 1191.200
1277.533, 1285.398
1278.744, 1282.592
1279.955, 1298.220
1281.165, 1317.529
1282.376, 1305.872
1283.586, 1349.383
1284.796, 1309.660
1286.006, 1325.893
1287.215, 1403.636
1288.425, 1380.964
1289.634, 1420.217
1290.843, 1448.477
1292.052, 1419.914
1293.261, 1423.187
1294.469, 1408.466
1295.678, 1424.385
1296.886, 1476.678
1298.094, 1463.510
1299.302, 1378.515
1300.509, 1495.513
1301.717, 1389.197
1302.924, 1475.643
1304.131, 1377.974
1305.338, 1369.859
1306.545, 1423.931
1307.752, 1399.438
1308.958, 1356.797
1310.164, 1432.816
1311.370, 1480.266
1312.576, 1365.804
1313.782, 1449.623
1314.987, 1378.977
1316.193, 1397.114
1317.398, 1283.687
1318.603, 1358.941
1319.807, 1286.986
1321.012, 1346.398
1322.216, 1348.769
1323.421, 1276.146
1324.625, 1361.513
1325.829, 1170.827
1327.032, 1197.125
1328.236, 1256.422
1329.439, 1277.724
1330.642, 1162.985
1331.845, 1106.203
1333.048, 1200.421
1334.251, 1106.631
1335.453, 1088.842
1336.656, 1038.049
1337.858, 1055.246
1339.060, 1096.441
1340.261, 967.612
1341.463, 965.780
1342.664, 988.146
1343.866, 876.305
1345.067, 965.515
1346.267, 822.658
1347.468, 897.794
1348.669, 790.921
1349.869, 740.036
1351.069, 738.142
1352.269, 773.237
1353.469, 698.323
1354.668, 699.401
1355.868, 692.472
1357.067, 544.537
1358.266, 587.595
1359.465, 550.647
1360.664, 614.694
1361.862, 556.727
1363.061, 529.900
1364.259, 473.918
1365.457, 488.038
1366.655, 453.947
1367.852, 477.048
1369.050, 424.046
1370.247, 413.040
1371.444, 399.019
1372.641, 395.982
1373.838, 376.939
1375.035, 310.890
1376.231, 297.835
1377.427, 251.780
1378.623, 247.065
1379.819, 176.299
1381.015, 301.873
1382.211, 151.455
1383.406, 273.045
1384.601, 268.645
1385.796, 254.253
1386.991, 194.867
1388.185, 218.490
1389.380, 107.122
1390.574, 236.761
1391.768, 266.390
1392.962, 8.006
1394.156, 178.608
1395.350, 146.217
1396.543, 49.818
1397.736, 130.371
1398.929, 89.915
1400.122, 92.460
1401.315, 67.993
1402.507, 19.500
1403.700, 104.984
1404.892, 50.467
1406.084, 60.051
1407.276, 92.431
1408.467, 127.914
1409.659, 76.391
1410.850, 54.882
1412.041, 10.621
1413.232, 32.893
1414.423, 71.557
1415.614, 2.014
1416.804, 1.386
1417.994, 74.249
1419.184, 12.905
1420.374, 30.585
1421.564, 43.274
1422.753, 40.032
1423.943, 25.666
1425.132, 18.630
1426.321, 4.919
1427.510, 3.800
1428.698, 6.142
1429.887, 12.264
1431.075, 32.010
1432.263, 57.767
1433.451, 98.533
1434.639, 29.312
1435.827, 57.105
1437.014, 65.914
1438.201, 12.737
1439.388, 76.579
1440.575, 45.438
1441.762, 4.317
1442.949, 31.215
1444.135, 89.133
1445.321, 53.074
1446.507, 137.040
1447.693, 75.033
1448.879, 61.055
1450.064, 142.106
1451.250, 95.174
1452.435, 80.252
1453.620, 90.342
1454.805, 52.442
1455.989, 85.216
1457.174, 126.289
1458.358, 130.417
1459.542, 180.559
1460.726, 190.718
1461.910, 122.437
1463.093, 96.543
1464.277, 134.511
1465.460, 123.416
1466.643, 198.640
1467.826, 71.349
1469.009, 147.576
1470.191, 111.085
1471.373, 86.410
1472.556, 86.327
1473.738, 92.019
1474.919, 46.586
1476.101, 83.376
1477.283, 79.906
1478.464, 141.774
1479.645, 142.916
1480.826, 94.990
1482.007, 114.235
1483.187, 58.930
1484.368, 7.526
1485.548, 71.938
1486.728, 15.148
1487.908, 73.698
1489.088, 102.418
1490.268, 131.860
1491.447, 405.073
1492.626, 335.863
1493.805, 602.451
1494.984, 346.140
1496.163, 102.704
1497.341, 69.792
1498.520, 13.030
1499.698, 103.168
1500.876, 69.300
1502.054, 44.623
1503.232, 14.213
1504.409, 3.159
1505.586, 10.998
1506.763, 2.719
1507.940, 63.719
1509.117, 35.270
1510.294, 72.859
1511.470, 58.498
1512.647, 67.756
1513.823, 29.160
1514.999, 3.403
1516.174, 51.267
1517.350, 10.817
1518.526, 27.217
1519.701, 0.000
##END=



