##NAMES=Goethite
##RRUFFID=R050142
##IDEAL CHEMISTRY=Fe^3+^O(OH)
##LOCALITY=Park County, Colorado, USA
##OWNER=RRUFF
##SOURCE=Dave Bunk Minerals
##DESCRIPTION=Radiating spray of black to brown platy crystals
##STATUS=The identification of this mineral has been confirmed by X-ray diffraction and chemical analysis
##URL=rruff.info/R050142
##MEASURED CHEMISTRY=FeO(OH)
##PIN_ID=M00090
##ORIENTATION=Laser parallel to b* (0 1 0). Fiducial mark perpendicular to laser is parallel to -c [0 0 -1]
164.853, 0.000
166.235, 0.955
167.617, 106.908
168.998, 152.750
170.380, 275.938
171.761, 290.102
173.142, 107.896
174.523, 146.033
175.904, 101.623
177.284, 25.668
178.664, 220.512
180.044, 256.260
181.424, 223.777
182.803, 287.783
184.183, 247.377
185.562, 238.857
186.940, 284.865
188.319, 237.355
189.698, 295.562
191.076, 391.551
192.454, 277.518
193.831, 277.852
195.209, 213.537
196.586, 313.628
197.963, 375.699
199.340, 501.239
200.717, 646.054
202.093, 649.981
203.470, 711.770
204.846, 670.927
206.221, 815.444
207.597, 801.953
208.972, 859.142
210.347, 854.977
211.722, 823.025
213.097, 750.137
214.472, 700.167
215.846, 581.169
217.220, 571.840
218.594, 649.500
219.967, 505.484
221.341, 448.377
222.714, 508.140
224.087, 627.590
225.460, 496.964
226.832, 715.469
228.204, 675.278
229.577, 366.743
230.948, 407.985
232.320, 204.065
233.692, 375.307
235.063, 555.992
236.434, 630.818
237.805, 598.420
239.175, 540.953
240.545, 695.731
241.916, 664.628
243.286, 756.165
244.655, 955.356
246.025, 1165.040
247.394, 1153.361
248.763, 1190.319
250.132, 1132.013
251.501, 1153.408
252.869, 1133.155
254.237, 1177.679
255.605, 1052.016
256.973, 1241.188
258.340, 1307.977
259.708, 1252.281
261.075, 1144.637
262.442, 1114.698
263.808, 838.508
265.175, 849.338
266.541, 789.244
267.907, 658.428
269.273, 785.996
270.639, 482.723
272.004, 497.516
273.369, 472.358
274.734, 416.774
276.099, 398.964
277.463, 458.881
278.828, 415.990
280.192, 409.254
281.556, 361.707
282.919, 343.301
284.283, 324.646
285.646, 265.733
287.009, 126.551
288.372, 167.104
289.734, 287.374
291.097, 357.349
292.459, 217.021
293.821, 276.396
295.183, 285.476
296.544, 454.244
297.905, 622.691
299.266, 770.805
300.627, 828.686
301.988, 848.031
303.348, 825.165
304.709, 728.419
306.069, 658.808
307.428, 439.035
308.788, 318.711
310.147, 118.355
311.507, 198.099
312.865, 46.679
314.224, 64.844
315.583, 107.626
316.941, 80.007
318.299, 43.204
319.657, 92.932
321.015, 82.266
322.372, 83.370
323.729, 106.485
325.086, 223.690
326.443, 241.383
327.800, 179.534
329.156, 70.875
330.512, 53.471
331.868, 123.043
333.224, 101.710
334.579, 53.894
335.935, 149.548
337.290, 12.223
338.645, 90.307
339.999, 84.873
341.354, 1.963
342.708, 80.587
344.062, 146.474
345.416, 141.503
346.769, 238.451
348.123, 246.368
349.476, 239.676
350.829, 363.805
352.182, 346.926
353.534, 385.215
354.887, 426.582
356.239, 410.658
357.591, 473.347
358.942, 495.730
360.294, 379.914
361.645, 286.839
362.996, 409.128
364.347, 436.215
365.698, 426.691
367.048, 450.663
368.398, 459.383
369.748, 435.150
371.098, 475.675
372.448, 508.714
373.797, 505.273
375.146, 516.387
376.495, 568.825
377.844, 685.515
379.192, 596.170
380.540, 579.249
381.889, 530.074
383.236, 637.725
384.584, 744.581
385.932, 704.154
387.279, 887.687
388.626, 859.131
389.973, 1000.874
391.319, 1142.966
392.666, 1223.163
394.012, 1398.209
395.358, 1681.247
396.704, 1893.393
398.049, 2295.104
399.394, 2546.796
400.740, 2807.935
402.084, 2878.372
403.429, 3048.813
404.774, 2948.440
406.118, 2827.739
407.462, 2667.174
408.806, 2476.536
410.150, 2355.149
411.493, 2583.306
412.836, 2720.732
414.179, 3047.678
415.522, 3724.226
416.865, 4480.606
418.207, 4976.186
419.549, 5522.313
420.891, 5548.496
422.233, 5274.232
423.575, 4689.320
424.916, 3964.093
426.257, 3117.498
427.598, 2650.955
428.939, 2201.088
430.279, 1902.067
431.619, 1562.612
432.959, 1375.231
434.299, 1301.986
435.639, 1188.451
436.978, 1054.182
438.318, 1075.844
439.657, 965.008
440.996, 841.374
442.334, 940.429
443.673, 859.895
445.011, 842.166
446.349, 863.720
447.687, 754.276
449.024, 796.017
450.361, 804.443
451.699, 732.448
453.036, 752.576
454.372, 670.659
455.709, 671.337
457.045, 739.396
458.381, 736.686
459.717, 758.323
461.053, 710.162
462.388, 752.366
463.724, 763.030
465.059, 697.991
466.394, 705.777
467.728, 728.845
469.063, 760.243
470.397, 747.428
471.731, 749.406
473.065, 751.739
474.398, 756.348
475.732, 749.985
477.065, 780.270
478.398, 769.077
479.731, 802.801
481.063, 813.390
482.396, 826.937
483.728, 818.190
485.060, 748.980
486.391, 772.443
487.723, 665.833
489.054, 623.153
490.385, 648.087
491.716, 587.937
493.047, 595.240
494.377, 539.702
495.708, 533.717
497.038, 485.731
498.368, 531.319
499.697, 542.531
501.027, 614.456
502.356, 557.300
503.685, 572.847
505.014, 576.402
506.342, 502.727
507.671, 558.149
508.999, 545.507
510.327, 484.625
511.655, 530.697
512.982, 636.469
514.310, 555.419
515.637, 591.562
516.964, 521.426
518.291, 610.678
519.617, 605.991
520.944, 563.208
522.270, 666.525
523.596, 669.752
524.921, 735.087
526.247, 807.227
527.572, 919.446
528.897, 866.622
530.222, 962.476
531.547, 963.562
532.871, 918.771
534.196, 1125.863
535.520, 1186.888
536.844, 1310.031
538.167, 1440.560
539.491, 1524.624
540.814, 1690.523
542.137, 1940.140
543.460, 2205.114
544.783, 2354.449
546.105, 2677.528
547.427, 2909.291
548.749, 3180.864
550.071, 3242.949
551.393, 3305.550
552.714, 3398.418
554.035, 3261.948
555.356, 3095.648
556.677, 2999.273
557.998, 2802.825
559.318, 2556.300
560.638, 2280.697
561.958, 2044.020
563.278, 1910.284
564.597, 1772.477
565.917, 1530.600
567.236, 1557.655
568.555, 1328.638
569.874, 1243.557
571.192, 1102.410
572.511, 1032.201
573.829, 1013.931
575.147, 863.602
576.464, 773.214
577.782, 764.854
579.099, 670.356
580.416, 675.802
581.733, 553.189
583.050, 566.525
584.366, 473.896
585.683, 397.408
586.999, 364.611
588.315, 421.791
589.630, 404.940
590.946, 309.049
592.261, 265.272
593.576, 243.428
594.891, 267.315
596.206, 206.826
597.520, 172.184
598.834, 243.546
600.148, 272.749
601.462, 262.311
602.776, 227.640
604.089, 77.841
605.402, 114.322
606.715, 146.355
608.028, 180.574
609.341, 235.974
610.653, 152.921
611.965, 173.042
613.277, 208.886
614.589, 121.603
615.901, 211.425
617.212, 109.293
618.523, 125.620
619.834, 217.534
621.145, 97.709
622.456, 212.873
623.766, 126.727
625.076, 198.647
626.386, 191.504
627.696, 209.481
629.006, 243.436
630.315, 242.274
631.624, 240.385
632.933, 280.443
634.242, 272.781
635.551, 326.287
636.859, 273.042
638.167, 295.620
639.475, 208.293
640.783, 261.152
642.090, 314.056
643.398, 326.864
644.705, 393.034
646.012, 403.905
647.318, 429.693
648.625, 540.399
649.931, 533.044
651.237, 623.998
652.543, 608.015
653.849, 705.106
655.155, 763.671
656.460, 854.970
657.765, 950.175
659.070, 1022.625
660.375, 1145.662
661.679, 1242.384
662.984, 1381.208
664.288, 1477.654
665.592, 1636.810
666.895, 1699.682
668.199, 1840.947
669.502, 1911.359
670.805, 2116.436
672.108, 2184.020
673.411, 2363.787
674.713, 2477.381
676.016, 2675.691
677.318, 2864.620
678.620, 2989.396
679.921, 3065.382
681.223, 3219.670
682.524, 3414.174
683.825, 3356.700
685.126, 3499.261
686.427, 3461.412
687.727, 3514.760
689.028, 3267.305
690.328, 3312.796
691.628, 3005.001
692.927, 2889.271
694.227, 2695.467
695.526, 2501.149
696.825, 2374.470
698.124, 2102.678
699.423, 1966.959
700.721, 1778.475
702.020, 1610.565
703.318, 1467.374
704.616, 1309.372
705.913, 1164.556
707.211, 1104.962
708.508, 1059.379
709.805, 966.507
711.102, 842.514
712.399, 804.370
713.695, 670.989
714.992, 593.493
716.288, 668.455
717.584, 603.285
718.879, 512.787
720.175, 444.766
721.470, 502.706
722.765, 387.839
724.060, 435.483
725.355, 353.833
726.649, 307.553
727.944, 248.303
729.238, 267.895
730.532, 311.618
731.825, 264.325
733.119, 154.466
734.412, 228.132
735.705, 199.823
736.998, 243.339
738.291, 242.903
739.584, 146.397
740.876, 101.587
742.168, 162.908
743.460, 156.279
744.752, 152.760
746.043, 150.735
747.334, 115.019
748.626, 97.824
749.916, 44.577
751.207, 2.088
752.498, 55.639
753.788, 15.960
755.078, 90.746
756.368, 101.588
757.658, 75.400
758.947, 87.080
760.237, 40.147
761.526, 37.378
762.815, 39.795
764.104, 8.437
765.392, 45.298
766.680, 22.742
767.969, 9.282
769.257, 40.985
770.544, 28.664
771.832, 69.149
773.119, 85.523
774.406, 21.832
775.693, 0.583
776.980, 5.842
778.267, 10.595
779.553, 0.999
780.839, 33.714
782.125, 35.411
783.411, 29.194
784.697, 44.130
785.982, 28.012
787.267, 34.018
788.552, 5.860
789.837, 1.764
791.122, 37.521
792.406, 38.463
793.690, 68.433
794.974, 45.367
796.258, 50.391
797.542, 31.437
798.825, 9.473
800.108, 26.504
801.391, 30.499
802.674, 17.509
803.957, 19.536
805.239, 35.418
806.522, 0.361
807.804, 1.709
809.085, 37.793
810.367, 26.200
811.649, 17.960
812.930, 19.188
814.211, 13.360
815.492, 45.553
816.772, 64.780
818.053, 43.448
819.333, 101.643
820.613, 4.673
821.893, 13.991
823.173, 29.642
824.452, 39.722
825.732, 22.878
827.011, 19.463
828.290, 36.968
829.568, 42.433
830.847, 34.936
832.125, 52.822
833.403, 66.057
834.681, 33.690
835.959, 35.361
837.236, 4.929
838.514, 4.413
839.791, 54.447
841.068, 11.324
842.345, 5.877
843.621, 50.939
844.898, 37.197
846.174, 27.684
847.450, 6.603
848.726, 34.548
850.001, 8.535
851.277, 79.550
852.552, 17.373
853.827, 9.275
855.102, 54.157
856.376, 3.020
857.651, 38.142
858.925, 25.654
860.199, 13.437
861.473, 13.205
862.746, 29.955
864.020, 54.688
865.293, 86.408
866.566, 11.885
867.839, 10.799
869.112, 48.462
870.384, 76.115
871.656, 46.243
872.928, 32.367
874.200, 37.958
875.472, 21.554
876.744, 107.130
878.015, 14.690
879.286, 75.233
880.557, 64.759
881.828, 101.270
883.098, 63.769
884.369, 64.251
885.639, 20.718
886.909, 67.083
888.178, 57.512
889.448, 104.926
890.717, 81.324
891.987, 96.707
893.256, 18.987
894.524, 81.067
895.793, 39.395
897.061, 70.685
898.330, 81.949
899.598, 14.194
900.865, 80.271
902.133, 72.268
903.401, 0.967
904.668, 86.585
905.935, 170.362
907.202, 134.041
908.468, 93.555
909.735, 128.501
911.001, 120.330
912.267, 101.200
913.533, 133.867
914.799, 81.518
916.064, 55.171
917.330, 64.685
918.595, 177.344
919.860, 119.900
921.124, 166.393
922.389, 142.010
923.653, 61.801
924.918, 78.520
926.182, 178.843
927.445, 169.349
928.709, 174.745
929.972, 181.168
931.236, 178.190
932.499, 175.980
933.761, 196.495
935.024, 172.008
936.286, 212.486
937.549, 207.017
938.811, 253.470
940.073, 221.938
941.334, 233.127
942.596, 282.383
943.857, 206.435
945.118, 230.877
946.379, 66.367
947.640, 208.818
948.900, 118.279
950.161, 180.651
951.421, 226.919
952.681, 184.212
953.940, 247.548
955.200, 153.154
956.459, 221.645
957.719, 211.970
958.978, 218.102
960.236, 312.165
961.495, 264.682
962.753, 300.714
964.012, 333.915
965.270, 213.201
966.527, 234.714
967.785, 232.640
969.043, 257.502
970.300, 256.456
971.557, 254.950
972.814, 213.691
974.071, 313.801
975.327, 276.967
976.583, 388.925
977.840, 239.046
979.095, 302.145
980.351, 341.136
981.607, 437.792
982.862, 452.817
984.117, 440.831
985.372, 572.087
986.627, 551.069
987.882, 636.924
989.136, 643.747
990.390, 728.523
991.644, 891.702
992.898, 864.674
994.152, 976.362
995.405, 1076.170
996.659, 1109.255
997.912, 1137.265
999.165, 1192.340
1000.417, 1212.556
1001.670, 1224.201
1002.922, 1245.877
1004.174, 1215.829
1005.426, 1184.537
1006.678, 1157.660
1007.930, 1078.058
1009.181, 1044.081
1010.432, 869.547
1011.683, 944.688
1012.934, 771.242
1014.185, 704.569
1015.435, 686.530
1016.685, 642.270
1017.935, 562.784
1019.185, 556.812
1020.435, 601.394
1021.684, 452.815
1022.934, 520.966
1024.183, 398.962
1025.432, 413.888
1026.680, 360.694
1027.929, 360.970
1029.177, 379.349
1030.425, 317.586
1031.673, 339.705
1032.921, 302.730
1034.169, 207.840
1035.416, 301.950
1036.663, 238.609
1037.911, 212.728
1039.157, 237.805
1040.404, 117.041
1041.650, 245.214
1042.897, 182.442
1044.143, 144.535
1045.389, 245.705
1046.634, 134.693
1047.880, 225.816
1049.125, 189.986
1050.371, 104.243
1051.615, 173.404
1052.860, 134.533
1054.105, 217.009
1055.349, 213.201
1056.593, 258.405
1057.837, 286.612
1059.081, 270.306
1060.325, 251.272
1061.568, 237.225
1062.812, 180.427
1064.055, 149.629
1065.298, 165.813
1066.540, 200.889
1067.783, 190.007
1069.025, 195.209
1070.267, 200.412
1071.509, 153.615
1072.751, 147.819
1073.993, 175.943
1075.234, 223.138
1076.475, 237.360
1077.716, 160.583
1078.957, 257.808
1080.198, 193.033
1081.438, 285.260
1082.679, 203.488
1083.919, 347.716
1085.159, 242.945
1086.398, 249.175
1087.638, 198.406
1088.877, 340.639
1090.116, 271.871
1091.355, 219.107
1092.594, 139.345
1093.833, 223.590
1095.071, 192.836
1096.309, 297.095
1097.547, 281.357
1098.785, 276.620
1100.023, 221.885
1101.260, 245.152
1102.498, 257.425
1103.735, 270.704
1104.972, 331.986
1106.208, 250.276
1107.445, 359.567
1108.681, 283.862
1109.918, 296.160
1111.154, 288.468
1112.389, 188.785
1113.625, 264.104
1114.860, 223.430
1116.096, 244.762
1117.331, 210.106
1118.566, 168.469
1119.800, 248.844
1121.035, 241.221
1122.269, 205.608
1123.503, 300.999
1124.737, 186.402
1125.971, 314.819
1127.205, 191.238
1128.438, 205.685
1129.671, 321.143
1130.904, 171.642
1132.137, 121.153
1133.370, 142.683
1134.602, 208.231
1135.834, 145.793
1137.066, 137.369
1138.298, 111.949
1139.530, 145.535
1140.762, 117.125
1141.993, 14.274
1143.224, 80.323
1144.455, 17.942
1145.686, 56.564
1146.917, 112.199
1148.147, 55.844
1149.377, 81.503
1150.607, 72.171
1151.837, 71.869
1153.067, 99.572
1154.296, 33.279
1155.526, 98.991
1156.755, 101.709
1157.984, 20.556
1159.213, 21.829
1160.441, 12.108
1161.670, 2.391
1162.898, 12.672
1164.126, 6.019
1165.354, 33.245
1166.581, 5.539
1167.809, 23.831
1169.036, 19.132
1170.263, 60.441
1171.490, 35.248
1172.717, 81.058
1173.943, 40.598
1175.170, 80.259
1176.396, 12.077
1177.622, 5.586
1178.848, 20.252
1180.073, 11.078
1181.299, 21.588
1182.524, 67.258
1183.749, 58.931
1184.974, 23.610
1186.199, 108.292
1187.423, 20.979
1188.648, 129.668
1189.872, 51.360
1191.096, 24.944
1192.320, 120.745
1193.543, 93.437
1194.767, 77.132
1195.990, 46.831
1197.213, 40.532
1198.436, 111.241
1199.659, 61.953
1200.881, 71.668
1202.104, 131.395
1203.326, 107.125
1204.548, 211.856
1205.770, 209.592
1206.991, 172.330
1208.213, 144.076
1209.434, 156.825
1210.655, 234.578
1211.876, 204.333
1213.096, 223.089
1214.317, 243.849
1215.537, 258.613
1216.757, 228.379
1217.977, 241.147
1219.197, 273.918
1220.417, 336.690
1221.636, 333.466
1222.855, 256.243
1224.074, 320.021
1225.293, 325.800
1226.512, 325.582
1227.731, 389.364
1228.949, 344.147
1230.167, 316.931
1231.385, 446.716
1232.603, 394.502
1233.820, 390.289
1235.038, 384.076
1236.255, 414.862
1237.472, 421.914
1238.689, 446.447
1239.906, 466.246
1241.122, 534.048
1242.338, 561.854
1243.555, 543.457
1244.771, 545.478
1245.986, 515.296
1247.202, 556.118
1248.417, 607.944
1249.633, 497.321
1250.848, 587.155
1252.063, 542.992
1253.277, 552.833
1254.492, 659.678
1255.706, 608.527
1256.920, 694.378
1258.134, 735.248
1259.348, 626.105
1260.562, 737.973
1261.775, 742.837
1262.988, 796.757
1264.201, 739.675
1265.414, 800.548
1266.627, 729.425
1267.839, 772.258
1269.052, 780.393
1270.264, 838.573
1271.476, 861.245
1272.688, 858.395
1273.899, 917.754
1275.111, 875.650
1276.322, 877.661
1277.533, 924.570
1278.744, 851.475
1279.955, 925.383
1281.165, 1003.294
1282.376, 940.209
1283.586, 1008.205
1284.796, 943.125
1286.006, 929.469
1287.215, 1039.628
1288.425, 929.714
1289.634, 1064.347
1290.843, 1064.283
1292.052, 1022.222
1293.261, 1045.441
1294.469, 1017.386
1295.678, 1020.849
1296.886, 1047.109
1298.094, 1040.063
1299.302, 1050.021
1300.509, 1082.980
1301.717, 1044.371
1302.924, 998.909
1304.131, 1021.575
1305.338, 975.167
1306.545, 1047.329
1307.752, 960.986
1308.958, 1011.223
1310.164, 859.779
1311.370, 991.710
1312.576, 938.315
1313.782, 882.966
1314.987, 837.731
1316.193, 891.548
1317.398, 862.553
1318.603, 942.655
1319.807, 937.668
1321.012, 876.687
1322.216, 863.884
1323.421, 802.837
1324.625, 830.857
1325.829, 806.086
1327.032, 795.085
1328.236, 775.025
1329.439, 739.895
1330.642, 698.764
1331.845, 695.662
1333.048, 738.650
1334.251, 699.640
1335.453, 700.493
1336.656, 688.002
1337.858, 690.849
1339.060, 679.682
1340.261, 676.487
1341.463, 639.341
1342.664, 650.167
1343.866, 623.991
1345.067, 571.809
1346.267, 574.901
1347.468, 541.704
1348.669, 511.453
1349.869, 548.355
1351.069, 513.086
1352.269, 440.206
1353.469, 445.196
1354.668, 472.896
1355.868, 466.588
1357.067, 357.271
1358.266, 418.943
1359.465, 371.013
1360.664, 263.662
1361.862, 335.301
1363.061, 375.930
1364.259, 290.538
1365.457, 265.208
1366.655, 275.730
1367.852, 277.224
1369.050, 269.005
1370.247, 222.133
1371.444, 275.540
1372.641, 198.918
1373.838, 218.259
1375.035, 204.572
1376.231, 171.009
1377.427, 164.330
1378.623, 143.517
1379.819, 171.575
1381.015, 214.672
1382.211, 131.774
1383.406, 170.879
1384.601, 210.989
1385.796, 99.102
1386.991, 195.216
1388.185, 347.332
1389.380, 369.450
1390.574, 106.571
1391.768, 133.697
1392.962, 1.825
1394.156, 111.955
1395.350, 198.090
1396.543, 126.095
1397.736, 143.586
1398.929, 87.400
1400.122, 58.425
1401.315, 55.420
1402.507, 82.415
1403.700, 58.409
1404.892, 90.400
1406.084, 48.391
1407.276, 50.378
1408.467, 62.364
1409.659, 118.346
1410.850, 2.683
1412.041, 21.288
1413.232, 23.745
1414.423, 70.245
1415.614, 55.254
1416.804, 73.723
1417.994, 68.330
1419.184, 83.591
1420.374, 66.509
1421.564, 89.669
1422.753, 77.837
1423.943, 107.011
1425.132, 102.732
1426.321, 53.388
1427.510, 110.584
1428.698, 18.784
1429.887, 30.997
1431.075, 56.226
1432.263, 8.462
1433.451, 78.708
1434.639, 103.959
1435.827, 31.217
1437.014, 145.485
1438.201, 77.743
1439.388, 8.010
1440.575, 86.291
1441.762, 97.581
1442.949, 195.886
1444.135, 88.208
1445.321, 86.549
1446.507, 90.915
1447.693, 123.307
1448.879, 87.728
1450.064, 131.178
1451.250, 65.667
1452.435, 75.173
1453.620, 166.690
1454.805, 73.216
1455.989, 57.753
1457.174, 136.300
1458.358, 14.364
1459.542, 99.183
1460.726, 103.140
1461.910, 182.285
1463.093, 192.864
1464.277, 154.347
1465.460, 192.860
1466.643, 131.058
1467.826, 167.988
1469.009, 160.365
1470.191, 124.854
1471.373, 112.815
1472.556, 84.558
1473.738, 69.273
1474.919, 47.718
1476.101, 45.308
1477.283, 74.383
1478.464, 30.819
1479.645, 152.258
1480.826, 112.690
1482.007, 125.821
1483.187, 131.869
1484.368, 153.824
1485.548, 208.646
1486.728, 133.934
1487.908, 26.202
1489.088, 110.511
1490.268, 125.573
1491.447, 28.177
1492.626, 149.524
1493.805, 12.416
1494.984, 13.583
1496.163, 60.755
1497.341, 103.839
1498.520, 69.854
1499.698, 118.857
1500.876, 3.932
1502.054, 123.508
1503.232, 104.870
1504.409, 58.016
1505.586, 145.520
1506.763, 31.505
1507.940, 60.371
1509.117, 70.214
1510.294, 119.539
1511.470, 93.132
1512.647, 93.442
1513.823, 47.649
1514.999, 48.437
1516.174, 27.092
1517.350, 0.907
1518.526, 3.377
1519.701, 18.369
1520.876, 0.000
##END=



