##NAMES=Grossular
##RRUFFID=R040066
##IDEAL CHEMISTRY=Ca_3_Al_2_(SiO_4_)_3_
##LOCALITY=Redding, Connecticut, USA
##OWNER=RRUFF
##SOURCE=University of Arizona Mineral Museum
##DESCRIPTION=Reddish orange coarsely crystalline
##STATUS=The identification of this mineral has been confirmed by X-ray diffraction and chemical analysis
##URL=rruff.info/R040066
##MEASURED CHEMISTRY=(Ca_2.90_Fe^2+^_0.08_Mn_0.02_)_Σ=3_(Al_1.87_Fe^3+^_0.13_)_Σ=2_(Si_1.00_O_4_)_3_
##PIN_ID=M00416
##ORIENTATION=Laser parallel to a* (1 0 0). Fiducial mark perpendicular to laser is parallel to b [0 1 0]
157.005, 0.000
158.392, 83.336
159.779, 6.719
161.166, 0.864
162.552, 46.129
163.938, 62.317
165.324, 69.012
166.710, 175.112
168.095, 182.893
169.480, 220.997
170.865, 467.805
172.250, 705.451
173.635, 1344.062
175.019, 2318.812
176.403, 3867.770
177.787, 4894.791
179.171, 4173.215
180.554, 3083.773
181.937, 1784.159
183.320, 1062.272
184.703, 772.605
186.086, 511.756
187.468, 448.496
188.850, 395.289
190.232, 310.222
191.614, 263.587
192.995, 295.686
194.376, 239.031
195.757, 238.483
197.138, 192.983
198.518, 116.532
199.899, 187.133
201.279, 109.782
202.659, 104.479
204.038, 124.221
205.418, 110.003
206.797, 72.825
208.176, 65.320
209.554, 21.436
210.933, 22.527
212.311, 16.400
213.689, 24.344
215.067, 9.705
216.445, 11.094
217.822, 37.711
219.199, 26.688
220.576, 65.644
221.953, 89.576
223.330, 63.484
224.706, 35.367
226.082, 33.225
227.458, 66.057
228.833, 8.137
230.209, 57.358
231.584, 165.619
232.959, 306.956
234.334, 347.356
235.708, 429.099
237.082, 566.327
238.456, 525.886
239.830, 490.486
241.204, 534.121
242.577, 619.786
243.951, 656.476
245.323, 726.187
246.696, 505.912
248.069, 394.648
249.441, 313.389
250.813, 190.134
252.185, 215.882
253.557, 179.633
254.928, 199.385
256.299, 165.142
257.670, 132.856
259.041, 236.542
260.411, 236.357
261.782, 235.154
263.152, 333.505
264.522, 233.076
265.891, 241.617
267.261, 270.132
268.630, 370.661
269.999, 401.212
271.368, 517.785
272.736, 586.381
274.104, 701.999
275.473, 836.641
276.840, 757.305
278.208, 790.993
279.576, 572.704
280.943, 553.439
282.310, 626.197
283.677, 607.979
285.043, 639.784
286.409, 637.614
287.776, 585.467
289.141, 551.345
290.507, 477.247
291.873, 327.173
293.238, 225.122
294.603, 176.095
295.968, 75.092
297.332, 145.112
298.697, 139.154
300.061, 80.220
301.425, 214.307
302.788, 205.417
304.152, 332.547
305.515, 337.191
306.878, 519.725
308.241, 543.143
309.603, 572.409
310.966, 700.762
312.328, 754.066
313.690, 881.318
315.052, 792.517
316.413, 637.662
317.774, 596.758
319.136, 616.796
320.496, 683.777
321.857, 619.696
323.217, 680.553
324.578, 837.356
325.938, 972.109
327.297, 935.821
328.657, 922.495
330.016, 897.131
331.375, 849.638
332.734, 845.074
334.093, 815.470
335.451, 885.802
336.810, 959.047
338.168, 931.187
339.525, 1068.270
340.883, 1147.307
342.240, 1272.355
343.597, 1397.418
344.954, 1518.759
346.311, 1666.448
347.668, 1824.556
349.024, 1953.523
350.380, 2177.490
351.736, 2430.570
353.091, 2908.607
354.447, 3282.494
355.802, 4020.064
357.157, 4707.688
358.512, 5906.323
359.866, 7544.808
361.221, 9734.438
362.575, 13363.897
363.928, 17043.410
365.282, 19959.695
366.636, 24990.631
367.989, 26338.523
369.342, 29275.902
370.695, 31853.924
372.047, 37192.645
373.400, 37401.453
374.752, 33769.539
376.104, 28179.354
377.455, 20609.613
378.807, 15720.128
380.158, 11360.660
381.509, 8881.216
382.860, 6911.793
384.211, 5318.394
385.561, 4525.018
386.911, 3509.661
388.261, 3068.326
389.611, 2574.011
390.961, 2224.717
392.310, 1976.439
393.659, 1724.177
395.008, 1566.410
396.357, 1464.702
397.705, 1367.493
399.053, 1354.302
400.401, 1326.130
401.749, 1365.970
403.097, 1339.827
404.444, 1509.700
405.791, 1589.590
407.138, 1955.501
408.485, 2577.431
409.832, 3376.380
411.178, 4507.351
412.524, 5157.338
413.870, 4840.343
415.216, 3853.360
416.561, 2683.400
417.906, 1887.456
419.251, 1323.530
420.596, 1048.619
421.941, 797.721
423.285, 580.658
424.629, 597.956
425.973, 366.088
427.317, 383.235
428.661, 274.393
430.004, 220.564
431.347, 236.744
432.690, 243.932
434.032, 242.130
435.375, 226.334
436.717, 183.547
438.059, 186.768
439.401, 194.996
440.743, 238.231
442.084, 220.475
443.425, 180.725
444.766, 254.980
446.107, 265.240
447.447, 446.508
448.788, 476.781
450.128, 530.058
451.468, 584.333
452.807, 603.605
454.147, 681.875
455.486, 674.144
456.825, 644.410
458.164, 695.673
459.502, 640.935
460.841, 634.195
462.179, 577.453
463.517, 636.710
464.855, 609.965
466.192, 623.218
467.530, 557.471
468.867, 546.722
470.204, 564.177
471.540, 573.414
472.877, 587.471
474.213, 620.719
475.549, 588.967
476.885, 534.215
478.221, 425.463
479.556, 484.711
480.891, 396.960
482.226, 386.210
483.561, 374.460
484.895, 417.713
486.230, 455.966
487.564, 470.221
488.898, 656.477
490.232, 709.733
491.565, 860.992
492.898, 946.250
494.231, 998.320
495.564, 1048.769
496.897, 1063.791
498.229, 1003.294
499.562, 1047.556
500.894, 1013.074
502.225, 973.440
503.557, 960.133
504.888, 907.915
506.220, 863.884
507.550, 790.670
508.881, 752.681
510.212, 646.662
511.542, 565.358
512.872, 499.589
514.202, 525.632
515.532, 513.232
516.861, 539.525
518.191, 598.857
519.520, 625.172
520.848, 752.593
522.177, 862.540
523.505, 972.453
524.834, 964.426
526.162, 791.995
527.489, 702.974
528.817, 668.968
530.144, 555.374
531.472, 726.215
532.798, 798.678
534.125, 978.228
535.452, 1305.192
536.778, 1663.615
538.104, 2334.756
539.430, 3143.079
540.756, 4635.911
542.081, 6564.158
543.406, 8947.379
544.731, 11239.391
546.056, 10742.096
547.381, 8875.127
548.705, 6397.765
550.030, 4254.516
551.354, 2953.850
552.677, 1996.201
554.001, 1411.864
555.324, 1073.552
556.647, 793.290
557.970, 794.100
559.293, 574.147
560.616, 560.663
561.938, 511.556
563.260, 512.151
564.582, 517.194
565.904, 495.610
567.225, 533.128
568.546, 516.480
569.868, 538.015
571.188, 539.790
572.509, 551.626
573.829, 549.301
575.150, 571.562
576.470, 534.070
577.790, 517.160
579.109, 499.493
580.429, 577.719
581.748, 504.865
583.067, 607.239
584.385, 610.577
585.704, 701.579
587.022, 750.514
588.340, 760.361
589.658, 785.680
590.976, 641.604
592.294, 556.375
593.611, 516.349
594.928, 422.964
596.245, 430.559
597.562, 404.251
598.878, 451.822
600.194, 552.359
601.510, 479.876
602.826, 638.373
604.142, 634.916
605.457, 642.373
606.773, 700.809
608.088, 746.226
609.402, 786.622
610.717, 781.998
612.031, 776.352
613.346, 876.687
614.660, 818.000
615.973, 898.293
617.287, 998.564
618.600, 892.815
619.913, 1013.044
621.226, 1063.252
622.539, 1203.439
623.852, 1201.604
625.164, 1253.748
626.476, 1206.869
627.788, 1139.969
629.100, 1120.047
630.411, 886.103
631.722, 797.137
633.033, 646.149
634.344, 689.138
635.655, 522.155
636.965, 445.050
638.276, 286.972
639.586, 241.871
640.896, 131.748
642.205, 135.602
643.515, 53.432
644.824, 37.237
646.133, 22.014
647.442, 5.762
648.750, 22.480
650.059, 4.170
651.367, 37.172
652.675, 24.554
653.983, 47.107
655.290, 38.437
656.598, 61.941
657.905, 48.491
659.212, 52.084
660.518, 46.722
661.825, 53.404
663.131, 76.130
664.437, 31.906
665.743, 77.723
667.049, 60.589
668.354, 78.503
669.660, 79.417
670.965, 54.480
672.270, 73.540
673.574, 57.649
674.879, 61.805
676.183, 37.007
677.487, 14.250
678.791, 45.531
680.095, 10.854
681.398, 76.213
682.701, 51.623
684.005, 51.077
685.307, 0.425
686.610, 30.106
687.912, 44.677
689.215, 28.291
690.517, 76.944
691.818, 59.646
693.120, 61.028
694.421, 75.190
695.723, 34.034
697.024, 36.918
698.324, 2.158
699.625, 94.799
700.925, 29.808
702.226, 46.856
703.526, 34.946
704.825, 12.077
706.125, 25.759
707.424, 10.566
708.723, 31.344
710.022, 36.905
711.321, 5.194
712.620, 21.515
713.918, 16.128
715.216, 25.743
716.514, 2.331
717.812, 57.888
719.109, 9.421
720.407, 19.925
721.704, 32.401
723.001, 2.852
724.297, 3.273
725.594, 49.666
726.890, 59.033
728.186, 73.375
729.482, 0.306
730.778, 46.984
732.073, 75.248
733.369, 26.490
734.664, 99.706
735.959, 116.900
737.253, 72.073
738.548, 93.223
739.842, 131.619
741.136, 100.590
742.430, 129.728
743.724, 78.606
745.017, 145.648
746.310, 133.669
747.603, 139.669
748.896, 157.648
750.189, 127.607
751.481, 98.545
752.774, 143.463
754.066, 113.361
755.357, 166.239
756.649, 126.096
757.941, 167.934
759.232, 117.752
760.523, 152.550
761.814, 237.329
763.104, 234.089
764.395, 156.829
765.685, 238.551
766.975, 237.253
768.265, 213.937
769.554, 245.602
770.844, 321.248
772.133, 278.876
773.422, 223.487
774.711, 299.078
775.999, 286.652
777.288, 325.208
778.576, 342.093
779.864, 347.268
781.152, 353.771
782.439, 375.258
783.727, 363.398
785.014, 367.446
786.301, 403.389
787.588, 433.131
788.874, 426.043
790.161, 484.715
791.447, 521.407
792.733, 532.374
794.019, 526.800
795.304, 587.410
796.590, 649.456
797.875, 714.550
799.160, 754.877
800.445, 917.399
801.729, 899.584
803.014, 1047.227
804.298, 1270.885
805.582, 1572.464
806.865, 1702.430
808.149, 2044.968
809.432, 2257.473
810.716, 2622.548
811.999, 3065.169
813.281, 3317.151
814.564, 3711.028
815.846, 3940.473
817.128, 4270.439
818.410, 4778.671
819.692, 5042.707
820.974, 5560.219
822.255, 5963.298
823.536, 6057.391
824.817, 6342.677
826.098, 6097.254
827.379, 6031.489
828.659, 5866.103
829.939, 5508.584
831.219, 5494.466
832.499, 5156.314
833.779, 5060.837
835.058, 4972.316
836.337, 4659.732
837.616, 4731.057
838.895, 4535.127
840.173, 4533.722
841.452, 4605.923
842.730, 4386.402
844.008, 4624.420
845.286, 4568.049
846.563, 4593.566
847.841, 4790.233
849.118, 4723.699
850.395, 4933.912
851.672, 4895.750
852.948, 5086.342
854.225, 5320.998
855.501, 5102.409
856.777, 5395.221
858.053, 5555.773
859.328, 5781.416
860.604, 6437.119
861.879, 6552.578
863.154, 7378.053
864.429, 8003.850
865.703, 8669.693
866.978, 10635.609
868.252, 11671.032
869.526, 13976.836
870.800, 16812.773
872.073, 19548.492
873.347, 24184.553
874.620, 28070.613
875.893, 32786.562
877.166, 37352.613
878.438, 38238.680
879.711, 40814.746
880.983, 36600.828
882.255, 32656.838
883.527, 29552.918
884.798, 23429.000
886.070, 20225.086
887.341, 16801.178
888.612, 13387.271
889.883, 11673.369
891.154, 9479.471
892.424, 8235.577
893.694, 7071.689
894.964, 6067.804
896.234, 5533.924
897.504, 4898.049
898.773, 4459.179
900.042, 4551.314
901.312, 4556.456
902.580, 4100.347
903.849, 3998.754
905.118, 3341.911
906.386, 3282.075
907.654, 2936.245
908.922, 2925.421
910.189, 2625.604
911.457, 2488.793
912.724, 2509.990
913.991, 2171.193
915.258, 2129.403
916.525, 1942.621
917.791, 1784.846
919.058, 1781.078
920.324, 1535.317
921.590, 1554.567
922.855, 1496.826
924.121, 1268.096
925.386, 1362.377
926.651, 1170.669
927.916, 1182.974
929.181, 1151.295
930.446, 970.633
931.710, 1075.992
932.974, 993.375
934.238, 872.772
935.502, 939.188
936.765, 826.825
938.029, 1061.279
939.292, 1039.795
940.555, 979.292
941.818, 1126.805
943.080, 1175.387
944.343, 1178.944
945.605, 1127.523
946.867, 1093.126
948.129, 1150.749
949.390, 1117.396
950.652, 1061.062
951.913, 1009.750
953.174, 831.484
954.435, 790.406
955.695, 702.445
956.956, 626.054
958.216, 578.986
959.476, 540.022
960.736, 515.847
961.995, 485.744
963.255, 463.706
964.514, 452.588
965.773, 483.110
967.032, 446.028
968.291, 453.968
969.549, 469.949
970.807, 633.934
972.066, 677.665
973.323, 697.688
974.581, 872.725
975.839, 820.041
977.096, 990.122
978.353, 1016.223
979.610, 1070.356
980.867, 1114.492
982.123, 1089.571
983.380, 1245.866
984.636, 1204.041
985.892, 1218.181
987.147, 1319.389
988.403, 1332.615
989.658, 1343.334
990.914, 1507.585
992.169, 1414.096
993.423, 1488.436
994.678, 1516.726
995.932, 1608.029
997.187, 1626.905
998.441, 1688.674
999.694, 1714.049
1000.948, 1813.404
1002.201, 1939.771
1003.455, 2158.148
1004.708, 2173.541
1005.961, 2217.945
1007.213, 2203.360
1008.466, 1913.789
1009.718, 1841.227
1010.970, 1454.676
1012.222, 1198.138
1013.474, 1011.609
1014.725, 846.092
1015.976, 713.587
1017.227, 635.094
1018.478, 461.610
1019.729, 433.138
1020.980, 341.677
1022.230, 308.229
1023.480, 291.790
1024.730, 263.362
1025.980, 262.950
1027.229, 185.548
1028.479, 127.158
1029.728, 225.786
1030.977, 177.425
1032.226, 234.076
1033.474, 160.741
1034.723, 186.417
1035.971, 162.109
1037.219, 82.813
1038.467, 122.527
1039.714, 183.264
1040.962, 168.010
1042.209, 150.772
1043.456, 141.548
1044.703, 135.335
1045.950, 172.136
1047.196, 103.948
1048.443, 168.772
1049.689, 113.611
1050.935, 92.460
1052.180, 128.320
1053.426, 88.190
1054.671, 96.745
1055.916, 100.966
1057.161, 74.870
1058.406, 76.784
1059.651, 36.708
1060.895, 22.644
1062.139, 95.589
1063.383, 20.551
1064.627, 13.521
1065.871, 67.343
1067.114, 3.334
1068.357, 80.335
1069.600, 46.347
1070.843, 22.633
1072.086, 101.394
1073.328, 4.567
1074.570, 29.479
1075.813, 16.536
1077.054, 5.399
1078.296, 57.673
1079.538, 38.753
1080.779, 26.840
1082.020, 75.933
1083.261, 6.040
1084.502, 62.152
1085.742, 11.272
1086.983, 1.596
1088.223, 21.460
1089.463, 28.318
1090.703, 59.173
1091.942, 16.033
1093.182, 74.887
1094.421, 7.250
1095.660, 62.606
1096.899, 20.466
1098.137, 18.675
1099.376, 47.180
1100.614, 22.963
1101.852, 16.110
1103.090, 62.737
1104.328, 67.410
1105.565, 49.440
1106.803, 4.705
1108.040, 70.854
1109.277, 113.996
1110.513, 28.136
1111.750, 35.271
1112.986, 59.592
1114.223, 60.544
1115.459, 98.318
1116.694, 13.196
1117.930, 26.925
1119.165, 54.951
1120.401, 24.175
1121.636, 63.303
1122.871, 33.569
1124.105, 115.556
1125.340, 20.318
1126.574, 5.195
1127.808, 106.930
1129.042, 43.054
1130.276, 83.180
1131.509, 53.305
1132.743, 1.569
1133.976, 84.561
1135.209, 56.691
1136.442, 49.820
1137.674, 103.951
1138.906, 88.080
1140.139, 99.209
1141.371, 170.343
1142.603, 53.471
1143.834, 180.598
1145.066, 97.958
1146.297, 175.083
1147.528, 253.206
1148.759, 156.829
1149.990, 183.950
1151.220, 305.067
1152.450, 101.430
1153.681, 240.546
1154.910, 155.154
1156.140, 189.298
1157.370, 103.539
1158.599, 192.494
1159.828, 139.757
1161.057, 152.257
1162.286, 175.123
1163.515, 133.216
1164.743, 189.818
1165.972, 175.784
1167.200, 151.918
1168.427, 100.587
1169.655, 117.858
1170.883, 111.095
1172.110, 92.928
1173.337, 155.042
1174.564, 79.219
1175.791, 135.214
1177.017, 149.685
1178.244, 57.651
1179.470, 177.114
1180.696, 113.513
1181.922, 58.792
1183.147, 152.103
1184.373, 70.396
1185.598, 75.855
1186.823, 90.238
1188.048, 57.814
1189.273, 65.389
1190.497, 61.447
1191.722, 67.907
1192.946, 149.311
1194.170, 96.077
1195.393, 128.330
1196.617, 101.270
1197.840, 24.163
1199.064, 105.219
1200.287, 49.625
1201.509, 57.195
1202.732, 109.295
1203.954, 70.319
1205.177, 137.301
1206.399, 106.399
1207.621, 71.055
1208.842, 143.070
1210.064, 81.325
1211.285, 110.351
1212.506, 90.418
1213.727, 95.226
1214.948, 116.608
1216.169, 118.454
1217.389, 86.438
1218.609, 123.745
1219.829, 189.474
1221.049, 153.667
1222.269, 209.402
1223.488, 108.277
1224.708, 204.220
1225.927, 152.915
1227.146, 192.782
1228.364, 167.047
1229.583, 193.519
1230.801, 129.222
1232.019, 247.460
1233.237, 163.098
1234.455, 169.275
1235.673, 199.216
1236.890, 102.819
1238.107, 241.798
1239.324, 230.401
1240.541, 226.970
1241.758, 227.467
1242.975, 234.013
1244.191, 160.744
1245.407, 204.706
1246.623, 154.217
1247.839, 240.138
1249.054, 176.493
1250.270, 181.968
1251.485, 299.958
1252.700, 163.409
1253.915, 210.882
1255.129, 292.985
1256.344, 181.400
1257.558, 283.598
1258.772, 223.215
1259.986, 135.593
1261.200, 273.077
1262.413, 152.434
1263.627, 125.778
1264.840, 301.152
1266.053, 112.472
1267.266, 124.778
1268.478, 141.332
1269.691, 113.613
1270.903, 196.874
1272.115, 78.283
1273.327, 106.526
1274.539, 185.853
1275.750, 31.075
1276.961, 92.288
1278.173, 111.489
1279.384, 5.680
1280.594, 113.853
1281.805, 118.013
1283.015, 32.155
1284.226, 85.279
1285.436, 7.384
1286.646, 79.474
1287.855, 58.636
1289.065, 8.321
1290.274, 53.699
1291.483, 15.702
1292.692, 47.315
1293.901, 90.644
1295.109, 8.622
1296.318, 8.454
1297.526, 80.449
1298.734, 38.673
1299.942, 50.182
1301.150, 57.018
1302.357, 85.164
1303.564, 64.621
1304.771, 17.615
1305.978, 9.873
1307.185, 17.850
1308.392, 8.737
1309.598, 18.226
1310.804, 24.879
1312.010, 22.489
1313.216, 34.122
1314.422, 36.714
1315.627, 17.289
1316.832, 24.845
1318.037, 8.382
1319.242, 8.312
1320.447, 82.401
1321.652, 15.886
1322.856, 20.353
1324.060, 44.792
1325.264, 46.786
1326.468, 106.591
1327.672, 7.028
1328.875, 18.532
1330.078, 15.855
1331.281, 5.160
1332.484, 57.446
1333.687, 32.706
1334.890, 14.052
1336.092, 44.168
1337.294, 0.629
1338.496, 67.551
1339.698, 20.715
1340.900, 61.861
1342.101, 50.988
1343.302, 108.098
1344.503, 33.810
1345.704, 93.258
1346.905, 61.309
1348.106, 31.611
1349.306, 186.398
1350.506, 8.391
1351.706, 43.366
1352.906, 111.325
1354.106, 32.271
1355.305, 59.202
1356.504, 70.122
1357.703, 16.024
1358.902, 111.913
1360.101, 98.787
1361.300, 60.645
1362.498, 113.490
1363.696, 16.318
1364.894, 37.402
1366.092, 175.199
1367.290, 84.982
1368.487, 104.775
1369.684, 190.531
1370.881, 68.285
1372.078, 183.022
1373.275, 67.745
1374.472, 26.435
1375.668, 206.256
1376.864, 37.933
1378.060, 145.716
1379.256, 191.375
1380.452, 69.981
1381.647, 151.644
1382.842, 104.247
1384.038, 77.837
1385.233, 141.414
1386.427, 102.979
1387.622, 49.525
1388.816, 221.059
1390.010, 86.573
1391.204, 174.264
1392.398, 164.750
1393.592, 8.776
1394.785, 204.887
1395.979, 155.174
1397.172, 57.477
1398.365, 217.095
1399.558, 128.221
1400.750, 80.583
1401.943, 271.932
1403.135, 95.021
1404.327, 174.810
1405.519, 222.095
1406.710, 120.100
1407.902, 191.779
1409.093, 264.938
1410.284, 142.518
1411.475, 248.735
1412.666, 177.315
1413.857, 114.562
1415.047, 310.207
1416.238, 92.001
1417.428, 259.584
1418.617, 235.937
1419.807, 164.895
1420.997, 244.910
1422.186, 161.852
1423.375, 103.470
1424.564, 275.416
1425.753, 203.998
1426.942, 138.027
1428.130, 271.881
1429.318, 167.271
1430.507, 127.731
1431.694, 309.383
1432.882, 168.476
1434.070, 249.120
1435.257, 215.982
1436.444, 218.215
1437.631, 243.251
1438.818, 177.421
1440.005, 247.389
1441.191, 261.133
1442.378, 171.814
1443.564, 174.230
1444.750, 327.041
1445.936, 194.369
1447.121, 271.981
1448.307, 298.895
1449.492, 131.686
1450.677, 310.439
1451.862, 253.035
1453.047, 253.420
1454.231, 334.057
1455.415, 85.862
1456.600, 196.416
1457.784, 317.612
1458.967, 156.157
1460.151, 256.875
1461.335, 304.484
1462.518, 141.590
1463.701, 383.180
1464.884, 205.403
1466.067, 180.684
1467.249, 343.090
1468.432, 145.446
1469.614, 152.770
1470.796, 308.090
1471.978, 130.173
1473.159, 304.510
1474.341, 233.836
1475.522, 88.059
1476.703, 231.348
1477.884, 238.657
1479.065, 122.956
1480.246, 262.272
1481.426, 234.575
1482.607, 171.889
1483.787, 316.229
1484.967, 142.558
1486.146, 171.872
1487.326, 261.171
1488.505, 131.439
1489.685, 266.709
1490.864, 133.062
1492.042, 37.184
1493.221, 306.571
1494.400, 152.975
1495.578, 90.422
1496.756, 289.876
1497.934, 92.336
1499.112, 175.808
1500.289, 166.301
1501.467, 70.581
1502.644, 109.101
1503.821, 203.640
1504.998, 71.202
1506.175, 203.787
1507.351, 133.402
1508.528, 111.057
1509.704, 184.728
1510.880, 171.332
1512.056, 125.766
1513.232, 164.273
1514.407, 122.749
1515.582, 135.293
1516.758, 194.399
1517.933, 17.311
1519.107, 123.152
1520.282, 139.564
1521.456, 58.103
1522.631, 81.396
1523.805, 54.883
1524.979, 3.168
1526.152, 0.000
##END=



