##NAMES=Grossular
##RRUFFID=R060382
##IDEAL CHEMISTRY=Ca_3_Al_2_(SiO_4_)_3_
##LOCALITY=Lalatema, near Mount Kilimanjaro, Tanzania
##OWNER=RRUFF
##SOURCE=Herb Obodda
##DESCRIPTION=Pale tan colored fragment
##STATUS=The identification of this mineral has been confirmed by X-ray diffraction and chemical analysis
##URL=rruff.info/R060382
##MEASURED CHEMISTRY=(Ca_2.95_Mg_0.03_Mn_0.02_)_Σ=3_Al_2.00_((Si_0.99_Ti_0.01_)_Σ=1_O_4_)_3_; trace amounts of Fe
##PIN_ID=L01581
##ORIENTATION=Laser parallel to -a* (-1 0 0). Fiducial mark perpendicular to laser is parallel to 0 1 0
118.5340, 0.0000000E+00
119.7720, 33.80566
121.0100, 18.88013
122.2470, 9.210693
123.4850, 39.94263
124.7220, 36.29431
125.9590, 15.93457
127.1960, 2.113281
128.4330, 2.824219
129.6700, 9.872314
130.9060, 38.03857
132.1430, 40.30627
133.3790, 29.64453
134.6150, 1.1230000E-02
135.8500, 9.455078
137.0860, 13.96216
138.3210, 12.52234
139.5560, 45.22083
140.7910, 16.94299
142.0260, 57.83789
143.2610, 44.75146
144.4950, 58.68359
145.7290, 25.61792
146.9630, 3.442505
148.1970, 7.656616
149.4310, 7.747437
150.6640, 66.83386
151.8980, 42.91882
153.1310, 81.00452
154.3640, 69.09204
155.5970, 27.18262
156.8290, 48.27673
158.0620, 44.37415
159.2940, 50.01575
160.5260, 47.07507
161.7580, 86.14038
162.9890, 26.21252
164.2210, 51.13721
165.4520, 81.15527
166.6830, 118.1901
167.9140, 87.92175
169.1450, 124.9769
170.3760, 214.0516
171.6060, 342.1451
172.8360, 408.2563
174.0660, 466.3855
175.2960, 522.5317
176.5260, 606.3195
177.7550, 914.4250
178.9840, 1083.549
180.2130, 1210.690
181.4420, 1297.848
182.6710, 982.0215
183.9000, 743.2092
185.1280, 541.4099
186.3560, 426.6224
187.5840, 282.8456
188.8120, 209.0780
190.0400, 103.3191
191.2670, 100.5677
192.4950, 43.82202
193.7220, 110.0786
194.9490, 47.33728
196.1750, 47.59790
197.4020, 8.857544
198.6280, 10.88013
199.8540, 37.38477
201.0800, 67.65247
202.3060, 51.92334
203.5320, 109.1998
204.7570, 25.48071
205.9830, 9.778076
207.2080, 3.080688
208.4330, 14.39929
209.6570, 20.22986
210.8820, 9.172607
212.1060, 23.62451
213.3310, 8.059692
214.5550, 47.52026
215.7780, 8.009277
217.0020, 7.469604
218.2260, 56.05835
219.4490, 38.61694
220.6720, 16.18115
221.8950, 22.74951
223.1180, 27.32190
224.3400, 48.89880
225.5630, 25.48022
226.7850, 20.06506
228.0070, 16.66675
229.2290, 38.28210
230.4500, 77.89905
231.6720, 17.52124
232.8930, 95.14697
234.1140, 30.20032
235.3350, 37.45435
236.5560, 14.10730
237.7770, 30.75366
238.9970, 69.39392
240.2170, 75.03845
241.4370, 56.68384
242.6570, 115.3258
243.8770, 55.96765
245.0960, 67.60828
246.3160, 78.24670
247.5350, 118.8839
248.7540, 56.51831
249.9730, 27.14111
251.1910, 81.75012
252.4100, 125.3512
253.6280, 78.94446
254.8460, 62.52979
256.0640, 25.10742
257.2810, 87.67798
258.4990, 62.24109
259.7160, 65.79639
260.9330, 69.34387
262.1500, 47.88354
263.3670, 57.21863
264.5840, 33.93994
265.8000, 55.36340
267.0170, 51.78979
268.2330, 43.21313
269.4490, 101.6365
270.6640, 90.04004
271.8800, 120.4524
273.0950, 82.87158
274.3100, 77.10229
275.5260, 109.5322
276.7400, 167.9675
277.9550, 122.4075
279.1690, 114.8521
280.3840, 87.29541
281.5980, 97.73657
282.8120, 81.18726
284.0260, 55.64087
285.2390, 65.12524
286.4530, 78.70288
287.6660, 57.28564
288.8790, 73.74927
290.0920, 41.27783
291.3040, 75.78149
292.5170, 18.24829
293.7290, 39.55640
294.9410, 41.41968
296.1530, 54.00146
297.3650, 30.78394
298.5770, 38.33154
299.7880, 24.46460
301.0000, 58.30371
302.2110, 86.00439
303.4220, 25.92944
304.6320, 29.83691
305.8430, 77.71167
307.0530, 156.4646
308.2630, 150.2334
309.4730, 142.8628
310.6830, 173.9036
311.8930, 198.5916
313.1030, 249.4336
314.3120, 234.2930
315.5210, 300.2065
316.7300, 289.0020
317.9390, 322.8201
319.1470, 274.6521
320.3560, 355.5210
321.5640, 377.3723
322.7720, 352.1531
323.9800, 365.0002
325.1880, 348.7922
326.3950, 355.6001
327.6030, 358.3955
328.8100, 337.3237
330.0170, 303.1299
331.2240, 304.9688
332.4300, 274.6980
333.6370, 283.5769
334.8430, 239.5776
336.0490, 219.0681
337.2550, 207.9736
338.4610, 192.7524
339.6660, 195.4092
340.8720, 244.3284
342.0770, 263.2546
343.2820, 276.1636
344.4870, 322.5894
345.6920, 262.2173
346.8960, 354.7051
348.1010, 361.6597
349.3050, 488.3708
350.5090, 528.2192
351.7130, 600.7563
352.9160, 591.3926
354.1200, 723.9524
355.3230, 853.7646
356.5260, 1015.275
357.7290, 1158.140
358.9320, 1400.831
360.1350, 1813.142
361.3370, 2232.787
362.5390, 2744.108
363.7410, 3264.637
364.9430, 3881.376
366.1450, 4752.131
367.3470, 5665.720
368.5480, 6317.347
369.7490, 6841.990
370.9500, 7251.664
372.1510, 7712.050
373.3520, 7823.874
374.5520, 7771.334
375.7530, 7228.827
376.9530, 6174.574
378.1530, 5182.828
379.3520, 4100.867
380.5520, 3236.112
381.7510, 2585.349
382.9510, 1996.581
384.1500, 1612.808
385.3490, 1264.029
386.5480, 1139.246
387.7460, 892.4570
388.9440, 720.6628
390.1430, 614.8630
391.3410, 567.0574
392.5390, 540.2759
393.7360, 461.5503
394.9340, 445.7266
396.1310, 460.8953
397.3280, 447.0571
398.5250, 402.2139
399.7220, 411.3638
400.9190, 416.5073
402.1150, 320.6533
403.3120, 399.7927
404.5080, 398.9265
405.7040, 470.0537
406.8990, 526.1743
408.0950, 622.2883
409.2900, 693.3955
410.4860, 825.4995
411.6810, 936.5969
412.8760, 1077.687
414.0700, 1317.771
415.2650, 1472.851
416.4590, 1504.923
417.6540, 1391.994
418.8480, 1132.058
420.0420, 923.1152
421.2350, 765.1646
422.4290, 551.3257
423.6220, 449.3601
424.8150, 314.4890
426.0080, 245.5088
427.2010, 154.5193
428.3940, 93.52393
429.5860, 72.77588
430.7790, 72.89258
431.9710, 119.0972
433.1630, 88.07080
434.3540, 95.16162
435.5460, 123.2256
436.7370, 8.769287
437.9290, 12.32300
439.1200, 80.23682
440.3110, 15.55469
441.5010, 90.44189
442.6920, 55.68530
443.8820, 22.23926
445.0730, 31.93726
446.2630, 2.854980
447.4530, 7.616455
448.6420, 14.39185
449.8320, 44.15308
451.0210, 40.90918
452.2100, 47.33105
453.3990, 0.6101070
454.5880, 59.09253
455.7770, 34.21948
456.9660, 18.47192
458.1540, 6.353027
459.3420, 35.50342
460.5300, 33.62769
461.7180, 28.33179
462.9050, 20.36084
464.0930, 25.48438
465.2800, 39.29590
466.4670, 24.34229
467.6540, 38.18896
468.8410, 34.96582
470.0280, 38.73975
471.2140, 7.577393
472.4000, 37.36548
473.5870, 30.28442
474.7720, 57.00366
475.9580, 21.64453
477.1440, 1.420654
478.3290, 27.14893
479.5140, 16.24707
480.6990, 46.71558
481.8840, 76.28540
483.0690, 13.79443
484.2540, 12.17432
485.4380, 16.46777
486.6220, 28.73950
487.8060, 11.01001
488.9900, 26.79028
490.1740, 5.392334
491.3570, 63.54834
492.5410, 30.78174
493.7240, 105.0916
494.9070, 81.38257
496.0900, 99.48242
497.2720, 64.52197
498.4550, 110.8179
499.6370, 25.92773
500.8190, 67.22241
502.0010, 4.677979
503.1830, 77.66528
504.3650, 100.2363
505.5460, 105.6594
506.7280, 55.00146
507.9090, 51.24829
509.0900, 90.66797
510.2710, 80.82959
511.4510, 77.05200
512.6320, 69.61499
513.8120, 138.2629
514.9920, 33.98901
516.1720, 120.7202
517.3520, 113.0354
518.5310, 52.58276
519.7110, 222.8638
520.8900, 115.0474
522.0690, 222.2900
523.2480, 258.3013
524.4270, 298.6968
525.6050, 311.0874
526.7840, 401.2634
527.9620, 374.7734
529.1400, 231.1240
530.3180, 267.4189
531.4960, 207.6255
532.6730, 219.8604
533.8510, 174.1279
535.0280, 160.1519
536.2050, 251.2798
537.3820, 278.0049
538.5590, 407.0894
539.7350, 454.2610
540.9120, 644.1978
542.0880, 854.2515
543.2640, 1153.231
544.4400, 1312.179
545.6150, 1660.352
546.7910, 1992.235
547.9660, 2226.240
549.1410, 2272.068
550.3170, 2088.005
551.4910, 1755.417
552.6660, 1378.177
553.8410, 1112.853
555.0150, 824.5286
556.1890, 672.0376
557.3630, 553.5488
558.5370, 398.4351
559.7110, 412.0713
560.8840, 321.5986
562.0570, 229.2344
563.2310, 181.8027
564.4040, 257.3792
565.5760, 187.6624
566.7490, 266.5781
567.9220, 266.7183
569.0940, 224.6399
570.2660, 155.8938
571.4380, 189.5764
572.6100, 167.3975
573.7820, 222.0090
574.9530, 192.1819
576.1240, 197.2178
577.2960, 208.4248
578.4670, 185.5710
579.6370, 227.2236
580.8080, 154.2544
581.9790, 199.7947
583.1490, 302.3125
584.3190, 202.6318
585.4890, 263.4688
586.6590, 274.8442
587.8280, 306.1125
588.9980, 373.6956
590.1670, 440.9907
591.3360, 325.2537
592.5050, 246.7544
593.6740, 300.2485
594.8430, 257.0591
596.0110, 272.2434
597.1790, 235.3540
598.3480, 187.4712
599.5160, 122.7478
600.6830, 200.5935
601.8510, 175.0044
603.0180, 156.3242
604.1860, 131.5002
605.3530, 211.7041
606.5200, 156.3894
607.6870, 205.2852
608.8530, 218.5364
610.0200, 216.1509
611.1860, 197.7732
612.3520, 205.8552
613.5180, 177.5173
614.6840, 221.6858
615.8500, 237.1296
617.0150, 201.5193
618.1800, 293.0452
619.3450, 296.5137
620.5100, 259.4395
621.6750, 231.2766
622.8400, 242.4478
624.0040, 269.3254
625.1690, 286.0557
626.3330, 291.7644
627.4970, 324.1167
628.6610, 294.5508
629.8240, 322.2363
630.9880, 341.9543
632.1510, 265.7639
633.3140, 242.5476
634.4770, 242.2009
635.6400, 282.5105
636.8020, 291.9700
637.9650, 225.8721
639.1270, 265.1082
640.2890, 214.7307
641.4510, 255.9529
642.6130, 190.2603
643.7750, 130.5647
644.9360, 160.2603
646.0980, 174.2202
647.2590, 190.9746
648.4200, 143.5735
649.5810, 199.3721
650.7410, 179.1787
651.9020, 91.99292
653.0620, 65.77148
654.2220, 42.13672
655.3820, 34.82739
656.5420, 128.6177
657.7020, 67.58691
658.8610, 125.2378
660.0200, 143.0066
661.1800, 124.4551
662.3390, 174.0115
663.4970, 76.59180
664.6560, 71.84766
665.8150, 117.2644
666.9730, 31.11035
668.1310, 62.87866
669.2890, 69.58618
670.4470, 84.23389
671.6050, 70.82178
672.7620, 56.34766
673.9200, 107.7864
675.0770, 76.10522
676.2340, 165.4568
677.3910, 72.75122
678.5470, 44.98535
679.7040, 94.15918
680.8600, 59.27393
682.0160, 22.67114
683.1720, 70.30664
684.3280, 9.225830
685.4840, 71.08398
686.6390, 34.88623
687.7950, 69.64087
688.9500, 36.33838
690.1050, 1.023682
691.2600, 63.54907
692.4150, 76.06470
693.5690, 68.52441
694.7240, 5.072754
695.8780, 92.26489
697.0320, 12.45630
698.1860, 46.75122
699.3400, 64.89868
700.4930, 30.98633
701.6470, 39.01318
702.8000, 28.85815
703.9530, 90.75928
705.1060, 0.5019530
706.2590, 108.2744
707.4110, 2.010254
708.5640, 57.63818
709.7160, 17.03418
710.8680, 36.35254
712.0200, 24.57764
713.1720, 32.95801
714.3230, 63.14844
715.4750, 22.28955
716.6260, 41.40625
717.7770, 42.36523
718.9280, 12.42676
720.0790, 70.11572
721.2300, 5.066406
722.3800, 20.79395
723.5300, 16.49951
724.6810, 92.23096
725.8300, 54.90576
726.9800, 47.48779
728.1300, 40.02490
729.2790, 25.52930
730.4290, 62.16650
731.5780, 22.09180
732.7270, 74.29053
733.8760, 59.42236
735.0240, 12.51807
736.1730, 15.43994
737.3210, 17.89600
738.4700, 105.5659
739.6180, 36.08887
740.7650, 2.813477
741.9130, 1.700684
743.0610, 67.77637
744.2080, 27.65137
745.3550, 32.96973
746.5020, 134.0244
747.6490, 31.88867
748.7960, 21.66357
749.9430, 107.2798
751.0890, 49.14648
752.2350, 84.18701
753.3810, 32.62842
754.5270, 8.054199
755.6730, 4.744629
756.8190, 47.71094
757.9640, 66.10400
759.1090, 105.3364
760.2540, 42.38135
761.3990, 37.39893
762.5440, 58.45801
763.6890, 55.51367
764.8330, 140.5010
765.9780, 163.2310
767.1220, 124.2817
768.2660, 231.0811
769.4100, 254.8169
770.5530, 215.3887
771.6970, 307.7944
772.8400, 353.1309
773.9830, 322.5718
775.1260, 408.9849
776.2690, 361.0586
777.4120, 420.2305
778.5540, 294.7007
779.6970, 351.7500
780.8390, 258.7139
781.9810, 420.6377
783.1230, 341.0947
784.2650, 325.8740
785.4060, 346.1860
786.5480, 324.3721
787.6890, 299.4214
788.8300, 280.6606
789.9710, 267.6792
791.1120, 181.9189
792.2520, 224.8794
793.3930, 273.5015
794.5330, 208.7397
795.6730, 210.2407
796.8130, 284.5923
797.9530, 293.1958
799.0930, 309.1851
800.2320, 290.3892
801.3710, 353.9028
802.5110, 301.7651
803.6500, 425.1973
804.7880, 566.7100
805.9270, 571.5298
807.0660, 543.5981
808.2040, 514.4448
809.3420, 669.9150
810.4800, 714.5278
811.6180, 728.8379
812.7560, 697.8174
813.8930, 816.7051
815.0310, 852.5366
816.1680, 802.3442
817.3050, 862.1719
818.4420, 876.9424
819.5790, 892.7412
820.7150, 936.5991
821.8520, 975.4165
822.9880, 1090.775
824.1240, 1002.393
825.2600, 938.5435
826.3960, 1076.147
827.5320, 935.4072
828.6670, 827.4023
829.8020, 822.6719
830.9380, 790.7402
832.0730, 722.8354
833.2080, 812.3252
834.3420, 749.5269
835.4770, 733.7715
836.6110, 799.9780
837.7450, 761.1450
838.8790, 739.7578
840.0130, 768.1426
841.1470, 734.3584
842.2810, 775.8584
843.4140, 893.3052
844.5470, 936.4907
845.6800, 955.1948
846.8130, 851.7422
847.9460, 977.7451
849.0790, 966.1143
850.2110, 1008.164
851.3440, 1033.435
852.4760, 1018.668
853.6080, 1161.379
854.7400, 1163.939
855.8710, 1262.997
857.0030, 1187.799
858.1340, 1415.269
859.2650, 1471.060
860.3960, 1632.477
861.5270, 1774.220
862.6580, 1897.322
863.7890, 2193.585
864.9190, 2454.103
866.0490, 2528.735
867.1790, 3060.401
868.3090, 3616.584
869.4390, 4306.436
870.5690, 5020.165
871.6980, 5669.795
872.8270, 6747.284
873.9570, 7928.571
875.0860, 9286.873
876.2140, 10618.50
877.3430, 11485.03
878.4720, 12261.52
879.6000, 12473.87
880.7280, 12087.66
881.8560, 11360.04
882.9840, 10323.98
884.1120, 9070.396
885.2390, 8346.691
886.3670, 7238.252
887.4940, 6451.219
888.6210, 5747.935
889.7480, 5318.366
890.8750, 5084.635
892.0020, 4676.841
893.1280, 4309.330
894.2540, 3957.975
895.3810, 3690.304
896.5070, 3361.738
897.6320, 2968.633
898.7580, 2606.890
899.8840, 2120.324
901.0090, 1717.205
902.1340, 1461.029
903.2590, 1214.562
904.3840, 1085.037
905.5090, 830.8975
906.6340, 761.2002
907.7580, 686.5171
908.8820, 581.6309
910.0060, 575.9971
911.1300, 506.6914
912.2540, 506.1938
913.3780, 368.6479
914.5010, 495.9043
915.6250, 437.3779
916.7480, 372.7026
917.8710, 500.1782
918.9940, 421.9629
920.1160, 296.4116
921.2390, 263.5923
922.3610, 337.0776
923.4840, 256.7939
924.6060, 269.8462
925.7280, 287.3232
926.8490, 137.2510
927.9710, 194.7109
929.0930, 362.9067
930.2140, 221.0884
931.3350, 297.7329
932.4560, 238.7432
933.5770, 351.4980
934.6980, 333.7520
935.8180, 384.1152
936.9380, 280.6348
938.0590, 173.5645
939.1790, 304.7881
940.2990, 248.6738
941.4180, 183.6250
942.5380, 237.8428
943.6570, 298.2695
944.7770, 31.59473
945.8960, 104.5977
947.0150, 138.3320
948.1340, 233.6357
949.2520, 139.8691
950.3710, 102.0449
951.4890, 132.2900
952.6070, 95.49316
953.7260, 83.04492
954.8430, 64.43457
955.9610, 33.05273
957.0790, 3.065430
958.1960, 56.90137
959.3130, 7.296875
960.4310, 50.67871
961.5480, 33.38672
962.6640, 14.42578
963.7810, 6.013672
964.8970, 0.6152340
966.0140, 3.698242
967.1300, 62.05859
968.2460, 43.10742
969.3620, 58.36621
970.4780, 66.77246
971.5930, 48.37402
972.7090, 117.8096
973.8240, 146.0439
974.9390, 52.32422
976.0540, 53.83008
977.1690, 176.7939
978.2830, 71.74414
979.3980, 224.7314
980.5120, 80.22754
981.6260, 175.4150
982.7400, 311.2920
983.8540, 154.9531
984.9680, 355.6367
986.0820, 308.1494
987.1950, 195.1055
988.3080, 214.1426
989.4210, 284.1230
990.5340, 386.4639
991.6470, 260.3896
992.7600, 301.5244
993.8720, 309.2588
994.9850, 345.6660
996.0970, 442.6211
997.2090, 303.8125
998.3210, 289.1074
999.4320, 269.0918
1000.544, 409.7529
1001.655, 529.8525
1002.767, 401.7520
1003.878, 634.1562
1004.989, 368.6240
1006.100, 603.8057
1007.210, 569.8740
1008.321, 677.8369
1009.431, 654.7178
1010.541, 712.5000
1011.651, 701.1699
1012.761, 920.7285
1013.871, 999.1904
1014.980, 1105.541
1016.090, 1143.784
1017.199, 1111.236
1018.308, 1100.566
1019.417, 976.8203
1020.526, 760.9609
1021.635, 570.0479
1022.743, 565.8252
1023.852, 309.7373
1024.960, 230.5635
1026.068, 266.1719
1027.176, 225.4248
1028.283, 131.2715
1029.391, 208.9795
1030.498, 128.5361
1031.606, 223.9482
1032.713, 171.7773
1033.820, 150.6260
1034.927, 366.5771
1036.033, 162.7754
1037.140, 234.4141
1038.246, 167.3379
1039.353, 215.0938
1040.459, 281.5947
1041.564, 153.4346
1042.670, 238.6963
1043.776, 222.1709
1044.881, 197.5264
1045.987, 233.5195
1047.092, 168.7148
1048.197, 159.1328
1049.302, 118.1025
1050.406, 164.6230
1051.511, 199.4951
1052.615, 238.8701
1053.720, 296.8291
1054.824, 187.4473
1055.928, 134.3896
1057.031, 191.3789
1058.135, 279.9580
1059.238, 299.6650
1060.342, 194.7998
1061.445, 511.3994
1062.548, 423.8662
1063.651, 287.2227
1064.754, 247.2715
1065.856, 126.5557
1066.959, 181.0000
1068.061, 325.8359
1069.163, 145.0605
1070.265, 175.4756
1071.367, 67.65430
1072.469, 97.16699
1073.570, 20.63770
1074.671, 53.17773
1075.773, 251.4111
1076.874, 106.9424
1077.975, 129.9609
1079.075, 53.16211
1080.176, 183.6982
1081.276, 71.99512
1082.377, 169.1504
1083.477, 53.04004
1084.577, 135.5107
1085.677, 161.5547
1086.777, 119.2549
1087.876, 12.49316
1088.975, 36.61816
1090.075, 74.21484
1091.174, 23.38574
1092.273, 3.420898
1093.372, 83.68652
1094.470, 4.766602
1095.569, 61.91309
1096.667, 9.542969
1097.765, 75.87598
1098.863, 132.0742
1099.961, 5.449219
1101.059, 1.634766
1102.157, 1.297852
1103.254, 11.50781
1104.351, 12.60449
1105.449, 62.81738
1106.546, 9.454102
1107.642, 13.76465
1108.739, 39.33301
1109.836, 124.3623
1110.932, 140.0078
1112.028, 69.70312
1113.124, 71.21680
1114.220, 78.21582
1115.316, 91.96094
1116.412, 28.01562
1117.507, 31.39551
1118.603, 142.3799
1119.698, 120.9229
1120.793, 115.3535
1121.888, 179.9375
1122.983, 227.4619
1124.077, 182.1182
1125.172, 227.3877
1126.266, 285.1758
1127.360, 171.8652
1128.454, 292.4004
1129.548, 248.7822
1130.642, 300.0029
1131.735, 357.0635
1132.829, 471.9150
1133.922, 493.7793
1135.015, 597.6777
1136.108, 542.4990
1137.201, 711.0850
1138.294, 675.2490
1139.386, 638.3662
1140.478, 851.5498
1141.571, 668.1025
1142.663, 846.5996
1143.755, 695.2012
1144.846, 692.2930
1145.938, 588.9121
1147.030, 576.2500
1148.121, 496.5381
1149.212, 495.8877
1150.303, 485.2812
1151.394, 483.4580
1152.485, 473.4512
1153.575, 518.6357
1154.666, 454.5674
1155.756, 443.5166
1156.846, 443.8428
1157.936, 489.5176
1159.026, 550.5684
1160.116, 547.0371
1161.205, 568.0000
1162.295, 547.8477
1163.384, 405.5098
1164.473, 364.5781
1165.562, 566.1191
1166.651, 423.8066
1167.739, 487.6699
1168.828, 372.2656
1169.916, 362.2344
1171.005, 375.3418
1172.093, 511.2578
1173.181, 324.8750
1174.268, 554.8906
1175.356, 421.5742
1176.443, 485.3652
1177.531, 473.6562
1178.618, 420.6309
1179.705, 498.1484
1180.792, 400.7656
1181.879, 388.5586
1182.965, 387.8164
1184.052, 279.8867
1185.138, 282.3125
1186.224, 232.1133
1187.310, 104.9082
1188.396, 164.6582
1189.482, 110.4473
1190.567, 82.21680
1191.653, 198.5078
1192.738, 117.4609
1193.823, 198.6641
1194.908, 82.61328
1195.993, 141.9785
1197.077, 167.4043
1198.162, 49.37500
1199.246, 153.8984
1200.331, 194.2871
1201.415, 169.0156
1202.499, 290.4141
1203.582, 221.1484
1204.666, 84.72266
1205.750, 156.4902
1206.833, 94.31445
1207.916, 100.4922
1208.999, 116.1426
1210.082, 38.41797
1211.165, 129.4121
1212.248, 37.41211
1213.330, 25.87500
1214.412, 78.68750
1215.495, 89.87695
1216.577, 104.5332
1217.658, 131.7656
1218.740, 149.5215
1219.822, 173.9805
1220.903, 219.6992
1221.985, 118.3516
1223.066, 220.2090
1224.147, 139.6250
1225.228, 94.83398
1226.308, 310.7383
1227.389, 97.98242
1228.469, 113.5664
1229.550, 258.7891
1230.630, 229.3633
1231.710, 65.52539
1232.790, 207.3477
1233.869, 7.816406
1234.949, 193.5605
1236.028, 142.2500
1237.108, 167.0801
1238.187, 18.49023
1239.266, 212.5234
1240.344, 0.0000000E+00
##END=



