##NAMES=Grossular
##RRUFFID=R050036
##IDEAL CHEMISTRY=Ca_3_Al_2_(SiO_4_)_3_
##LOCALITY=Wah Wah Mountains, Utah, USA
##OWNER=RRUFF
##SOURCE=Eugene Schlepp
##DESCRIPTION=Colorless single crystal in rhyolite matrix
##STATUS=The identification of this mineral has been confirmed by X-ray diffraction and chemical analysis
##URL=rruff.info/R050036
##MEASURED CHEMISTRY=(Ca_2.95_Mg_0.05_)_Σ=3_(Al_1.70_Fe^3+^_0.30_)_Σ=2_(Si_1.00_O_4_)_3_; trace amounts of P
##PIN_ID=L00123
##ORIENTATION=Laser parallel to c* (0 0 1). Fiducial mark perpendicular to laser is parallel to a [1 0 0]
117.136, 0.000
118.527, 0.288
119.919, 53.223
121.310, 109.694
122.701, 62.446
124.092, 169.736
125.482, 128.634
126.873, 116.886
128.263, 176.345
129.653, 3.468
131.042, 136.405
132.432, 75.922
133.821, 55.006
135.210, 83.633
136.599, 62.089
137.987, 169.323
139.376, 110.829
140.764, 206.301
142.152, 146.510
143.539, 194.965
144.927, 203.705
146.314, 281.995
147.701, 129.736
149.088, 87.012
150.474, 133.887
151.861, 80.417
153.247, 76.649
154.633, 72.689
156.018, 68.792
157.404, 0.346
158.789, 74.865
160.174, 13.582
161.559, 79.824
162.943, 25.293
164.327, 49.808
165.711, 95.633
167.095, 82.722
168.479, 122.075
169.862, 132.504
171.246, 255.098
172.628, 314.779
174.011, 527.516
175.394, 870.312
176.776, 1213.166
178.158, 2306.075
179.540, 4219.040
180.922, 4932.060
182.303, 3605.129
183.684, 1588.247
185.065, 621.412
186.446, 364.624
187.826, 277.883
189.207, 241.188
190.587, 64.540
191.967, 247.944
193.346, 41.396
194.726, 154.899
196.105, 118.453
197.484, 7.926
198.862, 115.780
200.241, 69.543
201.619, 6.639
202.997, 67.235
204.375, 51.160
205.753, 44.867
207.130, 90.860
208.507, 83.189
209.884, 7.279
211.261, 1.408
212.638, 104.428
214.014, 0.229
215.390, 4.003
216.766, 18.265
218.141, 72.559
219.517, 16.883
220.892, 38.781
222.267, 14.423
223.642, 60.052
225.016, 5.659
226.391, 51.244
227.765, 53.193
229.139, 37.656
230.512, 172.144
231.886, 86.655
233.259, 151.193
234.632, 285.760
236.005, 260.355
237.377, 444.979
238.749, 399.633
240.122, 434.312
241.493, 479.012
242.865, 323.736
244.237, 518.478
245.608, 393.171
246.979, 447.902
248.350, 382.601
249.720, 357.338
251.090, 292.117
252.461, 186.916
253.830, 231.720
255.200, 256.540
256.570, 281.406
257.939, 156.316
259.308, 211.271
260.677, 186.270
262.045, 311.310
263.414, 366.396
264.782, 251.522
266.150, 486.693
267.517, 381.905
268.885, 437.159
270.252, 492.455
271.619, 427.791
272.986, 583.168
274.353, 428.585
275.719, 534.042
277.085, 621.187
278.451, 517.648
279.817, 533.197
281.182, 488.783
282.548, 445.194
283.913, 570.855
285.278, 586.865
286.642, 652.842
288.007, 488.800
289.371, 574.679
290.735, 500.554
292.099, 426.432
293.462, 422.304
294.826, 187.444
296.189, 263.303
297.552, 129.157
298.914, 274.979
300.277, 130.828
301.639, 126.676
303.001, 202.485
304.363, 238.282
305.724, 424.048
307.086, 389.806
308.447, 515.563
309.808, 541.319
311.168, 487.075
312.529, 592.834
313.889, 528.598
315.249, 714.369
316.609, 610.148
317.969, 605.938
319.328, 511.727
320.687, 637.516
322.046, 592.135
323.405, 587.947
324.764, 793.257
326.122, 779.020
327.480, 893.965
328.838, 899.455
330.196, 755.030
331.553, 860.590
332.910, 686.301
334.267, 902.020
335.624, 827.735
336.981, 863.445
338.337, 999.221
339.693, 795.022
341.049, 920.851
342.405, 1056.704
343.760, 1032.598
345.116, 1298.529
346.471, 1204.485
347.826, 1530.474
349.180, 1536.521
350.535, 1672.596
351.889, 1748.695
353.243, 2154.862
354.597, 2531.039
355.950, 2687.264
357.304, 3373.428
358.657, 3759.759
360.010, 5036.137
361.362, 6201.228
362.715, 8007.660
364.067, 11324.113
365.419, 14399.663
366.771, 16259.121
368.123, 19762.805
369.474, 20246.348
370.825, 21097.105
372.176, 22583.832
373.527, 27280.498
374.877, 28097.180
376.228, 28597.615
377.578, 24494.344
378.928, 18761.203
380.277, 14958.143
381.627, 10725.106
382.976, 8622.137
384.325, 6487.353
385.674, 4963.957
387.023, 4318.062
388.371, 3325.061
389.719, 2939.947
391.067, 2207.171
392.415, 2224.447
393.762, 1791.742
395.110, 1429.067
396.457, 1476.408
397.804, 1333.791
399.150, 1151.191
400.497, 1088.607
401.843, 1046.137
403.189, 1083.503
404.535, 1120.976
405.881, 1328.473
407.226, 1516.012
408.571, 1803.567
409.916, 2591.139
411.261, 3128.723
412.605, 3075.635
413.950, 3443.938
415.294, 2671.567
416.638, 1869.211
417.981, 1106.890
419.325, 1014.588
420.668, 612.301
422.011, 460.028
423.354, 337.767
424.697, 145.519
426.039, 253.286
427.381, 111.065
428.723, 118.856
430.065, 66.665
431.406, 24.485
432.748, 52.316
434.089, 89.843
435.430, 158.001
436.770, 64.146
438.111, 63.713
439.451, 171.572
440.791, 119.436
442.131, 107.308
443.471, 105.188
444.810, 193.074
446.149, 90.967
447.488, 298.867
448.827, 226.773
450.166, 444.686
451.504, 462.604
452.842, 480.529
454.180, 438.459
455.518, 496.398
456.855, 514.346
458.193, 542.297
459.530, 490.256
460.867, 628.223
462.203, 486.191
463.540, 554.168
464.876, 472.150
466.212, 430.137
467.548, 528.131
468.883, 416.129
470.219, 534.133
471.554, 482.141
472.889, 250.156
474.224, 438.174
475.558, 356.199
476.892, 334.229
478.227, 302.262
479.561, 390.301
480.894, 488.342
482.228, 136.389
483.561, 144.443
484.894, 492.750
486.227, 260.830
487.559, 379.098
488.892, 447.514
490.224, 556.088
491.556, 604.506
492.888, 795.098
494.220, 827.826
495.551, 738.932
496.882, 927.180
498.213, 974.457
499.544, 842.740
500.874, 871.312
502.205, 699.428
503.535, 880.873
504.865, 771.961
506.194, 690.170
507.524, 680.045
508.853, 566.354
510.182, 564.922
511.511, 499.893
512.840, 371.949
514.168, 450.928
515.496, 400.670
516.824, 458.967
518.152, 331.670
519.480, 345.256
520.807, 394.096
522.134, 383.762
523.461, 501.967
524.788, 657.391
526.114, 691.871
527.441, 503.523
528.767, 516.742
530.093, 715.846
531.418, 574.756
532.744, 812.953
534.069, 914.389
535.394, 1205.482
536.719, 1643.859
538.044, 2193.777
539.368, 3076.516
540.693, 3795.326
542.017, 5835.006
543.340, 7933.014
544.664, 8509.617
545.987, 8377.611
547.311, 6265.734
548.634, 4564.645
549.956, 2872.955
551.279, 1859.441
552.601, 1537.512
553.923, 1058.430
555.245, 816.422
556.567, 729.941
557.889, 648.107
559.210, 595.963
560.531, 525.549
561.852, 683.367
563.173, 391.291
564.493, 371.348
565.813, 494.912
567.133, 362.967
568.453, 550.979
569.773, 348.686
571.092, 556.492
572.412, 454.156
573.731, 432.049
575.049, 769.732
576.368, 461.908
577.686, 550.912
579.005, 538.551
580.323, 476.314
581.640, 483.834
582.958, 601.332
584.275, 549.541
585.593, 506.992
586.909, 414.422
588.226, 673.172
589.543, 450.557
590.859, 378.061
592.175, 575.562
593.491, 401.271
594.807, 578.564
596.122, 374.908
597.438, 272.154
598.753, 619.377
600.068, 566.574
601.382, 663.752
602.697, 480.902
604.011, 608.029
605.325, 875.135
606.639, 682.211
607.952, 869.266
609.266, 716.299
610.579, 883.303
611.892, 840.285
613.205, 827.240
614.518, 994.174
615.830, 761.080
617.142, 907.963
618.454, 1074.816
619.766, 921.648
621.078, 1108.453
622.389, 865.234
623.700, 1261.988
625.011, 1278.717
626.322, 1205.418
627.632, 1302.094
628.943, 1068.746
630.253, 845.371
631.563, 771.969
632.872, 538.541
634.182, 635.086
635.491, 311.605
636.800, 568.098
638.109, 334.564
639.418, 281.006
640.726, 197.418
642.035, 103.805
643.343, 160.162
644.651, 116.492
645.958, 82.797
647.266, 64.506
648.573, 85.305
649.880, 1.518
651.187, 32.326
652.494, 6.236
653.800, 129.799
655.106, 104.195
656.412, 121.701
657.718, 67.570
659.024, 163.408
660.329, 10.781
661.634, 5.029
662.939, 140.666
664.244, 16.334
665.549, 88.043
666.853, 67.480
668.157, 62.977
669.461, 121.564
670.765, 43.777
672.069, 19.088
673.372, 114.352
674.675, 190.414
675.978, 45.330
677.281, 39.676
678.583, 24.646
679.886, 129.576
681.188, 75.523
682.490, 60.715
683.792, 15.990
685.093, 41.326
686.394, 33.266
687.696, 132.182
688.997, 122.252
690.297, 173.344
691.598, 9.082
692.898, 75.125
694.198, 9.301
695.498, 36.566
696.798, 37.494
698.097, 148.477
699.397, 215.424
700.696, 100.705
701.995, 153.066
703.293, 106.812
704.592, 139.471
705.890, 54.127
707.188, 102.307
708.486, 101.162
709.784, 15.400
711.081, 107.986
712.378, 58.654
713.675, 54.629
714.972, 167.885
716.269, 1.113
717.565, 144.299
718.862, 87.461
720.158, 9.404
721.453, 66.314
722.749, 36.699
724.045, 39.682
725.340, 112.641
726.635, 75.574
727.930, 128.480
729.224, 41.365
730.519, 84.225
731.813, 52.939
733.107, 3.527
734.401, 72.566
735.694, 35.275
736.988, 127.961
738.281, 120.625
739.574, 3.270
740.867, 145.879
742.160, 148.469
743.452, 8.955
744.744, 323.584
746.036, 36.102
747.328, 28.602
748.620, 271.078
749.911, 173.541
751.202, 515.998
752.493, 98.439
753.784, 340.861
755.075, 163.264
756.365, 215.646
757.655, 118.006
758.945, 130.350
760.235, 262.674
761.525, 233.160
762.814, 247.268
764.103, 289.537
765.392, 351.787
766.681, 304.023
767.969, 296.238
769.258, 458.438
770.546, 530.619
771.834, 182.785
773.122, 394.936
774.409, 337.068
775.697, 169.186
776.984, 301.285
778.271, 353.369
779.558, 325.441
780.844, 357.496
782.131, 339.535
783.417, 401.561
784.703, 403.572
785.989, 395.566
787.274, 657.549
788.560, 159.518
789.845, 641.473
791.130, 573.434
792.415, 445.385
793.699, 697.320
794.983, 409.252
796.268, 881.172
797.552, 622.832
798.835, 694.715
800.119, 1156.412
801.402, 877.957
802.686, 1109.340
803.969, 1330.881
805.251, 1340.252
806.534, 1847.479
807.816, 1666.324
809.098, 2318.021
810.380, 2540.682
811.662, 2702.338
812.944, 3333.699
814.225, 2895.537
815.506, 3704.051
816.787, 3912.914
818.068, 3924.660
819.349, 4324.732
820.629, 4328.381
821.909, 4939.773
823.189, 5081.107
824.469, 4832.648
825.749, 4983.617
827.028, 4623.812
828.307, 4935.445
829.586, 4712.668
830.865, 3999.002
832.144, 4519.910
833.422, 4040.371
834.700, 4252.100
835.978, 4256.598
837.256, 3752.043
838.534, 3710.311
839.811, 3857.004
841.088, 3607.822
842.365, 3998.854
843.642, 3550.594
844.919, 4029.092
846.195, 3457.930
847.472, 3799.502
848.748, 3919.529
850.023, 3616.734
851.299, 4367.863
852.575, 4088.117
853.850, 3890.039
855.125, 4303.365
856.400, 3955.309
857.674, 4357.125
858.949, 4628.150
860.223, 4639.781
861.497, 5243.236
862.771, 5475.104
864.045, 6264.117
865.318, 6876.051
866.591, 7342.461
867.864, 9564.215
869.137, 10026.281
870.410, 12356.611
871.682, 14418.707
872.955, 16230.688
874.227, 20180.543
875.499, 22366.885
876.770, 24498.738
878.042, 27210.625
879.313, 25842.812
880.584, 25894.898
881.855, 23217.135
883.126, 20099.133
884.396, 18761.348
885.667, 14499.059
886.937, 12849.941
888.207, 10742.188
889.476, 8794.805
890.746, 8337.172
892.015, 6509.559
893.284, 5761.234
894.553, 5433.664
895.822, 4387.879
897.090, 4459.012
898.359, 3821.506
899.627, 3574.658
900.895, 3557.049
902.163, 2749.627
903.430, 3164.906
904.698, 2757.527
905.965, 2420.172
907.232, 2672.840
908.499, 2285.533
909.765, 2378.248
911.032, 2050.984
912.298, 1973.748
913.564, 2106.535
914.830, 1839.346
916.095, 1582.180
917.361, 1425.037
918.626, 1277.920
919.891, 1320.885
921.156, 1453.816
922.420, 1126.775
923.685, 1469.758
924.949, 832.768
926.213, 1215.803
927.477, 938.861
928.740, 991.949
930.004, 895.064
931.267, 878.207
932.530, 811.375
933.793, 1164.572
935.056, 617.797
936.318, 1021.051
937.581, 834.330
938.843, 907.635
940.104, 1070.971
941.366, 864.332
942.628, 942.365
943.889, 985.787
945.150, 859.234
946.411, 1164.332
947.672, 917.834
948.932, 1141.588
950.193, 875.221
951.453, 880.408
952.713, 1034.684
953.973, 788.336
955.232, 523.139
956.491, 870.027
957.751, 233.781
959.010, 687.586
960.268, 511.438
961.527, 345.314
962.785, 281.236
964.044, 265.217
965.302, 144.494
966.559, 471.201
967.817, 305.287
969.075, 451.441
970.332, 385.600
971.589, 512.434
972.846, 719.432
974.102, 493.725
975.359, 688.049
976.615, 642.447
977.871, 556.879
979.127, 971.348
980.383, 625.850
981.638, 930.443
982.893, 850.064
984.149, 1084.777
985.404, 1009.521
986.658, 924.297
987.913, 1119.139
989.167, 1174.035
990.421, 1069.012
991.675, 1364.041
992.929, 1109.104
994.183, 1204.301
995.436, 1159.527
996.689, 1144.850
997.942, 1410.217
999.195, 1285.617
1000.448, 1371.064
1001.700, 1726.568
1002.952, 1522.104
1004.204, 1567.732
1005.456, 1823.391
1006.708, 1289.117
1007.959, 1844.941
1009.210, 1320.795
1010.461, 1096.730
1011.712, 1052.713
1012.963, 838.766
1014.213, 814.871
1015.464, 831.023
1016.714, 628.637
1017.964, 723.469
1019.214, 429.746
1020.463, 436.057
1021.712, 552.406
1022.962, 199.072
1024.210, 585.496
1025.459, 321.959
1026.708, 88.473
1027.956, 545.031
1029.204, 41.619
1030.452, 278.236
1031.700, 295.531
1032.948, 162.293
1034.195, 209.053
1035.442, 35.842
1036.689, 132.678
1037.936, 289.609
1039.183, 32.770
1040.429, 324.209
1041.676, 341.227
1042.922, 138.271
1044.168, 315.352
1045.413, 77.291
1046.659, 279.828
1047.904, 147.023
1049.149, 42.115
1050.394, 315.213
1051.639, 332.688
1052.884, 99.996
1054.128, 447.322
1055.372, 174.668
1056.616, 342.033
1057.860, 189.428
1059.104, 206.844
1060.347, 434.281
1061.590, 201.748
1062.833, 269.234
1064.076, 356.740
1065.319, 194.277
1066.561, 191.830
1067.803, 129.412
1069.046, 2.986
1070.287, 344.631
1071.529, 102.299
1072.771, 139.959
1074.012, 307.633
1075.253, 85.385
1076.494, 353.154
1077.735, 290.943
1078.975, 309.381
1080.216, 137.252
1081.456, 145.201
1082.696, 203.170
1083.936, 301.158
1085.175, 59.178
1086.415, 417.213
1087.654, 185.262
1088.893, 93.357
1090.132, 201.467
1091.371, 130.408
1092.609, 307.693
1093.847, 235.807
1095.085, 56.064
1096.323, 332.061
1097.561, 9.803
1098.799, 1.658
1100.036, 53.502
1101.273, 25.350
1102.510, 42.818
1103.747, 39.002
1104.983, 90.721
1106.220, 357.441
1107.456, 15.609
1108.692, 224.318
1109.928, 152.512
1111.163, 59.287
1112.399, 259.354
1113.634, 132.443
1114.869, 74.281
1116.104, 133.869
1117.339, 57.975
1118.573, 10.170
1119.808, 71.680
1121.042, 73.547
1122.276, 465.127
1123.509, 193.246
1124.743, 251.447
1125.976, 99.572
1127.210, 17.699
1128.443, 56.875
1129.675, 175.051
1130.908, 116.807
1132.141, 158.018
1133.373, 46.119
1134.605, 354.223
1135.837, 263.475
1137.068, 181.576
1138.300, 187.609
1139.531, 215.711
1140.762, 143.807
1141.993, 305.373
1143.224, 234.068
1144.455, 63.861
1145.685, 203.846
1146.915, 101.262
1148.145, 282.211
1149.375, 391.469
1150.605, 359.658
1151.834, 520.643
1153.063, 68.930
1154.292, 278.006
1155.521, 362.232
1156.750, 200.250
1157.978, 470.021
1159.207, 92.506
1160.435, 371.070
1161.663, 335.514
1162.891, 424.037
1164.118, 195.348
1165.345, 263.998
1166.573, 61.900
1167.800, 421.189
1169.026, 119.898
1170.253, 18.717
1171.480, 260.600
1172.706, 78.529
1173.932, 286.602
1175.158, 148.252
1176.383, 156.023
1177.609, 385.178
1178.834, 14.758
1180.059, 72.434
1181.284, 363.629
1182.509, 191.773
1183.734, 240.020
1184.958, 432.193
1186.182, 30.176
1187.406, 307.758
1188.630, 328.762
1189.854, 197.076
1191.077, 306.623
1192.301, 95.975
1193.524, 351.594
1194.747, 249.496
1195.969, 17.045
1197.192, 162.229
1198.414, 140.455
1199.636, 267.650
1200.858, 323.031
1202.080, 451.406
1203.302, 468.508
1204.523, 268.061
1205.744, 315.098
1206.966, 562.102
1208.186, 311.789
1209.407, 448.725
1210.628, 565.629
1211.848, 295.246
1213.068, 672.078
1214.288, 340.910
1215.508, 277.670
1216.727, 804.338
1217.947, 232.168
1219.166, 489.031
1220.385, 725.645
1221.604, 326.619
1222.822, 623.156
1224.041, 640.053
1225.259, 136.719
1226.477, 1015.184
1227.695, 525.635
1228.913, 464.596
1230.130, 770.906
1231.348, 370.906
1232.565, 797.857
1233.782, 534.049
1234.999, 368.010
1236.215, 824.133
1237.432, 860.836
1238.648, 363.160
1239.864, 849.217
1241.080, 685.959
1242.296, 660.348
1243.511, 786.334
1244.726, 362.074
1245.942, 787.938
1247.156, 522.250
1248.371, 420.809
1249.586, 1076.666
1250.800, 331.379
1252.014, 684.029
1253.228, 789.809
1254.442, 236.373
1255.656, 872.094
1256.869, 707.752
1258.083, 262.273
1259.296, 827.873
1260.509, 558.141
1261.722, 751.451
1262.934, 506.840
1264.147, 480.523
1265.359, 575.826
1266.571, 618.443
1267.783, 241.178
1268.994, 866.275
1270.206, 361.305
1271.417, 416.266
1272.628, 601.166
1273.839, 156.029
1275.050, 382.111
1276.260, 676.861
1277.471, 23.404
1278.681, 451.957
1279.891, 506.523
1281.101, 151.455
1282.310, 575.850
1283.520, 39.889
1284.729, 515.062
1285.938, 559.168
1287.147, 126.779
1288.356, 267.789
1289.564, 111.561
1290.773, 155.281
1291.981, 548.943
1293.189, 62.545
1294.397, 166.070
1295.604, 389.549
1296.812, 62.965
1298.019, 367.287
1299.226, 190.576
1300.433, 166.186
1301.640, 438.879
1302.846, 121.758
1304.053, 24.576
1305.259, 297.453
1306.465, 10.039
1307.671, 302.324
1308.876, 54.625
1310.082, 266.844
1311.287, 599.297
1312.492, 161.398
1313.697, 243.430
1314.902, 215.367
1316.106, 36.953
1317.310, 418.734
1318.515, 380.453
1319.719, 42.094
1320.922, 443.645
1322.126, 165.125
1323.329, 126.535
1324.533, 487.215
1325.736, 121.605
1326.939, 329.531
1328.141, 300.582
1329.344, 138.453
1330.546, 352.375
1331.748, 322.473
1332.950, 53.148
1334.152, 253.734
1335.354, 114.250
1336.555, 124.684
1337.757, 474.797
1338.958, 74.922
1340.159, 4.762
1341.359, 311.738
1342.560, 61.629
1343.760, 481.336
1344.960, 241.156
1346.160, 190.918
1347.360, 530.609
1348.560, 90.242
1349.759, 469.797
1350.959, 749.285
1352.158, 78.719
1353.357, 628.078
1354.555, 757.379
1355.754, 76.617
1356.952, 825.793
1358.151, 114.906
1359.349, 473.965
1360.546, 632.965
1361.744, 201.922
1362.941, 400.797
1364.139, 509.660
1365.336, 141.512
1366.533, 857.219
1367.730, 356.234
1368.926, 75.090
1370.123, 112.926
1371.319, 136.293
1372.515, 82.234
1373.711, 580.723
1374.906, 39.215
1376.102, 277.262
1377.297, 555.906
1378.492, 37.422
1379.687, 755.438
1380.882, 308.250
1382.077, 241.020
1383.271, 1033.734
1384.465, 286.391
1385.659, 708.996
1386.853, 1031.422
1388.047, 483.922
1389.240, 565.789
1390.434, 877.672
1391.627, 60.008
1392.820, 912.320
1394.013, 774.590
1395.205, 466.207
1396.398, 958.312
1397.590, 280.449
1398.782, 681.258
1399.974, 945.359
1401.166, 267.262
1402.357, 677.727
1403.549, 609.867
1404.740, 324.969
1405.931, 1043.492
1407.122, 373.230
1408.313, 639.301
1409.503, 776.480
1410.693, 395.816
1411.883, 445.582
1413.073, 767.953
1414.263, 429.016
1415.453, 654.020
1416.642, 893.246
1417.831, 170.301
1419.020, 903.363
1420.209, 502.746
1421.398, 247.059
1422.587, 802.066
1423.775, 291.910
1424.963, 709.605
1426.151, 846.371
1427.339, 199.211
1428.526, 743.566
1429.714, 659.336
1430.901, 191.648
1432.088, 963.973
1433.275, 550.770
1434.462, 416.898
1435.648, 980.844
1436.835, 434.234
1438.021, 532.121
1439.207, 755.160
1440.393, 139.277
1441.579, 934.848
1442.764, 812.004
1443.949, 22.820
1445.135, 1119.906
1446.320, 255.742
1447.504, 216.719
1448.689, 1203.801
1449.873, 343.742
1451.058, 737.680
1452.242, 990.699
1453.426, 183.746
1454.609, 1217.977
1455.793, 891.914
1456.976, 298.098
1458.159, 1121.191
1459.342, 722.098
1460.525, 564.574
1461.708, 994.684
1462.890, 785.461
1464.073, 796.535
1465.255, 1008.238
1466.437, 289.172
1467.619, 950.867
1468.800, 1002.414
1469.982, 470.148
1471.163, 1038.973
1472.344, 828.449
1473.525, 499.465
1474.706, 1338.129
1475.886, 636.941
1477.066, 348.152
1478.247, 1209.098
1479.427, 209.820
1480.607, 846.801
1481.786, 866.852
1482.966, 129.820
1484.145, 769.809
1485.324, 471.672
1486.503, 183.648
1487.682, 1064.211
1488.860, 515.996
1490.039, 317.848
1491.217, 1039.715
1492.395, 251.664
1493.573, 533.648
1494.751, 735.664
1495.928, 357.957
1497.106, 770.500
1498.283, 383.359
1499.460, 196.453
1500.637, 649.910
1501.814, 283.453
1502.990, 218.305
1504.166, 873.574
1505.342, 259.363
1506.518, 555.746
1507.694, 402.848
1508.870, 60.820
1510.045, 709.820
1511.221, 420.078
1512.396, 18.254
1513.571, 815.094
1514.745, 262.008
1515.920, 277.613
1517.094, 419.590
1518.269, 0.848
1519.443, 0.000
##END=



