##NAMES=Grossular
##RRUFFID=R060444
##IDEAL CHEMISTRY=Ca_3_Al_2_(SiO_4_)_3_
##LOCALITY=Pakistan (?)
##OWNER=RRUFF
##SOURCE=Gemological Institute of America
##DESCRIPTION=Tan colored crystals coating a surface
##STATUS=The identification of this mineral has been confirmed by X-ray diffraction and chemical analysis
##URL=rruff.info/R060444
##MEASURED CHEMISTRY=(Ca_2.98_Mn_0.02_)_Σ=3_(Al_1.84_Fe^3+^_0.13_Ti_0.03_)_Σ=2_((Si_0.99_Al_0.01_)_Σ=1_O_4_)_3_
##PIN_ID=M00607
##ORIENTATION=Laser parallel to a* (1 0 0). Fiducial mark perpendicular to laser is parallel to 0 0 -1
129.0000, 0.0000000E+00
130.2340, 0.5546880
131.4670, 16.91211
132.7000, 11.65283
133.9330, 29.92041
135.1660, 5.662598
136.3990, 59.99512
137.6310, 81.36328
138.8640, 196.8027
140.0960, 126.0322
141.3280, 111.8130
142.5600, 87.92676
143.7910, 19.55713
145.0230, 62.19434
146.2540, 132.9492
147.4850, 86.00732
148.7160, 109.8882
149.9470, 132.8481
151.1780, 101.5679
152.4080, 93.42969
153.6380, 75.27637
154.8690, 200.7119
156.0980, 36.35352
157.3280, 62.45850
158.5580, 76.10059
159.7870, 46.65869
161.0170, 40.23340
162.2460, 150.5303
163.4750, 186.6382
164.7030, 258.8008
165.9320, 371.6660
167.1600, 471.0889
168.3890, 698.3252
169.6170, 943.1313
170.8450, 1247.354
172.0730, 1597.980
173.3000, 2029.966
174.5280, 2335.025
175.7550, 2985.689
176.9820, 3667.745
178.2090, 4115.444
179.4350, 4228.218
180.6620, 3750.062
181.8880, 3271.973
183.1150, 2758.946
184.3410, 2065.979
185.5670, 1495.065
186.7920, 1128.194
188.0180, 824.3633
189.2430, 588.5698
190.4690, 486.8130
191.6940, 461.0933
192.9180, 309.4102
194.1430, 112.7617
195.3680, 212.1484
196.5920, 99.57080
197.8160, 172.0269
199.0400, 73.51807
200.2640, 149.0435
201.4880, 158.6025
202.7110, 35.78613
203.9350, 1.085938
205.1580, 5.691406
206.3810, 24.46631
207.6040, 82.56543
208.8270, 43.38721
210.0490, 93.61865
211.2710, 95.50049
212.4940, 30.16260
213.7160, 43.30811
214.9370, 14.11035
216.1590, 2.377930
217.3810, 22.41016
218.6020, 65.15820
219.8230, 93.91113
221.0440, 167.6729
222.2650, 88.44043
223.4860, 62.20898
224.7060, 130.9775
225.9260, 173.7461
227.1470, 267.5171
228.3670, 240.2896
229.5860, 282.0659
230.8060, 418.8477
232.0260, 538.6338
233.2450, 613.4272
234.4640, 689.2280
235.6830, 916.0352
236.9020, 980.8491
238.1200, 1047.668
239.3390, 1171.476
240.5570, 1151.247
241.7750, 1168.954
242.9930, 1199.734
244.2110, 1114.205
245.4290, 1173.800
246.6460, 1107.388
247.8630, 1018.993
249.0810, 863.6152
250.2980, 651.2559
251.5140, 640.9155
252.7310, 517.5942
253.9470, 487.2925
255.1640, 368.0098
256.3800, 330.7456
257.5960, 415.5015
258.8120, 527.2769
260.0270, 477.4526
261.2430, 719.8853
262.4580, 503.7183
263.6730, 430.5713
264.8880, 564.4448
266.1030, 565.3379
267.3170, 648.2534
268.5320, 695.1914
269.7460, 775.1538
270.9600, 832.1899
272.1740, 934.1528
273.3880, 962.1943
274.6010, 1097.266
275.8150, 1198.377
277.0280, 1186.144
278.2410, 1098.879
279.4540, 1087.438
280.6670, 818.9429
281.8790, 794.2012
283.0920, 572.5176
284.3040, 528.7139
285.5160, 525.8252
286.7280, 396.8726
287.9400, 409.8496
289.1510, 369.7329
290.3630, 255.1040
291.5740, 301.1333
292.7850, 104.3208
293.9960, 283.4258
295.2070, 29.91309
296.4170, 143.4282
297.6280, 80.49463
298.8380, 61.48389
300.0480, 253.3232
301.2580, 195.4189
302.4680, 308.2285
303.6770, 329.5312
304.8870, 392.7710
306.0960, 449.0269
307.3050, 581.8154
308.5140, 495.3647
309.7230, 673.9180
310.9310, 701.4741
312.1400, 903.9741
313.3480, 924.4380
314.5560, 925.7666
315.7640, 891.0015
316.9720, 1003.212
318.1790, 878.4141
319.3870, 852.6187
320.5940, 973.8433
321.8010, 886.0908
323.0080, 948.3599
324.2150, 777.6509
325.4210, 799.9648
326.6280, 989.3008
327.8340, 1061.658
329.0400, 971.0361
330.2460, 986.4355
331.4510, 1044.855
332.6570, 1054.296
333.8620, 1041.087
335.0680, 974.2388
336.2730, 1003.740
337.4780, 949.2617
338.6820, 959.8032
339.8870, 1092.200
341.0910, 1278.780
342.2950, 1336.185
343.5000, 1436.803
344.7030, 1661.160
345.9070, 1859.815
347.1110, 2146.488
348.3140, 2238.333
349.5170, 2412.450
350.7200, 2787.059
351.9230, 3145.894
353.1260, 3738.174
354.3290, 4098.635
355.5310, 4989.398
356.7330, 6060.129
357.9350, 7286.034
359.1370, 8912.594
360.3390, 10630.64
361.5400, 12839.48
362.7420, 15345.01
363.9430, 18331.75
365.1440, 21887.62
366.3450, 25244.54
367.5460, 27944.44
368.7460, 29999.25
369.9470, 31654.20
371.1470, 33086.17
372.3470, 34152.15
373.5470, 33788.15
374.7460, 31814.15
375.9460, 28118.18
377.1450, 24062.20
378.3450, 19462.25
379.5440, 15644.31
380.7430, 12189.38
381.9410, 9621.457
383.1400, 7565.549
384.3380, 6453.656
385.5370, 5120.776
386.7350, 4475.910
387.9320, 3844.063
389.1300, 3359.233
390.3280, 2973.420
391.5250, 2593.625
392.7220, 2462.845
393.9190, 2063.081
395.1160, 2046.335
396.3130, 1852.607
397.5100, 1835.898
398.7060, 1709.209
399.9020, 1758.549
401.0980, 1683.946
402.2940, 1681.389
403.4900, 1868.872
404.6860, 2116.383
405.8810, 2251.937
407.0760, 2614.538
408.2710, 2755.182
409.4660, 3272.854
410.6610, 3680.584
411.8550, 4321.387
413.0500, 4850.270
414.2440, 5332.236
415.4380, 5226.273
416.6320, 4704.389
417.8260, 3891.543
419.0190, 3105.744
420.2130, 2333.970
421.4060, 1774.227
422.5990, 1076.581
423.7920, 847.9336
424.9850, 500.3359
426.1770, 281.7607
427.3700, 306.2207
428.5620, 138.7393
429.7540, 82.32422
430.9460, 30.92480
432.1380, 46.57129
433.3290, 18.22852
434.5210, 111.0830
435.7120, 67.39941
436.9030, 143.6973
438.0940, 95.01660
439.2850, 112.3633
440.4750, 106.6885
441.6660, 67.04785
442.8560, 66.42480
444.0460, 138.8184
445.2360, 76.26562
446.4260, 56.72949
447.6160, 11.79004
448.8050, 48.68359
449.9940, 88.85156
451.1830, 96.39258
452.3720, 125.9375
453.5610, 233.4844
454.7500, 273.0332
455.9380, 181.5830
457.1260, 207.1348
458.3150, 198.6875
459.5020, 327.2412
460.6900, 175.7969
461.8780, 263.3545
463.0650, 212.9121
464.2530, 290.4727
465.4400, 96.03125
466.6270, 168.5908
467.8130, 157.1504
469.0000, 83.70898
470.1870, 170.1387
471.3730, 285.8213
472.5590, 264.3760
473.7450, 355.9287
474.9310, 403.4785
476.1160, 307.0254
477.3020, 372.5684
478.4870, 376.1104
479.6720, 255.6475
480.8570, 290.1807
482.0420, 245.7109
483.2270, 268.2363
484.4110, 238.7578
485.5960, 219.2754
486.7800, 318.7871
487.9640, 244.2930
489.1480, 363.7959
490.3310, 231.2910
491.5150, 438.7959
492.6980, 396.3008
493.8810, 473.8047
495.0640, 642.3135
496.2470, 549.8438
497.4300, 600.3662
498.6120, 546.9111
499.7950, 607.4482
500.9770, 661.9883
502.1590, 614.5215
503.3410, 617.0527
504.5220, 744.5801
505.7040, 750.0986
506.8850, 880.6094
508.0660, 748.1074
509.2470, 818.5957
510.4280, 789.0732
511.6090, 704.5400
512.7890, 659.9941
513.9700, 603.4385
515.1500, 558.8682
516.3300, 559.2871
517.5100, 607.6924
518.6900, 630.1104
519.8690, 688.4658
521.0490, 804.8320
522.2280, 970.1865
523.4070, 1192.525
524.5860, 1100.850
525.7640, 1196.581
526.9430, 1118.259
528.1210, 926.3428
529.3000, 912.7607
530.4780, 742.1035
531.6560, 835.4697
532.8330, 667.7070
534.0110, 931.8457
535.1880, 1086.150
536.3650, 1330.461
537.5430, 1924.141
538.7190, 2298.908
539.8960, 2968.812
541.0730, 3872.734
542.2490, 4798.080
543.4250, 5721.644
544.6020, 7013.373
545.7780, 8404.549
546.9530, 9299.138
548.1290, 9390.229
549.3040, 8598.810
550.4800, 6966.955
551.6550, 5471.888
552.8300, 4120.912
554.0040, 3206.345
555.1790, 2287.932
556.3540, 1891.100
557.5280, 1552.825
558.7020, 1328.377
559.8760, 1161.113
561.0500, 1140.713
562.2230, 1034.681
563.3970, 1055.464
564.5700, 984.0859
565.7430, 975.5596
566.9160, 975.9004
568.0890, 948.6582
569.2620, 989.0957
570.4340, 1060.015
571.6070, 1097.913
572.7790, 976.5908
573.9510, 895.8770
575.1230, 1006.648
576.2940, 994.3398
577.4660, 1063.763
578.6370, 921.7021
579.8080, 1018.973
580.9790, 1044.068
582.1500, 1185.679
583.3210, 1069.850
584.4910, 1237.294
585.6620, 1245.258
586.8320, 1354.193
588.0020, 1491.664
589.1720, 1607.956
590.3410, 1510.530
591.5110, 1613.766
592.6800, 1360.836
593.8500, 1244.754
595.0190, 1166.462
596.1880, 1102.053
597.3560, 1064.547
598.5250, 1079.912
599.6930, 1006.295
600.8620, 980.6562
602.0300, 1066.019
603.1970, 1030.174
604.3650, 923.4521
605.5330, 1091.516
606.7000, 1063.533
607.8680, 1150.591
609.0350, 1137.516
610.2020, 1180.393
611.3680, 1189.223
612.5350, 1380.006
613.7010, 1304.741
614.8680, 1500.430
616.0340, 1719.072
617.2000, 1741.665
618.3660, 1827.211
619.5310, 1991.709
620.6970, 2297.157
621.8620, 2431.559
623.0270, 2627.912
624.1920, 2788.217
625.3570, 2903.473
626.5220, 2925.680
627.6860, 2704.839
628.8500, 2442.949
630.0140, 2294.009
631.1780, 2057.020
632.3420, 1844.982
633.5060, 1637.896
634.6700, 1562.759
635.8330, 1454.573
636.9960, 1432.338
638.1590, 1427.053
639.3220, 1439.720
640.4850, 1567.335
641.6470, 1501.900
642.8100, 1509.417
643.9720, 1620.883
645.1340, 1612.299
646.2960, 1635.666
647.4570, 1452.982
648.6190, 1448.250
649.7800, 1369.467
650.9420, 1386.635
652.1030, 1305.692
653.2640, 1215.820
654.4240, 1145.840
655.5850, 1000.810
656.7450, 873.7305
657.9060, 721.6016
659.0660, 730.4238
660.2260, 518.1982
661.3850, 453.9229
662.5450, 463.5996
663.7040, 487.2285
664.8640, 353.8096
666.0230, 363.3389
667.1820, 262.8174
668.3410, 179.2412
669.4990, 193.6064
670.6580, 183.9150
671.8160, 211.1660
672.9740, 230.3604
674.1320, 186.9746
675.2900, 181.1787
676.4480, 110.6035
677.6050, 97.56641
678.7630, 82.46680
679.9200, 12.30273
681.0770, 90.94629
682.2340, 47.33398
683.3900, 34.83789
684.5470, 23.54883
685.7030, 50.14355
686.8590, 58.95117
688.0150, 35.88086
689.1710, 2.081055
690.3270, 107.0449
691.4830, 157.3164
692.6380, 196.7598
693.7930, 200.3945
694.9480, 163.0518
696.1030, 189.2227
697.2580, 44.40918
698.4130, 64.70508
699.5670, 32.12012
700.7210, 153.6377
701.8750, 67.31934
703.0290, 37.12012
704.1830, 116.0244
705.3370, 4.070313
706.4900, 60.20020
707.6430, 152.4424
708.7970, 177.8447
709.9490, 12.58008
711.1020, 98.06641
712.2550, 28.15918
713.4070, 39.67969
714.5600, 69.61621
715.7120, 95.64062
716.8640, 75.77734
718.0160, 39.99609
719.1670, 118.2900
720.3190, 81.30566
721.4700, 178.8682
722.6210, 104.3926
723.7720, 228.8770
724.9230, 77.34375
726.0740, 157.7705
727.2250, 232.1602
728.3750, 190.5020
729.5250, 230.8047
730.6750, 257.0625
731.8250, 280.2744
732.9750, 316.9961
734.1240, 331.8164
735.2740, 341.4521
736.4230, 358.6963
737.5720, 340.7002
738.7210, 332.6641
739.8700, 318.5879
741.0190, 385.4727
742.1670, 311.3174
743.3150, 435.1250
744.4630, 462.8926
745.6110, 322.6240
746.7590, 493.3174
747.9070, 540.9746
749.0540, 609.5938
750.2020, 541.1787
751.3490, 588.7266
752.4960, 610.2393
753.6430, 706.7158
754.7890, 809.1582
755.9360, 847.5664
757.0820, 997.9385
758.2280, 1040.276
759.3740, 1009.580
760.5200, 1238.851
761.6660, 1414.088
762.8120, 1398.291
763.9570, 1660.464
765.1020, 1662.604
766.2470, 1813.711
767.3920, 1880.787
768.5370, 1960.831
769.6810, 2092.845
770.8260, 2207.835
771.9700, 2257.831
773.1140, 2284.809
774.2580, 2192.758
775.4020, 2151.938
776.5460, 2066.113
777.6890, 2005.516
778.8320, 1933.027
779.9750, 1894.312
781.1180, 1795.171
782.2610, 1747.029
783.4040, 1712.862
784.5460, 1593.681
785.6890, 1551.477
786.8310, 1661.275
787.9730, 1661.105
789.1150, 1597.924
790.2560, 1698.743
791.3980, 1738.593
792.5390, 1626.438
793.6810, 1928.305
794.8220, 1904.199
795.9630, 2063.103
797.1030, 2221.006
798.2440, 2396.938
799.3840, 2683.893
800.5240, 2811.880
801.6650, 2902.893
802.8040, 3214.471
803.9440, 3487.082
805.0840, 3954.252
806.2230, 4058.049
807.3630, 4414.889
808.5020, 4674.668
809.6410, 4968.539
810.7790, 5313.471
811.9180, 5677.203
813.0570, 5968.887
814.1950, 6298.168
815.3330, 6593.322
816.4710, 6907.301
817.6090, 7260.225
818.7470, 7687.686
819.8840, 8075.893
821.0220, 8214.895
822.1590, 8501.411
823.2960, 8607.479
824.4330, 8764.012
825.5690, 8767.011
826.7060, 8445.410
827.8420, 8217.993
828.9790, 7739.447
830.1150, 7416.460
831.2510, 7099.281
832.3860, 6847.488
833.5220, 6519.102
834.6570, 6305.123
835.7930, 6115.385
836.9280, 5948.022
838.0630, 5905.100
839.1980, 5905.656
840.3320, 5888.172
841.4670, 5857.801
842.6010, 5918.520
843.7350, 5908.785
844.8690, 6049.332
846.0030, 6035.357
847.1370, 6292.368
848.2700, 6310.561
849.4040, 6250.105
850.5370, 6335.125
851.6700, 6599.352
852.8030, 6583.031
853.9360, 6898.046
855.0680, 7005.396
856.2000, 7422.922
857.3330, 7664.186
858.4650, 8007.875
859.5970, 8362.271
860.7290, 8846.202
861.8600, 9308.521
862.9920, 9877.192
864.1230, 10772.20
865.2540, 11459.05
866.3850, 12605.09
867.5160, 14094.26
868.6460, 16097.54
869.7770, 18500.01
870.9070, 21371.73
872.0370, 24539.17
873.1670, 28349.88
874.2970, 32348.53
875.4270, 36703.18
876.5570, 40569.80
877.6860, 43745.59
878.8150, 46502.22
879.9440, 47573.04
881.0730, 46315.87
882.2020, 44274.63
883.3300, 40542.48
884.4590, 36556.35
885.5870, 32010.23
886.7150, 27546.12
887.8430, 23537.02
888.9710, 20025.94
890.0990, 16931.86
891.2260, 14580.80
892.3530, 12593.75
893.4810, 10764.71
894.6080, 9457.673
895.7340, 8259.650
896.8610, 7327.638
897.9880, 6420.637
899.1140, 5760.904
900.2400, 5230.025
901.3660, 4846.055
902.4920, 4488.098
903.6180, 4346.172
904.7430, 4012.824
905.8690, 3772.164
906.9940, 3559.285
908.1190, 3376.905
909.2440, 3261.424
910.3690, 2997.398
911.4930, 2784.184
912.6180, 2868.491
913.7420, 2715.350
914.8660, 2487.045
915.9900, 2397.619
917.1140, 2223.699
918.2380, 2019.680
919.3610, 1910.121
920.4850, 1791.505
921.6080, 1581.930
922.7310, 1568.881
923.8540, 1599.063
924.9760, 1391.036
926.0990, 1452.214
927.2210, 1344.212
928.3440, 1255.076
929.4660, 1312.552
930.5880, 1217.520
931.7090, 1197.494
932.8310, 1405.132
933.9520, 1205.064
935.0740, 1145.765
936.1950, 1286.312
937.3160, 1124.797
938.4360, 1004.334
939.5570, 954.4658
940.6780, 1023.109
941.7980, 1029.224
942.9180, 944.3701
944.0380, 991.9834
945.1580, 952.5010
946.2780, 1096.212
947.3970, 1120.750
948.5170, 1026.299
949.6360, 1076.855
950.7550, 1021.142
951.8740, 934.9951
952.9930, 941.5889
954.1110, 752.2266
955.2300, 686.8975
956.3480, 642.5996
957.4660, 584.4209
958.5840, 520.3623
959.7020, 414.6660
960.8190, 369.8623
961.9370, 326.0137
963.0540, 288.2588
964.1710, 312.0605
965.2880, 272.1133
966.4050, 350.6973
967.5220, 387.8965
968.6380, 411.3135
969.7550, 257.3350
970.8710, 445.4209
971.9870, 372.7402
973.1030, 429.7832
974.2190, 490.9062
975.3340, 479.3154
976.4500, 636.7695
977.5650, 697.2393
978.6800, 777.7373
979.7950, 844.6494
980.9100, 887.5107
982.0250, 942.5205
983.1390, 957.1797
984.2530, 1029.842
985.3680, 1046.525
986.4820, 1178.236
987.5950, 1243.032
988.7090, 1082.903
989.8230, 1316.698
990.9360, 1200.531
992.0490, 1397.364
993.1620, 1284.230
994.2750, 1351.059
995.3880, 1461.469
996.5010, 1701.291
997.6130, 1915.461
998.7250, 2285.102
999.8370, 2486.708
1000.949, 2801.086
1002.061, 2960.632
1003.173, 2905.047
1004.284, 2595.605
1005.396, 2379.641
1006.507, 2270.115
1007.618, 2224.878
1008.729, 2068.188
1009.839, 1832.506
1010.950, 1623.725
1012.060, 1238.692
1013.171, 1269.313
1014.281, 1001.025
1015.391, 756.3291
1016.500, 852.7832
1017.610, 663.0938
1018.719, 774.7529
1019.829, 655.1250
1020.938, 716.9707
1022.047, 599.2422
1023.156, 523.1973
1024.264, 539.1328
1025.373, 336.6738
1026.481, 448.4336
1027.589, 375.0498
1028.697, 249.5420
1029.805, 310.0186
1030.913, 261.4766
1032.020, 70.92969
1033.128, 902.8984
1034.235, 444.5918
1035.342, 455.3467
1036.449, 164.3594
1037.556, 30.70703
1038.663, 16.72656
1039.769, 138.4355
1040.875, 44.23730
1041.981, 84.91504
1043.087, 27.95605
1044.193, 94.72461
1045.299, 8.708008
1046.404, 140.5205
1047.510, 68.64062
1048.615, 102.4961
1049.720, 90.67480
1050.825, 6.621094
1051.930, 27.37793
1053.034, 2.916016
1054.139, 90.99512
1055.243, 209.4365
1056.347, 36.02246
1057.451, 79.54590
1058.555, 192.9922
1059.658, 61.33301
1060.762, 153.4805
1061.865, 177.9092
1062.968, 104.8428
1064.071, 64.26660
1065.174, 166.7178
1066.277, 162.7871
1067.380, 173.1289
1068.482, 153.6016
1069.584, 5.829102
1070.686, 21.65234
1071.788, 83.33789
1072.890, 203.3652
1073.992, 95.99902
1075.093, 112.0127
1076.194, 250.8838
1077.295, 334.5830
1078.396, 250.4600
1079.497, 327.2061
1080.598, 617.1953
1081.698, 565.7637
1082.799, 611.6221
1083.899, 588.8184
1084.999, 566.8711
1086.099, 598.8262
1087.199, 346.4160
1088.298, 344.9746
1089.398, 285.6982
1090.497, 266.9980
1091.596, 190.7207
1092.695, 225.1416
1093.794, 136.5264
1094.892, 49.87207
1095.991, 173.3037
1097.089, 74.61914
1098.187, 204.8936
1099.285, 74.22070
1100.383, 279.4443
1101.481, 143.6338
1102.579, 38.79395
1103.676, 34.92969
1104.773, 171.0078
1105.870, 162.0459
1106.967, 380.0400
1108.064, 485.1592
1109.161, 536.6396
1110.257, 674.8301
1111.353, 694.7148
1112.449, 519.5566
1113.545, 641.3594
1114.641, 516.1230
1115.737, 583.8447
1116.832, 519.5244
1117.928, 362.1582
1119.023, 347.7520
1120.118, 338.3008
1121.213, 398.8047
1122.308, 416.2627
1123.402, 419.6768
1124.497, 359.0459
1125.591, 396.0791
1126.685, 230.6494
1127.779, 377.8789
1128.873, 290.0645
1129.967, 178.2021
1131.060, 186.2861
1132.153, 241.3193
1133.247, 201.3008
1134.340, 232.2314
1135.433, 197.1104
1136.525, 98.93652
1137.618, 215.7021
1138.710, 146.4150
1139.802, 253.0732
1140.895, 55.67969
1141.987, 92.22070
1143.078, 107.7012
1144.170, 174.1250
1145.261, 150.4922
1146.353, 246.8037
1147.444, 209.0635
1148.535, 241.5000
1149.626, 156.4238
1150.716, 222.5215
1151.807, 346.5645
1152.897, 242.5537
1153.988, 315.4902
1155.078, 318.3730
1156.168, 451.2041
1157.257, 354.9883
1158.347, 386.7197
1159.436, 413.4033
1160.526, 442.0352
1161.615, 468.6191
1162.704, 414.1699
1163.793, 287.3066
1164.881, 507.7549
1165.970, 370.1514
1167.058, 398.4961
1168.147, 625.7695
1169.235, 365.4209
1170.323, 510.5342
1171.410, 461.4512
1172.498, 509.0020
1173.585, 463.6191
1174.673, 384.7383
1175.760, 497.0049
1176.847, 366.7051
1177.934, 342.8105
1179.020, 603.0352
1180.107, 487.3379
1181.193, 278.1514
1182.279, 341.9014
1183.365, 220.2041
1184.451, 341.5186
1185.537, 449.7471
1186.623, 418.4062
1187.708, 364.7920
1188.793, 324.3428
1189.878, 255.6436
1190.963, 190.0791
1192.048, 220.6006
1193.133, 75.46680
1194.217, 36.79004
1195.302, 22.47461
1196.386, 43.59180
1197.470, 6.216797
1198.554, 12.14941
1199.638, 60.38477
1200.721, 49.07227
1201.805, 78.43066
1202.888, 61.30566
1203.971, 9.200195
1205.054, 141.3701
1206.137, 43.89746
1207.219, 89.33203
1208.302, 3.023438
1209.384, 87.41016
1210.466, 35.49023
1211.548, 116.2617
1212.630, 278.8984
1213.712, 191.3359
1214.794, 218.6836
1215.875, 234.7764
1216.956, 412.6875
1218.037, 459.5898
1219.118, 312.5635
1220.199, 371.4277
1221.280, 251.3994
1222.360, 326.2959
1223.441, 355.9922
1224.521, 475.3887
1225.601, 298.8252
1226.681, 344.1982
1227.760, 446.5469
1228.840, 319.6006
1229.919, 643.2354
1230.999, 521.9414
1232.078, 496.0547
1233.157, 456.4404
1234.236, 602.2510
1235.314, 658.6699
1236.393, 622.8164
1237.471, 591.8047
1238.549, 696.8594
1239.627, 643.4062
1240.705, 790.8145
1241.783, 863.7930
1242.860, 611.4590
1243.938, 564.7344
1245.015, 713.6426
1246.092, 634.6836
1247.169, 694.1016
1248.246, 862.3828
1249.323, 749.0664
1250.399, 834.4180
1251.475, 783.4258
1252.552, 885.2988
1253.628, 843.6504
1254.703, 942.0098
1255.779, 878.9297
1256.855, 770.7598
1257.930, 632.5410
1259.005, 643.3340
1260.080, 865.8945
1261.155, 749.5391
1262.230, 809.0684
1263.305, 893.0801
1264.379, 940.5391
1265.454, 929.8125
1266.528, 1086.156
1267.602, 872.3359
1268.676, 1019.400
1269.750, 878.8086
1270.823, 1164.389
1271.897, 1237.814
1272.970, 963.7441
1274.043, 942.5996
1275.116, 940.4551
1276.189, 1025.824
1277.261, 727.7266
1278.334, 817.5605
1279.406, 619.9141
1280.478, 703.5449
1281.550, 715.2988
1282.622, 574.2852
1283.694, 690.0469
1284.766, 743.1641
1285.837, 483.8926
1286.908, 691.0293
1287.979, 669.0918
1289.050, 530.1777
1290.121, 742.6504
1291.192, 679.3223
1292.262, 845.3633
1293.333, 751.2422
1294.403, 916.1445
1295.473, 986.8379
1296.543, 809.9355
1297.613, 901.3574
1298.682, 640.4160
1299.752, 809.7852
1300.821, 852.2637
1301.890, 870.4863
1302.959, 928.1406
