##NAMES=Grossular
##RRUFFID=R040065
##IDEAL CHEMISTRY=Ca_3_Al_2_(SiO_4_)_3_
##LOCALITY=Feng Tien mine, Taiwan
##OWNER=RRUFF
##SOURCE=University of Arizona Mineral Museum
##DESCRIPTION=Orange-brown trapezohedral crystals
##STATUS=The identification of this mineral has been confirmed by X-ray diffraction and chemical analysis
##URL=rruff.info/R040065
##MEASURED CHEMISTRY=(Ca_2.90_Fe^2+^_0.05_Mn_0.05_)_Σ=3_(Al_1.95_Fe^3+^_0.03_Ti_0.02_)_Σ=2_((Si_0.99_Al_0.01_)_Σ=1_O_4_)_3_
##PIN_ID=M00027
##ORIENTATION=Laser parallel to -a* (-1 0 0). Fiducial mark perpendicular to laser is parallel to b [0 1 0]
104.166, 0.000
105.563, 0.917
106.959, 114.021
108.355, 146.694
109.750, 111.667
111.146, 97.271
112.541, 234.356
113.936, 261.557
115.330, 415.803
116.725, 438.264
118.119, 534.337
119.513, 724.532
120.907, 290.907
122.300, 76.899
123.693, 95.322
125.086, 94.888
126.479, 72.403
127.871, 28.156
129.264, 34.720
130.656, 5.912
132.048, 98.903
133.439, 90.145
134.830, 87.866
136.222, 91.868
137.612, 116.785
139.003, 135.471
140.393, 248.173
141.783, 162.432
143.173, 152.570
144.563, 111.685
145.952, 56.749
147.342, 106.383
148.731, 47.293
150.119, 98.928
151.508, 35.966
152.896, 45.242
154.284, 67.528
155.672, 100.402
157.059, 55.441
158.446, 35.781
159.833, 76.604
161.220, 117.320
162.607, 144.019
163.993, 276.126
165.379, 191.431
166.765, 85.499
168.151, 154.734
169.536, 169.877
170.921, 279.964
172.306, 325.740
173.691, 491.204
175.075, 881.640
176.459, 1504.559
177.843, 2468.929
179.227, 3623.530
180.611, 4243.329
181.994, 3640.228
183.377, 2677.248
184.760, 1614.434
186.142, 1000.251
187.525, 643.926
188.907, 487.092
190.288, 423.991
191.670, 247.266
193.051, 274.761
194.433, 159.056
195.813, 192.678
197.194, 165.461
198.575, 140.846
199.955, 101.954
201.335, 60.680
202.714, 104.772
204.094, 13.122
205.473, 40.823
206.852, 65.366
208.231, 55.247
209.609, 29.976
210.988, 57.338
212.366, 2.289
213.744, 59.142
215.121, 42.650
216.499, 71.765
217.876, 48.889
219.253, 47.645
220.629, 31.496
222.006, 73.417
223.382, 70.388
224.758, 9.594
226.134, 34.469
227.509, 5.582
228.884, 37.743
230.259, 42.959
231.634, 1.247
233.009, 19.385
234.383, 49.936
235.757, 125.395
237.131, 167.753
238.505, 252.006
239.878, 295.164
241.251, 259.167
242.624, 279.002
243.997, 254.716
245.369, 348.268
246.741, 466.646
248.113, 466.902
249.485, 337.044
250.857, 201.065
252.228, 158.020
253.599, 52.931
254.970, 88.813
256.340, 15.669
257.711, 6.499
259.081, 17.679
260.451, 39.123
261.820, 28.892
263.190, 9.619
264.559, 25.289
265.928, 11.089
267.297, 71.490
268.665, 23.025
270.033, 104.401
271.401, 176.916
272.769, 200.306
274.137, 283.433
275.504, 398.175
276.871, 553.873
278.238, 569.468
279.605, 553.197
280.971, 547.899
282.337, 448.796
283.703, 258.338
285.069, 298.685
286.434, 247.568
287.800, 259.850
289.165, 270.853
290.529, 319.450
291.894, 267.511
293.258, 269.684
294.622, 214.349
295.986, 208.235
297.350, 177.566
298.713, 168.537
300.076, 151.253
301.439, 194.616
302.802, 214.851
304.164, 236.956
305.527, 251.406
306.889, 321.297
308.250, 325.044
309.612, 433.430
310.973, 491.328
312.334, 575.427
313.695, 656.800
315.056, 805.414
316.416, 940.120
317.776, 989.694
319.136, 827.306
320.496, 738.015
321.856, 577.259
323.215, 590.662
324.574, 579.289
325.933, 552.870
327.291, 673.627
328.649, 597.674
330.007, 732.022
331.365, 730.920
332.723, 773.238
334.080, 729.529
335.438, 625.599
336.794, 634.831
338.151, 691.727
339.508, 792.014
340.864, 804.281
342.220, 859.514
343.576, 931.702
344.931, 991.774
346.287, 1073.903
347.642, 1169.918
348.997, 1278.882
350.351, 1403.804
351.706, 1502.686
353.060, 1729.175
354.414, 1868.402
355.768, 2129.891
357.121, 2503.519
358.474, 2970.439
359.827, 3496.645
361.180, 4264.629
362.533, 5827.399
363.885, 7182.816
365.237, 9249.661
366.589, 12327.118
367.941, 15962.733
369.292, 18929.260
370.643, 21126.256
371.994, 22933.119
373.345, 25069.508
374.696, 27401.100
376.046, 27176.496
377.396, 23418.090
378.746, 18150.781
380.096, 12938.001
381.445, 9410.405
382.794, 6842.937
384.143, 5257.540
385.492, 4153.560
386.840, 3310.822
388.188, 2824.039
389.536, 2250.650
390.884, 1991.126
392.232, 1788.640
393.579, 1577.880
394.926, 1398.791
396.273, 1251.462
397.620, 1239.605
398.966, 1094.449
400.312, 1042.557
401.658, 1070.020
403.004, 1020.667
404.350, 1030.172
405.695, 1056.765
407.040, 1154.269
408.385, 1226.168
409.730, 1420.565
411.074, 1757.967
412.418, 2249.837
413.762, 3076.143
415.106, 4411.271
416.449, 5171.688
417.793, 5185.419
419.136, 4143.467
420.478, 2903.073
421.821, 2021.073
423.163, 1385.436
424.505, 1017.723
425.847, 776.789
427.189, 583.070
428.530, 521.685
429.872, 425.374
431.213, 357.668
432.553, 284.540
433.894, 281.655
435.234, 218.807
436.574, 214.248
437.914, 127.108
439.254, 192.156
440.593, 198.149
441.933, 135.124
443.272, 158.010
444.610, 141.800
445.949, 99.742
447.287, 124.841
448.625, 96.644
449.963, 97.453
451.301, 106.254
452.638, 127.215
453.975, 188.917
455.312, 240.594
456.649, 209.006
457.985, 254.365
459.322, 234.565
460.658, 221.697
461.994, 219.729
463.329, 207.364
464.665, 204.252
466.000, 192.473
467.335, 200.818
468.669, 187.917
470.004, 193.035
471.338, 163.071
472.672, 175.602
474.006, 177.874
475.339, 191.258
476.673, 214.273
478.006, 230.269
479.339, 219.255
480.672, 213.206
482.004, 175.156
483.336, 189.298
484.668, 138.625
486.000, 188.946
487.332, 110.149
488.663, 149.530
489.994, 133.812
491.325, 98.374
492.656, 186.946
493.986, 228.498
495.316, 246.857
496.646, 262.469
497.976, 266.959
499.306, 298.602
500.635, 278.199
501.964, 325.951
503.293, 301.487
504.622, 333.173
505.950, 322.091
507.278, 427.762
508.606, 446.372
509.934, 510.814
511.262, 499.406
512.589, 383.408
513.916, 331.226
515.243, 288.982
516.570, 265.898
517.896, 255.324
519.222, 278.950
520.548, 279.409
521.874, 444.400
523.200, 505.547
524.525, 744.032
525.850, 1119.055
527.175, 1178.193
528.500, 1117.858
529.824, 864.962
531.148, 637.994
532.473, 398.201
533.796, 421.961
535.120, 407.677
536.443, 504.463
537.766, 514.335
539.089, 674.749
540.412, 835.839
541.734, 1147.218
543.057, 1671.179
544.379, 2453.717
545.700, 3724.541
547.022, 5508.009
548.343, 7577.305
549.664, 8426.771
550.985, 7657.001
552.306, 5724.774
553.627, 3933.022
554.947, 2672.365
556.267, 1877.623
557.587, 1368.113
558.906, 1100.678
560.226, 869.030
561.545, 732.304
562.864, 703.082
564.182, 639.155
565.501, 550.020
566.819, 626.682
568.137, 605.809
569.455, 493.234
570.773, 538.042
572.090, 509.118
573.407, 513.950
574.724, 458.904
576.041, 469.896
577.357, 457.778
578.674, 402.363
579.990, 426.148
581.305, 377.831
582.621, 405.437
583.937, 468.170
585.252, 450.786
586.567, 568.470
587.881, 665.031
589.196, 904.376
590.510, 1024.710
591.824, 966.054
593.138, 949.311
594.452, 726.294
595.765, 564.959
597.079, 471.153
598.392, 384.865
599.704, 261.411
601.017, 289.483
602.329, 279.624
603.641, 272.671
604.953, 260.519
606.265, 268.448
607.576, 268.238
608.888, 279.005
610.199, 295.792
611.509, 308.641
612.820, 339.725
614.130, 355.988
615.441, 381.112
616.751, 371.325
618.060, 365.514
619.370, 434.629
620.679, 384.716
621.988, 450.730
623.297, 423.709
624.606, 573.618
625.914, 568.539
627.222, 577.383
628.530, 640.225
629.838, 670.917
631.145, 522.634
632.453, 548.336
633.760, 452.069
635.067, 492.871
636.373, 350.686
637.680, 313.458
638.986, 268.179
640.292, 217.714
641.598, 170.281
642.904, 167.607
644.209, 192.113
645.514, 145.261
646.819, 164.543
648.124, 93.729
649.428, 88.735
650.733, 91.078
652.037, 134.506
653.340, 70.900
654.644, 96.258
655.948, 55.581
657.251, 61.865
658.554, 20.115
659.856, 10.675
661.159, 26.490
662.461, 0.617
663.763, 20.703
665.065, 30.752
666.367, 26.237
667.669, 25.719
668.970, 35.363
670.271, 32.504
671.572, 15.705
672.872, 97.955
674.173, 10.298
675.473, 45.688
676.773, 43.145
678.073, 2.666
679.372, 70.230
680.671, 11.874
681.971, 36.566
683.269, 86.320
684.568, 2.839
685.867, 54.045
687.165, 68.998
688.463, 56.030
689.761, 33.135
691.058, 32.299
692.356, 33.523
693.653, 34.807
694.950, 15.848
696.246, 38.536
697.543, 21.017
698.839, 36.469
700.135, 4.984
701.431, 0.605
702.727, 7.761
704.022, 42.088
705.317, 12.624
706.613, 25.384
707.907, 18.202
709.202, 9.073
710.496, 23.009
711.790, 9.949
713.084, 4.124
714.378, 1.997
715.672, 13.094
716.965, 12.234
718.258, 37.460
719.551, 9.676
720.844, 39.977
722.136, 3.337
723.428, 16.260
724.720, 0.182
726.012, 25.666
727.304, 6.796
728.595, 58.221
729.886, 22.610
731.177, 7.963
732.468, 27.724
733.758, 93.559
735.049, 40.806
736.339, 61.017
737.629, 73.193
738.918, 37.336
740.208, 59.446
741.497, 37.521
742.786, 61.562
744.075, 106.566
745.363, 103.539
746.652, 94.496
747.940, 108.422
749.228, 136.316
750.516, 201.180
751.803, 220.015
753.091, 153.827
754.378, 192.607
755.665, 263.326
756.951, 341.057
758.238, 282.763
759.524, 451.445
760.810, 334.069
762.096, 448.704
763.382, 459.314
764.667, 580.911
765.952, 603.485
767.237, 634.036
768.522, 757.562
769.806, 775.064
771.091, 817.542
772.375, 924.993
773.659, 891.419
774.943, 923.830
776.226, 882.216
777.509, 739.579
778.793, 897.919
780.075, 729.236
781.358, 774.529
782.641, 644.798
783.923, 651.042
785.205, 689.262
786.487, 612.459
787.768, 603.632
789.050, 592.783
790.331, 568.911
791.612, 643.016
792.892, 533.107
794.173, 637.177
795.453, 572.019
796.734, 595.648
798.013, 761.246
799.293, 750.924
800.573, 833.384
801.852, 994.902
803.131, 1038.102
804.410, 1161.260
805.688, 1179.404
806.967, 1437.708
808.245, 1620.722
809.523, 1686.820
810.801, 1832.729
812.079, 1965.208
813.356, 2089.344
814.633, 2255.333
815.910, 2396.068
817.187, 2602.664
818.463, 2807.363
819.740, 2981.045
821.016, 3129.998
822.292, 3360.623
823.568, 3708.825
824.843, 3831.179
826.118, 4009.555
827.393, 3923.745
828.668, 3725.388
829.943, 3482.798
831.217, 3210.353
832.492, 3090.341
833.766, 2994.142
835.039, 2875.572
836.313, 2759.437
837.586, 2642.175
838.860, 2609.788
840.133, 2590.561
841.405, 2584.842
842.678, 2662.395
843.950, 2709.372
845.222, 2806.850
846.494, 2903.918
847.766, 2986.125
849.038, 3084.395
850.309, 3187.954
851.580, 3183.213
852.851, 3304.875
854.122, 3448.940
855.392, 3502.716
856.662, 3817.836
857.932, 3851.103
859.202, 4166.179
860.472, 4406.462
861.741, 4686.187
863.011, 5157.418
864.280, 5646.525
865.548, 6274.688
866.817, 7233.583
868.085, 8062.367
869.354, 9420.325
870.622, 11008.320
871.889, 13074.774
873.157, 15972.891
874.424, 19269.771
875.691, 23918.660
876.958, 28277.783
878.225, 33256.512
879.492, 37334.141
880.758, 37893.273
882.024, 37442.914
883.290, 34122.176
884.556, 29371.436
885.821, 24960.980
887.086, 20720.545
888.352, 17009.938
889.616, 14499.471
890.881, 11679.292
892.145, 9888.951
893.410, 8288.507
894.674, 7037.877
895.938, 5916.984
897.201, 5046.726
898.465, 4430.374
899.728, 3921.114
900.991, 3451.932
902.254, 3082.768
903.516, 2774.710
904.779, 2460.170
906.041, 2424.769
907.303, 2220.043
908.565, 2207.472
909.826, 2027.800
911.087, 1854.108
912.349, 1814.415
913.609, 1625.144
914.870, 1551.607
916.131, 1501.912
917.391, 1363.429
918.651, 1298.878
919.911, 1277.089
921.171, 1195.438
922.430, 1082.785
923.690, 1012.898
924.949, 950.248
926.208, 921.462
927.466, 961.650
928.725, 820.919
929.983, 739.699
931.241, 776.013
932.499, 694.270
933.756, 604.340
935.014, 551.420
936.271, 513.305
937.528, 518.535
938.785, 513.588
940.042, 507.952
941.298, 505.220
942.554, 498.768
943.810, 494.857
945.066, 508.562
946.322, 504.179
947.577, 545.291
948.832, 486.533
950.087, 472.619
951.342, 489.665
952.596, 396.709
953.851, 400.654
955.105, 376.587
956.359, 274.502
957.613, 331.465
958.866, 211.396
960.119, 205.567
961.373, 162.043
962.626, 152.914
963.878, 151.461
965.131, 122.964
966.383, 131.123
967.635, 102.535
968.887, 127.065
970.139, 150.292
971.390, 111.142
972.642, 194.637
973.893, 216.078
975.144, 212.008
976.394, 291.577
977.645, 336.613
978.895, 316.950
980.145, 412.478
981.395, 421.429
982.645, 448.644
983.894, 508.351
985.143, 443.192
986.392, 612.604
987.641, 635.143
988.890, 457.615
990.138, 664.970
991.387, 618.363
992.635, 644.990
993.882, 596.499
995.130, 608.572
996.377, 597.661
997.625, 780.549
998.872, 717.262
1000.119, 862.461
1001.365, 850.426
1002.612, 1023.175
1003.858, 1016.986
1005.104, 1175.038
1006.350, 1137.676
1007.595, 1197.127
1008.841, 1170.475
1010.086, 1081.215
1011.331, 838.052
1012.576, 805.267
1013.820, 603.480
1015.065, 490.354
1016.309, 479.148
1017.553, 293.984
1018.796, 430.313
1020.040, 293.625
1021.283, 317.644
1022.527, 197.136
1023.770, 55.819
1025.012, 93.877
1026.255, 158.587
1027.497, 171.341
1028.739, 93.602
1029.981, 140.396
1031.223, 66.192
1032.465, 122.504
1033.706, 105.380
1034.947, 54.539
1036.188, 115.544
1037.429, 102.426
1038.669, 86.696
1039.910, 29.424
1041.150, 31.390
1042.390, 76.502
1043.630, 98.484
1044.869, 183.643
1046.108, 75.617
1047.348, 76.606
1048.587, 61.401
1049.825, 56.168
1051.064, 78.299
1052.302, 116.008
1053.540, 10.938
1054.778, 148.724
1056.016, 24.792
1057.254, 29.612
1058.491, 51.042
1059.728, 54.591
1060.965, 22.845
1062.202, 8.261
1063.438, 10.799
1064.674, 45.985
1065.911, 0.529
1067.147, 7.675
1068.382, 61.916
1069.618, 25.912
1070.853, 24.837
1072.088, 77.806
1073.323, 18.965
1074.558, 38.016
1075.792, 51.324
1077.027, 29.407
1078.261, 10.896
1079.495, 13.070
1080.729, 24.281
1081.962, 65.405
1083.195, 60.011
1084.428, 103.271
1085.661, 17.243
1086.894, 57.099
1088.127, 1.364
1089.359, 22.885
1090.591, 3.150
1091.823, 36.436
1093.055, 42.276
1094.286, 24.787
1095.518, 32.514
1096.749, 0.486
1097.980, 16.450
1099.210, 22.481
1100.441, 19.997
1101.671, 40.126
1102.901, 39.580
1104.131, 40.833
1105.361, 25.577
1106.591, 30.084
1107.820, 1.665
1109.049, 4.089
1110.278, 33.816
1111.507, 53.059
1112.735, 62.521
1113.964, 12.417
1115.192, 18.570
1116.420, 95.803
1117.648, 31.308
1118.875, 25.184
1120.102, 94.502
1121.330, 98.019
1122.557, 9.969
1123.783, 68.987
1125.010, 27.224
1126.236, 123.795
1127.462, 74.110
1128.688, 40.997
1129.914, 146.022
1131.140, 30.277
1132.365, 15.020
1133.590, 93.485
1134.815, 65.263
1136.040, 78.728
1137.265, 101.923
1138.489, 91.790
1139.713, 286.356
1140.937, 2.820
1142.161, 175.829
1143.385, 176.936
1144.608, 20.707
1145.831, 266.430
1147.054, 145.252
1148.277, 198.956
1149.500, 246.910
1150.722, 229.458
1151.944, 167.695
1153.166, 263.145
1154.388, 64.857
1155.610, 333.485
1156.831, 239.132
1158.052, 212.299
1159.273, 372.054
1160.494, 139.354
1161.715, 215.232
1162.935, 230.839
1164.156, 214.698
1165.376, 330.968
1166.595, 192.328
1167.815, 314.450
1169.035, 304.610
1170.254, 254.144
1171.473, 479.130
1172.692, 236.634
1173.910, 219.354
1175.129, 330.420
1176.347, 309.659
1177.565, 324.679
1178.783, 301.059
1180.001, 161.139
1181.218, 323.744
1182.436, 358.332
1183.653, 140.211
1184.870, 277.825
1186.086, 160.528
1187.303, 108.430
1188.519, 288.955
1189.735, 98.673
1190.951, 259.614
1192.167, 295.972
1193.382, 111.710
1194.598, 257.418
1195.813, 96.578
1197.028, 208.256
1198.243, 298.735
1199.457, 69.008
1200.672, 259.045
1201.886, 181.497
1203.100, 229.896
1204.314, 311.669
1205.527, 83.893
1206.740, 256.599
1207.954, 237.158
1209.167, 123.556
1210.379, 306.695
1211.592, 222.894
1212.805, 89.130
1214.017, 255.953
1215.229, 301.963
1216.441, 104.580
1217.652, 281.942
1218.864, 223.420
1220.075, 243.530
1221.286, 385.601
1222.497, 195.432
1223.707, 273.096
1224.918, 193.128
1226.128, 132.710
1227.338, 364.969
1228.548, 235.246
1229.758, 303.391
1230.967, 357.594
1232.177, 139.544
1233.386, 431.306
1234.595, 244.617
1235.803, 297.824
1237.012, 340.800
1238.220, 211.733
1239.428, 344.284
1240.636, 382.635
1241.844, 183.073
1243.052, 413.515
1244.259, 285.960
1245.466, 124.303
1246.673, 323.509
1247.880, 228.678
1249.087, 259.703
1250.293, 322.608
1251.499, 205.855
1252.705, 368.481
1253.911, 190.727
1255.117, 252.924
1256.322, 455.180
1257.527, 283.620
1258.732, 446.820
1259.937, 378.580
1261.142, 238.741
1262.346, 360.657
1263.551, 289.721
1264.755, 119.008
1265.958, 400.581
1267.162, 224.931
1268.366, 225.012
1269.569, 245.969
1270.772, 164.313
1271.975, 316.936
1273.178, 395.597
1274.380, 118.800
1275.583, 274.429
1276.785, 135.351
1277.987, 51.318
1279.188, 227.950
1280.390, 82.785
1281.591, 208.050
1282.793, 274.241
1283.994, 59.562
1285.194, 346.260
1286.395, 201.597
1287.595, 22.204
1288.796, 233.825
1289.996, 1.547
1291.196, 193.339
1292.395, 208.391
1293.595, 43.634
1294.794, 218.819
1295.993, 92.885
1297.192, 67.693
1298.391, 142.273
1299.589, 54.030
1300.787, 9.521
1301.986, 222.602
1303.183, 74.771
1304.381, 52.586
1305.579, 79.733
1306.776, 101.595
1307.973, 214.295
1309.170, 125.438
1310.367, 42.729
1311.564, 338.559
1312.760, 89.452
1313.956, 141.955
1315.152, 252.286
1316.348, 114.215
1317.544, 304.744
1318.739, 215.842
1319.934, 7.556
1321.129, 398.438
1322.324, 219.318
1323.519, 40.428
1324.713, 461.100
1325.908, 7.097
1327.102, 314.379
1328.296, 345.315
1329.489, 106.337
1330.683, 448.251
1331.876, 238.196
1333.070, 218.494
1334.262, 509.012
1335.455, 149.702
1336.648, 161.231
1337.840, 403.055
1339.032, 244.251
1340.224, 335.762
1341.416, 386.173
1342.608, 216.404
1343.799, 386.350
1344.991, 408.830
1346.182, 278.487
1347.373, 535.508
1348.563, 303.724
1349.754, 413.665
1350.944, 469.811
1352.134, 298.973
1353.324, 550.675
1354.514, 448.193
1355.703, 302.548
1356.893, 715.465
1358.082, 345.838
1359.271, 395.975
1360.460, 615.992
1361.648, 336.436
1362.837, 369.232
1364.025, 538.883
1365.213, 86.750
1366.401, 497.521
1367.588, 510.203
1368.776, 235.840
1369.963, 621.589
1371.150, 392.792
1372.337, 344.786
1373.524, 583.386
1374.710, 211.282
1375.897, 509.655
1377.083, 357.496
1378.269, 64.773
1379.455, 581.510
1380.640, 350.514
1381.825, 206.861
1383.011, 562.779
1384.196, 58.594
1385.381, 325.749
1386.565, 400.510
1387.750, 226.388
1388.934, 513.827
1390.118, 371.194
1391.302, 224.033
1392.485, 530.547
1393.669, 68.779
1394.852, 236.980
1396.035, 703.508
1397.218, 85.149
1398.401, 332.890
1399.584, 489.476
1400.766, 9.520
1401.948, 318.243
1403.130, 326.104
1404.312, 214.532
1405.494, 605.685
1406.675, 287.227
1407.856, 164.894
1409.037, 570.018
1410.218, 93.521
1411.399, 286.714
1412.579, 458.636
1413.760, 1.232
1414.940, 0.000
##END=



