##NAMES=Grossular
##RRUFFID=R060278
##IDEAL CHEMISTRY=Ca_3_Al_2_(SiO_4_)_3_
##LOCALITY=Diakon, Kayes Region, Mali
##OWNER=RRUFF
##SOURCE=Herb Obodda
##DESCRIPTION=Dark brown dodecahedral single crystal
##STATUS=The identification of this mineral has been confirmed by X-ray diffraction and chemical analysis
##URL=rruff.info/R060278
##MEASURED CHEMISTRY=(Ca_2.93_Mg_0.05_Mn_0.02_)_Σ=3_(Al_1.19_Fe^3+^_0.78_Ti_0.03_)_Σ=2_((Si_0.99_Al_0.01_)_Σ=1_O_4_)_3_
##PIN_ID=L01488
##ORIENTATION=Laser parallel to -a* (-1 0 0). Fiducial mark perpendicular to laser is parallel to b [0 1 0]
197.5200, 0.0000000E+00
198.7430, 121.4717
199.9670, 58.30029
201.1900, 246.7983
202.4130, 239.1670
203.6360, 254.5269
204.8590, 81.78418
206.0820, 65.40283
207.3050, 101.1558
208.5270, 62.31982
209.7490, 51.61621
210.9710, 16.36963
212.1930, 31.56689
213.4150, 24.81494
214.6370, 94.58691
215.8580, 125.5674
217.0790, 251.5835
218.3010, 440.4668
219.5210, 601.0596
220.7420, 842.2222
221.9630, 1010.832
223.1830, 1479.778
224.4040, 1740.971
225.6240, 2205.339
226.8440, 2700.937
228.0640, 3312.772
229.2840, 3751.753
230.5030, 4421.788
231.7230, 4718.806
232.9420, 5270.747
234.1610, 5552.554
235.3800, 5781.160
236.5990, 6221.494
237.8170, 6568.489
239.0360, 6499.095
240.2540, 5971.275
241.4720, 5274.996
242.6900, 4614.232
243.9080, 3738.960
245.1250, 3147.162
246.3430, 2546.819
247.5600, 1983.918
248.7770, 1589.444
249.9940, 1395.387
251.2110, 1223.736
252.4280, 1156.496
253.6450, 1171.114
254.8610, 1044.261
256.0770, 1146.576
257.2930, 1277.470
258.5090, 1642.591
259.7250, 1795.930
260.9400, 1765.493
262.1560, 1771.289
263.3710, 2061.321
264.5860, 2354.595
265.8010, 2693.111
267.0160, 2979.913
268.2310, 3307.961
269.4450, 3320.257
270.6600, 3606.744
271.8740, 3443.251
273.0880, 3449.772
274.3020, 3470.295
275.5150, 3278.825
276.7290, 3327.329
277.9420, 3051.883
279.1550, 3025.518
280.3680, 2845.259
281.5810, 2676.112
282.7940, 2614.091
284.0070, 2532.202
285.2190, 2343.453
286.4310, 2264.851
287.6430, 2163.398
288.8550, 2216.100
290.0670, 2199.610
291.2790, 2289.984
292.4900, 2338.172
293.7020, 2437.525
294.9130, 2621.047
296.1240, 2727.737
297.3350, 2797.599
298.5450, 2778.632
299.7560, 2962.837
300.9660, 2884.214
302.1760, 2984.764
303.3860, 3166.489
304.5960, 3311.391
305.8060, 3417.477
307.0150, 3763.728
308.2250, 3983.043
309.4340, 4228.226
310.6430, 4785.418
311.8520, 5254.708
313.0610, 5731.736
314.2700, 6172.588
315.4780, 6834.807
316.6860, 7104.492
317.8940, 7525.373
319.1020, 7734.495
320.3100, 7760.854
321.5180, 7454.451
322.7250, 7294.285
323.9330, 6882.353
325.1400, 6558.651
326.3470, 6415.176
327.5540, 6289.918
328.7600, 6282.873
329.9670, 6245.035
331.1730, 6303.401
332.3800, 6456.970
333.5860, 6505.409
334.7920, 6696.334
335.9970, 6750.480
337.2030, 6862.819
338.4080, 7015.346
339.6140, 7332.060
340.8190, 7801.957
342.0240, 8213.035
343.2290, 9020.266
344.4330, 9869.466
345.6380, 11197.58
346.8420, 12722.47
348.0460, 14740.47
349.2500, 16979.27
350.4540, 19585.99
351.6580, 22512.78
352.8610, 25905.53
354.0650, 29266.72
355.2680, 33169.12
356.4710, 36485.13
357.6740, 39018.16
358.8760, 41112.45
360.0790, 42259.99
361.2810, 43279.80
362.4840, 44454.86
363.6860, 45836.16
364.8880, 48334.70
366.0900, 50869.47
367.2910, 53808.45
368.4930, 55688.63
369.6940, 55867.04
370.8950, 53762.64
372.0960, 49985.44
373.2970, 44719.43
374.4980, 38900.61
375.6980, 33158.97
376.8980, 28208.50
378.0990, 23517.21
379.2990, 19839.08
380.4980, 16897.12
381.6980, 14668.32
382.8980, 12392.68
384.0970, 11108.20
385.2960, 9870.873
386.4950, 8907.695
387.6940, 8024.668
388.8930, 7409.786
390.0920, 6726.050
391.2900, 6319.985
392.4880, 6260.002
393.6860, 5804.689
394.8840, 5700.513
396.0820, 5709.473
397.2800, 5628.566
398.4770, 5214.790
399.6750, 5108.137
400.8720, 4667.601
402.0690, 4243.181
403.2660, 3784.880
404.4620, 3259.091
405.6590, 2523.680
406.8550, 2166.825
408.0510, 1648.161
409.2480, 1102.687
410.4430, 713.4224
411.6390, 632.3877
412.8350, 334.5825
414.0300, 228.0024
415.2250, 39.34131
416.4200, 123.4570
417.6150, 135.3462
418.8100, 189.0137
420.0050, 383.4619
421.1990, 297.7300
422.3940, 446.8062
423.5880, 340.7061
424.7820, 271.4399
425.9750, 328.9805
427.1690, 212.3340
428.3630, 198.3193
429.5560, 296.4624
430.7490, 99.23291
431.9420, 103.8013
433.1350, 40.17236
434.3280, 125.6592
435.5200, 62.68604
436.7130, 308.9136
437.9050, 352.3271
439.0970, 420.9033
440.2890, 393.6387
441.4810, 463.5298
442.6720, 545.5552
443.8640, 472.7119
445.0550, 454.9824
446.2460, 460.3467
447.4370, 445.8003
448.6280, 514.3413
449.8180, 649.9678
451.0090, 524.6724
452.1990, 489.4214
453.3890, 604.1548
454.5790, 515.8374
455.7690, 433.4985
456.9590, 525.1528
458.1480, 374.8096
459.3380, 368.5181
460.5270, 357.3013
461.7160, 405.1660
462.9050, 296.1079
464.0940, 200.1274
465.2820, 126.2241
466.4700, 89.39551
467.6590, 63.64111
468.8470, 34.95898
470.0350, 58.65186
471.2220, 78.79785
472.4100, 58.31641
473.5970, 161.9028
474.7850, 292.5566
475.9720, 384.2754
477.1590, 622.0581
478.3460, 834.8950
479.5320, 1193.794
480.7190, 1338.753
481.9050, 1784.774
483.0910, 2035.853
484.2770, 2294.989
485.4630, 2594.183
486.6490, 2754.460
487.8340, 2742.823
489.0200, 2827.270
490.2050, 2953.802
491.3900, 3058.417
492.5750, 3042.118
493.7600, 3084.907
494.9440, 3011.032
496.1290, 2854.737
497.3130, 2749.789
498.4970, 2492.919
499.6810, 2216.127
500.8650, 2141.411
502.0480, 1925.691
503.2320, 1739.192
504.4150, 1671.686
505.5980, 1586.247
506.7810, 1518.872
507.9640, 1276.562
509.1460, 1158.314
510.3290, 1083.128
511.5110, 1047.733
512.6930, 1206.937
513.8750, 1178.928
515.0570, 1403.976
516.2390, 1628.079
517.4210, 2011.237
518.6020, 2425.448
519.7830, 3015.711
520.9640, 3629.025
522.1450, 4681.392
523.3260, 5578.805
524.5060, 6991.266
525.6870, 8720.774
526.8670, 10319.33
528.0470, 12324.93
529.2270, 14065.58
530.4070, 15384.26
531.5870, 15926.99
532.7660, 15293.77
533.9450, 13921.58
535.1240, 11721.43
536.3030, 9562.322
537.4820, 7295.251
538.6610, 5736.218
539.8390, 4402.220
541.0180, 3395.257
542.1960, 2614.329
543.3740, 2133.435
544.5520, 1803.330
545.7290, 1500.616
546.9070, 1539.431
548.0840, 1567.090
549.2620, 1551.238
550.4390, 1548.671
551.6160, 1737.419
552.7920, 1826.861
553.9690, 1879.615
555.1450, 2048.748
556.3220, 2010.596
557.4980, 2116.041
558.6740, 2271.190
559.8490, 2161.212
561.0250, 2090.697
562.2000, 1952.087
563.3760, 1848.199
564.5510, 1776.922
565.7260, 1644.914
566.9010, 1458.679
568.0750, 1374.187
569.2500, 1211.177
570.4240, 1117.013
571.5980, 949.4600
572.7720, 822.9238
573.9460, 762.3994
575.1200, 644.1118
576.2930, 625.8423
577.4670, 511.2065
578.6400, 493.0039
579.8130, 559.4854
580.9860, 455.3013
582.1590, 432.4595
583.3310, 574.7607
584.5040, 570.4790
585.6760, 734.9443
586.8480, 683.8057
588.0200, 914.0439
589.1920, 1019.996
590.3630, 1180.909
591.5350, 1332.784
592.7060, 1629.620
593.8770, 1771.416
595.0480, 2021.172
596.2190, 1999.888
597.3900, 2317.564
598.5600, 2338.200
599.7310, 2544.796
600.9010, 2580.352
602.0710, 2553.865
603.2410, 2846.338
604.4100, 2809.768
605.5800, 2929.156
606.7490, 2935.500
607.9190, 3042.800
609.0880, 3069.057
610.2570, 3121.268
611.4250, 3191.885
612.5940, 3190.005
613.7620, 3205.080
614.9310, 3224.106
616.0990, 3166.086
617.2670, 3056.019
618.4340, 2935.903
619.6020, 2805.739
620.7690, 2558.527
621.9370, 2371.574
623.1040, 2140.953
624.2710, 1879.591
625.4380, 1626.932
626.6040, 1357.715
627.7710, 1134.201
628.9370, 993.6343
630.1030, 819.0161
631.2690, 776.3447
632.4350, 719.6191
633.6010, 591.8403
634.7660, 601.0068
635.9320, 611.1187
637.0970, 575.1763
638.2620, 699.1782
639.4270, 680.1250
640.5920, 736.0161
641.7560, 799.8511
642.9210, 949.6304
644.0850, 1069.353
645.2490, 1077.019
646.4130, 1090.627
647.5770, 1116.180
648.7400, 1158.676
649.9040, 1159.113
651.0670, 1186.493
652.2300, 1116.816
653.3930, 1072.081
654.5560, 998.2881
655.7190, 947.3418
656.8810, 878.2246
658.0440, 872.5596
659.2060, 764.5332
660.3680, 794.4482
661.5300, 801.3042
662.6910, 746.1016
663.8530, 655.8398
665.0140, 759.5195
666.1750, 664.1396
667.3360, 707.7012
668.4970, 737.2031
669.6580, 714.6460
670.8190, 776.3247
671.9790, 849.3540
673.1390, 843.6182
674.2990, 866.8232
675.4590, 863.9683
676.6190, 745.0542
677.7790, 786.0801
678.9380, 664.0459
680.0970, 500.9521
681.2570, 491.7988
682.4160, 404.5850
683.5740, 235.3101
684.7330, 216.9634
685.8920, 14.53955
687.0500, 30.03320
688.2080, 116.7788
689.3660, 120.7446
690.5240, 204.9302
691.6820, 279.3823
692.8390, 284.1382
693.9960, 274.2017
695.1540, 317.5664
696.3110, 307.2559
697.4680, 336.2593
698.6240, 324.5825
699.7810, 343.2163
700.9370, 311.1636
702.0940, 304.3774
703.2500, 344.8662
704.4060, 235.6260
705.5610, 303.6162
706.7170, 319.8833
707.8720, 262.4263
709.0280, 302.2305
710.1830, 337.3188
711.3380, 267.6938
712.4920, 256.3452
713.6470, 253.2661
714.8020, 210.4600
715.9560, 238.9087
717.1100, 184.6265
718.2640, 102.5825
719.4180, 94.73291
720.5720, 87.07129
721.7250, 12.59326
722.8780, 6.257324
724.0320, 53.94141
725.1850, 217.0366
726.3380, 292.0654
727.4900, 430.0366
728.6430, 361.9529
729.7950, 572.8152
730.9470, 603.6243
732.1000, 752.3809
733.2510, 876.0850
734.4030, 1095.737
735.5550, 1107.339
736.7060, 1368.889
737.8570, 1451.389
739.0090, 1679.839
740.1600, 1918.240
741.3100, 2072.591
742.4610, 2291.894
743.6110, 2469.150
744.7620, 2707.357
745.9120, 2903.517
747.0620, 3011.630
748.2120, 3348.697
749.3610, 3636.720
750.5110, 3691.705
751.6600, 4014.646
752.8090, 4343.543
753.9580, 4539.395
755.1070, 4843.207
756.2560, 5115.973
757.4050, 5713.699
758.5530, 5941.381
759.7010, 6358.025
760.8490, 6556.626
761.9970, 6953.187
763.1450, 7058.710
764.2920, 7175.193
765.4400, 7217.638
766.5870, 7189.043
767.7340, 7021.413
768.8810, 6830.750
770.0280, 6589.054
771.1740, 6317.336
772.3210, 5955.605
773.4670, 5708.866
774.6130, 5447.136
775.7590, 5168.417
776.9050, 4938.711
778.0510, 4775.022
779.1960, 4722.348
780.3420, 4667.688
781.4870, 4732.037
782.6320, 4736.396
783.7770, 4810.771
784.9210, 4765.147
786.0660, 5160.529
787.2100, 5140.937
788.3540, 5373.356
789.4980, 5728.797
790.6420, 5997.250
791.7860, 6213.711
792.9300, 6659.177
794.0730, 7176.639
795.2160, 7727.103
796.3590, 8373.843
797.5020, 9132.081
798.6450, 9861.608
799.7880, 10773.16
800.9300, 11725.74
802.0720, 12756.34
803.2150, 13719.97
804.3560, 14987.62
805.4980, 16193.29
806.6400, 17312.94
807.7810, 18442.61
808.9230, 19831.29
810.0640, 20989.98
811.2050, 22406.70
812.3460, 23629.44
813.4860, 24776.21
814.6270, 25954.98
815.7670, 26872.73
816.9070, 27550.51
818.0470, 27927.39
819.1870, 27960.04
820.3270, 27975.79
821.4670, 27335.77
822.6060, 26829.38
823.7450, 25956.49
824.8840, 25036.78
826.0230, 23879.62
827.1620, 23076.20
828.3010, 22434.49
829.4390, 21184.12
830.5770, 19872.45
831.7150, 19319.43
832.8530, 18442.71
833.9910, 17854.66
835.1290, 17509.84
836.2660, 16858.80
837.4030, 16524.65
838.5410, 16270.58
839.6780, 16051.02
840.8140, 15812.99
841.9510, 15775.91
843.0870, 15801.66
844.2240, 15765.50
845.3600, 15737.05
846.4960, 15679.22
847.6320, 15516.31
848.7680, 15409.91
849.9030, 15254.36
851.0380, 15168.16
852.1740, 15325.80
853.3090, 15207.82
854.4440, 15379.42
855.5780, 15618.34
856.7130, 15988.94
857.8470, 16424.22
858.9820, 17142.35
860.1160, 17786.09
861.2500, 18738.09
862.3830, 19832.70
863.5170, 21201.95
864.6500, 22314.49
865.7840, 23888.08
866.9170, 25279.72
868.0500, 26956.41
869.1830, 28355.14
870.3150, 30248.92
871.4480, 31811.76
872.5800, 33058.64
873.7120, 34031.58
874.8440, 34793.56
875.9760, 35109.59
877.1080, 34982.68
878.2390, 33990.82
879.3710, 32838.01
880.5020, 31306.25
881.6330, 29169.54
882.7640, 27472.89
883.8940, 25389.29
885.0250, 23633.74
886.1550, 21949.24
887.2850, 20178.81
888.4160, 18429.42
889.5450, 17060.09
890.6750, 15675.19
891.8050, 14528.59
892.9340, 13372.42
894.0630, 12457.30
895.1930, 11499.25
896.3220, 10651.25
897.4500, 9994.299
898.5790, 9273.410
899.7070, 8555.574
900.8360, 7921.797
901.9640, 7580.081
903.0920, 7052.416
904.2200, 6664.409
905.3470, 6221.235
906.4750, 6045.044
907.6020, 5646.710
908.7290, 5320.555
909.8560, 5220.199
910.9830, 4991.962
912.1100, 4933.305
913.2360, 4830.057
914.3630, 4713.913
915.4890, 4667.390
916.6150, 4560.243
917.7410, 4521.091
918.8670, 4407.463
919.9920, 4467.104
921.1180, 4430.111
922.2430, 4450.447
923.3680, 4499.637
924.4930, 4486.833
925.6180, 4529.012
926.7420, 4559.940
927.8670, 4619.199
928.9910, 4649.990
930.1150, 4769.374
931.2390, 4873.901
932.3630, 4950.386
933.4860, 5055.953
934.6100, 5251.075
935.7330, 5317.736
936.8560, 5344.242
937.9790, 5220.650
939.1020, 5203.457
940.2250, 5179.663
941.3470, 5121.979
942.4700, 4986.575
943.5920, 4772.638
944.7140, 4539.550
945.8360, 4233.785
946.9570, 4007.571
948.0790, 3762.116
949.2000, 3487.401
950.3220, 3204.306
951.4430, 2952.900
952.5640, 2900.763
953.6840, 2598.043
954.8050, 2521.946
955.9250, 2567.751
957.0460, 2608.723
958.1660, 2712.639
959.2860, 2897.632
960.4050, 3063.460
961.5250, 3248.852
962.6440, 3599.762
963.7640, 3749.435
964.8830, 3994.672
966.0020, 4226.353
967.1210, 4366.125
968.2390, 4625.028
969.3580, 4940.034
970.4760, 4945.195
971.5940, 5078.533
972.7120, 5305.028
973.8300, 5608.688
974.9480, 5638.506
976.0650, 5697.495
977.1830, 5725.625
978.3000, 5925.913
979.4170, 5966.362
980.5340, 5919.958
981.6500, 5835.709
982.7670, 5973.624
983.8830, 6028.685
985.0000, 5872.886
986.1160, 6002.228
987.2320, 5861.695
988.3470, 5808.300
989.4630, 5779.021
990.5780, 5876.839
991.6940, 5835.750
992.8090, 5760.753
993.9240, 5661.828
995.0380, 5769.967
996.1530, 5793.158
997.2680, 5691.380
998.3820, 5526.629
999.4960, 5469.903
1000.610, 5342.203
1001.724, 4970.526
1002.837, 4714.873
1003.951, 4258.244
1005.064, 3774.636
1006.177, 3357.048
1007.291, 2857.482
1008.403, 2401.942
1009.516, 2056.426
1010.629, 1658.934
1011.741, 1459.463
1012.853, 1205.018
1013.965, 1176.591
1015.077, 1034.191
1016.189, 1066.809
1017.300, 1085.446
1018.412, 1192.104
1019.523, 1140.779
1020.634, 1343.476
1021.745, 1491.219
1022.856, 1482.003
1023.966, 1507.800
1025.077, 1356.611
1026.187, 1317.436
1027.297, 1136.280
1028.407, 930.1455
1029.517, 776.0293
1030.627, 623.9407
1031.736, 420.9395
1032.845, 248.8701
1033.955, 173.8103
1035.064, 68.77954
1036.172, 66.74219
1037.281, 32.27856
1038.390, 19.27319
1039.498, 86.23584
1040.606, 119.2766
1041.714, 134.1790
1042.822, 190.3130
1043.930, 187.9443
1045.037, 208.8171
1046.145, 195.2161
1047.252, 192.7083
1048.359, 191.2937
1049.466, 155.9746
1050.573, 161.7332
1051.679, 175.5752
1052.786, 121.5103
1053.892, 123.5127
1054.998, 204.5852
1056.104, 134.7722
1057.210, 178.9741
1058.315, 127.2588
1059.421, 126.7100
1060.526, 84.24268
1061.631, 60.83667
1062.736, 84.50366
1063.841, 115.1902
1064.946, 142.9822
1066.050, 156.8726
1067.154, 162.4224
1068.258, 119.9827
1069.362, 146.1865
1070.466, 141.4973
1071.570, 112.9153
1072.674, 116.2764
1073.777, 34.96582
1074.880, 84.65723
1075.983, 57.36328
1077.086, 36.12598
1078.189, 149.9500
1079.291, 76.89526
1080.394, 100.9255
1081.496, 15.05542
1082.598, 50.75928
1083.700, 62.45044
1084.802, 34.25928
1085.903, 51.93457
1087.005, 71.58252
1088.106, 94.95312
1089.207, 45.82715
1090.308, 97.41211
1091.409, 31.97632
1092.509, 39.49683
1093.610, 32.97559
1094.710, 27.68066
1095.810, 93.78906
1096.910, 52.14233
1098.010, 146.4524
1099.110, 165.7378
1100.209, 177.9973
1101.309, 195.2307
1102.408, 311.4377
1103.507, 204.6177
1104.606, 263.7688
1105.704, 234.8911
1106.803, 360.9834
1107.901, 278.0449
1108.999, 357.0745
1110.097, 310.0715
1111.195, 358.0349
1112.293, 344.9639
1113.391, 460.8574
1114.488, 444.7151
1115.585, 463.5352
1116.682, 435.3176
1117.779, 504.0610
1118.876, 525.7649
1119.973, 635.4851
1121.069, 572.1077
1122.165, 637.6880
1123.261, 629.2917
1124.357, 586.1228
1125.453, 562.8203
1126.549, 589.2734
1127.644, 408.6353
1128.739, 480.1082
1129.835, 447.7222
1130.930, 546.2585
1132.024, 464.6250
1133.119, 543.8999
1134.214, 426.3113
1135.308, 460.5022
1136.402, 394.4934
1137.496, 474.4766
1138.590, 463.3933
1139.684, 418.7642
1140.777, 473.0298
1141.871, 466.3857
1142.964, 435.3264
1144.057, 478.6843
1145.150, 471.5244
1146.243, 412.1409
1147.335, 403.1477
1148.428, 401.5173
1149.520, 456.9348
1150.612, 422.3921
1151.704, 410.7378
1152.796, 439.3679
1153.887, 374.8213
1154.979, 454.2737
1156.070, 373.7861
1157.161, 405.2415
1158.252, 448.1780
1159.343, 440.4653
1160.433, 476.2749
1161.524, 496.2444
1162.614, 375.3875
1163.704, 399.2993
1164.794, 434.4285
1165.884, 396.1948
1166.974, 419.3274
1168.063, 406.2903
1169.153, 402.8267
1170.242, 395.8369
1171.331, 417.2534
1172.420, 363.5593
1173.508, 415.5442
1174.597, 392.9116
1175.685, 432.0725
1176.774, 435.5637
1177.862, 418.6609
1178.950, 426.2141
1180.037, 414.2329
1181.125, 409.4939
1182.212, 392.8208
1183.300, 390.8721
1184.387, 368.0735
1185.474, 414.9087
1186.560, 330.4177
1187.647, 294.2542
1188.733, 279.9055
1189.820, 304.5747
1190.906, 344.0537
1191.992, 359.9766
1193.078, 349.1492
1194.163, 374.2327
1195.249, 393.9470
1196.334, 355.5061
1197.419, 358.7964
1198.504, 288.5552
1199.589, 269.7534
1200.674, 263.0430
1201.758, 239.8965
1202.843, 248.7974
1203.927, 261.5437
1205.011, 252.7866
1206.095, 312.1335
1207.179, 310.0593
1208.262, 241.0166
1209.345, 382.7764
1210.429, 319.8916
1211.512, 266.2556
1212.595, 251.8684
1213.677, 218.8359
1214.760, 181.6174
1215.842, 288.6274
1216.925, 234.2202
1218.007, 254.3357
1219.089, 325.3921
1220.171, 301.3828
1221.252, 270.4067
1222.334, 243.3477
1223.415, 231.5088
1224.496, 227.8540
1225.577, 325.4709
1226.658, 240.0496
1227.738, 302.1870
1228.819, 308.0586
1229.899, 275.9043
1230.979, 367.8054
1232.060, 308.6736
1233.139, 272.5278
1234.219, 238.3347
1235.299, 239.1208
1236.378, 270.8723
1237.457, 241.5906
1238.536, 237.2747
1239.615, 219.9253
1240.694, 236.5420
1241.772, 250.1257
1242.851, 177.6758
1243.929, 234.1929
1245.007, 176.6770
1246.085, 191.1282
1247.163, 195.5469
1248.240, 173.9331
1249.318, 129.2869
1250.395, 161.6082
1251.472, 183.8975
1252.549, 125.1548
1253.626, 63.38013
1254.703, 80.57104
1255.779, 127.7288
1256.855, 154.8550
1257.931, 99.95020
1259.007, 59.01367
1260.083, 62.04370
1261.159, 90.04102
1262.234, 100.0063
1263.310, 57.94116
1264.385, 95.84375
1265.460, 223.7153
1266.535, 120.9531
1267.610, 124.4668
1268.684, 7.156494
1269.758, 37.89844
1270.833, 4.607666
1271.907, 68.27344
1272.981, 1.909912
1274.054, 66.50244
1275.128, 4.933838
1276.201, 29.58350
1277.275, 28.06958
1278.348, 3.524658
1279.421, 91.93970
1280.493, 7.672119
1281.566, 93.32837
1282.638, 76.07373
1283.711, 40.10205
1284.783, 26.25024
1285.855, 26.37012
1286.927, 10.53760
1287.998, 17.48730
1289.070, 11.48218
1290.141, 47.51831
1291.212, 22.38623
1292.283, 52.18799
1293.354, 12.04297
1294.425, 3.128418
1295.495, 5.650391
1296.566, 25.58228
1297.636, 14.09790
1298.706, 88.81226
1299.776, 8.431396
1300.845, 53.09717
1301.915, 94.58594
1302.984, 41.26221
1304.054, 59.94800
1305.123, 136.6711
1306.191, 75.42651
1307.260, 71.21069
1308.329, 75.02466
1309.397, 18.86914
1310.465, 34.73535
1311.534, 108.6257
1312.602, 96.54639
1313.669, 136.4849
1314.737, 96.44287
1315.804, 23.43994
1316.872, 87.39258
1317.939, 76.35718
1319.006, 96.42944
1320.073, 97.52466
1321.139, 92.63110
1322.206, 91.74414
1323.272, 134.8708
1324.338, 12.01953
1325.404, 78.19409
1326.470, 49.38940
1327.536, 86.62109
1328.601, 31.88013
1329.667, 60.17090
1330.732, 29.49585
1331.797, 28.83252
1332.862, 16.80273
1333.926, 30.54907
1334.991, 57.07739
1336.055, 46.29810
1337.120, 15.68384
1338.184, 28.11108
1339.248, 62.56079
1340.311, 37.04053
1341.375, 49.52856
1342.438, 13.99121
1343.502, 59.50879
1344.565, 66.00562
1345.628, 5.497070
1346.691, 58.02075
1347.753, 19.43823
1348.816, 25.89404
1349.878, 57.33984
1350.940, 70.78735
1352.002, 25.23584
1353.064, 70.68701
1354.126, 98.14258
1355.187, 99.69775
1356.248, 20.14673
1357.310, 85.58643
1358.371, 19.01733
1359.431, 86.43921
1360.492, 56.85229
1361.553, 144.2571
1362.613, 59.65332
1363.673, 105.0420
