##NAMES=Grossular
##RRUFFID=R040066
##IDEAL CHEMISTRY=Ca_3_Al_2_(SiO_4_)_3_
##LOCALITY=Redding, Connecticut, USA
##OWNER=RRUFF
##SOURCE=University of Arizona Mineral Museum
##DESCRIPTION=Reddish orange coarsely crystalline
##STATUS=The identification of this mineral has been confirmed by X-ray diffraction and chemical analysis
##URL=rruff.info/R040066
##MEASURED CHEMISTRY=(Ca_2.90_Fe^2+^_0.08_Mn_0.02_)_Σ=3_(Al_1.87_Fe^3+^_0.13_)_Σ=2_(Si_1.00_O_4_)_3_
##PIN_ID=M00416
##ORIENTATION=Laser parallel to a* (1 0 0). Fiducial mark perpendicular to laser is parallel to b [0 1 0]
163.938, 0.000
165.324, 2.642
166.710, 26.051
168.095, 105.554
169.480, 63.274
170.865, 129.718
172.250, 166.519
173.635, 444.045
175.019, 729.662
176.403, 1410.659
177.787, 1712.407
179.171, 1416.443
180.554, 1040.372
181.937, 515.397
183.320, 352.929
184.703, 268.542
186.086, 150.757
187.468, 266.869
188.850, 150.760
190.232, 232.016
191.614, 124.142
192.995, 158.370
194.376, 233.557
195.757, 191.062
197.138, 219.091
198.518, 87.916
199.899, 142.292
201.279, 82.617
202.659, 114.737
204.038, 66.683
205.418, 82.479
206.797, 86.143
208.176, 14.311
209.554, 51.130
210.933, 26.523
212.311, 30.265
213.689, 19.089
215.067, 18.193
216.445, 42.183
217.822, 90.898
219.199, 36.958
220.576, 29.244
221.953, 27.500
223.330, 57.195
224.706, 1.844
226.082, 117.453
227.458, 157.023
228.833, 288.559
230.209, 402.458
231.584, 730.176
232.959, 1114.044
234.334, 1510.745
235.708, 2138.524
237.082, 2135.826
238.456, 2179.395
239.830, 2032.033
241.204, 2320.737
242.577, 3079.499
243.951, 3797.311
245.323, 4053.166
246.696, 2537.058
248.069, 1512.981
249.441, 766.928
250.813, 472.893
252.185, 391.870
253.557, 164.853
254.928, 169.840
256.299, 158.829
257.670, 190.816
259.041, 206.799
260.411, 209.493
261.782, 175.024
263.152, 213.610
264.522, 120.489
265.891, 91.321
267.261, 168.127
268.630, 367.924
269.999, 581.722
271.368, 1094.527
272.736, 1693.339
274.104, 2621.155
275.473, 3111.975
276.840, 2905.798
278.208, 2280.626
279.576, 1347.460
280.943, 1006.299
282.310, 723.144
283.677, 659.995
285.043, 565.854
286.409, 444.719
287.776, 535.592
289.141, 280.469
290.507, 390.352
291.873, 193.242
293.238, 216.141
294.603, 115.093
295.968, 40.039
297.332, 49.117
298.697, 154.187
300.061, 117.096
301.425, 1.152
302.788, 79.201
304.152, 65.253
305.515, 65.350
306.878, 118.498
308.241, 1.311
309.603, 188.099
310.966, 218.887
312.328, 182.012
313.690, 253.439
315.052, 188.089
316.413, 249.717
317.774, 317.284
319.136, 386.787
320.496, 433.224
321.857, 529.595
323.217, 675.900
324.578, 867.132
325.938, 1224.288
327.297, 1417.371
328.657, 1222.391
330.016, 965.347
331.375, 674.240
332.734, 680.072
334.093, 580.815
335.451, 504.466
336.810, 677.000
338.168, 639.483
339.525, 865.817
340.883, 881.127
342.240, 1098.400
343.597, 1273.668
344.954, 1386.933
346.311, 1433.948
347.668, 1294.196
349.024, 1426.162
350.380, 1476.266
351.736, 1627.138
353.091, 1915.074
354.447, 2125.021
355.802, 2579.772
357.157, 2975.508
358.512, 3739.970
359.866, 4410.343
361.221, 5406.976
362.575, 7294.361
363.928, 8822.003
365.282, 11956.973
366.636, 13884.577
367.989, 16861.000
369.342, 21418.533
370.695, 26426.340
372.047, 33963.512
373.400, 34571.613
374.752, 32019.826
376.104, 25828.051
377.455, 18396.254
378.807, 14404.402
380.158, 10112.514
381.509, 8030.577
382.860, 6218.631
384.211, 4796.681
385.561, 4088.742
386.911, 3175.821
388.261, 2848.916
389.611, 2349.021
390.961, 2348.130
392.310, 2077.254
393.659, 1513.387
395.008, 1474.534
396.357, 1313.698
397.705, 1256.873
399.053, 1258.061
400.401, 1197.262
401.749, 1176.467
403.097, 1076.688
404.444, 1192.917
405.791, 1081.160
407.138, 1284.410
408.485, 1448.661
409.832, 1475.924
411.178, 1845.049
412.524, 2007.049
413.870, 1850.334
415.216, 1508.621
416.561, 981.920
417.906, 867.221
419.251, 464.529
420.596, 558.845
421.941, 371.161
423.285, 330.485
424.629, 338.811
425.973, 157.143
427.317, 269.478
428.661, 155.815
430.004, 125.153
431.347, 199.491
432.690, 84.833
434.032, 233.186
435.375, 180.537
436.717, 216.895
438.059, 209.251
439.401, 202.607
440.743, 203.860
442.084, 197.342
443.425, 270.619
444.766, 206.457
446.107, 256.166
447.447, 429.575
448.788, 344.172
450.128, 623.100
451.468, 521.028
452.807, 584.306
454.147, 694.795
455.486, 587.140
456.825, 687.485
458.164, 522.816
459.502, 769.138
460.841, 645.449
462.179, 660.748
463.517, 716.037
464.855, 547.315
466.192, 644.581
467.530, 553.836
468.867, 640.080
470.204, 705.314
471.540, 782.537
472.877, 966.750
474.213, 1009.953
475.549, 1024.146
476.885, 987.328
478.221, 717.502
479.556, 783.667
480.891, 605.822
482.226, 572.969
483.561, 594.108
484.895, 481.240
486.230, 604.363
487.564, 529.479
488.898, 703.586
490.232, 615.686
491.565, 800.779
492.898, 889.863
494.231, 943.942
495.564, 1131.012
496.897, 1045.076
498.229, 1112.132
499.562, 1136.362
500.894, 1039.409
502.225, 1238.845
503.557, 1242.915
504.888, 1465.192
506.220, 1567.088
507.550, 1380.141
508.881, 1365.724
510.212, 1067.658
511.542, 944.513
512.872, 868.131
514.202, 670.719
515.532, 711.902
516.861, 650.243
518.191, 646.705
519.520, 604.400
520.848, 633.913
522.177, 716.661
523.505, 728.844
524.834, 709.355
526.162, 601.899
527.489, 564.335
528.817, 684.010
530.144, 610.123
531.472, 827.628
532.798, 793.409
534.125, 1085.994
535.452, 1387.680
536.778, 1615.830
538.104, 2384.748
539.430, 3097.015
540.756, 4616.865
542.081, 6367.229
543.406, 8887.826
544.731, 11416.284
546.056, 10607.354
547.381, 9016.778
548.705, 6457.531
550.030, 4056.477
551.354, 2915.702
552.677, 1888.683
554.001, 1490.731
555.324, 1098.169
556.647, 901.013
557.970, 829.122
559.293, 622.099
560.616, 648.000
561.938, 566.230
563.260, 613.354
564.582, 610.052
565.904, 512.291
567.225, 634.195
568.546, 560.041
569.868, 516.203
571.188, 633.308
572.509, 537.211
573.829, 730.554
575.150, 855.167
576.470, 556.050
577.790, 538.659
579.109, 442.391
580.429, 497.651
581.748, 399.510
583.067, 437.758
584.385, 391.119
585.704, 372.926
587.022, 426.333
588.340, 388.374
589.658, 447.846
590.976, 439.247
592.294, 279.710
593.611, 413.972
594.928, 186.425
596.245, 273.726
597.562, 294.784
598.878, 260.246
600.194, 329.258
601.510, 288.463
602.826, 432.676
604.142, 503.619
605.457, 454.788
606.773, 606.684
608.088, 566.557
609.402, 589.406
610.717, 591.232
612.031, 591.034
613.346, 740.814
614.660, 672.569
615.973, 777.302
617.287, 724.010
618.600, 749.695
619.913, 925.356
621.226, 931.993
622.539, 1230.606
623.852, 1243.196
625.164, 1479.762
626.476, 1508.303
627.788, 1346.820
629.100, 1352.313
630.411, 1001.783
631.722, 795.228
633.033, 779.648
634.344, 536.045
635.655, 400.417
636.965, 368.765
638.276, 229.088
639.586, 236.387
640.896, 118.662
642.205, 204.910
643.515, 72.133
644.824, 150.328
646.133, 105.498
647.442, 7.640
648.750, 151.749
650.059, 23.168
651.367, 4.875
652.675, 35.116
653.983, 25.151
655.290, 31.773
656.598, 50.333
657.905, 14.486
659.212, 52.322
660.518, 73.899
661.825, 35.828
663.131, 77.475
664.437, 53.831
665.743, 28.767
667.049, 70.667
668.354, 37.848
669.660, 34.667
670.965, 97.224
672.270, 71.838
673.574, 41.502
674.879, 10.788
676.183, 81.953
677.487, 16.747
678.791, 93.580
680.095, 109.468
681.398, 49.414
682.701, 72.405
684.005, 83.447
685.307, 8.458
686.610, 105.668
687.912, 35.852
689.215, 94.078
690.517, 17.357
691.818, 19.325
693.120, 64.022
694.421, 45.583
695.723, 42.840
697.024, 61.306
698.324, 19.183
699.625, 69.359
700.925, 54.051
702.226, 39.566
703.526, 36.224
704.825, 83.079
706.125, 43.645
707.424, 28.590
708.723, 29.204
710.022, 1.034
711.321, 0.103
712.620, 10.210
713.918, 131.288
715.216, 25.657
716.514, 87.639
717.812, 49.332
719.109, 34.724
720.407, 113.184
721.704, 0.067
723.001, 18.078
724.297, 74.745
725.594, 1.458
726.890, 57.311
728.186, 12.945
729.482, 39.768
730.778, 50.456
732.073, 34.119
733.369, 73.757
734.664, 29.373
735.959, 55.962
737.253, 182.529
738.548, 10.074
739.842, 108.594
741.136, 53.093
742.430, 45.569
743.724, 220.021
745.017, 42.453
746.310, 139.862
747.603, 148.250
748.896, 118.619
750.189, 154.967
751.481, 139.650
752.774, 159.604
754.066, 140.893
755.357, 132.163
756.649, 142.413
757.941, 194.644
759.232, 185.856
760.523, 201.049
761.814, 174.223
763.104, 160.379
764.395, 149.517
765.685, 244.636
766.975, 245.737
768.265, 147.820
769.554, 340.885
770.844, 196.933
772.133, 148.963
773.422, 216.976
774.711, 223.971
775.999, 345.950
777.288, 222.912
778.576, 290.857
779.864, 287.786
781.152, 288.518
782.439, 368.415
783.727, 286.901
785.014, 329.736
786.301, 318.348
787.588, 327.323
788.874, 377.122
790.161, 415.370
791.447, 494.255
792.733, 531.346
794.019, 539.366
795.304, 650.542
796.590, 597.100
797.875, 692.481
799.160, 811.719
800.445, 771.701
801.729, 1082.841
803.014, 1061.723
804.298, 1278.146
805.582, 1521.218
806.865, 1559.236
808.149, 2024.339
809.432, 2331.181
810.716, 2607.563
811.999, 3213.530
813.281, 3404.201
814.564, 4266.048
815.846, 4685.771
817.128, 5507.010
818.410, 6846.461
819.692, 7445.540
820.974, 9026.023
822.255, 9665.973
823.536, 9945.664
824.817, 10357.481
826.098, 9256.663
827.379, 8907.479
828.659, 7916.942
829.939, 6998.191
831.219, 6750.140
832.499, 5730.312
833.779, 5622.404
835.058, 5223.085
836.337, 4683.343
837.616, 4935.321
838.895, 4465.411
840.173, 4427.556
841.452, 4618.354
842.730, 4179.237
844.008, 4801.531
845.286, 4392.263
846.563, 4524.311
847.841, 4725.405
849.118, 4317.162
850.395, 4728.958
851.672, 4460.943
852.948, 4413.467
854.225, 4804.705
855.501, 4494.512
856.777, 4956.713
858.053, 5067.773
859.328, 5120.285
860.604, 5772.178
861.879, 5643.660
863.154, 6896.013
864.429, 7307.911
865.703, 7880.200
866.978, 9801.857
868.252, 10394.082
869.526, 13066.365
870.800, 15558.580
872.073, 18100.992
873.347, 23203.201
874.620, 25915.545
875.893, 31128.117
877.166, 35260.266
878.438, 34602.844
879.711, 37675.215
880.983, 33267.551
882.255, 29590.148
883.527, 27012.498
884.798, 20525.102
886.070, 18347.709
887.341, 15010.326
888.612, 11652.947
889.883, 10365.573
891.154, 8128.206
892.424, 7160.843
893.694, 6233.487
894.964, 5186.137
896.234, 4858.793
897.504, 4151.457
898.773, 3764.126
900.042, 3746.804
901.312, 3059.487
902.580, 3352.179
903.849, 2974.877
905.118, 2977.583
906.386, 3280.297
907.654, 2353.019
908.922, 2505.750
910.189, 2110.489
911.457, 2025.237
912.724, 2245.994
913.991, 1675.759
915.258, 1807.534
916.525, 1729.318
917.791, 1462.112
919.058, 1572.916
920.324, 1275.729
921.590, 1236.557
922.855, 1288.394
924.121, 1071.243
925.386, 1151.115
926.651, 1088.997
927.916, 984.896
929.181, 980.812
930.446, 844.798
931.710, 960.753
932.974, 911.722
934.238, 820.712
935.502, 1045.724
936.765, 688.980
938.029, 901.031
939.292, 1033.095
940.555, 703.185
941.818, 1164.308
943.080, 1049.446
944.343, 1091.608
945.605, 1100.787
946.867, 977.986
948.129, 1048.278
949.390, 988.075
950.652, 957.108
951.913, 999.400
953.174, 682.260
954.435, 795.597
955.695, 683.961
956.956, 496.998
958.216, 633.414
959.476, 415.854
960.736, 408.357
961.995, 491.841
963.255, 375.673
964.514, 501.207
965.773, 389.767
967.032, 430.346
968.291, 584.940
969.549, 442.163
970.807, 599.796
972.066, 689.450
973.323, 604.893
974.581, 917.586
975.839, 749.305
977.096, 997.255
978.353, 1073.009
979.610, 869.012
980.867, 1231.800
982.123, 971.609
983.380, 1114.197
984.636, 1297.040
985.892, 1082.303
987.147, 1427.434
988.403, 1249.323
989.658, 1340.963
990.914, 1592.883
992.169, 1367.828
993.423, 1687.786
994.678, 1777.763
995.932, 1603.754
997.187, 1891.761
998.441, 1816.784
999.694, 2092.260
1000.948, 2326.312
1002.201, 2410.377
1003.455, 2724.898
1004.708, 2908.992
1005.961, 2713.103
1007.213, 3037.226
1008.466, 2391.360
1009.718, 2225.510
1010.970, 1879.672
1012.222, 1347.845
1013.474, 1299.032
1014.725, 984.231
1015.976, 699.443
1017.227, 825.667
1018.478, 527.902
1019.729, 566.153
1020.980, 407.417
1022.230, 251.690
1023.480, 471.978
1024.730, 222.275
1025.980, 216.589
1027.229, 329.910
1028.479, 259.242
1029.728, 424.588
1030.977, 325.943
1032.226, 74.309
1033.474, 399.700
1034.723, 232.101
1035.971, 272.511
1037.219, 245.935
1038.467, 180.368
1039.714, 306.827
1040.962, 154.300
1042.209, 125.784
1043.456, 316.566
1044.703, 165.100
1045.950, 185.671
1047.196, 297.257
1048.443, 134.854
1049.689, 375.573
1050.935, 140.202
1052.180, 253.839
1053.426, 193.504
1054.671, 27.179
1055.916, 167.356
1057.161, 158.062
1058.406, 56.776
1059.651, 202.130
1060.895, 40.874
1062.139, 103.625
1063.383, 119.447
1064.627, 4.777
1065.871, 142.258
1067.114, 32.058
1068.357, 81.864
1069.600, 232.246
1070.843, 27.925
1072.086, 135.084
1073.328, 51.058
1074.570, 19.905
1075.813, 133.110
1077.054, 12.980
1078.296, 134.854
1079.538, 152.070
1080.779, 28.960
1082.020, 129.854
1083.261, 36.960
1084.502, 48.942
1085.742, 162.172
1086.983, 44.912
1088.223, 58.000
1089.463, 9.915
1090.703, 95.150
1091.942, 81.771
1093.182, 90.694
1094.421, 67.377
1095.660, 75.543
1096.899, 78.536
1098.137, 140.374
1099.376, 83.337
1100.614, 44.253
1101.852, 72.168
1103.090, 87.916
1104.328, 47.994
1105.565, 131.902
1106.803, 93.188
1108.040, 240.701
1109.277, 7.015
1110.513, 16.097
1111.750, 334.788
1112.986, 67.329
1114.223, 29.543
1115.459, 212.427
1116.694, 88.705
1117.930, 159.144
1119.165, 25.011
1120.401, 65.172
1121.636, 188.650
1122.871, 41.529
1124.105, 82.279
1125.340, 62.086
1126.574, 37.889
1127.808, 233.691
1129.042, 48.899
1130.276, 98.693
1131.509, 194.485
1132.743, 21.610
1133.976, 222.168
1135.209, 198.939
1136.442, 20.293
1137.674, 351.464
1138.906, 105.992
1140.139, 171.738
1141.371, 292.479
1142.603, 64.468
1143.834, 280.196
1145.066, 148.919
1146.297, 157.107
1147.528, 299.816
1148.759, 161.676
1149.990, 188.370
1151.220, 334.058
1152.450, 155.831
1153.681, 354.503
1154.910, 108.344
1156.140, 191.528
1157.370, 296.182
1158.599, 48.243
1159.828, 305.279
1161.057, 178.904
1162.286, 89.180
1163.515, 297.784
1164.743, 248.381
1165.972, 164.161
1167.200, 297.737
1168.427, 63.355
1169.655, 266.767
1170.883, 217.310
1172.110, 92.390
1173.337, 285.372
1174.564, 142.685
1175.791, 20.390
1177.017, 391.412
1178.244, 83.600
1179.470, 313.574
1180.696, 189.597
1181.922, 65.961
1183.147, 280.303
1184.373, 118.700
1185.598, 135.387
1186.823, 389.088
1188.048, 5.909
1189.273, 158.949
1190.497, 340.380
1191.722, 40.857
1192.946, 290.965
1194.170, 176.347
1195.393, 96.522
1196.617, 211.825
1197.840, 55.972
1199.064, 207.045
1200.287, 331.207
1201.509, 11.559
1202.732, 260.886
1203.954, 81.755
1205.177, 92.569
1206.399, 271.976
1207.621, 63.982
1208.842, 300.399
1210.064, 241.381
1211.285, 55.398
1212.506, 212.854
1213.727, 243.773
1214.948, 70.354
1216.169, 421.318
1217.389, 64.174
1218.609, 356.855
1219.829, 212.125
1221.049, 186.916
1222.269, 436.347
1223.488, 181.455
1224.708, 183.606
1225.927, 291.092
1227.146, 213.742
1228.364, 184.683
1229.583, 493.004
1230.801, 134.623
1232.019, 479.290
1233.237, 201.865
1234.455, 262.419
1235.673, 528.493
1236.890, 178.001
1238.107, 252.486
1239.324, 521.184
1240.541, 61.624
1241.758, 505.207
1242.975, 279.381
1244.191, 181.748
1245.407, 510.736
1246.623, 154.059
1247.839, 262.355
1249.054, 373.867
1250.270, 212.119
1251.485, 495.198
1252.700, 231.149
1253.915, 266.333
1255.129, 370.960
1256.344, 264.096
1257.558, 275.208
1258.772, 449.280
1259.986, 76.345
1261.200, 433.379
1262.413, 272.994
1263.627, 141.979
1264.840, 419.499
1266.053, 272.438
1267.266, 169.346
1268.478, 384.872
1269.691, 28.743
1270.903, 257.591
1272.115, 463.910
1273.327, 118.720
1274.539, 340.511
1275.750, 250.278
1276.961, 74.027
1278.173, 232.815
1279.384, 143.519
1280.594, 179.198
1281.805, 304.970
1283.015, 12.594
1284.226, 298.190
1285.436, 144.770
1286.646, 69.299
1287.855, 208.770
1289.065, 93.178
1290.274, 97.546
1291.483, 344.889
1292.692, 53.182
1293.901, 344.433
1295.109, 200.973
1296.318, 76.841
1297.526, 231.296
1298.734, 176.871
1299.942, 34.941
1301.150, 245.972
1302.357, 90.952
1303.564, 90.991
1304.771, 42.319
1305.978, 204.801
1307.185, 75.758
1308.392, 183.464
1309.598, 2.735
1310.804, 67.935
1312.010, 20.432
1313.216, 32.062
1314.422, 238.629
1315.627, 121.836
1316.832, 122.636
1318.037, 94.079
1319.242, 52.998
1320.447, 170.377
1321.652, 0.750
1322.856, 3.568
1324.060, 166.706
1325.264, 20.052
1326.468, 177.099
1327.672, 233.276
1328.875, 60.773
1330.078, 302.323
1331.281, 151.391
1332.484, 31.137
1333.687, 308.864
1334.890, 54.655
1336.092, 122.460
1337.294, 248.364
1338.496, 39.112
1339.698, 216.719
1340.900, 183.520
1342.101, 1.918
1343.302, 309.806
1344.503, 59.499
1345.704, 97.873
1346.905, 209.503
1348.106, 16.227
1349.306, 222.331
1350.506, 302.863
1351.706, 94.159
1352.906, 384.293
1354.106, 104.727
1355.305, 49.130
1356.504, 405.502
1357.703, 135.854
1358.902, 196.178
1360.101, 326.480
1361.300, 22.704
1362.498, 316.947
1363.696, 447.162
1364.894, 29.596
1366.092, 427.563
1367.290, 227.696
1368.487, 218.112
1369.684, 448.199
1370.881, 157.836
1372.078, 367.870
1373.275, 487.881
1374.472, 37.855
1375.668, 407.947
1376.864, 307.862
1378.060, 678.109
1379.256, 667.998
1380.452, 137.863
1381.647, 208.287
1382.842, 508.099
1384.038, 147.888
1385.233, 397.749
1386.427, 317.488
1387.622, 27.184
1388.816, 416.848
1390.010, 336.024
1391.204, 65.563
1392.398, 495.056
1393.592, 204.386
1394.785, 275.034
1395.979, 443.178
1397.172, 174.393
1398.365, 204.785
1399.558, 505.663
1400.750, 86.765
1401.943, 447.339
1403.135, 348.202
1404.327, 348.026
1405.519, 578.784
1406.710, 179.113
1407.902, 399.068
1409.093, 619.155
1410.284, 169.936
1411.475, 407.047
1412.666, 436.675
1413.857, 23.184
1415.047, 582.250
1416.238, 284.740
1417.428, 336.434
1418.617, 463.633
1419.807, 322.682
1420.997, 217.063
1422.186, 403.119
1423.375, 101.083
1424.564, 568.847
1425.753, 396.081
1426.942, 62.079
1428.130, 461.534
1429.318, 368.254
1430.507, 146.413
1431.694, 732.710
1432.882, 72.171
1434.070, 339.519
1435.257, 557.326
1436.444, 164.018
1437.631, 353.344
1438.818, 557.127
1440.005, 154.471
1441.191, 523.155
1442.378, 362.226
1443.564, 249.556
1444.750, 565.053
1445.936, 283.933
1447.121, 382.769
1448.307, 651.284
1449.492, 138.539
1450.677, 427.229
1451.862, 605.873
1453.047, 224.008
1454.231, 652.167
1455.415, 380.653
1456.600, 127.223
1457.784, 554.422
1458.967, 302.730
1460.151, 340.985
1461.335, 789.002
1462.518, 196.050
1463.701, 523.989
1464.884, 561.832
1466.067, 229.428
1467.249, 566.808
1468.432, 384.385
1469.614, 99.531
1470.796, 707.202
1471.978, 324.939
1473.159, 162.758
1474.341, 789.765
1475.522, 146.349
1476.703, 424.173
1477.884, 681.807
1479.065, 28.457
1480.246, 536.275
1481.426, 464.124
1482.607, 252.034
1483.787, 549.903
1484.967, 267.840
1486.146, 185.720
1487.326, 573.482
1488.505, 271.309
1489.685, 359.104
1490.864, 546.691
1492.042, 104.503
1493.221, 472.312
1494.400, 480.128
1495.578, 47.959
1496.756, 595.196
1497.934, 343.155
1499.112, 211.147
1500.289, 629.237
1501.467, 164.611
1502.644, 82.674
1503.821, 640.753
1504.998, 38.846
1506.175, 386.972
1507.351, 475.142
1508.528, 12.905
1509.704, 448.254
1510.880, 306.333
1512.056, 94.404
1513.232, 581.007
1514.407, 304.266
1515.582, 151.646
1516.758, 647.648
1517.933, 150.155
1519.107, 143.286
1520.282, 615.863
1521.456, 10.049
1522.631, 0.000
##END=



