##NAMES=Grossular
##RRUFFID=R060444
##IDEAL CHEMISTRY=Ca_3_Al_2_(SiO_4_)_3_
##LOCALITY=Pakistan (?)
##OWNER=RRUFF
##SOURCE=Gemological Institute of America
##DESCRIPTION=Tan colored crystals coating a surface
##STATUS=The identification of this mineral has been confirmed by X-ray diffraction and chemical analysis
##URL=rruff.info/R060444
##MEASURED CHEMISTRY=(Ca_2.98_Mn_0.02_)_Σ=3_(Al_1.84_Fe^3+^_0.13_Ti_0.03_)_Σ=2_((Si_0.99_Al_0.01_)_Σ=1_O_4_)_3_
##PIN_ID=M00607
##ORIENTATION=Laser parallel to a* (1 0 0). Fiducial mark perpendicular to laser is parallel to 0 0 -1
129.0000, 0.0000000E+00
130.2340, 73.77490
131.4670, 57.74707
132.7000, 82.95947
133.9330, 4.129150
135.1660, 122.2927
136.3990, 43.45068
137.6310, 83.18677
138.8640, 145.6289
140.0960, 110.8865
141.3280, 90.89355
142.5600, 58.44458
143.7910, 20.60498
145.0230, 51.65625
146.2540, 36.17065
147.4850, 117.8999
148.7160, 88.01221
149.9470, 153.5352
151.1780, 98.26904
152.4080, 130.4038
153.6380, 175.4160
154.8690, 94.34424
156.0980, 87.21924
157.3280, 156.0635
158.5580, 135.8965
159.7870, 69.73193
161.0170, 109.5825
162.2460, 119.4585
163.4750, 133.3667
164.7030, 276.3145
165.9320, 347.3081
167.1600, 509.3491
168.3890, 670.3726
169.6170, 837.7759
170.8450, 1362.255
172.0730, 1487.611
173.3000, 1942.238
174.5280, 2446.687
175.7550, 3142.219
176.9820, 3781.861
178.2090, 4381.609
179.4350, 4343.458
180.6620, 3866.403
181.8880, 3255.443
183.1150, 2404.574
184.3410, 2010.792
185.5670, 1513.096
186.7920, 1010.481
188.0180, 791.9443
189.2430, 585.4824
190.4690, 471.0938
191.6940, 346.7778
192.9180, 275.9062
194.1430, 311.3589
195.3680, 223.2539
196.5920, 207.2183
197.8160, 234.2510
199.0400, 206.3521
200.2640, 130.5205
201.4880, 152.7563
202.7110, 113.0498
203.9350, 103.3740
205.1580, 59.28662
206.3810, 50.10742
207.6040, 40.48291
208.8270, 48.04297
210.0490, 75.58105
211.2710, 2.916504
212.4940, 60.48535
213.7160, 7.736328
214.9370, 37.17139
216.1590, 61.81543
217.3810, 23.24658
218.6020, 0.3378910
219.8230, 42.54199
221.0440, 12.60889
222.2650, 42.79004
223.4860, 49.00000
224.7060, 42.23926
225.9260, 56.50781
227.1470, 105.8047
228.3670, 177.1318
229.5860, 170.4897
230.8060, 254.8789
232.0260, 285.3003
233.2450, 429.7539
234.4640, 483.1982
235.6830, 590.7593
236.9020, 648.3120
238.1200, 699.8989
239.3390, 788.5195
240.5570, 704.1743
241.7750, 869.8540
242.9930, 866.5186
244.2110, 841.2017
245.4290, 907.9185
246.6460, 892.6440
247.8630, 754.3984
249.0810, 582.1812
250.2980, 541.0015
251.5140, 508.8594
252.7310, 224.7539
253.9470, 356.6860
255.1640, 210.6548
256.3800, 306.6606
257.5960, 326.7041
258.8120, 473.7842
260.0270, 642.9023
261.2430, 402.0591
262.4580, 362.2539
263.6730, 391.4883
264.8880, 432.7617
266.1030, 465.0752
267.3170, 583.4292
268.5320, 565.8242
269.7460, 629.2622
270.9600, 731.7427
272.1740, 726.2671
273.3880, 894.8354
274.6010, 885.4482
275.8150, 985.1475
277.0280, 1073.850
278.2410, 882.5405
279.4540, 783.2510
280.6670, 753.8608
281.8790, 605.6328
283.0920, 548.3223
284.3040, 480.0732
285.5160, 458.8809
286.7280, 425.7412
287.9400, 375.6533
289.1510, 376.6118
290.3630, 351.0845
291.5740, 274.1343
292.7850, 293.7959
293.9960, 141.9326
295.2070, 92.82910
296.4170, 69.17334
297.6280, 122.3198
298.8380, 43.09766
300.0480, 229.2202
301.2580, 216.7671
302.4680, 251.6709
303.6770, 286.5894
304.8870, 325.3701
306.0960, 418.5044
307.3050, 449.0112
308.5140, 548.5508
309.7230, 638.1235
310.9310, 778.7290
312.1400, 708.3662
313.3480, 845.0371
314.5560, 921.7129
315.7640, 863.3403
316.9720, 877.0020
318.1790, 768.6943
319.3870, 852.3853
320.5940, 760.0884
321.8010, 755.8262
323.0080, 730.5991
324.2150, 633.4058
325.4210, 789.2461
326.6280, 859.1196
327.8340, 840.0264
329.0400, 866.9653
330.2460, 880.6240
331.4510, 890.3589
332.6570, 913.9736
333.8620, 898.0391
335.0680, 962.1353
336.2730, 909.2622
337.4780, 994.4189
338.6820, 869.6055
339.8870, 1048.821
341.0910, 1082.067
342.2950, 1275.342
343.5000, 1425.645
344.7030, 1591.976
345.9070, 1784.336
347.1110, 1944.723
348.3140, 2184.138
349.5170, 2406.581
350.7200, 2804.051
351.9230, 3198.547
353.1260, 3603.457
354.3290, 4308.073
355.5310, 4998.416
356.7330, 5989.020
357.9350, 7347.652
359.1370, 8945.077
360.3390, 10810.76
361.5400, 12967.03
362.7420, 15624.76
363.9430, 18580.50
365.1440, 22033.76
366.3450, 25228.57
367.5460, 28051.39
368.7460, 30121.24
369.9470, 31578.11
371.1470, 32937.01
372.3470, 33417.93
373.5470, 33010.89
374.7460, 31135.84
375.9460, 27923.83
377.1450, 23621.85
378.3450, 19080.89
379.5440, 15126.95
380.7430, 11825.04
381.9410, 9312.157
383.1400, 7472.296
384.3380, 5909.472
385.5370, 4996.672
386.7350, 4204.917
387.9320, 3644.194
389.1300, 3135.515
390.3280, 2764.862
391.5250, 2485.241
392.7220, 2219.659
393.9190, 2068.103
395.1160, 1841.595
396.3130, 1767.128
397.5100, 1697.690
398.7060, 1657.299
399.9020, 1590.949
401.0980, 1649.643
402.2940, 1675.375
403.4900, 1869.150
404.6860, 1997.973
405.8810, 2339.843
407.0760, 2592.775
408.2710, 2978.756
409.4660, 3421.796
410.6610, 3806.879
411.8550, 4476.016
413.0500, 4960.187
414.2440, 5296.410
415.4380, 5258.690
416.6320, 4723.001
417.8260, 4038.334
419.0190, 3166.721
420.2130, 2291.143
421.4060, 1763.612
422.5990, 1183.128
423.7920, 873.6719
424.9850, 631.2617
426.1770, 395.8882
427.3700, 193.5518
428.5620, 234.2568
429.7540, 145.9917
430.9460, 56.77051
432.1380, 69.57227
433.3290, 105.3999
434.5210, 40.27344
435.7120, 52.81641
436.9030, 15.10645
438.0940, 80.94629
439.2850, 193.0054
440.4750, 107.1001
441.6660, 98.20850
442.8560, 58.30908
444.0460, 91.40918
445.2360, 50.52246
446.4260, 20.63135
447.6160, 42.27441
448.8050, 22.19775
449.9940, 31.13916
451.1830, 15.09912
452.3720, 91.07373
453.5610, 133.0625
454.7500, 133.0635
455.9380, 124.0776
457.1260, 236.1055
458.3150, 176.1460
459.5020, 249.1982
460.6900, 188.2612
461.8780, 208.3350
463.0650, 127.4185
464.2530, 135.8384
465.4400, 177.6152
466.6270, 130.7285
467.8130, 138.8496
469.0000, 140.9795
470.1870, 141.1187
471.3730, 144.2646
472.5590, 184.4194
473.7450, 184.5806
474.9310, 143.7500
476.1160, 261.9258
477.3020, 287.1074
478.4870, 99.29639
479.6720, 191.4907
480.8570, 156.6909
482.0420, 168.8960
483.2270, 62.10645
484.4110, 82.32129
485.5960, 230.5410
486.7800, 308.7651
487.9640, 163.9927
489.1480, 217.2236
490.3310, 228.4580
491.5150, 398.6948
492.6980, 380.9346
493.8810, 429.1768
495.0640, 496.4209
496.2470, 537.6743
497.4300, 483.9375
498.6120, 534.2158
499.7950, 535.4956
500.9770, 553.7759
502.1590, 573.7979
503.3410, 578.2407
504.5220, 602.6313
505.7040, 591.9229
506.8850, 613.2139
508.0660, 611.7891
509.2470, 572.8062
510.4280, 571.0996
511.6090, 472.3911
512.7890, 413.6807
513.9700, 443.9668
515.1500, 402.2505
516.3300, 408.5581
517.5100, 529.9204
518.6900, 477.8159
519.8690, 595.2588
521.0490, 610.1636
522.2280, 773.2847
523.4070, 926.1895
524.5860, 1138.207
525.7640, 1162.482
526.9430, 980.5293
528.1210, 945.6548
529.3000, 793.4507
530.4780, 720.7451
531.6560, 649.1587
532.8330, 732.3740
534.0110, 858.4814
535.1880, 1060.558
536.3650, 1397.630
537.5430, 1754.500
538.7190, 2295.333
539.8960, 2915.363
541.0730, 3648.753
542.2490, 4644.137
543.4250, 5624.637
544.6020, 6844.141
545.7780, 8081.498
546.9530, 9008.411
548.1290, 9055.205
549.3040, 8275.378
550.4800, 6764.957
551.6550, 5275.731
552.8300, 3946.982
554.0040, 3015.873
555.1790, 2221.690
556.3540, 1708.430
557.5280, 1468.062
558.7020, 1280.402
559.8760, 1145.031
561.0500, 1027.138
562.2230, 932.4238
563.3970, 924.9644
564.5700, 905.6558
565.7430, 948.3936
566.9160, 938.8906
568.0890, 850.5801
569.2620, 824.2900
570.4340, 832.2588
571.6070, 748.7017
572.7790, 684.4966
573.9510, 769.8027
575.1230, 724.3286
576.2940, 748.2617
577.4660, 738.4683
578.6370, 731.5850
579.8080, 765.1069
580.9790, 741.7021
582.1500, 755.5435
583.3210, 883.9375
584.4910, 923.1426
585.6620, 889.7192
586.8320, 1059.579
588.0020, 1098.644
589.1720, 1228.944
590.3410, 1225.984
591.5110, 1266.575
592.6800, 1120.077
593.8500, 867.5474
595.0190, 704.7178
596.1880, 699.1919
597.3560, 544.6499
598.5250, 608.9331
599.6930, 621.9795
600.8620, 653.8804
602.0300, 648.6699
603.1970, 666.6084
604.3650, 677.4712
605.5330, 693.8315
606.7000, 695.4824
607.8680, 729.0977
609.0350, 739.6777
610.2020, 798.2222
611.3680, 779.7310
612.5350, 784.2036
613.7010, 849.6406
614.8680, 803.0415
616.0340, 888.4058
617.2000, 930.7329
618.3660, 930.0239
619.5310, 1084.278
620.6970, 1182.495
621.8620, 1257.675
623.0270, 1246.817
624.1920, 1376.922
625.3570, 1452.989
626.5220, 1361.018
627.6860, 1401.009
628.8500, 1382.962
630.0140, 1228.877
631.1780, 1145.754
632.3420, 971.5928
633.5060, 887.3921
634.6700, 816.1533
635.8330, 757.8755
636.9960, 636.5586
638.1590, 597.2021
639.3220, 548.6235
640.4850, 556.3721
641.6470, 503.8975
642.8100, 472.3843
643.9720, 482.8311
645.1340, 426.2378
646.2960, 375.6050
647.4570, 357.9331
648.6190, 360.2212
649.7800, 385.4688
650.9420, 341.6777
652.1030, 347.8462
653.2640, 328.9751
654.4240, 411.0640
655.5850, 265.1128
656.7450, 252.1226
657.9060, 125.0908
659.0660, 233.0137
660.2260, 122.8950
661.3850, 78.73242
662.5450, 122.5215
663.7040, 95.26562
664.8640, 2.963867
666.0230, 87.59277
667.1820, 26.82422
668.3410, 10.67480
669.4990, 29.89111
670.6580, 53.45801
671.8160, 22.75586
672.9740, 19.00537
674.1320, 85.15332
675.2900, 52.73486
676.4480, 24.72119
677.6050, 32.21045
678.7630, 43.91406
679.9200, 34.13135
681.0770, 34.43555
682.2340, 20.82715
683.3900, 37.29834
684.5470, 51.37988
685.7030, 60.81396
686.8590, 107.2715
688.0150, 66.15332
689.1710, 105.1377
690.3270, 45.24561
691.4830, 85.44434
692.6380, 16.75537
693.7930, 80.14258
694.9480, 111.6377
696.1030, 0.7412110
697.2580, 33.05518
698.4130, 96.68311
699.5670, 10.53760
700.7210, 60.46289
701.8750, 50.48389
703.0290, 11.40527
704.1830, 55.76367
705.3370, 21.15723
706.4900, 25.35938
707.6430, 42.76904
708.7970, 0.2631840
709.9490, 56.81787
711.1020, 34.53711
712.2550, 7.843262
713.4070, 45.90576
714.5600, 37.73828
715.7120, 4.648926
716.8640, 5.387695
718.0160, 72.37061
719.1670, 39.67871
720.3190, 13.23047
721.4700, 60.89209
722.6210, 91.91406
723.7720, 139.6855
724.9230, 22.43115
726.0740, 7.137207
727.2250, 21.79639
728.3750, 45.40967
729.5250, 2.0508001E-02
730.6750, 153.4976
731.8250, 151.9771
732.9750, 214.4175
734.1240, 132.8213
735.2740, 127.1855
736.4230, 159.5107
737.5720, 206.7979
738.7210, 232.0488
739.8700, 254.2651
741.0190, 315.4468
742.1670, 294.5947
743.3150, 346.7100
744.4630, 359.4399
745.6110, 343.8389
746.7590, 389.8530
747.9070, 428.8350
749.0540, 439.7842
750.2020, 450.7002
751.3490, 570.5845
752.4960, 476.4360
753.6430, 528.2559
754.7890, 666.0439
755.9360, 719.8003
757.0820, 805.5254
758.2280, 896.2656
759.3740, 973.0625
760.5200, 1057.519
761.6660, 1137.124
762.8120, 1223.700
763.9570, 1279.247
765.1020, 1489.765
766.2470, 1586.253
767.3920, 1712.713
768.5370, 1720.146
769.6810, 1827.136
770.8260, 1882.927
771.9700, 1948.275
773.1140, 2008.598
774.2580, 2025.894
775.4020, 1937.164
776.5460, 1917.412
777.6890, 1894.635
778.8320, 1781.847
779.9750, 1711.055
781.1180, 1636.261
782.2610, 1563.680
783.4040, 1450.618
784.5460, 1425.765
785.6890, 1449.910
786.8310, 1351.052
787.9730, 1390.178
789.1150, 1452.313
790.2560, 1279.439
791.3980, 1453.551
792.5390, 1388.666
793.6810, 1502.744
794.8220, 1589.743
795.9630, 1780.225
797.1030, 1864.186
798.2440, 2063.661
799.3840, 2172.900
800.5240, 2300.369
801.6650, 2631.699
802.8040, 2749.744
803.9440, 3088.994
805.0840, 3140.136
806.2230, 3486.583
807.3630, 3738.510
808.5020, 4090.292
809.6410, 4330.249
810.7790, 4476.827
811.9180, 4803.911
813.0570, 5115.362
814.1950, 5548.562
815.3330, 5549.771
816.4710, 5802.758
817.6090, 6001.354
818.7470, 6408.928
819.8840, 6621.356
821.0220, 6885.752
822.1590, 7141.285
823.2960, 7193.351
824.4330, 7236.324
825.5690, 7168.929
826.7060, 7072.140
827.8420, 6834.130
828.9790, 6641.617
830.1150, 6234.434
831.2510, 5985.332
832.3860, 5685.280
833.5220, 5456.318
834.6570, 5286.618
835.7930, 5132.603
836.9280, 5042.028
838.0630, 5001.355
839.1980, 4902.345
840.3320, 4909.161
841.4670, 4799.912
842.6010, 4765.873
843.7350, 5000.614
844.8690, 4954.304
846.0030, 5112.706
847.1370, 5095.600
848.2700, 5250.112
849.4040, 5190.082
850.5370, 5341.800
851.6700, 5388.082
852.8030, 5619.488
853.9360, 5643.520
855.0680, 5856.393
856.2000, 6014.750
857.3330, 6283.062
858.4650, 6594.189
859.5970, 7029.162
860.7290, 7363.339
861.8600, 8067.882
862.9920, 8531.203
864.1230, 9402.771
865.2540, 10215.57
866.3850, 11437.78
867.5160, 13002.06
868.6460, 14773.33
869.7770, 17063.88
870.9070, 19958.08
872.0370, 23058.28
873.1670, 26735.61
874.2970, 30761.15
875.4270, 34725.80
876.5570, 38979.54
877.6860, 42345.28
878.8150, 44907.01
879.9440, 45855.74
881.0730, 45070.49
882.2020, 42695.22
883.3300, 39660.97
884.4590, 35139.71
885.5870, 30768.45
886.7150, 26658.20
887.8430, 22565.95
888.9710, 19166.70
890.0990, 16358.45
891.2260, 13920.21
892.3530, 11802.17
893.4810, 10170.92
894.6080, 8834.859
895.7340, 7595.986
896.8610, 6600.039
897.9880, 6010.051
899.1140, 5339.005
900.2400, 4821.187
901.3660, 4421.974
902.4920, 3858.057
903.6180, 3781.334
904.7430, 3474.450
905.8690, 3219.473
906.9940, 3081.707
908.1190, 2953.911
909.2440, 2761.284
910.3690, 2581.670
911.4930, 2513.609
912.6180, 2326.037
913.7420, 2264.658
914.8660, 2073.344
915.9900, 1921.042
917.1140, 1951.021
918.2380, 1734.579
919.3610, 1620.809
920.4850, 1484.234
921.6080, 1385.169
922.7310, 1453.265
923.8540, 1452.836
924.9760, 1302.263
926.0990, 1174.278
927.2210, 1215.659
928.3440, 1042.844
929.4660, 1088.349
930.5880, 988.5244
931.7090, 860.5146
932.8310, 1007.264
933.9520, 850.5703
935.0740, 827.4766
936.1950, 846.8203
937.3160, 762.1812
938.4360, 822.8379
939.5570, 736.3979
940.6780, 919.2256
941.7980, 817.7695
942.9180, 890.3535
944.0380, 823.2949
945.1580, 863.0229
946.2780, 847.0083
947.3970, 749.6484
948.5170, 644.0962
949.6360, 697.7085
950.7550, 686.3389
951.8740, 629.6030
952.9930, 713.0010
954.1110, 591.5410
955.2300, 559.0522
956.3480, 426.2891
957.4660, 287.7051
958.5840, 408.0093
959.7020, 296.7349
960.8190, 194.7690
961.9370, 142.9546
963.0540, 72.12158
964.1710, 171.9912
965.2880, 183.3647
966.4050, 158.5571
967.5220, 129.3027
968.6380, 188.0386
969.7550, 272.1240
970.8710, 312.5542
971.9870, 323.9131
973.1030, 474.1089
974.2190, 554.6948
975.3340, 481.9883
976.4500, 633.1187
977.5650, 653.2583
978.6800, 761.7559
979.7950, 760.7251
980.9100, 776.3003
982.0250, 767.4658
983.1390, 893.7173
984.2530, 930.5386
985.3680, 983.3496
986.4820, 1043.072
987.5950, 1143.844
988.7090, 1131.700
989.8230, 1053.635
990.9360, 1141.611
992.0490, 1140.741
993.1620, 1220.966
994.2750, 1356.023
995.3880, 1285.154
996.5010, 1491.147
997.6130, 1396.356
998.7250, 1397.507
999.8370, 1677.795
1000.949, 1764.067
1002.061, 1784.218
1003.173, 1986.630
1004.284, 1961.399
1005.396, 1890.227
1006.507, 1981.258
1007.618, 1835.492
1008.729, 1833.653
1009.839, 1550.589
1010.950, 1357.495
1012.060, 1316.877
1013.171, 1003.563
1014.281, 870.2402
1015.391, 698.5684
1016.500, 545.3848
1017.610, 527.2119
1018.719, 309.4893
1019.829, 393.3145
1020.938, 325.8320
1022.047, 247.3691
1023.156, 187.1436
1024.264, 222.4141
1025.373, 69.64160
1026.481, 170.9004
1027.589, 81.02832
1028.697, 37.13477
1029.805, 57.62598
1030.913, 69.75977
1032.020, 86.22852
1033.128, 34.42285
1034.235, 90.67969
1035.342, 104.1172
1036.449, 19.47168
1037.556, 61.49414
1038.663, 86.21777
1039.769, 38.45117
1040.875, 48.35840
1041.981, 10.17188
1043.087, 10.00781
1044.193, 15.92578
1045.299, 5.940430
1046.404, 64.90625
1047.510, 80.81738
1048.615, 95.91406
1049.720, 34.12793
1050.825, 0.3349610
1051.930, 17.67871
1053.034, 87.69141
1054.139, 78.95312
1055.243, 32.03125
1056.347, 119.1016
1057.451, 52.15625
1058.555, 28.17285
1059.658, 97.47559
1060.762, 45.37695
1061.865, 26.17773
1062.968, 154.7559
1064.071, 196.7861
1065.174, 3.411133
1066.277, 7.528320
1067.380, 144.5146
1068.482, 96.66699
1069.584, 103.3682
1070.686, 39.64648
1071.788, 70.82617
1072.890, 14.54395
1073.992, 2.173828
1075.093, 83.73828
1076.194, 14.12402
1077.295, 62.04102
1078.396, 4.223633
1079.497, 90.40234
1080.598, 143.6396
1081.698, 109.5371
1082.799, 107.5498
1083.899, 202.0879
1084.999, 176.2549
1086.099, 148.7061
1087.199, 161.1582
1088.298, 31.98047
1089.398, 196.8789
1090.497, 31.02539
1091.596, 140.7412
1092.695, 74.38574
1093.794, 47.95117
1094.892, 58.30273
1095.991, 138.1094
1097.089, 105.6260
1098.187, 72.99316
1099.285, 2.117188
1100.383, 22.78320
1101.481, 111.8486
1102.579, 38.38281
1103.676, 58.38672
1104.773, 103.6533
1105.870, 9.826172
1106.967, 1.387695
1108.064, 131.3818
1109.161, 132.0586
1110.257, 49.82227
1111.353, 180.4043
1112.449, 283.2275
1113.545, 139.8652
1114.641, 119.3115
1115.737, 223.0312
1116.832, 229.3994
1117.928, 253.7256
1119.023, 243.0029
1120.118, 223.2354
1121.213, 203.6328
1122.308, 196.6436
1123.402, 159.8936
1124.497, 141.0059
1125.591, 179.9971
1126.685, 160.9404
1127.779, 192.8330
1128.873, 140.6748
1129.967, 153.7656
1131.060, 119.2217
1132.153, 122.9561
1133.247, 149.6025
1134.340, 85.19727
1135.433, 236.7646
1136.525, 220.2832
1137.618, 169.7500
1138.710, 119.1768
1139.802, 133.5459
1140.895, 184.8623
1141.987, 189.1270
1143.078, 347.3379
1144.170, 235.5049
1145.261, 234.6211
1146.353, 348.6855
1147.444, 194.7041
1148.535, 189.0205
1149.626, 339.5332
1150.716, 183.8682
1151.807, 253.6982
1152.897, 246.2188
1153.988, 186.4805
1155.078, 303.5488
1156.168, 310.6143
1157.257, 298.9775
1158.347, 334.9326
1159.436, 332.2275
1160.526, 230.7275
1161.615, 312.1631
1162.704, 227.2314
1163.793, 288.5615
1164.881, 268.3799
1165.970, 220.4834
1167.058, 236.1387
1168.147, 213.5254
1169.235, 233.4824
1170.323, 249.4434
1171.410, 321.9326
1172.498, 344.9209
1173.585, 184.1260
1174.673, 250.2617
1175.760, 227.1084
1176.847, 231.0957
1177.934, 230.2002
1179.020, 254.8193
1180.107, 260.6777
1181.193, 325.8906
1182.279, 193.4697
1183.365, 183.3926
1184.451, 220.9902
1185.537, 156.0205
1186.623, 141.8311
1187.708, 109.1064
1188.793, 83.46680
1189.878, 139.1797
1190.963, 17.46777
1192.048, 131.8857
1193.133, 14.92578
1194.217, 39.23730
1195.302, 15.49121
1196.386, 18.18652
1197.470, 1.418945
1198.554, 6.015625
1199.638, 50.72461
1200.721, 3.395508
1201.805, 27.33008
1202.888, 13.90039
1203.971, 27.94922
1205.054, 92.15820
1206.137, 32.64551
1207.219, 74.14551
1208.302, 108.8594
1209.384, 124.9639
1210.466, 209.8291
1211.548, 282.9326
1212.630, 246.1914
1213.712, 112.0811
1214.794, 193.0898
1215.875, 116.5996
1216.956, 119.5244
1218.037, 251.9258
1219.118, 232.5469
1220.199, 167.2451
1221.280, 225.7383
1222.360, 245.8633
1223.441, 255.0098
1224.521, 331.3564
1225.601, 175.7295
1226.681, 342.9766
1227.760, 175.9277
1228.840, 283.7354
1229.919, 138.2178
1230.999, 279.4326
1232.078, 156.7861
1233.157, 272.1533
1234.236, 208.7988
1235.314, 220.3291
1236.393, 372.1953
1237.471, 284.6914
1238.549, 325.2568
1239.627, 264.4209
1240.705, 367.6055
1241.783, 228.0605
1242.860, 262.8047
1243.938, 334.8125
1245.015, 227.5283
1246.092, 304.6289
1247.169, 397.2988
1248.246, 351.0430
1249.323, 412.8994
1250.399, 280.5840
1251.475, 384.8193
1252.552, 262.8574
1253.628, 284.4395
1254.703, 446.2070
1255.779, 350.8711
1256.855, 422.1211
1257.930, 367.8115
1259.005, 365.2969
1260.080, 302.5684
1261.155, 294.5078
1262.230, 435.7520
1263.305, 422.9521
1264.379, 504.0127
1265.454, 547.3730
1266.528, 404.5879
1267.602, 438.4863
1268.676, 396.9795
1269.750, 433.6367
1270.823, 447.4287
1271.897, 443.3926
1272.970, 468.4297
1274.043, 385.1025
1275.116, 416.8652
1276.189, 413.3594
1277.261, 225.8477
1278.334, 166.3916
1279.406, 206.0771
1280.478, 342.4141
1281.550, 135.7695
1282.622, 185.3730
1283.694, 218.2988
1284.766, 207.1865
1285.837, 346.9023
1286.908, 209.7979
1287.979, 406.3516
1289.050, 205.2588
1290.121, 226.4121
1291.192, 311.9277
1292.262, 250.8887
1293.333, 360.6748
1294.403, 290.6436
1295.473, 199.1758
1296.543, 369.8330
1297.613, 248.5430
1298.682, 256.4463
1299.752, 306.0059
1300.821, 181.9014
1301.890, 530.4219
