##NAMES=Grossular
##RRUFFID=R050081
##IDEAL CHEMISTRY=Ca_3_Al_2_(SiO_4_)_3_
##LOCALITY=Kayes Region, Mali
##OWNER=RRUFF
##SOURCE=Rock Currier
##DESCRIPTION=Dark brown dodecahedron
##STATUS=The identification of this mineral has been confirmed by X-ray diffraction and chemical analysis
##URL=rruff.info/R050081
##MEASURED CHEMISTRY=(Ca_2.92_Mg_0.07_Mn_0.01_)_Σ=3_(Al_1.04_Fe^3+^_0.89_Ti_0.07_)_Σ=2_((Si_0.98_Al_0.02_)_Σ=1_O_4_)_3_; trace amounts of Y
##PIN_ID=L00149
##ORIENTATION=Laser parallel to c* (0 0 1). Fiducial mark perpendicular to laser is parallel to a [1 0 0]
151.324, 0.000
152.710, 0.566
154.096, 18.594
155.481, 139.584
156.866, 19.941
158.251, 78.812
159.636, 1.696
161.020, 32.264
162.405, 76.980
163.789, 76.034
165.172, 214.090
166.556, 217.120
167.939, 246.354
169.322, 331.601
170.705, 526.652
172.088, 771.569
173.470, 1151.796
174.853, 1374.385
176.234, 1591.000
177.616, 1462.244
178.998, 1369.362
180.379, 1112.171
181.760, 842.404
183.141, 601.600
184.521, 575.146
185.902, 492.250
187.282, 374.384
188.662, 377.855
190.042, 294.680
191.421, 358.124
192.800, 243.667
194.179, 229.316
195.558, 227.074
196.937, 241.941
198.315, 171.918
199.693, 158.999
201.071, 169.181
202.449, 177.457
203.826, 130.821
205.203, 116.265
206.580, 87.784
207.957, 62.371
209.333, 32.517
210.710, 2.697
212.086, 13.579
213.462, 34.860
214.837, 53.008
216.213, 55.158
217.588, 49.263
218.963, 36.088
220.337, 16.307
221.712, 1.801
223.086, 17.963
224.460, 72.174
225.834, 49.432
227.207, 151.740
228.581, 184.098
229.954, 304.505
231.327, 237.962
232.699, 316.516
234.072, 393.190
235.444, 314.004
236.816, 380.930
238.188, 383.953
239.559, 385.062
240.931, 491.250
242.302, 375.511
243.673, 307.834
245.043, 288.208
246.414, 330.629
247.784, 244.088
249.154, 277.579
250.523, 271.089
251.893, 240.606
253.262, 223.128
254.631, 256.653
256.000, 286.176
257.369, 275.698
258.737, 255.216
260.105, 259.732
261.473, 254.239
262.841, 305.725
264.208, 250.150
265.576, 271.469
266.943, 433.667
268.310, 414.779
269.676, 463.871
271.042, 499.979
272.409, 615.121
273.775, 678.304
275.140, 684.532
276.506, 756.805
277.871, 791.125
279.236, 806.493
280.601, 810.653
281.965, 762.376
283.330, 752.891
284.694, 679.456
286.058, 605.076
287.421, 543.995
288.785, 549.160
290.148, 586.689
291.511, 604.161
292.874, 628.988
294.236, 692.858
295.599, 692.772
296.961, 699.729
298.323, 854.728
299.684, 848.769
301.046, 825.851
302.407, 971.973
303.768, 842.136
305.129, 879.337
306.489, 816.578
307.850, 913.856
309.210, 852.173
310.570, 828.526
311.929, 937.826
313.289, 1053.124
314.648, 1012.148
316.007, 1174.499
317.366, 1200.595
318.724, 1269.523
320.083, 1343.337
321.441, 1394.929
322.799, 1423.536
324.156, 1471.700
325.514, 1502.952
326.871, 1487.250
328.228, 1525.408
329.585, 1546.540
330.941, 1603.575
332.298, 1535.493
333.654, 1721.286
335.010, 1668.965
336.365, 1727.545
337.721, 1846.027
339.076, 1868.422
340.431, 2036.360
341.786, 2278.978
343.140, 2408.140
344.495, 2689.197
345.849, 3002.074
347.203, 3460.695
348.556, 4267.073
349.910, 4726.297
351.263, 5451.476
352.616, 6712.654
353.969, 8243.652
355.321, 10114.883
356.674, 12105.773
358.026, 13866.660
359.378, 15177.589
360.729, 15428.630
362.081, 15229.394
363.432, 15110.121
364.783, 15301.001
366.134, 15921.969
367.484, 17432.662
368.835, 19633.303
370.185, 21493.719
371.535, 22913.854
372.884, 23103.432
374.234, 22011.896
375.583, 19759.502
376.932, 16775.955
378.281, 14031.425
379.630, 11546.939
380.978, 9372.998
382.326, 7770.062
383.674, 6438.532
385.022, 5428.308
386.369, 4647.922
387.717, 3988.375
389.064, 3464.718
390.411, 3062.748
391.757, 2774.993
393.104, 2551.385
394.450, 2324.844
395.796, 2314.360
397.141, 2204.925
398.487, 2094.549
399.832, 1930.230
401.177, 1764.971
402.522, 1439.780
403.867, 1143.654
405.211, 897.576
406.555, 679.545
407.899, 562.554
409.243, 520.593
410.587, 318.659
411.930, 273.756
413.273, 118.874
414.616, 178.094
415.959, 111.519
417.301, 25.978
418.644, 13.449
419.986, 18.310
421.327, 17.425
422.669, 58.255
424.010, 9.886
425.351, 6.623
426.692, 42.343
428.033, 20.950
429.374, 38.739
430.714, 11.586
432.054, 115.929
433.394, 123.291
434.733, 165.668
436.073, 155.064
437.412, 206.476
438.751, 251.905
440.090, 268.351
441.428, 332.812
442.767, 288.290
444.105, 318.783
445.443, 408.292
446.780, 377.815
448.118, 373.354
449.455, 343.904
450.792, 345.462
452.129, 354.031
453.465, 394.608
454.802, 414.200
456.138, 361.805
457.474, 366.422
458.809, 300.052
460.145, 277.695
461.480, 263.350
462.815, 135.016
464.150, 124.695
465.485, 163.385
466.819, 114.086
468.153, 17.798
469.487, 84.479
470.821, 36.754
472.155, 23.022
473.488, 0.709
474.821, 74.240
476.154, 47.364
477.487, 11.644
478.819, 65.171
480.151, 263.950
481.483, 296.667
482.815, 454.383
484.147, 548.099
485.478, 668.818
486.809, 670.539
488.140, 719.262
489.471, 766.146
490.802, 789.697
492.132, 814.440
493.462, 857.172
494.792, 855.906
496.122, 879.645
497.451, 740.387
498.780, 750.134
500.109, 744.886
501.438, 681.643
502.767, 697.404
504.095, 655.171
505.423, 669.943
506.751, 669.723
508.079, 600.510
509.406, 597.306
510.734, 527.110
512.061, 518.924
513.388, 530.747
514.714, 584.486
516.041, 656.422
517.367, 810.274
518.693, 1047.136
520.019, 1272.008
521.344, 1702.889
522.670, 2105.780
523.995, 2807.683
525.320, 3689.594
526.644, 4511.664
527.969, 5567.739
529.293, 6948.950
530.617, 7363.406
531.941, 7447.820
533.265, 6725.561
534.588, 5660.049
535.911, 4287.852
537.234, 3175.400
538.557, 2366.036
539.880, 1746.318
541.202, 1299.117
542.524, 1102.982
543.846, 825.243
545.168, 715.817
546.489, 654.786
547.811, 579.126
549.132, 558.361
550.453, 444.549
551.773, 437.617
553.094, 461.028
554.414, 451.513
555.734, 374.574
557.054, 321.422
558.374, 404.048
559.693, 337.522
561.012, 337.852
562.331, 350.655
563.650, 277.920
564.968, 317.854
566.287, 223.397
567.605, 227.297
568.923, 192.269
570.240, 170.080
571.558, 149.769
572.875, 98.254
574.192, 54.775
575.509, 51.993
576.825, 54.039
578.142, 114.070
579.458, 14.883
580.774, 104.885
582.090, 95.828
583.405, 197.702
584.721, 214.595
586.036, 247.887
587.351, 232.825
588.665, 255.166
589.980, 366.080
591.294, 423.980
592.608, 419.868
593.922, 431.743
595.236, 447.605
596.549, 566.453
597.862, 619.289
599.175, 650.110
600.488, 686.919
601.801, 716.287
603.113, 742.440
604.425, 770.262
605.737, 785.015
607.049, 823.755
608.361, 834.480
609.672, 850.190
610.983, 810.887
612.294, 851.569
613.605, 923.237
614.915, 787.890
616.225, 898.528
617.536, 851.152
618.845, 719.761
620.155, 731.356
621.464, 510.936
622.774, 579.501
624.083, 471.051
625.391, 468.586
626.700, 331.107
628.008, 190.735
629.317, 208.652
630.625, 167.820
631.932, 83.261
633.240, 123.139
634.547, 160.741
635.854, 135.015
637.161, 144.410
638.468, 231.791
639.774, 208.156
641.081, 246.507
642.387, 271.843
643.693, 315.164
644.998, 346.470
646.304, 332.760
647.609, 367.036
648.914, 411.297
650.219, 377.542
651.523, 387.772
652.828, 430.987
654.132, 419.187
655.436, 496.371
656.740, 420.540
658.043, 565.694
659.346, 567.832
660.650, 562.955
661.952, 686.062
663.255, 727.153
664.558, 798.229
665.860, 931.289
667.162, 875.333
668.464, 896.361
669.766, 769.373
671.067, 823.369
672.368, 707.349
673.669, 593.313
674.970, 577.261
676.271, 409.192
677.571, 389.107
678.871, 337.005
680.171, 316.887
681.471, 252.752
682.771, 150.601
684.070, 152.432
685.369, 123.244
686.668, 68.037
687.967, 81.808
689.266, 18.441
690.564, 29.744
691.862, 50.105
693.160, 13.537
694.458, 62.020
695.755, 87.580
697.053, 95.230
698.350, 47.975
699.646, 85.790
700.943, 58.696
702.240, 96.677
703.536, 54.754
704.832, 84.905
706.128, 100.146
707.423, 66.484
708.719, 119.903
710.014, 89.429
711.309, 51.047
712.604, 95.737
713.898, 92.521
715.193, 106.399
716.487, 136.376
717.781, 128.469
719.075, 56.673
720.368, 67.878
721.662, 30.396
722.955, 4.815
724.248, 9.521
725.541, 4.677
726.833, 51.782
728.125, 84.218
729.418, 71.550
730.709, 139.675
732.001, 184.765
733.293, 215.843
734.584, 311.152
735.875, 284.967
737.166, 432.198
738.457, 408.382
739.747, 514.677
741.037, 528.962
742.327, 691.243
743.617, 713.509
744.907, 855.765
746.196, 901.007
747.486, 974.233
748.775, 1132.447
750.063, 1155.650
751.352, 1241.838
752.640, 1382.017
753.929, 1502.180
755.217, 1600.334
756.504, 1804.483
757.792, 1804.624
759.079, 1983.751
760.367, 2014.865
761.654, 2211.965
762.940, 2175.052
764.227, 2234.124
765.513, 2257.184
766.799, 2194.233
768.085, 2132.273
769.371, 2065.321
770.657, 1908.374
771.942, 1764.428
773.227, 1700.480
774.512, 1617.527
775.797, 1570.573
777.081, 1466.621
778.365, 1450.665
779.650, 1403.708
780.933, 1427.754
782.217, 1440.797
783.501, 1417.846
784.784, 1433.891
786.067, 1445.931
787.350, 1448.649
788.633, 1550.538
789.915, 1444.571
791.197, 1638.503
792.479, 1584.466
793.761, 1712.488
795.043, 1826.507
796.324, 1871.517
797.606, 1951.516
798.887, 2122.505
800.167, 2252.484
801.448, 2411.452
802.728, 2533.416
804.009, 2770.371
805.289, 2953.315
806.568, 3137.257
807.848, 3207.188
809.128, 3279.111
810.407, 3397.025
811.686, 3463.929
812.965, 3694.824
814.243, 3827.710
815.522, 3848.587
816.800, 4118.456
818.078, 4021.316
819.355, 4144.168
820.633, 4291.011
821.910, 4228.845
823.188, 4154.672
824.465, 4056.490
825.741, 3979.301
827.018, 3874.104
828.294, 3783.034
829.570, 3660.687
830.846, 3598.467
832.122, 3470.240
833.398, 3392.006
834.673, 3309.765
835.948, 3310.517
837.223, 3257.113
838.498, 3268.707
839.772, 3300.170
841.047, 3452.394
842.321, 3299.666
843.595, 3487.618
844.868, 3436.839
846.142, 3494.762
847.415, 3659.962
848.688, 3619.102
849.961, 3639.625
851.234, 3765.656
852.507, 3766.643
853.779, 3886.257
855.051, 4201.566
856.323, 4256.492
857.595, 4540.048
858.866, 4704.713
860.137, 4952.436
861.409, 5372.278
862.679, 5778.778
863.950, 6244.201
865.221, 6508.051
866.491, 7209.111
867.761, 7640.395
869.031, 8140.830
870.301, 8829.414
871.570, 9548.523
872.839, 10092.172
874.109, 10585.157
875.377, 10930.531
876.646, 11327.548
877.915, 11485.493
879.183, 11382.597
880.451, 10901.822
881.719, 10381.254
882.987, 9900.644
884.254, 9040.338
885.521, 8370.199
886.788, 7760.074
888.055, 7039.960
889.322, 6379.859
890.588, 5868.133
891.855, 5173.722
893.121, 4749.694
894.387, 4353.281
895.652, 4028.235
896.918, 3538.795
898.183, 3328.771
899.448, 3089.758
900.713, 2828.195
901.978, 2733.720
903.242, 2514.357
904.506, 2344.670
905.771, 2194.712
907.034, 2109.608
908.298, 1955.491
909.562, 1903.771
910.825, 1899.938
912.088, 1907.034
913.351, 1740.141
914.613, 1831.260
915.876, 1828.390
917.138, 1726.531
918.400, 1823.230
919.662, 1679.998
920.924, 1730.026
922.185, 1773.851
923.447, 1777.164
924.708, 1779.760
925.969, 1719.491
927.229, 1801.125
928.490, 1828.337
929.750, 1790.484
931.010, 1983.032
932.270, 1934.593
933.530, 1999.666
934.789, 1990.793
936.048, 2001.886
937.308, 2095.245
938.566, 1952.356
939.825, 1931.326
941.084, 1945.101
942.342, 1824.760
943.600, 1878.585
944.858, 1777.224
946.116, 1525.329
947.373, 1573.748
948.630, 1380.143
949.888, 1359.548
951.144, 1237.974
952.401, 1247.398
953.658, 1147.935
954.914, 1106.378
956.170, 1119.832
957.426, 1202.679
958.682, 1117.159
959.937, 1297.694
961.193, 1308.199
962.448, 1438.715
963.703, 1486.242
964.957, 1530.778
966.212, 1539.324
967.466, 1637.879
968.720, 1600.447
969.974, 1770.023
971.228, 1736.610
972.482, 1807.207
973.735, 1927.812
974.988, 1990.430
976.241, 1953.059
977.494, 1991.697
978.746, 1906.354
979.999, 1959.021
981.251, 2021.698
982.503, 1935.385
983.755, 2064.094
985.006, 1921.826
986.258, 1908.567
987.509, 1994.334
988.760, 1861.097
990.011, 1907.870
991.261, 1926.655
992.512, 1809.452
993.762, 1859.297
995.012, 1872.136
996.262, 1872.079
997.511, 1884.015
998.761, 1821.000
1000.010, 1748.465
1001.259, 1653.492
1002.508, 1674.745
1003.756, 1559.691
1005.005, 1486.850
1006.253, 1423.655
1007.501, 1361.194
1008.749, 1315.073
1009.996, 1284.825
1011.244, 1245.234
1012.491, 1222.412
1013.738, 1206.253
1014.985, 1146.973
1016.232, 1049.629
1017.478, 1020.536
1018.724, 977.333
1019.970, 936.875
1021.216, 912.850
1022.462, 931.113
1023.707, 830.231
1024.953, 878.211
1026.198, 726.341
1027.443, 621.506
1028.687, 538.501
1029.932, 354.653
1031.176, 262.688
1032.420, 223.863
1033.664, 100.916
1034.908, 137.976
1036.152, 43.228
1037.395, 57.423
1038.638, 47.577
1039.881, 17.237
1041.124, 26.143
1042.366, 35.041
1043.609, 47.929
1044.851, 81.197
1046.093, 22.720
1047.335, 26.461
1048.576, 74.546
1049.818, 17.285
1051.059, 19.087
1052.300, 18.109
1053.541, 27.800
1054.781, 17.286
1056.022, 25.625
1057.262, 44.543
1058.502, 32.476
1059.742, 2.417
1060.981, 248.643
1062.221, 282.705
1063.460, 269.926
1064.699, 234.386
1065.938, 156.461
1067.177, 14.857
1068.415, 15.787
1069.653, 88.721
1070.891, 68.698
1072.129, 59.707
1073.367, 46.728
1074.604, 30.788
1075.842, 45.861
1077.079, 54.958
1078.316, 36.082
1079.553, 42.223
1080.789, 55.304
1082.025, 33.407
1083.262, 35.449
1084.498, 13.675
1085.733, 17.913
1086.969, 12.720
1088.204, 9.399
1089.439, 23.668
1090.674, 20.954
1091.909, 23.255
1093.144, 19.381
1094.378, 26.791
1095.612, 5.928
1096.846, 38.643
1098.080, 74.337
1099.314, 12.061
1100.547, 62.814
1101.781, 13.436
1103.014, 25.501
1104.247, 40.383
1105.479, 16.668
1106.712, 109.506
1107.944, 14.967
1109.176, 61.251
1110.408, 81.256
1111.640, 55.349
1112.871, 82.079
1114.102, 73.850
1115.334, 42.477
1116.565, 67.660
1117.795, 46.399
1119.026, 62.200
1120.256, 122.886
1121.486, 118.416
1122.716, 176.004
1123.946, 161.120
1125.176, 145.350
1126.405, 135.335
1127.634, 72.832
1128.863, 60.688
1130.092, 55.532
1131.321, 51.344
1132.549, 65.617
1133.778, 61.370
1135.006, 57.191
1136.233, 134.073
1137.461, 63.575
1138.689, 116.590
1139.916, 142.291
1141.143, 58.803
1142.370, 108.085
1143.597, 52.720
1144.823, 64.301
1146.050, 63.745
1147.276, 19.674
1148.502, 103.443
1149.727, 36.511
1150.953, 3.944
1152.178, 87.902
1153.404, 19.757
1154.629, 92.123
1155.853, 87.988
1157.078, 9.386
1158.302, 80.224
1159.527, 93.920
1160.751, 70.439
1161.975, 55.187
1163.198, 81.373
1164.422, 40.984
1165.645, 72.639
1166.868, 24.597
1168.091, 59.013
1169.314, 37.702
1170.536, 16.427
1171.759, 94.504
1172.981, 67.415
1174.203, 66.145
1175.424, 147.885
1176.646, 83.211
1177.867, 116.572
1179.089, 87.063
1180.310, 135.312
1181.530, 129.414
1182.751, 80.407
1183.971, 96.690
1185.192, 109.007
1186.412, 104.197
1187.632, 155.830
1188.851, 125.568
1190.071, 111.018
1191.290, 144.269
1192.509, 150.320
1193.728, 104.597
1194.947, 137.382
1196.165, 111.405
1197.384, 104.526
1198.602, 104.913
1199.820, 163.442
1201.037, 174.278
1202.255, 192.001
1203.472, 183.730
1204.690, 196.499
1205.907, 133.442
1207.124, 163.928
1208.340, 157.552
1209.557, 98.289
1210.773, 205.772
1211.989, 167.571
1213.205, 167.947
1214.421, 219.957
1215.636, 184.926
1216.851, 178.472
1218.067, 176.254
1219.281, 127.445
1220.496, 171.258
1221.711, 137.242
1222.925, 149.025
1224.139, 151.220
1225.353, 142.785
1226.567, 103.690
1227.781, 99.721
1228.994, 102.410
1230.207, 96.163
1231.421, 131.009
1232.633, 113.046
1233.846, 137.264
1235.059, 147.727
1236.271, 147.151
1237.483, 122.715
1238.695, 96.145
1239.907, 110.783
1241.118, 98.892
1242.330, 99.725
1243.541, 104.708
1244.752, 97.405
1245.963, 90.149
1247.173, 90.779
1248.384, 42.516
1249.594, 55.108
1250.804, 0.196
1252.014, 20.179
1253.223, 8.985
1254.433, 15.365
1255.642, 31.891
1256.851, 25.333
1258.060, 83.892
1259.269, 73.332
1260.478, 106.679
1261.686, 20.386
1262.894, 78.717
1264.102, 63.138
1265.310, 89.454
1266.518, 133.675
1267.725, 5.872
1268.932, 81.305
1270.139, 96.450
1271.346, 17.353
1272.553, 162.726
1273.759, 44.945
1274.966, 33.931
1276.172, 2.897
1277.378, 54.176
1278.583, 58.744
1279.789, 45.722
1280.994, 37.694
1282.200, 113.664
1283.405, 26.435
1284.609, 62.243
1285.814, 104.928
1287.018, 12.549
1288.223, 71.271
1289.427, 81.795
1290.631, 10.647
1291.834, 28.068
1293.038, 40.131
1294.241, 18.677
1295.444, 76.167
1296.647, 27.752
1297.850, 26.356
1299.053, 103.403
1300.255, 23.728
1301.457, 43.135
1302.659, 39.328
1303.861, 35.385
1305.063, 0.974
1306.264, 20.855
1307.466, 4.470
1308.667, 31.625
1309.868, 26.608
1311.068, 9.813
1312.269, 46.200
1313.469, 20.100
1314.669, 16.622
1315.869, 2.492
1317.069, 6.329
1318.269, 12.341
1319.468, 10.983
1320.668, 3.215
1321.867, 4.110
1323.066, 20.623
1324.264, 40.589
1325.463, 62.413
1326.661, 15.789
1327.859, 29.764
1329.057, 25.251
1330.255, 34.739
1331.452, 64.587
1332.650, 16.088
1333.847, 10.810
1335.044, 73.741
1336.241, 40.177
1337.438, 68.808
1338.634, 84.232
1339.830, 35.587
1341.027, 130.968
1342.222, 44.158
1343.418, 2.321
1344.614, 70.582
1345.809, 67.796
1347.004, 97.980
1348.199, 89.285
1349.394, 12.422
1350.589, 82.535
1351.783, 63.617
1352.978, 39.663
1354.172, 85.518
1355.365, 6.503
1356.559, 99.440
1357.753, 50.357
1358.946, 44.209
1360.139, 76.019
1361.332, 64.811
1362.525, 86.583
1363.718, 105.323
1364.910, 38.023
1366.102, 96.689
1367.294, 95.331
1368.486, 32.949
1369.678, 77.536
1370.869, 85.027
1372.061, 29.470
1373.252, 68.899
1374.443, 33.332
1375.634, 72.777
1376.824, 85.169
1378.015, 56.574
1379.205, 108.929
1380.395, 99.311
1381.585, 88.906
1382.775, 78.780
1383.964, 92.911
1385.153, 81.992
1386.343, 51.956
1387.531, 112.651
1388.720, 94.091
1389.909, 120.646
1391.097, 62.493
1392.285, 116.767
1393.473, 87.434
1394.661, 67.471
1395.849, 119.915
1397.037, 66.591
1398.224, 105.053
1399.411, 129.028
1400.598, 81.802
1401.785, 93.524
1402.971, 160.342
1404.158, 30.298
1405.344, 102.776
1406.530, 75.063
1407.716, 94.952
1408.901, 121.105
1410.087, 160.002
1411.272, 43.329
1412.457, 178.743
1413.642, 87.696
1414.827, 99.858
1416.012, 188.858
1417.196, 53.894
1418.380, 199.013
1419.564, 138.647
1420.748, 86.158
1421.932, 63.701
1423.115, 50.752
1424.299, 44.808
1425.482, 86.101
1426.665, 64.936
1427.847, 125.123
1429.030, 138.281
1430.212, 62.275
1431.395, 109.774
1432.577, 80.268
1433.759, 31.108
1434.940, 72.504
1436.122, 66.230
1437.303, 29.056
1438.484, 136.562
1439.665, 29.823
1440.846, 15.256
1442.026, 96.223
1443.207, 51.505
1444.387, 22.128
1445.567, 58.226
1446.747, 46.198
1447.927, 43.500
1449.106, 5.132
1450.286, 42.807
1451.465, 27.827
1452.644, 13.357
1453.822, 27.522
1455.001, 119.660
1456.179, 48.600
1457.358, 26.906
1458.536, 69.861
1459.714, 5.497
1460.891, 76.315
1462.069, 80.427
1463.246, 2.820
1464.423, 114.510
1465.600, 0.757
1466.777, 30.200
1467.954, 28.615
1469.130, 35.428
1470.306, 59.494
1471.483, 70.131
1472.658, 18.861
1473.834, 69.442
1475.010, 9.012
1476.185, 5.065
1477.360, 75.835
1478.535, 11.952
1479.710, 26.262
1480.885, 70.446
1482.059, 26.816
1483.234, 102.890
1484.408, 59.728
1485.582, 12.002
1486.755, 65.059
1487.929, 69.720
1489.102, 20.658
1490.275, 93.027
1491.449, 98.947
1492.621, 76.149
1493.794, 101.560
1494.967, 99.164
1496.139, 56.058
1497.311, 90.642
1498.483, 39.010
1499.655, 79.325
1500.826, 64.557
1501.998, 86.488
1503.169, 116.586
1504.340, 105.403
1505.511, 56.223
1506.682, 172.018
1507.852, 105.661
1509.023, 53.045
1510.193, 151.203
1511.363, 26.877
1512.532, 53.049
1513.702, 79.235
1514.872, 14.552
1516.041, 73.408
1517.210, 96.392
1518.379, 22.397
1519.548, 130.442
1520.716, 17.276
1521.885, 0.352
1523.053, 0.000
##END=



