##NAMES=Grossular
##RRUFFID=R060442
##IDEAL CHEMISTRY=Ca_3_Al_2_(SiO_4_)_3_
##LOCALITY=Pakistan(?)
##OWNER=RRUFF
##SOURCE=Gemological Institute of America
##DESCRIPTION=Orange crystals
##STATUS=The identification of this mineral has been confirmed by X-ray diffraction and chemical analysis
##URL=rruff.info/R060442
##MEASURED CHEMISTRY=(Ca_2.85_Fe^2+^_0.15_)_Σ=3_(Al_1.85_Fe^3+^_0.15_)_Σ=2_(Si_1.00_O_4_)_3_; trace amounts of Ti, Mg
##PIN_ID=M01870
##ORIENTATION=Laser parallel to a* (1 0 0). Fiducial mark perpendicular to laser is parallel to c [0 0 1]
129.0000, 0.0000000E+00
130.2340, 29.67249
131.4670, 93.44751
132.7000, 0.7545170
133.9330, 62.85181
135.1660, 38.24780
136.3990, 22.40820
137.6310, 65.02942
138.8640, 72.60193
140.0960, 80.64685
141.3280, 64.18274
142.5600, 59.19055
143.7910, 87.33435
145.0230, 3.096069
146.2540, 98.23254
147.4850, 111.0939
148.7160, 20.86914
149.9470, 94.52954
151.1780, 84.48804
152.4080, 10.74805
153.6380, 105.3027
154.8690, 106.1440
156.0980, 42.26392
157.3280, 17.34546
158.5580, 7.308105
159.7870, 73.21680
161.0170, 25.62573
162.2460, 65.77368
163.4750, 93.40918
164.7030, 145.2759
165.9320, 196.3689
167.1600, 307.8975
168.3890, 385.3826
169.6170, 504.6621
170.8450, 763.1553
172.0730, 892.9102
173.3000, 1067.913
174.5280, 1442.098
175.7550, 1788.460
176.9820, 1945.993
178.2090, 1916.689
179.4350, 1693.545
180.6620, 1327.556
181.8880, 1007.719
183.1150, 730.0295
184.3410, 600.4861
185.5670, 446.0847
186.7920, 364.8223
188.0180, 352.6956
189.2430, 250.7036
190.4690, 257.8442
191.6940, 173.1157
192.9180, 203.5171
194.1430, 167.0471
195.3680, 128.7051
196.5920, 151.4897
197.8160, 83.40088
199.0400, 64.43750
200.2640, 140.5999
201.4880, 93.88721
202.7110, 121.2776
203.9350, 2.299561
205.1580, 1.857910
206.3810, 57.37891
207.6040, 66.84888
208.8270, 20.17944
210.0490, 14.37134
211.2710, 64.55054
212.4940, 74.57373
213.7160, 127.6997
214.9370, 117.1758
216.1590, 158.3794
217.3810, 121.6279
218.6020, 230.9270
219.8230, 196.2798
221.0440, 310.6941
222.2650, 380.1709
223.4860, 564.7104
224.7060, 683.3137
225.9260, 749.9822
227.1470, 863.7168
228.3670, 1169.518
229.5860, 1507.387
230.8060, 1693.324
232.0260, 2108.332
233.2450, 2487.408
234.4640, 2894.553
235.6830, 3360.770
236.9020, 3608.057
238.1200, 3838.415
239.3390, 4011.844
240.5570, 4026.343
241.7750, 4517.884
242.9930, 4909.484
244.2110, 5410.152
245.4290, 5203.893
246.6460, 4289.708
247.8630, 3268.594
249.0810, 2382.551
250.2980, 1639.581
251.5140, 1198.683
252.7310, 943.8560
253.9470, 755.1021
255.1640, 629.4209
256.3800, 562.8130
257.5960, 625.2793
258.8120, 759.8206
260.0270, 703.5869
261.2430, 737.1318
262.4580, 774.9036
263.6730, 866.7529
264.8880, 1069.682
266.1030, 1296.690
267.3170, 1571.777
268.5320, 1831.946
269.7460, 2196.195
270.9600, 2600.524
272.1740, 3201.935
273.3880, 3673.427
274.6010, 4000.001
275.8150, 4210.277
277.0280, 4028.441
278.2410, 3498.479
279.4540, 2795.889
280.6670, 2128.146
281.8790, 1748.506
283.0920, 1385.966
284.3040, 1188.474
285.5160, 1070.138
286.7280, 920.4045
287.9400, 823.2861
289.1510, 683.6685
290.3630, 585.6768
291.5740, 430.3540
292.7850, 275.3950
293.9960, 161.5298
295.2070, 92.41309
296.4170, 68.23364
297.6280, 38.73022
298.8380, 72.10889
300.0480, 55.46777
301.2580, 31.12109
302.4680, 69.84961
303.6770, 16.95312
304.8870, 157.8286
306.0960, 124.7766
307.3050, 195.8730
308.5140, 295.9622
309.7230, 331.1206
310.9310, 344.3472
312.1400, 441.6416
313.3480, 457.0005
314.5560, 533.3711
315.7640, 572.3806
316.9720, 718.2920
318.1790, 684.8506
319.3870, 714.4736
320.5940, 851.1599
321.8010, 1130.909
323.0080, 1303.720
324.2150, 1511.593
325.4210, 1665.527
326.6280, 1823.521
327.8340, 1879.574
329.0400, 1764.687
330.2460, 1595.858
331.4510, 1478.087
332.6570, 1386.695
333.8620, 1235.718
335.0680, 1289.119
336.2730, 1264.575
337.4780, 1357.087
338.6820, 1455.654
339.8870, 1656.275
341.0910, 1809.950
342.2950, 1946.679
343.5000, 2200.461
344.7030, 2376.295
345.9070, 2633.183
347.1110, 2792.120
348.3140, 2893.110
349.5170, 3141.119
350.7200, 3379.183
351.9230, 3771.857
353.1260, 4412.260
354.3290, 5146.168
355.5310, 5851.251
356.7330, 6977.595
357.9350, 8365.985
359.1370, 9902.427
360.3390, 12026.90
361.5400, 14292.42
362.7420, 17360.99
363.9430, 20791.61
365.1440, 24730.28
366.3450, 28603.99
367.5460, 32357.75
368.7460, 36676.57
369.9470, 41522.41
371.1470, 45844.32
372.3470, 47798.27
373.5470, 46831.27
374.7460, 41939.33
375.9460, 35260.45
377.1450, 28762.63
378.3450, 22549.86
379.5440, 17941.16
380.7430, 14355.51
381.9410, 11491.94
383.1400, 9291.427
384.3380, 7796.997
385.5370, 6555.644
386.7350, 5557.362
387.9320, 4740.152
389.1300, 4081.004
390.3280, 3645.935
391.5250, 3160.931
392.7220, 2909.007
393.9190, 2567.155
395.1160, 2429.373
396.3130, 2256.662
397.5100, 2136.025
398.7060, 2160.456
399.9020, 1982.953
401.0980, 2076.521
402.2940, 1925.151
403.4900, 1935.847
404.6860, 2009.604
405.8810, 2159.421
407.0760, 2140.293
408.2710, 2351.222
409.4660, 2513.217
410.6610, 2538.276
411.8550, 2701.411
413.0500, 2551.611
414.2440, 2394.865
415.4380, 1983.183
416.6320, 1496.552
417.8260, 1178.982
419.0190, 848.4727
420.2130, 595.0347
421.4060, 373.6475
422.5990, 259.3264
423.7920, 177.0688
424.9850, 26.85913
426.1770, 48.70923
427.3700, 7.618408
428.5620, 43.41309
429.7540, 115.3977
430.9460, 102.3552
432.1380, 89.28369
433.3290, 98.17407
434.5210, 80.03809
435.7120, 69.74658
436.9030, 69.66064
438.0940, 26.42993
439.2850, 84.16406
440.4750, 41.88110
441.6660, 27.57007
442.8560, 48.83765
444.0460, 44.21729
445.2360, 60.63403
446.4260, 155.0879
447.6160, 248.5801
448.8050, 253.1067
449.9940, 400.6670
451.1830, 382.2639
452.3720, 464.8938
453.5610, 541.5554
454.7500, 585.2490
455.9380, 558.9736
457.1260, 572.7288
458.3150, 529.5146
459.5020, 553.3306
460.6900, 585.1765
461.8780, 559.0515
463.0650, 507.9556
464.2530, 518.8879
465.4400, 598.8481
466.6270, 523.8364
467.8130, 699.8516
469.0000, 817.8936
470.1870, 918.9619
471.3730, 975.0564
472.5590, 1056.176
473.7450, 1248.321
474.9310, 1394.490
476.1160, 1305.684
477.3020, 1248.901
478.4870, 1054.143
479.6720, 854.4070
480.8570, 742.6938
482.0420, 729.0029
483.2270, 660.3340
484.4110, 691.6863
485.5960, 605.0593
486.7800, 727.4534
487.9640, 726.8679
489.1480, 797.3020
490.3310, 885.7559
491.5150, 1000.228
492.6980, 1110.720
493.8810, 1238.230
495.0640, 1318.765
496.2470, 1430.326
497.4300, 1499.905
498.6120, 1620.502
499.7950, 1682.116
500.9770, 1793.745
502.1590, 1905.390
503.3410, 2041.050
504.5220, 2276.726
505.7040, 2572.415
506.8850, 2490.119
508.0660, 2323.837
509.2470, 1967.567
510.4280, 1735.311
511.6090, 1388.068
512.7890, 1211.836
513.9700, 1104.005
515.1500, 1083.517
516.3300, 907.4802
517.5100, 861.4058
518.6900, 828.7866
519.8690, 842.2190
521.0490, 856.1333
522.2280, 866.3003
523.4070, 871.4050
524.5860, 873.7271
525.7640, 882.6272
526.9430, 881.8469
528.1210, 897.6406
529.3000, 913.8311
530.4780, 993.2249
531.6560, 1286.222
532.8330, 1487.986
534.0110, 1867.673
535.1880, 2465.450
536.3650, 3209.704
537.5430, 4008.187
538.7190, 5251.658
539.8960, 6987.050
541.0730, 8490.553
542.2490, 10503.24
543.4250, 12798.54
544.6020, 14804.22
545.7780, 15620.92
546.9530, 14233.86
548.1290, 11609.17
549.3040, 8799.742
550.4800, 6424.710
551.6550, 4731.698
552.8300, 3640.528
554.0040, 2809.934
555.1790, 2172.982
556.3540, 1834.193
557.5280, 1610.424
558.7020, 1379.389
559.8760, 1392.890
561.0500, 1309.871
562.2230, 1173.804
563.3970, 1213.119
564.5700, 1195.164
565.7430, 1108.607
566.9160, 1143.756
568.0890, 1089.834
569.2620, 1146.033
570.4340, 1112.919
571.6070, 1034.728
572.7790, 1002.679
573.9510, 1008.406
575.1230, 947.6606
576.2940, 856.2170
577.4660, 860.9287
578.6370, 829.4843
579.8080, 874.0515
580.9790, 825.4751
582.1500, 728.1902
583.3210, 754.1638
584.4910, 732.8123
585.6620, 785.4746
586.8320, 852.0752
588.0020, 726.5016
589.1720, 819.7039
590.3410, 697.9236
591.5110, 560.0742
592.6800, 529.1986
593.8500, 488.2963
595.0190, 360.3671
596.1880, 423.4109
597.3560, 393.4274
598.5250, 507.4161
599.6930, 540.3773
600.8620, 594.3103
602.0300, 597.2150
603.1970, 659.9622
604.3650, 746.9382
605.5330, 772.7568
606.7000, 829.5458
607.8680, 905.3052
609.0350, 927.0349
610.2020, 1059.735
611.3680, 1082.404
612.5350, 1090.044
613.7010, 1147.652
614.8680, 1148.230
616.0340, 1334.777
617.2000, 1396.293
618.3660, 1519.777
619.5310, 1598.230
620.6970, 1842.651
621.8620, 1968.039
623.0270, 2135.397
624.1920, 2266.721
625.3570, 2452.012
626.5220, 2473.272
627.6860, 2352.499
628.8500, 2199.692
630.0140, 2010.852
631.1780, 1740.979
632.3420, 1383.072
633.5060, 1276.131
634.6700, 996.1572
635.8330, 878.1489
636.9960, 676.1062
638.1590, 612.0297
639.3220, 495.9183
640.4850, 448.7723
641.6470, 386.5917
642.8100, 340.3761
643.9720, 266.1255
645.1340, 279.8397
646.2960, 216.5188
647.4570, 133.1625
648.6190, 136.7708
649.7800, 165.3435
650.9420, 122.8805
652.1030, 137.3818
653.2640, 68.84753
654.4240, 56.27197
655.5850, 18.65222
656.7450, 14.02527
657.9060, 32.22278
659.0660, 10.41870
660.2260, 2.552856
661.3850, 1.379028
662.5450, 39.37903
663.7040, 14.46692
664.8640, 90.62976
666.0230, 65.90735
667.1820, 43.28674
668.3410, 49.75586
669.4990, 21.31799
670.6580, 78.95825
671.8160, 27.70667
672.9740, 90.53613
674.1320, 60.47937
675.2900, 52.52039
676.4480, 56.65479
677.6050, 72.88403
678.7630, 56.21680
679.9200, 42.64380
681.0770, 62.15747
682.2340, 40.76770
683.3900, 47.46313
684.5470, 32.58655
685.7030, 37.10974
686.8590, 12.05469
688.0150, 33.06775
689.1710, 56.15955
690.3270, 57.34155
691.4830, 103.6138
692.6380, 66.00037
693.7930, 29.48047
694.9480, 65.03467
696.1030, 18.68079
697.2580, 63.39392
698.4130, 57.19666
699.5670, 66.08545
700.7210, 17.93616
701.8750, 42.08789
703.0290, 23.18762
704.1830, 30.64783
705.3370, 27.55725
706.4900, 27.82788
707.6430, 31.16357
708.7970, 28.56494
709.9490, 36.85986
711.1020, 32.96301
712.2550, 55.09753
713.4070, 22.72217
714.5600, 34.39087
715.7120, 17.11157
716.8640, 1.123901
718.0160, 10.32617
719.1670, 22.87891
720.3190, 27.16125
721.4700, 35.75439
722.6210, 30.84204
723.7720, 25.89734
724.9230, 26.92029
726.0740, 40.91150
727.2250, 82.87268
728.3750, 67.80640
729.5250, 113.7122
730.6750, 98.59119
731.8250, 79.44360
732.9750, 114.2695
734.1240, 79.06934
735.2740, 157.8434
736.4230, 132.5918
737.5720, 149.3149
738.7210, 124.0129
739.8700, 216.6860
741.0190, 233.3347
742.1670, 230.9592
743.3150, 260.5594
744.4630, 273.1432
745.6110, 255.6891
746.7590, 316.2190
747.9070, 350.7257
749.0540, 380.2101
750.2020, 464.6720
751.3490, 480.1117
752.4960, 542.5298
753.6430, 541.9260
754.7890, 597.3010
755.9360, 719.6550
757.0820, 721.9884
758.2280, 817.3013
759.3740, 946.5942
760.5200, 1004.867
761.6660, 1091.120
762.8120, 1145.354
763.9570, 1313.570
765.1020, 1404.766
766.2470, 1576.944
767.3920, 1704.105
768.5370, 1700.246
769.6810, 1740.371
770.8260, 1784.479
771.9700, 1830.569
773.1140, 1845.644
774.2580, 1844.702
775.4020, 1831.077
776.5460, 1802.770
777.6890, 1752.781
778.8320, 1662.776
779.9750, 1594.758
781.1180, 1565.725
782.2610, 1500.678
783.4040, 1491.620
784.5460, 1467.548
785.6890, 1407.465
786.8310, 1431.370
787.9730, 1439.264
789.1150, 1476.153
790.2560, 1421.038
791.3980, 1538.528
792.5390, 1567.694
793.6810, 1696.427
794.8220, 1745.203
795.9630, 1880.528
797.1030, 2020.810
798.2440, 2246.612
799.3840, 2419.167
800.5240, 2679.354
801.6650, 2947.110
802.8040, 3270.097
803.9440, 3709.651
805.0840, 4084.638
806.2230, 4494.229
807.3630, 4960.615
808.5020, 5558.402
809.6410, 6172.429
810.7790, 6824.550
811.9180, 7386.597
813.0570, 8143.190
814.1950, 9103.560
815.3330, 9971.964
816.4710, 11043.46
817.6090, 12374.84
818.7470, 13691.04
819.8840, 14921.64
821.0220, 16182.87
822.1590, 16989.10
823.2960, 17592.09
824.4330, 17738.71
825.5690, 17197.09
826.7060, 16282.07
827.8420, 15081.05
828.9790, 14199.19
830.1150, 12904.76
831.2510, 12005.71
832.3860, 10999.50
833.5220, 10335.28
834.6570, 9764.359
835.7930, 9209.899
836.9280, 8731.979
838.0630, 8578.107
839.1980, 8356.874
840.3320, 8201.934
841.4670, 8119.611
842.6010, 8117.602
843.7350, 8008.674
844.8690, 8073.632
846.0030, 8187.843
847.1370, 8265.631
848.2700, 8369.768
849.4040, 8224.603
850.5370, 8344.561
851.6700, 8253.884
852.8030, 8182.386
853.9360, 8422.039
855.0680, 8391.010
856.2000, 8526.271
857.3330, 8850.641
858.4650, 9016.158
859.5970, 9601.668
860.7290, 10104.16
861.8600, 10886.71
862.9920, 11759.43
864.1230, 13048.37
865.2540, 14478.30
866.3850, 16313.28
867.5160, 18594.30
868.6460, 21379.33
869.7770, 24823.39
870.9070, 28684.48
872.0370, 33395.59
873.1670, 38734.72
874.2970, 44633.88
875.4270, 50073.05
876.5570, 55208.26
877.6860, 58810.50
878.8150, 60930.75
879.9440, 60734.02
881.0730, 58582.34
882.2020, 54380.68
883.3300, 48509.04
884.4590, 42742.43
885.5870, 36946.84
886.7150, 31865.28
887.8430, 27191.58
888.9710, 23344.24
890.0990, 19264.76
891.2260, 16060.30
892.3530, 13530.88
893.4810, 11820.48
894.6080, 10212.11
895.7340, 9039.762
896.8610, 7927.447
897.9880, 7133.161
899.1140, 6520.901
900.2400, 5849.669
901.3660, 5394.468
902.4920, 4982.292
903.6180, 4713.147
904.7430, 4488.032
905.8690, 4190.943
906.9940, 3991.885
908.1190, 3717.854
909.2440, 3502.855
910.3690, 3281.884
911.4930, 3121.942
912.6180, 2969.030
913.7420, 2762.148
914.8660, 2627.296
915.9900, 2477.515
917.1140, 2409.774
918.2380, 2231.210
919.3610, 2141.483
920.4850, 1974.135
921.6080, 1861.478
922.7310, 1730.169
923.8540, 1724.698
924.9760, 1640.902
926.0990, 1666.020
927.2210, 1495.823
928.3440, 1554.947
929.4660, 1373.754
930.5880, 1360.904
931.7090, 1337.162
932.8310, 1284.312
933.9520, 1197.091
935.0740, 1242.453
936.1950, 1182.968
937.3160, 1231.128
938.4360, 1289.646
939.5570, 1405.974
940.6780, 1289.043
941.7980, 1390.171
942.9180, 1472.002
944.0380, 1528.197
945.1580, 1615.052
946.2780, 1494.892
947.3970, 1536.547
948.5170, 1403.984
949.6360, 1333.324
950.7550, 1290.445
951.8740, 1143.098
952.9930, 1062.938
954.1110, 1015.743
955.2300, 819.0195
956.3480, 684.8369
957.4660, 597.1384
958.5840, 512.8359
959.7020, 477.8232
960.8190, 416.2742
961.9370, 353.0823
963.0540, 386.5579
964.1710, 672.6582
965.2880, 1291.056
966.4050, 1208.613
967.5220, 1143.907
968.6380, 849.9397
969.7550, 720.8901
970.8710, 849.1321
971.9870, 863.7534
973.1030, 980.8909
974.2190, 1085.329
975.3340, 1225.365
976.4500, 1355.684
977.5650, 1495.290
978.6800, 1592.410
979.7950, 1652.179
980.9100, 1801.298
982.0250, 1788.030
983.1390, 1963.989
984.2530, 2040.000
985.3680, 2157.020
986.4820, 2223.729
987.5950, 2216.228
988.7090, 2314.340
989.8230, 2320.477
990.9360, 2353.636
992.0490, 2526.817
993.1620, 2565.017
994.2750, 2736.238
995.3880, 2775.479
996.5010, 2941.740
997.6130, 3007.020
998.7250, 3207.317
999.8370, 3439.633
1000.949, 3757.965
1002.061, 4047.314
1003.173, 4392.681
1004.284, 4625.063
1005.396, 4690.463
1006.507, 4617.877
1007.618, 4422.309
1008.729, 4070.755
1009.839, 3589.218
1010.950, 3115.696
1012.060, 2536.189
1013.171, 2142.696
1014.281, 1795.219
1015.391, 1465.755
1016.500, 1199.307
1017.610, 989.8723
1018.719, 849.4517
1019.829, 684.0442
1020.938, 530.6504
1022.047, 501.2700
1023.156, 367.9021
1024.264, 373.5469
1025.373, 289.2046
1026.481, 301.8740
1027.589, 229.5557
1028.697, 262.2493
1029.805, 242.9551
1030.913, 230.6719
1032.020, 264.3999
1033.128, 217.1406
1034.235, 168.8918
1035.342, 139.6543
1036.449, 142.4287
1037.556, 109.2136
1038.663, 99.28760
1039.769, 53.81494
1040.875, 68.63159
1041.981, 55.46143
1043.087, 35.30225
1044.193, 76.15332
1045.299, 63.01611
1046.404, 52.88867
1047.510, 30.76978
1048.615, 1.341309
1049.720, 2.445557
1050.825, 12.42529
1051.930, 4.363281
1053.034, 18.71948
1054.139, 2.199707
1055.243, 16.87573
1056.347, 39.94336
1057.451, 53.01733
1058.555, 26.10352
1059.658, 94.19238
1060.762, 81.31689
1061.865, 37.46655
1062.968, 19.62476
1064.071, 42.72070
1065.174, 15.86963
1066.277, 29.03076
1067.380, 88.12842
1068.482, 39.33594
1069.584, 48.55200
1070.686, 51.78857
1071.788, 29.04834
1072.890, 11.67920
1073.992, 30.40869
1075.093, 12.86108
1076.194, 35.13647
1077.295, 59.43066
1078.396, 56.75830
1079.497, 83.43164
1080.598, 13.52759
1081.698, 89.94873
1082.799, 36.42407
1083.899, 28.07324
1084.999, 6.567627
1086.099, 40.94507
1087.199, 30.48926
1088.298, 37.06128
1089.398, 5.334961
1090.497, 15.27979
1091.596, 49.91675
1092.695, 7.595703
1093.794, 11.29492
1094.892, 4.017090
1095.991, 27.75903
1097.089, 30.51318
1098.187, 15.30322
1099.285, 25.12109
1100.383, 82.97412
1101.481, 18.10742
1102.579, 34.82568
1103.676, 9.198242
1104.773, 45.79785
1105.870, 64.84351
1106.967, 40.94946
1108.064, 44.10376
1109.161, 15.30603
1110.257, 10.45520
1111.353, 19.19263
1112.449, 13.90918
1113.545, 4.608887
1114.641, 54.27942
1115.737, 53.93738
1116.832, 84.58899
1117.928, 53.22852
1119.023, 164.8542
1120.118, 84.46765
1121.213, 159.0681
1122.308, 233.6552
1123.402, 213.2291
1124.497, 185.7894
1125.591, 124.3365
1126.685, 158.8698
1127.779, 105.3889
1128.873, 212.8934
1129.967, 101.3837
1131.060, 168.8594
1132.153, 129.3202
1133.247, 179.7659
1134.340, 257.1968
1135.433, 195.6121
1136.525, 200.0117
1137.618, 252.3959
1138.710, 231.7644
1139.802, 251.1168
1140.895, 306.4534
1141.987, 231.7740
1143.078, 327.0782
1144.170, 317.3660
1145.261, 325.6375
1146.353, 338.8920
1147.444, 338.1299
1148.535, 399.4158
1149.626, 401.6191
1150.716, 415.8062
1151.807, 397.9750
1152.897, 373.1261
1153.988, 384.8514
1155.078, 386.3750
1156.168, 388.4727
1157.257, 389.5521
1158.347, 389.6138
1159.436, 460.7312
1160.526, 425.8339
1161.615, 443.5730
1162.704, 407.8556
1163.793, 429.1785
1164.881, 367.1577
1165.970, 343.3159
1167.058, 332.5873
1168.147, 355.6958
1169.235, 384.5920
1170.323, 366.9540
1171.410, 344.0554
1172.498, 337.7366
1173.585, 308.1345
1174.673, 309.8442
1175.760, 269.8298
1176.847, 314.0055
1177.934, 298.8690
1179.020, 308.7299
1180.107, 337.4723
1181.193, 339.3022
1182.279, 324.6443
1183.365, 267.5039
1184.451, 254.8423
1185.537, 286.4570
1186.623, 207.0865
1187.708, 220.5840
1188.793, 211.5229
1189.878, 254.3379
1190.963, 161.4822
1192.048, 229.2759
1193.133, 192.6829
1194.217, 137.6846
1195.302, 152.9575
1196.386, 215.9484
1197.470, 138.5634
1198.554, 216.4425
1199.638, 227.6128
1200.721, 208.6821
1201.805, 214.4698
1202.888, 203.5958
1203.971, 240.0322
1205.054, 205.4739
1206.137, 212.9246
1207.219, 233.0942
1208.302, 189.8125
1209.384, 215.7422
1210.466, 195.7489
1211.548, 250.9653
1212.630, 233.2883
1213.712, 247.8417
1214.794, 264.8728
1215.875, 208.7640
1216.956, 258.8472
1218.037, 238.5356
1219.118, 266.6151
1220.199, 319.1790
1221.280, 254.4746
1222.360, 252.4048
1223.441, 316.8691
1224.521, 268.1938
1225.601, 249.8636
1226.681, 254.8938
1227.760, 260.6764
1228.840, 264.3618
1229.919, 258.0571
1230.999, 279.7059
1232.078, 247.9896
1233.157, 241.9702
1234.236, 250.2225
1235.314, 255.9656
1236.393, 286.9692
1237.471, 298.4086
1238.549, 304.1748
1239.627, 309.0355
1240.705, 309.3762
1241.783, 268.0879
1242.860, 342.9795
1243.938, 324.7339
1245.015, 338.2390
1246.092, 398.1882
1247.169, 344.7205
1248.246, 371.2488
1249.323, 335.8540
1250.399, 303.2979
1251.475, 284.7268
1252.552, 335.2366
1253.628, 303.6357
1254.703, 321.1648
1255.779, 334.5801
1256.855, 337.9346
1257.930, 338.2744
1259.005, 296.6458
1260.080, 408.9563
1261.155, 312.2524
1262.230, 384.5339
1263.305, 346.8008
1264.379, 328.0535
1265.454, 269.2917
1266.528, 266.7295
1267.602, 236.7251
1268.676, 247.9204
1269.750, 231.1018
1270.823, 219.3704
1271.897, 199.5239
1272.970, 175.6282
1274.043, 166.8447
1275.116, 119.9565
1276.189, 103.0552
1277.261, 71.13965
1278.334, 95.21021
1279.406, 86.26709
1280.478, 98.31104
1281.550, 98.34131
1282.622, 93.35864
1283.694, 107.3640
1284.766, 98.35596
1285.837, 88.18823
1286.908, 126.3025
1287.979, 67.25708
1289.050, 66.19800
1290.121, 78.12598
1291.192, 84.04102
1292.262, 27.94434
1293.333, 76.83203
1294.403, 37.70703
1295.473, 26.56787
1296.543, 38.41406
1297.613, 77.24707
1298.682, 18.06860
1299.752, 31.87378
1300.821, 6.664551
1301.890, 13.43604
1302.959, 24.19043
1304.028, 6.930176
