##NAMES=Grossular
##RRUFFID=R040065
##IDEAL CHEMISTRY=Ca_3_Al_2_(SiO_4_)_3_
##LOCALITY=Feng Tien mine, Taiwan
##OWNER=RRUFF
##SOURCE=University of Arizona Mineral Museum
##DESCRIPTION=Orange-brown trapezohedral crystals
##STATUS=The identification of this mineral has been confirmed by X-ray diffraction and chemical analysis
##URL=rruff.info/R040065
##MEASURED CHEMISTRY=(Ca_2.90_Fe^2+^_0.05_Mn_0.05_)_Σ=3_(Al_1.95_Fe^3+^_0.03_Ti_0.02_)_Σ=2_((Si_0.99_Al_0.01_)_Σ=1_O_4_)_3_
##PIN_ID=M00027
##ORIENTATION=Laser parallel to -a* (-1 0 0). Fiducial mark perpendicular to laser is parallel to b [0 1 0]
97.181, 0.000
98.579, 134.794
99.976, 159.428
101.373, 94.683
102.770, 1.838
104.166, 56.135
105.563, 167.181
106.959, 168.561
108.355, 230.761
109.750, 128.561
111.146, 169.712
112.541, 341.759
113.936, 366.857
115.330, 600.660
116.725, 2058.842
118.119, 1421.826
119.513, 2628.423
120.907, 988.761
122.300, 301.898
123.693, 112.561
125.086, 134.292
126.479, 17.271
127.871, 105.840
129.264, 101.740
130.656, 71.329
132.048, 122.464
133.439, 150.694
134.830, 135.073
136.222, 157.028
137.612, 139.241
139.003, 106.278
140.393, 217.488
141.783, 182.159
143.173, 168.944
144.563, 157.775
145.952, 128.668
147.342, 160.219
148.731, 81.367
150.119, 160.775
151.508, 188.918
152.896, 121.324
154.284, 232.094
155.672, 220.417
157.059, 185.861
158.446, 223.708
159.833, 217.058
161.220, 300.549
162.607, 333.513
163.993, 255.543
165.379, 159.449
166.765, 151.711
168.151, 138.904
169.536, 109.023
170.921, 142.067
172.306, 88.038
173.691, 177.939
175.075, 336.774
176.459, 538.847
177.843, 858.051
179.227, 1429.257
180.611, 1565.034
181.994, 1441.051
183.377, 1032.226
184.760, 516.405
186.142, 334.795
187.525, 175.366
188.907, 128.085
190.288, 133.928
191.670, 58.882
193.051, 32.922
194.433, 16.906
195.813, 48.614
197.194, 9.884
198.575, 14.995
199.955, 65.310
201.335, 21.575
202.714, 50.728
204.094, 27.279
205.473, 40.257
206.852, 38.482
208.231, 41.001
209.609, 45.589
210.988, 1.921
212.366, 29.667
213.744, 85.477
215.121, 26.369
216.499, 21.653
217.876, 1.413
219.253, 39.551
220.629, 8.276
222.006, 13.074
223.382, 21.156
224.758, 82.580
226.134, 101.259
227.509, 86.870
228.884, 171.381
230.259, 203.789
231.634, 297.106
233.009, 472.327
234.383, 609.431
235.757, 881.399
237.131, 1319.244
238.505, 1651.969
239.878, 1766.588
241.251, 1812.134
242.624, 1650.617
243.997, 1886.042
245.369, 2453.440
246.741, 3246.822
248.113, 3181.198
249.485, 2237.583
250.857, 1305.975
252.228, 655.374
253.599, 404.781
254.970, 259.196
256.340, 154.618
257.711, 121.048
259.081, 115.482
260.451, 125.908
261.820, 152.322
263.190, 122.021
264.559, 153.840
265.928, 114.770
267.297, 238.421
268.665, 275.286
270.033, 429.815
271.401, 567.450
272.769, 763.684
274.137, 1164.892
275.504, 1753.365
276.871, 2612.536
278.238, 3119.321
279.605, 3170.743
280.971, 2446.019
282.337, 1545.974
283.703, 1023.049
285.069, 664.460
286.434, 554.657
287.800, 476.677
289.165, 372.376
290.529, 396.198
291.894, 241.853
293.258, 307.369
294.622, 186.214
295.986, 207.539
297.350, 208.250
298.713, 111.733
300.076, 125.101
301.439, 109.340
302.802, 127.441
304.164, 113.160
305.527, 159.492
306.889, 182.658
308.250, 170.460
309.612, 199.098
310.973, 212.030
312.334, 286.992
313.695, 320.064
315.056, 364.655
316.416, 459.131
317.776, 413.647
319.136, 429.863
320.496, 374.622
321.856, 288.944
323.215, 372.400
324.574, 410.737
325.933, 531.490
327.291, 653.535
328.649, 829.049
330.007, 950.823
331.365, 1021.537
332.723, 938.377
334.080, 747.638
335.438, 630.334
336.794, 604.364
338.151, 544.405
339.508, 641.311
340.864, 531.067
342.220, 717.874
343.576, 732.659
344.931, 863.423
346.287, 961.167
347.642, 1225.899
348.997, 1411.542
350.351, 1371.436
351.706, 1416.607
353.060, 1394.416
354.414, 1502.291
355.768, 1741.378
357.121, 1881.025
358.474, 2216.312
359.827, 2448.364
361.180, 3114.252
362.533, 3689.597
363.885, 4624.978
365.237, 5884.342
366.589, 7625.592
367.941, 9958.747
369.292, 12071.147
370.643, 15183.759
371.994, 18446.279
373.345, 22718.594
374.696, 27383.730
376.046, 27407.193
377.396, 24477.229
378.746, 18211.053
380.096, 12627.268
381.445, 9002.805
382.794, 6506.021
384.143, 5142.124
385.492, 3853.368
386.840, 3214.983
388.188, 2546.053
389.536, 2094.310
390.884, 1823.475
392.232, 1565.135
393.579, 1412.950
394.926, 1180.179
396.273, 1100.061
397.620, 1019.955
398.966, 871.861
400.312, 760.779
401.658, 830.704
403.004, 744.638
404.350, 759.573
405.695, 743.509
407.040, 727.455
408.385, 749.402
409.730, 834.352
411.074, 900.303
412.418, 1083.255
413.762, 1385.208
415.106, 1822.161
416.449, 2173.105
417.793, 2131.452
419.136, 1695.371
420.478, 1209.159
421.821, 725.933
423.163, 559.759
424.505, 392.703
425.847, 268.466
427.189, 257.311
428.530, 98.948
429.872, 182.055
431.213, 105.281
432.553, 86.957
433.894, 80.589
435.234, 19.179
436.574, 33.724
437.914, 39.228
439.254, 58.719
440.593, 56.144
441.933, 13.603
443.272, 17.081
444.610, 24.568
445.949, 19.831
447.287, 15.214
448.625, 9.583
449.963, 16.663
451.301, 16.245
452.638, 120.865
453.975, 74.390
455.312, 164.172
456.649, 162.434
457.985, 119.776
459.322, 178.107
460.658, 105.023
461.994, 139.984
463.329, 111.867
464.665, 113.816
466.000, 110.696
467.335, 91.758
468.669, 133.905
470.004, 121.992
471.338, 192.189
472.672, 179.437
474.006, 170.993
475.339, 398.688
476.673, 463.523
478.006, 572.348
479.339, 657.167
480.672, 468.978
482.004, 427.781
483.336, 294.347
484.668, 254.137
486.000, 211.922
487.332, 116.699
488.663, 194.465
489.994, 157.225
491.325, 160.980
492.656, 103.732
493.986, 216.477
495.316, 214.220
496.646, 239.236
497.976, 289.317
499.306, 278.400
500.635, 239.766
501.964, 362.128
503.293, 368.510
504.622, 573.072
505.950, 717.858
507.278, 1113.410
508.606, 1519.216
509.934, 1704.651
511.262, 1731.086
512.589, 1154.291
513.916, 850.012
515.243, 605.624
516.570, 427.956
517.896, 413.734
519.222, 279.024
520.548, 380.462
521.874, 306.764
523.200, 442.675
524.525, 511.371
525.850, 584.573
527.175, 575.383
528.500, 560.936
529.824, 469.838
531.148, 410.562
532.473, 353.986
533.796, 384.411
535.120, 383.355
536.443, 457.087
537.766, 511.283
539.089, 657.428
540.412, 969.026
541.734, 1269.087
543.057, 1819.501
544.379, 2657.009
545.700, 4143.670
547.022, 6231.923
548.343, 8455.086
549.664, 9946.348
550.985, 8386.139
552.306, 6226.908
553.627, 4318.846
554.947, 2755.759
556.267, 2026.279
557.587, 1472.529
558.906, 1202.324
560.226, 971.040
561.545, 819.185
562.864, 791.592
564.182, 734.871
565.501, 657.813
566.819, 673.149
568.137, 617.747
569.455, 698.961
570.773, 504.051
572.090, 572.281
573.407, 568.198
574.724, 496.096
576.041, 539.242
577.357, 476.317
578.674, 486.079
579.990, 403.867
581.305, 380.428
582.621, 430.208
583.937, 446.788
585.252, 444.379
586.567, 434.996
587.881, 443.993
589.196, 541.434
590.510, 563.358
591.824, 578.222
593.138, 641.780
594.452, 521.994
595.765, 352.399
597.079, 268.409
598.392, 333.707
599.704, 258.732
601.017, 245.563
602.329, 267.368
603.641, 246.732
604.953, 242.492
606.265, 297.204
607.576, 259.710
608.888, 348.373
610.199, 340.736
611.509, 393.780
612.820, 302.605
614.130, 316.779
615.441, 478.922
616.751, 409.862
618.060, 486.979
619.370, 510.809
620.679, 589.762
621.988, 703.574
623.297, 723.371
624.606, 1003.131
625.914, 1085.788
627.222, 1365.596
628.530, 1473.330
629.838, 1475.217
631.145, 1392.076
632.453, 1118.908
633.760, 970.710
635.067, 726.483
636.373, 561.225
637.680, 509.938
638.986, 436.620
640.292, 329.272
641.598, 367.895
642.904, 320.488
644.209, 349.050
645.514, 329.396
646.819, 373.897
648.124, 345.353
649.428, 335.810
650.733, 329.965
652.037, 295.344
653.340, 225.693
654.644, 210.008
655.948, 208.290
657.251, 138.537
658.554, 136.748
659.856, 128.923
661.159, 83.062
662.461, 26.163
663.763, 79.223
665.065, 15.245
666.367, 1.773
667.669, 17.841
668.970, 45.965
670.271, 26.839
671.572, 20.398
672.872, 47.693
674.173, 13.938
675.473, 78.473
676.773, 32.974
678.073, 46.541
679.372, 56.181
680.671, 20.900
681.971, 60.679
683.269, 38.538
684.568, 2.467
685.867, 103.447
687.165, 26.470
688.463, 79.654
689.761, 0.130
691.058, 40.136
692.356, 26.527
693.653, 59.852
694.950, 11.312
696.246, 2.828
697.543, 10.396
698.839, 32.019
700.135, 49.708
701.431, 52.475
702.727, 14.318
704.022, 29.220
705.317, 31.187
706.613, 8.220
707.907, 24.307
709.202, 43.457
710.496, 27.679
711.790, 37.965
713.084, 34.316
714.378, 27.743
715.672, 11.229
716.965, 18.770
718.258, 23.631
719.551, 46.989
720.844, 17.693
722.136, 18.568
723.428, 3.787
724.720, 32.960
726.012, 55.092
727.304, 14.187
728.595, 81.240
729.886, 5.744
731.177, 11.224
732.468, 21.151
733.758, 89.040
735.049, 75.891
736.339, 123.706
737.629, 64.487
738.918, 105.230
740.208, 95.939
741.497, 82.614
742.786, 143.253
744.075, 110.860
745.363, 153.431
746.652, 141.978
747.940, 201.494
749.228, 214.980
750.516, 176.441
751.803, 334.872
753.091, 212.249
754.378, 287.626
755.665, 263.906
756.951, 329.104
758.238, 409.369
759.524, 403.523
760.810, 464.638
762.096, 498.875
763.382, 541.012
764.667, 680.207
765.952, 685.378
767.237, 772.528
768.522, 869.653
769.806, 869.762
771.091, 954.863
772.375, 951.941
773.659, 1016.002
774.943, 978.040
776.226, 898.052
777.509, 888.064
778.793, 848.053
780.075, 819.011
781.358, 809.949
782.641, 771.860
783.923, 768.747
785.205, 658.607
786.487, 737.444
787.768, 703.256
789.050, 635.043
790.331, 732.805
791.612, 725.542
792.892, 801.255
794.173, 728.959
795.453, 734.638
796.734, 844.293
798.013, 821.926
799.293, 1030.534
800.573, 1116.125
801.852, 1102.707
803.131, 1310.263
804.410, 1403.796
805.688, 1527.305
806.967, 1796.791
808.245, 1970.980
809.523, 2200.077
810.801, 2427.146
812.079, 2870.896
813.356, 3057.662
814.633, 3292.529
815.910, 3835.235
817.187, 4173.438
818.463, 4806.838
819.740, 5571.166
821.016, 6239.635
822.292, 7377.069
823.568, 8222.717
824.843, 8811.839
826.118, 9129.038
827.393, 8314.496
828.668, 7823.480
829.943, 6816.938
831.217, 5903.260
832.492, 5428.697
833.766, 4675.502
835.039, 4385.516
836.313, 4055.007
837.586, 3788.879
838.860, 3866.992
840.133, 3540.745
841.405, 3772.664
842.678, 3839.869
843.950, 3822.064
845.222, 4183.716
846.494, 4013.562
847.766, 4439.942
849.038, 4513.354
850.309, 4442.280
851.580, 4728.722
852.851, 4434.787
854.122, 4491.731
855.392, 4525.493
856.662, 4493.636
857.932, 4792.837
859.202, 4887.905
860.472, 5115.406
861.741, 5591.892
863.011, 5777.169
864.280, 6693.435
865.548, 7129.049
866.817, 8064.892
868.085, 9391.146
869.354, 10298.438
870.622, 12825.252
871.889, 14793.768
873.157, 17642.365
874.424, 22299.260
875.691, 26307.775
876.958, 32305.926
878.225, 37804.562
879.492, 40893.598
880.758, 42972.141
882.024, 39981.332
883.290, 36749.238
884.556, 31477.717
885.821, 25886.787
887.086, 22425.729
888.352, 17955.008
889.616, 15104.310
890.881, 12573.454
892.145, 10162.760
893.410, 8982.094
894.674, 7431.316
895.938, 6200.748
897.201, 5519.706
898.465, 4680.537
899.728, 4157.278
900.991, 3714.810
902.254, 3197.896
903.516, 3099.103
904.779, 2643.239
906.041, 2571.948
907.303, 2476.704
908.565, 2248.896
909.826, 2170.963
911.087, 1984.049
912.349, 1877.905
913.609, 1866.718
914.870, 1626.940
916.131, 1649.654
917.391, 1499.623
918.651, 1329.171
919.911, 1399.079
921.171, 1131.298
922.430, 1250.425
923.690, 1062.563
924.949, 1023.489
926.208, 1003.703
927.466, 1002.768
928.725, 849.056
929.983, 835.753
931.241, 757.454
932.499, 747.479
933.756, 664.060
935.014, 640.941
936.271, 618.618
937.528, 561.131
938.785, 638.585
940.042, 514.294
941.298, 516.179
942.554, 575.067
943.810, 422.939
945.066, 633.157
946.322, 579.715
947.577, 468.864
948.832, 489.773
950.087, 442.395
951.342, 455.542
952.596, 461.322
953.851, 471.718
955.105, 318.586
956.359, 322.012
957.613, 250.749
958.866, 268.203
960.119, 173.201
961.373, 166.664
962.626, 197.992
963.878, 142.420
965.131, 105.199
966.383, 92.521
967.635, 167.544
968.887, 200.212
970.139, 102.824
971.390, 211.320
972.642, 195.501
973.893, 274.055
975.144, 296.034
976.394, 287.125
977.645, 404.178
978.895, 399.351
980.145, 488.367
981.395, 533.709
982.645, 474.354
983.894, 625.791
985.143, 626.906
986.392, 684.937
987.641, 681.927
988.890, 590.247
990.138, 719.061
991.387, 827.436
992.635, 779.433
993.882, 898.961
995.130, 952.981
996.377, 890.470
997.625, 1138.909
998.872, 1116.295
1000.119, 1521.011
1001.365, 1793.922
1002.612, 1868.202
1003.858, 2104.681
1005.104, 2218.752
1006.350, 2405.910
1007.595, 2562.718
1008.841, 2205.982
1010.086, 2112.130
1011.331, 1690.783
1012.576, 1408.056
1013.820, 1173.701
1015.065, 802.152
1016.309, 781.236
1017.553, 589.083
1018.796, 440.089
1020.040, 528.121
1021.283, 336.152
1022.527, 361.097
1023.770, 372.653
1025.012, 213.098
1026.255, 301.026
1027.497, 192.427
1028.739, 120.226
1029.981, 197.107
1031.223, 105.687
1032.465, 170.552
1033.706, 202.875
1034.947, 69.618
1036.188, 168.269
1037.429, 72.643
1038.669, 113.597
1039.910, 90.588
1041.150, 93.743
1042.390, 75.232
1043.630, 90.035
1044.869, 99.419
1046.108, 179.263
1047.348, 31.959
1048.587, 25.927
1049.825, 134.654
1051.064, 17.186
1052.302, 187.293
1053.540, 57.192
1054.778, 100.878
1056.016, 144.076
1057.254, 34.949
1058.491, 65.889
1059.728, 59.224
1060.965, 18.921
1062.202, 121.384
1063.438, 21.849
1064.674, 14.965
1065.911, 77.464
1067.147, 10.135
1068.382, 87.785
1069.618, 42.999
1070.853, 72.829
1072.088, 26.289
1073.323, 37.050
1074.558, 3.502
1075.792, 35.073
1077.027, 89.532
1078.261, 118.261
1079.495, 113.607
1080.729, 39.227
1081.962, 141.303
1083.195, 65.874
1084.428, 111.614
1085.661, 13.469
1086.894, 51.624
1088.127, 92.337
1089.359, 46.238
1090.591, 41.577
1091.823, 41.236
1093.055, 52.069
1094.286, 108.092
1095.518, 0.345
1096.749, 21.177
1097.980, 79.839
1099.210, 17.961
1100.441, 43.699
1101.671, 120.131
1102.901, 18.705
1104.131, 104.404
1105.361, 31.007
1106.591, 5.719
1107.820, 191.875
1109.049, 5.526
1110.278, 103.272
1111.507, 36.474
1112.735, 15.697
1113.964, 90.568
1115.192, 13.661
1116.420, 24.042
1117.648, 28.993
1118.875, 84.456
1120.102, 101.280
1121.330, 37.118
1122.557, 59.471
1123.783, 112.994
1125.010, 3.357
1126.236, 88.657
1127.462, 120.966
1128.688, 127.856
1129.914, 208.365
1131.140, 41.487
1132.365, 59.555
1133.590, 112.227
1134.815, 40.960
1136.040, 55.100
1137.265, 157.062
1138.489, 48.666
1139.713, 113.203
1140.937, 32.154
1142.161, 102.559
1143.385, 230.325
1144.608, 38.595
1145.831, 247.687
1147.054, 164.657
1148.277, 112.713
1149.500, 259.630
1150.722, 209.886
1151.944, 76.700
1153.166, 285.010
1154.388, 124.664
1155.610, 250.676
1156.831, 303.856
1158.052, 177.501
1159.273, 267.771
1160.494, 196.406
1161.715, 238.229
1162.935, 323.361
1164.156, 136.602
1165.376, 332.549
1166.595, 325.949
1167.815, 103.713
1169.035, 334.197
1170.254, 180.396
1171.473, 200.935
1172.692, 316.620
1173.910, 196.288
1175.129, 331.450
1176.347, 313.320
1177.565, 138.335
1178.783, 298.941
1180.001, 185.172
1181.218, 314.968
1182.436, 327.718
1183.653, 145.716
1184.870, 235.731
1186.086, 217.842
1187.303, 60.768
1188.519, 316.624
1189.735, 80.782
1190.951, 118.470
1192.167, 203.467
1193.382, 11.122
1194.598, 172.221
1195.813, 198.722
1197.028, 37.192
1198.243, 323.993
1199.457, 142.448
1200.672, 163.209
1201.886, 268.062
1203.100, 129.162
1204.314, 305.529
1205.527, 197.741
1206.740, 112.798
1207.954, 174.828
1209.167, 145.024
1210.379, 175.419
1211.592, 340.205
1212.805, 130.840
1214.017, 192.566
1215.229, 345.726
1216.441, 57.485
1217.652, 320.158
1218.864, 174.682
1220.075, 179.481
1221.286, 397.669
1222.497, 75.320
1223.707, 297.062
1224.918, 388.246
1226.128, 0.483
1227.338, 420.005
1228.548, 285.791
1229.758, 228.263
1230.967, 516.655
1232.177, 129.503
1233.386, 437.368
1234.595, 359.273
1235.803, 236.923
1237.012, 381.339
1238.220, 354.599
1239.428, 214.799
1240.636, 544.060
1241.844, 255.577
1243.052, 277.185
1244.259, 368.935
1245.466, 127.089
1246.673, 537.344
1247.880, 208.835
1249.087, 160.105
1250.293, 411.265
1251.499, 221.839
1252.705, 361.438
1253.911, 347.587
1255.117, 281.167
1256.322, 477.195
1257.527, 391.343
1258.732, 160.618
1259.937, 483.111
1261.142, 203.936
1262.346, 368.590
1263.551, 484.235
1264.755, 139.651
1265.958, 519.311
1267.162, 339.609
1268.366, 364.245
1269.569, 398.295
1270.772, 383.279
1271.975, 357.670
1273.178, 542.057
1274.380, 127.220
1275.583, 351.631
1276.785, 445.997
1277.987, 60.456
1279.188, 414.531
1280.390, 298.843
1281.591, 112.521
1282.793, 635.661
1283.994, 19.201
1285.194, 262.604
1286.395, 775.908
1287.595, 38.527
1288.796, 431.152
1289.996, 164.494
1291.196, 176.202
1292.395, 456.377
1293.595, 157.296
1294.794, 107.872
1295.993, 384.507
1297.192, 32.611
1298.391, 403.486
1299.589, 264.074
1300.787, 185.717
1301.986, 313.413
1303.183, 22.638
1304.381, 116.885
1305.579, 211.949
1306.776, 140.089
1307.973, 310.169
1309.170, 430.745
1310.367, 8.957
1311.564, 563.505
1312.760, 164.748
1313.956, 215.541
1315.152, 545.281
1316.348, 285.545
1317.544, 286.828
1318.739, 537.366
1319.934, 32.863
1321.129, 586.317
1322.324, 336.818
1323.519, 36.886
1324.713, 607.155
1325.908, 207.715
1327.102, 229.526
1328.296, 539.359
1329.489, 139.374
1330.683, 378.936
1331.876, 470.469
1333.070, 42.155
1334.262, 533.646
1335.455, 262.476
1336.648, 33.574
1337.840, 580.083
1339.032, 236.986
1340.224, 130.057
1341.416, 599.286
1342.608, 133.108
1343.799, 438.443
1344.991, 465.738
1346.182, 121.721
1347.373, 813.939
1348.563, 424.796
1349.754, 293.355
1350.944, 553.083
1352.134, 195.879
1353.324, 390.575
1354.514, 714.043
1355.703, 187.839
1356.893, 651.307
1358.082, 363.308
1359.271, 207.137
1360.460, 640.662
1361.648, 308.827
1362.837, 146.457
1364.025, 687.663
1365.213, 66.550
1366.401, 570.437
1367.588, 635.805
1368.776, 96.925
1369.963, 636.886
1371.150, 424.548
1372.337, 88.792
1373.524, 614.371
1374.710, 198.642
1375.897, 422.229
1377.083, 636.857
1378.269, 71.119
1379.455, 603.394
1380.640, 502.056
1381.825, 4.084
1383.011, 647.583
1384.196, 240.604
1385.381, 95.066
1386.565, 819.551
1387.750, 22.820
1388.934, 448.771
1390.118, 573.146
1391.302, 2.770
1392.485, 608.542
1393.669, 192.330
1394.852, 0.000
##END=



