##NAMES=Grunerite
##RRUFFID=R040150
##IDEAL CHEMISTRY=[box]Fe^2+^_2_Fe^2+^_5_Si_8_O_22_(OH)_2_
##LOCALITY=Smallwood mine, Heath Lake, Newfoundland, Canada
##OWNER=RRUFF
##SOURCE=University of Arizona Mineral Museum
##DESCRIPTION=Brown bladed crystals in parallel aggregate
##STATUS=The identification of this mineral has been confirmed by X-ray diffraction and chemical analysis
##URL=rruff.info/R040150
##MEASURED CHEMISTRY=(Fe_0.69_Mg_0.27_Ca_0.02_Mn_0.02_)_7_Si_8.02_O_22_((OH)_0.98_Cl_0.02_)_2_
##PIN_ID=M00334
##ORIENTATION=Laser parallel to b* (0 1 0). Fiducial mark perpendicular to laser is parallel to -c [0 0 -1]
159.4780, 0.0000000E+00
160.8620, 241.4561
162.2450, 365.4053
163.6290, 493.3535
165.0120, 486.5127
166.3950, 176.6987
167.7770, 2.650879
169.1600, 38.94385
170.5420, 90.37109
171.9240, 387.1587
173.3060, 822.3369
174.6870, 1459.007
176.0680, 2210.391
177.4490, 3147.252
178.8300, 4132.680
180.2110, 5249.602
181.5910, 6347.433
182.9720, 7285.534
184.3510, 7683.860
185.7310, 7873.291
187.1110, 7534.169
188.4900, 6685.137
189.8690, 6095.028
191.2480, 5283.061
192.6260, 4469.057
194.0050, 3864.424
195.3830, 3517.309
196.7610, 3167.659
198.1390, 2914.987
199.5160, 2755.362
200.8930, 2735.016
202.2710, 2679.861
203.6470, 2614.796
205.0240, 2572.945
206.4000, 2577.733
207.7770, 2456.278
209.1520, 2531.188
210.5280, 2493.056
211.9040, 2581.032
213.2790, 2530.287
214.6540, 2548.039
216.0290, 2361.816
217.4030, 2418.913
218.7780, 2185.499
220.1520, 1970.723
221.5260, 1774.967
222.9000, 1442.585
224.2730, 1287.824
225.6460, 1067.013
227.0190, 949.1372
228.3920, 783.2002
229.7650, 632.3408
231.1370, 501.6929
232.5090, 433.6001
233.8810, 388.0220
235.2530, 263.0977
236.6250, 318.8047
237.9960, 258.0342
239.3670, 253.4956
240.7380, 178.9634
242.1080, 209.4331
243.4790, 222.2188
244.8490, 208.0171
246.2190, 201.6167
247.5890, 241.9106
248.9580, 269.0820
250.3280, 255.2031
251.6970, 236.2773
253.0650, 217.3398
254.4340, 195.5288
255.8030, 154.1240
257.1710, 132.9160
258.5390, 117.6099
259.9060, 55.19971
261.2740, 11.32031
262.6410, 54.95654
264.0080, 65.32422
265.3750, 37.60010
266.7420, 38.61621
268.1080, 63.76709
269.4750, 12.06201
270.8400, 8.503418
272.2060, 22.90479
273.5720, 49.16553
274.9370, 124.2788
276.3020, 122.2471
277.6670, 298.0522
279.0320, 364.6797
280.3960, 481.1187
281.7600, 543.3687
283.1250, 713.4253
284.4880, 724.2930
285.8520, 977.9731
287.2150, 948.4756
288.5780, 1094.808
289.9410, 1099.965
291.3040, 1163.950
292.6660, 1179.749
294.0290, 1068.318
295.3910, 1165.666
296.7530, 1122.384
298.1140, 983.7710
299.4760, 980.1523
300.8370, 954.4077
302.1980, 891.3184
303.5580, 919.9756
304.9190, 894.5220
306.2790, 979.1636
307.6390, 1053.594
308.9990, 1114.562
310.3590, 1321.808
311.7180, 1485.944
313.0770, 1587.607
314.4360, 1797.866
315.7950, 1947.081
317.1540, 1939.184
318.5120, 2049.463
319.8700, 1823.411
321.2280, 1632.535
322.5860, 1588.827
323.9430, 1339.193
325.3000, 1223.789
326.6570, 1139.454
328.0140, 1077.770
329.3710, 1044.684
330.7270, 1025.500
332.0830, 1070.249
333.4390, 1166.709
334.7950, 1359.646
336.1500, 1563.477
337.5060, 1861.962
338.8610, 2081.789
340.2150, 2524.613
341.5700, 2999.301
342.9240, 3361.924
344.2790, 3902.271
345.6330, 4329.519
346.9860, 4732.280
348.3400, 4679.958
349.6930, 4819.340
351.0460, 4511.717
352.3990, 4243.875
353.7520, 4098.466
355.1040, 3494.795
356.4570, 3207.970
357.8090, 3043.993
359.1600, 2839.833
360.5120, 2843.475
361.8630, 3048.909
363.2140, 3209.141
364.5650, 3502.167
365.9160, 3659.000
367.2670, 3770.646
368.6170, 3706.118
369.9670, 3340.417
371.3170, 3029.539
372.6660, 2676.477
374.0160, 2311.209
375.3650, 1971.674
376.7140, 1716.910
378.0630, 1553.920
379.4110, 1470.749
380.7600, 1362.421
382.1080, 1283.961
383.4560, 1231.393
384.8030, 1197.739
386.1510, 1297.013
387.4980, 1291.222
388.8450, 1433.364
390.1920, 1559.441
391.5390, 1723.195
392.8850, 1849.257
394.2310, 2035.664
395.5770, 2268.815
396.9230, 2423.657
398.2690, 2598.902
399.6140, 2817.298
400.9590, 2800.355
402.3040, 2805.306
403.6490, 2803.798
404.9930, 2616.389
406.3370, 2566.945
407.6810, 2342.353
409.0250, 2289.646
410.3690, 2099.022
411.7120, 2034.583
413.0550, 1860.998
414.3980, 1819.635
415.7410, 1742.084
417.0840, 1640.131
418.4260, 1688.239
419.7680, 1675.083
421.1100, 1721.805
422.4520, 1782.958
423.7930, 1725.260
425.1340, 1693.852
426.4750, 1447.776
427.8160, 1183.017
429.1570, 1021.890
430.4970, 769.1150
431.8370, 566.7495
433.1770, 440.1377
434.5170, 296.1492
435.8570, 212.9373
437.1960, 136.0400
438.5350, 95.84888
439.8740, 58.11963
441.2130, 64.59033
442.5510, 85.18652
443.8890, 91.96289
445.2270, 6.397461
446.5650, 34.39502
447.9030, 99.64136
449.2400, 15.69751
450.5770, 57.05713
451.9140, 1.924561
453.2510, 44.88892
454.5880, 82.96216
455.9240, 95.15161
457.2600, 70.46118
458.5960, 120.8901
459.9320, 112.4622
461.2670, 27.18359
462.6020, 69.04102
463.9380, 147.0435
465.2720, 56.26001
466.6070, 42.67871
467.9410, 101.2656
469.2760, 112.0376
470.6100, 7.968018
471.9430, 14.21826
473.2770, 4.414795
474.6100, 5.146240
475.9440, 7.868896
477.2760, 28.21631
478.6090, 50.17773
479.9420, 84.79590
481.2740, 121.7571
482.6060, 171.4023
483.9380, 223.9697
485.2700, 272.9160
486.6010, 347.6396
487.9320, 415.7874
489.2630, 489.8364
490.5940, 588.8088
491.9250, 572.7158
493.2550, 615.5771
494.5850, 626.4004
495.9150, 546.1675
497.2450, 564.8608
498.5750, 514.4712
499.9040, 478.9941
501.2330, 475.0923
502.5620, 451.7764
503.8910, 478.0376
505.2190, 460.2288
506.5480, 534.3447
507.8760, 512.3767
509.2030, 539.3257
510.5310, 495.2119
511.8590, 545.0156
513.1860, 549.7422
514.5130, 612.4050
515.8400, 643.0005
517.1660, 740.5381
518.4930, 826.0017
519.8190, 861.3982
521.1450, 1004.722
522.4700, 1315.975
523.7960, 1354.168
525.1210, 1609.295
526.4460, 1861.356
527.7710, 1922.348
529.0960, 2002.272
530.4210, 1929.138
531.7450, 1915.937
533.0690, 1663.677
534.3930, 1465.354
535.7160, 1274.967
537.0400, 1080.517
538.3630, 905.0063
539.6860, 822.4380
541.0090, 717.8093
542.3310, 725.1233
543.6540, 532.3796
544.9760, 582.5786
546.2980, 544.7207
547.6200, 542.8040
548.9410, 588.8286
550.2630, 530.7947
551.5840, 640.7051
552.9050, 669.5613
554.2250, 707.3696
555.5460, 743.1279
556.8660, 819.8379
558.1860, 794.5012
559.5060, 834.0947
560.8260, 835.6887
562.1450, 833.2141
563.4650, 736.6970
564.7840, 679.1355
566.1030, 589.5312
567.4210, 503.8840
568.7400, 455.1943
570.0580, 391.4619
571.3760, 387.6858
572.6940, 290.8657
574.0110, 292.0002
575.3290, 340.0891
576.6460, 218.1355
577.9630, 214.1372
579.2790, 188.0952
580.5960, 175.0098
581.9120, 156.8833
583.2280, 143.7200
584.5440, 136.5269
585.8600, 129.3066
587.1750, 182.0547
588.4910, 244.7722
589.8060, 166.2119
591.1210, 221.7859
592.4350, 166.8120
593.7500, 248.2126
595.0640, 202.2214
596.3780, 194.5652
597.6920, 212.5120
599.0060, 203.8999
600.3190, 263.3711
601.6320, 238.4683
602.9450, 244.6992
604.2580, 262.4229
605.5710, 218.5591
606.8830, 342.5674
608.1950, 336.6641
609.5070, 376.2891
610.8190, 340.3486
612.1310, 414.6865
613.4420, 481.6113
614.7530, 518.7490
616.0640, 505.4175
617.3750, 560.9028
618.6850, 568.9019
619.9950, 794.2388
621.3060, 735.9365
622.6150, 863.7295
623.9250, 980.2139
625.2350, 993.5474
626.5440, 1206.204
627.8530, 1225.188
629.1620, 1398.698
630.4710, 1646.840
631.7790, 1680.164
633.0870, 1881.905
634.3950, 2174.496
635.7030, 2468.907
637.0110, 2718.867
638.3180, 2978.351
639.6250, 3522.153
640.9320, 3978.604
642.2390, 4467.012
643.5460, 5292.626
644.8520, 5817.014
646.1580, 6940.355
647.4640, 8035.365
648.7700, 9440.246
650.0760, 11316.61
651.3810, 13012.41
652.6860, 16128.56
653.9910, 18663.36
655.2960, 22707.95
656.6000, 26781.60
657.9050, 30575.11
659.2090, 34399.07
660.5130, 36102.53
661.8170, 35690.01
663.1200, 34595.78
664.4230, 30049.56
665.7260, 26083.25
667.0290, 21461.40
668.3320, 17355.03
669.6350, 14109.19
670.9370, 11176.70
672.2390, 9322.579
673.5410, 7440.719
674.8420, 6504.859
676.1440, 5390.526
677.4450, 4549.652
678.7460, 4083.948
680.0470, 3539.631
681.3480, 3070.520
682.6480, 2823.491
683.9480, 2393.590
685.2480, 2271.684
686.5480, 1995.882
687.8480, 1836.967
689.1470, 1745.591
690.4470, 1523.935
691.7460, 1429.012
693.0440, 1251.328
694.3430, 1168.400
695.6410, 1151.189
696.9400, 998.4136
698.2380, 1025.836
699.5350, 863.4097
700.8330, 836.7310
702.1300, 799.2197
703.4270, 658.2861
704.7240, 735.3525
706.0210, 544.4214
707.3180, 559.6094
708.6140, 536.6807
709.9100, 541.4468
711.2060, 507.5234
712.5020, 485.6016
713.7980, 439.7236
715.0930, 356.8086
716.3880, 388.8975
717.6830, 336.9902
718.9780, 304.0874
720.2720, 312.1885
721.5670, 305.2954
722.8610, 217.4072
724.1550, 296.5249
725.4480, 268.6489
726.7420, 196.6226
728.0350, 266.6060
729.3280, 231.2114
730.6210, 274.8467
731.9140, 240.7109
733.2060, 174.0913
734.4990, 434.4834
735.7910, 252.7944
737.0830, 418.0786
738.3740, 430.3164
739.6660, 508.5278
740.9570, 722.7383
742.2480, 773.9478
743.5390, 964.4082
744.8300, 928.1606
746.1200, 936.6162
747.4100, 841.0977
748.7010, 728.2510
749.9900, 540.7822
751.2800, 485.5435
752.5700, 395.3203
753.8590, 408.2212
755.1480, 269.1401
756.4370, 347.3613
757.7250, 257.5298
759.0140, 248.8418
760.3020, 350.2969
761.5900, 229.6572
762.8780, 249.3755
764.1660, 222.1318
765.4530, 243.9458
766.7400, 342.8027
768.0270, 246.7158
769.3140, 268.6934
770.6010, 354.7402
771.8870, 319.8491
773.1740, 328.0347
774.4600, 361.2935
775.7450, 425.6050
777.0310, 443.9790
778.3160, 417.4365
779.6020, 516.9541
780.8870, 407.5288
782.1720, 384.1748
783.4560, 363.8965
784.7410, 380.6616
786.0250, 369.4761
787.3090, 140.3350
788.5930, 300.2417
789.8760, 208.1958
791.1600, 69.18994
792.4430, 113.2212
793.7260, 61.28662
795.0090, 6.614258
796.2910, 24.51318
797.5740, 53.67139
798.8560, 12.14014
800.1380, 1.927246
801.4200, 37.68896
802.7020, 24.43896
803.9830, 61.17285
805.2640, 43.27441
806.5450, 50.62598
807.8260, 26.34229
809.1070, 18.43066
810.3870, 22.27441
811.6670, 8.619141
812.9470, 11.00879
814.2270, 1.385742
815.5070, 92.19287
816.7860, 56.77881
818.0650, 41.64258
819.3440, 68.09033
820.6230, 100.4336
821.9020, 25.03027
823.1800, 6.477051
824.4590, 84.96191
825.7370, 42.45166
827.0140, 92.93164
828.2920, 8.579102
829.5690, 37.88379
830.8470, 28.66553
832.1240, 2.759277
833.4010, 62.15967
834.6770, 19.55762
835.9540, 21.93604
837.2300, 68.70361
838.5060, 76.37012
839.7820, 51.93604
841.0570, 45.76611
842.3330, 38.50488
843.6080, 5.761719
844.8830, 62.00488
846.1580, 5.200684
847.4330, 4.618652
848.7070, 18.53516
849.9810, 2.667969
851.2550, 8.774414
852.5290, 13.06250
853.8030, 5.917969
855.0760, 10.95361
856.3500, 11.03516
857.6230, 27.05420
858.8950, 49.10156
860.1680, 1.822266
861.4410, 58.28174
862.7130, 18.58496
863.9850, 11.57031
865.2570, 33.75439
866.5280, 0.9677730
867.8000, 69.20947
869.0710, 86.48047
870.3420, 73.78125
871.6130, 148.1113
872.8840, 53.47070
874.1540, 208.8599
875.4250, 92.29443
876.6950, 115.7588
877.9650, 131.2788
879.2340, 130.8354
880.5040, 327.4224
881.7730, 170.0405
883.0420, 306.6953
884.3110, 240.4019
885.5800, 305.1416
886.8480, 382.9209
888.1170, 351.7485
889.3850, 379.6099
890.6530, 530.5098
891.9200, 433.4507
893.1880, 666.4297
894.4550, 608.4443
895.7220, 581.4995
896.9890, 653.5884
898.2560, 621.7236
899.5230, 776.9053
900.7890, 828.1260
902.0550, 840.3818
903.3210, 954.6709
904.5870, 1058.995
905.8520, 1058.374
907.1180, 1014.793
908.3830, 982.2559
909.6480, 1062.756
910.9130, 1026.287
912.1770, 1009.869
913.4420, 1016.481
914.7060, 840.1255
915.9700, 889.8066
917.2330, 795.5161
918.4970, 786.2754
919.7600, 799.0752
921.0240, 726.9150
922.2870, 758.7983
923.5500, 689.7114
924.8120, 668.6602
926.0750, 659.6548
927.3370, 629.6802
928.5990, 610.7461
929.8610, 677.8394
931.1220, 550.9619
932.3840, 643.1113
933.6450, 535.2871
934.9060, 628.4902
936.1670, 622.7188
937.4280, 559.9741
938.6880, 617.2559
939.9480, 646.5640
941.2080, 718.8989
942.4680, 723.2637
943.7280, 727.6533
944.9870, 764.0708
946.2470, 845.5127
947.5060, 926.7192
948.7650, 1050.213
950.0230, 1122.731
951.2820, 1163.811
952.5400, 1324.251
953.7980, 1400.359
955.0560, 1636.037
956.3140, 1659.185
957.5720, 1938.119
958.8290, 2207.768
960.0860, 2501.452
961.3430, 2797.463
962.6000, 3158.223
963.8560, 3353.006
965.1130, 3711.361
966.3690, 3696.140
967.6250, 3874.045
968.8810, 4068.601
970.1360, 3690.502
971.3920, 3786.425
972.6470, 3410.037
973.9020, 3234.005
975.1570, 2968.695
976.4110, 2672.085
977.6660, 2482.397
978.9200, 2302.468
980.1740, 2127.555
981.4280, 2020.131
982.6820, 1938.265
983.9350, 1828.245
985.1880, 1999.855
986.4410, 1882.283
987.6940, 2066.644
988.9470, 2089.898
990.1990, 2180.174
991.4520, 2516.366
992.7040, 2734.693
993.9560, 3067.500
995.2070, 3250.607
996.4590, 3354.002
997.7100, 3505.166
998.9610, 3482.615
1000.212, 3580.356
1001.463, 3621.684
1002.714, 3530.833
1003.964, 3577.854
1005.214, 3435.147
1006.464, 3632.296
1007.714, 3935.130
1008.964, 4119.744
1010.213, 4611.379
1011.462, 5052.015
1012.711, 5618.401
1013.960, 6422.695
1015.209, 7013.412
1016.457, 7884.150
1017.705, 8764.868
1018.954, 9215.646
1020.201, 10416.45
1021.449, 10487.27
1022.697, 10468.11
1023.944, 10738.97
1025.191, 9943.307
1026.438, 9544.200
1027.685, 8631.041
1028.931, 7673.328
1030.177, 7004.275
1031.423, 6155.290
1032.669, 5557.179
1033.915, 4962.396
1035.161, 4194.840
1036.406, 4030.239
1037.651, 3440.412
1038.896, 3192.476
1040.141, 2939.451
1041.386, 2698.875
1042.630, 2576.692
1043.874, 2289.007
1045.118, 2162.320
1046.362, 2118.471
1047.606, 1849.689
1048.849, 1822.702
1050.092, 1748.221
1051.336, 1622.761
1052.578, 1604.158
1053.821, 1495.570
1055.064, 1332.094
1056.306, 1344.210
1057.548, 1282.989
1058.790, 1227.428
1060.032, 1224.768
1061.273, 1194.551
1062.515, 1155.989
1063.756, 1142.851
1064.997, 1124.412
1066.237, 1110.823
1067.478, 1023.985
1068.718, 1030.026
1069.959, 982.1045
1071.199, 930.9507
1072.438, 955.6143
1073.678, 901.8989
1074.918, 901.2114
1076.157, 928.8076
1077.396, 910.2129
1078.635, 956.8906
1079.873, 1025.913
1081.112, 931.5444
1082.350, 980.1777
1083.588, 851.8726
1084.826, 963.6084
1086.064, 1072.408
1087.301, 1076.153
1088.539, 1206.236
1089.776, 1174.016
1091.013, 1346.926
1092.250, 1669.485
1093.486, 1754.833
1094.723, 2002.644
1095.959, 2019.594
1097.195, 1974.470
1098.431, 2081.185
1099.666, 1869.759
1100.902, 1662.602
1102.137, 1633.312
1103.372, 1269.896
1104.607, 1134.688
1105.842, 1029.455
1107.076, 887.4111
1108.311, 896.1504
1109.545, 641.7690
1110.779, 681.7607
1112.012, 623.3818
1113.246, 465.0747
1114.479, 552.8608
1115.712, 561.4800
1116.945, 457.1357
1118.178, 447.0356
1119.411, 458.6904
1120.643, 351.3242
1121.875, 354.9893
1123.108, 399.6357
1124.339, 410.4253
1125.571, 274.0830
1126.802, 318.1011
1128.034, 359.1348
1129.265, 215.8008
1130.496, 350.9409
1131.727, 234.6050
1132.957, 167.5073
1134.187, 218.2432
1135.418, 190.9004
1136.648, 140.9883
1137.877, 210.9878
1139.107, 70.91211
1140.336, 174.7632
1141.566, 120.3965
1142.795, 74.32227
1144.023, 236.3252
1145.252, 62.15479
1146.480, 175.9009
1147.709, 145.8975
1148.937, 47.48486
1150.165, 103.4761
1151.392, 74.22412
1152.620, 57.03174
1153.847, 137.1743
1155.074, 2.085938
1156.301, 85.56543
1157.528, 83.77490
1158.755, 3.377930
1159.981, 44.24121
1161.207, 51.89600
1162.433, 59.39600
1163.659, 79.38477
1164.885, 73.14209
1166.110, 37.07812
1167.336, 67.16064
1168.561, 28.71484
1169.786, 26.38477
1171.010, 21.09229
1172.235, 50.41504
1173.459, 37.96338
1174.683, 88.37158
1175.907, 14.00879
1177.131, 40.56592
1178.355, 19.74561
1179.578, 4.776855
1180.801, 57.87305
1182.024, 5.579590
1183.247, 10.98047
1184.470, 38.66064
1185.692, 43.41113
1186.915, 1.515625
1188.137, 8.324219
1189.359, 2.612793
1190.580, 23.81836
1191.802, 4.173340
1193.023, 71.58203
1194.244, 32.87354
1195.465, 28.84033
1196.686, 3.882813
1197.907, 23.85889
1199.127, 34.75244
1200.347, 21.15869
1201.567, 60.83008
1202.787, 9.813477
1204.007, 19.66455
1205.226, 2.359863
1206.446, 69.83203
1207.665, 49.41357
1208.884, 57.21387
1210.102, 42.78809
1211.321, 0.5014650
1212.539, 84.26611
1213.758, 51.24609
1214.976, 16.87402
1216.193, 16.89209
1217.411, 28.44385
1218.628, 51.74951
1219.846, 2.537109
1221.063, 37.30811
1222.280, 18.08398
1223.496, 18.84326
1224.713, 61.36475
1225.929, 38.59131
1227.145, 85.41650
1228.361, 89.03174
1229.577, 81.52051
1230.793, 74.71289
1232.008, 65.55811
1233.223, 91.94727
1234.438, 55.92871
1235.653, 88.65479
1236.868, 22.64404
1238.082, 150.8301
1239.297, 47.88184
1240.511, 95.91113
1241.725, 74.38721
1242.938, 85.37109
1244.152, 126.5996
1245.365, 161.8101
1246.578, 102.9917
1247.791, 136.5137
1249.004, 172.1128
1250.217, 124.3525
1251.429, 134.5312
1252.642, 93.27930
1253.854, 148.6807
1255.066, 201.5483
1256.277, 93.40039
1257.489, 235.6650
1258.700, 166.5439
1259.911, 147.8364
1261.122, 253.7480
1262.333, 184.9180
1263.544, 130.1934
1264.754, 189.0820
1265.964, 207.8667
1267.174, 193.7910
1268.384, 204.3833
1269.594, 165.8638
1270.803, 223.6431
1272.013, 117.0620
1273.222, 118.2520
1274.431, 215.7495
1275.640, 102.3462
1276.848, 210.8960
1278.057, 152.1021
1279.265, 61.42969
1280.473, 219.7510
1281.681, 112.9683
1282.888, 131.4824
1284.096, 148.7476
1285.303, 56.78564
1286.510, 241.1411
1287.717, 151.1318
1288.924, 132.3096
1290.131, 172.6016
1291.337, 191.3726
1292.543, 130.1924
1293.749, 239.5283
1294.955, 130.1680
1296.161, 187.1133
1297.366, 171.7930
1298.571, 108.2729
1299.777, 184.8027
1300.981, 202.9478
1302.186, 100.2905
1303.391, 209.9263
1304.595, 145.0703
1305.799, 192.3833
1307.003, 227.4878
1308.207, 119.4897
1309.411, 106.4443
1310.614, 193.5122
1311.818, 105.3462
1313.021, 199.3530
1314.224, 168.0874
1315.426, 155.7583
1316.629, 203.4512
1317.831, 216.5532
1319.033, 144.1021
1320.235, 194.7964
1321.437, 135.8428
1322.639, 226.1963
1323.840, 150.4453
1325.042, 88.77393
1326.243, 132.5264
1327.444, 129.5249
1328.644, 149.4844
1329.845, 194.4683
1331.045, 189.4272
1332.245, 153.4375
1333.445, 204.9995
1334.645, 133.6782
1335.845, 161.6050
1337.044, 69.09766
1338.244, 79.70410
1339.443, 140.2129
1340.642, 2.871582
1341.840, 185.9844
1343.039, 143.0835
1344.237, 68.22656
1345.435, 110.0669
1346.633, 94.41309
1347.831, 73.71045
1349.029, 79.30566
1350.226, 41.19873
1351.424, 24.14551
1352.621, 111.6079
1353.818, 20.62549
1355.014, 118.9351
1356.211, 5.341797
1357.407, 113.0005
1358.604, 119.8647
1359.800, 39.81152
1360.995, 9.678223
1362.191, 115.7378
1363.387, 44.93896
1364.582, 88.47412
1365.777, 57.75732
1366.972, 9.252930
1368.167, 65.55322
1369.361, 1.460449
1370.556, 27.85449
1371.750, 23.10889
1372.944, 23.61816
1374.138, 49.22070
1375.331, 84.97607
1376.525, 103.0991
1377.718, 61.55078
1378.911, 89.82764
1380.104, 18.85791
1381.297, 31.48145
1382.490, 40.27783
1383.682, 40.15723
1384.874, 110.1509
1386.066, 40.26221
1387.258, 21.45068
1388.450, 157.3247
1389.641, 9.976563
1390.833, 78.76221
1392.024, 66.74951
1393.215, 13.56982
1394.406, 136.1973
1395.596, 44.04980
1396.787, 78.83838
1397.977, 192.4131
1399.167, 29.26221
1400.357, 85.31934
1401.547, 169.5615
1402.736, 0.2368160
1403.925, 146.2183
1405.115, 80.73730
1406.304, 64.60938
1407.492, 128.0425
1408.681, 145.4604
1409.870, 5.964844
1411.058, 176.3755
1412.246, 29.24219
1413.434, 114.9863
1414.622, 193.0894
1415.809, 43.45752
1416.997, 156.4512
1418.184, 123.7915
1419.371, 8.586426
1420.558, 277.2466
1421.744, 161.9072
1422.931, 153.4565
1424.117, 170.2134
1425.303, 88.73486
1426.489, 138.8726
1427.675, 184.6665
1428.861, 0.2705080
1430.046, 177.4395
1431.231, 120.8740
1432.416, 78.81689
1433.601, 196.1377
1434.786, 171.9756
1435.970, 57.86963
1437.155, 216.8906
1438.339, 106.7661
1439.523, 151.3652
1440.707, 218.4282
1441.890, 161.9326
1443.074, 239.5347
1444.257, 251.0127
1445.440, 99.13525
1446.623, 231.8936
1447.806, 140.4863
1448.989, 181.0059
1450.171, 197.1724
1451.353, 243.3794
1452.535, 108.2490
1453.717, 195.8306
1454.899, 96.25928
1456.080, 201.3169
1457.262, 153.2202
1458.443, 122.4639
1459.624, 241.2285
1460.805, 133.0151
