##NAMES=Grunerite
##RRUFFID=R040150
##IDEAL CHEMISTRY=[box]Fe^2+^_2_Fe^2+^_5_Si_8_O_22_(OH)_2_
##LOCALITY=Smallwood mine, Heath Lake, Newfoundland, Canada
##OWNER=RRUFF
##SOURCE=University of Arizona Mineral Museum
##DESCRIPTION=Brown bladed crystals in parallel aggregate
##STATUS=The identification of this mineral has been confirmed by X-ray diffraction and chemical analysis
##URL=rruff.info/R040150
##MEASURED CHEMISTRY=(Fe_0.69_Mg_0.27_Ca_0.02_Mn_0.02_)_7_Si_8.02_O_22_((OH)_0.98_Cl_0.02_)_2_
##PIN_ID=M00334
##ORIENTATION=Laser parallel to b* (0 1 0). Fiducial mark perpendicular to laser is parallel to -c [0 0 -1]
159.4780, 0.0000000E+00
160.8620, 700.8271
162.2450, 1144.317
163.6290, 1558.175
165.0120, 1002.396
166.3950, 290.1953
167.7770, 79.61475
169.1600, 66.50049
170.5420, 483.1147
171.9240, 1115.524
173.3060, 2282.668
174.6870, 3677.247
176.0680, 5579.462
177.4490, 7905.194
178.8300, 10497.55
180.2110, 13335.57
181.5910, 16195.10
182.9720, 18383.46
184.3510, 19319.49
185.7310, 19683.44
187.1110, 18675.63
188.4900, 17096.01
189.8690, 15014.46
191.2480, 12910.59
192.6260, 11158.89
194.0050, 9866.754
195.3830, 8672.621
196.7610, 7808.477
198.1390, 7160.187
199.5160, 6719.461
200.8930, 6445.826
202.2710, 6275.663
203.6470, 5974.713
205.0240, 5834.582
206.4000, 5615.798
207.7770, 5422.284
209.1520, 5497.618
210.5280, 5394.142
211.9040, 5380.958
213.2790, 5077.686
214.6540, 5023.280
216.0290, 4758.444
217.4030, 4571.549
218.7780, 4174.870
220.1520, 3540.217
221.5260, 3179.663
222.9000, 2645.686
224.2730, 2040.750
225.6460, 1537.104
227.0190, 1209.021
228.3920, 925.4282
229.7650, 547.5273
231.1370, 377.8726
232.5090, 256.8286
233.8810, 132.1060
235.2530, 35.84082
236.6250, 2.228516
237.9960, 33.28955
239.3670, 2.654785
240.7380, 19.87646
242.1080, 85.18652
243.4790, 232.1055
244.8490, 372.2227
246.2190, 546.1450
247.5890, 779.2920
248.9580, 886.8613
250.3280, 1039.345
251.6970, 1133.288
253.0650, 1176.531
254.4340, 1221.567
255.8030, 1210.808
257.1710, 1185.668
258.5390, 1137.588
259.9060, 1094.145
261.2740, 965.4795
262.6410, 961.7534
264.0080, 900.7703
265.3750, 851.7861
266.7420, 838.2290
268.1080, 774.2529
269.4750, 824.3169
270.8400, 817.3276
272.2060, 797.5376
273.5720, 779.2998
274.9370, 826.5603
276.3020, 748.6360
277.6670, 822.7107
279.0320, 767.5459
280.3960, 877.1064
281.7600, 912.3752
283.1250, 997.3752
284.4880, 1023.139
285.8520, 1041.693
287.2150, 1062.057
288.5780, 1133.251
289.9410, 1168.287
291.3040, 1150.164
292.6660, 1137.877
294.0290, 1094.418
295.3910, 1066.619
296.7530, 991.6299
298.1140, 967.5391
299.4760, 902.8757
300.8370, 759.4268
302.1980, 653.5989
303.5580, 596.6643
304.9190, 513.3132
306.2790, 487.9536
307.6390, 451.1873
308.9990, 437.9031
310.3590, 425.4829
311.7180, 441.5547
313.0770, 457.9148
314.4360, 402.1455
315.7950, 466.7234
317.1540, 401.5195
318.5120, 321.1689
319.8700, 205.4246
321.2280, 160.2307
322.5860, 53.82935
323.9430, 10.43555
325.3000, 103.5320
326.6570, 164.4800
328.0140, 185.1562
329.3710, 204.4927
330.7270, 221.3025
332.0830, 257.6621
333.4390, 255.6111
334.7950, 225.1306
336.1500, 203.5400
337.5060, 107.0503
338.8610, 39.15088
340.2150, 51.50098
341.5700, 206.2866
342.9240, 334.3291
344.2790, 472.8347
345.6330, 561.0325
346.9860, 705.5918
348.3400, 763.8442
349.6930, 826.8560
351.0460, 767.3367
352.3990, 720.6079
353.7520, 606.6475
355.1040, 547.3398
356.4570, 437.7542
357.8090, 374.6875
359.1600, 315.0928
360.5120, 268.9668
361.8630, 239.9192
363.2140, 239.0085
364.5650, 206.3110
365.9160, 207.2217
367.2670, 201.7854
368.6170, 258.0400
369.9670, 229.0225
371.3170, 269.7520
372.6660, 232.2332
374.0160, 252.4612
375.3650, 241.4341
376.7140, 290.1531
378.0630, 283.6230
379.4110, 326.8533
380.7600, 345.8538
382.1080, 344.6321
383.4560, 390.2007
384.8030, 433.5803
386.1510, 474.7861
387.4980, 531.8311
388.8450, 565.7576
390.1920, 659.2036
391.5390, 744.3550
392.8850, 865.8154
394.2310, 1027.444
395.5770, 1114.010
396.9230, 1230.425
398.2690, 1333.932
399.6140, 1446.032
400.9590, 1410.247
402.3040, 1410.164
403.6490, 1524.149
404.9930, 1425.557
406.3370, 1417.751
407.6810, 1306.488
409.0250, 1261.416
410.3690, 1229.810
411.7120, 1108.316
413.0550, 1129.342
414.3980, 1118.690
415.7410, 1108.165
417.0840, 990.7866
418.4260, 1003.327
419.7680, 1013.719
421.1100, 1013.856
422.4520, 1078.751
423.7930, 1028.043
425.1340, 1006.256
426.4750, 790.1489
427.8160, 665.7778
429.1570, 471.2917
430.4970, 364.4780
431.8370, 319.8164
433.1770, 218.0706
434.5170, 209.1890
435.8570, 126.1836
437.1960, 134.3328
438.5350, 101.1221
439.8740, 34.19507
441.2130, 73.01050
442.5510, 60.25903
443.8890, 50.63110
445.2270, 27.33569
446.5650, 42.12573
447.9030, 48.97119
449.2400, 46.88086
450.5770, 3.068848
451.9140, 7.618408
453.2510, 2.404297
454.5880, 7.907471
455.9240, 0.1501460
457.2600, 9.475098
458.5960, 27.93237
459.9320, 23.25513
461.2670, 56.27222
462.6020, 56.65356
463.9380, 9.442383
465.2720, 10.18555
466.6070, 9.568359
467.9410, 22.53369
469.2760, 1.558105
470.6100, 19.25439
471.9430, 54.98584
473.2770, 24.24170
474.6100, 31.56299
475.9440, 11.10474
477.2760, 43.88965
478.6090, 38.38257
479.9420, 52.52319
481.2740, 58.17627
482.6060, 10.63379
483.9380, 21.39331
485.2700, 9.541260
486.6010, 42.45459
487.9320, 48.55249
489.2630, 57.39209
490.5940, 67.08081
491.9250, 43.81934
493.2550, 54.65210
494.5850, 47.73315
495.9150, 9.790771
497.2450, 14.76489
498.5750, 45.62817
499.9040, 0.6806640
501.2330, 26.00391
502.5620, 1.098633
503.8910, 37.28540
505.2190, 26.19922
506.5480, 95.44531
507.8760, 88.24731
509.2030, 67.24438
510.5310, 117.4778
511.8590, 92.41724
513.1860, 74.12012
514.5130, 85.30469
515.8400, 77.19531
517.1660, 97.58765
518.4930, 111.0020
519.8190, 114.4751
521.1450, 170.0479
522.4700, 206.4634
523.7960, 276.8474
525.1210, 320.0637
526.4460, 391.2546
527.7710, 426.3950
529.0960, 524.7439
530.4210, 504.9460
531.7450, 555.2942
533.0690, 477.4614
534.3930, 477.6943
535.7160, 406.8596
537.0400, 360.2080
538.3630, 292.5100
539.6860, 296.9746
541.0090, 240.5005
542.3310, 227.0046
543.6540, 254.6836
544.9760, 160.5295
546.2980, 246.5330
547.6200, 213.7615
548.9410, 310.1221
550.2630, 314.8713
551.5840, 353.9790
552.9050, 394.5105
554.2250, 503.0251
555.5460, 553.5269
556.8660, 609.0215
558.1860, 627.5117
559.5060, 748.0002
560.8260, 716.4912
562.1450, 676.9810
563.4650, 661.4692
564.7840, 540.9539
566.1030, 502.4316
567.4210, 443.9006
568.7400, 366.3599
570.0580, 379.8081
571.3760, 292.2437
572.6940, 264.6658
574.0110, 263.0720
575.3290, 246.4626
576.6460, 207.8362
577.9630, 205.1938
579.2790, 185.5359
580.5960, 154.8638
581.9120, 161.1782
583.2280, 140.4814
584.5440, 152.7742
585.8600, 167.0581
587.1750, 191.3340
588.4910, 185.9058
589.8060, 211.0542
591.1210, 197.0388
592.4350, 216.6208
593.7500, 212.1897
595.0640, 227.2153
596.3780, 241.7383
597.6920, 261.9272
599.0060, 291.8596
600.3190, 311.9792
601.6320, 351.0679
602.9450, 343.1384
604.2580, 415.1323
605.5710, 412.2085
606.8830, 422.3335
608.1950, 498.6177
609.5070, 468.4626
610.8190, 536.0039
612.1310, 581.7280
613.4420, 652.3000
614.7530, 717.9006
616.0640, 836.9883
617.3750, 834.1777
618.6850, 865.3691
619.9950, 977.7217
621.3060, 1133.102
622.6150, 1203.796
623.9250, 1305.038
625.2350, 1396.791
626.5440, 1545.145
627.8530, 1624.212
629.1620, 1807.615
630.4710, 1984.200
631.7790, 2122.633
633.0870, 2315.298
634.3950, 2507.795
635.7030, 2822.809
637.0110, 3178.488
638.3180, 3430.821
639.6250, 3916.067
640.9320, 4364.062
642.2390, 4848.349
643.5460, 5740.134
644.8520, 6430.582
646.1580, 7605.785
647.4640, 9046.184
648.7700, 10735.71
650.0760, 12854.49
651.3810, 15372.08
652.6860, 18752.76
653.9910, 22462.63
655.2960, 27302.16
656.6000, 32652.10
657.9050, 37311.59
659.2090, 42110.25
660.5130, 44417.88
661.8170, 43626.88
663.1200, 41938.43
664.4230, 36486.88
665.7260, 30704.96
667.0290, 25167.97
668.3320, 19746.38
669.6350, 15765.61
670.9370, 12244.44
672.2390, 10002.14
673.5410, 7940.954
674.8420, 6579.375
676.1440, 5403.281
677.4450, 4477.156
678.7460, 3866.195
680.0470, 3265.179
681.3480, 2833.300
682.6480, 2455.383
683.9480, 2157.482
685.2480, 1947.596
686.5480, 1710.726
687.8480, 1502.871
689.1470, 1447.045
690.4470, 1216.799
691.7460, 1118.991
693.0440, 971.1997
694.3430, 866.4233
695.6410, 768.6624
696.9400, 686.9165
698.2380, 617.1853
699.5350, 558.9707
700.8330, 488.7664
702.1300, 477.0771
703.4270, 431.4014
704.7240, 409.7371
706.0210, 323.0842
707.3180, 247.4409
708.6140, 281.8062
709.9100, 203.1780
711.2060, 203.5566
712.5020, 211.9419
713.7980, 174.3340
715.0930, 163.7332
716.3880, 123.1394
717.6830, 130.5525
718.9780, 153.9731
720.2720, 106.4006
721.5670, 99.83521
722.8610, 57.27734
724.1550, 54.72681
725.4480, 49.18384
726.7420, 43.64819
728.0350, 84.12061
729.3280, 44.60059
730.6210, 92.08887
731.9140, 102.5852
733.2060, 54.08960
734.4990, 181.6025
735.7910, 201.1240
737.0830, 195.6538
738.3740, 269.1921
739.6660, 350.7395
740.9570, 379.2957
742.2480, 497.8608
743.5390, 597.4346
744.8300, 554.0210
746.1200, 465.6213
747.4100, 421.2361
748.7010, 312.8674
749.9900, 293.5149
751.2800, 215.1807
752.5700, 149.8643
753.8590, 129.5662
755.1480, 46.28735
756.4370, 38.02734
757.7250, 63.78613
759.0140, 15.56421
760.3020, 16.36133
761.5900, 38.17749
762.8780, 4.012451
764.1660, 60.86426
765.4530, 14.73657
766.7400, 63.63086
768.0270, 32.54663
769.3140, 8.515381
770.6010, 38.43579
771.8870, 30.40674
773.1740, 53.39648
774.4600, 82.40552
775.7450, 121.4326
777.0310, 87.47803
778.3160, 101.5452
779.6020, 100.6318
780.8870, 109.7400
782.1720, 63.86694
783.4560, 114.0137
784.7410, 109.1792
786.0250, 45.36206
787.3090, 15.56860
788.5930, 30.79077
789.8760, 7.031250
791.1600, 47.71484
792.4430, 58.47046
793.7260, 35.24048
795.0090, 53.01562
796.2910, 36.80273
797.5740, 26.59570
798.8560, 94.38989
800.1380, 105.2158
801.4200, 67.07910
802.7020, 45.96362
803.9830, 29.86108
805.2640, 1.765381
806.5450, 60.66528
807.8260, 44.58618
809.1070, 40.52173
810.3870, 61.46875
811.6670, 32.43359
812.9470, 23.40869
814.2270, 6.611572
815.5070, 16.36157
816.7860, 67.34009
818.0650, 0.6552730
819.3440, 9.651367
820.6230, 89.34790
821.9020, 5.615479
823.1800, 12.41943
824.4590, 5.458740
825.7370, 41.50000
827.0140, 3.531982
828.2920, 7.435303
829.5690, 68.40479
830.8470, 0.3833010
832.1240, 47.36157
833.4010, 0.3479000
834.6770, 35.33276
835.9540, 52.32568
837.2300, 51.32666
838.5060, 60.33594
839.7820, 43.35352
841.0570, 67.37891
842.3330, 41.41260
843.6080, 9.453857
844.8830, 77.49878
846.1580, 108.5513
847.4330, 70.61646
848.7070, 64.68994
849.9810, 81.77124
851.2550, 54.86133
852.5290, 96.95923
853.8030, 72.06519
855.0760, 96.18359
856.3500, 85.31006
857.6230, 113.4443
858.8950, 123.5867
860.1680, 162.7366
861.4410, 209.9031
862.7130, 131.0776
863.9850, 146.2598
865.2570, 210.4507
866.5280, 223.6499
867.8000, 273.8667
869.0710, 264.1045
870.3420, 205.3501
871.6130, 315.6094
872.8840, 219.8777
874.1540, 322.1545
875.4250, 303.4587
876.6950, 371.7715
877.9650, 419.0935
879.2340, 380.4346
880.5040, 537.7834
881.7730, 509.1528
883.0420, 602.5410
884.3110, 650.9380
885.5800, 685.3496
886.8480, 827.7710
888.1170, 905.2021
889.3850, 906.6453
890.6530, 1035.097
891.9200, 1140.564
893.1880, 1287.051
894.4550, 1411.546
895.7220, 1552.027
896.9890, 1710.592
898.2560, 1861.134
899.5230, 1984.694
900.7890, 2177.262
902.0550, 2256.842
903.3210, 2413.437
904.5870, 2612.056
905.8520, 2612.694
907.1180, 2745.339
908.3830, 2640.995
909.6480, 2623.659
910.9130, 2472.330
912.1770, 2363.017
913.4420, 2368.712
914.7060, 2124.414
915.9700, 2058.983
917.2330, 1952.710
918.4970, 1711.444
919.7600, 1776.188
921.0240, 1581.938
922.2870, 1491.927
923.5500, 1447.693
924.8120, 1365.467
926.0750, 1327.251
927.3370, 1255.041
928.5990, 1168.837
929.8610, 1208.640
931.1220, 1061.451
932.3840, 1034.270
933.6450, 962.0962
934.9060, 1012.929
936.1670, 971.7700
937.4280, 928.6172
938.6880, 882.4717
939.9480, 876.2185
941.2080, 859.5276
942.4680, 906.6118
943.7280, 867.4888
944.9870, 907.8118
946.2470, 935.2866
947.5060, 878.8560
948.7650, 970.2261
950.0230, 975.0969
951.2820, 938.5366
952.5400, 982.3716
953.7980, 946.1797
955.0560, 1010.041
956.3140, 1084.702
957.5720, 1072.770
958.8290, 1166.873
960.0860, 1273.779
961.3430, 1279.885
962.6000, 1406.936
963.8560, 1374.442
965.1130, 1584.400
966.3690, 1521.834
967.6250, 1483.143
968.8810, 1699.892
970.1360, 1479.055
971.3920, 1569.593
972.6470, 1553.154
973.9020, 1495.553
975.1570, 1546.066
976.4110, 1465.932
977.6660, 1507.002
978.9200, 1477.973
980.1740, 1429.457
981.4280, 1488.552
982.6820, 1530.731
983.9350, 1563.843
985.1880, 1738.030
986.4410, 1674.103
987.6940, 1868.240
988.9470, 1941.384
990.1990, 2017.538
991.4520, 2236.698
992.7040, 2361.868
993.9560, 2639.033
995.2070, 2837.796
996.4590, 2974.992
997.7100, 3205.141
998.9610, 3419.354
1000.212, 3437.574
1001.463, 3761.872
1002.714, 3891.106
1003.964, 4136.351
1005.214, 4312.558
1006.464, 4670.818
1007.714, 5229.087
1008.964, 5640.363
1010.213, 6368.645
1011.462, 7082.781
1012.711, 7723.109
1013.960, 9103.412
1015.209, 9933.821
1016.457, 10964.15
1017.705, 12316.78
1018.954, 12989.91
1020.201, 14220.25
1021.449, 14281.85
1022.697, 14402.45
1023.944, 14402.89
1025.191, 13387.87
1026.438, 12468.23
1027.685, 11278.95
1028.931, 9751.866
1030.177, 8832.244
1031.423, 7595.438
1032.669, 6675.192
1033.915, 5946.942
1035.161, 4993.746
1036.406, 4496.546
1037.651, 3954.355
1038.896, 3517.612
1040.141, 3206.319
1041.386, 2893.326
1042.630, 2607.292
1043.874, 2376.023
1045.118, 2146.178
1046.362, 2008.611
1047.606, 1868.651
1048.849, 1724.328
1050.092, 1626.800
1051.336, 1442.434
1052.578, 1374.460
1053.821, 1259.855
1055.064, 1142.759
1056.306, 1185.357
1057.548, 1074.452
1058.790, 953.1021
1060.032, 983.5796
1061.273, 888.9121
1062.515, 879.7849
1063.756, 842.4099
1064.997, 783.7935
1066.237, 798.6150
1067.478, 713.3989
1068.718, 700.3984
1069.959, 707.9741
1071.199, 641.7651
1072.438, 670.4373
1073.678, 604.4023
1074.918, 570.5842
1076.157, 605.1343
1077.396, 577.6472
1078.635, 626.3074
1079.873, 597.3506
1081.112, 559.2090
1082.350, 572.0427
1083.588, 572.5889
1084.826, 598.8879
1086.064, 596.4729
1087.301, 598.3228
1088.539, 663.0071
1089.776, 612.5190
1091.013, 667.4941
1092.250, 769.0059
1093.486, 800.7712
1094.723, 805.4126
1095.959, 837.9575
1097.195, 734.5137
1098.431, 799.1079
1099.666, 682.6794
1100.902, 578.4902
1102.137, 577.1072
1103.372, 429.7385
1104.607, 416.3926
1105.842, 316.0989
1107.076, 291.7512
1108.311, 313.4438
1109.545, 232.1194
1110.779, 226.9333
1112.012, 244.6340
1113.246, 176.3999
1114.479, 147.1130
1115.712, 163.8250
1116.945, 115.5493
1118.178, 211.2808
1119.411, 128.0120
1120.643, 134.8428
1121.875, 95.59717
1123.108, 78.41406
1124.339, 155.4001
1125.571, 84.23511
1126.802, 49.98926
1128.034, 126.0151
1129.265, 89.80420
1130.496, 72.62842
1131.727, 57.44287
1132.957, 27.18359
1134.187, 81.25122
1135.418, 93.98633
1136.648, 22.86035
1137.877, 83.92993
1139.107, 54.71924
1140.336, 60.77490
1141.566, 60.51855
1142.795, 1.263916
1144.023, 79.52832
1145.252, 15.11963
1146.480, 26.54785
1147.709, 28.36987
1148.937, 11.03760
1150.165, 35.80981
1151.392, 20.80249
1152.620, 13.48242
1153.847, 52.63794
1155.074, 22.46655
1156.301, 30.17065
1157.528, 63.01685
1158.755, 26.30371
1159.981, 22.56641
1161.207, 63.33447
1162.433, 17.86255
1163.659, 29.52075
1164.885, 31.77515
1166.110, 39.29932
1167.336, 37.27759
1168.561, 14.06250
1169.786, 10.38940
1171.010, 24.96021
1172.235, 66.65967
1173.459, 63.75830
1174.683, 7.188232
1175.907, 32.50903
1177.131, 76.34009
1178.355, 36.12671
1179.578, 28.74731
1180.801, 9.775146
1182.024, 12.86597
1183.247, 8.354492
1184.470, 8.767822
1185.692, 3.099609
1186.915, 17.18335
1188.137, 14.34766
1189.359, 29.30225
1190.580, 18.33057
1191.802, 47.56885
1193.023, 81.45752
1194.244, 13.26367
1195.465, 23.09106
1196.686, 61.61523
1197.907, 5.763184
1199.127, 11.75024
1200.347, 48.10400
1201.567, 24.10693
1202.787, 44.74268
1204.007, 9.931396
1205.226, 40.72510
1206.446, 80.95898
1207.665, 13.09082
1208.884, 24.70508
1210.102, 50.53320
1211.321, 13.19458
1212.539, 30.02539
1213.758, 32.80444
1214.976, 20.44507
1216.193, 69.14624
1217.411, 34.57764
1218.628, 50.54199
1219.846, 25.55762
1221.063, 14.41162
1222.280, 83.02490
1223.496, 94.80713
1224.713, 60.46680
1225.929, 24.44434
1227.145, 36.20728
1228.361, 38.63086
1229.577, 91.16040
1230.793, 13.01709
1232.008, 83.38550
1233.223, 42.64307
1234.438, 66.43726
1235.653, 113.8054
1236.868, 35.31543
1238.082, 117.9514
1239.297, 54.18213
1240.511, 86.38892
1241.725, 158.7625
1242.938, 129.9141
1244.152, 107.1646
1245.365, 126.2947
1246.578, 63.51880
1247.791, 119.7725
1249.004, 140.8645
1250.217, 115.0994
1251.429, 105.6016
1252.642, 137.7380
1253.854, 113.9658
1255.066, 170.8821
1256.277, 91.17163
1257.489, 138.5803
1258.700, 109.4333
1259.911, 137.5908
1261.122, 142.5615
1262.333, 123.4065
1263.544, 129.3049
1264.754, 152.7898
1265.964, 103.7493
1267.174, 131.8770
1268.384, 114.5745
1269.594, 75.40894
1270.803, 114.4067
1272.013, 158.0396
1273.222, 69.28345
1274.431, 126.1448
1275.640, 116.7166
1276.848, 119.5476
1278.057, 162.1348
1279.265, 64.75854
1280.473, 166.8049
1281.681, 103.4502
1282.888, 64.12793
1284.096, 121.7871
1285.303, 65.18750
1286.510, 131.2788
1287.717, 129.7244
1288.924, 47.90259
1290.131, 41.52588
1291.337, 151.9846
1292.543, 103.2844
1293.749, 140.7566
1294.955, 113.9453
1296.161, 68.15112
1297.366, 124.5225
1298.571, 54.66553
1299.777, 90.78149
1300.981, 118.8254
1302.186, 82.84326
1303.391, 121.0066
1304.595, 72.11646
1305.799, 90.20752
1307.003, 185.2268
1308.207, 111.9863
1309.411, 98.87720
1310.614, 199.5459
1311.818, 109.5283
1313.021, 87.33545
1314.224, 130.8105
1315.426, 99.26709
1316.629, 174.8647
1317.831, 116.8972
1319.033, 111.5298
1320.235, 155.9590
1321.437, 39.99414
1322.639, 70.59521
1323.840, 96.43896
1325.042, 58.55249
1326.243, 87.64941
1327.444, 113.7544
1328.644, 63.73633
1329.845, 126.6873
1331.045, 85.16675
1332.245, 50.16602
1333.445, 130.8374
1334.645, 28.51855
1335.845, 102.4114
1337.044, 105.8496
1338.244, 49.96948
1339.443, 59.45508
1340.642, 10.28223
1341.840, 14.28394
1343.039, 77.09595
1344.237, 27.44141
1345.435, 57.55518
1346.633, 82.01294
1347.831, 8.250000
1349.029, 85.96460
1350.226, 19.87329
1351.424, 5.352539
1352.621, 68.57251
1353.818, 55.94287
1355.014, 10.48071
1356.211, 10.88062
1357.407, 50.16797
1358.604, 78.46460
1359.800, 58.57495
1360.995, 0.9738770
1362.191, 21.23486
1363.387, 15.61987
1364.582, 26.60303
1365.777, 54.34253
1366.972, 8.324219
1368.167, 40.01538
1369.361, 11.14893
1370.556, 24.86890
1371.750, 74.73926
1372.944, 44.59619
1374.138, 12.70557
1375.331, 71.02490
1376.525, 34.72119
1377.718, 11.98267
1378.911, 55.82153
1380.104, 30.85815
1381.297, 18.04224
1382.490, 74.36255
1383.682, 76.78564
1384.874, 39.25342
1386.066, 83.49243
1387.258, 56.78687
1388.450, 82.24438
1389.641, 56.57251
1390.833, 45.75659
1392.024, 80.97607
1393.215, 44.22290
1394.406, 16.42334
1395.596, 59.48413
1396.787, 39.53589
1397.977, 104.2722
1399.167, 28.00122
1400.357, 16.86865
1401.547, 127.7478
1402.736, 37.28052
1403.925, 69.57056
1405.115, 94.89868
1406.304, 9.577393
1407.492, 53.80371
1408.681, 52.30762
1409.870, 9.208984
1411.058, 126.8523
1412.246, 66.49976
1413.434, 8.441406
1414.622, 148.5112
1415.809, 7.685791
1416.997, 40.67480
1418.184, 131.9346
1419.371, 38.99072
1420.558, 89.15356
1421.744, 75.30127
1422.931, 10.89404
1424.117, 58.67578
1425.303, 45.33496
1426.489, 44.21216
1427.675, 148.2820
1428.861, 1.067139
1430.046, 78.34839
1431.231, 137.0994
1432.416, 31.78857
1433.601, 68.68213
1434.786, 80.13867
1435.970, 10.10938
1437.155, 75.10571
1438.339, 78.95239
1439.523, 33.67798
1440.707, 183.3733
1441.890, 81.02808
1443.074, 101.6602
1444.257, 132.0161
1445.440, 44.20264
1446.623, 141.5601
1447.806, 40.55078
1448.989, 57.96777
1450.171, 102.8137
1451.353, 62.15771
1452.535, 38.31445
1453.717, 146.6877
1454.899, 66.68726
1456.080, 104.7874
1457.262, 169.4709
1458.443, 110.2573
1459.624, 110.1191
1460.805, 120.8381
