##NAMES=Grunerite
##RRUFFID=R040150
##IDEAL CHEMISTRY=[box]Fe^2+^_2_Fe^2+^_5_Si_8_O_22_(OH)_2_
##LOCALITY=Smallwood mine, Heath Lake, Newfoundland, Canada
##OWNER=RRUFF
##SOURCE=University of Arizona Mineral Museum
##DESCRIPTION=Brown bladed crystals in parallel aggregate
##STATUS=The identification of this mineral has been confirmed by X-ray diffraction and chemical analysis
##URL=rruff.info/R040150
##MEASURED CHEMISTRY=(Fe_0.69_Mg_0.27_Ca_0.02_Mn_0.02_)_7_Si_8.02_O_22_((OH)_0.98_Cl_0.02_)_2_
##PIN_ID=M00334
##ORIENTATION=Laser parallel to b* (0 1 0). Fiducial mark perpendicular to laser is parallel to -c [0 0 -1]
158.0940, 0.0000000E+00
159.4780, 242.4463
160.8620, 391.2646
162.2450, 530.1943
163.6290, 538.4819
165.0120, 287.6577
166.3950, 49.43896
167.7770, 31.01123
169.1600, 44.66699
170.5420, 125.2080
171.9240, 176.5063
173.3060, 447.0518
174.6870, 857.2427
176.0680, 1285.689
177.4490, 1952.084
178.8300, 2549.566
180.2110, 3405.952
181.5910, 4052.937
182.9720, 4740.381
184.3510, 5128.770
185.7310, 5258.093
187.1110, 4927.650
188.4900, 4686.458
189.8690, 4143.813
191.2480, 3629.663
192.6260, 3064.177
194.0050, 2851.818
195.3830, 2440.755
196.7610, 2364.135
198.1390, 2154.340
199.5160, 2021.194
200.8930, 2049.940
202.2710, 2024.476
203.6470, 1974.556
205.0240, 2011.364
206.4000, 2034.066
207.7770, 2080.468
209.1520, 2078.837
210.5280, 2109.683
211.9040, 2166.613
213.2790, 2098.104
214.6540, 2096.090
216.0290, 1962.095
217.4030, 1826.289
218.7780, 1648.970
220.1520, 1497.742
221.5260, 1368.029
222.9000, 1100.287
224.2730, 1077.504
225.6460, 813.6714
227.0190, 777.7861
228.3920, 656.9434
229.7650, 540.2363
231.1370, 461.9351
232.5090, 422.0317
233.8810, 450.6948
235.2530, 320.9150
236.6250, 327.5342
237.9960, 254.3232
239.3670, 313.2217
240.7380, 264.2275
242.1080, 205.5317
243.4790, 235.8945
244.8490, 135.1162
246.2190, 256.0757
247.5890, 195.8281
248.9580, 186.4849
250.3280, 201.0762
251.6970, 187.6113
253.0650, 185.0908
254.4340, 145.5049
255.8030, 64.84375
257.1710, 78.09619
258.5390, 62.25977
259.9060, 110.3311
261.2740, 17.69385
262.6410, 78.81982
264.0080, 19.04932
265.3750, 0.6137700
266.7420, 70.16504
268.1080, 1.399902
269.4750, 25.08447
270.8400, 12.89111
272.2060, 101.1812
273.5720, 100.1362
274.9370, 174.9731
276.3020, 265.6890
277.6670, 299.2681
279.0320, 405.7061
280.3960, 620.9956
281.7600, 677.1357
283.1250, 866.1230
284.4880, 1050.955
285.8520, 1059.637
287.2150, 1089.174
288.5780, 1218.569
289.9410, 1315.816
291.3040, 1366.918
292.6660, 1399.844
294.0290, 1427.594
295.3910, 1416.009
296.7530, 1285.661
298.1140, 1220.250
299.4760, 1221.535
300.8370, 1138.467
302.1980, 1139.294
303.5580, 1147.737
304.9190, 1158.108
306.2790, 1162.024
307.6390, 1224.943
308.9990, 1371.281
310.3590, 1517.080
311.7180, 1710.699
313.0770, 1880.067
314.4360, 1951.460
315.7950, 2231.704
317.1540, 2198.595
318.5120, 2228.550
319.8700, 2184.122
321.2280, 1962.449
322.5860, 1933.496
323.9430, 1639.932
325.3000, 1599.854
326.6570, 1408.168
328.0140, 1435.262
329.3710, 1302.570
330.7270, 1353.520
332.0830, 1482.413
333.4390, 1610.638
334.7950, 1812.331
336.1500, 1999.532
337.5060, 2348.407
338.8610, 2776.317
340.2150, 3100.884
341.5700, 3756.337
342.9240, 4178.278
344.2790, 4897.252
345.6330, 5256.958
346.9860, 5676.457
348.3400, 5765.833
349.6930, 5714.930
351.0460, 5443.751
352.3990, 5082.249
353.7520, 4630.592
355.1040, 4244.818
356.4570, 3848.932
357.8090, 3690.919
359.1600, 3426.762
360.5120, 3452.458
361.8630, 3694.000
363.2140, 3970.392
364.5650, 4093.057
365.9160, 4327.715
367.2670, 4337.654
368.6170, 4255.451
369.9670, 4054.105
371.3170, 3530.602
372.6660, 3031.947
374.0160, 2539.074
375.3650, 2285.034
376.7140, 1982.846
378.0630, 1765.494
379.4110, 1594.018
380.7600, 1505.438
382.1080, 1394.769
383.4560, 1393.037
384.8030, 1406.251
386.1510, 1394.409
387.4980, 1497.513
388.8450, 1547.561
390.1920, 1721.553
391.5390, 1882.254
392.8850, 1925.416
394.2310, 2320.194
395.5770, 2359.750
396.9230, 2600.362
398.2690, 2756.366
399.6140, 2966.327
400.9590, 2969.002
402.3040, 3020.667
403.6490, 2884.146
404.9930, 2718.305
406.3370, 2587.516
407.6810, 2420.691
409.0250, 2311.293
410.3690, 2098.119
411.7120, 1980.834
413.0550, 1831.905
414.3980, 1708.792
415.7410, 1606.690
417.0840, 1436.295
418.4260, 1295.612
419.7680, 1269.763
421.1100, 1286.835
422.4520, 1285.464
423.7930, 1189.385
425.1340, 1119.464
426.4750, 985.4355
427.8160, 923.9897
429.1570, 671.9756
430.4970, 560.8735
431.8370, 423.3276
433.1770, 307.9116
434.5170, 310.0005
435.8570, 179.8145
437.1960, 167.8311
438.5350, 157.0586
439.8740, 36.24072
441.2130, 43.32568
442.5510, 16.71973
443.8890, 43.78125
445.2270, 26.94238
446.5650, 74.74609
447.9030, 2.466797
449.2400, 11.51221
450.5770, 47.61328
451.9140, 43.91943
453.2510, 44.31787
454.5880, 82.80859
455.9240, 34.39941
457.2600, 150.0820
458.5960, 48.89551
459.9320, 120.8174
461.2670, 38.87012
462.6020, 61.04346
463.9380, 87.36523
465.2720, 60.86279
466.6070, 48.49463
467.9410, 16.28516
469.2760, 22.43213
470.6100, 20.64209
471.9430, 15.63916
473.2770, 54.06543
474.6100, 13.65723
475.9440, 1.380371
477.2760, 13.21143
478.6090, 18.58984
479.9420, 12.23438
481.2740, 64.59717
482.6060, 87.34131
483.9380, 140.9438
485.2700, 204.4214
486.6010, 318.7896
487.9320, 293.0659
489.2630, 430.2700
490.5940, 561.4092
491.9250, 532.5034
493.2550, 538.5479
494.5850, 494.5596
495.9150, 478.5195
497.2450, 440.4263
498.5750, 497.2749
499.9040, 552.0527
501.2330, 629.7725
502.5620, 403.4277
503.8910, 365.0112
505.2190, 396.5366
506.5480, 413.9897
507.8760, 409.3726
509.2030, 441.6846
510.5310, 472.3125
511.8590, 515.1689
513.1860, 577.3179
514.5130, 618.4102
515.8400, 718.4385
517.1660, 771.4111
518.4930, 888.6772
519.8190, 1194.188
521.1450, 1162.994
522.4700, 1477.744
523.7960, 1697.435
525.1210, 1859.696
526.4460, 2106.636
527.7710, 2188.154
529.0960, 2260.613
530.4210, 2160.019
531.7450, 2095.368
533.0690, 1822.670
534.3930, 1644.917
535.7160, 1346.109
537.0400, 1209.247
538.3630, 1011.343
539.6860, 908.3867
541.0090, 723.3862
542.3310, 687.3418
543.6540, 593.2456
544.9760, 568.0986
546.2980, 569.8994
547.6200, 535.6631
548.9410, 569.2930
550.2630, 524.0449
551.5840, 624.6641
552.9050, 621.2363
554.2250, 621.7778
555.5460, 882.2764
556.8660, 895.7295
558.1860, 795.1484
559.5060, 901.5249
560.8260, 851.8608
562.1450, 782.1558
563.4650, 741.4102
564.7840, 653.6260
566.1030, 560.8027
567.4210, 558.9429
568.7400, 503.0449
570.0580, 402.1094
571.3760, 271.1362
572.6940, 281.1235
574.0110, 255.0723
575.3290, 253.9810
576.6460, 140.8516
577.9630, 186.6836
579.2790, 153.4785
580.5960, 96.23584
581.9120, 148.9521
583.2280, 105.6372
584.5440, 86.30176
585.8600, 37.93359
587.1750, 70.52832
588.4910, 146.9717
589.8060, 83.93018
591.1210, 118.2944
592.4350, 27.15771
593.7500, 70.00000
595.0640, 132.2690
596.3780, 151.4180
597.6920, 174.8750
599.0060, 42.17578
600.3190, 160.9878
601.6320, 168.1953
602.9450, 92.82568
604.2580, 217.4751
605.5710, 163.0928
606.8830, 209.2163
608.1950, 210.0962
609.5070, 254.3296
610.8190, 252.7695
612.1310, 277.9272
613.4420, 252.1113
614.7530, 326.0796
616.0640, 373.7671
617.3750, 416.7876
618.6850, 387.2778
619.9950, 512.8965
621.3060, 548.1099
622.6150, 649.6606
623.9250, 707.8672
625.2350, 807.6211
626.5440, 844.8398
627.8530, 1013.450
629.1620, 1189.416
630.4710, 1280.459
631.7790, 1328.100
633.0870, 1577.287
634.3950, 1810.257
635.7030, 2156.499
637.0110, 2237.458
638.3180, 2527.794
639.6250, 2945.597
640.9320, 3486.607
642.2390, 3730.033
643.5460, 4543.723
644.8520, 5135.891
646.1580, 6109.409
647.4640, 7232.042
648.7700, 8605.852
650.0760, 10298.91
651.3810, 12032.00
652.6860, 14996.12
653.9910, 17460.44
655.2960, 21335.18
656.6000, 25318.10
657.9050, 29153.60
659.2090, 33047.38
660.5130, 34679.96
661.8170, 34205.88
663.1200, 33118.40
664.4230, 28830.99
665.7260, 24993.56
667.0290, 20693.10
668.3320, 16686.99
669.6350, 13670.32
670.9370, 10914.89
672.2390, 9127.938
673.5410, 7402.504
674.8420, 6355.753
676.1440, 5312.607
677.4450, 4525.660
678.7460, 4109.801
680.0470, 3532.798
681.3480, 3109.786
682.6480, 2865.768
683.9480, 2438.684
685.2480, 2299.652
686.5480, 2107.271
687.8480, 1894.229
689.1470, 1783.195
690.4470, 1552.143
691.7460, 1494.086
693.0440, 1416.026
694.3430, 1223.417
695.6410, 1233.348
696.9400, 1062.072
698.2380, 1095.693
699.5350, 955.6152
700.8330, 917.5347
702.1300, 875.8262
703.4270, 777.2734
704.7240, 797.4023
706.0210, 620.6538
707.3180, 603.5640
708.6140, 521.4731
709.9100, 549.7495
711.2060, 552.8872
712.5020, 525.7949
713.7980, 394.2827
715.0930, 432.1899
716.3880, 398.0977
717.6830, 407.0063
718.9780, 447.9160
720.2720, 290.8271
721.5670, 403.7393
722.8610, 227.6538
724.1550, 330.5698
725.4480, 285.4888
726.7420, 173.4102
728.0350, 327.9697
729.3280, 237.5898
730.6210, 262.1216
731.9140, 355.6675
733.2060, 257.1230
734.4990, 541.0654
735.7910, 214.2524
737.0830, 355.2207
738.3740, 472.4312
739.6660, 626.4819
740.9570, 687.4736
742.2480, 778.2852
743.5390, 978.2554
744.8300, 909.5688
746.1200, 814.6436
747.4100, 833.8911
748.7010, 650.7866
749.9900, 562.8926
751.2800, 499.2920
752.5700, 523.8057
753.8590, 479.4526
755.1480, 439.4248
756.4370, 376.2661
757.7250, 352.0220
759.0140, 309.5405
760.3020, 266.6504
761.5900, 231.6274
762.8780, 209.8560
764.1660, 279.1396
765.4530, 236.5571
766.7400, 312.0195
768.0270, 307.5278
769.3140, 258.0913
770.6010, 364.6992
771.8870, 398.3799
773.1740, 365.1089
774.4600, 466.9043
775.7450, 477.7451
777.0310, 495.6372
778.3160, 468.5874
779.6020, 612.5894
780.8870, 465.6396
782.1720, 493.7295
783.4560, 495.8618
784.7410, 402.0249
786.0250, 346.2295
787.3090, 279.4834
788.5930, 212.7495
789.8760, 197.1079
791.1600, 124.4790
792.4430, 97.88135
793.7260, 122.3237
795.0090, 32.79492
796.2910, 20.29297
797.5740, 89.81689
798.8560, 31.36621
800.1380, 35.06201
801.4200, 4.519043
802.7020, 14.87988
803.9830, 18.73340
805.2640, 8.366699
806.5450, 28.98096
807.8260, 35.32031
809.1070, 47.87451
810.3870, 29.01660
811.6670, 54.29248
812.9470, 14.60400
814.2270, 2.097656
815.5070, 80.18018
816.7860, 30.53467
818.0650, 54.27148
819.3440, 104.0312
820.6230, 146.1865
821.9020, 24.44092
823.1800, 5.684082
824.4590, 35.90967
825.7370, 135.8706
827.0140, 36.32764
828.2920, 3.519043
829.5690, 86.69238
830.8470, 2.122559
832.1240, 27.04297
833.4010, 5.802246
834.6770, 39.66895
835.9540, 9.558105
837.2300, 22.53027
838.5060, 35.39404
839.7820, 15.65869
841.0570, 72.30371
842.3330, 47.71143
843.6080, 29.27832
844.8830, 30.29199
846.1580, 37.32812
847.4330, 57.61230
848.7070, 69.44873
849.9810, 43.46680
851.2550, 41.36475
852.5290, 18.74463
853.8030, 37.87842
855.0760, 43.03564
856.3500, 72.78271
857.6230, 9.395020
858.8950, 33.40234
860.1680, 28.81104
861.4410, 80.04932
862.7130, 78.68750
863.9850, 5.430176
865.2570, 136.8491
866.5280, 39.84668
867.8000, 63.46777
869.0710, 88.80762
870.3420, 63.17236
871.6130, 93.56885
872.8840, 85.27588
874.1540, 219.4380
875.4250, 99.91064
876.6950, 118.4092
877.9650, 168.9438
879.2340, 27.50439
880.5040, 232.0903
881.7730, 93.71338
883.0420, 140.3760
884.3110, 204.0664
885.5800, 144.7905
886.8480, 227.5449
888.1170, 259.3379
889.3850, 140.1606
890.6530, 310.0142
891.9200, 255.8975
893.1880, 339.8110
894.4550, 280.7554
895.7220, 284.7314
896.9890, 325.7388
898.2560, 333.7979
899.5230, 371.9053
900.7890, 467.0430
902.0550, 452.2158
903.3210, 501.4155
904.5870, 530.6714
905.8520, 526.9844
907.1180, 523.3271
908.3830, 495.7231
909.6480, 631.1587
910.9130, 512.6226
912.1770, 529.1196
913.4420, 681.6450
914.7060, 538.2109
915.9700, 741.8330
917.2330, 551.4834
918.4970, 486.1621
919.7600, 560.8804
921.0240, 477.6265
922.2870, 588.4194
923.5500, 459.2383
924.8120, 500.0845
926.0750, 458.9556
927.3370, 497.8521
928.5990, 474.7739
929.8610, 517.7212
931.1220, 424.6943
932.3840, 566.6934
933.6450, 500.7158
934.9060, 593.7656
936.1670, 539.8413
937.4280, 588.9414
938.6880, 607.0669
939.9480, 618.2153
941.2080, 681.3877
942.4680, 719.5864
943.7280, 686.8096
944.9870, 773.0562
946.2470, 844.3271
947.5060, 835.6206
948.7650, 1016.937
950.0230, 1088.275
951.2820, 1159.638
952.5400, 1367.565
953.7980, 1432.972
955.0560, 1687.777
956.3140, 1898.231
957.5720, 2059.710
958.8290, 2377.993
960.0860, 2709.032
961.3430, 3096.528
962.6000, 3554.097
963.8560, 3619.340
965.1130, 4216.325
966.3690, 4193.918
967.6250, 4318.034
968.8810, 4475.714
970.1360, 4093.421
971.3920, 4131.149
972.6470, 3852.076
973.9020, 3538.810
975.1570, 3166.309
976.4110, 2732.610
977.6660, 2625.453
978.9200, 2381.786
980.1740, 2162.454
981.4280, 2095.529
982.6820, 1914.425
983.9350, 1772.248
985.1880, 1942.234
986.4410, 1664.243
987.6940, 1836.273
988.9470, 1977.389
990.1990, 2004.467
991.4520, 2243.915
992.7040, 2394.042
993.9560, 2714.178
995.2070, 2892.378
996.4590, 2900.576
997.7100, 3138.797
998.9610, 3004.584
1000.212, 2962.850
1001.463, 3101.673
1002.714, 2838.289
1003.964, 2966.625
1005.214, 2754.983
1006.464, 2893.365
1007.714, 3308.646
1008.964, 3407.074
1010.213, 3764.188
1011.462, 4092.664
1012.711, 4311.163
1013.960, 5286.313
1015.209, 5564.622
1016.457, 6393.183
1017.705, 7030.187
1018.954, 7518.792
1020.201, 8617.418
1021.449, 8567.360
1022.697, 8726.031
1023.944, 8974.721
1025.191, 8363.438
1026.438, 8182.170
1027.685, 7263.006
1028.931, 6601.781
1030.177, 6120.579
1031.423, 5331.464
1032.669, 4832.893
1033.915, 4411.745
1035.161, 3761.769
1036.406, 3640.660
1037.651, 3091.758
1038.896, 2900.688
1040.141, 2779.637
1041.386, 2527.605
1042.630, 2367.592
1043.874, 2240.602
1045.118, 2004.629
1046.362, 1989.677
1047.606, 1872.565
1048.849, 1811.795
1050.092, 1690.900
1051.336, 1611.666
1052.578, 1543.729
1053.821, 1383.740
1055.064, 1378.394
1056.306, 1493.586
1057.548, 1396.122
1058.790, 1197.562
1060.032, 1278.813
1061.273, 1160.735
1062.515, 1262.015
1063.756, 1105.230
1064.997, 1116.396
1066.237, 1215.889
1067.478, 1025.909
1068.718, 1069.056
1069.959, 1081.831
1071.199, 989.1655
1072.438, 1035.592
1073.678, 1036.269
1074.918, 927.7344
1076.157, 1042.298
1077.396, 928.7935
1078.635, 957.4990
1079.873, 942.2139
1081.112, 891.9990
1082.350, 1029.547
1083.588, 1020.632
1084.826, 1001.760
1086.064, 1240.347
1087.301, 1163.116
1088.539, 1321.752
1089.776, 1375.368
1091.013, 1467.791
1092.250, 1774.441
1093.486, 1939.226
1094.723, 2138.040
1095.959, 2217.710
1097.195, 2248.382
1098.431, 2394.062
1099.666, 2072.743
1100.902, 1787.561
1102.137, 1966.273
1103.372, 1367.990
1104.607, 1427.101
1105.842, 1206.832
1107.076, 1126.568
1108.311, 917.3140
1109.545, 783.0771
1110.779, 829.9800
1112.012, 737.7695
1113.246, 644.5713
1114.479, 678.4624
1115.712, 629.2778
1116.945, 574.1094
1118.178, 540.9707
1119.411, 550.8027
1120.643, 438.6343
1121.875, 424.5010
1123.108, 417.4043
1124.339, 483.5396
1125.571, 438.4238
1126.802, 398.3057
1128.034, 469.5337
1129.265, 195.4580
1130.496, 342.0049
1131.727, 264.2622
1132.957, 206.3315
1134.187, 289.5820
1135.418, 269.5044
1136.648, 169.7144
1137.877, 340.9780
1139.107, 171.9634
1140.336, 300.6240
1141.566, 151.6313
1142.795, 0.1655270
1144.023, 277.5195
1145.252, 178.6963
1146.480, 173.6001
1147.709, 228.9321
1148.937, 47.16162
1150.165, 266.5752
1151.392, 123.1069
1152.620, 81.99365
1153.847, 198.3086
1155.074, 20.57715
1156.301, 72.07666
1157.528, 118.3867
1158.755, 60.38477
1159.981, 135.3608
1161.207, 156.2939
1162.433, 22.14453
1163.659, 99.38770
1164.885, 7.897461
1166.110, 46.72412
1167.336, 42.75830
1168.561, 21.13965
1169.786, 136.6367
1171.010, 70.10889
1172.235, 87.85840
1173.459, 97.50830
1174.683, 31.81543
1175.907, 13.87109
1177.131, 80.39648
1178.355, 29.83008
1179.578, 38.20996
1180.801, 78.69629
1182.024, 12.42334
1183.247, 68.63721
1184.470, 28.95166
1185.692, 30.71875
1186.915, 179.2407
1188.137, 526.2090
1189.359, 487.0781
1190.580, 544.5264
1191.802, 134.2905
1193.023, 105.7524
1194.244, 65.70654
1195.465, 54.35889
1196.686, 53.78857
1197.907, 3.946289
1199.127, 0.3984380
1200.347, 15.28418
1201.567, 120.2539
1202.787, 123.3999
1204.007, 67.93506
1205.226, 17.80176
1206.446, 69.58545
1207.665, 9.804199
1208.884, 86.90381
1210.102, 27.09717
1211.321, 89.29395
1212.539, 39.61279
1213.758, 14.61035
1214.976, 21.92578
1216.193, 29.09717
1217.411, 52.82324
1218.628, 124.9556
1219.846, 50.60645
1221.063, 105.5210
1222.280, 86.37842
1223.496, 111.8955
1224.713, 65.80029
1225.929, 67.48877
1227.145, 62.23682
1228.361, 135.2900
1229.577, 42.49316
1230.793, 44.57520
1232.008, 207.1792
1233.223, 95.21533
1234.438, 130.8145
1235.653, 193.7358
1236.868, 42.08105
1238.082, 220.0107
1239.297, 119.1899
1240.511, 116.4038
1241.725, 283.6582
1242.938, 177.7500
1244.152, 163.4448
1245.365, 192.2700
1246.578, 134.8521
1247.791, 207.1855
1249.004, 192.4058
1250.217, 79.62207
1251.429, 211.7480
1252.642, 242.2056
1253.854, 196.4717
1255.066, 176.1309
1256.277, 151.2017
1257.489, 214.0059
1258.700, 195.9380
1259.911, 170.9771
1261.122, 322.9883
1262.333, 225.8076
1263.544, 188.2861
1264.754, 326.0156
1265.964, 216.6079
1267.174, 216.3027
1268.384, 194.6670
1269.594, 141.6616
1270.803, 295.2271
1272.013, 250.4946
1273.222, 129.9165
1274.431, 204.3208
1275.640, 87.62549
1276.848, 138.4546
1278.057, 185.8081
1279.265, 143.6587
1280.473, 294.1792
1281.681, 155.1870
1282.888, 144.4678
1284.096, 211.5361
1285.303, 90.45996
1286.510, 209.7056
1287.717, 165.8818
1288.924, 91.61670
1290.131, 172.6377
1291.337, 269.3145
1292.543, 138.1641
1293.749, 283.4463
1294.955, 87.64600
1296.161, 106.0737
1297.366, 320.4917
1298.571, 139.8574
1299.777, 150.4194
1300.981, 112.6509
1302.186, 57.80566
1303.391, 217.3052
1304.595, 221.5244
1305.799, 230.6699
1307.003, 255.7637
1308.207, 157.6079
1309.411, 112.4048
1310.614, 303.6079
1311.818, 204.2656
1313.021, 185.8809
1314.224, 271.1558
1315.426, 48.64941
1316.629, 288.0786
1317.831, 183.4595
1319.033, 132.7925
1320.235, 319.9443
1321.437, 99.11572
1322.639, 233.2334
1323.840, 303.2334
1325.042, 180.6484
1326.243, 183.6040
1327.444, 133.3462
1328.644, 93.17578
1329.845, 212.8916
1331.045, 78.56006
1332.245, 134.1670
1333.445, 153.7139
1334.645, 30.18750
1335.845, 170.5933
1337.044, 76.93848
1338.244, 25.20996
1339.443, 242.5869
1340.642, 83.56543
1341.840, 26.62061
1343.039, 139.9663
1344.237, 78.96729
1345.435, 80.97266
1346.633, 103.2842
1347.831, 13.98828
1349.029, 48.35254
1350.226, 115.8794
1351.424, 37.41357
1352.621, 171.2412
1353.818, 46.65576
1355.014, 54.08887
1356.211, 0.7812500
1357.407, 17.15771
1358.604, 63.33154
1359.800, 4.300293
1360.995, 53.65332
1362.191, 143.3906
1363.387, 50.60352
1364.582, 97.01709
1365.777, 103.8105
1366.972, 18.45020
1368.167, 86.23389
1369.361, 122.6602
1370.556, 39.92871
1371.750, 57.35010
1372.944, 42.83105
1374.138, 31.25195
1375.331, 102.5903
1376.525, 5.5176001E-02
1377.718, 91.22363
1378.911, 51.52686
1380.104, 54.11426
1381.297, 45.34375
1382.490, 161.8174
1383.682, 24.20898
1384.874, 136.7017
1386.066, 172.0068
1387.258, 60.36377
1388.450, 232.2534
1389.641, 12.51562
1390.833, 13.50732
1392.024, 121.5835
1393.215, 17.50635
1394.406, 135.4272
1395.596, 75.32422
1396.787, 96.12061
1397.977, 282.5923
1399.167, 7.090332
1400.357, 19.22852
1401.547, 151.7456
1402.736, 17.82812
1403.925, 121.4761
1405.115, 160.8354
1406.304, 389.6382
1407.492, 169.5596
1408.681, 196.1567
1409.870, 28.15479
1411.058, 261.3379
1412.246, 90.19629
1413.434, 29.38281
1414.622, 258.8198
1415.809, 36.41260
1416.997, 189.6206
1418.184, 206.9048
1419.371, 38.96973
1420.558, 230.1572
1421.744, 147.3545
1422.931, 120.5259
1424.117, 239.6899
1425.303, 163.0942
1426.489, 204.3140
1427.675, 229.7217
1428.861, 19.46582
1430.046, 147.9287
1431.231, 255.9189
1432.416, 160.4375
1433.601, 300.6250
1434.786, 177.5791
1435.970, 73.60742
1437.155, 412.7852
1438.339, 45.01562
1439.523, 41.13477
1440.707, 268.4941
1441.890, 153.5605
1443.074, 235.9893
1444.257, 216.3857
1445.440, 97.24512
1446.623, 154.3350
1447.806, 147.1895
1448.989, 135.9756
1450.171, 192.3301
1451.353, 217.4805
1452.535, 51.71387
1453.717, 347.2021
1454.899, 177.4648
1456.080, 401.9844
1457.262, 933.8838
1458.443, 631.5176
1459.624, 703.5488
