##NAMES=Gypsum
##RRUFFID=R040029
##IDEAL CHEMISTRY=CaS^6+^O_4_&#183;2H_2_O
##LOCALITY=Twin Buttes, Pima County, Arizona, USA
##OWNER=RRUFF
##SOURCE=University of Arizona Mineral Museum
##DESCRIPTION=Colorless prismatic crystal
##STATUS=The identification of this mineral has been confirmed by X-ray diffraction.
##URL=rruff.info/R040029
##PIN_ID=L00192
##ORIENTATION=Laser parallel to -c [0 0 -1]. Fiducial mark perpendicular to laser is parallel to -b* (0 -1 0)
79.427, 0.000
80.823, 4.881
82.218, 32.051
83.614, 34.500
85.009, 1.664
86.404, 24.151
87.798, 11.697
89.193, 80.799
90.587, 86.345
91.981, 73.266
93.375, 63.499
94.768, 34.993
96.161, 46.693
97.554, 22.555
98.947, 29.560
100.340, 49.730
101.732, 29.069
103.124, 42.550
104.516, 85.135
105.908, 124.795
107.300, 146.588
108.691, 173.408
110.082, 112.251
111.473, 176.108
112.864, 236.968
114.254, 355.830
115.644, 435.692
117.034, 470.635
118.424, 417.695
119.813, 412.021
121.203, 373.522
122.592, 367.117
123.981, 379.753
125.369, 473.333
126.758, 646.847
128.146, 846.297
129.534, 1156.683
130.922, 1263.011
132.309, 1103.284
133.696, 792.992
135.083, 603.135
136.470, 397.238
137.857, 326.304
139.243, 290.335
140.630, 228.498
142.016, 217.465
143.401, 232.403
144.787, 249.315
146.172, 225.219
147.557, 192.117
148.942, 141.007
150.327, 117.893
151.711, 105.771
153.096, 100.543
154.480, 116.589
155.863, 122.683
157.247, 159.860
158.630, 186.686
160.013, 202.058
161.396, 233.492
162.779, 174.660
164.161, 144.361
165.544, 131.444
166.926, 144.834
168.308, 131.757
169.689, 104.048
171.070, 97.391
172.452, 55.719
173.833, 68.475
175.213, 84.772
176.594, 35.076
177.974, 61.385
179.354, 85.699
180.734, 88.018
182.114, 34.342
183.493, 73.670
184.872, 34.001
186.251, 38.336
187.630, 2.326
189.008, 12.014
190.387, 22.357
191.765, 12.701
193.143, 13.047
194.520, 15.394
195.898, 41.743
197.275, 28.092
198.652, 11.443
200.029, 28.794
201.405, 5.145
202.782, 15.496
204.158, 29.845
205.534, 29.896
206.909, 41.536
208.285, 46.879
209.660, 58.219
211.035, 54.205
212.410, 41.646
213.784, 27.530
215.159, 56.282
216.533, 43.739
217.907, 60.706
219.281, 52.095
220.654, 25.487
222.027, 57.979
223.400, 34.256
224.773, 13.286
226.146, 9.323
227.518, 13.944
228.891, 29.707
230.263, 4.044
231.634, 17.204
233.006, 11.548
234.377, 11.302
235.748, 11.061
237.119, 10.826
238.490, 14.597
239.860, 5.382
241.231, 2.186
242.601, 4.008
243.970, 4.838
245.340, 32.482
246.709, 22.907
248.079, 6.678
249.448, 10.238
250.816, 18.184
252.185, 13.341
253.553, 15.143
254.921, 19.638
256.289, 9.858
257.657, 16.649
259.024, 12.162
260.391, 7.679
261.758, 12.199
263.125, 13.722
264.492, 9.246
265.858, 8.771
267.224, 0.297
268.590, 27.821
269.956, 17.344
271.321, 15.865
272.687, 29.752
274.052, 14.903
275.416, 41.418
276.781, 29.931
278.146, 26.442
279.510, 39.950
280.874, 28.456
282.237, 33.959
283.601, 16.459
284.964, 17.955
286.327, 46.445
287.690, 39.930
289.053, 41.409
290.416, 57.882
291.778, 71.350
293.140, 38.813
294.502, 81.272
295.863, 65.726
297.225, 110.175
298.586, 109.614
299.947, 105.049
301.308, 99.481
302.668, 113.910
304.029, 120.335
305.389, 147.756
306.749, 163.175
308.108, 222.590
309.468, 226.003
310.827, 286.414
312.186, 226.822
313.545, 269.227
314.903, 247.630
316.262, 224.030
317.620, 208.418
318.978, 149.805
320.336, 116.182
321.693, 109.539
323.051, 118.876
324.408, 69.195
325.765, 70.505
327.121, 45.789
328.478, 35.067
329.834, 54.337
331.190, 55.598
332.546, 28.852
333.902, 51.106
335.257, 21.360
336.612, 16.614
337.967, 24.865
339.322, 37.117
340.677, 5.632
342.031, 31.618
343.385, 1.867
344.739, 4.884
346.093, 23.363
347.446, 3.390
348.799, 12.856
350.153, 17.101
351.505, 0.144
352.858, 5.101
354.210, 6.655
355.563, 21.587
356.915, 0.829
358.267, 26.071
359.618, 13.688
360.969, 1.451
362.321, 9.786
363.672, 26.022
365.022, 45.198
366.373, 15.565
367.723, 7.333
369.073, 1.103
370.423, 33.127
371.773, 33.357
373.122, 9.611
374.471, 11.838
375.821, 6.936
377.169, 20.286
378.518, 13.506
379.866, 20.726
381.215, 32.942
382.563, 54.158
383.910, 48.270
385.258, 33.580
386.605, 41.791
387.952, 34.990
389.299, 30.264
390.646, 49.467
391.992, 49.670
393.339, 75.281
394.685, 93.485
396.031, 144.638
397.376, 119.375
398.722, 127.021
400.067, 113.248
401.412, 161.248
402.757, 239.834
404.101, 282.628
405.446, 338.318
406.790, 490.973
408.134, 753.896
409.478, 1014.135
410.821, 1409.691
412.165, 1651.028
413.508, 1624.270
414.851, 1352.418
416.193, 936.661
417.536, 676.904
418.878, 438.277
420.220, 332.525
421.562, 176.766
422.904, 142.988
424.245, 137.233
425.586, 97.483
426.927, 124.714
428.268, 85.942
429.609, 68.951
430.949, 45.200
432.289, 68.448
433.629, 47.697
434.969, 45.945
436.309, 28.193
437.648, 36.440
438.987, 26.686
440.326, 19.932
441.665, 33.178
443.003, 45.427
444.342, 40.674
445.680, 23.926
447.018, 58.183
448.355, 31.439
449.693, 29.695
451.030, 33.957
452.367, 36.221
453.704, 15.484
455.041, 34.750
456.377, 35.015
457.713, 66.280
459.049, 16.550
460.385, 26.819
461.721, 38.091
463.056, 38.362
464.391, 37.633
465.726, 50.904
467.061, 77.174
468.395, 68.444
469.730, 90.714
471.064, 103.984
472.398, 103.253
473.731, 107.522
475.065, 123.791
476.398, 198.059
477.731, 232.327
479.064, 240.595
480.397, 332.862
481.729, 381.138
483.062, 513.413
484.394, 633.688
485.725, 806.963
487.057, 1070.239
488.389, 1419.517
489.720, 1743.794
491.051, 2036.072
492.382, 2038.349
493.712, 1862.636
495.043, 1489.925
496.373, 1134.214
497.703, 871.504
499.032, 683.794
500.362, 502.083
501.691, 415.863
503.020, 326.169
504.349, 301.385
505.678, 258.235
507.007, 204.541
508.335, 170.496
509.663, 184.796
510.991, 136.102
512.319, 127.291
513.646, 100.566
514.973, 49.360
516.300, 69.675
517.627, 60.909
518.954, 84.229
520.280, 82.605
521.607, 32.755
522.933, 50.062
524.259, 22.524
525.584, 37.844
526.910, 24.130
528.235, 44.983
529.560, 54.184
530.885, 45.589
532.209, 3.091
533.534, 57.219
534.858, 17.540
536.182, 45.447
537.506, 39.766
538.829, 35.086
540.152, 46.406
541.476, 24.725
542.799, 38.054
544.121, 24.374
545.444, 61.731
546.766, 38.101
548.088, 74.490
549.410, 62.889
550.732, 78.273
552.053, 97.634
553.375, 94.006
554.696, 107.422
556.017, 107.329
557.337, 142.799
558.658, 160.164
559.978, 174.128
561.298, 123.474
562.618, 130.839
563.938, 160.608
565.257, 170.817
566.576, 197.246
567.895, 229.076
569.214, 235.836
570.533, 254.657
571.851, 241.094
573.170, 310.850
574.488, 284.224
575.805, 297.623
577.123, 339.245
578.440, 316.621
579.758, 345.996
581.075, 346.406
582.391, 376.774
583.708, 381.130
585.024, 419.635
586.341, 396.004
587.657, 400.397
588.972, 414.790
590.288, 440.182
591.603, 408.692
592.918, 394.059
594.233, 446.466
595.548, 420.842
596.863, 364.202
598.177, 446.561
599.491, 430.961
600.805, 443.016
602.119, 506.370
603.432, 488.868
604.746, 493.368
606.059, 538.717
607.372, 560.084
608.685, 640.906
609.997, 663.789
611.309, 763.131
612.621, 836.148
613.933, 959.486
615.245, 1030.823
616.557, 1154.291
617.868, 1224.623
619.179, 1219.599
620.490, 1128.927
621.801, 1002.254
623.111, 837.578
624.421, 749.916
625.731, 606.281
627.041, 495.605
628.351, 369.921
629.660, 300.241
630.970, 234.020
632.279, 210.861
633.588, 172.168
634.896, 148.472
636.205, 170.774
637.513, 135.074
638.821, 149.336
640.129, 109.631
641.437, 88.923
642.744, 84.214
644.051, 97.631
645.358, 86.238
646.665, 103.520
647.972, 93.801
649.278, 96.078
650.584, 104.836
651.890, 79.127
653.196, 104.397
654.502, 103.680
655.807, 81.944
657.113, 82.206
658.418, 74.223
659.722, 115.442
661.027, 101.697
662.331, 106.950
663.636, 128.201
664.940, 131.450
666.244, 214.697
667.547, 280.941
668.851, 274.444
670.154, 288.307
671.457, 254.986
672.760, 219.221
674.062, 155.452
675.365, 129.728
676.667, 95.853
677.969, 58.079
679.271, 36.506
680.572, 4.727
681.874, 75.942
683.175, 93.154
684.476, 11.368
685.777, 47.580
687.077, 7.789
688.378, 45.994
689.678, 55.171
690.978, 22.369
692.278, 11.564
693.577, 48.757
694.877, 44.947
696.176, 40.133
697.475, 44.315
698.774, 20.495
700.072, 23.670
701.371, 13.842
702.669, 11.011
703.967, 9.175
705.265, 8.764
706.562, 9.857
707.860, 13.643
709.157, 8.791
710.454, 9.934
711.751, 2.926
713.047, 11.796
714.344, 16.321
715.640, 3.566
716.936, 30.538
718.232, 18.638
719.527, 0.266
720.823, 23.177
722.118, 9.256
723.413, 16.679
724.708, 0.369
726.002, 0.591
727.297, 9.441
728.591, 0.469
729.885, 22.761
731.179, 17.185
732.472, 12.802
733.766, 23.260
735.059, 43.254
736.352, 14.244
737.645, 8.770
738.937, 7.203
740.230, 25.171
741.522, 25.135
742.814, 16.096
744.106, 16.052
745.397, 15.865
746.689, 5.953
747.980, 20.896
749.271, 10.835
750.562, 17.770
751.853, 44.702
753.143, 20.629
754.433, 10.553
755.723, 4.527
757.013, 22.383
758.303, 11.711
759.592, 11.819
760.881, 38.059
762.170, 14.934
763.459, 17.194
764.748, 2.340
766.036, 46.506
767.325, 4.651
768.613, 28.182
769.901, 22.011
771.188, 12.162
772.476, 49.651
773.763, 4.539
775.050, 39.262
776.337, 17.059
777.624, 70.852
778.910, 12.643
780.196, 6.429
781.482, 14.212
782.768, 18.991
784.054, 13.767
785.339, 17.540
786.625, 16.921
787.910, 46.075
789.195, 14.838
790.479, 27.598
791.764, 23.354
793.048, 26.892
794.332, 41.841
795.616, 34.571
796.900, 45.298
798.183, 2.022
799.467, 1.258
800.750, 12.455
802.033, 15.165
803.316, 42.872
804.598, 27.424
805.880, 5.739
807.163, 58.937
808.445, 5.611
809.726, 38.282
811.008, 40.949
812.289, 25.385
813.570, 28.738
814.851, 33.890
816.132, 39.515
817.413, 21.137
818.693, 40.757
819.973, 11.375
821.253, 16.990
822.533, 9.397
823.813, 27.207
825.092, 9.191
826.371, 32.402
827.650, 23.993
828.929, 14.418
830.208, 35.160
831.486, 48.737
832.764, 2.689
834.042, 23.880
835.320, 45.306
836.598, 70.872
837.875, 67.861
839.152, 32.950
840.429, 50.510
841.706, 46.984
842.983, 28.540
844.259, 48.094
845.536, 26.645
846.812, 53.149
848.088, 11.699
849.363, 90.246
850.639, 35.793
851.914, 40.337
853.189, 60.870
854.464, 47.412
855.739, 49.914
857.013, 31.402
858.288, 26.870
859.562, 53.330
860.836, 61.803
862.110, 6.298
863.383, 28.754
864.656, 2.225
865.930, 47.178
867.203, 20.571
868.475, 18.073
869.748, 28.979
871.020, 33.507
872.292, 22.017
873.564, 57.125
874.836, 11.206
876.108, 21.243
877.379, 22.299
878.650, 41.426
879.922, 32.492
881.192, 19.947
882.463, 9.919
883.733, 13.400
885.004, 35.091
886.274, 3.642
887.544, 41.874
888.813, 9.390
890.083, 36.871
891.352, 33.394
892.621, 12.793
893.890, 39.312
895.159, 30.832
896.427, 19.327
897.695, 32.824
898.964, 30.321
900.232, 25.698
901.499, 30.219
902.767, 22.700
904.034, 11.211
905.301, 54.737
906.568, 62.264
907.835, 36.750
909.102, 27.581
910.368, 25.114
911.634, 19.502
912.900, 14.889
914.166, 17.454
915.432, 25.360
916.697, 30.008
917.962, 44.010
919.227, 68.553
920.492, 72.433
921.757, 76.979
923.021, 75.744
924.285, 74.161
925.550, 75.713
926.813, 80.623
928.077, 60.179
929.341, 73.738
930.604, 81.299
931.867, 40.847
933.130, 43.370
934.393, 90.932
935.655, 80.504
936.918, 114.071
938.180, 62.647
939.442, 65.226
940.703, 86.807
941.965, 110.391
943.226, 99.977
944.488, 97.566
945.749, 122.194
947.009, 127.788
948.270, 84.385
949.530, 84.985
950.791, 99.458
952.051, 89.743
953.311, 105.351
954.570, 112.603
955.830, 155.577
957.089, 128.260
958.348, 157.320
959.607, 159.949
960.866, 160.571
962.124, 134.219
963.383, 190.871
964.641, 246.767
965.899, 277.475
967.156, 257.147
968.414, 263.823
969.671, 333.502
970.928, 304.186
972.185, 392.880
973.442, 392.579
974.699, 412.600
975.955, 450.308
977.211, 479.371
978.468, 551.094
979.723, 542.822
980.979, 609.607
982.234, 703.343
983.490, 749.083
984.745, 861.624
986.000, 991.380
987.254, 1118.141
988.509, 1237.732
989.763, 1421.676
991.017, 1492.450
992.271, 1629.229
993.525, 1777.014
994.779, 2028.802
996.032, 2441.596
997.285, 3018.395
998.538, 3652.198
999.791, 4858.006
1001.044, 6514.822
1002.296, 9707.643
1003.548, 15337.476
1004.800, 26937.314
1006.052, 47649.160
1007.304, 63310.020
1008.555, 61564.879
1009.807, 39050.758
1011.058, 20972.631
1012.309, 11875.517
1013.559, 7394.411
1014.810, 4938.312
1016.060, 3668.226
1017.310, 2757.147
1018.560, 2035.079
1019.810, 1684.017
1021.060, 1352.969
1022.309, 1156.925
1023.558, 950.887
1024.807, 823.855
1026.056, 720.472
1027.305, 607.462
1028.553, 553.463
1029.801, 474.623
1031.049, 443.491
1032.297, 378.515
1033.545, 334.274
1034.793, 320.903
1036.040, 277.943
1037.287, 266.930
1038.534, 236.007
1039.781, 250.045
1041.027, 171.244
1042.274, 149.318
1043.520, 96.397
1044.766, 97.483
1046.012, 105.573
1047.257, 24.674
1048.503, 147.780
1049.748, 50.890
1050.993, 102.006
1052.238, 79.127
1053.483, 55.252
1054.727, 40.382
1055.971, 31.584
1057.216, 69.724
1058.459, 48.867
1059.703, 63.276
1060.947, 72.432
1062.190, 49.598
1063.433, 44.773
1064.676, 63.952
1065.919, 26.136
1067.162, 68.332
1068.404, 22.533
1069.646, 1.260
1070.888, 58.954
1072.130, 15.828
1073.372, 47.393
1074.613, 34.623
1075.855, 39.857
1077.096, 4.099
1078.337, 19.345
1079.578, 14.633
1080.818, 34.180
1082.059, 19.439
1083.299, 5.702
1084.539, 21.276
1085.779, 15.242
1087.018, 34.519
1088.258, 48.799
1089.497, 48.084
1090.736, 19.373
1091.975, 22.682
1093.213, 20.902
1094.452, 25.281
1095.690, 33.595
1096.928, 55.914
1098.166, 73.237
1099.404, 124.564
1100.642, 52.896
1101.879, 42.234
1103.116, 28.576
1104.353, 125.922
1105.590, 121.272
1106.827, 170.789
1108.063, 169.157
1109.299, 177.906
1110.536, 207.772
1111.771, 237.151
1113.007, 268.534
1114.243, 329.202
1115.478, 315.608
1116.713, 396.017
1117.948, 454.434
1119.183, 491.849
1120.418, 631.057
1121.652, 714.548
1122.886, 801.993
1124.120, 825.650
1125.354, 894.083
1126.588, 1018.339
1127.821, 1159.781
1129.055, 1415.357
1130.288, 1796.808
1131.521, 2205.261
1132.753, 2811.716
1133.986, 3383.843
1135.218, 3915.303
1136.450, 3843.767
1137.682, 3937.379
1138.914, 3713.846
1140.146, 3630.429
1141.377, 3619.958
1142.609, 3318.524
1143.840, 2889.158
1145.071, 2433.635
1146.301, 1858.328
1147.532, 1465.867
1148.762, 1074.063
1149.992, 775.547
1151.222, 622.376
1152.452, 549.396
1153.682, 372.884
1154.911, 338.723
1156.140, 340.284
1157.369, 237.257
1158.598, 242.750
1159.827, 219.529
1161.055, 158.579
1162.284, 134.099
1163.512, 144.663
1164.740, 88.160
1165.967, 93.881
1167.195, 140.546
1168.422, 97.697
1169.650, 99.197
1170.877, 66.763
1172.103, 69.322
1173.330, 77.009
1174.557, 75.190
1175.783, 81.734
1177.009, 67.639
1178.235, 129.795
1179.461, 17.298
1180.686, 21.817
1181.912, 69.503
1183.137, 121.028
1184.362, 67.532
1185.587, 60.037
1186.811, 53.541
1188.036, 5.938
1189.260, 51.563
1190.484, 18.065
1191.708, 61.856
1192.932, 27.356
1194.155, 30.285
1195.378, 35.783
1196.602, 37.281
1197.825, 24.777
1199.047, 51.272
1200.270, 30.767
1201.492, 105.260
1202.715, 2.248
1203.937, 76.242
1205.159, 90.731
1206.380, 6.781
1207.602, 47.703
1208.823, 54.185
1210.044, 45.666
1211.265, 49.146
1212.486, 33.625
1213.707, 18.102
1214.927, 16.577
1216.147, 9.051
1217.367, 14.164
1218.587, 49.989
1219.807, 17.245
1221.027, 46.716
1222.246, 21.187
1223.465, 14.655
1224.684, 57.121
1225.903, 2.586
1227.121, 4.951
1228.340, 38.506
1229.558, 36.994
1230.776, 29.446
1231.994, 53.896
1233.212, 68.362
1234.429, 79.807
1235.646, 48.250
1236.864, 49.688
1238.081, 13.126
1239.297, 56.661
1240.514, 35.122
1241.730, 54.559
1242.947, 62.478
1244.163, 65.608
1245.378, 64.039
1246.594, 51.513
1247.810, 33.016
1249.025, 25.458
1250.240, 41.860
1251.455, 50.303
1252.670, 14.306
1253.885, 31.197
1255.099, 17.430
1256.313, 19.066
1257.527, 78.313
1258.741, 27.659
1259.955, 30.996
1261.168, 41.336
1262.382, 53.665
1263.595, 26.991
1264.808, 56.313
1266.021, 22.371
1267.233, 12.927
1268.446, 25.215
1269.658, 3.492
1270.870, 39.757
1272.082, 21.991
1273.294, 77.237
1274.505, 7.462
1275.716, 45.672
1276.928, 55.878
1278.139, 63.079
1279.349, 18.728
1280.560, 52.448
1281.770, 37.619
1282.981, 8.786
1284.191, 69.948
1285.401, 12.107
1286.610, 22.260
1287.820, 15.408
1289.029, 9.541
1290.239, 45.670
1291.448, 7.794
1292.656, 23.913
1293.865, 1.973
1295.073, 71.134
1296.282, 11.765
1297.490, 14.673
1298.698, 47.407
1299.906, 11.517
1301.113, 23.548
1302.320, 13.393
1303.528, 43.656
1304.735, 7.699
1305.942, 14.265
1307.148, 35.760
1308.355, 22.221
1309.561, 54.783
1310.767, 10.781
1311.973, 13.773
1313.179, 15.243
1314.384, 55.727
1315.590, 27.690
1316.795, 29.646
1318.000, 13.596
1319.205, 0.659
1320.410, 34.473
1321.614, 6.401
1322.819, 1.321
1324.023, 66.232
1325.227, 41.137
1326.431, 15.037
1327.634, 40.930
1328.838, 64.818
1330.041, 81.739
1331.244, 74.617
1332.447, 42.490
1333.650, 52.226
1334.852, 93.089
1336.055, 10.948
1337.257, 64.801
1338.459, 10.350
1339.661, 81.487
1340.862, 85.320
1342.064, 55.147
1343.265, 70.970
1344.466, 67.789
1345.667, 77.603
1346.868, 70.413
1348.068, 72.713
1349.269, 71.783
1350.469, 70.747
1351.669, 66.283
1352.869, 63.072
1354.069, 58.857
1355.268, 58.639
1356.468, 69.808
1357.667, 71.190
1358.866, 92.971
1360.065, 79.789
1361.263, 77.888
1362.462, 68.065
1363.660, 108.926
1364.858, 71.876
1366.056, 75.679
1367.254, 123.433
1368.451, 94.186
1369.649, 88.938
1370.846, 76.648
1372.043, 78.050
1373.240, 43.714
1374.436, 103.358
1375.633, 102.994
1376.829, 47.720
1378.025, 108.338
1379.221, 89.867
1380.417, 55.218
1381.613, 70.372
1382.808, 30.536
1384.003, 47.693
1385.199, 97.843
1386.393, 22.986
1387.588, 73.123
1388.783, 108.026
1389.977, 40.663
1391.171, 31.144
1392.365, 40.733
1393.559, 50.776
1394.753, 40.806
1395.946, 58.727
1397.140, 24.471
1398.333, 70.387
1399.526, 64.201
1400.719, 43.161
1401.911, 65.152
1403.104, 54.080
1404.296, 68.825
1405.488, 69.531
1406.680, 63.128
1407.872, 49.760
1409.063, 106.681
1410.255, 60.853
1411.446, 119.739
1412.637, 52.725
1413.828, 51.583
1415.018, 112.917
1416.209, 96.854
1417.399, 91.244
1418.589, 99.438
1419.779, 46.988
1420.969, 84.276
1422.159, 54.875
1423.348, 77.961
1424.537, 57.504
1425.726, 70.766
1426.915, 62.311
1428.104, 51.821
1429.293, 51.347
1430.481, 59.415
1431.669, 112.681
1432.857, 72.141
1434.045, 122.589
1435.233, 92.026
1436.420, 77.451
1437.608, 71.867
1438.795, 67.184
1439.982, 67.666
1441.169, 96.045
1442.355, 71.408
1443.542, 122.747
1444.728, 131.066
1445.914, 130.370
1447.100, 99.658
1448.286, 122.873
1449.472, 91.136
1450.657, 131.348
1451.842, 86.583
1453.027, 132.595
1454.212, 92.715
1455.397, 89.471
1456.581, 138.482
1457.766, 162.356
1458.950, 111.395
1460.134, 165.261
1461.318, 81.405
1462.501, 110.482
1463.685, 101.598
1464.868, 82.688
1466.051, 105.762
1467.234, 30.871
1468.417, 34.031
1469.600, 51.272
1470.782, 76.560
1471.965, 15.864
1473.147, 114.200
1474.329, 32.547
1475.510, 28.885
1476.692, 76.216
1477.873, 57.604
1479.055, 79.984
1480.236, 76.360
1481.416, 63.729
1482.597, 111.095
1483.778, 88.459
1484.958, 39.824
1486.138, 66.193
1487.318, 33.415
1488.498, 72.958
1489.678, 49.381
1490.857, 29.836
1492.037, 121.325
1493.216, 119.841
1494.395, 82.389
1495.574, 50.970
1496.752, 47.579
1497.931, 63.993
1499.109, 31.636
1500.287, 23.303
1501.465, 13.994
1502.643, 2.284
1503.820, 3.359
1504.998, 7.272
1506.175, 1.120
1507.352, 17.015
1508.529, 42.959
1509.706, 84.952
1510.882, 50.022
1512.059, 76.311
1513.235, 34.481
1514.411, 24.405
1515.587, 59.101
1516.762, 15.038
1517.938, 0.096
1519.113, 4.865
1520.288, 2.068
1521.463, 0.000
##END=



