##NAMES=Gypsum
##RRUFFID=R040029
##IDEAL CHEMISTRY=CaS^6+^O_4_&#183;2H_2_O
##LOCALITY=Twin Buttes, Pima County, Arizona, USA
##OWNER=RRUFF
##SOURCE=University of Arizona Mineral Museum
##DESCRIPTION=Colorless prismatic crystal
##STATUS=The identification of this mineral has been confirmed by X-ray diffraction.
##URL=rruff.info/R040029
##PIN_ID=L00233
##ORIENTATION=Laser parallel to [-1 0 -1]. Fiducial mark perpendicular to laser is parallel to -b* (0 -1 0)
90.587, 0.000
91.981, 35.213
93.375, 98.686
94.768, 3.556
96.161, 1.171
97.554, 59.670
98.947, 159.654
100.340, 123.283
101.732, 243.000
103.124, 400.406
104.516, 533.213
105.908, 883.189
107.300, 893.133
108.691, 816.887
110.082, 587.373
111.473, 458.525
112.864, 370.189
114.254, 432.622
115.644, 459.031
117.034, 451.370
118.424, 306.177
119.813, 339.369
121.203, 301.424
122.592, 260.740
123.981, 319.566
125.369, 261.733
126.758, 376.390
128.146, 344.605
129.534, 636.918
130.922, 606.575
132.309, 455.508
133.696, 289.393
135.083, 379.254
136.470, 317.077
137.857, 497.975
139.243, 620.337
140.630, 668.094
142.016, 701.074
143.401, 674.101
144.787, 643.980
146.172, 365.703
147.557, 330.278
148.942, 217.718
150.327, 224.036
151.711, 208.246
153.096, 317.356
154.480, 291.377
155.863, 389.315
157.247, 587.176
158.630, 864.312
160.013, 1223.022
161.396, 1431.658
162.779, 1345.504
164.161, 970.976
165.544, 681.561
166.926, 620.371
168.308, 647.401
169.689, 710.485
171.070, 850.498
172.452, 1185.566
173.833, 1322.350
175.213, 1734.145
176.594, 1989.911
177.974, 2528.008
179.354, 2682.021
180.734, 2441.320
182.114, 1928.016
183.493, 1670.490
184.872, 1196.726
186.251, 824.019
187.630, 574.333
189.008, 501.625
190.387, 443.822
191.765, 369.598
193.143, 350.534
194.520, 269.421
195.898, 210.670
197.275, 152.674
198.652, 235.436
200.029, 233.064
201.405, 180.702
202.782, 137.352
204.158, 183.210
205.534, 342.700
206.909, 254.361
208.285, 324.316
209.660, 321.988
211.035, 182.831
212.410, 155.014
213.784, 124.646
215.159, 165.729
216.533, 132.751
217.907, 52.611
219.281, 17.700
220.654, 28.931
222.027, 35.484
223.400, 68.931
224.773, 5.660
226.146, 1.712
227.518, 33.807
228.891, 48.728
230.263, 38.344
231.634, 46.046
233.006, 18.305
234.377, 9.573
235.748, 2.846
237.119, 66.411
238.490, 94.018
239.860, 1.562
241.231, 53.843
242.601, 3.770
243.970, 58.600
245.340, 73.955
246.709, 37.735
248.079, 82.538
249.448, 26.205
250.816, 18.962
252.185, 48.244
253.553, 33.592
254.921, 137.539
256.289, 9.701
257.657, 13.146
259.024, 24.769
260.391, 132.492
261.758, 0.641
263.125, 6.306
264.492, 34.315
265.858, 9.382
267.224, 23.036
268.590, 4.631
269.956, 47.797
271.321, 37.621
272.687, 20.194
274.052, 46.417
275.416, 45.648
276.781, 55.887
278.146, 74.870
279.510, 19.398
280.874, 41.963
282.237, 88.227
283.601, 60.548
284.964, 69.378
286.327, 36.770
287.690, 49.838
289.053, 11.590
290.416, 99.365
291.778, 9.571
293.140, 96.469
294.502, 90.350
295.863, 12.632
297.225, 17.953
298.586, 20.273
299.947, 41.068
301.308, 44.171
302.668, 78.354
304.029, 71.658
305.389, 181.557
306.749, 101.534
308.108, 175.665
309.468, 184.439
310.827, 163.544
312.186, 103.380
313.545, 232.677
314.903, 209.439
316.262, 100.418
317.620, 234.068
318.978, 176.699
320.336, 127.312
321.693, 200.906
323.051, 176.475
324.408, 62.024
325.765, 154.555
327.121, 112.066
328.478, 82.507
329.834, 191.924
331.190, 88.315
332.546, 53.692
333.902, 156.024
335.257, 130.306
336.612, 47.549
337.967, 127.774
339.322, 51.986
340.677, 251.177
342.031, 77.349
343.385, 208.503
344.739, 108.641
346.093, 55.764
347.446, 40.869
348.799, 168.070
350.153, 159.119
351.505, 180.062
352.858, 45.074
354.210, 71.907
355.563, 73.737
356.915, 33.485
358.267, 62.169
359.618, 98.914
360.969, 71.608
362.321, 78.290
363.672, 67.958
365.022, 113.817
366.373, 111.760
367.723, 171.393
369.073, 49.084
370.423, 164.691
371.773, 42.676
373.122, 177.049
374.471, 198.617
375.821, 34.205
377.169, 233.021
378.518, 102.824
379.866, 137.662
381.215, 237.224
382.563, 147.717
383.910, 220.879
385.258, 198.266
386.605, 208.735
387.952, 184.767
389.299, 248.217
390.646, 284.646
391.992, 299.063
393.339, 349.476
394.685, 360.874
396.031, 523.422
397.376, 368.823
398.722, 537.641
400.067, 486.628
401.412, 572.416
402.757, 846.144
404.101, 947.943
405.446, 1122.836
406.790, 1542.162
408.134, 2202.600
409.478, 3188.015
410.821, 4275.316
412.165, 4967.375
413.508, 5249.208
414.851, 4225.518
416.193, 2984.104
417.536, 2184.439
418.878, 1664.099
420.220, 1160.364
421.562, 744.557
422.904, 745.096
424.245, 638.616
425.586, 529.900
426.927, 487.420
428.268, 339.525
429.609, 278.586
430.949, 363.226
432.289, 368.343
433.629, 280.508
434.969, 250.475
436.309, 231.534
437.648, 262.585
438.987, 191.635
440.326, 99.007
441.665, 103.882
443.003, 222.225
444.342, 146.733
445.680, 149.845
447.018, 143.736
448.355, 12.425
449.693, 108.396
451.030, 11.362
452.367, 236.621
453.704, 6.764
455.041, 107.651
456.377, 312.501
457.713, 52.636
459.049, 47.931
460.385, 43.741
461.721, 91.801
463.056, 68.331
464.391, 34.980
465.726, 127.574
467.061, 103.270
468.395, 61.945
469.730, 223.603
471.064, 58.240
472.398, 117.857
473.731, 20.456
475.065, 126.031
476.398, 70.588
477.731, 187.103
479.064, 197.624
480.397, 181.312
481.729, 231.832
483.062, 295.184
484.394, 366.867
485.725, 497.979
487.057, 603.397
488.389, 758.786
489.720, 954.028
491.051, 1038.396
492.382, 1014.619
493.712, 943.706
495.043, 801.047
496.373, 612.377
497.703, 417.343
499.032, 419.641
500.362, 379.606
501.691, 325.872
503.020, 303.355
504.349, 251.104
505.678, 212.282
507.007, 187.174
508.335, 115.838
509.663, 139.007
510.991, 271.158
512.319, 124.292
513.646, 205.935
514.973, 147.775
516.300, 234.604
517.627, 214.937
518.954, 205.547
520.280, 245.551
521.607, 158.290
522.933, 176.039
524.259, 106.725
525.584, 84.630
526.910, 203.632
528.235, 139.679
529.560, 284.313
530.885, 64.266
532.209, 10.561
533.534, 191.403
534.858, 149.325
536.182, 91.608
537.506, 18.289
538.829, 81.493
540.152, 46.600
541.476, 178.597
542.799, 40.760
544.121, 5.176
545.444, 66.053
546.766, 72.553
548.088, 74.363
549.410, 168.886
550.732, 221.639
552.053, 191.271
553.375, 208.708
554.696, 125.310
556.017, 141.798
557.337, 139.646
558.658, 96.642
559.978, 69.918
561.298, 266.592
562.618, 63.208
563.938, 89.776
565.257, 197.040
566.576, 5.809
567.895, 161.204
569.214, 202.301
570.533, 187.533
571.851, 113.893
573.170, 268.396
574.488, 183.583
575.805, 173.120
577.123, 61.342
578.440, 161.907
579.758, 275.446
581.075, 117.795
582.391, 392.896
583.708, 90.979
585.024, 99.010
586.341, 148.072
587.657, 312.057
588.972, 331.239
590.288, 219.186
591.603, 14.471
592.918, 187.609
594.233, 315.793
595.548, 186.646
596.863, 241.973
598.177, 193.042
599.491, 175.185
600.805, 198.296
602.119, 68.094
603.432, 235.944
604.746, 112.172
606.059, 240.451
607.372, 147.630
608.685, 321.333
609.997, 120.393
611.309, 172.096
612.621, 198.479
613.933, 307.073
615.245, 205.747
616.557, 432.687
617.868, 299.943
619.179, 379.105
620.490, 232.725
621.801, 557.395
623.111, 376.055
624.421, 648.620
625.731, 299.972
627.041, 785.745
628.351, 605.268
629.660, 236.359
630.970, 507.676
632.279, 253.001
633.588, 243.306
634.896, 237.667
636.205, 316.500
637.513, 159.812
638.821, 198.506
640.129, 423.866
641.437, 319.111
642.744, 307.333
644.051, 431.817
645.358, 405.560
646.665, 558.840
647.972, 390.434
649.278, 463.548
650.584, 344.647
651.890, 630.719
653.196, 510.874
654.502, 470.364
655.807, 247.170
657.113, 470.246
658.418, 528.688
659.722, 446.629
661.027, 635.562
662.331, 650.062
663.636, 946.013
664.940, 1107.868
666.244, 2101.819
667.547, 2739.904
668.851, 3713.694
670.154, 3486.343
671.457, 2675.397
672.760, 1913.367
674.062, 1040.072
675.365, 801.760
676.667, 689.426
677.969, 486.069
679.271, 307.842
680.572, 297.442
681.874, 198.879
683.175, 167.900
684.476, 180.925
685.777, 165.366
687.077, 194.858
688.378, 232.938
689.678, 210.594
690.978, 186.021
692.278, 149.351
693.577, 133.399
694.877, 16.639
696.176, 154.849
697.475, 79.097
698.774, 223.621
700.072, 122.193
701.371, 129.506
702.669, 65.675
703.967, 135.079
705.265, 253.816
706.562, 138.908
707.860, 6.023
709.157, 267.006
710.454, 21.985
711.751, 182.795
713.047, 4.623
714.344, 52.405
715.640, 19.019
716.936, 6.391
718.232, 132.192
719.527, 137.516
720.823, 5.073
722.118, 79.645
723.413, 161.316
724.708, 20.002
726.002, 196.626
727.297, 136.713
728.591, 121.495
729.885, 279.976
731.179, 105.432
732.472, 25.179
733.766, 86.801
735.059, 87.064
736.352, 127.697
737.645, 180.732
738.937, 180.039
740.230, 188.732
741.522, 4.952
742.814, 196.026
744.106, 133.250
745.397, 202.454
746.689, 1.360
747.980, 124.688
749.271, 33.119
750.562, 240.970
751.853, 63.378
753.143, 119.428
754.433, 41.459
755.723, 51.398
757.013, 181.389
758.303, 80.160
759.592, 38.258
760.881, 51.230
762.170, 8.061
763.459, 148.666
764.748, 67.523
766.036, 310.877
767.325, 8.477
768.613, 154.168
769.901, 197.924
771.188, 18.594
772.476, 290.244
773.763, 70.881
775.050, 116.512
776.337, 75.127
777.624, 37.723
778.910, 85.699
780.196, 201.809
781.482, 18.305
782.768, 151.775
784.054, 184.232
785.339, 216.676
786.625, 41.102
787.910, 165.512
789.195, 86.906
790.479, 41.283
791.764, 245.693
793.048, 15.020
794.332, 136.461
795.616, 180.770
796.900, 269.064
798.183, 89.344
799.467, 21.607
800.750, 125.852
802.033, 45.082
803.316, 464.297
804.598, 108.506
805.880, 221.625
807.163, 12.217
808.445, 39.875
809.726, 5.051
811.008, 126.998
812.289, 34.035
813.570, 154.053
814.851, 143.057
816.132, 24.686
817.413, 13.721
818.693, 166.223
819.973, 79.316
821.253, 64.234
822.533, 222.133
823.813, 141.020
825.092, 66.895
826.371, 75.752
827.650, 141.596
828.929, 213.424
830.208, 216.240
831.486, 227.043
832.764, 99.834
834.042, 178.609
835.320, 110.373
836.598, 361.072
837.875, 82.633
839.152, 392.236
840.429, 418.760
841.706, 135.395
842.983, 282.084
844.259, 388.766
845.536, 189.336
846.812, 257.742
848.088, 113.074
849.363, 76.859
850.639, 230.914
851.914, 65.031
853.189, 238.654
854.464, 387.957
855.739, 469.289
857.013, 281.967
858.288, 283.309
859.562, 406.910
860.836, 639.252
862.110, 479.686
863.383, 341.273
864.656, 213.730
865.930, 278.248
867.203, 278.381
868.475, 233.346
869.748, 213.020
871.020, 200.268
872.292, 261.555
873.564, 139.885
874.836, 183.500
876.108, 75.600
877.379, 84.715
878.650, 190.764
879.922, 83.395
881.192, 106.881
882.463, 97.205
883.733, 95.818
885.004, 217.072
886.274, 55.613
887.544, 371.789
888.813, 13.982
890.083, 165.340
891.352, 242.930
892.621, 49.514
893.890, 255.127
895.159, 242.682
896.427, 134.689
897.695, 249.135
898.964, 148.820
900.232, 92.439
901.499, 62.877
902.767, 188.244
904.034, 3.084
905.301, 97.082
906.568, 305.482
907.835, 280.549
909.102, 187.654
910.368, 288.293
911.634, 215.812
912.900, 68.980
914.166, 452.088
915.432, 292.014
916.697, 62.531
917.962, 186.945
919.227, 71.568
920.492, 197.496
921.757, 44.031
923.021, 181.643
924.285, 298.609
925.550, 175.219
926.813, 133.693
928.077, 203.270
929.341, 231.516
930.604, 162.605
931.867, 78.145
933.130, 103.770
934.393, 413.773
935.655, 97.336
936.918, 338.121
938.180, 91.734
939.442, 162.832
940.703, 201.438
941.965, 118.209
943.226, 42.350
944.488, 25.266
945.749, 9.961
947.009, 151.033
948.270, 100.779
949.530, 87.539
950.791, 245.822
952.051, 154.195
953.311, 212.705
954.570, 249.949
955.830, 156.494
957.089, 227.066
958.348, 39.605
959.607, 213.498
960.866, 89.562
962.124, 108.287
963.383, 70.777
964.641, 153.812
965.899, 258.787
967.156, 4.434
968.414, 134.877
969.671, 237.045
970.928, 11.791
972.185, 252.240
973.442, 170.418
974.699, 260.924
975.955, 255.461
977.211, 97.689
978.468, 339.955
979.723, 178.484
980.979, 159.008
982.234, 539.523
983.490, 85.037
984.745, 408.391
986.000, 565.891
987.254, 533.287
988.509, 783.783
989.763, 821.068
991.017, 916.559
992.271, 840.043
993.525, 972.520
994.779, 1251.994
996.032, 1581.463
997.285, 1884.928
998.538, 2105.389
999.791, 3309.785
1001.044, 4069.037
1002.296, 6309.486
1003.548, 9328.947
1004.800, 16261.746
1006.052, 28964.631
1007.304, 39773.492
1008.555, 37181.355
1009.807, 23065.379
1011.058, 12515.277
1012.309, 7193.945
1013.559, 4478.748
1014.810, 3031.146
1016.060, 2437.055
1017.310, 1816.289
1018.560, 1249.102
1019.810, 1130.574
1021.060, 1128.992
1022.309, 744.309
1023.558, 844.562
1024.807, 573.328
1026.056, 556.332
1027.305, 743.988
1028.553, 759.662
1029.801, 519.203
1031.049, 345.947
1032.297, 340.047
1033.545, 242.916
1034.793, 265.184
1036.040, 309.365
1037.287, 252.033
1038.534, 420.396
1039.781, 447.475
1041.027, 398.400
1042.274, 118.840
1043.520, 265.473
1044.766, 149.631
1046.012, 37.236
1047.257, 186.928
1048.503, 338.902
1049.748, 67.514
1050.993, 541.244
1052.238, 1112.668
1053.483, 1102.549
1054.727, 1451.486
1055.971, 1385.762
1057.216, 1307.215
1058.459, 1202.766
1059.703, 1049.176
1060.947, 1211.785
1062.190, 1338.387
1063.433, 1640.871
1064.676, 1327.088
1065.919, 1021.961
1067.162, 1047.734
1068.404, 641.359
1069.646, 462.107
1070.888, 575.527
1072.130, 248.059
1073.372, 293.686
1074.613, 430.830
1075.855, 113.992
1077.096, 135.795
1078.337, 407.957
1079.578, 203.152
1080.818, 350.141
1082.059, 195.908
1083.299, 324.482
1084.539, 249.168
1085.779, 142.330
1087.018, 233.398
1088.258, 201.559
1089.497, 278.982
1090.736, 70.744
1091.975, 177.146
1093.213, 20.713
1094.452, 270.828
1095.690, 13.230
1096.928, 151.568
1098.166, 149.098
1099.404, 356.875
1100.642, 106.402
1101.879, 78.889
1103.116, 24.797
1104.353, 268.230
1105.590, 8.613
1106.827, 210.496
1108.063, 92.023
1109.299, 312.684
1110.536, 271.434
1111.771, 192.736
1113.007, 241.236
1114.243, 109.357
1115.478, 151.812
1116.713, 123.453
1117.948, 45.521
1119.183, 164.172
1120.418, 171.578
1121.652, 381.023
1122.886, 386.617
1124.120, 554.104
1125.354, 536.365
1126.588, 812.736
1127.821, 1022.973
1129.055, 1829.428
1130.288, 2587.646
1131.521, 3420.184
1132.753, 4490.211
1133.986, 6024.639
1135.218, 7038.045
1136.450, 5992.588
1137.682, 5480.879
1138.914, 3600.910
1140.146, 2552.932
1141.377, 1792.105
1142.609, 1302.547
1143.840, 1020.885
1145.071, 895.891
1146.301, 531.107
1147.532, 462.307
1148.762, 327.332
1149.992, 278.332
1151.222, 200.236
1152.452, 178.785
1153.682, 158.486
1154.911, 164.195
1156.140, 167.855
1157.369, 137.768
1158.598, 168.242
1159.827, 228.688
1161.055, 29.770
1162.284, 61.191
1163.512, 2.773
1164.740, 105.510
1165.967, 5.594
1167.195, 290.982
1168.422, 69.975
1169.650, 93.463
1170.877, 80.352
1172.103, 13.268
1173.330, 27.980
1174.557, 224.885
1175.783, 17.227
1177.009, 226.869
1178.235, 212.328
1179.461, 148.543
1180.686, 25.377
1181.912, 62.736
1183.137, 139.100
1184.362, 27.137
1185.587, 42.791
1186.811, 91.744
1188.036, 12.125
1189.260, 193.201
1190.484, 25.291
1191.708, 131.812
1192.932, 93.924
1194.155, 79.471
1195.378, 68.078
1196.602, 251.398
1197.825, 57.455
1199.047, 220.373
1200.270, 191.480
1201.492, 373.404
1202.715, 354.900
1203.937, 284.438
1205.159, 257.713
1206.380, 287.246
1207.602, 35.730
1208.823, 239.158
1210.044, 51.535
1211.265, 91.312
1212.486, 168.578
1213.707, 185.791
1214.927, 225.873
1216.147, 190.941
1217.367, 265.316
1218.587, 218.357
1219.807, 206.344
1221.027, 12.279
1222.246, 116.850
1223.465, 149.650
1224.684, 297.182
1225.903, 284.473
1227.121, 329.445
1228.340, 143.607
1229.558, 184.104
1230.776, 152.547
1231.994, 59.943
1233.212, 288.117
1234.429, 260.811
1235.646, 192.045
1236.864, 410.217
1238.081, 184.869
1239.297, 229.910
1240.514, 440.629
1241.730, 231.631
1242.947, 300.918
1244.163, 120.654
1245.378, 293.328
1246.594, 347.145
1247.810, 111.541
1249.025, 241.742
1250.240, 391.662
1251.455, 168.801
1252.670, 179.307
1253.885, 300.752
1255.099, 272.676
1256.313, 51.023
1257.527, 345.316
1258.741, 291.496
1259.955, 46.318
1261.168, 287.348
1262.382, 172.133
1263.595, 128.463
1264.808, 102.682
1266.021, 110.340
1267.233, 56.963
1268.446, 210.736
1269.658, 119.545
1270.870, 275.051
1272.082, 50.555
1273.294, 265.982
1274.505, 205.354
1275.716, 253.652
1276.928, 168.895
1278.139, 283.090
1279.349, 179.229
1280.560, 175.314
1281.770, 23.348
1282.981, 33.266
1284.191, 240.125
1285.401, 232.930
1286.610, 188.678
1287.820, 115.363
1289.029, 130.465
1290.239, 201.561
1291.448, 142.037
1292.656, 136.455
1293.865, 168.812
1295.073, 166.123
1296.282, 179.172
1297.490, 62.314
1298.698, 192.088
1299.906, 204.725
1301.113, 196.328
1302.320, 32.107
1303.528, 219.246
1304.735, 26.334
1305.942, 12.742
1307.148, 81.670
1308.355, 0.574
1309.561, 329.629
1310.767, 48.447
1311.973, 148.635
1313.179, 10.893
1314.384, 372.588
1315.590, 163.113
1316.795, 267.639
1318.000, 222.600
1319.205, 175.758
1320.410, 289.129
1321.614, 141.957
1322.819, 252.922
1324.023, 237.568
1325.227, 508.900
1326.431, 176.572
1327.634, 121.549
1328.838, 228.529
1330.041, 205.967
1331.244, 354.768
1332.447, 154.512
1333.650, 88.121
1334.852, 132.201
1336.055, 45.383
1337.257, 70.117
1338.459, 134.361
1339.661, 205.463
1340.862, 154.230
1342.064, 1.312
1343.265, 77.490
1344.466, 204.346
1345.667, 28.619
1346.868, 500.252
1348.068, 109.445
1349.269, 117.418
1350.469, 459.246
1351.669, 298.172
1352.869, 335.859
1354.069, 451.537
1355.268, 20.695
1356.468, 320.305
1357.667, 342.613
1358.866, 75.977
1360.065, 460.717
1361.263, 214.068
1362.462, 372.723
1363.660, 604.172
1364.858, 297.666
1366.056, 392.520
1367.254, 485.340
1368.451, 391.506
1369.649, 117.408
1370.846, 354.789
1372.043, 273.326
1373.240, 359.410
1374.436, 582.238
1375.633, 378.855
1376.829, 426.918
1378.025, 175.756
1379.221, 488.590
1380.417, 363.182
1381.613, 268.893
1382.808, 429.730
1384.003, 358.314
1385.199, 409.312
1386.393, 164.414
1387.588, 304.021
1388.783, 292.477
1389.977, 370.855
1391.171, 376.160
1392.365, 380.264
1393.559, 479.834
1394.753, 133.256
1395.946, 327.084
1397.140, 252.963
1398.333, 437.191
1399.526, 411.256
1400.719, 468.004
1401.911, 354.859
1403.104, 473.686
1404.296, 327.973
1405.488, 644.342
1406.680, 73.725
1407.872, 428.510
1409.063, 541.000
1410.255, 258.605
1411.446, 612.426
1412.637, 401.152
1413.828, 582.279
1415.018, 462.533
1416.209, 652.156
1417.399, 347.023
1418.589, 747.039
1419.779, 472.740
1420.969, 616.439
1422.159, 477.994
1423.348, 649.256
1424.537, 572.590
1425.726, 489.393
1426.915, 595.756
1428.104, 520.359
1429.293, 705.412
1430.481, 403.484
1431.669, 775.416
1432.857, 464.838
1434.045, 519.092
1435.233, 1124.531
1436.420, 781.508
1437.608, 742.748
1438.795, 744.957
1439.982, 1074.912
1441.169, 996.516
1442.355, 1133.928
1443.542, 1382.799
1444.728, 1121.629
1445.914, 1260.572
1447.100, 1203.234
1448.286, 1236.043
1449.472, 994.787
1450.657, 1609.688
1451.842, 1339.361
1453.027, 1287.951
1454.212, 1741.451
1455.397, 1128.926
1456.581, 1458.215
1457.766, 1429.469
1458.950, 1112.490
1460.134, 1497.762
1461.318, 1025.090
1462.501, 1006.354
1463.685, 1285.609
1464.868, 739.061
1466.051, 1085.232
1467.234, 539.393
1468.417, 779.600
1469.600, 804.123
1470.782, 887.762
1471.965, 585.451
1473.147, 963.143
1474.329, 952.994
1475.510, 500.041
1476.692, 573.180
1477.873, 731.418
1479.055, 597.000
1480.236, 1057.688
1481.416, 626.457
1482.597, 873.379
1483.778, 749.367
1484.958, 590.434
1486.138, 672.594
1487.318, 556.230
1488.498, 697.258
1489.678, 653.809
1490.857, 527.543
1492.037, 920.484
1493.216, 695.617
1494.395, 458.062
1495.574, 660.773
1496.752, 294.770
1497.931, 647.059
1499.109, 295.660
1500.287, 373.602
1501.465, 75.109
1502.643, 275.555
1503.820, 433.629
1504.998, 328.172
1506.175, 228.246
1507.352, 319.910
1508.529, 380.238
1509.706, 440.293
1510.882, 258.168
1512.059, 304.410
1513.235, 303.598
1514.411, 21.629
1515.587, 628.016
1516.762, 3.215
1517.938, 314.301
1519.113, 186.953
1520.288, 88.164
1521.463, 0.000
##END=



