##NAMES=Gypsum
##RRUFFID=R040029
##IDEAL CHEMISTRY=CaS^6+^O_4_&#183;2H_2_O
##LOCALITY=Twin Buttes, Pima County, Arizona, USA
##OWNER=RRUFF
##SOURCE=University of Arizona Mineral Museum
##DESCRIPTION=Colorless prismatic crystal
##STATUS=The identification of this mineral has been confirmed by X-ray diffraction.
##URL=rruff.info/R040029
##PIN_ID=M00440
##ORIENTATION=Laser parallel to -b* (0 -1 0). Fiducial mark perpendicular to laser is parallel to -c [0 0 -1]
80.823, 0.000
82.218, 30.945
83.614, 1.941
85.009, 15.485
86.404, 17.310
87.798, 52.530
89.193, 74.973
90.587, 88.020
91.981, 63.747
93.375, 105.193
94.768, 97.951
96.161, 75.813
97.554, 116.615
98.947, 158.227
100.340, 144.545
101.732, 135.480
103.124, 258.958
104.516, 267.921
105.908, 365.324
107.300, 379.125
108.691, 361.281
110.082, 282.765
111.473, 246.538
112.864, 291.571
114.254, 479.854
115.644, 692.368
117.034, 707.095
118.424, 615.013
119.813, 482.103
121.203, 456.345
122.592, 452.740
123.981, 561.250
125.369, 633.920
126.758, 821.728
128.146, 960.643
129.534, 1190.703
130.922, 1158.909
132.309, 1085.208
133.696, 841.587
135.083, 784.000
136.470, 743.547
137.857, 943.225
139.243, 1084.915
140.630, 1289.617
142.016, 1465.332
143.401, 1503.094
144.787, 1338.030
146.172, 1066.055
147.557, 788.185
148.942, 572.326
150.327, 419.513
151.711, 299.771
153.096, 256.050
154.480, 171.319
155.863, 136.597
157.247, 139.863
158.630, 78.121
160.013, 122.362
161.396, 97.586
162.779, 88.228
164.161, 87.405
165.544, 43.538
166.926, 62.641
168.308, 96.861
169.689, 74.043
171.070, 116.024
172.452, 179.062
173.833, 249.676
175.213, 347.363
176.594, 353.726
177.974, 438.574
179.354, 420.806
180.734, 434.116
182.114, 361.041
183.493, 310.602
184.872, 251.618
186.251, 205.783
187.630, 171.919
189.008, 134.540
190.387, 122.123
191.765, 112.682
193.143, 97.564
194.520, 96.429
195.898, 114.302
197.275, 116.184
198.652, 160.762
200.029, 205.972
201.405, 270.876
202.782, 345.787
204.158, 431.705
205.534, 548.584
206.909, 634.002
208.285, 750.412
209.660, 795.797
211.035, 711.016
212.410, 702.843
213.784, 539.202
215.159, 432.188
216.533, 316.957
217.907, 282.355
219.281, 304.279
220.654, 201.776
222.027, 189.068
223.400, 134.176
224.773, 85.303
226.146, 118.073
227.518, 77.018
228.891, 72.627
230.263, 86.013
231.634, 61.722
233.006, 31.433
234.377, 59.608
235.748, 40.319
237.119, 31.032
238.490, 58.746
239.860, 50.462
241.231, 44.180
242.601, 22.899
243.970, 7.380
245.340, 3.342
246.709, 9.973
248.079, 77.873
249.448, 9.950
250.816, 41.197
252.185, 4.562
253.553, 16.974
254.921, 41.568
256.289, 16.819
257.657, 14.853
259.024, 14.421
260.391, 27.350
261.758, 0.162
263.125, 33.013
264.492, 7.898
265.858, 9.187
267.224, 10.246
268.590, 2.719
269.956, 58.706
271.321, 5.286
272.687, 46.260
274.052, 5.773
275.416, 10.178
276.781, 10.882
278.146, 12.044
279.510, 16.039
280.874, 31.133
282.237, 30.236
283.601, 7.348
284.964, 31.531
286.327, 0.589
287.690, 13.334
289.053, 0.467
290.416, 26.639
291.778, 29.781
293.140, 19.632
294.502, 14.075
295.863, 10.227
297.225, 22.619
298.586, 5.469
299.947, 35.681
301.308, 30.169
302.668, 28.025
304.029, 2.888
305.389, 71.247
306.749, 73.382
308.108, 68.518
309.468, 67.654
310.827, 91.788
312.186, 85.921
313.545, 107.052
314.903, 80.181
316.262, 95.309
317.620, 53.434
318.978, 55.689
320.336, 21.678
321.693, 42.797
323.051, 29.913
324.408, 23.028
325.765, 30.140
327.121, 2.752
328.478, 22.648
329.834, 1.553
331.190, 17.462
332.546, 46.384
333.902, 26.326
335.257, 0.718
336.612, 26.758
337.967, 3.794
339.322, 37.824
340.677, 12.148
342.031, 26.144
343.385, 11.153
344.739, 10.828
346.093, 14.808
347.446, 10.775
348.799, 19.739
350.153, 53.702
351.505, 0.335
352.858, 2.377
354.210, 18.432
355.563, 11.492
356.915, 10.598
358.267, 8.306
359.618, 26.791
360.969, 20.101
362.321, 6.992
363.672, 20.882
365.022, 26.771
366.373, 6.659
367.723, 44.545
369.073, 18.417
370.423, 20.276
371.773, 13.106
373.122, 2.067
374.471, 46.753
375.821, 1.556
377.169, 52.362
378.518, 43.167
379.866, 50.978
381.215, 50.782
382.563, 25.576
383.910, 48.362
385.258, 6.137
386.605, 86.909
387.952, 41.679
389.299, 56.450
390.646, 28.220
391.992, 105.986
393.339, 94.749
394.685, 47.513
396.031, 164.277
397.376, 145.040
398.722, 169.803
400.067, 197.566
401.412, 182.343
402.757, 338.120
404.101, 346.897
405.446, 510.675
406.790, 638.239
408.134, 882.018
409.478, 1233.802
410.821, 1623.592
412.165, 1759.385
413.508, 1667.187
414.851, 1326.992
416.193, 890.195
417.536, 605.003
418.878, 449.204
420.220, 318.016
421.562, 180.304
422.904, 180.117
424.245, 189.911
425.586, 70.724
426.927, 125.536
428.268, 80.004
429.609, 95.419
430.949, 44.231
432.289, 85.042
433.629, 84.634
434.969, 72.164
436.309, 39.973
437.648, 42.649
438.987, 56.137
440.326, 47.384
441.665, 32.189
443.003, 73.994
444.342, 62.798
445.680, 58.600
447.018, 93.762
448.355, 1.505
449.693, 119.289
451.030, 17.995
452.367, 131.787
453.704, 39.579
455.041, 85.383
456.377, 87.186
457.713, 61.987
459.049, 94.469
460.385, 117.832
461.721, 127.631
463.056, 143.845
464.391, 112.773
465.726, 157.222
467.061, 149.041
468.395, 150.857
469.730, 189.676
471.064, 220.493
472.398, 285.310
473.731, 334.125
475.065, 381.356
476.398, 364.754
477.731, 480.568
479.064, 586.380
480.397, 637.192
481.729, 853.003
483.062, 1091.814
484.394, 1442.624
485.725, 1750.432
487.057, 2294.240
488.389, 2903.480
489.720, 3517.614
491.051, 3941.893
492.382, 3829.293
493.712, 3471.989
495.043, 2749.845
496.373, 2166.199
497.703, 1590.003
499.032, 1235.483
500.362, 944.286
501.691, 767.898
503.020, 587.684
504.349, 443.715
505.678, 441.012
507.007, 279.770
508.335, 263.438
509.663, 271.240
510.991, 250.043
512.319, 211.230
513.646, 202.663
514.973, 102.806
516.300, 169.452
517.627, 136.038
518.954, 116.573
520.280, 156.195
521.607, 147.988
522.933, 128.460
524.259, 82.257
525.584, 43.063
526.910, 100.508
528.235, 116.316
529.560, 143.074
530.885, 83.854
532.209, 83.490
533.534, 88.498
534.858, 65.309
536.182, 89.597
537.506, 96.410
538.829, 67.742
540.152, 66.556
541.476, 82.022
542.799, 80.188
544.121, 113.009
545.444, 133.399
546.766, 131.349
548.088, 94.172
549.410, 63.996
550.732, 130.821
552.053, 174.646
553.375, 97.473
554.696, 148.355
556.017, 197.186
557.337, 152.018
558.658, 188.850
559.978, 177.711
561.298, 234.551
562.618, 186.394
563.938, 204.269
565.257, 259.118
566.576, 222.969
567.895, 308.821
569.214, 353.673
570.533, 338.532
571.851, 332.110
573.170, 379.970
574.488, 366.831
575.805, 390.695
577.123, 419.857
578.440, 447.725
579.758, 488.593
581.075, 481.466
582.391, 545.348
583.708, 552.230
585.024, 564.121
586.341, 654.013
587.657, 650.915
588.972, 713.821
590.288, 693.725
591.603, 685.631
592.918, 688.538
594.233, 688.455
595.548, 719.372
596.863, 735.291
598.177, 804.211
599.491, 842.134
600.805, 883.057
602.119, 881.981
603.432, 950.905
604.746, 991.829
606.059, 1114.812
607.372, 1205.143
608.685, 1356.392
609.997, 1376.290
611.309, 1537.224
612.621, 1687.254
613.933, 1896.188
615.245, 2101.145
616.557, 2260.238
617.868, 2447.179
619.179, 2382.122
620.490, 2190.215
621.801, 2125.458
623.111, 1812.689
624.421, 1571.224
625.731, 1210.262
627.041, 1038.691
628.351, 766.649
629.660, 495.608
630.970, 543.566
632.279, 369.657
633.588, 324.615
634.896, 258.625
636.205, 218.585
637.513, 157.542
638.821, 144.652
640.129, 121.608
641.437, 114.575
642.744, 108.529
644.051, 149.484
645.358, 66.437
646.665, 100.393
647.972, 98.356
649.278, 57.321
650.584, 40.476
651.890, 136.459
653.196, 59.514
654.502, 75.507
655.807, 26.500
657.113, 77.567
658.418, 114.561
659.722, 79.560
661.027, 80.633
662.331, 38.644
663.636, 90.709
664.940, 71.721
666.244, 83.732
667.547, 81.748
668.851, 30.770
670.154, 7.211
671.457, 2.802
672.760, 92.820
674.062, 77.839
675.365, 67.863
676.667, 60.919
677.969, 61.147
679.271, 77.985
680.572, 76.019
681.874, 57.052
683.175, 75.989
684.476, 46.119
685.777, 73.151
687.077, 65.183
688.378, 73.245
689.678, 72.276
690.978, 2.311
692.278, 49.598
693.577, 55.411
694.877, 24.476
696.176, 119.518
697.475, 75.511
698.774, 29.503
700.072, 92.213
701.371, 11.204
702.669, 1.805
703.967, 11.183
705.265, 98.201
706.562, 67.187
707.860, 30.173
709.157, 66.169
710.454, 0.152
711.751, 91.575
713.047, 7.632
714.344, 54.611
715.640, 47.412
716.936, 61.812
718.232, 32.496
719.527, 3.665
720.823, 83.275
722.118, 49.219
723.413, 14.235
724.708, 45.176
726.002, 32.579
727.297, 24.482
728.591, 79.468
729.885, 47.388
731.179, 22.353
732.472, 1.730
733.766, 13.631
735.059, 38.279
736.352, 68.389
737.645, 58.396
738.937, 100.302
740.230, 73.753
741.522, 82.014
742.814, 32.066
744.106, 37.966
745.397, 29.863
746.689, 64.759
747.980, 45.652
749.271, 23.544
750.562, 82.433
751.853, 55.269
753.143, 35.206
754.433, 47.090
755.723, 54.003
757.013, 27.985
758.303, 33.753
759.592, 83.738
760.881, 12.611
762.170, 20.482
763.459, 1.373
764.748, 74.316
766.036, 39.180
767.325, 42.838
768.613, 57.996
769.901, 20.827
771.188, 5.657
772.476, 35.482
773.763, 36.307
775.050, 6.129
776.337, 14.052
777.624, 13.711
778.910, 34.456
780.196, 11.312
781.482, 0.924
782.768, 74.833
784.054, 39.643
785.339, 42.396
786.625, 7.146
787.910, 84.893
789.195, 16.638
790.479, 28.380
791.764, 34.125
793.048, 5.865
794.332, 51.603
795.616, 27.339
796.900, 45.072
798.183, 73.804
799.467, 42.533
800.750, 52.261
802.033, 35.988
803.316, 46.712
804.598, 4.434
805.880, 113.153
807.163, 16.868
808.445, 65.590
809.726, 32.310
811.008, 15.027
812.289, 43.742
813.570, 58.454
814.851, 17.163
816.132, 61.869
817.413, 20.572
818.693, 71.272
819.973, 41.969
821.253, 32.662
822.533, 31.353
823.813, 32.523
825.092, 66.361
826.371, 61.043
827.650, 64.722
828.929, 88.398
830.208, 27.072
831.486, 36.742
832.764, 35.409
834.042, 49.072
835.320, 79.733
836.598, 37.391
837.875, 55.045
839.152, 82.696
840.429, 85.345
841.706, 28.989
842.983, 111.631
844.259, 71.270
845.536, 22.905
846.812, 88.449
848.088, 9.078
849.363, 64.186
850.639, 57.807
851.914, 34.426
853.189, 7.958
854.464, 85.648
855.739, 167.251
857.013, 58.723
858.288, 26.321
859.562, 86.915
860.836, 81.506
862.110, 31.094
863.383, 52.680
864.656, 3.793
865.930, 15.783
867.203, 35.354
868.475, 79.925
869.748, 18.536
871.020, 9.981
872.292, 1.436
873.564, 8.925
874.836, 73.606
876.108, 15.145
877.379, 36.680
878.650, 21.787
879.922, 68.732
881.192, 24.529
882.463, 51.062
883.733, 20.601
885.004, 40.137
886.274, 14.374
887.544, 4.911
888.813, 1.543
890.083, 33.002
891.352, 38.520
892.621, 29.960
893.890, 68.543
895.159, 33.955
896.427, 86.534
897.695, 64.021
898.964, 41.509
900.232, 71.997
901.499, 55.481
902.767, 46.964
904.034, 69.444
905.301, 95.921
906.568, 62.396
907.835, 25.868
909.102, 9.336
910.368, 74.802
911.634, 82.269
912.900, 50.732
914.166, 102.142
915.432, 29.583
916.697, 15.758
917.962, 178.211
919.227, 5.662
920.492, 57.146
921.757, 126.590
923.021, 104.209
924.285, 97.491
925.550, 83.964
926.813, 100.552
928.077, 81.887
929.341, 116.022
930.604, 169.351
931.867, 36.200
933.130, 114.597
934.393, 150.547
935.655, 14.964
936.918, 176.379
938.180, 121.792
939.442, 33.196
940.703, 164.743
941.965, 104.095
943.226, 87.421
944.488, 118.821
945.749, 99.063
947.009, 63.651
948.270, 105.121
949.530, 105.752
950.791, 168.138
952.051, 164.192
953.311, 63.303
954.570, 172.822
955.830, 158.430
957.089, 159.698
958.348, 213.068
959.607, 134.618
960.866, 131.038
962.124, 194.591
963.383, 233.057
964.641, 251.417
965.899, 273.825
967.156, 249.115
968.414, 281.531
969.671, 301.827
970.928, 263.172
972.185, 396.525
973.442, 364.870
974.699, 450.207
975.955, 420.560
977.211, 444.919
978.468, 475.274
979.723, 552.626
980.979, 524.975
982.234, 668.290
983.490, 597.632
984.745, 793.972
986.000, 913.309
987.254, 1060.642
988.509, 1280.973
989.763, 1297.301
991.017, 1370.625
992.271, 1445.945
993.525, 1620.234
994.779, 1891.548
996.032, 2305.860
997.285, 2852.112
998.538, 3390.430
999.791, 4643.640
1001.044, 6211.958
1002.296, 9443.271
1003.548, 15237.600
1004.800, 26856.201
1006.052, 45331.523
1007.304, 59087.840
1008.555, 51790.148
1009.807, 32731.436
1011.058, 17937.748
1012.309, 10382.058
1013.559, 6484.420
1014.810, 4449.814
1016.060, 3257.672
1017.310, 2531.891
1018.560, 1890.498
1019.810, 1584.903
1021.060, 1369.171
1022.309, 1070.748
1023.558, 922.012
1024.807, 799.646
1026.056, 703.249
1027.305, 622.467
1028.553, 539.785
1029.801, 496.950
1031.049, 437.290
1032.297, 405.367
1033.545, 426.623
1034.793, 310.997
1036.040, 273.408
1037.287, 257.052
1038.534, 298.952
1039.781, 292.304
1041.027, 257.799
1042.274, 250.164
1043.520, 200.305
1044.766, 152.777
1046.012, 173.687
1047.257, 115.250
1048.503, 204.393
1049.748, 132.032
1050.993, 152.473
1052.238, 142.707
1053.483, 65.036
1054.727, 158.281
1055.971, 187.486
1057.216, 81.823
1058.459, 70.014
1059.703, 61.310
1060.947, 100.228
1062.190, 135.551
1063.433, 121.781
1064.676, 98.064
1065.919, 44.251
1067.162, 103.532
1068.404, 85.690
1069.646, 22.080
1070.888, 95.454
1072.130, 6.591
1073.372, 77.886
1074.613, 46.042
1075.855, 18.189
1077.096, 42.300
1078.337, 100.404
1079.578, 13.785
1080.818, 94.025
1082.059, 43.166
1083.299, 86.394
1084.539, 56.492
1085.779, 131.922
1087.018, 99.006
1088.258, 27.177
1089.497, 24.359
1090.736, 84.423
1091.975, 14.465
1093.213, 69.781
1094.452, 59.817
1095.690, 12.848
1096.928, 38.119
1098.166, 3.137
1099.404, 81.144
1100.642, 0.197
1101.879, 31.546
1103.116, 27.529
1104.353, 5.504
1105.590, 42.560
1106.827, 66.537
1108.063, 34.510
1109.299, 50.586
1110.536, 18.895
1111.771, 21.872
1113.007, 82.774
1114.243, 51.837
1115.478, 97.810
1116.713, 48.703
1117.948, 147.656
1119.183, 85.797
1120.418, 130.098
1121.652, 182.240
1122.886, 187.101
1124.120, 226.790
1125.354, 200.765
1126.588, 309.585
1127.821, 247.485
1129.055, 394.519
1130.288, 427.378
1131.521, 461.169
1132.753, 601.147
1133.986, 746.103
1135.218, 1162.111
1136.450, 1257.013
1137.682, 1696.947
1138.914, 1893.686
1140.146, 2199.541
1141.377, 2239.474
1142.609, 2164.222
1143.840, 2018.300
1145.071, 1683.016
1146.301, 1251.860
1147.532, 990.539
1148.762, 816.482
1149.992, 533.238
1151.222, 460.343
1152.452, 424.095
1153.682, 227.882
1154.911, 334.899
1156.140, 190.805
1157.369, 170.677
1158.598, 121.471
1159.827, 198.404
1161.055, 66.227
1162.284, 60.948
1163.512, 126.690
1164.740, 113.318
1165.967, 15.057
1167.195, 55.962
1168.422, 29.668
1169.650, 84.601
1170.877, 42.281
1172.103, 94.897
1173.330, 26.540
1174.557, 144.129
1175.783, 64.590
1177.009, 22.272
1178.235, 72.718
1179.461, 66.100
1180.686, 20.715
1181.912, 53.794
1183.137, 55.502
1184.362, 12.162
1185.587, 32.848
1186.811, 22.442
1188.036, 11.765
1189.260, 72.030
1190.484, 1.708
1191.708, 33.557
1192.932, 17.958
1194.155, 18.301
1195.378, 3.422
1196.602, 9.026
1197.825, 35.992
1199.047, 84.276
1200.270, 60.429
1201.492, 79.267
1202.715, 87.513
1203.937, 54.966
1205.159, 81.481
1206.380, 38.582
1207.602, 0.330
1208.823, 53.862
1210.044, 74.924
1211.265, 61.096
1212.486, 78.136
1213.707, 41.129
1214.927, 87.185
1216.147, 15.202
1217.367, 36.076
1218.587, 112.070
1219.807, 51.856
1221.027, 83.830
1222.246, 84.758
1223.465, 113.559
1224.684, 103.492
1225.903, 27.427
1227.121, 59.337
1228.340, 84.250
1229.558, 62.099
1230.776, 92.991
1231.994, 13.871
1233.212, 156.739
1234.429, 70.596
1235.646, 66.315
1236.864, 121.008
1238.081, 79.833
1239.297, 43.719
1240.514, 134.523
1241.730, 92.320
1242.947, 32.912
1244.163, 91.600
1245.378, 124.125
1246.594, 79.879
1247.810, 18.345
1249.025, 104.956
1250.240, 127.540
1251.455, 71.021
1252.670, 88.633
1253.885, 112.297
1255.099, 7.294
1256.313, 13.293
1257.527, 74.735
1258.741, 129.179
1259.955, 50.785
1261.168, 70.330
1262.382, 87.915
1263.595, 71.423
1264.808, 26.987
1266.021, 27.461
1267.233, 25.053
1268.446, 86.554
1269.658, 49.957
1270.870, 55.497
1272.082, 95.938
1273.294, 69.369
1274.505, 35.787
1275.716, 75.180
1276.928, 89.559
1278.139, 42.927
1279.349, 46.285
1280.560, 31.629
1281.770, 54.958
1282.981, 45.131
1284.191, 90.588
1285.401, 59.884
1286.610, 39.170
1287.820, 81.445
1289.029, 14.709
1290.239, 84.962
1291.448, 52.205
1292.656, 108.438
1293.865, 26.659
1295.073, 66.869
1296.282, 43.931
1297.490, 63.243
1298.698, 53.409
1299.906, 12.564
1301.113, 24.708
1302.320, 9.158
1303.528, 42.960
1304.735, 18.067
1305.942, 31.164
1307.148, 53.411
1308.355, 45.849
1309.561, 71.234
1310.767, 42.291
1311.973, 14.023
1313.179, 24.058
1314.384, 9.672
1315.590, 47.726
1316.795, 60.538
1318.000, 71.523
1319.205, 37.192
1320.410, 118.158
1321.614, 29.023
1322.819, 137.688
1324.023, 2.434
1325.227, 127.674
1326.431, 41.619
1327.634, 6.386
1328.838, 87.150
1330.041, 107.599
1331.244, 71.739
1332.447, 61.327
1333.650, 92.818
1334.852, 71.614
1336.055, 68.674
1337.257, 15.296
1338.459, 61.318
1339.661, 53.827
1340.862, 57.745
1342.064, 83.157
1343.265, 40.755
1344.466, 181.550
1345.667, 111.240
1346.868, 116.003
1348.068, 34.796
1349.269, 1.552
1350.469, 142.204
1351.669, 116.775
1352.869, 39.818
1354.069, 157.446
1355.268, 39.160
1356.468, 105.813
1357.667, 138.534
1358.866, 59.100
1360.065, 90.808
1361.263, 109.526
1362.462, 137.067
1363.660, 147.840
1364.858, 72.448
1366.056, 92.190
1367.254, 129.939
1368.451, 58.720
1369.649, 97.592
1370.846, 29.989
1372.043, 180.536
1373.240, 153.441
1374.436, 149.917
1375.633, 105.473
1376.829, 97.604
1378.025, 90.337
1379.221, 115.483
1380.417, 96.494
1381.613, 93.484
1382.808, 122.316
1384.003, 135.084
1385.199, 165.093
1386.393, 148.622
1387.588, 132.649
1388.783, 105.510
1389.977, 134.228
1391.171, 104.694
1392.365, 112.458
1393.559, 146.281
1394.753, 66.803
1395.946, 127.637
1397.140, 74.113
1398.333, 94.752
1399.526, 104.179
1400.719, 80.878
1401.911, 110.193
1403.104, 128.476
1404.296, 107.983
1405.488, 179.292
1406.680, 155.101
1407.872, 112.963
1409.063, 150.293
1410.255, 114.467
1411.446, 113.736
1412.637, 134.413
1413.828, 119.112
1415.018, 170.875
1416.209, 151.951
1417.399, 180.479
1418.589, 143.083
1419.779, 146.711
1420.969, 132.189
1422.159, 143.000
1423.348, 100.065
1424.537, 61.394
1425.726, 55.082
1426.915, 44.501
1428.104, 69.884
1429.293, 58.332
1430.481, 87.380
1431.669, 98.677
1432.857, 148.072
1434.045, 162.901
1435.233, 174.519
1436.420, 198.360
1437.608, 187.792
1438.795, 180.025
1439.982, 187.241
1441.169, 192.590
1442.355, 226.963
1443.542, 307.326
1444.728, 145.677
1445.914, 235.936
1447.100, 174.952
1448.286, 248.258
1449.472, 197.552
1450.657, 266.843
1451.842, 250.129
1453.027, 234.401
1454.212, 337.650
1455.397, 149.879
1456.581, 251.094
1457.766, 221.302
1458.950, 194.489
1460.134, 259.754
1461.318, 227.448
1462.501, 169.327
1463.685, 229.603
1464.868, 174.875
1466.051, 167.140
1467.234, 56.493
1468.417, 188.878
1469.600, 91.299
1470.782, 105.769
1471.965, 92.302
1473.147, 193.854
1474.329, 112.451
1475.510, 146.040
1476.692, 79.664
1477.873, 220.304
1479.055, 77.957
1480.236, 166.644
1481.416, 104.351
1482.597, 146.077
1483.778, 106.821
1484.958, 132.594
1486.138, 106.119
1487.318, 169.232
1488.498, 73.101
1489.678, 59.011
1490.857, 91.969
1492.037, 250.976
1493.216, 60.036
1494.395, 140.156
1495.574, 205.338
1496.752, 61.581
1497.931, 148.883
1499.109, 61.250
1500.287, 59.683
1501.465, 22.809
1502.643, 7.781
1503.820, 101.463
1504.998, 164.245
1506.175, 100.139
1507.352, 77.157
1508.529, 84.309
1509.706, 71.609
1510.882, 47.074
1512.059, 57.272
1513.235, 34.396
1514.411, 1.936
1515.587, 87.729
1516.762, 59.189
1517.938, 45.145
1519.113, 11.033
1520.288, 0.181
1521.463, 0.000
##END=



