##NAMES=Gypsum
##RRUFFID=R040029
##IDEAL CHEMISTRY=CaS^6+^O_4_&#183;2H_2_O
##LOCALITY=Twin Buttes, Pima County, Arizona, USA
##OWNER=RRUFF
##SOURCE=University of Arizona Mineral Museum
##DESCRIPTION=Colorless prismatic crystal
##STATUS=The identification of this mineral has been confirmed by X-ray diffraction.
##URL=rruff.info/R040029
##PIN_ID=M00440
##ORIENTATION=Laser parallel to -b* (0 -1 0). Fiducial mark perpendicular to laser is parallel to -c [0 0 -1]
78.031, 0.000
79.427, 2.279
80.823, 33.505
82.218, 93.891
83.614, 36.841
85.009, 43.306
86.404, 96.515
87.798, 102.340
89.193, 169.009
90.587, 134.967
91.981, 155.820
93.375, 150.269
94.768, 196.068
96.161, 166.022
97.554, 206.980
98.947, 219.811
100.340, 267.397
101.732, 310.649
103.124, 408.520
104.516, 533.968
105.908, 695.948
107.300, 784.397
108.691, 684.243
110.082, 508.426
111.473, 441.930
112.864, 395.750
114.254, 467.868
115.644, 575.257
117.034, 521.882
118.424, 470.704
119.813, 457.686
121.203, 418.800
122.592, 429.021
123.981, 517.426
125.369, 614.114
126.758, 763.026
128.146, 945.188
129.534, 1110.552
130.922, 1095.175
132.309, 972.872
133.696, 773.769
135.083, 759.639
136.470, 675.441
137.857, 794.180
139.243, 979.858
140.630, 1068.478
142.016, 1182.179
143.401, 1188.164
144.787, 1007.275
146.172, 825.630
147.557, 690.117
148.942, 556.646
150.327, 447.265
151.711, 357.594
153.096, 283.078
154.480, 239.013
155.863, 200.430
157.247, 209.747
158.630, 231.942
160.013, 216.021
161.396, 221.984
162.779, 213.843
164.161, 277.620
165.544, 230.329
166.926, 225.980
168.308, 332.580
169.689, 385.991
171.070, 411.848
172.452, 565.922
173.833, 653.225
175.213, 802.612
176.594, 968.781
177.974, 1090.427
179.354, 1093.932
180.734, 1007.821
182.114, 833.631
183.493, 710.789
184.872, 503.009
186.251, 433.431
187.630, 322.619
189.008, 230.096
190.387, 215.545
191.765, 190.978
193.143, 180.395
194.520, 189.795
195.898, 197.178
197.275, 205.543
198.652, 260.890
200.029, 233.217
201.405, 274.526
202.782, 322.815
204.158, 450.341
205.534, 493.764
206.909, 607.039
208.285, 684.964
209.660, 718.888
211.035, 652.533
212.410, 549.724
213.784, 460.546
215.159, 408.880
216.533, 372.557
217.907, 260.300
219.281, 261.909
220.654, 241.501
222.027, 177.719
223.400, 141.823
224.773, 129.415
226.146, 97.710
227.518, 91.610
228.891, 87.645
230.263, 55.341
231.634, 91.296
233.006, 46.231
234.377, 43.395
235.748, 87.274
237.119, 69.132
238.490, 75.968
239.860, 47.783
241.231, 12.577
242.601, 46.350
243.970, 12.900
245.340, 42.814
246.709, 30.026
248.079, 46.436
249.448, 39.998
250.816, 27.681
252.185, 33.435
253.553, 12.325
254.921, 31.255
256.289, 16.242
257.657, 20.276
259.024, 50.649
260.391, 16.444
261.758, 19.435
263.125, 13.703
264.492, 0.860
265.858, 16.970
267.224, 4.794
268.590, 13.612
269.956, 13.429
271.321, 5.752
272.687, 7.066
274.052, 18.888
275.416, 24.721
276.781, 5.565
278.146, 15.419
279.510, 8.713
280.874, 19.163
282.237, 3.055
283.601, 50.962
284.964, 21.104
286.327, 37.158
287.690, 34.799
289.053, 15.219
290.416, 7.222
291.778, 17.793
293.140, 31.168
294.502, 40.888
295.863, 4.978
297.225, 31.908
298.586, 19.226
299.947, 59.611
301.308, 70.428
302.668, 61.226
304.029, 118.005
305.389, 86.765
306.749, 92.507
308.108, 167.227
309.468, 218.927
310.827, 204.604
312.186, 208.259
313.545, 193.891
314.903, 194.500
316.262, 195.085
317.620, 172.648
318.978, 172.187
320.336, 96.704
321.693, 60.198
323.051, 84.672
324.408, 42.124
325.765, 42.556
327.121, 8.968
328.478, 14.642
329.834, 29.091
331.190, 1.951
332.546, 51.645
333.902, 41.402
335.257, 14.204
336.612, 27.047
337.967, 2.066
339.322, 19.853
340.677, 3.183
342.031, 31.824
343.385, 32.873
344.739, 43.969
346.093, 51.122
347.446, 50.328
348.799, 11.570
350.153, 20.847
351.505, 13.177
352.858, 0.458
354.210, 31.925
355.563, 2.666
356.915, 25.760
358.267, 11.792
359.618, 28.672
360.969, 31.160
362.321, 27.672
363.672, 16.208
365.022, 14.765
366.373, 33.659
367.723, 14.944
369.073, 25.591
370.423, 12.697
371.773, 26.053
373.122, 8.842
374.471, 11.331
375.821, 15.458
377.169, 18.531
378.518, 10.575
379.866, 31.406
381.215, 16.575
382.563, 33.534
383.910, 52.458
385.258, 12.354
386.605, 68.233
387.952, 14.913
389.299, 34.917
390.646, 79.734
391.992, 53.546
393.339, 116.341
394.685, 92.130
396.031, 178.915
397.376, 171.690
398.722, 180.460
400.067, 240.227
401.412, 328.990
402.757, 426.749
404.101, 538.505
405.446, 610.258
406.790, 976.008
408.134, 1466.756
409.478, 2017.499
410.821, 2628.237
412.165, 2931.968
413.508, 2892.692
414.851, 2319.409
416.193, 1651.120
417.536, 1156.822
418.878, 826.517
420.220, 631.204
421.562, 437.623
422.904, 370.294
424.245, 341.584
425.586, 270.239
426.927, 298.626
428.268, 211.967
429.609, 149.990
430.949, 177.467
432.289, 185.922
433.629, 130.408
434.969, 179.176
436.309, 100.201
437.648, 151.826
438.987, 104.594
440.326, 150.737
441.665, 99.187
443.003, 152.032
444.342, 140.837
445.680, 174.625
447.018, 201.171
448.355, 158.713
449.693, 104.429
451.030, 105.921
452.367, 191.136
453.704, 131.840
455.041, 190.359
456.377, 160.566
457.713, 130.003
459.049, 187.511
460.385, 196.011
461.721, 230.513
463.056, 197.013
464.391, 282.510
465.726, 371.005
467.061, 310.498
468.395, 288.989
469.730, 382.478
471.064, 400.966
472.398, 504.452
473.731, 559.938
475.065, 625.422
476.398, 689.906
477.731, 877.389
479.064, 1037.872
480.397, 1175.355
481.729, 1512.838
483.062, 1778.322
484.394, 2273.805
485.725, 2928.291
487.057, 3847.776
488.389, 4959.726
489.720, 6066.257
491.051, 6671.881
492.382, 6664.206
493.712, 5939.412
495.043, 4850.265
496.373, 3842.826
497.703, 2905.588
499.032, 2298.182
500.362, 1801.410
501.691, 1461.086
503.020, 1211.583
504.349, 974.026
505.678, 832.787
507.007, 680.115
508.335, 613.510
509.663, 536.357
510.991, 553.642
512.319, 414.431
513.646, 449.098
514.973, 356.758
516.300, 344.610
517.627, 311.707
518.954, 351.036
520.280, 291.591
521.607, 273.581
522.933, 223.929
524.259, 223.765
525.584, 234.722
526.910, 266.374
528.235, 194.383
529.560, 190.757
530.885, 204.330
532.209, 196.747
533.534, 206.282
534.858, 181.904
536.182, 168.619
537.506, 190.358
538.829, 188.051
540.152, 207.382
541.476, 222.159
542.799, 144.948
544.121, 224.751
545.444, 197.568
546.766, 145.398
548.088, 194.054
549.410, 211.915
550.732, 266.790
552.053, 233.679
553.375, 232.587
554.696, 212.508
556.017, 259.444
557.337, 278.395
558.658, 262.362
559.978, 237.344
561.298, 305.341
562.618, 328.363
563.938, 280.399
565.257, 339.450
566.576, 275.532
567.895, 402.635
569.214, 395.752
570.533, 346.885
571.851, 372.040
573.170, 435.220
574.488, 442.416
575.805, 474.634
577.123, 481.874
578.440, 507.146
579.758, 573.434
581.075, 426.767
582.391, 553.120
583.708, 540.496
585.024, 608.893
586.341, 662.319
587.657, 652.770
588.972, 672.259
590.288, 637.773
591.603, 644.311
592.918, 617.879
594.233, 645.490
595.548, 654.193
596.863, 701.783
598.177, 710.484
599.491, 721.216
600.805, 773.966
602.119, 801.744
603.432, 851.558
604.746, 914.405
606.059, 951.280
607.372, 1028.176
608.685, 1115.117
609.997, 1211.099
611.309, 1328.100
612.621, 1446.136
613.933, 1570.182
615.245, 1723.274
616.557, 1852.390
617.868, 1878.724
619.179, 1931.699
620.490, 1846.889
621.801, 1702.108
623.111, 1557.351
624.421, 1416.610
625.731, 1074.896
627.041, 996.200
628.351, 732.526
629.660, 600.872
630.970, 605.236
632.279, 521.620
633.588, 386.022
634.896, 376.443
636.205, 419.893
637.513, 320.370
638.821, 323.866
640.129, 340.386
641.437, 323.928
642.744, 230.496
644.051, 275.083
645.358, 207.690
646.665, 217.321
647.972, 236.980
649.278, 311.675
650.584, 291.294
651.890, 287.151
653.196, 291.944
654.502, 283.642
655.807, 218.615
657.113, 270.488
658.418, 284.389
659.722, 251.312
661.027, 176.266
662.331, 231.251
663.636, 259.269
664.940, 140.323
666.244, 258.413
667.547, 252.527
668.851, 306.669
670.154, 279.835
671.457, 278.323
672.760, 245.242
674.062, 243.480
675.365, 213.746
676.667, 200.031
677.969, 172.344
679.271, 149.685
680.572, 234.054
681.874, 182.448
683.175, 225.865
684.476, 228.299
685.777, 227.756
687.077, 184.239
688.378, 221.739
689.678, 188.265
690.978, 194.812
692.278, 96.375
693.577, 242.954
694.877, 156.794
696.176, 208.404
697.475, 109.039
698.774, 213.689
700.072, 167.646
701.371, 203.325
702.669, 99.018
703.967, 175.891
705.265, 207.237
706.562, 110.024
707.860, 77.779
709.157, 165.492
710.454, 141.274
711.751, 232.116
713.047, 181.924
714.344, 185.286
715.640, 74.196
716.936, 155.162
718.232, 134.164
719.527, 79.070
720.823, 152.019
722.118, 154.612
723.413, 117.537
724.708, 133.546
726.002, 161.594
727.297, 73.182
728.591, 134.119
729.885, 201.238
731.179, 194.872
732.472, 166.041
733.766, 150.823
735.059, 140.973
736.352, 130.525
737.645, 107.297
738.937, 130.686
740.230, 156.588
741.522, 174.190
742.814, 154.773
744.106, 162.252
745.397, 140.071
746.689, 109.416
747.980, 187.460
749.271, 121.926
750.562, 227.253
751.853, 130.583
753.143, 139.527
754.433, 152.121
755.723, 121.542
757.013, 177.298
758.303, 62.856
759.592, 130.086
760.881, 87.610
762.170, 119.521
763.459, 111.625
764.748, 107.966
766.036, 117.332
767.325, 94.353
768.613, 152.924
769.901, 132.407
771.188, 124.932
772.476, 157.508
773.763, 104.502
775.050, 108.115
776.337, 127.357
777.624, 203.679
778.910, 156.077
780.196, 172.758
781.482, 121.625
782.768, 77.561
784.054, 100.368
785.339, 81.699
786.625, 131.332
787.910, 120.868
789.195, 109.284
790.479, 91.145
791.764, 115.370
793.048, 140.271
794.332, 131.516
795.616, 105.943
796.900, 67.036
798.183, 63.574
799.467, 105.608
800.750, 172.161
802.033, 123.131
803.316, 174.193
804.598, 76.936
805.880, 143.595
807.163, 113.184
808.445, 82.673
809.726, 113.086
811.008, 115.465
812.289, 102.693
813.570, 47.914
814.851, 106.126
816.132, 46.330
817.413, 6.526
818.693, 79.713
819.973, 57.891
821.253, 61.060
822.533, 56.219
823.813, 63.369
825.092, 99.508
826.371, 101.638
827.650, 103.643
828.929, 92.865
830.208, 92.962
831.486, 74.048
832.764, 67.124
834.042, 35.187
835.320, 64.238
836.598, 114.276
837.875, 89.303
839.152, 59.317
840.429, 87.318
841.706, 42.306
842.983, 8.281
844.259, 121.243
845.536, 27.190
846.812, 38.124
848.088, 9.957
849.363, 65.946
850.639, 94.834
851.914, 25.707
853.189, 9.435
854.464, 65.405
855.739, 90.229
857.013, 2.962
858.288, 16.171
859.562, 16.599
860.836, 59.351
862.110, 20.913
863.383, 72.797
864.656, 24.491
865.930, 63.167
867.203, 10.174
868.475, 23.462
869.748, 15.080
871.020, 34.321
872.292, 39.241
873.564, 33.785
874.836, 56.690
876.108, 13.216
877.379, 33.230
878.650, 28.656
879.922, 20.937
881.192, 25.564
882.463, 24.771
883.733, 18.915
885.004, 10.636
886.274, 51.387
887.544, 33.810
888.813, 46.016
890.083, 0.893
891.352, 53.246
892.621, 5.680
893.890, 27.636
895.159, 5.874
896.427, 55.937
897.695, 3.226
898.964, 22.207
900.232, 30.849
901.499, 20.923
902.767, 2.100
904.034, 65.175
905.301, 5.721
906.568, 4.357
907.835, 27.536
909.102, 12.427
910.368, 33.771
911.634, 76.153
912.900, 16.087
914.166, 12.342
915.432, 39.902
916.697, 59.064
917.962, 56.214
919.227, 12.676
920.492, 29.199
921.757, 11.607
923.021, 38.479
924.285, 5.856
925.550, 19.223
926.813, 37.764
928.077, 16.255
929.341, 17.721
930.604, 82.915
931.867, 10.829
933.130, 34.417
934.393, 32.262
935.655, 38.113
936.918, 104.963
938.180, 49.976
939.442, 60.942
940.703, 89.481
941.965, 4.176
943.226, 6.600
944.488, 47.047
945.749, 34.594
947.009, 31.011
948.270, 15.568
949.530, 80.716
950.791, 45.226
952.051, 82.354
953.311, 52.298
954.570, 49.770
955.830, 66.193
957.089, 75.536
958.348, 83.745
959.607, 100.468
960.866, 118.830
962.124, 125.920
963.383, 164.012
964.641, 166.075
965.899, 188.110
967.156, 179.118
968.414, 172.098
969.671, 238.050
970.928, 167.975
972.185, 257.873
973.442, 282.741
974.699, 346.583
975.955, 338.396
977.211, 311.182
978.468, 455.939
979.723, 380.669
980.979, 460.371
982.234, 605.046
983.490, 485.692
984.745, 640.311
986.000, 757.902
987.254, 861.465
988.509, 1053.000
989.763, 1076.508
991.017, 1168.988
992.271, 1235.440
993.525, 1371.865
994.779, 1670.261
996.032, 1891.630
997.285, 2365.971
998.538, 2924.285
999.791, 4118.324
1001.044, 5447.581
1002.296, 8192.813
1003.548, 13260.017
1004.800, 23444.898
1006.052, 39628.055
1007.304, 51655.176
1008.555, 45704.098
1009.807, 28695.549
1011.058, 15993.544
1012.309, 9183.558
1013.559, 5790.598
1014.810, 3930.558
1016.060, 2907.443
1017.310, 2174.349
1018.560, 1623.687
1019.810, 1436.463
1021.060, 1138.169
1022.309, 877.825
1023.558, 765.562
1024.807, 714.243
1026.056, 635.266
1027.305, 519.942
1028.553, 491.519
1029.801, 394.043
1031.049, 344.013
1032.297, 328.619
1033.545, 337.027
1034.793, 258.907
1036.040, 245.235
1037.287, 213.937
1038.534, 169.740
1039.781, 238.155
1041.027, 125.821
1042.274, 162.126
1043.520, 200.445
1044.766, 44.233
1046.012, 79.023
1047.257, 66.900
1048.503, 102.421
1049.748, 104.654
1050.993, 94.661
1052.238, 106.485
1053.483, 72.430
1054.727, 58.357
1055.971, 45.651
1057.216, 43.279
1058.459, 39.706
1059.703, 47.490
1060.947, 26.099
1062.190, 38.017
1063.433, 7.623
1064.676, 26.820
1065.919, 16.807
1067.162, 115.535
1068.404, 38.222
1069.646, 21.234
1070.888, 93.680
1072.130, 30.805
1073.372, 4.364
1074.613, 18.005
1075.855, 25.064
1077.096, 64.781
1078.337, 76.834
1079.578, 14.352
1080.818, 93.772
1082.059, 16.107
1083.299, 140.802
1084.539, 58.624
1085.779, 50.555
1087.018, 6.945
1088.258, 8.014
1089.497, 20.841
1090.736, 18.602
1091.975, 22.166
1093.213, 103.450
1094.452, 126.210
1095.690, 25.492
1096.928, 31.597
1098.166, 8.000
1099.404, 21.936
1100.642, 41.645
1101.879, 23.774
1103.116, 17.347
1104.353, 4.963
1105.590, 33.428
1106.827, 72.236
1108.063, 29.952
1109.299, 12.254
1110.536, 104.593
1111.771, 53.728
1113.007, 80.774
1114.243, 74.430
1115.478, 84.399
1116.713, 109.356
1117.948, 92.302
1119.183, 135.403
1120.418, 135.158
1121.652, 207.069
1122.886, 227.968
1124.120, 266.857
1125.354, 162.735
1126.588, 296.603
1127.821, 208.459
1129.055, 429.306
1130.288, 534.142
1131.521, 584.969
1132.753, 689.785
1133.986, 883.593
1135.218, 1180.390
1136.450, 1279.178
1137.682, 1763.958
1138.914, 1899.728
1140.146, 2196.490
1141.377, 2283.243
1142.609, 2132.987
1143.840, 1915.724
1145.071, 1610.453
1146.301, 1318.173
1147.532, 1083.887
1148.762, 833.594
1149.992, 583.293
1151.222, 473.986
1152.452, 342.672
1153.682, 297.353
1154.911, 347.027
1156.140, 196.695
1157.369, 195.357
1158.598, 219.017
1159.827, 158.672
1161.055, 135.320
1162.284, 169.967
1163.512, 183.610
1164.740, 103.248
1165.967, 94.880
1167.195, 134.512
1168.422, 145.139
1169.650, 148.762
1170.877, 32.391
1172.103, 24.016
1173.330, 95.638
1174.557, 157.272
1175.783, 73.908
1177.009, 44.541
1178.235, 95.172
1179.461, 26.808
1180.686, 94.450
1181.912, 129.091
1183.137, 93.737
1184.362, 47.386
1185.587, 82.050
1186.811, 135.713
1188.036, 64.391
1189.260, 118.028
1190.484, 9.292
1191.708, 185.391
1192.932, 109.576
1194.155, 186.056
1195.378, 133.524
1196.602, 154.148
1197.825, 144.785
1199.047, 108.407
1200.270, 118.101
1201.492, 109.229
1202.715, 49.217
1203.937, 110.717
1205.159, 169.220
1206.380, 166.701
1207.602, 99.248
1208.823, 84.638
1210.044, 153.173
1211.265, 122.007
1212.486, 148.491
1213.707, 124.855
1214.927, 151.739
1216.147, 169.430
1217.367, 126.037
1218.587, 215.952
1219.807, 122.946
1221.027, 109.628
1222.246, 136.296
1223.465, 137.768
1224.684, 189.778
1225.903, 144.764
1227.121, 107.506
1228.340, 206.508
1229.558, 193.812
1230.776, 98.836
1231.994, 128.831
1233.212, 214.806
1234.429, 139.600
1235.646, 138.417
1236.864, 222.639
1238.081, 183.033
1239.297, 161.960
1240.514, 216.187
1241.730, 161.288
1242.947, 114.493
1244.163, 150.531
1245.378, 174.950
1246.594, 188.985
1247.810, 172.721
1249.025, 207.930
1250.240, 141.933
1251.455, 201.958
1252.670, 245.043
1253.885, 146.239
1255.099, 108.413
1256.313, 81.928
1257.527, 44.393
1258.741, 186.379
1259.955, 45.616
1261.168, 133.862
1262.382, 200.116
1263.595, 131.378
1264.808, 153.649
1266.021, 150.928
1267.233, 134.217
1268.446, 138.515
1269.658, 110.822
1270.870, 169.138
1272.082, 109.464
1273.294, 124.800
1274.505, 168.146
1275.716, 141.502
1276.928, 139.869
1278.139, 181.245
1279.349, 128.633
1280.560, 172.031
1281.770, 155.440
1282.981, 135.860
1284.191, 137.292
1285.401, 131.736
1286.610, 193.190
1287.820, 232.657
1289.029, 117.136
1290.239, 127.626
1291.448, 58.129
1292.656, 89.646
1293.865, 163.173
1295.073, 104.715
1296.282, 116.269
1297.490, 90.836
1298.698, 195.416
1299.906, 116.010
1301.113, 187.617
1302.320, 154.237
1303.528, 132.870
1304.735, 148.517
1305.942, 106.177
1307.148, 173.851
1308.355, 202.539
1309.561, 192.241
1310.767, 111.958
1311.973, 134.688
1313.179, 58.434
1314.384, 69.711
1315.590, 17.970
1316.795, 123.761
1318.000, 99.568
1319.205, 207.391
1320.410, 191.230
1321.614, 117.085
1322.819, 160.957
1324.023, 209.846
1325.227, 125.752
1326.431, 164.675
1327.634, 111.616
1328.838, 196.574
1330.041, 133.550
1331.244, 216.544
1332.447, 109.559
1333.650, 151.591
1334.852, 138.643
1336.055, 154.627
1337.257, 76.718
1338.459, 185.831
1339.661, 210.965
1340.862, 156.122
1342.064, 99.299
1343.265, 131.499
1344.466, 205.721
1345.667, 204.965
1346.868, 147.234
1348.068, 170.526
1349.269, 92.844
1350.469, 183.187
1351.669, 179.557
1352.869, 244.953
1354.069, 198.377
1355.268, 202.830
1356.468, 188.314
1357.667, 239.830
1358.866, 166.375
1360.065, 255.077
1361.263, 263.685
1362.462, 176.476
1363.660, 184.151
1364.858, 233.876
1366.056, 212.642
1367.254, 230.445
1368.451, 190.419
1369.649, 155.336
1370.846, 212.083
1372.043, 151.832
1373.240, 137.581
1374.436, 206.308
1375.633, 288.008
1376.829, 128.696
1378.025, 90.455
1379.221, 195.054
1380.417, 228.086
1381.613, 246.161
1382.808, 260.314
1384.003, 244.505
1385.199, 237.625
1386.393, 217.281
1387.588, 218.306
1388.783, 154.660
1389.977, 194.040
1391.171, 152.444
1392.365, 200.872
1393.559, 177.321
1394.753, 122.792
1395.946, 175.288
1397.140, 103.806
1398.333, 126.347
1399.526, 98.912
1400.719, 145.501
1401.911, 136.114
1403.104, 165.751
1404.296, 113.414
1405.488, 274.101
1406.680, 120.812
1407.872, 74.549
1409.063, 227.312
1410.255, 97.100
1411.446, 196.914
1412.637, 141.753
1413.828, 180.619
1415.018, 169.512
1416.209, 110.431
1417.399, 127.376
1418.589, 178.349
1419.779, 123.348
1420.969, 110.375
1422.159, 177.429
1423.348, 147.510
1424.537, 155.620
1425.726, 87.756
1426.915, 148.919
1428.104, 150.111
1429.293, 174.331
1430.481, 182.456
1431.669, 178.853
1432.857, 196.156
1434.045, 224.485
1435.233, 273.841
1436.420, 220.223
1437.608, 210.630
1438.795, 261.062
1439.982, 252.517
1441.169, 206.972
1442.355, 238.422
1443.542, 249.891
1444.728, 225.376
1445.914, 268.874
1447.100, 245.389
1448.286, 297.923
1449.472, 139.477
1450.657, 252.054
1451.842, 224.674
1453.027, 232.342
1454.212, 272.060
1455.397, 193.823
1456.581, 265.634
1457.766, 230.492
1458.950, 268.399
1460.134, 295.355
1461.318, 149.361
1462.501, 202.418
1463.685, 274.526
1464.868, 124.687
1466.051, 247.900
1467.234, 156.170
1468.417, 99.493
1469.600, 137.874
1470.782, 170.313
1471.965, 89.812
1473.147, 117.370
1474.329, 220.990
1475.510, 79.674
1476.692, 43.424
1477.873, 113.239
1479.055, 111.125
1480.236, 212.084
1481.416, 199.861
1482.597, 230.233
1483.778, 177.438
1484.958, 112.736
1486.138, 45.136
1487.318, 43.383
1488.498, 108.258
1489.678, 91.989
1490.857, 88.841
1492.037, 211.819
1493.216, 129.931
1494.395, 137.180
1495.574, 110.576
1496.752, 19.129
1497.931, 111.847
1499.109, 22.743
1500.287, 34.830
1501.465, 44.874
1502.643, 37.644
1503.820, 9.901
1504.998, 140.427
1506.175, 38.732
1507.352, 133.348
1508.529, 181.301
1509.706, 38.632
1510.882, 142.378
1512.059, 77.809
1513.235, 105.146
1514.411, 53.461
1515.587, 55.705
1516.762, 39.463
1517.938, 47.136
1519.113, 0.046
1520.288, 0.000
##END=



