##NAMES=Gypsum
##RRUFFID=R040029
##IDEAL CHEMISTRY=CaS^6+^O_4_&#183;2H_2_O
##LOCALITY=Twin Buttes, Pima County, Arizona, USA
##OWNER=RRUFF
##SOURCE=University of Arizona Mineral Museum
##DESCRIPTION=Colorless prismatic crystal
##STATUS=The identification of this mineral has been confirmed by X-ray diffraction.
##URL=rruff.info/R040029
##PIN_ID=L00273
##ORIENTATION=Laser parallel to -a [-1 0 0]. Fiducial mark perpendicular to laser is parallel to b* (0 1 0)
80.823, 0.000
82.218, 0.199
83.614, 1.265
85.009, 2.632
86.404, 111.394
87.798, 115.570
89.193, 172.994
90.587, 135.437
91.981, 190.052
93.375, 231.241
94.768, 211.567
96.161, 229.695
97.554, 208.355
98.947, 301.325
100.340, 323.423
101.732, 451.502
103.124, 623.473
104.516, 864.234
105.908, 1333.709
107.300, 1517.848
108.691, 1376.588
110.082, 961.863
111.473, 584.609
112.864, 460.773
114.254, 432.310
115.644, 551.178
117.034, 627.341
118.424, 517.771
119.813, 607.454
121.203, 520.371
122.592, 477.503
123.981, 399.161
125.369, 404.973
126.758, 431.904
128.146, 496.102
129.534, 652.455
130.922, 595.142
132.309, 623.113
133.696, 547.270
135.083, 660.521
136.470, 746.899
137.857, 976.312
139.243, 1120.759
140.630, 1322.284
142.016, 1382.821
143.401, 1405.392
144.787, 1206.985
146.172, 1000.616
147.557, 738.260
148.942, 534.907
150.327, 430.564
151.711, 370.234
153.096, 389.912
154.480, 351.594
155.863, 350.281
157.247, 328.974
158.630, 378.275
160.013, 336.068
161.396, 446.771
162.779, 479.507
164.161, 605.291
165.544, 686.618
166.926, 845.189
168.308, 962.603
169.689, 1182.136
171.070, 1497.538
172.452, 1965.951
173.833, 2521.702
175.213, 3305.550
176.594, 3896.918
177.974, 4788.297
179.354, 4957.434
180.734, 4621.967
182.114, 3919.513
183.493, 3153.351
184.872, 2337.620
186.251, 1800.259
187.630, 1408.487
189.008, 1064.499
190.387, 824.965
191.765, 757.297
193.143, 565.623
194.520, 472.418
195.898, 434.793
197.275, 394.306
198.652, 384.235
200.029, 357.471
201.405, 365.896
202.782, 333.203
204.158, 350.573
205.534, 294.292
206.909, 257.786
208.285, 257.861
209.660, 300.280
211.035, 181.504
212.410, 201.092
213.784, 140.799
215.159, 93.380
216.533, 77.977
217.907, 80.589
219.281, 57.799
220.654, 48.432
222.027, 74.427
223.400, 4.083
224.773, 71.752
226.146, 6.435
227.518, 2.129
228.891, 20.836
230.263, 33.554
231.634, 64.285
233.006, 30.028
234.377, 3.212
235.748, 3.433
237.119, 15.362
238.490, 0.167
239.860, 9.984
241.231, 34.809
242.601, 1.644
243.970, 49.489
245.340, 29.346
246.709, 13.905
248.079, 31.720
249.448, 79.233
250.816, 14.521
252.185, 12.406
253.553, 4.495
254.921, 12.722
256.289, 13.934
257.657, 20.512
259.024, 48.049
260.391, 31.667
261.758, 21.805
263.125, 34.111
264.492, 25.075
265.858, 26.212
267.224, 5.308
268.590, 21.360
269.956, 47.624
271.321, 38.645
272.687, 9.700
274.052, 34.213
275.416, 24.219
276.781, 41.214
278.146, 17.833
279.510, 27.670
280.874, 23.494
282.237, 6.697
283.601, 34.094
284.964, 62.876
286.327, 50.343
287.690, 7.422
289.053, 12.177
290.416, 43.075
291.778, 5.660
293.140, 13.733
294.502, 12.015
295.863, 27.696
297.225, 23.592
298.586, 18.838
299.947, 41.455
301.308, 16.247
302.668, 63.205
304.029, 95.506
305.389, 48.812
306.749, 8.121
308.108, 43.433
309.468, 25.749
310.827, 41.068
312.186, 15.609
313.545, 25.711
314.903, 6.966
316.262, 3.356
317.620, 35.679
318.978, 35.006
320.336, 44.339
321.693, 105.675
323.051, 58.010
324.408, 6.348
325.765, 87.687
327.121, 0.972
328.478, 85.363
329.834, 64.659
331.190, 71.954
332.546, 12.253
333.902, 42.549
335.257, 58.851
336.612, 6.156
337.967, 31.444
339.322, 11.724
340.677, 35.007
342.031, 33.281
343.385, 59.534
344.739, 27.773
346.093, 39.006
347.446, 79.207
348.799, 63.408
350.153, 78.608
351.505, 112.809
352.858, 62.002
354.210, 69.191
355.563, 15.375
356.915, 70.562
358.267, 113.752
359.618, 22.949
360.969, 106.139
362.321, 133.340
363.672, 95.539
365.022, 59.743
366.373, 66.952
367.723, 147.162
369.073, 127.371
370.423, 209.585
371.773, 84.812
373.122, 88.037
374.471, 257.264
375.821, 93.494
377.169, 144.751
378.518, 157.013
379.866, 150.281
381.215, 241.552
382.563, 96.824
383.910, 153.596
385.258, 209.955
386.605, 250.383
387.952, 186.704
389.299, 232.014
390.646, 319.324
391.992, 250.641
393.339, 346.959
394.685, 380.282
396.031, 550.607
397.376, 468.798
398.722, 571.994
400.067, 637.338
401.412, 848.666
402.757, 1059.058
404.101, 1346.499
405.446, 1732.884
406.790, 2383.283
408.134, 3358.686
409.478, 4871.551
410.821, 6702.650
412.165, 7968.420
413.508, 8054.273
414.851, 6577.723
416.193, 4589.179
417.536, 3245.641
418.878, 2203.501
420.220, 1626.974
421.562, 1176.449
422.904, 928.929
424.245, 818.411
425.586, 566.896
426.927, 575.198
428.268, 487.432
429.609, 323.579
430.949, 275.006
432.289, 343.502
433.629, 313.004
434.969, 218.507
436.309, 222.250
437.648, 228.465
438.987, 178.813
440.326, 165.291
441.665, 195.276
443.003, 162.450
444.342, 138.910
445.680, 140.509
447.018, 145.605
448.355, 134.122
449.693, 73.967
451.030, 72.582
452.367, 141.107
453.704, 22.994
455.041, 66.516
456.377, 108.012
457.713, 37.756
459.049, 61.703
460.385, 35.346
461.721, 123.850
463.056, 8.009
464.391, 32.486
465.726, 110.981
467.061, 68.476
468.395, 95.666
469.730, 88.161
471.064, 82.656
472.398, 165.150
473.731, 126.153
475.065, 158.667
476.398, 117.070
477.731, 126.302
479.064, 131.797
480.397, 186.870
481.729, 252.364
483.062, 319.910
484.394, 412.352
485.725, 523.279
487.057, 678.773
488.389, 838.333
489.720, 1053.827
491.051, 1191.321
492.382, 1187.815
493.712, 1098.897
495.043, 868.412
496.373, 698.926
497.703, 561.744
499.032, 425.226
500.362, 343.230
501.691, 292.740
503.020, 212.229
504.349, 240.744
505.678, 155.145
507.007, 115.660
508.335, 31.175
509.663, 50.689
510.991, 163.205
512.319, 54.720
513.646, 108.237
514.973, 31.758
516.300, 47.787
517.627, 141.308
518.954, 31.153
520.280, 43.376
521.607, 27.317
522.933, 69.838
524.259, 44.592
525.584, 53.112
526.910, 90.632
528.235, 55.500
529.560, 72.020
530.885, 103.963
532.209, 74.481
533.534, 55.054
534.858, 44.571
536.182, 38.779
537.506, 88.293
538.829, 80.351
540.152, 54.864
541.476, 129.437
542.799, 4.947
544.121, 23.451
545.444, 19.762
546.766, 4.993
548.088, 34.545
549.410, 73.031
550.732, 51.069
552.053, 67.371
553.375, 53.853
554.696, 57.549
556.017, 101.029
557.337, 127.040
558.658, 92.516
559.978, 113.217
561.298, 178.215
562.618, 35.684
563.938, 59.355
565.257, 175.828
566.576, 55.290
567.895, 101.750
569.214, 141.655
570.533, 117.119
571.851, 118.594
573.170, 146.102
574.488, 136.585
575.805, 155.608
577.123, 72.553
578.440, 158.376
579.758, 128.852
581.075, 76.337
582.391, 178.805
583.708, 114.271
585.024, 158.732
586.341, 125.196
587.657, 172.661
588.972, 154.309
590.288, 148.135
591.603, 153.890
592.918, 139.575
594.233, 116.035
595.548, 134.492
596.863, 78.182
598.177, 98.674
599.491, 83.239
600.805, 42.713
602.119, 108.185
603.432, 121.755
604.746, 128.228
606.059, 184.357
607.372, 169.835
608.685, 178.417
609.997, 113.323
611.309, 136.797
612.621, 129.224
613.933, 239.815
615.245, 228.280
616.557, 251.860
617.868, 252.257
619.179, 307.722
620.490, 261.184
621.801, 341.492
623.111, 206.951
624.421, 284.405
625.731, 136.855
627.041, 175.302
628.351, 163.745
629.660, 103.184
630.970, 196.618
632.279, 34.054
633.588, 43.486
634.896, 13.919
636.205, 54.369
637.513, 5.791
638.821, 84.205
640.129, 142.613
641.437, 43.026
642.744, 103.425
644.051, 131.890
645.358, 114.282
646.665, 82.938
647.972, 52.374
649.278, 101.757
650.584, 154.009
651.890, 153.384
653.196, 93.756
654.502, 131.121
655.807, 105.543
657.113, 88.903
658.418, 156.438
659.722, 65.790
661.027, 87.137
662.331, 98.479
663.636, 94.817
664.940, 47.150
666.244, 142.542
667.547, 77.865
668.851, 192.307
670.154, 173.900
671.457, 87.036
672.760, 138.338
674.062, 67.647
675.365, 17.941
676.667, 52.227
677.969, 22.438
679.271, 103.814
680.572, 22.064
681.874, 109.309
683.175, 197.546
684.476, 16.777
685.777, 50.000
687.077, 22.783
688.378, 65.407
689.678, 32.593
690.978, 50.773
692.278, 75.053
693.577, 83.067
694.877, 9.182
696.176, 56.286
697.475, 32.385
698.774, 61.478
700.072, 63.070
701.371, 2.071
702.669, 13.002
703.967, 18.319
705.265, 128.046
706.562, 13.067
707.860, 39.081
709.157, 129.432
710.454, 20.436
711.751, 101.433
713.047, 26.575
714.344, 61.391
715.640, 85.649
716.936, 42.746
718.232, 80.122
719.527, 20.087
720.823, 37.945
722.118, 65.875
723.413, 94.970
724.708, 7.812
726.002, 66.647
727.297, 60.477
728.591, 33.302
729.885, 145.943
731.179, 74.067
732.472, 42.878
733.766, 12.684
735.059, 59.483
736.352, 41.277
737.645, 111.066
738.937, 125.851
740.230, 51.630
741.522, 105.407
742.814, 112.178
744.106, 20.019
745.397, 102.779
746.689, 2.464
747.980, 74.279
749.271, 44.019
750.562, 132.753
751.853, 15.484
753.143, 39.208
754.433, 25.926
755.723, 44.640
757.013, 68.350
758.303, 25.054
759.592, 123.754
760.881, 0.551
762.170, 90.133
763.459, 8.187
764.748, 2.479
766.036, 80.135
767.325, 27.786
768.613, 21.434
769.901, 65.076
771.188, 41.287
772.476, 13.119
773.763, 67.938
775.050, 50.552
776.337, 59.162
777.624, 84.772
778.910, 72.378
780.196, 138.981
781.482, 122.330
782.768, 134.534
784.054, 113.762
785.339, 119.347
786.625, 99.929
787.910, 54.486
789.195, 76.059
790.479, 40.292
791.764, 54.856
793.048, 44.839
794.332, 121.395
795.616, 42.947
796.900, 94.496
798.183, 29.040
799.467, 63.580
800.750, 2.116
802.033, 33.646
803.316, 153.171
804.598, 74.307
805.880, 138.168
807.163, 122.641
808.445, 55.109
809.726, 30.575
811.008, 84.035
812.289, 7.492
813.570, 61.944
814.851, 91.392
816.132, 56.836
817.413, 105.277
818.693, 74.714
819.973, 28.147
821.253, 48.577
822.533, 13.630
823.813, 1.576
825.092, 13.161
826.371, 45.243
827.650, 40.643
828.929, 80.040
830.208, 93.109
831.486, 29.499
832.764, 75.465
834.042, 59.848
835.320, 38.994
836.598, 139.371
837.875, 90.745
839.152, 116.766
840.429, 133.134
841.706, 107.074
842.983, 85.436
844.259, 106.739
845.536, 95.095
846.812, 138.758
848.088, 135.778
849.363, 117.920
850.639, 127.278
851.914, 111.581
853.189, 46.959
854.464, 124.339
855.739, 138.945
857.013, 73.615
858.288, 83.010
859.562, 120.469
860.836, 163.556
862.110, 10.985
863.383, 126.469
864.656, 102.707
865.930, 69.159
867.203, 156.079
868.475, 85.552
869.748, 35.798
871.020, 65.751
872.292, 5.771
873.564, 26.503
874.836, 1.026
876.108, 10.542
877.379, 65.941
878.650, 116.986
879.922, 23.479
881.192, 19.972
882.463, 63.565
883.733, 13.094
885.004, 46.375
886.274, 65.838
887.544, 51.964
888.813, 71.435
890.083, 49.893
891.352, 61.319
892.621, 30.852
893.890, 65.342
895.159, 19.832
896.427, 0.677
897.695, 103.645
898.964, 81.150
900.232, 81.773
901.499, 28.281
902.767, 41.782
904.034, 97.288
905.301, 107.564
906.568, 115.042
907.835, 136.447
909.102, 76.946
910.368, 57.449
911.634, 91.849
912.900, 105.353
914.166, 88.210
915.432, 119.826
916.697, 29.114
917.962, 121.189
919.227, 119.694
920.492, 58.128
921.757, 82.515
923.021, 67.160
924.285, 62.029
925.550, 85.725
926.813, 71.237
928.077, 117.750
929.341, 109.262
930.604, 130.777
931.867, 148.292
933.130, 114.807
934.393, 199.322
935.655, 54.836
936.918, 216.353
938.180, 212.867
939.442, 108.383
940.703, 197.899
941.965, 134.416
943.226, 83.911
944.488, 127.428
945.749, 167.946
947.009, 93.464
948.270, 110.977
949.530, 97.496
950.791, 154.948
952.051, 198.466
953.311, 43.729
954.570, 171.208
955.830, 140.735
957.089, 197.389
958.348, 108.915
959.607, 149.440
960.866, 65.967
962.124, 104.438
963.383, 117.321
964.641, 203.312
965.899, 176.838
967.156, 224.363
968.414, 259.886
969.671, 286.409
970.928, 197.932
972.185, 231.390
973.442, 311.914
974.699, 320.311
975.955, 437.553
977.211, 319.245
978.468, 486.767
979.723, 383.278
980.979, 421.797
982.234, 629.315
983.490, 442.779
984.745, 667.305
986.000, 745.829
987.254, 873.350
988.509, 1090.925
989.763, 1122.446
991.017, 1221.969
992.271, 1358.490
993.525, 1458.020
994.779, 1659.549
996.032, 2051.238
997.285, 2540.906
998.538, 2921.835
999.791, 4330.565
1001.044, 5541.972
1002.296, 8268.518
1003.548, 13206.660
1004.800, 23148.479
1006.052, 41194.949
1007.304, 55823.062
1008.555, 51462.734
1009.807, 32097.951
1011.058, 17524.926
1012.309, 10075.864
1013.559, 6342.264
1014.810, 4296.067
1016.060, 3191.797
1017.310, 2491.734
1018.560, 1973.693
1019.810, 1678.492
1021.060, 1389.284
1022.309, 1115.098
1023.558, 952.261
1024.807, 812.545
1026.056, 822.271
1027.305, 687.184
1028.553, 634.665
1029.801, 562.016
1031.049, 468.901
1032.297, 435.139
1033.545, 445.245
1034.793, 395.900
1036.040, 302.796
1037.287, 376.639
1038.534, 337.622
1039.781, 458.589
1041.027, 227.538
1042.274, 209.960
1043.520, 281.225
1044.766, 223.809
1046.012, 162.955
1047.257, 155.866
1048.503, 243.753
1049.748, 105.706
1050.993, 217.595
1052.238, 191.128
1053.483, 194.651
1054.727, 180.178
1055.971, 167.533
1057.216, 146.188
1058.459, 154.681
1059.703, 176.221
1060.947, 193.820
1062.190, 248.638
1063.433, 174.295
1064.676, 259.946
1065.919, 193.466
1067.162, 324.291
1068.404, 101.011
1069.646, 97.005
1070.888, 210.420
1072.130, 91.025
1073.372, 252.641
1074.613, 214.134
1075.855, 175.958
1077.096, 168.712
1078.337, 207.356
1079.578, 134.404
1080.818, 200.864
1082.059, 120.236
1083.299, 166.848
1084.539, 144.563
1085.779, 191.192
1087.018, 189.488
1088.258, 214.153
1089.497, 181.868
1090.736, 150.133
1091.975, 187.787
1093.213, 118.116
1094.452, 223.346
1095.690, 163.802
1096.928, 213.499
1098.166, 155.922
1099.404, 180.121
1100.642, 163.293
1101.879, 212.969
1103.116, 200.119
1104.353, 255.487
1105.590, 193.013
1106.827, 341.297
1108.063, 223.696
1109.299, 316.462
1110.536, 344.898
1111.771, 354.078
1113.007, 452.284
1114.243, 503.561
1115.478, 472.710
1116.713, 533.743
1117.948, 453.837
1119.183, 363.240
1120.418, 356.686
1121.652, 575.964
1122.886, 436.931
1124.120, 433.623
1125.354, 322.563
1126.588, 324.986
1127.821, 271.896
1129.055, 274.823
1130.288, 210.710
1131.521, 155.583
1132.753, 162.487
1133.986, 227.330
1135.218, 326.166
1136.450, 109.384
1137.682, 360.254
1138.914, 131.401
1140.146, 128.442
1141.377, 197.191
1142.609, 165.187
1143.840, 89.443
1145.071, 94.334
1146.301, 38.520
1147.532, 86.356
1148.762, 16.752
1149.992, 18.790
1151.222, 44.063
1152.452, 66.739
1153.682, 128.627
1154.911, 14.134
1156.140, 81.790
1157.369, 42.763
1158.598, 38.905
1159.827, 58.892
1161.055, 103.455
1162.284, 89.291
1163.512, 107.238
1164.740, 56.520
1165.967, 66.847
1167.195, 93.555
1168.422, 1.029
1169.650, 102.073
1170.877, 15.217
1172.103, 17.382
1173.330, 2.221
1174.557, 33.270
1175.783, 8.562
1177.009, 13.223
1178.235, 83.845
1179.461, 22.830
1180.686, 71.646
1181.912, 61.534
1183.137, 86.763
1184.362, 98.112
1185.587, 63.570
1186.811, 66.289
1188.036, 69.443
1189.260, 36.862
1190.484, 23.041
1191.708, 153.040
1192.932, 34.926
1194.155, 30.006
1195.378, 77.002
1196.602, 59.506
1197.825, 74.163
1199.047, 190.125
1200.270, 160.535
1201.492, 156.237
1202.715, 194.195
1203.937, 164.045
1205.159, 168.487
1206.380, 145.796
1207.602, 129.518
1208.823, 75.673
1210.044, 111.917
1211.265, 112.522
1212.486, 141.723
1213.707, 67.902
1214.927, 91.321
1216.147, 0.455
1217.367, 234.554
1218.587, 112.634
1219.807, 107.691
1221.027, 137.727
1222.246, 56.741
1223.465, 70.732
1224.684, 94.702
1225.903, 26.648
1227.121, 133.584
1228.340, 152.485
1229.558, 92.376
1230.776, 65.318
1231.994, 83.165
1233.212, 201.990
1234.429, 70.083
1235.646, 55.863
1236.864, 210.617
1238.081, 64.354
1239.297, 139.069
1240.514, 220.766
1241.730, 103.441
1242.947, 50.174
1244.163, 105.801
1245.378, 156.404
1246.594, 175.985
1247.810, 14.266
1249.025, 187.522
1250.240, 105.267
1251.455, 64.995
1252.670, 124.462
1253.885, 94.011
1255.099, 30.432
1256.313, 78.831
1257.527, 137.211
1258.741, 127.570
1259.955, 107.909
1261.168, 134.705
1262.382, 164.519
1263.595, 141.784
1264.808, 64.026
1266.021, 54.245
1267.233, 87.540
1268.446, 190.712
1269.658, 22.842
1270.870, 233.944
1272.082, 48.999
1273.294, 153.024
1274.505, 175.021
1275.716, 161.982
1276.928, 198.268
1278.139, 145.821
1279.349, 158.703
1280.560, 154.562
1281.770, 59.400
1282.981, 138.131
1284.191, 67.893
1285.401, 89.629
1286.610, 168.343
1287.820, 92.033
1289.029, 0.303
1290.239, 108.178
1291.448, 44.652
1292.656, 111.868
1293.865, 94.259
1295.073, 67.953
1296.282, 113.925
1297.490, 81.394
1298.698, 116.604
1299.906, 56.139
1301.113, 41.988
1302.320, 4.324
1303.528, 35.057
1304.735, 62.987
1305.942, 15.996
1307.148, 33.144
1308.355, 0.206
1309.561, 102.319
1310.767, 11.799
1311.973, 48.050
1313.179, 28.967
1314.384, 224.026
1315.590, 9.015
1316.795, 79.417
1318.000, 21.147
1319.205, 92.745
1320.410, 58.256
1321.614, 2.422
1322.819, 93.694
1324.023, 79.407
1325.227, 188.744
1326.431, 93.367
1327.634, 80.071
1328.838, 39.536
1330.041, 115.278
1331.244, 164.754
1332.447, 12.226
1333.650, 104.692
1334.852, 38.667
1336.055, 14.775
1337.257, 30.545
1338.459, 0.730
1339.661, 0.132
1340.862, 94.464
1342.064, 51.783
1343.265, 1.849
1344.466, 144.855
1345.667, 24.548
1346.868, 115.221
1348.068, 76.891
1349.269, 70.552
1350.469, 208.203
1351.669, 75.791
1352.869, 40.303
1354.069, 222.580
1355.268, 9.003
1356.468, 141.419
1357.667, 188.951
1358.866, 31.171
1360.065, 295.485
1361.263, 180.531
1362.462, 232.129
1363.660, 320.529
1364.858, 207.911
1366.056, 139.422
1367.254, 239.600
1368.451, 199.843
1369.649, 91.195
1370.846, 86.147
1372.043, 136.821
1373.240, 164.360
1374.436, 72.773
1375.633, 183.101
1376.829, 151.521
1378.025, 20.913
1379.221, 181.716
1380.417, 156.268
1381.613, 139.978
1382.808, 179.972
1384.003, 181.279
1385.199, 121.047
1386.393, 64.411
1387.588, 170.104
1388.783, 96.423
1389.977, 128.293
1391.171, 38.654
1392.365, 21.068
1393.559, 26.619
1394.753, 24.931
1395.946, 85.789
1397.140, 55.615
1398.333, 196.680
1399.526, 178.250
1400.719, 118.815
1401.911, 231.299
1403.104, 181.320
1404.296, 182.270
1405.488, 216.386
1406.680, 147.599
1407.872, 183.111
1409.063, 217.930
1410.255, 49.644
1411.446, 322.502
1412.637, 114.744
1413.828, 199.768
1415.018, 183.244
1416.209, 183.061
1417.399, 220.247
1418.589, 300.885
1419.779, 292.630
1420.969, 255.063
1422.159, 184.808
1423.348, 263.111
1424.537, 266.127
1425.726, 190.240
1426.915, 258.893
1428.104, 187.290
1429.293, 214.913
1430.481, 179.907
1431.669, 303.399
1432.857, 229.121
1434.045, 217.341
1435.233, 331.880
1436.420, 328.565
1437.608, 246.415
1438.795, 257.999
1439.982, 332.299
1441.169, 261.776
1442.355, 249.705
1443.542, 338.626
1444.728, 220.531
1445.914, 287.422
1447.100, 376.273
1448.286, 314.113
1449.472, 268.772
1450.657, 431.979
1451.842, 433.738
1453.027, 446.471
1454.212, 466.172
1455.397, 464.606
1456.581, 482.379
1457.766, 441.063
1458.950, 482.621
1460.134, 412.957
1461.318, 257.506
1462.501, 205.011
1463.685, 461.492
1464.868, 204.968
1466.051, 300.450
1467.234, 247.662
1468.417, 171.221
1469.600, 115.934
1470.782, 301.733
1471.965, 2.627
1473.147, 208.562
1474.329, 180.598
1475.510, 101.752
1476.692, 227.942
1477.873, 262.200
1479.055, 174.500
1480.236, 434.833
1481.416, 67.207
1482.597, 302.624
1483.778, 231.069
1484.958, 288.546
1486.138, 109.062
1487.318, 357.647
1488.498, 267.286
1489.678, 205.996
1490.857, 215.839
1492.037, 214.805
1493.216, 195.884
1494.395, 218.092
1495.574, 242.457
1496.752, 82.968
1497.931, 166.011
1499.109, 112.790
1500.287, 100.725
1501.465, 133.560
1502.643, 47.120
1503.820, 156.627
1504.998, 125.378
1506.175, 125.409
1507.352, 87.750
1508.529, 119.435
1509.706, 162.502
1510.882, 141.069
1512.059, 152.160
1513.235, 54.623
1514.411, 10.956
1515.587, 235.358
1516.762, 127.776
1517.938, 246.100
1519.113, 151.288
1520.288, 27.120
1521.463, 0.000
##END=



