##NAMES=Gypsum
##RRUFFID=R040029
##IDEAL CHEMISTRY=CaS^6+^O_4_&#183;2H_2_O
##LOCALITY=Twin Buttes, Pima County, Arizona, USA
##OWNER=RRUFF
##SOURCE=University of Arizona Mineral Museum
##DESCRIPTION=Colorless prismatic crystal
##STATUS=The identification of this mineral has been confirmed by X-ray diffraction.
##URL=rruff.info/R040029
##PIN_ID=L00233
##ORIENTATION=Laser parallel to [-1 0 -1]. Fiducial mark perpendicular to laser is parallel to -b* (0 -1 0)
94.768, 0.000
96.161, 64.150
97.554, 62.816
98.947, 128.536
100.340, 58.074
101.732, 129.787
103.124, 213.540
104.516, 353.973
105.908, 494.539
107.300, 371.852
108.691, 522.611
110.082, 379.520
111.473, 362.341
112.864, 208.647
114.254, 336.447
115.644, 396.822
117.034, 393.368
118.424, 132.885
119.813, 205.532
121.203, 145.311
122.592, 79.989
123.981, 200.568
125.369, 20.547
126.758, 97.618
128.146, 55.895
129.534, 281.071
130.922, 126.408
132.309, 156.936
133.696, 28.835
135.083, 255.992
136.470, 150.385
137.857, 307.029
139.243, 327.849
140.630, 210.654
142.016, 254.542
143.401, 237.721
144.787, 226.872
146.172, 175.019
147.557, 98.165
148.942, 98.283
150.327, 40.381
151.711, 25.459
153.096, 53.887
154.480, 124.783
155.863, 170.994
157.247, 233.200
158.630, 390.499
160.013, 505.881
161.396, 558.256
162.779, 529.506
164.161, 380.774
165.544, 323.053
166.926, 303.310
168.308, 235.717
169.689, 224.710
171.070, 385.882
172.452, 358.348
173.833, 486.343
175.213, 723.076
176.594, 697.937
177.974, 923.700
179.354, 922.445
180.734, 776.044
182.114, 555.112
183.493, 601.677
184.872, 400.250
186.251, 382.833
187.630, 186.021
189.008, 163.303
190.387, 189.511
191.765, 149.592
193.143, 167.053
194.520, 157.782
195.898, 155.981
197.275, 146.590
198.652, 210.005
200.029, 195.581
201.405, 176.171
202.782, 133.845
204.158, 411.530
205.534, 500.230
206.909, 454.942
208.285, 553.663
209.660, 618.394
211.035, 551.915
212.410, 428.720
213.784, 405.396
215.159, 295.093
216.533, 316.209
217.907, 197.889
219.281, 144.578
220.654, 44.268
222.027, 73.167
223.400, 158.755
224.773, 116.346
226.146, 42.036
227.518, 86.590
228.891, 36.762
230.263, 10.124
231.634, 148.742
233.006, 86.324
234.377, 88.607
235.748, 31.177
237.119, 29.914
238.490, 26.341
239.860, 0.064
241.231, 58.700
242.601, 18.663
243.970, 39.978
245.340, 11.397
246.709, 29.711
248.079, 46.975
249.448, 34.340
250.816, 80.355
252.185, 105.052
253.553, 65.248
254.921, 72.437
256.289, 28.113
257.657, 90.763
259.024, 40.548
260.391, 146.043
261.758, 14.993
263.125, 116.173
264.492, 138.517
265.858, 94.010
267.224, 85.545
268.590, 3.816
269.956, 227.893
271.321, 52.663
272.687, 58.488
274.052, 62.359
275.416, 73.262
276.781, 66.201
278.146, 26.828
279.510, 67.166
280.874, 4.814
282.237, 131.225
283.601, 8.716
284.964, 84.645
286.327, 16.422
287.690, 2.498
289.053, 46.590
290.416, 68.503
291.778, 113.612
293.140, 49.241
294.502, 3.636
295.863, 76.547
297.225, 93.678
298.586, 9.843
299.947, 60.978
301.308, 1.887
302.668, 45.244
304.029, 137.374
305.389, 113.502
306.749, 99.628
308.108, 87.975
309.468, 80.333
310.827, 159.209
312.186, 96.320
313.545, 103.573
314.903, 166.679
316.262, 119.780
317.620, 98.878
318.978, 153.971
320.336, 133.061
321.693, 98.144
323.051, 234.224
324.408, 30.699
325.765, 210.359
327.121, 22.605
328.478, 78.415
329.834, 102.432
331.190, 62.443
332.546, 26.449
333.902, 135.441
335.257, 1.588
336.612, 37.357
337.967, 100.299
339.322, 57.207
340.677, 95.113
342.031, 30.998
343.385, 73.881
344.739, 102.718
346.093, 13.450
347.446, 76.627
348.799, 75.167
350.153, 106.959
351.505, 102.736
352.858, 97.508
354.210, 117.235
355.563, 28.957
356.915, 5.322
358.267, 184.389
359.618, 31.093
360.969, 89.794
362.321, 64.487
363.672, 23.180
365.022, 109.867
366.373, 34.611
367.723, 132.292
369.073, 224.971
370.423, 143.646
371.773, 0.682
373.122, 71.980
374.471, 292.621
375.821, 30.245
377.169, 317.921
378.518, 65.621
379.866, 41.370
381.215, 291.062
382.563, 55.727
383.910, 124.638
385.258, 240.312
386.605, 196.920
387.952, 93.950
389.299, 208.570
390.646, 243.304
391.992, 226.300
393.339, 310.927
394.685, 239.268
396.031, 566.919
397.376, 334.559
398.722, 579.206
400.067, 532.849
401.412, 642.733
402.757, 976.350
404.101, 1031.009
405.446, 1198.882
406.790, 1761.565
408.134, 2469.444
409.478, 3657.760
410.821, 4829.431
412.165, 5939.490
413.508, 6168.162
414.851, 5122.830
416.193, 3623.286
417.536, 2535.955
418.878, 1886.066
420.220, 1374.879
421.562, 835.552
422.904, 887.461
424.245, 698.115
425.586, 600.767
426.927, 539.412
428.268, 424.894
429.609, 249.529
430.949, 311.896
432.289, 414.521
433.629, 171.140
434.969, 311.752
436.309, 290.357
437.648, 186.956
438.987, 263.604
440.326, 90.723
441.665, 117.299
443.003, 211.461
444.342, 138.022
445.680, 222.958
447.018, 192.520
448.355, 75.059
449.693, 110.219
451.030, 95.741
452.367, 135.257
453.704, 28.233
455.041, 95.239
456.377, 59.167
457.713, 154.622
459.049, 66.068
460.385, 147.472
461.721, 186.901
463.056, 97.788
464.391, 110.199
465.726, 280.601
467.061, 205.993
468.395, 54.623
469.730, 281.706
471.064, 181.027
472.398, 304.339
473.731, 50.642
475.065, 266.939
476.398, 168.227
477.731, 410.505
479.064, 277.774
480.397, 376.035
481.729, 538.304
483.062, 416.562
484.394, 712.814
485.725, 804.382
487.057, 1163.632
488.389, 1491.652
489.720, 1818.883
491.051, 2070.105
492.382, 2175.318
493.712, 2076.543
495.043, 1626.769
496.373, 1356.929
497.703, 1007.135
499.032, 871.332
500.362, 673.521
501.691, 685.699
503.020, 415.866
504.349, 380.026
505.678, 399.177
507.007, 294.359
508.335, 369.551
509.663, 212.674
510.991, 393.788
512.319, 297.894
513.646, 322.990
514.973, 231.077
516.300, 310.080
517.627, 224.569
518.954, 97.631
520.280, 185.626
521.607, 176.669
522.933, 225.702
524.259, 240.477
525.584, 72.493
526.910, 201.470
528.235, 157.467
529.560, 313.455
530.885, 261.029
532.209, 265.837
533.534, 175.958
534.858, 203.910
536.182, 160.687
537.506, 93.620
538.829, 81.442
540.152, 94.351
541.476, 202.269
542.799, 69.838
544.121, 88.009
545.444, 142.018
546.766, 43.906
548.088, 251.701
549.410, 77.484
550.732, 184.259
552.053, 127.054
553.375, 73.187
554.696, 171.027
556.017, 188.708
557.337, 158.000
558.658, 147.657
559.978, 90.219
561.298, 211.953
562.618, 13.575
563.938, 191.520
565.257, 203.448
566.576, 19.190
567.895, 253.995
569.214, 277.535
570.533, 188.064
571.851, 158.383
573.170, 268.895
574.488, 117.649
575.805, 158.572
577.123, 26.637
578.440, 105.986
579.758, 338.624
581.075, 82.043
582.391, 310.448
583.708, 158.840
585.024, 249.221
586.341, 301.587
587.657, 407.964
588.972, 332.329
590.288, 325.592
591.603, 201.022
592.918, 193.351
594.233, 241.667
595.548, 203.969
596.863, 129.365
598.177, 253.675
599.491, 194.946
600.805, 219.283
602.119, 149.583
603.432, 302.042
604.746, 280.292
606.059, 271.643
607.372, 145.866
608.685, 358.172
609.997, 158.760
611.309, 399.947
612.621, 289.441
613.933, 331.605
615.245, 301.704
616.557, 505.979
617.868, 382.076
619.179, 544.261
620.490, 344.367
621.801, 761.560
623.111, 561.644
624.421, 857.718
625.731, 503.777
627.041, 706.603
628.351, 456.793
629.660, 250.818
630.970, 624.905
632.279, 332.893
633.588, 252.883
634.896, 307.861
636.205, 444.899
637.513, 241.854
638.821, 461.032
640.129, 465.964
641.437, 545.138
642.744, 390.047
644.051, 418.860
645.358, 593.758
646.665, 645.654
647.972, 416.731
649.278, 498.604
650.584, 365.750
651.890, 707.598
653.196, 479.437
654.502, 625.267
655.807, 278.086
657.113, 396.894
658.418, 692.689
659.722, 429.473
661.027, 439.244
662.331, 440.006
663.636, 642.756
664.940, 415.504
666.244, 829.264
667.547, 933.016
668.851, 1357.756
670.154, 1157.484
671.457, 941.203
672.760, 758.908
674.062, 472.605
675.365, 423.299
676.667, 299.980
677.969, 266.652
679.271, 309.312
680.572, 201.965
681.874, 282.605
683.175, 331.176
684.476, 205.797
685.777, 275.406
687.077, 127.006
688.378, 279.594
689.678, 208.178
690.978, 243.754
692.278, 174.682
693.577, 320.764
694.877, 22.166
696.176, 261.498
697.475, 17.873
698.774, 155.258
700.072, 121.381
701.371, 79.684
702.669, 37.963
703.967, 139.939
705.265, 288.238
706.562, 212.402
707.860, 86.316
709.157, 265.895
710.454, 97.623
711.751, 277.506
713.047, 20.373
714.344, 189.715
715.640, 185.207
716.936, 2.562
718.232, 161.504
719.527, 24.469
720.823, 25.393
722.118, 66.303
723.413, 43.500
724.708, 162.393
726.002, 134.277
727.297, 28.846
728.591, 191.000
729.885, 39.840
731.179, 24.428
732.472, 26.373
733.766, 49.719
735.059, 42.352
736.352, 161.123
737.645, 107.641
738.937, 254.400
740.230, 240.289
741.522, 245.496
742.814, 220.652
744.106, 260.422
745.397, 179.156
746.689, 235.984
747.980, 155.607
749.271, 140.326
750.562, 97.039
751.853, 56.746
753.143, 73.393
754.433, 90.092
755.723, 60.783
757.013, 66.150
758.303, 24.152
759.592, 70.828
760.881, 48.500
762.170, 116.166
763.459, 51.828
764.748, 1.514
766.036, 161.135
767.325, 13.221
768.613, 148.428
769.901, 164.070
771.188, 36.713
772.476, 217.348
773.763, 50.980
775.050, 204.609
776.337, 42.236
777.624, 199.857
778.910, 139.479
780.196, 195.092
781.482, 66.705
782.768, 24.338
784.054, 128.965
785.339, 41.592
786.625, 24.787
787.910, 174.822
789.195, 104.430
790.479, 39.033
791.764, 98.637
793.048, 78.766
794.332, 153.795
795.616, 0.645
796.900, 165.912
798.183, 75.531
799.467, 115.990
800.750, 129.520
802.033, 3.047
803.316, 305.572
804.598, 131.904
805.880, 324.562
807.163, 212.025
808.445, 195.490
809.726, 78.955
811.008, 115.422
812.289, 110.932
813.570, 282.441
814.851, 138.953
816.132, 180.209
817.413, 86.990
818.693, 157.510
819.973, 108.051
821.253, 188.590
822.533, 188.127
823.813, 229.664
825.092, 88.201
826.371, 68.736
827.650, 109.271
828.929, 190.805
830.208, 248.338
831.486, 258.410
832.764, 288.484
834.042, 229.938
835.320, 302.467
836.598, 207.996
837.875, 232.527
839.152, 143.057
840.429, 179.326
841.706, 331.080
842.983, 179.609
844.259, 364.137
845.536, 226.666
846.812, 479.217
848.088, 216.744
849.363, 516.377
850.639, 391.908
851.914, 170.430
853.189, 333.967
854.464, 429.520
855.739, 590.902
857.013, 627.100
858.288, 449.982
859.562, 634.588
860.836, 455.199
862.110, 299.787
863.383, 619.404
864.656, 301.531
865.930, 446.186
867.203, 368.219
868.475, 356.879
869.748, 218.629
871.020, 226.199
872.292, 217.875
873.564, 220.248
874.836, 211.018
876.108, 225.863
877.379, 193.697
878.650, 256.453
879.922, 263.246
881.192, 272.951
882.463, 211.057
883.733, 191.639
885.004, 180.061
886.274, 124.604
887.544, 275.291
888.813, 143.969
890.083, 132.869
891.352, 421.805
892.621, 162.775
893.890, 225.754
895.159, 138.742
896.427, 3.246
897.695, 458.789
898.964, 198.830
900.232, 361.898
901.499, 215.971
902.767, 246.051
904.034, 109.135
905.301, 327.121
906.568, 429.191
907.835, 327.293
909.102, 218.328
910.368, 172.391
911.634, 313.320
912.900, 225.459
914.166, 455.520
915.432, 379.707
916.697, 404.350
917.962, 449.631
919.227, 306.842
920.492, 313.229
921.757, 312.141
923.021, 275.676
924.285, 289.777
925.550, 309.023
926.813, 210.262
928.077, 178.521
929.341, 160.689
930.604, 378.957
931.867, 200.232
933.130, 141.510
934.393, 610.797
935.655, 145.930
936.918, 343.225
938.180, 81.449
939.442, 126.619
940.703, 307.926
941.965, 296.236
943.226, 342.730
944.488, 349.461
945.749, 327.039
947.009, 262.117
948.270, 212.189
949.530, 135.232
950.791, 118.271
952.051, 189.074
953.311, 112.727
954.570, 309.318
955.830, 363.670
957.089, 345.033
958.348, 298.387
959.607, 365.400
960.866, 241.289
962.124, 225.656
963.383, 403.270
964.641, 261.211
965.899, 277.805
967.156, 370.840
968.414, 257.137
969.671, 293.891
970.928, 264.746
972.185, 255.154
973.442, 209.562
974.699, 437.973
975.955, 445.387
977.211, 141.801
978.468, 448.215
979.723, 423.629
980.979, 341.043
982.234, 808.455
983.490, 262.867
984.745, 735.277
986.000, 785.688
987.254, 630.096
988.509, 1053.506
989.763, 1082.918
991.017, 1138.332
992.271, 1157.744
993.525, 1279.154
994.779, 1489.566
996.032, 1698.979
997.285, 2359.389
998.538, 2553.850
999.791, 3917.312
1001.044, 4666.902
1002.296, 7087.031
1003.548, 10654.994
1004.800, 18336.205
1006.052, 32497.541
1007.304, 43057.008
1008.555, 42107.258
1009.807, 26564.953
1011.058, 14471.902
1012.309, 8162.490
1013.559, 5094.701
1014.810, 3496.236
1016.060, 2953.369
1017.310, 2223.939
1018.560, 1668.762
1019.810, 1549.686
1021.060, 1340.951
1022.309, 959.408
1023.558, 1159.688
1024.807, 835.244
1026.056, 762.594
1027.305, 547.383
1028.553, 466.893
1029.801, 409.750
1031.049, 374.324
1032.297, 372.031
1033.545, 333.820
1034.793, 417.092
1036.040, 428.715
1037.287, 379.869
1038.534, 508.299
1039.781, 616.645
1041.027, 274.564
1042.274, 386.277
1043.520, 543.945
1044.766, 279.098
1046.012, 199.846
1047.257, 235.096
1048.503, 538.318
1049.748, 161.969
1050.993, 373.229
1052.238, 335.740
1053.483, 229.012
1054.727, 199.539
1055.971, 473.004
1057.216, 289.496
1058.459, 430.357
1059.703, 194.820
1060.947, 327.906
1062.190, 422.053
1063.433, 149.418
1064.676, 320.115
1065.919, 139.285
1067.162, 633.164
1068.404, 375.861
1069.646, 283.545
1070.888, 470.383
1072.130, 283.867
1073.372, 395.986
1074.613, 591.707
1075.855, 110.166
1077.096, 253.146
1078.337, 560.381
1079.578, 390.311
1080.818, 567.119
1082.059, 307.320
1083.299, 546.102
1084.539, 488.234
1085.779, 257.369
1087.018, 188.457
1088.258, 225.814
1089.497, 274.293
1090.736, 325.322
1091.975, 171.127
1093.213, 107.113
1094.452, 365.078
1095.690, 5.613
1096.928, 156.316
1098.166, 2.879
1099.404, 164.000
1100.642, 36.129
1101.879, 80.143
1103.116, 50.945
1104.353, 156.201
1105.590, 18.518
1106.827, 270.230
1108.063, 5.270
1109.299, 37.205
1110.536, 236.963
1111.771, 178.107
1113.007, 34.457
1114.243, 120.475
1115.478, 17.812
1116.713, 26.570
1117.948, 90.619
1119.183, 66.818
1120.418, 203.262
1121.652, 484.920
1122.886, 643.660
1124.120, 648.787
1125.354, 293.963
1126.588, 492.438
1127.821, 375.699
1129.055, 945.850
1130.288, 1183.967
1131.521, 1530.203
1132.753, 2041.305
1133.986, 2748.588
1135.218, 3333.557
1136.450, 2775.037
1137.682, 2840.945
1138.914, 1518.352
1140.146, 1180.701
1141.377, 863.146
1142.609, 621.160
1143.840, 489.328
1145.071, 457.018
1146.301, 281.324
1147.532, 246.506
1148.762, 180.244
1149.992, 51.643
1151.222, 93.504
1152.452, 34.693
1153.682, 14.582
1154.911, 251.621
1156.140, 34.385
1157.369, 64.209
1158.598, 109.713
1159.827, 209.695
1161.055, 67.479
1162.284, 232.115
1163.512, 99.203
1164.740, 260.383
1165.967, 179.199
1167.195, 154.814
1168.422, 110.812
1169.650, 65.301
1170.877, 89.188
1172.103, 47.643
1173.330, 90.533
1174.557, 224.195
1175.783, 146.818
1177.009, 86.602
1178.235, 261.873
1179.461, 31.312
1180.686, 63.297
1181.912, 103.191
1183.137, 275.449
1184.362, 135.688
1185.587, 9.021
1186.811, 87.084
1188.036, 78.684
1189.260, 75.258
1190.484, 40.242
1191.708, 133.607
1192.932, 43.771
1194.155, 20.352
1195.378, 112.111
1196.602, 42.145
1197.825, 98.098
1199.047, 339.555
1200.270, 91.562
1201.492, 274.125
1202.715, 61.430
1203.937, 276.539
1205.159, 192.818
1206.380, 303.990
1207.602, 93.877
1208.823, 114.377
1210.044, 14.350
1211.265, 10.576
1212.486, 108.430
1213.707, 29.240
1214.927, 218.441
1216.147, 218.162
1217.367, 177.539
1218.587, 258.078
1219.807, 102.695
1221.027, 34.266
1222.246, 51.830
1223.465, 123.238
1224.684, 319.650
1225.903, 126.025
1227.121, 151.357
1228.340, 291.787
1229.558, 148.043
1230.776, 344.254
1231.994, 74.430
1233.212, 404.566
1234.429, 230.850
1235.646, 198.906
1236.864, 471.924
1238.081, 110.906
1239.297, 363.844
1240.514, 461.590
1241.730, 218.443
1242.947, 317.488
1244.163, 92.244
1245.378, 545.242
1246.594, 338.904
1247.810, 195.447
1249.025, 413.715
1250.240, 186.816
1251.455, 175.760
1252.670, 377.924
1253.885, 226.346
1255.099, 244.062
1256.313, 68.861
1257.527, 48.434
1258.741, 65.217
1259.955, 24.764
1261.168, 85.691
1262.382, 48.959
1263.595, 98.326
1264.808, 45.951
1266.021, 98.393
1267.233, 192.219
1268.446, 166.994
1269.658, 76.688
1270.870, 308.295
1272.082, 208.857
1273.294, 253.383
1274.505, 272.865
1275.716, 273.311
1276.928, 238.709
1278.139, 263.062
1279.349, 212.346
1280.560, 279.582
1281.770, 150.773
1282.981, 63.908
1284.191, 152.998
1285.401, 159.037
1286.610, 129.002
1287.820, 223.887
1289.029, 178.904
1290.239, 403.539
1291.448, 130.264
1292.656, 151.926
1293.865, 80.543
1295.073, 257.994
1296.282, 202.162
1297.490, 113.859
1298.698, 175.562
1299.906, 130.102
1301.113, 24.471
1302.320, 3.023
1303.528, 116.082
1304.735, 74.154
1305.942, 129.930
1307.148, 154.373
1308.355, 14.551
1309.561, 244.910
1310.767, 1.889
1311.973, 153.578
1313.179, 175.879
1314.384, 387.332
1315.590, 212.309
1316.795, 246.418
1318.000, 220.203
1319.205, 422.150
1320.410, 353.617
1321.614, 445.721
1322.819, 418.691
1324.023, 343.186
1325.227, 482.570
1326.431, 203.842
1327.634, 34.572
1328.838, 31.932
1330.041, 218.719
1331.244, 343.193
1332.447, 47.281
1333.650, 125.629
1334.852, 77.713
1336.055, 97.805
1337.257, 36.377
1338.459, 48.316
1339.661, 29.494
1340.862, 178.096
1342.064, 36.039
1343.265, 4.342
1344.466, 68.365
1345.667, 60.398
1346.868, 277.561
1348.068, 23.555
1349.269, 58.498
1350.469, 236.066
1351.669, 276.014
1352.869, 149.328
1354.069, 464.570
1355.268, 82.408
1356.468, 399.279
1357.667, 448.385
1358.866, 37.092
1360.065, 505.418
1361.263, 71.467
1362.462, 281.113
1363.660, 484.066
1364.858, 398.305
1366.056, 194.057
1367.254, 569.561
1368.451, 337.838
1369.649, 227.234
1370.846, 304.641
1372.043, 168.988
1373.240, 318.865
1374.436, 242.986
1375.633, 392.955
1376.829, 249.691
1378.025, 155.006
1379.221, 392.674
1380.417, 227.777
1381.613, 350.787
1382.808, 407.686
1384.003, 341.496
1385.199, 428.385
1386.393, 374.766
1387.588, 491.582
1388.783, 269.514
1389.977, 316.365
1391.171, 194.854
1392.365, 221.584
1393.559, 366.406
1394.753, 84.105
1395.946, 275.561
1397.140, 199.729
1398.333, 489.584
1399.526, 368.857
1400.719, 343.678
1401.911, 398.508
1403.104, 377.242
1404.296, 231.207
1405.488, 367.172
1406.680, 172.877
1407.872, 208.516
1409.063, 555.592
1410.255, 326.883
1411.446, 502.090
1412.637, 142.521
1413.828, 509.957
1415.018, 374.424
1416.209, 339.244
1417.399, 202.080
1418.589, 610.930
1419.779, 464.967
1420.969, 527.004
1422.159, 148.146
1423.348, 509.199
1424.537, 482.742
1425.726, 300.979
1426.915, 592.283
1428.104, 453.355
1429.293, 566.836
1430.481, 364.838
1431.669, 692.383
1432.857, 496.598
1434.045, 595.410
1435.233, 987.299
1436.420, 836.557
1437.608, 639.777
1438.795, 662.881
1439.982, 741.086
1441.169, 858.236
1442.355, 862.035
1443.542, 959.148
1444.728, 979.539
1445.914, 1081.395
1447.100, 982.143
1448.286, 1010.834
1449.472, 934.529
1450.657, 1372.201
1451.842, 1096.824
1453.027, 1028.260
1454.212, 1388.688
1455.397, 1100.074
1456.581, 1258.402
1457.766, 1449.686
1458.950, 976.797
1460.134, 1406.191
1461.318, 898.793
1462.501, 834.723
1463.685, 1079.756
1464.868, 639.744
1466.051, 1172.758
1467.234, 513.961
1468.417, 615.254
1469.600, 735.633
1470.782, 780.387
1471.965, 804.770
1473.147, 804.621
1474.329, 735.129
1475.510, 623.719
1476.692, 470.410
1477.873, 693.227
1479.055, 373.199
1480.236, 1047.332
1481.416, 499.660
1482.597, 750.262
1483.778, 655.133
1484.958, 549.332
1486.138, 462.887
1487.318, 412.328
1488.498, 463.102
1489.678, 394.848
1490.857, 530.078
1492.037, 669.812
1493.216, 533.078
1494.395, 479.949
1495.574, 517.520
1496.752, 200.895
1497.931, 406.191
1499.109, 42.531
1500.287, 300.074
1501.465, 75.020
1502.643, 25.363
1503.820, 285.277
1504.998, 329.906
1506.175, 333.586
1507.352, 289.051
1508.529, 45.652
1509.706, 0.000
##END=



