##NAMES=Gypsum
##RRUFFID=R060509
##IDEAL CHEMISTRY=CaS^6+^O_4_&#183;2H_2_O
##LOCALITY=Pierre Shale, Hermosa, Custer County, South Dakota, USA
##OWNER=RRUFF
##SOURCE=Michael Scott
##DESCRIPTION=Colorless tabular single crystal
##STATUS=The identification of this mineral has been confirmed by X-ray diffraction and chemical analysis
##URL=rruff.info/R060509
##PIN_ID=L01683
##ORIENTATION=Laser parallel to c* (0 0 1). Fiducial mark perpendicular to laser is parallel to -a [-1 0 0]
158.3650, 0.0000000E+00
159.6000, 43.79065
160.8340, 3.166382
162.0690, 69.61230
163.3030, 181.4285
164.5370, 183.3599
165.7710, 265.2103
167.0050, 324.1913
168.2380, 404.8074
169.4720, 482.0754
170.7050, 605.2965
171.9380, 753.3267
173.1700, 867.9014
174.4030, 1092.952
175.6350, 1358.832
176.8680, 1491.575
178.1000, 1785.709
179.3310, 2027.818
180.5630, 2187.285
181.7940, 2200.989
183.0260, 2026.031
184.2570, 1804.693
185.4870, 1503.023
186.7180, 1250.102
187.9480, 913.5293
189.1790, 649.1528
190.4090, 481.6346
191.6390, 392.7393
192.8680, 331.5659
194.0980, 269.4661
195.3270, 237.0336
196.5560, 208.5223
197.7850, 164.1512
199.0140, 129.2953
200.2420, 152.8696
201.4710, 168.0302
202.6990, 182.7064
203.9270, 178.6970
205.1550, 245.0594
206.3820, 213.9570
207.6090, 179.7491
208.8370, 242.4609
210.0640, 179.2416
211.2900, 267.1033
212.5170, 192.4358
213.7440, 177.3176
214.9700, 133.2135
216.1960, 158.5864
217.4220, 124.9729
218.6470, 96.92700
219.8730, 145.1600
221.0980, 97.34717
222.3230, 86.17175
223.5480, 106.2476
224.7730, 12.20679
225.9970, 50.02332
227.2220, 7.934082
228.4460, 27.71753
229.6700, 35.84631
230.8940, 5.503174
232.1170, 2.742676
233.3400, 39.55151
234.5640, 11.95984
235.7870, 56.37952
237.0100, 34.89551
238.2320, 38.05933
239.4550, 49.21643
240.6770, 2.392456
241.8990, 8.817505
243.1210, 2.866821
244.3420, 14.39453
245.5640, 8.394897
246.7850, 11.40588
248.0060, 0.3012700
249.2270, 1.197021
250.4480, 13.46106
251.6690, 27.90271
252.8890, 38.08704
254.1090, 1.495972
255.3290, 3.907349
256.5490, 49.65210
257.7680, 6.983887
258.9880, 68.40137
260.2070, 98.84253
261.4260, 34.19263
262.6450, 7.425171
263.8640, 21.04163
265.0820, 10.44775
266.3000, 4.266235
267.5180, 18.99146
268.7360, 60.21570
269.9540, 53.58398
271.1720, 38.59998
272.3890, 30.21631
273.6060, 33.05042
274.8230, 28.91467
276.0400, 11.19299
277.2560, 12.73389
278.4730, 43.69482
279.6890, 17.70361
280.9050, 2.263916
282.1210, 38.21265
283.3370, 30.26404
284.5520, 13.08496
285.7670, 12.99561
286.9820, 5.893921
288.1970, 6.947388
289.4120, 6.438599
290.6270, 19.33350
291.8410, 27.07263
293.0550, 41.77600
294.2690, 22.47595
295.4830, 10.82727
296.6970, 20.13562
297.9100, 98.54639
299.1230, 1.772339
300.3360, 9.095581
301.5490, 84.56311
302.7620, 0.2153320
303.9740, 6.135010
305.1860, 18.18335
306.3990, 19.60742
307.6110, 61.07007
308.8220, 29.69641
310.0340, 42.36963
311.2450, 51.06921
312.4560, 25.78101
313.6670, 10.49377
314.8780, 89.19800
316.0890, 54.88806
317.2990, 68.55872
318.5090, 80.20544
319.7200, 62.82568
320.9290, 37.41699
322.1390, 78.97485
323.3490, 67.49561
324.5580, 106.9774
325.7670, 58.42029
326.9760, 87.82190
328.1850, 90.18164
329.3930, 107.4977
330.6020, 58.77173
331.8100, 48.00476
333.0180, 57.19751
334.2260, 35.59998
335.4340, 50.45752
336.6410, 37.52405
337.8480, 50.53662
339.0550, 69.47510
340.2620, 17.36548
341.4690, 71.17700
342.6760, 129.9423
343.8820, 79.67419
345.0880, 16.37427
346.2940, 30.01733
347.5000, 42.60986
348.7060, 64.14587
349.9110, 58.63208
351.1160, 47.07239
352.3210, 59.43835
353.5260, 48.77368
354.7310, 69.07837
355.9360, 71.37048
357.1400, 102.6317
358.3440, 63.86438
359.5480, 56.08386
360.7520, 64.24731
361.9550, 90.34375
363.1590, 128.4031
364.3620, 58.38123
365.5650, 119.3553
366.7680, 103.2914
367.9710, 40.17773
369.1730, 47.13086
370.3760, 112.2371
371.5780, 71.93347
372.7800, 115.9637
373.9810, 91.37329
375.1830, 107.8688
376.3840, 102.6184
377.5860, 100.8867
378.7870, 85.57849
379.9880, 71.62744
381.1880, 94.29980
382.3890, 86.81470
383.5890, 118.5529
384.7890, 81.19885
385.9890, 106.6228
387.1890, 176.6741
388.3880, 149.1357
389.5880, 206.3960
390.7870, 167.4785
391.9860, 173.4553
393.1850, 210.1818
394.3840, 212.8296
395.5820, 297.7217
396.7800, 252.2212
397.9790, 295.5947
399.1770, 373.3433
400.3740, 362.8936
401.5720, 514.5465
402.7690, 592.9790
403.9670, 809.7118
405.1640, 930.7030
406.3600, 1264.273
407.5570, 1435.678
408.7540, 1743.139
409.9500, 2160.442
411.1460, 2578.087
412.3420, 3100.539
413.5380, 3536.246
414.7330, 3805.844
415.9290, 3808.469
417.1240, 3355.561
418.3190, 2769.491
419.5140, 2212.695
420.7090, 1610.093
421.9030, 1206.344
423.0970, 865.6658
424.2920, 741.6367
425.4860, 519.8638
426.6790, 417.5137
427.8730, 379.1477
429.0660, 237.6436
430.2600, 254.1506
431.4530, 179.5752
432.6460, 144.0286
433.8380, 178.8735
435.0310, 120.4719
436.2230, 136.1345
437.4150, 101.8706
438.6070, 99.53003
439.7990, 79.21729
440.9910, 111.3425
442.1820, 115.2234
443.3730, 55.54468
444.5640, 93.42798
445.7550, 87.31958
446.9460, 21.82104
448.1370, 49.95898
449.3270, 73.65161
450.5170, 81.34521
451.7070, 75.20801
452.8970, 97.65088
454.0870, 92.79785
455.2760, 118.5071
456.4650, 85.19507
457.6550, 76.78613
458.8430, 50.64087
460.0320, 21.43481
461.2210, 45.27734
462.4090, 68.11377
463.5970, 15.92358
464.7850, 40.62012
465.9730, 6.444580
467.1610, 35.25342
468.3480, 38.06714
469.5360, 29.82568
470.7230, 63.63062
471.9100, 55.43262
473.0970, 35.23022
474.2830, 77.97168
475.4700, 114.6636
476.6560, 84.39990
477.8420, 134.0422
479.0280, 182.7437
480.2140, 161.3879
481.3990, 228.0835
482.5850, 266.8557
483.7700, 278.3972
484.9550, 376.1746
486.1400, 419.9517
487.3240, 471.7275
488.5090, 577.0627
489.6930, 661.8611
490.8770, 761.5149
492.0610, 872.2593
493.2450, 939.9810
494.4290, 934.5476
495.6120, 915.3828
496.7950, 832.0674
497.9780, 762.8396
499.1610, 627.6128
500.3440, 514.3862
501.5260, 476.1436
502.7090, 368.1292
503.8910, 270.6353
505.0730, 247.4126
506.2550, 179.1909
507.4360, 169.9417
508.6180, 147.7236
509.7990, 91.26440
510.9800, 110.9524
512.1610, 22.67358
513.3420, 90.46729
514.5230, 82.26416
515.7030, 29.07227
516.8830, 91.88550
518.0630, 58.70215
519.2430, 62.52661
520.4230, 10.63989
521.6020, 20.19556
522.7820, 26.03735
523.9610, 84.88867
525.1400, 40.25635
526.3190, 84.59277
527.4970, 35.55518
528.6760, 46.29688
529.8540, 36.15479
531.0320, 0.9785160
532.2100, 29.89282
533.3880, 19.77026
534.5660, 29.65820
535.7430, 31.55371
536.9200, 30.19409
538.0970, 27.37427
539.2740, 35.29468
540.4510, 5.767822
541.6270, 0.1770020
542.8040, 44.12939
543.9800, 4.914551
545.1560, 18.04956
546.3320, 10.98364
547.5080, 21.98438
548.6830, 52.95581
549.8580, 44.93604
551.0340, 37.92041
552.2090, 28.90967
553.3830, 87.21924
554.5580, 92.22070
555.7320, 74.04639
556.9070, 89.07739
558.0810, 58.11157
559.2550, 49.15967
560.4280, 64.22290
561.6020, 69.30029
562.7750, 76.38135
563.9490, 102.4722
565.1220, 97.58008
566.2950, 140.6990
567.4670, 122.8230
568.6400, 133.0200
569.8120, 92.14966
570.9840, 166.0100
572.1560, 114.4907
573.3280, 171.6321
574.5000, 133.7769
575.6710, 149.9287
576.8430, 142.0833
578.0140, 123.7234
579.1850, 133.3523
580.3560, 113.5149
581.5260, 89.68457
582.6970, 178.8640
583.8670, 133.0449
585.0370, 98.23022
586.2070, 159.0889
587.3770, 113.2822
588.5460, 133.4792
589.7160, 136.6814
590.8850, 150.8857
592.0540, 112.0928
593.2230, 179.4878
594.3920, 153.6990
595.5600, 117.9116
596.7290, 165.1270
597.8970, 125.4319
599.0650, 186.9792
600.2330, 133.2063
601.4000, 151.4297
602.5680, 150.6550
603.7350, 183.9343
604.9020, 222.1626
606.0690, 196.4102
607.2360, 249.6426
608.4030, 296.8765
609.5690, 263.1179
610.7360, 338.5278
611.9020, 384.1680
613.0680, 425.4243
614.2340, 490.6829
615.3990, 450.9614
616.5650, 592.6809
617.7300, 578.9797
618.8950, 698.4578
620.0600, 721.7527
621.2250, 666.0542
622.3890, 580.3643
623.5540, 514.6760
624.7180, 478.3242
625.8820, 469.6843
627.0460, 361.0032
628.2100, 296.3237
629.3730, 255.6465
630.5370, 174.9717
631.7000, 137.2983
632.8630, 101.4429
634.0260, 137.9568
635.1890, 60.29053
636.3510, 113.6257
637.5140, 130.2732
638.6760, 22.61108
639.8380, 24.95068
641.0000, 14.29102
642.1610, 60.63281
643.3230, 82.97607
644.4840, 105.3210
645.6450, 5.667236
646.8060, 47.01440
647.9670, 51.36279
649.1280, 18.28784
650.2880, 82.05615
651.4490, 44.40112
652.6090, 35.74780
653.7690, 20.12061
654.9290, 41.70850
656.0880, 38.10449
657.2480, 36.50073
658.4070, 74.85205
659.5660, 79.20386
660.7250, 136.4031
661.8840, 129.7610
663.0430, 234.6238
664.2010, 311.9829
665.3600, 439.2971
666.5180, 490.6582
667.6760, 507.0483
668.8330, 651.4106
669.9910, 831.7729
671.1480, 725.1245
672.3060, 728.4883
673.4630, 741.8516
674.6200, 531.2151
675.7770, 373.8311
676.9330, 257.4150
678.0900, 173.7793
679.2460, 162.1433
680.4020, 105.4424
681.5580, 76.80151
682.7140, 88.16528
683.8690, 88.47559
685.0250, 38.83887
686.1800, 30.04590
687.3350, 44.41626
688.4900, 40.79834
689.6450, 30.16797
690.7990, 58.53711
691.9540, 6.094482
693.1080, 90.27051
694.2620, 13.94946
695.4160, 66.40698
696.5700, 53.76221
697.7230, 77.11694
698.8770, 89.81567
700.0300, 74.61060
701.1830, 68.17529
702.3360, 65.52612
703.4890, 15.87573
704.6410, 40.22388
705.7930, 14.57104
706.9460, 48.08301
708.0980, 80.23486
709.2500, 10.44824
710.4010, 20.13965
711.5530, 19.15576
712.7040, 26.44971
713.8560, 23.74194
715.0070, 18.03271
716.1580, 21.67822
717.3080, 5.403564
718.4590, 10.86475
719.6090, 9.131348
720.7590, 37.39648
721.9090, 91.65967
723.0590, 42.92139
724.2090, 7.818848
725.3590, 40.43262
726.5080, 28.68237
727.6570, 39.93018
728.8060, 42.17651
729.9550, 45.42065
731.1040, 0.6630860
732.2530, 21.90112
733.4010, 16.13745
734.5490, 34.37158
735.6970, 13.39648
736.8450, 1.176025
737.9930, 9.038818
739.1400, 30.25146
740.2880, 35.46216
741.4350, 12.32959
742.5820, 47.86719
743.7290, 7.061768
744.8760, 52.25391
746.0220, 32.44385
747.1690, 30.98291
748.3150, 3.168457
749.4610, 0.6503910
750.6070, 52.81104
751.7530, 46.98364
752.8980, 76.53467
754.0440, 29.48169
755.1890, 17.66162
756.3340, 7.802246
757.4790, 87.95532
758.6240, 35.05664
759.7680, 24.76221
760.9130, 98.88867
762.0570, 7.011719
763.2010, 16.48291
764.3450, 64.59619
765.4890, 51.70654
766.6320, 64.81323
767.7760, 80.91650
768.9190, 64.01709
770.0620, 72.11426
771.2050, 101.2080
772.3480, 81.65210
773.4900, 54.73926
774.6330, 8.822754
775.7750, 49.90015
776.9170, 34.97437
778.0590, 27.04517
779.2010, 79.11255
780.3420, 95.17627
781.4840, 49.26758
782.6250, 43.32495
783.7660, 109.3787
784.9070, 73.42871
786.0480, 75.47559
787.1890, 81.76245
788.3290, 97.80249
789.4690, 49.83936
790.6100, 19.87256
791.7490, 10.91333
792.8890, 15.93726
794.0290, 91.95679
795.1680, 59.97266
796.3080, 73.98511
797.4470, 36.99438
798.5860, 86.00659
799.7250, 10.99023
800.8630, 43.99658
802.0020, 14.97974
803.1400, 56.14941
804.2780, 80.12964
805.4160, 68.11035
806.5540, 57.08789
807.6920, 29.06201
808.8300, 50.03247
809.9670, 52.99951
811.1040, 79.96313
812.2410, 11.92310
813.3780, 12.87769
814.5150, 89.82617
815.6510, 46.77148
816.7880, 75.71338
817.9240, 67.65210
819.0600, 61.58716
820.1960, 82.51929
821.3320, 37.44800
822.4670, 88.11865
823.6030, 53.04150
824.7380, 24.96094
825.8730, 126.8767
827.0080, 39.78857
828.1430, 34.69775
829.2770, 66.29053
830.4120, 8.807617
831.5460, 93.26270
832.6800, 78.14551
833.8140, 69.02466
834.9480, 64.90063
836.0810, 51.27246
837.2150, 74.64282
838.3480, 33.50879
839.4810, 40.37158
840.6140, 39.23071
841.7470, 72.08691
842.8800, 76.93970
844.0120, 75.71924
845.1450, 91.56567
846.2770, 65.68262
847.4090, 87.17920
848.5410, 67.01660
849.6720, 80.85132
850.8040, 52.68286
851.9350, 69.51196
853.0660, 46.85522
854.1970, 42.87622
855.3280, 51.69189
856.4590, 36.84766
857.5900, 63.66284
858.7200, 72.47534
859.8500, 76.53027
860.9800, 77.71533
862.1100, 64.22998
863.2400, 58.03198
864.3700, 47.83154
865.4990, 24.62866
866.6280, 42.42310
867.7570, 71.02881
868.8860, 70.81885
870.0150, 57.60571
871.1440, 61.92432
872.2720, 57.09204
873.4010, 43.53760
874.5290, 52.31006
875.6570, 50.08545
876.7850, 39.85889
877.9120, 45.57739
879.0400, 27.34644
880.1670, 37.09644
881.2940, 34.86108
882.4210, 15.37598
883.5480, 52.37305
884.6750, 14.95337
885.8020, 30.69678
886.9280, 10.02661
888.0540, 64.25195
889.1800, 7.569580
890.3060, 76.66870
891.4320, 13.32715
892.5580, 12.19238
893.6830, 11.53345
894.8080, 21.33032
895.9330, 23.74902
897.0580, 10.38135
898.1830, 2.322266
899.3080, 17.26123
900.4320, 5.885742
901.5570, 17.50830
902.6810, 47.12988
903.8050, 21.01758
904.9290, 45.36963
906.0520, 10.98804
907.1760, 3.395264
908.2990, 41.21704
909.4230, 30.82812
910.5460, 86.12720
911.6690, 50.73633
912.7910, 70.34448
913.9140, 49.95190
915.0360, 10.56104
916.1590, 1.169434
917.2810, 49.77637
918.4030, 24.38379
919.5240, 78.99268
920.6460, 56.60083
921.7680, 121.2080
922.8890, 53.81812
924.0100, 14.42773
925.1310, 26.03711
926.2520, 0.6201170
927.3730, 19.98828
928.4930, 34.50342
929.6130, 39.11279
930.7340, 71.72485
931.8540, 18.34326
932.9740, 17.03857
934.0930, 44.57007
935.2130, 12.67407
936.3320, 1.282227
937.4520, 4.255859
938.5710, 18.35156
939.6900, 76.95874
940.8090, 1.566162
941.9270, 96.17334
943.0460, 43.78052
944.1640, 15.38818
945.2820, 55.99536
946.4000, 51.60327
947.5180, 58.96558
948.6360, 95.35962
949.7530, 78.97412
950.8710, 48.58862
951.9880, 19.20947
953.1050, 61.83081
954.2220, 42.45264
955.3390, 43.07471
956.4550, 32.30298
957.5720, 26.30688
958.6880, 84.91919
959.8040, 13.51929
960.9200, 55.13232
962.0360, 148.7458
963.1520, 51.36035
964.2670, 77.97681
965.3820, 99.17822
966.4980, 90.79980
967.6130, 142.4221
968.7280, 146.0457
969.8420, 123.6694
970.9570, 130.2944
972.0710, 222.9207
973.1850, 202.5476
974.3000, 166.1755
975.4140, 189.8047
976.5270, 136.4348
977.6410, 175.0662
978.7540, 254.7119
979.8680, 267.3586
980.9810, 323.0105
982.0940, 362.6702
983.2070, 375.3311
984.3200, 437.9934
985.4320, 521.6570
986.5440, 590.3223
987.6570, 583.9954
988.7690, 682.6726
989.8810, 791.3508
990.9920, 775.0310
992.1040, 954.7124
993.2160, 1000.396
994.3270, 1211.080
995.4380, 1377.770
996.5490, 1665.461
997.6600, 2195.154
998.7710, 2875.849
999.8810, 3946.545
1000.991, 5659.243
1002.102, 7971.945
1003.212, 10988.65
1004.322, 14890.35
1005.431, 20058.06
1006.541, 25982.77
1007.651, 30150.49
1008.760, 30391.21
1009.869, 25598.93
1010.978, 18622.65
1012.087, 12005.39
1013.195, 7445.122
1014.304, 4921.865
1015.412, 3408.612
1016.521, 2373.009
1017.629, 1764.761
1018.737, 1437.517
1019.844, 1167.991
1020.952, 925.7563
1022.059, 770.1475
1023.167, 611.1055
1024.274, 647.8936
1025.381, 496.6843
1026.488, 496.4614
1027.594, 396.2903
1028.701, 344.5146
1029.807, 305.3184
1030.913, 296.1252
1032.019, 247.5828
1033.125, 219.8267
1034.231, 230.2156
1035.337, 146.0374
1036.442, 157.8711
1037.548, 114.7830
1038.653, 132.5481
1039.758, 102.3916
1040.863, 156.8843
1041.967, 150.7344
1043.072, 202.5881
1044.176, 118.4468
1045.280, 120.3086
1046.384, 108.1738
1047.488, 126.6516
1048.592, 117.2466
1049.696, 112.3682
1050.799, 88.57422
1051.903, 135.8625
1053.006, 74.74829
1054.109, 114.6375
1055.212, 24.53027
1056.314, 134.4263
1057.417, 85.36841
1058.519, 108.2715
1059.621, 33.16724
1060.724, 10.07861
1061.826, 8.618408
1062.927, 93.14087
1064.029, 48.63794
1065.130, 109.5676
1066.232, 63.49512
1067.333, 63.43140
1068.434, 58.37793
1069.535, 120.3281
1070.636, 66.42212
1071.736, 57.37988
1072.837, 50.34106
1073.937, 1.305908
1075.037, 36.27441
1076.137, 128.2461
1077.237, 9.221436
1078.337, 99.30176
1079.436, 96.59595
1080.535, 60.58276
1081.635, 54.57422
1082.734, 66.56909
1083.833, 98.93555
1084.931, 174.9373
1086.030, 159.9424
1087.128, 189.0251
1088.227, 185.9634
1089.325, 176.7515
1090.423, 162.0667
1091.521, 112.0889
1092.618, 194.1150
1093.716, 219.1445
1094.813, 149.1775
1095.911, 169.2144
1097.008, 185.2542
1098.105, 228.3042
1099.202, 240.3574
1100.298, 196.4141
1101.395, 229.4741
1102.491, 256.5425
1103.587, 294.6145
1104.683, 209.6902
1105.779, 298.7690
1106.875, 262.8516
1107.971, 381.9504
1109.066, 342.0527
1110.161, 447.1587
1111.256, 473.2681
1112.351, 585.3806
1113.446, 532.6604
1114.541, 587.7800
1115.636, 584.9028
1116.730, 671.0286
1117.824, 679.1584
1118.918, 755.2944
1120.012, 776.4343
1121.106, 780.5771
1122.200, 762.7236
1123.293, 647.8730
1124.387, 756.0259
1125.480, 786.1895
1126.573, 896.3564
1127.666, 1087.977
1128.759, 1218.700
1129.851, 1550.877
1130.944, 1851.057
1132.036, 2157.240
1133.128, 2454.427
1134.220, 2792.616
1135.312, 2916.809
1136.404, 2639.005
1137.495, 2345.205
1138.587, 2009.422
1139.678, 1713.628
1140.769, 1286.837
1141.860, 1060.049
1142.951, 821.8696
1144.041, 672.0879
1145.132, 559.3135
1146.222, 476.1460
1147.313, 415.3735
1148.403, 405.8159
1149.493, 330.0552
1150.582, 287.2974
1151.672, 214.4375
1152.761, 199.3738
1153.851, 174.6526
1154.940, 155.9385
1156.029, 133.2268
1157.118, 116.5176
1158.207, 103.6545
1159.295, 95.12256
1160.384, 78.43774
1161.472, 79.75562
1162.560, 60.07642
1163.648, 78.40137
1164.736, 110.7290
1165.824, 78.05957
1166.911, 68.44019
1167.999, 30.77539
1169.086, 30.11304
1170.173, 15.45312
1171.260, 57.79590
1172.347, 43.14258
1173.434, 20.49170
1174.520, 72.84326
1175.606, 6.197021
1176.693, 68.55347
1177.779, 16.08813
1178.865, 43.26685
1179.951, 17.62427
1181.036, 10.01562
1182.122, 11.65649
1183.207, 66.70093
1184.292, 40.06030
1185.377, 17.42212
1186.462, 65.78564
1187.547, 1.848389
1188.632, 20.51904
1189.716, 36.88867
1190.800, 55.26050
1191.885, 15.36572
1192.969, 14.87476
1194.052, 31.50830
1195.136, 58.55640
1196.220, 68.91309
1197.303, 46.27612
1198.387, 8.641113
1199.470, 48.00781
1200.553, 8.623535
1201.636, 48.74487
1202.718, 81.11499
1203.801, 112.4871
1204.883, 113.8611
1205.966, 29.23657
1207.048, 40.61426
1208.130, 3.006836
1209.211, 25.62695
1210.293, 55.74243
1211.375, 157.1138
1212.456, 17.48682
1213.537, 26.13892
1214.618, 86.22485
1215.699, 82.59009
1216.780, 41.95703
1217.861, 51.32544
1218.941, 11.30469
1220.022, 6.930908
1221.102, 49.44165
1222.182, 104.8157
1223.262, 98.19067
1224.342, 56.56738
1225.422, 122.9456
1226.501, 79.32495
1227.580, 32.70532
1228.660, 57.08691
1229.739, 88.46973
1230.818, 35.85400
1231.896, 63.36646
1232.975, 34.75293
1234.054, 39.14038
1235.132, 86.52905
1236.210, 25.91968
1237.288, 39.34717
1238.366, 57.73975
1239.444, 67.13330
1240.521, 12.52759
1241.599, 83.92285
1242.676, 1.680908
1243.753, 106.7144
1244.830, 21.11011
1245.907, 79.50659
1246.984, 66.90405
1248.061, 42.04053
1249.137, 45.44116
1250.214, 45.84253
1251.290, 81.24487
1252.366, 14.64771
1253.442, 81.05103
1254.517, 67.20410
1255.593, 6.608643
1256.668, 15.01392
1257.744, 60.42041
1258.819, 55.82690
1259.894, 45.24609
1260.969, 51.65405
1262.044, 47.06250
1263.118, 22.47192
1264.193, 13.88184
1265.267, 25.29199
1266.341, 43.70288
1267.415, 4.113770
1268.489, 9.524902
1269.563, 36.93628
1270.636, 111.3484
1271.710, 6.238281
1272.783, 35.16968
1273.856, 12.42163
1274.929, 6.021973
1276.002, 8.372559
1277.075, 0.5390630
1278.147, 15.15991
1279.220, 21.55371
1280.292, 10.05176
1281.364, 6.685059
1282.436, 9.715576
1283.508, 24.09668
1284.580, 50.47827
1285.652, 68.85938
1286.723, 62.34009
1287.794, 71.72168
1288.865, 51.10303
1289.936, 89.48438
1291.007, 112.8660
1292.078, 85.24756
1293.149, 42.62939
1294.219, 36.01123
1295.289, 27.60718
1296.360, 83.76514
1297.430, 52.13672
1298.499, 114.5088
1299.569, 48.88013
1300.639, 30.25146
1301.708, 31.62280
1302.778, 57.99390
1303.847, 11.36475
1304.916, 82.73462
1305.985, 58.10400
1307.053, 78.86304
1308.122, 82.23047
1309.190, 58.59692
1310.259, 60.63525
1311.327, 64.59326
1312.395, 60.95483
1313.463, 67.31616
1314.531, 80.02417
1315.598, 75.77368
1316.666, 66.52759
1317.733, 70.71680
1318.800, 35.07373
1319.867, 18.43066
1320.934, 3.788086
1322.001, 93.91602
1323.067, 7.302002
1324.134, 45.05054
1325.200, 63.40283
1326.266, 27.75562
1327.333, 72.10840
1328.398, 54.46118
1329.464, 40.48828
1330.530, 78.86914
1331.595, 69.22217
1332.661, 114.5754
