##NAMES=Gypsum
##RRUFFID=R040029
##IDEAL CHEMISTRY=CaS^6+^O_4_&#183;2H_2_O
##LOCALITY=Twin Buttes, Pima County, Arizona, USA
##OWNER=RRUFF
##SOURCE=University of Arizona Mineral Museum
##DESCRIPTION=Colorless prismatic crystal
##STATUS=The identification of this mineral has been confirmed by X-ray diffraction.
##URL=rruff.info/R040029
##PIN_ID=L00192
##ORIENTATION=Laser parallel to -c [0 0 -1]. Fiducial mark perpendicular to laser is parallel to -b* (0 -1 0)
78.031, 0.000
79.427, 10.313
80.823, 2.948
82.218, 15.375
83.614, 40.687
85.009, 45.088
86.404, 70.539
87.798, 52.057
89.193, 117.971
90.587, 163.853
91.981, 142.369
93.375, 93.239
94.768, 81.227
96.161, 180.138
97.554, 236.816
98.947, 257.211
100.340, 286.321
101.732, 417.090
103.124, 575.425
104.516, 910.246
105.908, 1355.468
107.300, 1585.008
108.691, 1472.805
110.082, 1031.809
111.473, 647.977
112.864, 509.276
114.254, 451.679
115.644, 531.162
117.034, 534.816
118.424, 471.016
119.813, 490.675
121.203, 414.877
122.592, 401.433
123.981, 364.126
125.369, 304.871
126.758, 461.666
128.146, 546.451
129.534, 728.265
130.922, 736.104
132.309, 704.776
133.696, 726.307
135.083, 792.676
136.470, 884.953
137.857, 997.177
139.243, 1177.282
140.630, 1360.284
142.016, 1556.184
143.401, 1495.987
144.787, 1341.700
146.172, 1078.327
147.557, 815.873
148.942, 579.342
150.327, 477.738
151.711, 375.064
153.096, 355.324
154.480, 321.909
155.863, 387.357
157.247, 421.264
158.630, 488.153
160.013, 572.844
161.396, 643.065
162.779, 687.408
164.161, 721.860
165.544, 849.619
166.926, 962.202
168.308, 1136.906
169.689, 1374.048
171.070, 1674.657
172.452, 2222.793
173.833, 2851.476
175.213, 3601.624
176.594, 4393.597
177.974, 5247.673
179.354, 5657.107
180.734, 5275.175
182.114, 4376.852
183.493, 3597.347
184.872, 2718.805
186.251, 2031.280
187.630, 1558.777
189.008, 1226.084
190.387, 960.591
191.765, 774.109
193.143, 632.637
194.520, 544.225
195.898, 495.958
197.275, 428.295
198.652, 364.682
200.029, 324.348
201.405, 309.009
202.782, 290.592
204.158, 304.127
205.534, 345.660
206.909, 289.190
208.285, 272.741
209.660, 257.262
211.035, 178.778
212.410, 168.288
213.784, 127.791
215.159, 106.287
216.533, 92.776
217.907, 92.259
219.281, 47.734
220.654, 33.203
222.027, 49.665
223.400, 65.120
224.773, 42.568
226.146, 18.008
227.518, 34.442
228.891, 2.870
230.263, 49.291
231.634, 6.295
233.006, 15.887
234.377, 10.484
235.748, 47.089
237.119, 40.701
238.490, 5.667
239.860, 6.999
241.231, 25.714
242.601, 47.443
243.970, 51.454
245.340, 3.182
246.709, 34.723
248.079, 24.071
249.448, 57.300
250.816, 23.446
252.185, 28.519
253.553, 10.536
254.921, 2.496
256.289, 3.428
257.657, 22.318
259.024, 6.187
260.391, 23.035
261.758, 5.130
263.125, 1.691
264.492, 12.502
265.858, 6.309
267.224, 5.885
268.590, 9.918
269.956, 6.275
271.321, 13.536
272.687, 27.645
274.052, 12.823
275.416, 3.995
276.781, 37.840
278.146, 13.304
279.510, 14.441
280.874, 14.570
282.237, 34.310
283.601, 17.214
284.964, 9.861
286.327, 28.919
287.690, 30.960
289.053, 45.236
290.416, 38.990
291.778, 36.980
293.140, 75.951
294.502, 36.905
295.863, 53.841
297.225, 17.759
298.586, 29.659
299.947, 49.543
301.308, 54.410
302.668, 57.637
304.029, 66.797
305.389, 46.924
306.749, 62.734
308.108, 43.529
309.468, 13.312
310.827, 52.078
312.186, 34.832
313.545, 18.573
314.903, 50.300
316.262, 18.015
317.620, 61.715
318.978, 40.403
320.336, 74.063
321.693, 48.674
323.051, 44.248
324.408, 50.795
325.765, 51.273
327.121, 56.724
328.478, 64.122
329.834, 83.481
331.190, 74.821
332.546, 66.133
333.902, 91.417
335.257, 71.687
336.612, 53.932
337.967, 100.158
339.322, 87.364
340.677, 87.564
342.031, 64.732
343.385, 72.891
344.739, 75.021
346.093, 89.130
347.446, 84.234
348.799, 82.335
350.153, 102.433
351.505, 88.527
352.858, 114.613
354.210, 81.695
355.563, 118.774
356.915, 86.849
358.267, 106.915
359.618, 98.976
360.969, 107.030
362.321, 124.075
363.672, 124.117
365.022, 138.153
366.373, 146.396
367.723, 178.626
369.073, 170.581
370.423, 170.774
371.773, 196.279
373.122, 153.295
374.471, 163.308
375.821, 143.320
377.169, 157.330
378.518, 160.337
379.866, 167.939
381.215, 183.275
382.563, 198.383
383.910, 219.393
385.258, 240.400
386.605, 272.401
387.952, 286.401
389.299, 296.399
390.646, 335.392
391.992, 386.203
393.339, 434.198
394.685, 414.472
396.031, 481.141
397.376, 548.142
398.722, 676.836
400.067, 764.921
401.412, 937.820
402.757, 1252.756
404.101, 1474.761
405.446, 1975.396
406.790, 2706.776
408.134, 3802.179
409.478, 5541.591
410.821, 7430.651
412.165, 8997.603
413.508, 9141.657
414.851, 7501.368
416.193, 5389.178
417.536, 3751.775
418.878, 2602.973
420.220, 1925.955
421.562, 1384.921
422.904, 1108.796
424.245, 860.379
425.586, 691.532
426.927, 603.974
428.268, 495.772
429.609, 446.262
430.949, 374.767
432.289, 333.211
433.629, 276.424
434.969, 255.287
436.309, 247.908
437.648, 208.111
438.987, 188.673
440.326, 145.226
441.665, 214.789
443.003, 182.328
444.342, 119.989
445.680, 172.693
447.018, 148.965
448.355, 104.746
449.693, 134.536
451.030, 118.335
452.367, 103.129
453.704, 91.917
455.041, 128.710
456.377, 96.493
457.713, 80.275
459.049, 99.633
460.385, 51.283
461.721, 98.053
463.056, 104.819
464.391, 60.579
465.726, 136.335
467.061, 74.087
468.395, 85.833
469.730, 133.563
471.064, 101.570
472.398, 134.304
473.731, 141.889
475.065, 132.039
476.398, 150.762
477.731, 198.857
479.064, 222.572
480.397, 213.312
481.729, 349.019
483.062, 357.699
484.394, 464.327
485.725, 560.030
487.057, 717.942
488.389, 948.696
489.720, 1154.387
491.051, 1394.076
492.382, 1455.762
493.712, 1263.489
495.043, 1028.180
496.373, 851.868
497.703, 664.585
499.032, 527.523
500.362, 405.957
501.691, 331.640
503.020, 252.321
504.349, 237.000
505.678, 189.677
507.007, 147.353
508.335, 101.027
509.663, 116.699
510.991, 130.369
512.319, 63.038
513.646, 83.704
514.973, 70.370
516.300, 86.033
517.627, 93.695
518.954, 50.355
520.280, 64.014
521.607, 34.671
522.933, 31.327
524.259, 60.981
525.584, 19.633
526.910, 11.284
528.235, 65.934
529.560, 78.582
530.885, 29.140
532.209, 50.785
533.534, 79.428
534.858, 22.727
536.182, 9.982
537.506, 47.621
538.829, 0.211
540.152, 45.455
541.476, 16.291
542.799, 7.194
544.121, 6.824
545.444, 63.093
546.766, 14.571
548.088, 65.197
549.410, 60.820
550.732, 45.734
552.053, 72.988
553.375, 13.728
554.696, 51.653
556.017, 113.734
557.337, 70.984
558.658, 77.021
559.978, 54.688
561.298, 58.338
562.618, 65.992
563.938, 100.648
565.257, 97.317
566.576, 71.395
567.895, 126.093
569.214, 129.805
570.533, 88.513
571.851, 78.236
573.170, 114.966
574.488, 128.704
575.805, 65.445
577.123, 134.206
578.440, 101.949
579.758, 169.061
581.075, 85.814
582.391, 117.110
583.708, 76.873
585.024, 78.654
586.341, 107.425
587.657, 144.200
588.972, 116.976
590.288, 88.755
591.603, 83.566
592.918, 105.352
594.233, 97.137
595.548, 95.338
596.863, 96.269
598.177, 90.068
599.491, 47.900
600.805, 108.698
602.119, 90.497
603.432, 83.308
604.746, 162.126
606.059, 98.946
607.372, 111.777
608.685, 181.604
609.997, 137.452
611.309, 181.266
612.621, 254.179
613.933, 299.990
615.245, 353.800
616.557, 376.640
617.868, 363.448
619.179, 369.289
620.490, 367.761
621.801, 319.566
623.111, 244.369
624.421, 197.171
625.731, 154.039
627.041, 117.529
628.351, 86.598
629.660, 78.398
630.970, 64.196
632.279, 66.602
633.588, 67.400
634.896, 35.198
636.205, 66.003
637.513, 17.200
638.821, 30.597
640.129, 67.382
641.437, 48.166
642.744, 8.948
644.051, 18.149
645.358, 15.380
646.665, 51.378
647.972, 26.141
649.278, 30.896
650.584, 9.894
651.890, 44.646
653.196, 36.397
654.502, 7.985
655.807, 50.732
657.113, 40.478
658.418, 34.223
659.722, 23.966
661.027, 48.707
662.331, 71.447
663.636, 123.186
664.940, 109.923
666.244, 194.658
667.547, 309.392
668.851, 368.125
670.154, 376.856
671.457, 330.586
672.760, 211.314
674.062, 116.041
675.365, 43.766
676.667, 66.490
677.969, 59.212
679.271, 54.933
680.572, 34.653
681.874, 40.371
683.175, 39.087
684.476, 38.802
685.777, 29.517
687.077, 10.771
688.378, 53.932
689.678, 46.633
690.978, 6.667
692.278, 5.974
693.577, 33.711
694.877, 4.604
696.176, 11.038
697.475, 15.286
698.774, 16.379
700.072, 25.025
701.371, 6.330
702.669, 9.687
703.967, 19.948
705.265, 35.580
706.562, 0.788
707.860, 22.161
709.157, 2.451
710.454, 16.940
711.751, 3.435
713.047, 13.248
714.344, 16.837
715.640, 13.434
716.936, 18.021
718.232, 15.606
719.527, 32.189
720.823, 36.771
722.118, 2.527
723.413, 14.917
724.708, 15.250
726.002, 49.870
727.297, 45.462
728.591, 81.032
729.885, 26.599
731.179, 23.165
732.472, 12.729
733.766, 58.292
735.059, 1.148
736.352, 17.407
737.645, 3.761
738.937, 24.902
740.230, 13.905
741.522, 47.453
742.814, 44.004
744.106, 60.544
745.397, 58.082
746.689, 9.618
747.980, 27.152
749.271, 21.684
750.562, 1.785
751.853, 2.740
753.143, 23.261
754.433, 7.781
755.723, 22.299
757.013, 43.815
758.303, 29.329
759.592, 35.841
760.881, 24.400
762.170, 11.909
763.459, 11.585
764.748, 6.911
766.036, 38.405
767.325, 29.104
768.613, 61.368
769.901, 44.839
771.188, 6.307
772.476, 65.774
773.763, 6.761
775.050, 8.696
776.337, 26.151
777.624, 17.604
778.910, 30.056
780.196, 23.506
781.482, 4.955
782.768, 53.401
784.054, 48.846
785.339, 70.290
786.625, 6.268
787.910, 52.167
789.195, 25.600
790.479, 9.032
791.764, 67.462
793.048, 6.762
794.332, 19.189
795.616, 39.615
796.900, 39.040
798.183, 15.562
799.467, 33.617
800.750, 15.968
802.033, 4.378
803.316, 22.786
804.598, 34.807
805.880, 39.545
807.163, 37.931
808.445, 12.685
809.726, 23.645
811.008, 39.020
812.289, 100.394
813.570, 46.767
814.851, 17.139
816.132, 6.510
817.413, 22.881
818.693, 21.250
819.973, 32.619
821.253, 8.987
822.533, 36.354
823.813, 10.720
825.092, 58.086
826.371, 12.451
827.650, 33.815
828.929, 28.178
830.208, 18.542
831.486, 71.904
832.764, 25.265
834.042, 8.626
835.320, 34.986
836.598, 80.346
837.875, 51.706
839.152, 37.064
840.429, 79.423
841.706, 55.869
842.983, 74.227
844.259, 78.584
845.536, 16.283
846.812, 64.025
848.088, 18.381
849.363, 83.207
850.639, 37.532
851.914, 60.687
853.189, 54.771
854.464, 74.127
855.739, 65.843
857.013, 57.348
858.288, 48.705
859.562, 57.062
860.836, 1.127
862.110, 44.852
863.383, 34.089
864.656, 17.143
865.930, 55.047
867.203, 36.390
868.475, 0.251
869.748, 8.101
871.020, 11.475
872.292, 25.850
873.564, 10.235
874.836, 5.377
876.108, 22.385
877.379, 20.467
878.650, 2.651
879.922, 1.275
881.192, 12.102
882.463, 47.483
883.733, 15.868
885.004, 43.254
886.274, 17.622
887.544, 35.010
888.813, 1.040
890.083, 10.568
891.352, 5.774
892.621, 15.219
893.890, 0.098
895.159, 0.496
896.427, 8.912
897.695, 29.321
898.964, 41.733
900.232, 42.411
901.499, 47.892
902.767, 45.947
904.034, 37.948
905.301, 51.222
906.568, 37.642
907.835, 64.030
909.102, 49.453
910.368, 22.878
911.634, 103.304
912.900, 3.265
914.166, 83.167
915.432, 65.588
916.697, 29.013
917.962, 91.417
919.227, 24.858
920.492, 63.200
921.757, 35.644
923.021, 105.090
924.285, 95.507
925.550, 43.956
926.813, 79.728
928.077, 70.162
929.341, 91.617
930.604, 133.074
931.867, 56.538
933.130, 93.005
934.393, 133.443
935.655, 84.914
936.918, 127.386
938.180, 101.861
939.442, 110.729
940.703, 95.207
941.965, 84.688
943.226, 81.163
944.488, 100.648
945.749, 106.130
947.009, 105.624
948.270, 71.120
949.530, 115.622
950.791, 72.006
952.051, 35.518
953.311, 89.036
954.570, 125.552
955.830, 199.075
957.089, 135.357
958.348, 138.885
959.607, 167.416
960.866, 172.111
962.124, 183.847
963.383, 230.196
964.641, 217.749
965.899, 232.305
967.156, 281.864
968.414, 284.426
969.671, 301.990
970.928, 286.558
972.185, 395.127
973.442, 375.700
974.699, 451.275
975.955, 425.853
977.211, 467.434
978.468, 515.016
979.723, 521.602
980.979, 565.190
982.234, 640.781
983.490, 740.375
984.745, 779.971
986.000, 965.571
987.254, 1100.173
988.509, 1250.778
989.763, 1358.386
991.017, 1437.996
992.271, 1522.609
993.525, 1623.229
994.779, 1967.851
996.032, 2286.478
997.285, 2824.112
998.538, 3466.750
999.791, 4670.393
1001.044, 6169.040
1002.296, 9352.691
1003.548, 14799.348
1004.800, 26132.014
1006.052, 46448.719
1007.304, 62730.395
1008.555, 59977.082
1009.807, 38174.789
1011.058, 20901.494
1012.309, 11977.203
1013.559, 7520.922
1014.810, 5159.649
1016.060, 3839.385
1017.310, 2808.126
1018.560, 2284.869
1019.810, 1826.050
1021.060, 1484.049
1022.309, 1286.329
1023.558, 1150.819
1024.807, 910.008
1026.056, 778.649
1027.305, 676.546
1028.553, 629.556
1029.801, 589.638
1031.049, 549.388
1032.297, 457.754
1033.545, 422.269
1034.793, 349.046
1036.040, 333.828
1037.287, 359.685
1038.534, 282.832
1039.781, 298.621
1041.027, 257.488
1042.274, 265.167
1043.520, 211.333
1044.766, 227.126
1046.012, 206.989
1047.257, 180.814
1048.503, 198.037
1049.748, 134.842
1050.993, 172.648
1052.238, 144.457
1053.483, 139.363
1054.727, 91.176
1055.971, 184.991
1057.216, 164.808
1058.459, 135.625
1059.703, 80.445
1060.947, 137.287
1062.190, 143.876
1063.433, 81.651
1064.676, 86.475
1065.919, 91.301
1067.162, 126.132
1068.404, 55.496
1069.646, 93.329
1070.888, 142.172
1072.130, 112.087
1073.372, 63.933
1074.613, 79.779
1075.855, 77.737
1077.096, 101.478
1078.337, 127.330
1079.578, 64.183
1080.818, 97.370
1082.059, 97.225
1083.299, 110.147
1084.539, 101.003
1085.779, 83.860
1087.018, 69.718
1088.258, 47.576
1089.497, 58.464
1090.736, 91.326
1091.975, 110.189
1093.213, 38.133
1094.452, 125.997
1095.690, 83.868
1096.928, 67.733
1098.166, 102.446
1099.404, 91.364
1100.642, 90.235
1101.879, 32.107
1103.116, 117.979
1104.353, 185.850
1105.590, 108.722
1106.827, 149.604
1108.063, 116.485
1109.299, 175.513
1110.536, 136.281
1111.771, 241.756
1113.007, 263.909
1114.243, 318.901
1115.478, 316.898
1116.713, 382.901
1117.948, 476.858
1119.183, 476.831
1120.418, 525.777
1121.652, 589.717
1122.886, 645.631
1124.120, 692.543
1125.354, 684.450
1126.588, 729.332
1127.821, 861.212
1129.055, 1054.223
1130.288, 1350.109
1131.521, 1649.121
1132.753, 2062.998
1133.986, 2527.078
1135.218, 2773.954
1136.450, 2460.849
1137.682, 1999.907
1138.914, 1360.779
1140.146, 1038.650
1141.377, 716.520
1142.609, 561.393
1143.840, 436.071
1145.071, 359.938
1146.301, 262.803
1147.532, 192.803
1148.762, 132.745
1149.992, 103.635
1151.222, 89.813
1152.452, 86.671
1153.682, 0.595
1154.911, 55.449
1156.140, 61.307
1157.369, 8.814
1158.598, 49.695
1159.827, 49.412
1161.055, 32.259
1162.284, 33.323
1163.512, 76.325
1164.740, 29.173
1165.967, 32.243
1167.195, 21.664
1168.422, 18.453
1169.650, 22.757
1170.877, 10.047
1172.103, 5.092
1173.330, 23.052
1174.557, 53.939
1175.783, 63.745
1177.009, 3.460
1178.235, 49.309
1179.461, 6.925
1180.686, 9.160
1181.912, 27.589
1183.137, 61.888
1184.362, 5.632
1185.587, 2.566
1186.811, 28.170
1188.036, 50.029
1189.260, 27.674
1190.484, 9.569
1191.708, 35.125
1192.932, 7.815
1194.155, 19.579
1195.378, 2.728
1196.602, 38.949
1197.825, 40.649
1199.047, 41.320
1200.270, 3.990
1201.492, 35.676
1202.715, 27.339
1203.937, 62.998
1205.159, 42.655
1206.380, 60.329
1207.602, 23.004
1208.823, 7.332
1210.044, 60.322
1211.265, 36.956
1212.486, 49.587
1213.707, 31.215
1214.927, 3.160
1216.147, 64.456
1217.367, 38.070
1218.587, 13.680
1219.807, 89.286
1221.027, 53.888
1222.246, 36.487
1223.465, 58.083
1224.684, 52.676
1225.903, 52.265
1227.121, 15.150
1228.340, 52.438
1229.558, 17.006
1230.776, 67.570
1231.994, 46.131
1233.212, 70.689
1234.429, 75.245
1235.646, 27.797
1236.864, 78.344
1238.081, 81.887
1239.297, 15.428
1240.514, 81.966
1241.730, 33.497
1242.947, 48.025
1244.163, 6.450
1245.378, 23.068
1246.594, 95.583
1247.810, 53.177
1249.025, 71.683
1250.240, 50.173
1251.455, 61.660
1252.670, 67.143
1253.885, 70.643
1255.099, 8.119
1256.313, 6.410
1257.527, 1.695
1258.741, 12.439
1259.955, 13.010
1261.168, 12.452
1262.382, 11.889
1263.595, 21.318
1264.808, 17.743
1266.021, 24.084
1267.233, 25.617
1268.446, 31.986
1269.658, 32.391
1270.870, 33.772
1272.082, 45.144
1273.294, 60.504
1274.505, 13.857
1275.716, 34.204
1276.928, 11.546
1278.139, 65.880
1279.349, 7.208
1280.560, 60.531
1281.770, 35.850
1282.981, 8.161
1284.191, 104.467
1285.401, 49.768
1286.610, 70.064
1287.820, 40.356
1289.029, 4.356
1290.239, 46.923
1291.448, 48.198
1292.656, 12.470
1293.865, 22.736
1295.073, 34.998
1296.282, 4.254
1297.490, 42.506
1298.698, 25.752
1299.906, 46.960
1301.113, 41.198
1302.320, 49.568
1303.528, 34.629
1304.735, 5.162
1305.942, 42.039
1307.148, 10.764
1308.355, 10.424
1309.561, 40.605
1310.767, 6.783
1311.973, 5.956
1313.179, 24.680
1314.384, 12.593
1315.590, 37.222
1316.795, 5.639
1318.000, 0.354
1319.205, 11.495
1320.410, 30.631
1321.614, 33.727
1322.819, 58.529
1324.023, 57.652
1325.227, 36.179
1326.431, 52.555
1327.634, 3.334
1328.838, 108.772
1330.041, 23.315
1331.244, 85.053
1332.447, 21.149
1333.650, 40.889
1334.852, 21.065
1336.055, 40.327
1337.257, 46.458
1338.459, 15.469
1339.661, 31.525
1340.862, 67.184
1342.064, 27.259
1343.265, 54.332
1344.466, 59.784
1345.667, 28.756
1346.868, 65.823
1348.068, 46.888
1349.269, 50.975
1350.469, 29.037
1351.669, 27.796
1352.869, 29.834
1354.069, 29.427
1355.268, 38.486
1356.468, 62.531
1357.667, 71.575
1358.866, 85.616
1360.065, 90.542
1361.263, 63.163
1362.462, 86.201
1363.660, 93.155
1364.858, 74.178
1366.056, 92.199
1367.254, 55.219
1368.451, 150.689
1369.649, 83.641
1370.846, 98.819
1372.043, 27.959
1373.240, 65.062
1374.436, 100.123
1375.633, 65.360
1376.829, 42.409
1378.025, 34.414
1379.221, 50.666
1380.417, 62.139
1381.613, 43.354
1382.808, 42.481
1384.003, 60.675
1385.199, 63.938
1386.393, 48.117
1387.588, 40.290
1388.783, 55.457
1389.977, 62.461
1391.171, 10.021
1392.365, 27.653
1393.559, 43.510
1394.753, 33.433
1395.946, 53.392
1397.140, 25.408
1398.333, 113.457
1399.526, 51.398
1400.719, 54.276
1401.911, 103.092
1403.104, 17.114
1404.296, 50.933
1405.488, 59.965
1406.680, 85.993
1407.872, 59.003
1409.063, 95.737
1410.255, 73.291
1411.446, 92.187
1412.637, 103.157
1413.828, 112.309
1415.018, 68.070
1416.209, 120.114
1417.399, 99.649
1418.589, 111.058
1419.779, 55.756
1420.969, 60.889
1422.159, 24.560
1423.348, 78.404
1424.537, 101.266
1425.726, 70.333
1426.915, 21.104
1428.104, 65.854
1429.293, 60.657
1430.481, 139.549
1431.669, 128.301
1432.857, 75.144
1434.045, 119.020
1435.233, 120.853
1436.420, 107.714
1437.608, 132.491
1438.795, 87.287
1439.982, 132.137
1441.169, 167.980
1442.355, 89.824
1443.542, 165.662
1444.728, 121.493
1445.914, 117.318
1447.100, 47.134
1448.286, 127.932
1449.472, 65.751
1450.657, 179.559
1451.842, 134.359
1453.027, 93.150
1454.212, 153.935
1455.397, 144.712
1456.581, 143.476
1457.766, 164.052
1458.950, 106.852
1460.134, 169.597
1461.318, 93.377
1462.501, 158.153
1463.685, 151.788
1464.868, 26.555
1466.051, 97.323
1467.234, 80.095
1468.417, 74.911
1469.600, 88.825
1470.782, 51.774
1471.965, 12.254
1473.147, 90.736
1474.329, 78.741
1475.510, 100.766
1476.692, 0.200
1477.873, 77.843
1479.055, 8.895
1480.236, 112.957
1481.416, 41.031
1482.597, 134.116
1483.778, 53.215
1484.958, 66.327
1486.138, 8.543
1487.318, 125.605
1488.498, 123.775
1489.678, 48.971
1490.857, 17.203
1492.037, 159.468
1493.216, 57.771
1494.395, 60.118
1495.574, 116.511
1496.752, 88.944
1497.931, 67.425
1499.109, 50.784
1500.287, 69.619
1501.465, 43.688
1502.643, 67.081
1503.820, 47.501
1504.998, 46.811
1506.175, 87.053
1507.352, 80.866
1508.529, 108.290
1509.706, 100.337
1510.882, 126.683
1512.059, 118.075
1513.235, 72.447
1514.411, 12.273
1515.587, 9.303
1516.762, 0.373
1517.938, 34.369
1519.113, 64.735
1520.288, 0.073
1521.463, 0.000
##END=



