##NAMES=Gypsum
##RRUFFID=R040029
##IDEAL CHEMISTRY=CaS^6+^O_4_&#183;2H_2_O
##LOCALITY=Twin Buttes, Pima County, Arizona, USA
##OWNER=RRUFF
##SOURCE=University of Arizona Mineral Museum
##DESCRIPTION=Colorless prismatic crystal
##STATUS=The identification of this mineral has been confirmed by X-ray diffraction.
##URL=rruff.info/R040029
##PIN_ID=M00440
##ORIENTATION=Laser parallel to -b* (0 -1 0). Fiducial mark perpendicular to laser is parallel to -c [0 0 -1]
79.427, 0.000
80.823, 52.567
82.218, 38.773
83.614, 45.355
85.009, 37.809
86.404, 60.912
87.798, 66.384
89.193, 117.411
90.587, 94.448
91.981, 117.113
93.375, 83.120
94.768, 79.247
96.161, 97.317
97.554, 98.197
98.947, 111.090
100.340, 133.952
101.732, 144.786
103.124, 188.065
104.516, 223.783
105.908, 263.893
107.300, 273.354
108.691, 215.121
110.082, 181.157
111.473, 157.433
112.864, 228.936
114.254, 343.654
115.644, 481.620
117.034, 557.760
118.424, 378.090
119.813, 363.737
121.203, 267.522
122.592, 286.428
123.981, 380.473
125.369, 515.637
126.758, 702.896
128.146, 911.249
129.534, 1168.660
130.922, 1072.186
132.309, 979.833
133.696, 669.523
135.083, 541.226
136.470, 425.944
137.857, 315.677
139.243, 275.424
140.630, 252.186
142.016, 214.987
143.401, 206.464
144.787, 184.304
146.172, 185.965
147.557, 159.160
148.942, 129.371
150.327, 123.812
151.711, 109.531
153.096, 99.920
154.480, 111.643
155.863, 94.896
157.247, 121.976
158.630, 137.327
160.013, 119.453
161.396, 136.197
162.779, 152.919
164.161, 102.960
165.544, 157.368
166.926, 157.311
168.308, 185.915
169.689, 223.865
171.070, 308.999
172.452, 370.906
173.833, 437.820
175.213, 550.526
176.594, 618.431
177.974, 775.758
179.354, 730.236
180.734, 673.166
182.114, 546.369
183.493, 441.241
184.872, 348.138
186.251, 239.007
187.630, 191.889
189.008, 179.795
190.387, 95.725
191.765, 70.666
193.143, 100.616
194.520, 93.576
195.898, 79.547
197.275, 38.525
198.652, 79.513
200.029, 63.508
201.405, 100.573
202.782, 46.544
204.158, 71.576
205.534, 164.786
206.909, 105.250
208.285, 112.815
209.660, 110.769
211.035, 124.681
212.410, 94.527
213.784, 98.045
215.159, 92.948
216.533, 49.233
217.907, 44.489
219.281, 38.703
220.654, 18.153
222.027, 23.674
223.400, 6.000
224.773, 2.760
226.146, 20.671
227.518, 9.580
228.891, 3.425
230.263, 8.274
231.634, 3.137
233.006, 22.595
234.377, 6.737
235.748, 22.875
237.119, 34.012
238.490, 52.853
239.860, 5.714
241.231, 38.563
242.601, 11.591
243.970, 11.743
245.340, 30.941
246.709, 20.946
248.079, 26.157
249.448, 21.478
250.816, 1.004
252.185, 40.585
253.553, 15.752
254.921, 0.980
256.289, 11.228
257.657, 43.615
259.024, 12.506
260.391, 16.439
261.758, 40.592
263.125, 24.403
264.492, 11.428
265.858, 14.480
267.224, 38.556
268.590, 24.346
269.956, 37.768
271.321, 11.899
272.687, 25.047
274.052, 5.790
275.416, 13.386
276.781, 2.574
278.146, 7.226
279.510, 1.982
280.874, 41.200
282.237, 38.574
283.601, 26.349
284.964, 19.877
286.327, 25.109
287.690, 24.655
289.053, 15.580
290.416, 41.835
291.778, 5.077
293.140, 26.372
294.502, 44.620
295.863, 27.870
297.225, 19.070
298.586, 10.339
299.947, 26.594
301.308, 34.850
302.668, 59.107
304.029, 77.381
305.389, 44.640
306.749, 100.900
308.108, 66.195
309.468, 61.455
310.827, 105.715
312.186, 133.974
313.545, 142.232
314.903, 84.484
316.262, 38.734
317.620, 68.982
318.978, 78.230
320.336, 10.476
321.693, 22.713
323.051, 61.929
324.408, 4.855
325.765, 13.354
327.121, 28.560
328.478, 17.235
329.834, 5.958
331.190, 27.145
332.546, 38.672
333.902, 5.500
335.257, 7.343
336.612, 17.810
337.967, 25.963
339.322, 31.891
340.677, 58.245
342.031, 36.621
343.385, 2.499
344.739, 18.384
346.093, 2.704
347.446, 3.210
348.799, 18.863
350.153, 21.937
351.505, 7.011
352.858, 12.085
354.210, 13.781
355.563, 22.771
356.915, 20.293
358.267, 8.643
359.618, 16.585
360.969, 25.467
362.321, 25.519
363.672, 6.571
365.022, 34.619
366.373, 36.664
367.723, 25.709
369.073, 57.743
370.423, 35.763
371.773, 49.153
373.122, 20.788
374.471, 65.787
375.821, 36.770
377.169, 54.741
378.518, 47.708
379.866, 44.714
381.215, 59.678
382.563, 34.633
383.910, 10.076
385.258, 62.016
386.605, 76.954
387.952, 55.893
389.299, 95.833
390.646, 111.772
391.992, 140.713
393.339, 138.655
394.685, 193.596
396.031, 251.823
397.376, 227.626
398.722, 267.833
400.067, 331.529
401.412, 441.478
402.757, 592.433
404.101, 785.390
405.446, 1006.035
406.790, 1400.673
408.134, 2057.638
409.478, 2977.610
410.821, 3984.586
412.165, 4510.839
413.508, 4504.821
414.851, 3606.805
416.193, 2588.280
417.536, 1803.267
418.878, 1293.909
420.220, 930.899
421.562, 698.889
422.904, 572.880
424.245, 440.100
425.586, 363.092
426.927, 339.085
428.268, 249.078
429.609, 225.070
430.949, 173.024
432.289, 216.017
433.629, 145.010
434.969, 156.003
436.309, 147.750
437.648, 132.745
438.987, 87.738
440.326, 126.391
441.665, 69.378
443.003, 77.375
444.342, 114.409
445.680, 41.095
447.018, 44.106
448.355, 71.117
449.693, 35.838
451.030, 17.849
452.367, 73.863
453.704, 14.876
455.041, 68.894
456.377, 61.912
457.713, 25.072
459.049, 17.931
460.385, 81.932
461.721, 36.937
463.056, 33.941
464.391, 17.947
465.726, 71.959
467.061, 40.971
468.395, 15.982
469.730, 83.991
471.064, 66.000
472.398, 96.008
473.731, 59.015
475.065, 110.033
476.398, 101.051
477.731, 86.068
479.064, 181.085
480.397, 240.101
481.729, 226.070
483.062, 287.085
484.394, 450.099
485.725, 565.399
487.057, 741.397
488.389, 929.415
489.720, 1045.998
491.051, 1225.767
492.382, 1170.784
493.712, 1049.117
495.043, 899.843
496.373, 654.904
497.703, 609.920
499.032, 463.940
500.362, 344.597
501.691, 318.621
503.020, 206.977
504.349, 179.504
505.678, 221.892
507.007, 114.411
508.335, 131.618
509.663, 57.634
510.991, 96.671
512.319, 127.361
513.646, 97.218
514.973, 51.112
516.300, 51.184
517.627, 91.199
518.954, 113.050
520.280, 94.456
521.607, 44.495
522.933, 77.535
524.259, 52.143
525.584, 65.184
526.910, 30.226
528.235, 76.267
529.560, 26.309
530.885, 25.351
532.209, 36.395
533.534, 100.379
534.858, 6.424
536.182, 81.468
537.506, 22.514
538.829, 20.440
540.152, 64.598
541.476, 55.636
542.799, 30.675
544.121, 74.339
545.444, 37.382
546.766, 76.425
548.088, 77.469
549.410, 47.514
550.732, 113.560
552.053, 137.606
553.375, 95.653
554.696, 128.100
556.017, 64.152
557.337, 134.205
558.658, 112.262
559.978, 117.325
561.298, 179.507
562.618, 107.580
563.938, 52.653
565.257, 196.773
566.576, 111.856
567.895, 231.467
569.214, 247.552
570.533, 202.636
571.851, 199.726
573.170, 241.815
574.488, 271.911
575.805, 237.003
577.123, 275.118
578.440, 343.213
579.758, 358.308
581.075, 323.420
582.391, 348.516
583.708, 341.818
585.024, 395.922
586.341, 353.027
587.657, 411.131
588.972, 431.235
590.288, 404.464
591.603, 364.638
592.918, 339.975
594.233, 342.647
595.548, 429.488
596.863, 381.598
598.177, 398.734
599.491, 463.890
600.805, 415.994
602.119, 428.111
603.432, 523.174
604.746, 496.307
606.059, 481.437
607.372, 525.669
608.685, 598.180
609.997, 667.055
611.309, 645.189
612.621, 673.604
613.933, 733.807
615.245, 844.939
616.557, 832.908
617.868, 857.023
619.179, 910.012
620.490, 828.142
621.801, 830.830
623.111, 688.764
624.421, 688.892
625.731, 502.019
627.041, 472.111
628.351, 412.237
629.660, 283.381
630.970, 298.505
632.279, 206.452
633.588, 229.574
634.896, 158.807
636.205, 193.927
637.513, 129.144
638.821, 173.330
640.129, 160.447
641.437, 180.660
642.744, 150.052
644.051, 148.169
645.358, 152.286
646.665, 159.454
647.972, 125.633
649.278, 160.825
650.584, 96.851
651.890, 221.995
653.196, 128.202
654.502, 176.336
655.807, 147.469
657.113, 156.645
658.418, 185.581
659.722, 145.720
661.027, 122.870
662.331, 143.021
663.636, 173.282
664.940, 143.375
666.244, 220.536
667.547, 134.800
668.851, 171.957
670.154, 165.259
671.457, 143.417
672.760, 187.575
674.062, 109.802
675.365, 118.964
676.667, 81.130
677.969, 128.336
679.271, 88.506
680.572, 77.708
681.874, 134.877
683.175, 91.044
684.476, 122.228
685.777, 131.391
687.077, 54.553
688.378, 92.810
689.678, 88.968
690.978, 65.125
692.278, 40.280
693.577, 49.198
694.877, 37.255
696.176, 69.741
697.475, 36.923
698.774, 65.084
700.072, 61.238
701.371, 36.382
702.669, 53.239
703.967, 83.665
705.265, 41.803
706.562, 63.940
707.860, 31.074
709.157, 87.207
710.454, 19.662
711.751, 44.495
713.047, 16.610
714.344, 40.788
715.640, 16.898
716.936, 14.042
718.232, 41.053
719.527, 55.147
720.823, 8.295
722.118, 62.726
723.413, 4.033
724.708, 67.084
726.002, 26.226
727.297, 22.300
728.591, 44.392
729.885, 16.725
731.179, 30.986
732.472, 13.719
733.766, 21.901
735.059, 52.959
736.352, 16.015
737.645, 55.184
738.937, 2.234
740.230, 37.359
741.522, 33.402
742.814, 92.443
744.106, 24.480
745.397, 6.515
746.689, 10.558
747.980, 1.586
749.271, 0.638
750.562, 18.655
751.853, 51.679
753.143, 19.662
754.433, 15.779
755.723, 10.216
757.013, 69.840
758.303, 57.171
759.592, 25.783
760.881, 31.733
762.170, 9.685
763.459, 0.366
764.748, 6.425
766.036, 44.507
767.325, 15.565
768.613, 13.349
769.901, 87.260
771.188, 6.834
772.476, 47.072
773.763, 8.025
775.050, 38.866
776.337, 3.244
777.624, 23.364
778.910, 35.499
780.196, 86.357
781.482, 59.213
782.768, 35.066
784.054, 25.918
785.339, 32.766
786.625, 39.389
787.910, 119.429
789.195, 10.247
790.479, 79.062
791.764, 11.883
793.048, 15.711
794.332, 34.535
795.616, 12.359
796.900, 14.822
798.183, 54.983
799.467, 45.786
800.750, 20.587
802.033, 19.391
803.316, 16.563
804.598, 9.011
805.880, 30.777
807.163, 15.561
808.445, 36.351
809.726, 83.138
811.008, 23.922
812.289, 7.289
813.570, 93.490
814.851, 87.265
816.132, 46.038
817.413, 12.807
818.693, 41.428
819.973, 37.308
821.253, 13.040
822.533, 61.768
823.813, 8.492
825.092, 41.211
826.371, 35.926
827.650, 21.638
828.929, 59.346
830.208, 92.050
831.486, 28.750
832.764, 40.447
834.042, 29.139
835.320, 54.828
836.598, 49.513
837.875, 33.195
839.152, 38.872
840.429, 44.887
841.706, 15.216
842.983, 64.882
844.259, 76.543
845.536, 72.202
846.812, 27.857
848.088, 52.508
849.363, 61.156
850.639, 30.805
851.914, 35.449
853.189, 37.090
854.464, 81.728
855.739, 57.362
857.013, 41.993
858.288, 71.620
859.562, 49.244
860.836, 50.864
862.110, 42.480
863.383, 43.093
864.656, 29.304
865.930, 63.910
867.203, 23.512
868.475, 45.110
869.748, 27.294
871.020, 51.170
872.292, 66.742
873.564, 25.311
874.836, 18.169
876.108, 6.380
877.379, 29.399
878.650, 22.941
879.922, 65.480
881.192, 34.016
882.463, 20.548
883.733, 33.071
885.004, 32.597
886.274, 10.097
887.544, 45.616
888.813, 50.132
890.083, 11.630
891.352, 58.139
892.621, 20.448
893.890, 47.951
895.159, 70.451
896.427, 42.948
897.695, 113.441
898.964, 36.815
900.232, 98.240
901.499, 32.499
902.767, 50.709
904.034, 37.170
905.301, 13.353
906.568, 13.543
907.835, 54.516
909.102, 23.988
910.368, 67.444
911.634, 63.959
912.900, 78.407
914.166, 89.009
915.432, 108.379
916.697, 98.615
917.962, 130.105
919.227, 96.544
920.492, 52.649
921.757, 88.012
923.021, 74.450
924.285, 119.206
925.550, 42.632
926.813, 49.197
928.077, 41.729
929.341, 36.607
930.604, 131.201
931.867, 62.614
933.130, 94.110
934.393, 163.659
935.655, 44.229
936.918, 114.661
938.180, 60.092
939.442, 29.782
940.703, 131.899
941.965, 139.267
943.226, 62.062
944.488, 148.751
945.749, 125.068
947.009, 63.979
948.270, 87.263
949.530, 122.548
950.791, 145.082
952.051, 102.832
953.311, 135.376
954.570, 121.978
955.830, 166.402
957.089, 198.258
958.348, 176.604
959.607, 211.166
960.866, 216.560
962.124, 181.069
963.383, 199.380
964.641, 303.018
965.899, 309.362
967.156, 314.934
968.414, 287.273
969.671, 364.503
970.928, 286.903
972.185, 360.234
973.442, 370.458
974.699, 494.786
975.955, 495.967
977.211, 485.291
978.468, 655.616
979.723, 532.878
980.979, 617.204
982.234, 733.526
983.490, 672.813
984.745, 873.138
986.000, 987.424
987.254, 1172.743
988.509, 1440.059
989.763, 1429.359
991.017, 1548.674
992.271, 1660.003
993.525, 1922.233
994.779, 2221.555
996.032, 2612.889
997.285, 3144.219
998.538, 3821.503
999.791, 5385.839
1001.044, 7323.182
1002.296, 11039.486
1003.548, 17663.809
1004.800, 31277.139
1006.052, 52730.469
1007.304, 60847.801
1008.555, 60404.133
1009.807, 37919.453
1011.058, 21038.777
1012.309, 12116.095
1013.559, 7653.417
1014.810, 5189.737
1016.060, 3791.017
1017.310, 2838.335
1018.560, 2259.591
1019.810, 1816.909
1021.060, 1534.297
1022.309, 1240.639
1023.558, 1077.977
1024.807, 817.338
1026.056, 823.328
1027.305, 634.502
1028.553, 617.792
1029.801, 549.278
1031.049, 478.632
1032.297, 449.547
1033.545, 395.324
1034.793, 367.611
1036.040, 304.892
1037.287, 268.248
1038.534, 245.783
1039.781, 218.835
1041.027, 209.397
1042.274, 197.781
1043.520, 186.994
1044.766, 182.327
1046.012, 126.713
1047.257, 126.996
1048.503, 151.883
1049.748, 97.146
1050.993, 128.418
1052.238, 118.656
1053.483, 103.013
1054.727, 64.266
1055.971, 66.475
1057.216, 100.961
1058.459, 72.250
1059.703, 71.439
1060.947, 109.688
1062.190, 78.949
1063.433, 19.793
1064.676, 46.758
1065.919, 56.365
1067.162, 156.697
1068.404, 56.940
1069.646, 47.284
1070.888, 78.524
1072.130, 44.894
1073.372, 20.125
1074.613, 67.699
1075.855, 56.987
1077.096, 21.214
1078.337, 43.435
1079.578, 51.653
1080.818, 59.876
1082.059, 28.181
1083.299, 15.413
1084.539, 9.740
1085.779, 38.124
1087.018, 42.322
1088.258, 22.557
1089.497, 11.245
1090.736, 29.943
1091.975, 37.874
1093.213, 37.716
1094.452, 70.417
1095.690, 7.455
1096.928, 67.815
1098.166, 7.930
1099.404, 14.044
1100.642, 3.847
1101.879, 18.538
1103.116, 1.390
1104.353, 21.756
1105.590, 4.173
1106.827, 92.895
1108.063, 35.043
1109.299, 43.995
1110.536, 16.574
1111.771, 30.399
1113.007, 33.605
1114.243, 88.047
1115.478, 3.177
1116.713, 57.347
1117.948, 62.469
1119.183, 74.578
1120.418, 157.693
1121.652, 183.974
1122.886, 229.208
1124.120, 275.461
1125.354, 284.660
1126.588, 404.373
1127.821, 437.328
1129.055, 617.160
1130.288, 725.140
1131.521, 863.577
1132.753, 993.790
1133.986, 1245.717
1135.218, 1728.725
1136.450, 1939.734
1137.682, 2580.087
1138.914, 2739.003
1140.146, 3198.500
1141.377, 3293.631
1142.609, 3130.566
1143.840, 2882.709
1145.071, 2424.712
1146.301, 1860.704
1147.532, 1504.246
1148.762, 1164.109
1149.992, 908.096
1151.222, 706.466
1152.452, 577.595
1153.682, 416.462
1154.911, 331.241
1156.140, 289.299
1157.369, 231.197
1158.598, 208.186
1159.827, 235.123
1161.055, 168.307
1162.284, 156.118
1163.512, 188.905
1164.740, 148.664
1165.967, 169.756
1167.195, 98.717
1168.422, 170.403
1169.650, 148.247
1170.877, 105.984
1172.103, 65.719
1173.330, 94.601
1174.557, 135.313
1175.783, 113.076
1177.009, 31.773
1178.235, 78.460
1179.461, 49.139
1180.686, 120.809
1181.912, 105.472
1183.137, 87.395
1184.362, 46.199
1185.587, 24.837
1186.811, 87.464
1188.036, 70.710
1189.260, 66.323
1190.484, 88.925
1191.708, 77.718
1192.932, 64.304
1194.155, 89.661
1195.378, 6.515
1196.602, 105.084
1197.825, 126.668
1199.047, 91.207
1200.270, 67.820
1201.492, 129.414
1202.715, 30.928
1203.937, 102.436
1205.159, 80.936
1206.380, 113.428
1207.602, 117.585
1208.823, 116.388
1210.044, 111.855
1211.265, 25.625
1212.486, 19.074
1213.707, 67.551
1214.927, 132.741
1216.147, 65.161
1217.367, 125.573
1218.587, 58.976
1219.807, 115.363
1221.027, 22.642
1222.246, 76.039
1223.465, 116.410
1224.684, 99.662
1225.903, 100.999
1227.121, 103.706
1228.340, 70.685
1229.558, 86.930
1230.776, 63.113
1231.994, 48.262
1233.212, 91.519
1234.429, 81.859
1235.646, 134.031
1236.864, 143.590
1238.081, 121.778
1239.297, 143.641
1240.514, 137.502
1241.730, 91.756
1242.947, 51.476
1244.163, 121.715
1245.378, 101.766
1246.594, 103.832
1247.810, 37.673
1249.025, 71.656
1250.240, 70.586
1251.455, 102.650
1252.670, 109.436
1253.885, 102.613
1255.099, 91.491
1256.313, 5.602
1257.527, 108.578
1258.741, 88.811
1259.955, 8.836
1261.168, 51.922
1262.382, 40.770
1263.595, 50.823
1264.808, 52.854
1266.021, 52.865
1267.233, 21.864
1268.446, 26.854
1269.658, 23.833
1270.870, 29.804
1272.082, 15.243
1273.294, 84.696
1274.505, 1.382
1275.716, 74.493
1276.928, 6.360
1278.139, 7.783
1279.349, 89.060
1280.560, 61.894
1281.770, 59.721
1282.981, 10.463
1284.191, 79.338
1285.401, 44.873
1286.610, 27.892
1287.820, 69.647
1289.029, 39.606
1290.239, 50.118
1291.448, 50.833
1292.656, 30.460
1293.865, 19.774
1295.073, 46.896
1296.282, 4.554
1297.490, 20.201
1298.698, 69.833
1299.906, 65.456
1301.113, 44.070
1302.320, 56.676
1303.528, 33.273
1304.735, 43.782
1305.942, 10.561
1307.148, 70.003
1308.355, 73.558
1309.561, 107.104
1310.767, 11.359
1311.973, 50.163
1313.179, 83.325
1314.384, 52.153
1315.590, 75.622
1316.795, 74.081
1318.000, 36.449
1319.205, 111.889
1320.410, 62.319
1321.614, 89.864
1322.819, 127.926
1324.023, 113.298
1325.227, 78.540
1326.431, 81.929
1327.634, 19.310
1328.838, 36.684
1330.041, 92.879
1331.244, 111.945
1332.447, 0.298
1333.650, 72.571
1334.852, 83.819
1336.055, 26.150
1337.257, 79.432
1338.459, 56.649
1339.661, 85.962
1340.862, 67.660
1342.064, 61.962
1343.265, 104.259
1344.466, 50.550
1345.667, 52.748
1346.868, 171.029
1348.068, 109.045
1349.269, 131.318
1350.469, 138.552
1351.669, 113.818
1352.869, 117.083
1354.069, 95.344
1355.268, 1.604
1356.468, 97.558
1357.667, 57.454
1358.866, 3.380
1360.065, 161.875
1361.263, 90.025
1362.462, 83.282
1363.660, 105.407
1364.858, 74.626
1366.056, 61.548
1367.254, 85.755
1368.451, 100.029
1369.649, 108.310
1370.846, 131.599
1372.043, 150.897
1373.240, 114.153
1374.436, 129.347
1375.633, 106.425
1376.829, 98.469
1378.025, 45.590
1379.221, 131.568
1380.417, 105.200
1381.613, 144.836
1382.808, 206.492
1384.003, 103.987
1385.199, 110.628
1386.393, 86.982
1387.588, 97.547
1388.783, 173.179
1389.977, 75.230
1391.171, 121.869
1392.365, 104.878
1393.559, 57.154
1394.753, 76.482
1395.946, 148.459
1397.140, 62.463
1398.333, 85.021
1399.526, 127.503
1400.719, 82.943
1401.911, 31.347
1403.104, 138.996
1404.296, 53.085
1405.488, 124.147
1406.680, 67.352
1407.872, 190.191
1409.063, 160.783
1410.255, 81.998
1411.446, 188.121
1412.637, 63.047
1413.828, 197.832
1415.018, 81.133
1416.209, 161.299
1417.399, 104.359
1418.589, 244.146
1419.779, 81.167
1420.969, 126.968
1422.159, 79.911
1423.348, 174.929
1424.537, 149.941
1425.726, 101.311
1426.915, 143.298
1428.104, 125.321
1429.293, 194.975
1430.481, 120.821
1431.669, 139.738
1432.857, 128.612
1434.045, 126.286
1435.233, 191.196
1436.420, 252.098
1437.608, 182.988
1438.795, 141.062
1439.982, 161.855
1441.169, 164.359
1442.355, 222.179
1443.542, 203.978
1444.728, 159.726
1445.914, 125.490
1447.100, 252.235
1448.286, 222.962
1449.472, 159.674
1450.657, 291.220
1451.842, 231.887
1453.027, 258.519
1454.212, 259.119
1455.397, 217.684
1456.581, 196.218
1457.766, 229.679
1458.950, 202.156
1460.134, 250.626
1461.318, 154.117
1462.501, 171.337
1463.685, 226.898
1464.868, 144.553
1466.051, 240.290
1467.234, 91.020
1468.417, 26.762
1469.600, 129.530
1470.782, 213.504
1471.965, 38.480
1473.147, 215.453
1474.329, 154.438
1475.510, 76.452
1476.692, 165.473
1477.873, 135.501
1479.055, 41.538
1480.236, 119.592
1481.416, 144.691
1482.597, 221.828
1483.778, 118.983
1484.958, 128.163
1486.138, 107.373
1487.318, 207.620
1488.498, 178.910
1489.678, 155.253
1490.857, 137.661
1492.037, 130.159
1493.216, 86.705
1494.395, 112.333
1495.574, 115.036
1496.752, 74.806
1497.931, 135.646
1499.109, 115.566
1500.287, 151.574
1501.465, 142.406
1502.643, 31.897
1503.820, 77.236
1504.998, 96.711
1506.175, 12.660
1507.352, 108.134
1508.529, 101.109
1509.706, 118.289
1510.882, 68.702
1512.059, 132.384
1513.235, 148.376
1514.411, 1.906
1515.587, 138.045
1516.762, 22.020
1517.938, 0.097
1519.113, 50.563
1520.288, 0.000
##END=



