##NAMES=Gypsum
##RRUFFID=R060509
##IDEAL CHEMISTRY=CaS^6+^O_4_&#183;2H_2_O
##LOCALITY=Pierre Shale, Hermosa, Custer County, South Dakota, USA
##OWNER=RRUFF
##SOURCE=Michael Scott
##DESCRIPTION=Colorless tabular single crystal
##STATUS=The identification of this mineral has been confirmed by X-ray diffraction and chemical analysis
##URL=rruff.info/R060509
##PIN_ID=L01702
##ORIENTATION=Laser parallel to a* (1 0 0). Fiducial mark perpendicular to laser is parallel to b [0 1 0]
152.1870, 0.0000000E+00
153.4230, 9.588867
154.6590, 17.03296
155.8940, 9.800293
157.1300, 101.8591
158.3650, 112.1052
159.6000, 241.8345
160.8340, 419.0115
162.0690, 396.9934
163.3030, 688.7271
164.5370, 748.1584
165.7710, 887.7773
167.0050, 1119.032
168.2380, 1284.534
169.4720, 1546.207
170.7050, 1805.321
171.9380, 2171.200
173.1700, 2554.611
174.4030, 2851.557
175.6350, 3240.487
176.8680, 3457.949
178.1000, 3949.216
179.3310, 4050.591
180.5630, 4139.957
181.7940, 4039.424
183.0260, 3778.213
184.2570, 3320.015
185.4870, 2723.168
186.7180, 2236.051
187.9480, 1682.315
189.1790, 1314.280
190.4090, 969.8665
191.6390, 818.0264
192.8680, 630.5962
194.0980, 530.0286
195.3270, 490.1929
196.5560, 420.7246
197.7850, 440.8726
199.0140, 424.7725
200.2420, 404.8877
201.4710, 426.8584
202.6990, 474.3940
203.9270, 447.8945
205.1550, 407.8811
206.3820, 519.0737
207.6090, 416.6157
208.8370, 416.7651
210.0640, 454.4617
211.2900, 465.4495
212.5170, 457.3831
213.7440, 430.8115
214.9700, 397.0476
216.1960, 361.0071
217.4220, 254.7615
218.6470, 253.9170
219.8730, 154.0857
221.0980, 220.6526
222.3230, 161.3372
223.5480, 124.2751
224.7730, 86.48413
225.9970, 64.71460
227.2220, 58.40405
228.4460, 43.91943
229.6700, 29.10376
230.8940, 15.84570
232.1170, 1.857178
233.3400, 9.687500
234.5640, 20.98779
235.7870, 7.162842
237.0100, 44.27197
238.2320, 4.219727
239.4550, 42.86572
240.6770, 44.09644
241.8990, 38.89478
243.1210, 48.17627
244.3420, 0.5629880
245.5640, 27.50293
246.7850, 9.032715
248.0060, 30.11133
249.2270, 56.99756
250.4480, 13.59009
251.6690, 3.137451
252.8890, 29.20020
254.1090, 6.497070
255.3290, 49.69824
256.5490, 11.04053
257.7680, 2.185303
258.9880, 60.08301
260.2070, 41.00610
261.4260, 7.834961
262.6450, 38.61890
263.8640, 5.649170
265.0820, 8.977539
266.3000, 36.61377
267.5180, 3.893555
268.7360, 51.49194
269.9540, 20.80688
271.1720, 31.99805
272.3890, 2.128662
273.6060, 26.78442
274.8230, 27.22949
276.0400, 66.18896
277.2560, 20.10400
278.4730, 22.97827
279.6890, 58.82446
280.9050, 15.35840
282.1210, 7.583008
283.3370, 38.84155
284.5520, 43.12524
285.7670, 15.54224
286.9820, 9.832275
288.1970, 50.77734
289.4120, 22.37085
290.6270, 64.93286
291.8410, 10.56152
293.0550, 32.91284
294.2690, 48.37427
295.4830, 16.82397
296.6970, 32.26221
297.9100, 10.69189
299.1230, 17.61084
300.3360, 64.55200
301.5490, 27.44067
302.7620, 147.9851
303.9740, 65.93213
305.1860, 41.86792
306.3990, 129.7751
307.6110, 132.6421
308.8220, 166.4600
310.0340, 166.2200
311.2450, 168.2913
312.4560, 154.5366
313.6670, 154.0830
314.8780, 158.5520
316.0890, 139.9426
317.2990, 204.2520
318.5090, 210.4773
319.7200, 252.6116
320.9290, 265.6475
322.1390, 167.5808
323.3490, 190.4128
324.5580, 169.1450
325.7670, 215.7803
326.9760, 197.3225
328.1850, 205.7761
329.3930, 209.1438
330.6020, 161.4294
331.8100, 177.6313
333.0180, 89.74219
334.2260, 117.7593
335.4340, 164.6711
336.6410, 90.47583
337.8480, 121.1611
339.0550, 67.69800
340.2620, 67.07861
341.4690, 86.29541
342.6760, 102.3828
343.8820, 110.2949
345.0880, 115.5923
346.2940, 131.8911
347.5000, 125.5371
348.7060, 136.0825
349.9110, 163.5764
351.1160, 98.99854
352.3210, 82.38257
353.5260, 73.72266
354.7310, 135.9971
355.9360, 165.2273
357.1400, 121.4263
358.3440, 133.5615
359.5480, 128.6455
360.7520, 103.7053
361.9550, 159.7415
363.1590, 155.6462
364.3620, 177.4309
365.5650, 139.7695
366.7680, 157.3794
367.9710, 165.7219
369.1730, 184.8779
370.3760, 168.7192
371.5780, 161.3247
372.7800, 207.8621
373.9810, 169.1975
375.1830, 174.2532
376.3840, 200.9514
377.5860, 176.0398
378.7870, 181.4470
379.9880, 220.1865
381.1880, 178.8362
382.3890, 160.1978
383.5890, 270.1118
384.7890, 241.6045
385.9890, 235.0918
387.1890, 272.0132
388.3880, 313.3132
389.5880, 308.6345
390.7870, 378.5193
391.9860, 380.3923
393.1850, 400.7783
394.3840, 421.5544
395.5820, 500.6436
396.7800, 625.5317
397.9790, 727.2642
399.1770, 915.3833
400.3740, 1080.455
401.5720, 1441.814
402.7690, 1849.353
403.9670, 2322.428
405.1640, 2960.063
406.3600, 3603.204
407.5570, 4387.835
408.7540, 4919.333
409.9500, 5754.654
411.1460, 6529.297
412.3420, 7120.007
413.5380, 7508.794
414.7330, 7549.294
415.9290, 7167.357
417.1240, 6303.590
418.3190, 5241.062
419.5140, 4098.715
420.7090, 3079.710
421.9030, 2373.321
423.0970, 1696.984
424.2920, 1294.962
425.4860, 1093.404
426.6790, 838.3809
427.8730, 679.4397
429.0660, 523.2852
430.2600, 477.0127
431.4530, 451.0547
432.6460, 378.1230
433.8380, 334.9758
435.0310, 241.1326
436.2230, 253.3127
437.4150, 228.3101
438.6070, 140.4368
439.7990, 167.3401
440.9910, 177.3948
442.1820, 138.2905
443.3730, 88.23267
444.5640, 169.4458
445.7550, 65.44653
446.9460, 175.9834
448.1370, 69.16162
449.3270, 64.22363
450.5170, 95.63843
451.7070, 59.04980
452.8970, 105.5876
454.0870, 89.10938
455.2760, 58.62598
456.4650, 85.07397
457.6550, 34.51172
458.8430, 83.95874
460.0320, 97.31958
461.2210, 88.84546
462.4090, 48.35938
463.5970, 62.86206
464.7850, 21.35303
465.9730, 51.77222
467.1610, 56.24243
468.3480, 68.65015
469.5360, 110.1013
470.7230, 102.5439
471.9100, 111.9775
473.0970, 165.4031
474.2830, 102.7424
475.4700, 164.1438
476.6560, 269.1724
477.8420, 332.3145
479.0280, 312.6484
480.2140, 411.6687
481.3990, 463.8254
482.5850, 523.7573
483.7700, 753.6855
484.9550, 782.6951
486.1400, 1035.774
487.3240, 1156.893
488.5090, 1270.036
489.6930, 1437.251
490.8770, 1537.445
492.0610, 1614.689
493.2450, 1675.052
494.4290, 1621.151
495.6120, 1533.816
496.7950, 1352.221
497.9780, 1188.509
499.1610, 961.9080
500.3440, 702.1487
501.5260, 613.4475
502.7090, 492.7332
503.8910, 381.9224
505.0730, 319.3306
506.2550, 242.7415
507.4360, 229.1621
508.6180, 148.8218
509.7990, 192.2568
510.9800, 71.01953
512.1610, 125.4663
513.3420, 99.92212
514.5230, 37.38647
515.7030, 78.88647
516.8830, 105.3962
518.0630, 63.91650
519.2430, 29.44922
520.4230, 34.99707
521.6020, 21.56299
522.7820, 36.14941
523.9610, 42.75293
525.1400, 45.38281
526.3190, 51.02856
527.4970, 16.68286
528.6760, 7.636963
529.8540, 12.06714
531.0320, 77.79785
532.2100, 32.45752
533.3880, 7.291504
534.5660, 49.05176
535.7430, 43.17920
536.9200, 38.61035
538.0970, 31.59009
539.2740, 20.21851
540.4510, 14.95264
541.6270, 25.11426
542.8040, 25.27197
543.9800, 50.58618
545.1560, 117.4563
546.3320, 98.33350
547.5080, 63.21875
548.6830, 60.11401
549.8580, 31.01709
551.0340, 88.93311
552.2090, 96.86230
553.3830, 109.7998
554.5580, 25.74927
555.7320, 65.70557
556.9070, 57.66992
558.0810, 101.6533
559.2550, 146.6465
560.4280, 153.1304
561.6020, 191.1477
562.7750, 183.1711
563.9490, 147.2024
565.1220, 216.2405
566.2950, 167.2847
567.4670, 253.3462
568.6400, 215.8218
569.8120, 223.0986
570.9840, 237.8425
572.1560, 168.1738
573.3280, 232.8213
574.5000, 201.2737
575.6710, 197.5042
576.8430, 269.3174
578.0140, 241.6028
579.1850, 190.1465
580.3560, 154.0796
581.5260, 229.3010
582.6970, 249.3401
583.8670, 130.6157
585.0370, 233.8247
586.2070, 200.0378
587.3770, 215.2556
588.5460, 256.4766
589.7160, 214.7109
590.8850, 153.9399
592.0540, 143.1719
593.2230, 245.4229
594.3920, 176.6614
595.5600, 219.0178
596.7290, 307.9043
597.8970, 260.3787
599.0650, 256.5186
600.2330, 279.6470
601.4000, 377.9346
602.5680, 302.2429
603.7350, 293.5002
604.9020, 452.7593
606.0690, 436.0203
607.2360, 506.2834
608.4030, 530.6504
609.5690, 707.9575
610.7360, 844.2268
611.9020, 859.4976
613.0680, 976.8760
614.2340, 1100.178
615.3990, 1082.576
616.5650, 1168.875
617.7300, 1206.326
618.8950, 1242.640
620.0600, 1278.947
621.2250, 1169.823
622.3890, 1142.140
623.5540, 961.4609
624.7180, 835.8862
625.8820, 746.4023
627.0460, 582.4761
628.2100, 477.8315
629.3730, 382.1699
630.5370, 294.8032
631.7000, 246.1494
632.8630, 215.5029
634.0260, 174.8584
635.1890, 67.71582
636.3510, 100.0913
637.5140, 108.6519
638.6760, 50.08398
639.8380, 126.4639
641.0000, 99.84570
642.1610, 83.22803
643.3230, 51.61182
644.4840, 35.99707
645.6450, 20.38281
646.8060, 0.9648440
647.9670, 8.811523
649.1280, 6.411621
650.2880, 9.529297
651.4490, 42.10791
652.6090, 91.88574
653.7690, 102.2666
654.9290, 120.1167
656.0880, 101.5806
657.2480, 267.9600
658.4070, 327.4355
659.5660, 426.8130
660.7250, 592.1904
661.8840, 710.6611
663.0430, 958.0938
664.2010, 1140.580
665.3600, 1385.014
666.5180, 1645.250
667.6760, 1903.633
668.8330, 2286.034
669.9910, 2539.414
671.1480, 2606.792
672.3060, 2259.604
673.4630, 2088.979
674.6200, 1583.351
675.7770, 1145.840
676.9330, 786.2070
678.0900, 505.0220
679.2460, 470.3833
680.4020, 319.5586
681.5580, 280.5239
682.7140, 217.5039
683.8690, 75.85205
685.0250, 81.19824
686.1800, 193.6099
687.3350, 58.94873
688.4900, 114.2842
689.6450, 22.61670
690.7990, 66.94482
691.9540, 69.26855
693.1080, 134.5898
694.2620, 65.90625
695.4160, 109.2188
696.5700, 27.52734
697.7230, 53.83203
698.8770, 4.868164
700.0300, 39.42285
701.1830, 71.70947
702.3360, 41.99121
703.4890, 50.26855
704.6410, 51.54102
705.7930, 13.19141
706.9460, 1.937988
708.0980, 47.64404
709.2500, 38.54834
710.4010, 31.28418
711.5530, 3.091309
712.7040, 15.28955
713.8560, 19.53271
715.0070, 2.837402
716.1580, 13.27441
717.3080, 2.841309
718.4590, 3.836426
719.6090, 8.162109
720.7590, 4.913086
721.9090, 24.15332
723.0590, 50.24951
724.2090, 46.67676
725.3590, 92.36963
726.5080, 54.53223
727.6570, 40.55273
728.8060, 60.58496
729.9550, 47.95215
731.1040, 39.93555
732.2530, 56.94434
733.4010, 16.94092
734.5490, 0.9204100
735.6970, 8.203613
736.8450, 2.641602
737.9930, 2.232910
739.1400, 37.68506
740.2880, 33.81641
741.4350, 57.71973
742.5820, 57.61523
743.7290, 70.50439
744.8760, 49.38574
746.0220, 23.26025
747.1690, 38.21143
748.3150, 71.99854
749.4610, 56.85010
750.6070, 26.25439
751.7530, 45.11768
752.8980, 24.09863
754.0440, 81.51074
755.1890, 20.32275
756.3340, 51.12598
757.4790, 67.92090
758.6240, 24.29199
759.7680, 93.53320
760.9130, 56.28223
762.0570, 31.02393
763.2010, 20.75684
764.3450, 6.479492
765.4890, 50.18701
766.6320, 90.51416
767.7760, 18.20508
768.9190, 130.6172
770.0620, 65.59912
771.2050, 66.26270
772.3480, 36.08154
773.4900, 144.0884
774.6330, 27.69678
775.7750, 49.29492
776.9170, 170.8833
778.0590, 92.46338
779.2010, 84.03467
780.3420, 152.5972
781.4840, 109.1509
782.6250, 77.69629
783.7660, 28.23242
784.9070, 7.751953
786.0480, 0.1943360
787.1890, 95.46973
788.3290, 25.62500
789.4690, 21.09229
790.6100, 79.54688
791.7490, 81.00781
792.8890, 41.37451
794.0290, 67.74756
795.1680, 38.11133
796.3080, 78.46582
797.4470, 60.74414
798.5860, 38.14795
799.7250, 48.14062
800.8630, 75.44775
802.0020, 82.41211
803.1400, 100.7119
804.2780, 94.00244
805.4160, 41.28467
806.5540, 103.5576
807.6920, 63.09863
808.8300, 112.3530
809.9670, 100.6021
811.1040, 91.84131
812.2410, 81.07227
813.3780, 74.42383
814.5150, 124.5142
815.6510, 94.72461
816.7880, 68.92627
817.9240, 147.1196
819.0600, 8.306152
820.1960, 88.47607
821.3320, 121.6382
822.4670, 43.79102
823.6030, 92.93457
824.7380, 125.0688
825.8730, 115.1953
827.0080, 126.3125
828.1430, 75.42090
829.2770, 121.5215
830.4120, 119.6128
831.5460, 64.69482
832.6800, 101.7695
833.8140, 112.8350
834.9480, 75.89258
836.0810, 57.46680
837.2150, 102.5073
838.3480, 91.53857
839.4810, 114.2671
840.6140, 107.5776
841.7470, 131.5850
842.8800, 87.57910
844.0120, 41.16211
845.1450, 39.95361
846.2770, 3.065918
847.4090, 54.03320
848.5410, 25.53809
849.6720, 10.92725
850.8040, 8.104492
851.9350, 116.1274
853.0660, 14.88867
854.1970, 59.38721
855.3280, 68.49463
856.4590, 16.31201
857.5900, 33.30908
858.7200, 24.06787
859.8500, 26.89111
860.9800, 32.46436
862.1100, 16.51709
863.2400, 43.66406
864.3700, 29.10498
865.4990, 44.89355
866.6280, 26.67627
867.7570, 8.435547
868.8860, 29.20264
870.0150, 57.84668
871.1440, 55.95703
872.2720, 59.34570
873.4010, 119.3271
874.5290, 55.18506
875.6570, 7.881348
876.7850, 27.55127
877.9120, 53.26855
879.0400, 61.98047
880.1670, 69.68652
881.2940, 43.38721
882.4210, 41.19287
883.5480, 18.63086
884.6750, 27.31592
885.8020, 17.00391
886.9280, 13.55859
888.0540, 0.1933590
889.1800, 29.27148
890.3060, 37.34961
891.4320, 24.81689
892.5580, 31.41943
893.6830, 27.02686
894.8080, 11.93652
895.9330, 112.6523
897.0580, 32.23633
898.1830, 63.71582
899.3080, 12.10254
900.4320, 58.93213
901.5570, 6.522949
902.6810, 32.03564
903.8050, 8.703125
904.9290, 18.16016
906.0520, 69.36768
907.1760, 12.89209
908.2990, 56.08643
909.4230, 13.40039
910.5460, 61.70166
911.6690, 20.65820
912.7910, 82.79541
913.9140, 117.1660
915.0360, 125.2544
916.1590, 28.36865
917.2810, 67.02979
918.4030, 51.36816
919.5240, 33.27734
920.6460, 90.06201
921.7680, 7.041016
922.8890, 63.57373
924.0100, 64.69971
925.1310, 90.92236
926.2520, 62.88232
927.3730, 45.25391
928.4930, 88.68066
929.6130, 101.9165
930.7340, 67.48145
931.8540, 3.626953
932.9740, 75.07666
934.0930, 18.56885
935.2130, 41.18164
936.3320, 18.75830
937.4520, 33.65869
938.5710, 37.07471
939.6900, 72.48975
940.8090, 1.812988
941.9270, 11.77393
943.0460, 44.63623
944.1640, 32.04590
945.2820, 53.45557
946.4000, 82.86426
947.5180, 9.273926
948.6360, 69.68262
949.7530, 35.09424
950.8710, 32.50537
951.9880, 22.91650
953.1050, 12.92334
954.2220, 26.31445
955.3390, 14.12891
956.4550, 50.54150
957.5720, 71.89014
958.6880, 72.30762
959.8040, 54.72607
960.9200, 80.14551
962.0360, 92.03662
963.1520, 139.9863
964.2670, 137.4077
965.3820, 197.8306
966.4980, 211.2544
967.6130, 280.6855
968.7280, 265.1177
969.8420, 206.5513
970.9570, 220.9946
972.0710, 203.4399
973.1850, 324.8862
974.3000, 330.3340
975.4140, 355.7832
976.5270, 437.2344
977.6410, 439.6924
978.7540, 489.1050
979.8680, 566.5415
980.9810, 492.0776
982.0940, 748.6006
983.2070, 876.4761
984.3200, 866.3208
985.4320, 1025.355
986.5440, 1237.899
987.6570, 1312.169
988.7690, 1520.722
989.8810, 1634.281
990.9920, 1795.666
992.1040, 2070.250
993.2160, 2358.800
994.3270, 2780.367
995.4380, 3401.963
996.5490, 4211.437
997.6600, 5518.051
998.7710, 7614.649
999.8810, 11071.27
1000.991, 17074.87
1002.102, 24318.16
1003.212, 31795.78
1004.322, 39500.43
1005.431, 47775.07
1006.541, 53984.72
1007.651, 55548.38
1008.760, 52066.05
1009.869, 43547.49
1010.978, 32196.17
1012.087, 21342.86
1013.195, 13579.54
1014.304, 8738.234
1015.412, 6207.928
1016.521, 4452.638
1017.629, 3491.355
1018.737, 2684.089
1019.844, 2198.269
1020.952, 1780.985
1022.059, 1571.280
1023.167, 1316.744
1024.274, 1086.504
1025.381, 920.2778
1026.488, 846.0562
1027.594, 743.8403
1028.701, 610.5737
1029.807, 632.3799
1030.913, 437.1909
1032.019, 534.0078
1033.125, 511.8315
1034.231, 476.6641
1035.337, 321.8779
1036.442, 396.7251
1037.548, 335.8477
1038.653, 239.4316
1039.758, 305.3003
1040.863, 175.1748
1041.967, 210.5171
1043.072, 185.4185
1044.176, 154.3276
1045.280, 177.1396
1046.384, 145.1650
1047.488, 167.0942
1048.592, 93.02979
1049.696, 36.97168
1050.799, 124.7725
1051.903, 186.9751
1053.006, 42.41260
1054.109, 111.5698
1055.212, 186.5552
1056.314, 113.5474
1057.417, 99.54688
1058.519, 79.55518
1059.621, 10.57031
1060.724, 154.6226
1061.826, 107.6816
1062.927, 137.7476
1064.029, 131.8203
1065.130, 93.90869
1066.232, 173.0044
1067.333, 115.4414
1068.434, 100.5615
1069.535, 129.0229
1070.636, 94.14600
1071.736, 124.2764
1072.837, 192.4131
1073.937, 185.5576
1075.037, 34.43213
1076.137, 98.59033
1077.237, 81.75635
1078.337, 288.9282
1079.436, 232.1084
1080.535, 169.2949
1081.635, 283.0093
1082.734, 98.21045
1083.833, 163.4185
1084.931, 114.6343
1086.030, 110.8564
1087.128, 165.0928
1088.227, 251.3364
1089.325, 194.5093
1090.423, 292.7671
1091.521, 295.0327
1092.618, 291.3047
1093.716, 317.5845
1094.813, 434.8745
1095.911, 338.1714
1097.008, 429.4761
1098.105, 453.7876
1099.202, 429.3379
1100.298, 570.7505
1101.395, 602.0830
1102.491, 670.7017
1103.587, 632.0483
1104.683, 732.4019
1105.779, 781.7622
1106.875, 830.1294
1107.971, 1015.504
1109.066, 1019.886
1110.161, 1157.275
1111.256, 1261.671
1112.351, 1437.523
1113.446, 1463.152
1114.541, 1510.572
1115.636, 1539.010
1116.730, 1577.462
1117.824, 1678.934
1118.918, 1549.413
1120.012, 1447.899
1121.106, 1566.393
1122.200, 1528.893
1123.293, 1699.708
1124.387, 1786.221
1125.480, 1924.739
1126.573, 2329.266
1127.666, 2899.796
1128.759, 3479.334
1129.851, 4254.878
1130.944, 5183.433
1132.036, 6055.995
1133.128, 6664.563
1134.220, 7083.138
1135.312, 6806.718
1136.404, 6521.305
1137.495, 5772.898
1138.587, 4814.496
1139.678, 3923.102
1140.769, 3113.714
1141.860, 2411.333
1142.951, 1890.957
1144.041, 1560.587
1145.132, 1366.223
1146.222, 1037.863
1147.313, 819.0928
1148.403, 748.9150
1149.493, 616.7114
1150.582, 499.3911
1151.672, 402.0815
1152.761, 409.7778
1153.851, 320.4834
1154.940, 207.2036
1156.029, 229.8374
1157.118, 163.7290
1158.207, 205.3013
1159.295, 177.0400
1160.384, 136.7886
1161.472, 249.5410
1162.560, 90.29834
1163.648, 113.0610
1164.736, 107.8286
1165.824, 2.263184
1166.911, 205.0420
1167.999, 107.8247
1169.086, 2.384766
1170.173, 126.9927
1171.260, 75.80078
1172.347, 53.61328
1173.434, 43.44727
1174.520, 55.28564
1175.606, 45.56445
1176.693, 47.23291
1177.779, 44.02295
1178.865, 31.87549
1179.951, 15.73242
1181.036, 25.40723
1182.122, 10.55127
1183.207, 16.58838
1184.292, 8.339355
1185.377, 26.01709
1186.462, 19.87744
1187.547, 84.74121
1188.632, 84.60742
1189.716, 9.477539
1190.800, 58.20605
1191.885, 100.0820
1192.969, 14.96094
1194.052, 111.8428
1195.136, 145.8867
1196.220, 142.7734
1197.303, 78.66309
1198.387, 63.55908
1199.470, 76.47119
1200.553, 51.38916
1201.636, 36.31055
1202.718, 28.88135
1203.801, 150.1587
1204.883, 33.08594
1205.966, 45.01758
1207.048, 118.9990
1208.130, 13.93457
1209.211, 86.87354
1210.293, 95.81445
1211.375, 13.24316
1212.456, 69.69678
1213.537, 86.64062
1214.618, 104.5869
1215.699, 14.53955
1216.780, 56.04053
1217.861, 42.99756
1218.941, 20.04443
1220.022, 34.90674
1221.102, 96.85938
1222.182, 70.81396
1223.262, 100.7695
1224.342, 8.529297
1225.422, 79.48730
1226.501, 27.44629
1227.580, 23.40674
1228.660, 23.63135
1229.739, 0.6801760
1230.818, 26.30127
1231.896, 23.74658
1232.975, 44.19434
1234.054, 39.13623
1235.132, 9.078613
1236.210, 92.02100
1237.288, 61.02246
1238.366, 127.0308
1239.444, 47.97656
1240.521, 37.92432
1241.599, 7.127930
1242.676, 68.18311
1243.753, 100.7256
1244.830, 54.69580
1245.907, 160.6055
1246.984, 145.1016
1248.061, 50.01123
1249.137, 163.0352
1250.214, 15.09717
1251.290, 68.00635
1252.366, 83.08545
1253.442, 29.77686
1254.517, 106.6387
1255.593, 107.5000
1256.668, 80.36279
1257.744, 179.2236
1258.819, 70.08350
1259.894, 34.48242
1260.969, 58.34131
1262.044, 80.19824
1263.118, 67.05518
1264.193, 58.91113
1265.267, 23.76562
1266.341, 73.61963
1267.415, 112.4722
1268.489, 104.8169
1269.563, 89.81152
1270.636, 81.68555
1271.710, 70.58301
1272.783, 61.03760
1273.856, 57.27393
1274.929, 46.11670
1276.002, 34.98877
1277.075, 44.17090
1278.147, 7.772949
1279.220, 45.55811
1280.292, 89.34229
1281.364, 43.12402
1282.436, 132.2954
1283.508, 38.07422
1284.580, 21.14893
1285.652, 152.6348
1286.723, 117.3916
1287.794, 156.1455
1288.865, 175.8979
1289.936, 162.6963
1291.007, 142.3950
1292.078, 140.3843
1293.149, 57.16895
1294.219, 9.0332001E-02
1295.289, 30.64160
1296.360, 32.37109
1297.430, 30.09863
1298.499, 1.789551
1299.569, 50.44531
1300.639, 125.1592
1301.708, 147.4019
1302.778, 68.11084
1303.847, 16.81787
1304.916, 149.5210
1305.985, 12.22217
1307.053, 158.9189
1308.122, 145.6133
1309.190, 103.3091
1310.259, 94.15137
1311.327, 106.5942
1312.395, 64.80371
1313.463, 90.30322
1314.531, 34.98438
1315.598, 36.53760
1316.666, 107.3384
1317.733, 76.01758
1318.800, 1.322266
1319.867, 136.3325
1320.934, 105.9844
1322.001, 118.6343
1323.067, 21.71826
1324.134, 179.9180
1325.200, 81.55078
1326.266, 63.18213
1327.333, 139.0762
