##NAMES=Gypsum
##RRUFFID=R060509
##IDEAL CHEMISTRY=CaS^6+^O_4_&#183;2H_2_O
##LOCALITY=Pierre Shale, Hermosa, Custer County, South Dakota, USA
##OWNER=RRUFF
##SOURCE=Michael Scott
##DESCRIPTION=Colorless tabular single crystal
##STATUS=The identification of this mineral has been confirmed by X-ray diffraction and chemical analysis
##URL=rruff.info/R060509
##PIN_ID=L01683
##ORIENTATION=Laser parallel to c* (0 0 1). Fiducial mark perpendicular to laser is parallel to -a [-1 0 0]
155.8940, 0.0000000E+00
157.1300, 48.30396
158.3650, 58.18945
159.6000, 232.8855
160.8340, 310.1194
162.0690, 441.4866
163.3030, 537.0935
164.5370, 473.6035
165.7710, 488.9048
167.0050, 411.9089
168.2380, 377.6478
169.4720, 355.5111
170.7050, 395.2739
171.9380, 401.8425
173.1700, 431.3987
174.4030, 539.9060
175.6350, 616.3350
176.8680, 736.4626
178.1000, 926.7776
179.3310, 981.9624
180.5630, 1047.532
181.7940, 1064.748
183.0260, 1027.784
184.2570, 874.1149
185.4870, 764.5842
186.7180, 543.7529
187.9480, 361.9956
189.1790, 244.5870
190.4090, 100.1960
191.6390, 110.1665
192.8680, 20.41479
194.0980, 29.94543
195.3270, 2.410034
196.5560, 13.88245
197.7850, 21.91150
199.0140, 10.92761
200.2420, 50.04968
201.4710, 4.831055
202.6990, 68.27283
203.9270, 74.29797
205.1550, 38.52600
206.3820, 105.0812
207.6090, 82.26025
208.8370, 121.7264
210.0640, 116.0927
211.2900, 97.31714
212.5170, 88.33496
213.7440, 126.7866
214.9700, 127.2382
216.1960, 131.1808
217.4220, 143.5363
218.6470, 148.6506
219.8730, 172.9535
221.0980, 67.83325
222.3230, 113.5089
223.5480, 69.05627
224.7730, 68.30713
225.9970, 122.0856
227.2220, 67.77893
228.4460, 88.69373
229.6700, 19.97046
230.8940, 59.64355
232.1170, 38.02014
233.3400, 1.860840
234.5640, 23.64795
235.7870, 59.51697
237.0100, 11.56873
238.2320, 20.40466
239.4550, 34.42273
240.6770, 20.52344
241.8990, 12.68750
243.1210, 3.205322
244.3420, 3.382080
245.5640, 40.15173
246.7850, 28.62781
248.0060, 6.634766
249.2270, 40.25659
250.4480, 23.80994
251.6690, 13.56738
252.8890, 12.28723
254.1090, 0.4863280
255.3290, 17.91577
256.5490, 6.409668
257.7680, 34.77710
258.9880, 117.0361
260.2070, 165.0264
261.4260, 19.00269
262.6450, 61.95959
263.8640, 12.12488
265.0820, 3.736938
266.3000, 17.15173
267.5180, 16.01453
268.7360, 11.03296
269.9540, 10.15161
271.1720, 15.72351
272.3890, 14.53894
273.6060, 1.822021
274.8230, 4.884155
276.0400, 54.47070
277.2560, 11.97522
278.4730, 19.53284
279.6890, 13.99487
280.9050, 73.56018
282.1210, 25.12402
283.3370, 20.29602
284.5520, 22.69727
285.7670, 26.07361
286.9820, 25.41321
288.1970, 2.717529
289.4120, 37.99548
290.6270, 15.24768
291.8410, 22.46216
293.0550, 37.62109
294.2690, 3.769897
295.4830, 37.90747
296.6970, 69.03442
297.9100, 25.15283
299.1230, 31.26099
300.3360, 27.36426
301.5490, 42.47473
302.7620, 3.924805
303.9740, 107.5950
305.1860, 93.39404
306.3990, 73.25317
307.6110, 46.13440
308.8220, 106.0304
310.0340, 90.88977
311.2450, 107.7207
312.4560, 124.5234
313.6670, 105.2677
314.8780, 126.0509
316.0890, 133.6871
317.2990, 140.4999
318.5090, 130.0287
319.7200, 115.5040
320.9290, 146.0310
322.1390, 152.3589
323.3490, 122.5835
324.5580, 123.7365
325.7670, 95.82275
326.9760, 116.8466
328.1850, 147.8136
329.3930, 137.7291
330.6020, 82.59155
331.8100, 46.40417
333.0180, 88.16748
334.2260, 83.88171
335.4340, 89.54089
336.6410, 92.14551
337.8480, 64.70227
339.0550, 78.20056
340.2620, 83.50439
341.4690, 108.8088
342.6760, 94.56702
343.8820, 82.80542
345.0880, 112.3826
346.2940, 91.46509
347.5000, 22.08472
348.7060, 34.03040
349.9110, 44.85754
351.1160, 65.43774
352.3210, 60.18689
353.5260, 72.83789
354.7310, 92.54749
355.9360, 80.23328
357.1400, 60.84631
358.3440, 100.3640
359.5480, 90.93542
360.7520, 83.46033
361.9550, 124.9585
363.1590, 122.4244
364.3620, 134.6583
365.5650, 137.9700
366.7680, 111.2167
367.9710, 120.4379
369.1730, 96.57361
370.3760, 71.47559
371.5780, 78.70459
372.7800, 87.70190
373.9810, 103.7810
375.1830, 104.9731
376.3840, 101.1160
377.5860, 118.8157
378.7870, 78.47437
379.9880, 93.99170
381.1880, 79.92358
382.3890, 99.79175
383.5890, 95.12048
384.7890, 69.97839
385.9890, 83.32239
387.1890, 121.5852
388.3880, 98.03699
389.5880, 81.10596
390.7870, 176.8671
391.9860, 162.4990
393.1850, 191.1558
394.3840, 204.3182
395.5820, 228.5206
396.7800, 252.3746
397.9790, 196.7329
399.1770, 321.4792
400.3740, 331.0778
401.5720, 361.1584
402.7690, 500.8424
403.9670, 662.9448
405.1640, 825.1387
406.3600, 1019.624
407.5570, 1215.488
408.7540, 1474.824
409.9500, 1750.362
411.1460, 2149.825
412.3420, 2502.270
413.5380, 2825.401
414.7330, 3055.597
415.9290, 2995.051
417.1240, 2636.993
418.3190, 2153.747
419.5140, 1712.320
420.7090, 1296.137
421.9030, 971.2900
423.0970, 662.8344
424.2920, 618.3027
425.4860, 464.6382
426.6790, 316.0284
427.8730, 314.6055
429.0660, 254.2181
430.2600, 209.8632
431.4530, 175.5072
432.6460, 146.7114
433.8380, 101.4705
435.0310, 70.02417
436.2230, 138.6637
437.4150, 135.4363
438.6070, 91.77563
439.7990, 77.56433
440.9910, 59.48657
442.1820, 52.18445
443.3730, 47.93958
444.5640, 32.66846
445.7550, 20.49585
446.9460, 64.94373
448.1370, 59.00269
449.3270, 41.00830
450.5170, 48.91614
451.7070, 28.69617
452.8970, 41.71399
454.0870, 37.65735
455.2760, 29.65222
456.4650, 37.63586
457.6550, 8.597778
458.8430, 54.56909
460.0320, 30.46497
461.2210, 32.47961
462.4090, 47.42358
463.5970, 3.358154
464.7850, 41.28210
465.9730, 38.19910
467.1610, 44.10730
468.3480, 65.00720
469.5360, 63.82397
470.7230, 83.71313
471.9100, 106.5946
473.0970, 56.46875
474.2830, 62.20117
475.4700, 83.77454
476.6560, 59.51538
477.8420, 117.2317
479.0280, 178.9651
480.2140, 135.7031
481.3990, 197.3217
482.5850, 177.9911
483.7700, 263.6865
484.9550, 302.4832
486.1400, 375.2216
487.3240, 479.9147
488.5090, 492.7323
489.6930, 619.4595
490.8770, 669.8284
492.0610, 835.2966
493.2450, 843.8254
494.4290, 850.4404
495.6120, 840.0354
496.7950, 808.6833
497.9780, 674.4133
499.1610, 509.1047
500.3440, 417.7153
501.5260, 326.4918
502.7090, 251.2295
503.8910, 206.9365
505.0730, 191.7467
506.2550, 133.3621
507.4360, 178.3647
508.6180, 79.17297
509.7990, 44.98218
510.9800, 69.79150
512.1610, 100.5681
513.3420, 87.24341
514.5230, 127.9513
515.7030, 79.70117
516.8830, 51.51562
518.0630, 26.33411
519.2430, 39.15381
520.4230, 45.97620
521.6020, 62.72168
522.7820, 90.53906
523.9610, 29.30090
525.1400, 49.14990
526.3190, 3.002441
527.4970, 47.75940
528.6760, 48.59680
529.8540, 28.46838
531.0320, 73.64783
532.2100, 57.17834
533.3880, 75.04126
534.5660, 38.09338
535.7430, 22.76831
536.9200, 26.64758
538.0970, 54.53992
539.2740, 16.55261
540.4510, 18.36084
541.6270, 49.28894
542.8040, 54.22852
543.9800, 83.17310
545.1560, 46.12012
546.3320, 3.930786
547.5080, 37.01794
548.6830, 41.96997
549.8580, 31.92358
551.0340, 30.11890
552.2090, 63.83740
553.3830, 29.79688
554.5580, 85.80225
555.7320, 77.77612
556.9070, 45.75854
558.0810, 66.74438
559.2550, 97.74023
560.4280, 63.74268
561.6020, 94.75220
562.7750, 83.76367
563.9490, 34.48926
565.1220, 41.56177
566.2950, 116.6035
567.4670, 81.65503
568.6400, 149.7224
569.8120, 153.7925
570.9840, 117.8650
572.1560, 80.94019
573.3280, 133.0173
574.5000, 133.0991
575.6710, 90.18286
576.8430, 100.2690
578.0140, 100.3579
579.1850, 159.4482
580.3560, 125.7493
581.5260, 152.8457
582.6970, 179.9858
583.8670, 126.0850
585.0370, 127.1860
586.2070, 150.7898
587.3770, 115.8315
588.5460, 191.9390
589.7160, 200.0469
590.8850, 144.1550
592.0540, 150.2651
593.2230, 203.4309
594.3920, 201.5435
595.5600, 186.6565
596.7290, 200.7910
597.8970, 218.9231
599.0650, 218.3003
600.2330, 238.1255
601.4000, 247.5295
602.5680, 266.8738
603.7350, 263.0557
604.9020, 282.0747
606.0690, 312.6748
607.2360, 291.7998
608.4030, 352.9312
609.5690, 417.0664
610.7360, 437.3806
611.9020, 536.5168
613.0680, 668.6538
614.2340, 695.7917
615.3990, 779.9602
616.5650, 819.1306
617.7300, 851.0432
618.8950, 959.5354
620.0600, 883.7390
621.2250, 862.1841
622.3890, 826.3420
623.5540, 635.5010
624.7180, 591.6614
625.8820, 450.1846
627.0460, 434.3462
628.2100, 336.5188
629.3730, 243.6824
630.5370, 223.8472
631.7000, 237.0320
632.8630, 136.2009
634.0260, 77.37158
635.1890, 105.1482
636.3510, 155.3218
637.5140, 103.5234
638.6760, 124.8406
639.8380, 69.01660
641.0000, 55.19360
642.1610, 49.39038
643.3230, 90.57178
644.4840, 87.75781
645.6450, 83.94385
646.8060, 135.1309
647.9670, 70.31860
649.1280, 39.50610
650.2880, 64.69385
651.4490, 105.8838
652.6090, 61.11279
653.7690, 166.3044
654.9290, 92.67773
656.0880, 139.9028
657.2480, 180.1052
658.4070, 222.3076
659.5660, 275.5664
660.7250, 312.7686
661.8840, 403.9907
663.0430, 541.1929
664.2010, 694.2424
665.3600, 927.6006
666.5180, 1135.790
667.6760, 1401.991
668.8330, 1740.192
669.9910, 1941.342
671.1480, 2170.921
672.3060, 2078.141
673.4630, 1679.340
674.6200, 1273.149
675.7770, 930.3506
676.9330, 657.5513
678.0900, 462.7908
679.2460, 394.5703
680.4020, 302.5933
681.5580, 221.7908
682.7140, 147.9873
683.8690, 130.1824
685.0250, 148.6399
686.1800, 113.7651
687.3350, 43.95752
688.4900, 92.14868
689.6450, 57.33813
690.7990, 94.54785
691.9540, 68.73535
693.1080, 4.921387
694.2620, 79.41357
695.4160, 25.59692
696.5700, 27.77881
697.7230, 67.95874
698.8770, 59.13745
700.0300, 61.31494
701.1830, 33.49072
702.3360, 11.33545
703.4890, 4.830322
704.6410, 12.99390
705.7930, 57.15576
706.9460, 44.14746
708.0980, 55.30542
709.2500, 32.46143
710.4010, 47.62012
711.5530, 71.77222
712.7040, 31.92188
713.8560, 21.06934
715.0070, 23.21509
716.1580, 41.35840
717.3080, 27.49951
718.4590, 17.27368
719.6090, 34.85205
720.7590, 8.975830
721.9090, 26.09692
723.0590, 58.21558
724.2090, 5.668213
725.3590, 55.44092
726.5080, 42.54810
727.6570, 51.65234
728.8060, 25.75464
729.9550, 58.06177
731.1040, 13.84106
732.2530, 20.24414
733.4010, 49.32666
734.5490, 13.40649
735.6970, 18.77686
736.8450, 33.14844
737.9930, 14.09668
739.1400, 7.942627
740.2880, 30.74805
741.4350, 8.271484
742.5820, 35.28784
743.7290, 2.698242
744.8760, 58.30835
746.0220, 106.6768
747.1690, 45.25122
748.3150, 12.75049
749.4610, 30.23389
750.6070, 58.21558
751.7530, 46.28564
752.8980, 17.26147
754.0440, 17.23389
755.1890, 6.246094
756.3340, 25.25220
757.4790, 12.21411
758.6240, 3.625977
759.7680, 31.57837
760.9130, 29.52734
762.0570, 30.47339
763.2010, 2.416016
764.3450, 45.35181
765.4890, 24.28418
766.6320, 66.21338
767.7760, 28.13916
768.9190, 22.06177
770.0620, 63.98096
771.2050, 52.89673
772.3480, 1.190918
773.4900, 40.71289
774.6330, 19.61279
775.7750, 41.49097
776.9170, 59.37549
778.0590, 61.23828
779.2010, 22.89551
780.3420, 47.75146
781.4840, 40.39697
782.6250, 63.24585
783.7660, 86.29419
784.9070, 66.13574
786.0480, 34.97388
787.1890, 79.80859
788.3290, 31.04663
789.4690, 17.87427
790.6100, 41.85181
791.7490, 11.97290
792.8890, 23.78735
794.0290, 53.59814
795.1680, 71.40527
796.3080, 17.20825
797.4470, 34.00732
798.5860, 23.80249
799.7250, 39.59351
800.8630, 4.618164
802.0020, 68.15747
803.1400, 46.92944
804.2780, 29.69775
805.4160, 62.46216
806.5540, 3.777100
807.6920, 35.97144
808.8300, 22.73218
809.9670, 28.48877
811.1040, 59.82300
812.2410, 36.58691
813.3780, 87.34692
814.5150, 4.896729
815.6510, 46.84668
816.7880, 17.41162
817.9240, 31.31079
819.0600, 49.02954
820.1960, 62.74438
821.3320, 9.456055
822.4670, 68.16113
823.6030, 35.86279
824.7380, 36.56104
825.8730, 102.2554
827.0080, 39.94629
828.1430, 32.63794
829.2770, 38.32593
830.4120, 7.968018
831.5460, 28.64575
832.6800, 70.32007
833.8140, 102.9910
834.9480, 65.65820
836.0810, 111.3218
837.2150, 49.98218
838.3480, 58.63892
839.4810, 125.5869
840.6140, 67.18774
841.7470, 120.8186
842.8800, 2.538330
844.0120, 75.09399
845.1450, 44.72290
846.2770, 19.34814
847.4090, 91.97046
848.5410, 33.58936
849.6720, 34.20508
850.8040, 54.81763
851.9350, 30.08984
853.0660, 38.03296
854.1970, 12.63574
855.3280, 34.02808
856.4590, 32.93555
857.5900, 77.17358
858.7200, 49.76294
859.8500, 58.34961
860.9800, 65.41895
862.1100, 60.99951
863.2400, 42.57764
864.3700, 45.12036
865.4990, 6.724365
866.6280, 35.29150
867.7570, 26.78369
868.8860, 25.34521
870.0150, 47.90381
871.1440, 12.56958
872.2720, 20.05542
873.4010, 22.15039
874.5290, 46.52759
875.6570, 2.004150
876.7850, 26.31250
877.9120, 26.78125
879.0400, 17.30640
880.1670, 98.35425
881.2940, 17.12524
882.4210, 4.618652
883.5480, 56.88062
884.6750, 76.19946
885.8020, 47.69482
886.9280, 3.188477
888.0540, 47.67896
889.1800, 10.13843
890.3060, 60.59595
891.4320, 14.03345
892.5580, 52.44043
893.6830, 20.14209
894.8080, 27.02734
895.9330, 83.48389
897.0580, 42.93872
898.1830, 16.39209
899.3080, 87.48169
900.4320, 58.93213
901.5570, 44.37183
902.6810, 9.819336
903.8050, 52.26562
904.9290, 33.69263
906.0520, 61.13623
907.1760, 48.57886
908.2990, 27.41553
909.4230, 39.85596
910.5460, 57.26758
911.6690, 55.56372
912.7910, 27.00098
913.9140, 13.56250
915.0360, 16.85034
916.1590, 13.72168
917.2810, 48.69824
918.4030, 2.882568
919.5240, 48.53394
920.6460, 27.94995
921.7680, 13.36548
922.8890, 7.219238
924.0100, 2.191406
925.1310, 2.437012
926.2520, 39.02832
927.3730, 72.18896
928.4930, 3.554688
929.6130, 45.94312
930.7340, 108.3311
931.8540, 25.66284
932.9740, 31.05103
934.0930, 83.41919
935.2130, 95.97363
936.3320, 14.35889
937.4520, 51.74805
938.5710, 40.13696
939.6900, 39.52637
940.8090, 59.91602
941.9270, 9.356689
943.0460, 75.79321
944.1640, 76.16528
945.2820, 12.14795
946.4000, 41.80591
947.5180, 69.19287
948.6360, 15.58105
949.7530, 27.92944
950.8710, 11.31860
951.9880, 90.92090
953.1050, 42.31201
954.2220, 101.7061
955.3390, 26.10107
956.4550, 5.233887
957.5720, 74.63110
958.6880, 94.02930
959.8040, 139.4285
960.9200, 134.7808
962.0360, 134.3052
963.1520, 89.63330
964.2670, 117.0371
965.3820, 64.13770
966.4980, 84.54761
967.6130, 133.9590
968.7280, 148.3713
969.8420, 98.78564
970.9570, 153.2012
972.0710, 119.6182
973.1850, 175.0371
974.3000, 128.4607
975.4140, 179.8899
976.5270, 211.3208
977.6410, 247.9221
978.7540, 191.3567
979.8680, 304.7932
980.9810, 299.2285
982.0940, 286.6699
983.2070, 432.1138
984.3200, 443.5596
985.4320, 445.0073
986.5440, 490.4573
987.6570, 713.9094
988.7690, 686.2754
989.8810, 786.7375
990.9920, 861.2017
992.1040, 898.6680
993.2160, 1048.137
994.3270, 1202.608
995.4380, 1337.084
996.5490, 1759.563
997.6600, 2194.043
998.7710, 2901.528
999.8810, 4102.807
1000.991, 6030.295
1002.102, 8518.792
1003.212, 11558.29
1004.322, 15234.79
1005.431, 20284.00
1006.541, 25386.51
1007.651, 29054.03
1008.760, 28705.56
1009.869, 24174.83
1010.978, 17622.37
1012.087, 11307.93
1013.195, 7205.486
1014.304, 4616.051
1015.412, 3136.254
1016.521, 2273.253
1017.629, 1679.830
1018.737, 1283.415
1019.844, 1037.003
1020.952, 927.5037
1022.059, 703.0989
1023.167, 617.7000
1024.274, 544.3047
1025.381, 530.8298
1026.488, 439.4424
1027.594, 405.0535
1028.701, 342.2268
1029.807, 320.8525
1030.913, 273.4814
1032.019, 241.1145
1033.125, 178.7529
1034.231, 140.3953
1035.337, 164.0417
1036.442, 135.6919
1037.548, 143.3459
1038.653, 128.0042
1039.758, 156.6665
1040.863, 107.3328
1041.967, 111.0076
1043.072, 125.6865
1044.176, 60.36938
1045.280, 57.06982
1046.384, 83.77490
1047.488, 46.68579
1048.592, 13.41895
1049.696, 69.34302
1050.799, 77.06494
1051.903, 30.60132
1053.006, 58.34521
1054.109, 29.09351
1055.212, 38.84644
1056.314, 49.20557
1057.417, 21.97607
1058.519, 44.65063
1059.621, 17.13525
1060.724, 112.9265
1061.826, 55.73657
1062.927, 79.55176
1064.029, 21.37134
1065.130, 92.19604
1066.232, 12.02563
1067.333, 10.14014
1068.434, 40.69702
1069.535, 19.54346
1070.636, 41.39453
1071.736, 30.25024
1072.837, 74.11084
1073.937, 47.97632
1075.037, 4.137207
1076.137, 12.75342
1077.237, 39.35132
1078.337, 22.89185
1079.436, 26.85083
1080.535, 5.744141
1081.635, 25.64258
1082.734, 39.55005
1083.833, 3.408936
1084.931, 36.51611
1086.030, 38.82349
1087.128, 72.75830
1088.227, 40.69800
1089.325, 27.67334
1090.423, 64.62378
1091.521, 70.57935
1092.618, 115.5396
1093.716, 103.6343
1094.813, 51.47559
1095.911, 82.45142
1097.008, 83.13623
1098.105, 71.12354
1099.202, 73.11743
1100.298, 58.11597
1101.395, 128.1199
1102.491, 133.1323
1103.587, 198.1499
1104.683, 190.1724
1105.779, 262.1995
1106.875, 217.0562
1107.971, 237.0979
1109.066, 241.1467
1110.161, 334.2041
1111.256, 373.2661
1112.351, 364.5835
1113.446, 367.6555
1114.541, 425.7327
1115.636, 469.6162
1116.730, 607.9004
1117.824, 611.9917
1118.918, 714.0874
1120.012, 778.1880
1121.106, 866.2939
1122.200, 1067.404
1123.293, 1146.519
1124.387, 1462.645
1125.480, 1590.774
1126.573, 1915.909
1127.666, 2395.049
1128.759, 3112.197
1129.851, 3748.351
1130.944, 4604.509
1132.036, 5472.672
1133.128, 6285.841
1134.220, 6738.014
1135.312, 7018.191
1136.404, 6340.374
1137.495, 5506.567
1138.587, 4500.764
1139.678, 3589.035
1140.769, 2974.241
1141.860, 2394.453
1142.951, 2006.404
1144.041, 1745.624
1145.132, 1350.849
1146.222, 1144.078
1147.313, 904.7668
1148.403, 717.0132
1149.493, 636.2639
1150.582, 482.5183
1151.672, 461.7773
1152.761, 393.0405
1153.851, 266.8044
1154.940, 247.0759
1156.029, 279.3516
1157.118, 208.6360
1158.207, 186.9243
1159.295, 173.2231
1160.384, 145.5261
1161.472, 227.8328
1162.560, 93.14331
1163.648, 196.4578
1164.736, 114.7761
1165.824, 130.0986
1166.911, 84.42529
1167.999, 93.75537
1169.086, 109.0896
1170.173, 49.42773
1171.260, 44.76929
1172.347, 117.4580
1173.434, 139.8071
1174.520, 118.1599
1175.606, 92.51636
1176.693, 116.8762
1177.779, 78.23975
1178.865, 1.389404
1179.951, 79.98462
1181.036, 92.36572
1182.122, 6.911865
1183.207, 23.30078
1184.292, 33.69263
1185.377, 32.08789
1186.462, 79.56982
1187.547, 118.9731
1188.632, 2.586426
1189.716, 42.16357
1190.800, 47.58545
1191.885, 98.39502
1192.969, 91.73022
1194.052, 40.25391
1195.136, 99.68726
1196.220, 102.1228
1197.303, 146.5613
1198.387, 62.83594
1199.470, 20.27905
1200.553, 74.72437
1201.636, 50.17285
1202.718, 52.62378
1203.801, 16.07666
1204.883, 38.32446
1205.966, 45.73608
1207.048, 39.29175
1208.130, 65.36279
1209.211, 48.26270
1210.293, 54.73169
1211.375, 64.20288
1212.456, 78.67578
1213.537, 3.849121
1214.618, 124.5901
1215.699, 9.932373
1216.780, 64.54321
1217.861, 56.02075
1218.941, 0.4995120
1220.022, 25.98071
1221.102, 38.46289
1222.182, 11.94702
1223.262, 38.43286
1224.342, 93.12500
1225.422, 52.61694
1226.501, 15.88989
1227.580, 78.59814
1228.660, 47.50317
1229.739, 59.99414
1230.818, 67.48682
1231.896, 42.85083
1232.975, 39.39526
1234.054, 48.89160
1235.132, 17.38916
1236.210, 17.06616
1237.288, 92.49707
1238.366, 72.41577
1239.444, 1.940186
1240.521, 71.43604
1241.599, 4.961182
1242.676, 40.53418
1243.753, 78.03027
1244.830, 72.52710
1245.907, 17.02490
1246.984, 7.523926
1248.061, 72.02393
1249.137, 123.5244
1250.214, 39.03369
1251.290, 25.54370
1252.366, 27.05444
1253.442, 58.77417
1254.517, 21.28833
1255.593, 80.80347
1256.668, 97.31909
1257.744, 18.93018
1258.819, 64.44653
1259.894, 96.96387
1260.969, 44.48193
1262.044, 25.00000
1263.118, 46.51953
1264.193, 31.04150
1265.267, 36.56152
1266.341, 25.09277
1267.415, 42.61646
1268.489, 1.137207
1269.563, 73.65649
1270.636, 44.17627
1271.710, 26.30444
1272.783, 64.20020
1273.856, 127.7058
1274.929, 48.21191
1276.002, 5.282471
1277.075, 65.21875
1278.147, 70.71997
1279.220, 107.2209
1280.292, 6.721680
1281.364, 14.22217
1282.436, 5.277588
1283.508, 52.21753
1284.580, 67.71216
1285.652, 119.2061
1286.723, 122.7007
1287.794, 57.19482
1288.865, 41.69092
1289.936, 63.18433
1291.007, 17.67676
1292.078, 105.1687
1293.149, 14.65967
1294.219, 54.21411
1295.289, 91.75537
1296.360, 88.24487
1297.430, 85.76514
1298.499, 69.28516
1299.569, 79.77197
1300.639, 0.7426760
1301.708, 27.73828
1302.778, 15.21826
1303.847, 48.69775
1304.916, 111.1760
1305.985, 100.6533
1307.053, 50.16846
1308.122, 93.62793
1309.190, 81.10693
1310.259, 44.59521
1311.327, 49.38428
1312.395, 102.0559
1313.463, 115.6257
1314.531, 26.99805
1315.598, 32.04053
1316.666, 10.24121
1317.733, 14.92749
1318.800, 72.47412
1319.867, 47.31201
1320.934, 38.28979
1322.001, 41.83301
1323.067, 82.91748
1324.134, 42.67993
1325.200, 27.55786
1326.266, 93.78418
1327.333, 114.9680
1328.398, 65.36304
1329.464, 108.9551
1330.530, 80.26440
