##NAMES=Gypsum
##RRUFFID=R040029
##IDEAL CHEMISTRY=CaS^6+^O_4_&#183;2H_2_O
##LOCALITY=Twin Buttes, Pima County, Arizona, USA
##OWNER=RRUFF
##SOURCE=University of Arizona Mineral Museum
##DESCRIPTION=Colorless prismatic crystal
##STATUS=The identification of this mineral has been confirmed by X-ray diffraction.
##URL=rruff.info/R040029
##PIN_ID=L00192
##ORIENTATION=Laser parallel to -c [0 0 -1]. Fiducial mark perpendicular to laser is parallel to -b* (0 -1 0)
72.445, 0.000
73.842, 1.630
75.239, 0.167
76.635, 10.068
78.031, 7.618
79.427, 39.202
80.823, 102.922
82.218, 156.547
83.614, 149.225
85.009, 126.375
86.404, 192.585
87.798, 239.529
89.193, 312.928
90.587, 326.549
91.981, 299.201
93.375, 267.738
94.768, 232.090
96.161, 257.215
97.554, 270.054
98.947, 264.542
100.340, 329.604
101.732, 389.155
103.124, 535.110
104.516, 735.401
105.908, 1051.976
107.300, 1208.792
108.691, 1151.815
110.082, 901.013
111.473, 718.359
112.864, 651.842
114.254, 705.728
115.644, 836.952
117.034, 955.475
118.424, 1062.550
119.813, 1155.808
121.203, 998.357
122.592, 815.172
123.981, 617.109
125.369, 585.117
126.758, 702.263
128.146, 881.413
129.534, 1177.461
130.922, 1276.402
132.309, 1238.240
133.696, 977.984
135.083, 921.641
136.470, 778.217
137.857, 798.729
139.243, 875.183
140.630, 947.612
142.016, 1009.987
143.401, 1021.299
144.787, 915.551
146.172, 742.748
147.557, 514.890
148.942, 454.982
150.327, 369.026
151.711, 321.130
153.096, 343.082
154.480, 438.219
155.863, 500.576
157.247, 640.535
158.630, 846.851
160.013, 1025.362
161.396, 1138.150
162.779, 1077.062
164.161, 947.764
165.544, 919.804
166.926, 1053.578
168.308, 1222.478
169.689, 1205.268
171.070, 1286.276
172.452, 1458.620
173.833, 1798.060
175.213, 2249.419
176.594, 2730.838
177.974, 3229.190
179.354, 3454.130
180.734, 3218.137
182.114, 2706.710
183.493, 2161.222
184.872, 1612.317
186.251, 1228.021
187.630, 916.580
189.008, 757.193
190.387, 588.782
191.765, 496.386
193.143, 416.002
194.520, 356.631
195.898, 322.272
197.275, 285.922
198.652, 269.182
200.029, 269.246
201.405, 263.324
202.782, 252.071
204.158, 264.752
205.534, 343.403
206.909, 284.399
208.285, 332.058
209.660, 307.244
211.035, 227.881
212.410, 242.516
213.784, 220.152
215.159, 273.781
216.533, 260.408
217.907, 280.031
219.281, 203.653
220.654, 216.271
222.027, 155.887
223.400, 137.500
224.773, 101.109
226.146, 80.716
227.518, 68.320
228.891, 70.921
230.263, 3.519
231.634, 43.115
233.006, 29.709
234.377, 36.299
235.748, 37.114
237.119, 28.539
238.490, 47.027
239.860, 7.886
241.231, 29.883
242.601, 4.437
243.970, 6.179
245.340, 6.934
246.709, 26.198
248.079, 8.242
249.448, 72.208
250.816, 42.125
252.185, 60.994
253.553, 18.830
254.921, 5.373
256.289, 9.388
257.657, 18.121
259.024, 4.169
260.391, 26.518
261.758, 47.193
263.125, 16.864
264.492, 0.473
265.858, 22.182
267.224, 27.836
268.590, 36.491
269.956, 7.154
271.321, 8.817
272.687, 18.482
274.052, 18.154
275.416, 26.168
276.781, 6.490
278.146, 39.190
279.510, 6.113
280.874, 7.410
282.237, 27.700
283.601, 19.018
284.964, 29.755
286.327, 17.487
287.690, 18.283
289.053, 17.075
290.416, 40.112
291.778, 44.286
293.140, 38.447
294.502, 15.595
295.863, 37.729
297.225, 26.852
298.586, 33.962
299.947, 47.061
301.308, 40.150
302.668, 34.228
304.029, 50.296
305.389, 54.354
306.749, 89.402
308.108, 87.441
309.468, 86.469
310.827, 80.489
312.186, 76.500
313.545, 73.503
314.903, 70.683
316.262, 57.480
317.620, 77.457
318.978, 64.406
320.336, 88.309
321.693, 97.191
323.051, 70.061
324.408, 57.911
325.765, 83.714
327.121, 47.461
328.478, 32.191
329.834, 78.896
331.190, 44.580
332.546, 50.225
333.902, 55.849
335.257, 18.435
336.612, 92.996
337.967, 42.529
339.322, 15.060
340.677, 52.558
342.031, 53.049
343.385, 85.506
344.739, 29.944
346.093, 62.365
347.446, 62.783
348.799, 75.197
350.153, 94.607
351.505, 72.015
352.858, 55.421
354.210, 71.823
355.563, 67.224
356.915, 83.622
358.267, 86.017
359.618, 62.409
360.969, 91.799
362.321, 107.185
363.672, 82.569
365.022, 63.948
366.373, 105.324
367.723, 130.697
369.073, 109.062
370.423, 96.418
371.773, 109.781
373.122, 106.138
374.471, 161.493
375.821, 110.849
377.169, 157.218
378.518, 93.584
379.866, 129.948
381.215, 160.309
382.563, 158.676
383.910, 147.043
385.258, 166.407
386.605, 199.768
387.952, 194.126
389.299, 211.481
390.646, 204.836
391.992, 245.189
393.339, 276.495
394.685, 281.853
396.031, 384.219
397.376, 379.584
398.722, 421.847
400.067, 519.575
401.412, 605.243
402.757, 771.615
404.101, 940.255
405.446, 1238.222
406.790, 1734.586
408.134, 2393.964
409.478, 3472.730
410.821, 4760.438
412.165, 5744.416
413.508, 5845.161
414.851, 4754.762
416.193, 3437.796
417.536, 2382.038
418.878, 1707.523
420.220, 1229.500
421.562, 856.630
422.904, 724.045
424.245, 593.211
425.586, 493.115
426.927, 417.946
428.268, 327.461
429.609, 306.606
430.949, 242.205
432.289, 260.485
433.629, 202.633
434.969, 177.176
436.309, 130.703
437.648, 128.990
438.987, 143.836
440.326, 122.983
441.665, 139.761
443.003, 115.570
444.342, 98.847
445.680, 123.095
447.018, 108.650
448.355, 112.411
449.693, 85.909
451.030, 110.141
452.367, 81.394
453.704, 77.641
455.041, 57.883
456.377, 51.821
457.713, 52.799
459.049, 51.093
460.385, 57.309
461.721, 71.527
463.056, 69.741
464.391, 43.922
465.726, 106.126
467.061, 59.325
468.395, 57.520
469.730, 99.710
471.064, 100.896
472.398, 105.077
473.731, 101.253
475.065, 111.570
476.398, 151.593
477.731, 145.755
479.064, 189.914
480.397, 244.068
481.729, 274.219
483.062, 325.366
484.394, 436.508
485.725, 552.686
487.057, 657.855
488.389, 830.973
489.720, 1042.798
491.051, 1208.955
492.382, 1232.014
493.712, 1114.570
495.043, 932.685
496.373, 728.006
497.703, 553.141
499.032, 419.079
500.362, 329.217
501.691, 277.313
503.020, 209.407
504.349, 201.503
505.678, 151.147
507.007, 83.239
508.335, 131.328
509.663, 99.415
510.991, 109.500
512.319, 107.583
513.646, 88.660
514.973, 63.738
516.300, 95.814
517.627, 70.888
518.954, 63.959
520.280, 38.028
521.607, 56.095
522.933, 61.160
524.259, 59.262
525.584, 59.631
526.910, 47.380
528.235, 42.486
529.560, 33.539
530.885, 20.786
532.209, 55.887
533.534, 56.037
534.858, 53.405
536.182, 51.573
537.506, 37.612
538.829, 55.869
540.152, 25.978
541.476, 46.095
542.799, 19.482
544.121, 51.516
545.444, 64.548
546.766, 56.099
548.088, 62.989
549.410, 51.115
550.732, 55.393
552.053, 46.840
553.375, 60.798
554.696, 104.399
556.017, 87.526
557.337, 125.963
558.658, 129.965
559.978, 134.185
561.298, 140.754
562.618, 167.776
563.938, 195.394
565.257, 184.445
566.576, 190.469
567.895, 216.528
569.214, 251.678
570.533, 236.197
571.851, 238.380
573.170, 273.587
574.488, 254.841
575.805, 248.979
577.123, 205.115
578.440, 232.254
579.758, 246.791
581.075, 249.935
582.391, 255.120
583.708, 206.183
585.024, 217.285
586.341, 217.378
587.657, 199.447
588.972, 258.536
590.288, 205.619
591.603, 222.105
592.918, 238.259
594.233, 282.348
595.548, 288.442
596.863, 300.719
598.177, 297.807
599.491, 326.045
600.805, 343.495
602.119, 346.602
603.432, 443.980
604.746, 502.077
606.059, 563.077
607.372, 527.660
608.685, 727.767
609.997, 763.879
611.309, 879.988
612.621, 1062.156
613.933, 1261.284
615.245, 1482.382
616.557, 1650.476
617.868, 1701.567
619.179, 1676.653
620.490, 1459.737
621.801, 1268.815
623.111, 958.890
624.421, 752.962
625.731, 597.029
627.041, 508.093
628.351, 345.171
629.660, 295.227
630.970, 243.278
632.279, 186.326
633.588, 164.370
634.896, 108.410
636.205, 119.466
637.513, 95.498
638.821, 67.628
640.129, 66.652
641.437, 57.673
642.744, 25.690
644.051, 26.745
645.358, 34.753
646.665, 37.758
647.972, 27.760
649.278, 40.759
650.584, 0.754
651.890, 49.740
653.196, 45.723
654.502, 29.706
655.807, 7.315
657.113, 43.652
658.418, 84.620
659.722, 80.583
661.027, 162.543
662.331, 178.500
663.636, 265.454
664.940, 374.405
666.244, 693.352
667.547, 1022.295
668.851, 1334.235
670.154, 1302.170
671.457, 985.102
672.760, 669.030
674.062, 389.955
675.365, 276.875
676.667, 193.792
677.969, 125.705
679.271, 55.614
680.572, 27.519
681.874, 82.421
683.175, 45.318
684.476, 25.212
685.777, 56.101
687.077, 27.013
688.378, 24.850
689.678, 17.708
690.978, 4.438
692.278, 50.594
693.577, 52.214
694.877, 8.018
696.176, 20.816
697.475, 25.390
698.774, 2.382
700.072, 35.148
701.371, 34.909
702.669, 33.993
703.967, 29.067
705.265, 0.170
706.562, 4.911
707.860, 15.354
709.157, 7.578
710.454, 33.871
711.751, 13.809
713.047, 15.515
714.344, 42.145
715.640, 6.801
716.936, 1.548
718.232, 8.907
719.527, 18.380
720.823, 27.333
722.118, 25.060
723.413, 23.526
724.708, 11.108
726.002, 1.315
727.297, 9.254
728.591, 7.817
729.885, 28.625
731.179, 15.910
732.472, 15.441
733.766, 14.986
735.059, 17.493
736.352, 14.149
737.645, 9.649
738.937, 52.144
740.230, 24.635
741.522, 26.147
742.814, 44.630
744.106, 29.109
745.397, 44.584
746.689, 0.944
747.980, 15.519
749.271, 32.978
750.562, 60.433
751.853, 2.885
753.143, 40.331
754.433, 29.227
755.723, 16.807
757.013, 27.833
758.303, 15.767
759.592, 32.618
760.881, 34.000
762.170, 1.621
763.459, 38.751
764.748, 35.119
766.036, 76.484
767.325, 12.844
768.613, 21.201
769.901, 33.554
771.188, 30.903
772.476, 67.248
773.763, 28.591
775.050, 59.929
776.337, 37.270
777.624, 42.608
778.910, 30.942
780.196, 52.273
781.482, 67.600
782.768, 19.925
784.054, 53.246
785.339, 32.563
786.625, 30.878
787.910, 74.189
789.195, 28.497
790.479, 17.802
791.764, 36.104
793.048, 1.403
794.332, 73.698
795.616, 22.990
796.900, 75.279
798.183, 10.526
799.467, 52.773
800.750, 43.052
802.033, 47.328
803.316, 59.571
804.598, 55.005
805.880, 94.665
807.163, 46.931
808.445, 69.194
809.726, 42.429
811.008, 47.732
812.289, 72.988
813.570, 41.240
814.851, 105.491
816.132, 71.739
817.413, 69.984
818.693, 104.227
819.973, 75.467
821.253, 72.705
822.533, 69.941
823.813, 22.175
825.092, 45.406
826.371, 72.635
827.650, 42.861
828.929, 77.086
830.208, 65.308
831.486, 108.529
832.764, 86.747
834.042, 76.963
835.320, 62.137
836.598, 41.349
837.875, 97.559
839.152, 61.717
840.429, 76.924
841.706, 53.932
842.983, 86.082
844.259, 87.179
845.536, 35.601
846.812, 93.125
848.088, 40.322
849.363, 63.297
850.639, 93.414
851.914, 33.521
853.189, 58.354
854.464, 38.535
855.739, 69.715
857.013, 24.891
858.288, 70.045
859.562, 74.763
860.836, 48.682
862.110, 3.572
863.383, 51.661
864.656, 28.246
865.930, 5.302
867.203, 64.045
868.475, 58.229
869.748, 42.198
871.020, 48.827
872.292, 18.999
873.564, 11.580
874.836, 40.727
876.108, 3.897
877.379, 24.142
878.650, 11.082
879.922, 28.761
881.192, 34.792
882.463, 17.809
883.733, 7.791
885.004, 42.892
886.274, 2.008
887.544, 1.095
888.813, 9.196
890.083, 42.902
891.352, 25.974
892.621, 39.179
893.890, 2.650
895.159, 19.528
896.427, 9.737
897.695, 13.933
898.964, 27.148
900.232, 33.961
901.499, 47.119
902.767, 56.346
904.034, 59.339
905.301, 6.630
906.568, 42.880
907.835, 39.991
909.102, 14.109
910.368, 60.133
911.634, 45.107
912.900, 25.373
914.166, 17.924
915.432, 33.817
916.697, 40.088
917.962, 51.361
919.227, 68.636
920.492, 24.849
921.757, 61.109
923.021, 69.398
924.285, 95.689
925.550, 60.982
926.813, 43.277
928.077, 39.902
929.341, 14.211
930.604, 73.523
931.867, 28.836
933.130, 6.153
934.393, 93.472
935.655, 56.773
936.918, 128.102
938.180, 78.430
939.442, 63.760
940.703, 50.092
941.965, 75.426
943.226, 58.743
944.488, 8.082
945.749, 86.322
947.009, 89.665
948.270, 23.010
949.530, 91.358
950.791, 90.666
952.051, 44.019
953.311, 33.375
954.570, 80.734
955.830, 102.095
957.089, 93.459
958.348, 99.828
959.607, 97.198
960.866, 75.572
962.124, 129.947
963.383, 161.330
964.641, 149.715
965.899, 159.103
967.156, 191.492
968.414, 197.885
969.671, 250.280
970.928, 306.678
972.185, 265.079
973.442, 296.482
974.699, 296.887
975.955, 332.296
977.211, 350.804
978.468, 393.131
979.723, 413.558
980.979, 448.987
982.234, 515.419
983.490, 551.854
984.745, 629.292
986.000, 754.732
987.254, 850.175
988.509, 942.306
989.763, 1133.069
991.017, 1152.521
992.271, 1229.975
993.525, 1386.441
994.779, 1558.911
996.032, 1907.386
997.285, 2331.868
998.538, 2876.368
999.791, 3909.872
1001.044, 5243.379
1002.296, 7795.891
1003.548, 12452.411
1004.800, 22087.939
1006.052, 39113.473
1007.304, 54395.008
1008.555, 51016.539
1009.807, 32566.080
1011.058, 17833.629
1012.309, 10070.178
1013.559, 6268.687
1014.810, 4313.254
1016.060, 3183.839
1017.310, 2336.426
1018.560, 1740.021
1019.810, 1454.620
1021.060, 1263.223
1022.309, 971.830
1023.558, 858.453
1024.807, 705.079
1026.056, 595.709
1027.305, 518.979
1028.553, 472.626
1029.801, 439.280
1031.049, 351.933
1032.297, 293.589
1033.545, 342.249
1034.793, 249.921
1036.040, 262.596
1037.287, 152.203
1038.534, 242.885
1039.781, 255.437
1041.027, 111.976
1042.274, 113.681
1043.520, 113.552
1044.766, 130.226
1046.012, 76.950
1047.257, 73.770
1048.503, 124.174
1049.748, 3.884
1050.993, 47.728
1052.238, 150.445
1053.483, 29.537
1054.727, 53.258
1055.971, 70.859
1057.216, 10.584
1058.459, 68.542
1059.703, 26.050
1060.947, 25.919
1062.190, 106.638
1063.433, 12.607
1064.676, 41.146
1065.919, 8.902
1067.162, 72.690
1068.404, 9.450
1069.646, 25.210
1070.888, 64.931
1072.130, 20.695
1073.372, 3.474
1074.613, 4.240
1075.855, 29.009
1077.096, 30.846
1078.337, 50.913
1079.578, 50.750
1080.818, 1.511
1082.059, 29.466
1083.299, 24.229
1084.539, 17.993
1085.779, 0.408
1087.018, 37.177
1088.258, 22.943
1089.497, 55.711
1090.736, 61.480
1091.975, 44.249
1093.213, 66.019
1094.452, 55.790
1095.690, 71.561
1096.928, 57.334
1098.166, 101.133
1099.404, 94.907
1100.642, 78.681
1101.879, 132.770
1103.116, 192.545
1104.353, 197.321
1105.590, 216.098
1106.827, 240.875
1108.063, 273.653
1109.299, 308.434
1110.536, 360.216
1111.771, 382.002
1113.007, 449.790
1114.243, 611.577
1115.478, 649.366
1116.713, 814.158
1117.948, 953.951
1119.183, 966.775
1120.418, 1128.568
1121.652, 1273.361
1122.886, 1364.154
1124.120, 1463.965
1125.354, 1519.137
1126.588, 1776.599
1127.821, 1940.746
1129.055, 2388.538
1130.288, 3036.330
1131.521, 3745.122
1132.753, 4749.913
1133.986, 5862.706
1135.218, 6431.494
1136.450, 5710.286
1137.682, 4737.075
1138.914, 3458.863
1140.146, 2720.656
1141.377, 2103.443
1142.609, 1680.257
1143.840, 1312.712
1145.071, 1081.499
1146.301, 849.283
1147.532, 665.067
1148.762, 502.931
1149.992, 378.713
1151.222, 329.494
1152.452, 267.358
1153.682, 233.182
1154.911, 192.127
1156.140, 128.929
1157.369, 107.789
1158.598, 103.179
1159.827, 115.263
1161.055, 80.035
1162.284, 123.829
1163.512, 31.612
1164.740, 53.397
1165.967, 25.163
1167.195, 65.927
1168.422, 20.690
1169.650, 35.451
1170.877, 12.621
1172.103, 48.379
1173.330, 21.152
1174.557, 6.095
1175.783, 14.888
1177.009, 14.632
1178.235, 50.373
1179.461, 41.113
1180.686, 22.850
1181.912, 83.586
1183.137, 18.319
1184.362, 9.949
1185.587, 23.774
1186.811, 25.493
1188.036, 23.789
1189.260, 16.911
1190.484, 3.608
1191.708, 33.301
1192.932, 14.990
1194.155, 5.678
1195.378, 4.639
1196.602, 30.035
1197.825, 27.198
1199.047, 69.453
1200.270, 14.899
1201.492, 81.735
1202.715, 38.635
1203.937, 64.973
1205.159, 4.573
1206.380, 95.169
1207.602, 10.238
1208.823, 7.656
1210.044, 73.913
1211.265, 24.196
1212.486, 36.759
1213.707, 16.319
1214.927, 56.876
1216.147, 32.430
1217.367, 23.019
1218.587, 51.512
1219.807, 21.040
1221.027, 55.564
1222.246, 72.272
1223.465, 29.210
1224.684, 67.968
1225.903, 10.460
1227.121, 40.192
1228.340, 6.678
1229.558, 64.158
1230.776, 39.636
1231.994, 1.889
1233.212, 24.575
1234.429, 69.039
1235.646, 28.500
1236.864, 59.960
1238.081, 31.417
1239.297, 39.871
1240.514, 81.323
1241.730, 29.772
1242.947, 50.217
1244.163, 19.660
1245.378, 68.100
1246.594, 51.537
1247.810, 4.971
1249.025, 80.402
1250.240, 87.829
1251.455, 33.254
1252.670, 39.675
1253.885, 45.251
1255.099, 52.342
1256.313, 61.935
1257.527, 104.316
1258.741, 59.710
1259.955, 80.101
1261.168, 28.489
1262.382, 27.873
1263.595, 42.502
1264.808, 22.876
1266.021, 41.704
1267.233, 36.611
1268.446, 54.972
1269.658, 26.329
1270.870, 6.676
1272.082, 14.982
1273.294, 7.349
1274.505, 37.675
1275.716, 32.996
1276.928, 48.312
1278.139, 33.623
1279.349, 67.929
1280.560, 96.232
1281.770, 54.530
1282.981, 48.825
1284.191, 54.115
1285.401, 29.402
1286.610, 37.685
1287.820, 23.964
1289.029, 1.239
1290.239, 60.506
1291.448, 44.770
1292.656, 44.030
1293.865, 17.286
1295.073, 45.539
1296.282, 30.789
1297.490, 17.035
1298.698, 20.277
1299.906, 13.258
1301.113, 23.750
1302.320, 16.979
1303.528, 2.205
1304.735, 8.801
1305.942, 38.635
1307.148, 23.845
1308.355, 26.051
1309.561, 25.255
1310.767, 78.455
1311.973, 59.652
1313.179, 47.845
1314.384, 106.035
1315.590, 6.223
1316.795, 59.399
1318.000, 24.569
1319.205, 75.723
1320.410, 10.246
1321.614, 31.390
1322.819, 62.514
1324.023, 96.640
1325.227, 76.762
1326.431, 71.090
1327.634, 45.205
1328.838, 76.652
1330.041, 43.859
1331.244, 68.965
1332.447, 73.067
1333.650, 51.320
1334.852, 53.407
1336.055, 74.328
1337.257, 38.418
1338.459, 106.484
1339.661, 76.453
1340.862, 72.837
1342.064, 11.946
1343.265, 57.891
1344.466, 133.962
1345.667, 69.658
1346.868, 104.724
1348.068, 14.909
1349.269, 27.970
1350.469, 67.807
1351.669, 34.865
1352.869, 119.800
1354.069, 46.884
1355.268, 120.924
1356.468, 105.965
1357.667, 31.004
1358.866, 76.013
1360.065, 87.051
1361.263, 45.088
1362.462, 50.166
1363.660, 148.203
1364.858, 55.227
1366.056, 1.266
1367.254, 142.305
1368.451, 83.972
1369.649, 61.025
1370.846, 0.993
1372.043, 37.071
1373.240, 18.954
1374.436, 57.041
1375.633, 56.142
1376.829, 64.617
1378.025, 64.572
1379.221, 85.977
1380.417, 47.176
1381.613, 35.371
1382.808, 28.560
1384.003, 102.717
1385.199, 72.896
1386.393, 72.739
1387.588, 59.904
1388.783, 38.063
1389.977, 55.210
1391.171, 19.340
1392.365, 49.463
1393.559, 45.571
1394.753, 27.638
1395.946, 51.733
1397.140, 0.630
1398.333, 9.886
1399.526, 16.165
1400.719, 17.791
1401.911, 75.249
1403.104, 20.281
1404.296, 33.304
1405.488, 87.293
1406.680, 19.520
1407.872, 65.480
1409.063, 49.374
1410.255, 9.253
1411.446, 115.958
1412.637, 57.786
1413.828, 85.523
1415.018, 77.434
1416.209, 64.328
1417.399, 49.256
1418.589, 99.177
1419.779, 21.517
1420.969, 91.393
1422.159, 66.956
1423.348, 94.848
1424.537, 42.732
1425.726, 80.606
1426.915, 56.483
1428.104, 92.366
1429.293, 43.257
1430.481, 83.143
1431.669, 109.030
1432.857, 86.779
1434.045, 106.697
1435.233, 74.634
1436.420, 105.596
1437.608, 101.564
1438.795, 66.553
1439.982, 100.539
1441.169, 131.523
1442.355, 81.520
1443.542, 95.531
1444.728, 122.195
1445.914, 96.234
1447.100, 78.806
1448.286, 129.839
1449.472, 112.874
1450.657, 167.909
1451.842, 116.938
1453.027, 98.959
1454.212, 120.977
1455.397, 84.992
1456.581, 132.001
1457.766, 154.005
1458.950, 70.004
1460.134, 122.066
1461.318, 80.292
1462.501, 39.244
1463.685, 107.193
1464.868, 37.006
1466.051, 94.903
1467.234, 15.805
1468.417, 7.265
1469.600, 1.665
1470.782, 10.399
1471.965, 2.449
1473.147, 45.507
1474.329, 63.465
1475.510, 26.427
1476.692, 27.390
1477.873, 16.361
1479.055, 29.332
1480.236, 83.301
1481.416, 54.267
1482.597, 32.229
1483.778, 1.801
1484.958, 37.181
1486.138, 45.156
1487.318, 75.126
1488.498, 98.089
1489.678, 82.047
1490.857, 31.040
1492.037, 50.192
1493.216, 74.427
1494.395, 63.759
1495.574, 79.970
1496.752, 63.091
1497.931, 44.363
1499.109, 35.664
1500.287, 64.999
1501.465, 48.847
1502.643, 48.181
1503.820, 40.012
1504.998, 36.534
1506.175, 32.696
1507.352, 27.397
1508.529, 27.584
1509.706, 18.988
1510.882, 23.115
1512.059, 18.725
1513.235, 14.674
1514.411, 4.066
1515.587, 30.068
1516.762, 1.872
1517.938, 17.896
1519.113, 94.967
1520.288, 0.000
##END=



