##NAMES=Gypsum
##RRUFFID=R040029
##IDEAL CHEMISTRY=CaS^6+^O_4_&#183;2H_2_O
##LOCALITY=Twin Buttes, Pima County, Arizona, USA
##OWNER=RRUFF
##SOURCE=University of Arizona Mineral Museum
##DESCRIPTION=Colorless prismatic crystal
##STATUS=The identification of this mineral has been confirmed by X-ray diffraction.
##URL=rruff.info/R040029
##PIN_ID=L00273
##ORIENTATION=Laser parallel to -a [-1 0 0]. Fiducial mark perpendicular to laser is parallel to b* (0 1 0)
79.427, 0.000
80.823, 14.779
82.218, 49.743
83.614, 82.308
85.009, 125.338
86.404, 224.822
87.798, 354.888
89.193, 478.708
90.587, 451.039
91.981, 379.016
93.375, 251.007
94.768, 157.530
96.161, 187.194
97.554, 258.681
98.947, 214.738
100.340, 274.162
101.732, 293.822
103.124, 453.596
104.516, 675.366
105.908, 896.043
107.300, 1053.551
108.691, 1085.793
110.082, 1025.670
111.473, 976.105
112.864, 942.039
114.254, 1155.426
115.644, 1486.229
117.034, 1818.409
118.424, 2212.929
119.813, 2106.370
121.203, 2290.018
122.592, 1710.790
123.981, 1254.977
125.369, 776.422
126.758, 686.104
128.146, 635.101
129.534, 618.269
130.922, 609.860
132.309, 579.697
133.696, 480.827
135.083, 487.055
136.470, 386.304
137.857, 499.549
139.243, 587.794
140.630, 634.040
142.016, 669.308
143.401, 616.774
144.787, 613.002
146.172, 419.399
147.557, 337.946
148.942, 172.572
150.327, 150.252
151.711, 114.033
153.096, 128.812
154.480, 75.597
155.863, 81.372
157.247, 109.140
158.630, 96.891
160.013, 200.317
161.396, 234.115
162.779, 341.006
164.161, 336.323
165.544, 478.286
166.926, 630.196
168.308, 640.354
169.689, 608.491
171.070, 624.642
172.452, 802.570
173.833, 913.047
175.213, 1204.275
176.594, 1457.728
177.974, 1752.803
179.354, 1850.460
180.734, 1768.614
182.114, 1435.045
183.493, 1208.260
184.872, 956.955
186.251, 728.502
187.630, 533.253
189.008, 483.395
190.387, 410.299
191.765, 377.256
193.143, 393.214
194.520, 281.205
195.898, 362.226
197.275, 352.276
198.652, 482.356
200.029, 389.462
201.405, 458.595
202.782, 599.476
204.158, 672.651
205.534, 747.700
206.909, 773.068
208.285, 690.606
209.660, 725.483
211.035, 601.724
212.410, 474.965
213.784, 478.313
215.159, 421.424
216.533, 340.661
217.907, 332.906
219.281, 356.099
220.654, 161.485
222.027, 178.836
223.400, 177.586
224.773, 77.757
226.146, 72.799
227.518, 129.423
228.891, 9.694
230.263, 61.062
231.634, 62.294
233.006, 1.539
234.377, 35.794
235.748, 4.059
237.119, 29.333
238.490, 52.618
239.860, 41.089
241.231, 34.214
242.601, 2.480
243.970, 1.171
245.340, 21.649
246.709, 66.410
248.079, 17.713
249.448, 84.672
250.816, 3.625
252.185, 38.852
253.553, 20.149
254.921, 17.289
256.289, 16.708
257.657, 39.825
259.024, 29.950
260.391, 9.365
261.758, 42.234
263.125, 6.235
264.492, 12.227
265.858, 45.628
267.224, 3.019
268.590, 54.283
269.956, 46.451
271.321, 50.228
272.687, 43.957
274.052, 16.885
275.416, 20.759
276.781, 10.663
278.146, 44.406
279.510, 1.540
280.874, 94.463
282.237, 34.505
283.601, 77.506
284.964, 2.483
286.327, 18.488
287.690, 42.494
289.053, 60.474
290.416, 22.928
291.778, 54.046
293.140, 17.979
294.502, 4.956
295.863, 79.855
297.225, 21.115
298.586, 45.936
299.947, 58.965
301.308, 3.004
302.668, 55.075
304.029, 91.108
305.389, 101.143
306.749, 62.181
308.108, 66.220
309.468, 46.262
310.827, 121.305
312.186, 93.349
313.545, 133.393
314.903, 174.438
316.262, 93.483
317.620, 183.528
318.978, 120.573
320.336, 113.757
321.693, 239.661
323.051, 117.705
324.408, 10.737
325.765, 93.766
327.121, 76.788
328.478, 9.785
329.834, 49.752
331.190, 61.704
332.546, 5.653
333.902, 74.597
335.257, 11.471
336.612, 17.452
337.967, 38.360
339.322, 40.252
340.677, 94.132
342.031, 65.247
343.385, 96.885
344.739, 25.721
346.093, 29.468
347.446, 51.669
348.799, 18.077
350.153, 42.803
351.505, 103.520
352.858, 22.229
354.210, 5.940
355.563, 101.645
356.915, 67.352
358.267, 110.062
359.618, 37.224
360.969, 18.479
362.321, 7.821
363.672, 25.874
365.022, 101.570
366.373, 87.274
367.723, 133.971
369.073, 20.667
370.423, 51.355
371.773, 43.166
373.122, 41.916
374.471, 67.595
375.821, 51.987
377.169, 60.101
378.518, 47.669
379.866, 62.347
381.215, 73.384
382.563, 82.063
383.910, 77.750
385.258, 73.400
386.605, 81.487
387.952, 89.758
389.299, 94.355
390.646, 129.006
391.992, 142.662
393.339, 184.322
394.685, 198.055
396.031, 266.666
397.376, 239.352
398.722, 232.039
400.067, 265.729
401.412, 343.438
402.757, 457.853
404.101, 519.584
405.446, 664.263
406.790, 860.963
408.134, 1163.122
409.478, 1676.390
410.821, 2229.689
412.165, 2596.041
413.508, 2690.844
414.851, 2099.323
416.193, 1534.539
417.536, 1007.850
418.878, 807.675
420.220, 549.505
421.562, 369.274
422.904, 409.108
424.245, 301.290
425.586, 268.126
426.927, 287.523
428.268, 214.460
429.609, 181.295
430.949, 155.750
432.289, 219.587
433.629, 187.428
434.969, 194.288
436.309, 111.129
437.648, 217.969
438.987, 202.809
440.326, 81.492
441.665, 51.203
443.003, 169.205
444.342, 113.041
445.680, 166.873
447.018, 149.545
448.355, 105.399
449.693, 106.933
451.030, 18.527
452.367, 215.387
453.704, 35.241
455.041, 119.879
456.377, 3.095
457.713, 64.952
459.049, 35.315
460.385, 69.170
461.721, 179.024
463.056, 32.181
464.391, 159.032
465.726, 193.881
467.061, 149.729
468.395, 194.574
469.730, 220.419
471.064, 205.850
472.398, 248.812
473.731, 236.957
475.065, 296.810
476.398, 381.660
477.731, 411.509
479.064, 496.355
480.397, 581.199
481.729, 766.049
483.062, 877.896
484.394, 1144.740
485.725, 1498.042
487.057, 2048.891
488.389, 2607.736
489.720, 3054.929
491.051, 3678.786
492.382, 3589.640
493.712, 3196.482
495.043, 2529.333
496.373, 2095.363
497.703, 1512.711
499.032, 1208.543
500.362, 944.373
501.691, 752.215
503.020, 518.055
504.349, 413.355
505.678, 373.398
507.007, 279.262
508.335, 278.896
509.663, 305.117
510.991, 267.926
512.319, 220.775
513.646, 144.092
514.973, 153.750
516.300, 195.597
517.627, 194.451
518.954, 178.583
520.280, 196.575
521.607, 122.707
522.933, 114.547
524.259, 102.990
525.584, 21.848
526.910, 69.703
528.235, 32.557
529.560, 117.676
530.885, 13.471
532.209, 14.194
533.534, 63.825
534.858, 18.865
536.182, 73.284
537.506, 123.115
538.829, 121.010
540.152, 3.837
541.476, 100.090
542.799, 22.942
544.121, 67.759
545.444, 92.584
546.766, 48.397
548.088, 133.208
549.410, 201.017
550.732, 156.458
552.053, 182.976
553.375, 134.777
554.696, 219.155
556.017, 258.951
557.337, 280.819
558.658, 214.729
559.978, 352.858
561.298, 386.538
562.618, 310.324
563.938, 355.487
565.257, 461.320
566.576, 338.097
567.895, 550.411
569.214, 473.224
570.533, 435.008
571.851, 367.379
573.170, 464.172
574.488, 428.877
575.805, 414.862
577.123, 376.909
578.440, 436.003
579.758, 417.790
581.075, 350.743
582.391, 458.655
583.708, 444.439
585.024, 401.334
586.341, 397.175
587.657, 388.983
588.972, 441.785
590.288, 368.592
591.603, 406.176
592.918, 361.972
594.233, 424.067
595.548, 394.015
596.863, 407.968
598.177, 433.752
599.491, 479.650
600.805, 561.765
602.119, 477.563
603.432, 688.839
604.746, 729.003
606.059, 715.142
607.372, 838.016
608.685, 992.852
609.997, 1177.679
611.309, 1376.477
612.621, 1625.755
613.933, 1975.634
615.245, 2283.647
616.557, 2592.740
617.868, 2697.509
619.179, 2656.413
620.490, 2405.222
621.801, 2183.289
623.111, 1601.081
624.421, 1553.912
625.731, 1006.692
627.041, 959.550
628.351, 697.438
629.660, 518.289
630.970, 518.104
632.279, 442.127
633.588, 386.840
634.896, 238.631
636.205, 286.328
637.513, 190.017
638.821, 167.268
640.129, 192.026
641.437, 178.775
642.744, 116.432
644.051, 178.834
645.358, 113.536
646.665, 246.264
647.972, 113.169
649.278, 124.792
650.584, 4.406
651.890, 139.007
653.196, 101.600
654.502, 107.491
655.807, 42.090
657.113, 131.693
658.418, 160.261
659.722, 91.002
661.027, 126.839
662.331, 87.856
663.636, 298.916
664.940, 268.494
666.244, 546.254
667.547, 638.152
668.851, 1019.684
670.154, 928.207
671.457, 715.840
672.760, 545.625
674.062, 264.028
675.365, 125.190
676.667, 202.748
677.969, 124.837
679.271, 145.319
680.572, 44.999
681.874, 189.601
683.175, 82.062
684.476, 111.514
685.777, 80.134
687.077, 56.570
688.378, 137.900
689.678, 84.368
690.978, 37.775
692.278, 100.814
693.577, 77.506
694.877, 38.816
696.176, 133.114
697.475, 1.965
698.774, 61.444
700.072, 85.675
701.371, 67.919
702.669, 100.739
703.967, 98.450
705.265, 111.977
706.562, 16.178
707.860, 13.363
709.157, 110.532
710.454, 52.311
711.751, 97.807
713.047, 58.049
714.344, 49.240
715.640, 48.686
716.936, 41.659
718.232, 82.323
719.527, 28.340
720.823, 66.296
722.118, 80.431
723.413, 20.051
724.708, 74.090
726.002, 111.998
727.297, 36.928
728.591, 126.146
729.885, 6.204
731.179, 43.383
732.472, 37.499
733.766, 33.407
735.059, 83.521
736.352, 46.520
737.645, 53.512
738.937, 93.263
740.230, 58.917
741.522, 71.749
742.814, 80.531
744.106, 111.359
745.397, 113.056
746.689, 11.742
747.980, 137.563
749.271, 38.241
750.562, 55.884
751.853, 53.609
753.143, 101.329
754.433, 67.015
755.723, 32.609
757.013, 115.188
758.303, 23.757
759.592, 32.425
760.881, 49.037
762.170, 75.453
763.459, 85.931
764.748, 34.604
766.036, 175.822
767.325, 20.763
768.613, 77.619
769.901, 104.989
771.188, 36.351
772.476, 130.698
773.763, 68.035
775.050, 89.358
776.337, 31.671
777.624, 90.969
778.910, 80.256
780.196, 90.530
781.482, 70.797
782.768, 0.952
784.054, 70.117
785.339, 77.333
786.625, 19.462
787.910, 139.710
789.195, 77.872
790.479, 142.021
791.764, 105.159
793.048, 8.714
794.332, 78.388
795.616, 78.477
796.900, 103.555
798.183, 12.378
799.467, 84.661
800.750, 76.689
802.033, 37.294
803.316, 188.682
804.598, 379.647
805.880, 210.717
807.163, 107.660
808.445, 31.592
809.726, 94.512
811.008, 91.406
812.289, 99.303
813.570, 54.188
814.851, 32.062
816.132, 43.078
817.413, 7.741
818.693, 87.545
819.973, 46.337
821.253, 22.118
822.533, 118.883
823.813, 120.639
825.092, 68.383
826.371, 31.116
827.650, 20.164
828.929, 0.473
830.208, 78.202
831.486, 16.135
832.764, 118.503
834.042, 48.131
835.320, 64.646
836.598, 93.250
837.875, 134.843
839.152, 52.426
840.429, 208.997
841.706, 86.523
842.983, 65.078
844.259, 146.622
845.536, 85.951
846.812, 126.832
848.088, 96.346
849.363, 179.648
850.639, 164.143
851.914, 50.198
853.189, 107.641
854.464, 133.108
855.739, 154.556
857.013, 66.005
858.288, 9.445
859.562, 126.876
860.836, 101.663
862.110, 122.364
863.383, 160.770
864.656, 75.587
865.930, 42.977
867.203, 52.283
868.475, 78.538
869.748, 102.563
871.020, 108.026
872.292, 58.380
873.564, 104.348
874.836, 23.644
876.108, 15.017
877.379, 39.776
878.650, 109.070
879.922, 25.405
881.192, 12.159
882.463, 13.480
883.733, 5.093
885.004, 2.178
886.274, 37.128
887.544, 3.841
888.813, 9.488
890.083, 7.645
891.352, 124.833
892.621, 23.853
893.890, 37.342
895.159, 46.584
896.427, 95.102
897.695, 147.556
898.964, 86.810
900.232, 24.288
901.499, 55.531
902.767, 79.474
904.034, 37.550
905.301, 35.610
906.568, 40.829
907.835, 183.931
909.102, 83.779
910.368, 111.983
911.634, 31.698
912.900, 91.532
914.166, 156.382
915.432, 100.484
916.697, 55.626
917.962, 200.394
919.227, 75.566
920.492, 81.224
921.757, 127.319
923.021, 111.487
924.285, 146.353
925.550, 165.514
926.813, 111.551
928.077, 81.674
929.341, 125.481
930.604, 160.602
931.867, 127.679
933.130, 46.792
934.393, 114.820
935.655, 28.194
936.918, 162.812
938.180, 76.844
939.442, 94.653
940.703, 69.761
941.965, 130.777
943.226, 122.207
944.488, 83.976
945.749, 130.498
947.009, 119.503
948.270, 99.502
949.530, 133.581
950.791, 195.905
952.051, 83.918
953.311, 153.894
954.570, 162.682
955.830, 124.743
957.089, 192.801
958.348, 85.858
959.607, 172.910
960.866, 53.658
962.124, 133.689
963.383, 152.705
964.641, 225.742
965.899, 139.594
967.156, 183.340
968.414, 111.892
969.671, 244.393
970.928, 221.376
972.185, 222.186
973.442, 317.845
974.699, 334.860
975.955, 344.872
977.211, 267.764
978.468, 459.495
979.723, 341.595
980.979, 412.923
982.234, 618.841
983.490, 455.250
984.745, 495.257
986.000, 667.060
987.254, 768.932
988.509, 862.938
989.763, 976.950
991.017, 969.781
992.271, 1074.784
993.525, 1232.753
994.779, 1484.629
996.032, 1756.643
997.285, 2075.621
998.538, 2571.664
999.791, 3569.703
1001.044, 4748.738
1002.296, 7055.769
1003.548, 11115.658
1004.800, 19500.688
1006.052, 34586.074
1007.304, 47056.094
1008.555, 43131.348
1009.807, 26638.500
1011.058, 14501.643
1012.309, 8315.696
1013.559, 5266.910
1014.810, 3542.341
1016.060, 2668.665
1017.310, 2062.935
1018.560, 1514.240
1019.810, 1305.616
1021.060, 1134.193
1022.309, 811.526
1023.558, 740.355
1024.807, 643.916
1026.056, 542.381
1027.305, 512.339
1028.553, 445.447
1029.801, 348.689
1031.049, 410.333
1032.297, 356.594
1033.545, 412.499
1034.793, 285.335
1036.040, 372.361
1037.287, 365.237
1038.534, 297.737
1039.781, 313.262
1041.027, 156.881
1042.274, 161.773
1043.520, 278.389
1044.766, 131.260
1046.012, 54.459
1047.257, 10.936
1048.503, 195.996
1049.748, 56.771
1050.993, 217.065
1052.238, 187.224
1053.483, 94.478
1054.727, 161.525
1055.971, 243.944
1057.216, 161.056
1058.459, 143.908
1059.703, 235.222
1060.947, 306.593
1062.190, 240.974
1063.433, 164.358
1064.676, 200.638
1065.919, 184.064
1067.162, 312.523
1068.404, 153.968
1069.646, 185.206
1070.888, 315.518
1072.130, 175.965
1073.372, 217.158
1074.613, 240.641
1075.855, 119.912
1077.096, 251.426
1078.337, 340.668
1079.578, 190.941
1080.818, 303.692
1082.059, 234.495
1083.299, 309.916
1084.539, 344.992
1085.779, 319.614
1087.018, 312.691
1088.258, 297.443
1089.497, 365.349
1090.736, 332.077
1091.975, 301.547
1093.213, 323.249
1094.452, 433.937
1095.690, 386.048
1096.928, 514.833
1098.166, 431.921
1099.404, 622.634
1100.642, 537.698
1101.879, 699.059
1103.116, 681.664
1104.353, 840.112
1105.590, 803.305
1106.827, 1039.879
1108.063, 1036.539
1109.299, 1232.549
1110.536, 1451.670
1111.771, 1480.559
1113.007, 1684.377
1114.243, 1838.197
1115.478, 1900.600
1116.713, 1992.416
1117.948, 1932.605
1119.183, 1717.033
1120.418, 1699.020
1121.652, 1551.020
1122.886, 1560.885
1124.120, 1354.109
1125.354, 1034.656
1126.588, 1001.441
1127.821, 763.764
1129.055, 779.709
1130.288, 710.218
1131.521, 594.772
1132.753, 446.455
1133.986, 639.879
1135.218, 876.730
1136.450, 747.825
1137.682, 983.732
1138.914, 822.075
1140.146, 862.572
1141.377, 723.513
1142.609, 787.059
1143.840, 733.055
1145.071, 552.474
1146.301, 458.924
1147.532, 402.335
1148.762, 304.878
1149.992, 194.064
1151.222, 210.613
1152.452, 172.795
1153.682, 50.009
1154.911, 228.206
1156.140, 59.536
1157.369, 37.763
1158.598, 114.976
1159.827, 171.362
1161.055, 108.208
1162.284, 56.448
1163.512, 85.446
1164.740, 65.153
1165.967, 68.832
1167.195, 77.290
1168.422, 46.482
1169.650, 108.460
1170.877, 3.439
1172.103, 12.818
1173.330, 36.393
1174.557, 37.868
1175.783, 132.449
1177.009, 66.488
1178.235, 21.062
1179.461, 87.713
1180.686, 79.992
1181.912, 155.528
1183.137, 51.110
1184.362, 13.563
1185.587, 20.843
1186.811, 30.261
1188.036, 17.950
1189.260, 12.405
1190.484, 5.630
1191.708, 6.642
1192.932, 16.737
1194.155, 31.684
1195.378, 9.120
1196.602, 24.281
1197.825, 79.042
1199.047, 141.542
1200.270, 122.616
1201.492, 147.212
1202.715, 54.866
1203.937, 131.790
1205.159, 13.815
1206.380, 98.645
1207.602, 83.174
1208.823, 51.673
1210.044, 76.140
1211.265, 103.970
1212.486, 66.375
1213.707, 56.747
1214.927, 61.453
1216.147, 14.238
1217.367, 91.023
1218.587, 56.256
1219.807, 114.454
1221.027, 49.623
1222.246, 90.760
1223.465, 43.864
1224.684, 92.938
1225.903, 82.979
1227.121, 6.011
1228.340, 197.955
1229.558, 48.897
1230.776, 118.811
1231.994, 42.699
1233.212, 114.566
1234.429, 189.403
1235.646, 152.287
1236.864, 233.073
1238.081, 36.836
1239.297, 16.568
1240.514, 247.268
1241.730, 89.942
1242.947, 164.730
1244.163, 89.349
1245.378, 175.936
1246.594, 90.493
1247.810, 41.019
1249.025, 212.510
1250.240, 30.973
1251.455, 58.476
1252.670, 194.877
1253.885, 171.224
1255.099, 83.542
1256.313, 60.803
1257.527, 106.033
1258.741, 119.229
1259.955, 114.630
1261.168, 26.473
1262.382, 108.540
1263.595, 44.866
1264.808, 23.861
1266.021, 65.794
1267.233, 103.721
1268.446, 51.549
1269.658, 34.338
1270.870, 150.078
1272.082, 88.740
1273.294, 210.369
1274.505, 57.943
1275.716, 144.449
1276.928, 52.079
1278.139, 95.338
1279.349, 152.720
1280.560, 59.067
1281.770, 45.627
1282.981, 47.618
1284.191, 152.823
1285.401, 110.994
1286.610, 38.128
1287.820, 89.226
1289.029, 45.708
1290.239, 109.307
1291.448, 12.289
1292.656, 100.232
1293.865, 68.142
1295.073, 143.018
1296.282, 61.861
1297.490, 16.670
1298.698, 120.443
1299.906, 117.838
1301.113, 80.546
1302.320, 53.092
1303.528, 96.104
1304.735, 56.415
1305.942, 22.116
1307.148, 71.451
1308.355, 15.528
1309.561, 227.685
1310.767, 4.279
1311.973, 67.719
1313.179, 88.287
1314.384, 92.484
1315.590, 85.477
1316.795, 133.888
1318.000, 27.425
1319.205, 184.127
1320.410, 147.649
1321.614, 58.468
1322.819, 126.402
1324.023, 94.635
1325.227, 205.191
1326.431, 94.070
1327.634, 125.448
1328.838, 62.450
1330.041, 84.719
1331.244, 73.755
1332.447, 28.838
1333.650, 51.783
1334.852, 187.652
1336.055, 1.148
1337.257, 43.570
1338.459, 29.964
1339.661, 212.860
1340.862, 64.518
1342.064, 148.297
1343.265, 16.377
1344.466, 108.690
1345.667, 119.900
1346.868, 195.190
1348.068, 204.293
1349.269, 203.427
1350.469, 215.752
1351.669, 187.746
1352.869, 191.656
1354.069, 211.416
1355.268, 47.263
1356.468, 204.206
1357.667, 164.978
1358.866, 50.696
1360.065, 281.420
1361.263, 145.622
1362.462, 206.451
1363.660, 204.130
1364.858, 188.049
1366.056, 183.671
1367.254, 229.464
1368.451, 216.007
1369.649, 195.812
1370.846, 162.654
1372.043, 167.848
1373.240, 149.907
1374.436, 167.492
1375.633, 169.702
1376.829, 152.033
1378.025, 151.879
1379.221, 107.609
1380.417, 163.379
1381.613, 177.147
1382.808, 259.609
1384.003, 206.246
1385.199, 238.295
1386.393, 88.235
1387.588, 146.523
1388.783, 171.101
1389.977, 158.803
1391.171, 300.918
1392.365, 270.522
1393.559, 202.093
1394.753, 101.307
1395.946, 175.996
1397.140, 111.749
1398.333, 183.322
1399.526, 205.889
1400.719, 167.636
1401.911, 194.413
1403.104, 119.994
1404.296, 149.877
1405.488, 365.038
1406.680, 26.705
1407.872, 255.924
1409.063, 291.014
1410.255, 65.704
1411.446, 211.270
1412.637, 241.139
1413.828, 149.761
1415.018, 173.896
1416.209, 218.354
1417.399, 88.222
1418.589, 340.858
1419.779, 64.193
1420.969, 205.843
1422.159, 187.072
1423.348, 154.147
1424.537, 161.465
1425.726, 179.001
1426.915, 336.197
1428.104, 137.571
1429.293, 296.229
1430.481, 162.636
1431.669, 351.463
1432.857, 238.256
1434.045, 245.016
1435.233, 409.033
1436.420, 378.709
1437.608, 367.676
1438.795, 261.296
1439.982, 366.874
1441.169, 319.411
1442.355, 332.908
1443.542, 439.370
1444.728, 161.771
1445.914, 384.075
1447.100, 320.149
1448.286, 395.281
1449.472, 180.328
1450.657, 434.965
1451.842, 357.832
1453.027, 342.635
1454.212, 515.367
1455.397, 397.841
1456.581, 404.519
1457.766, 593.241
1458.950, 347.963
1460.134, 487.709
1461.318, 330.631
1462.501, 217.348
1463.685, 409.305
1464.868, 173.440
1466.051, 364.745
1467.234, 73.303
1468.417, 119.862
1469.600, 100.450
1470.782, 287.136
1471.965, 17.140
1473.147, 245.604
1474.329, 315.341
1475.510, 124.096
1476.692, 217.875
1477.873, 199.662
1479.055, 65.462
1480.236, 161.275
1481.416, 147.153
1482.597, 197.084
1483.778, 204.098
1484.958, 168.214
1486.138, 133.450
1487.318, 335.812
1488.498, 312.354
1489.678, 223.043
1490.857, 117.857
1492.037, 291.792
1493.216, 154.439
1494.395, 132.493
1495.574, 55.693
1496.752, 25.062
1497.931, 141.628
1499.109, 48.420
1500.287, 32.457
1501.465, 83.559
1502.643, 9.665
1503.820, 103.373
1504.998, 176.010
1506.175, 112.208
1507.352, 155.102
1508.529, 71.138
1509.706, 52.868
1510.882, 57.292
1512.059, 0.303
1513.235, 0.000
##END=



