##NAMES=Hardystonite
##RRUFFID=R040026
##IDEAL CHEMISTRY=Ca_2_Zn^2+^Si_2_O_7_
##LOCALITY=Franklin, Sussex County, New Jersey, USA
##OWNER=RRUFF
##SOURCE=University of Arizona Mineral Museum
##DESCRIPTION=White massive
##STATUS=The identification of this mineral has been confirmed by X-ray diffraction and chemical analysis
##URL=rruff.info/R040026
##MEASURED CHEMISTRY=(Ca_1.98_Mn_0.02_)_Σ=2_(Zn_0.99_Al_0.01_)_Σ=1_(Si_1.99_Al_0.01_)_Σ=2_O_7_
##PIN_ID=S00031
##ORIENTATION=Laser parallel to c* (0 0 1). Fiducial mark perpendicular to laser is parallel to a [1 0 0]
126.7580, 0.0000000E+00
128.1460, 1.076172
129.5340, 204.4126
130.9220, 37.03857
132.3090, 136.5718
133.6960, 21.56445
135.0830, 294.6538
136.4700, 46.71777
137.8570, 174.9146
139.2430, 285.2817
140.6300, 348.9360
142.0160, 383.8491
143.4010, 387.8931
144.7870, 370.5205
146.1720, 340.8364
147.5570, 299.4336
148.9420, 312.7686
150.3270, 250.4814
151.7110, 193.1504
153.0960, 223.2852
154.4800, 189.7305
155.8630, 178.4673
157.2470, 152.1392
158.6300, 243.2231
160.0130, 229.5156
161.3960, 219.4580
162.7790, 233.6616
164.1610, 347.1646
165.5440, 225.7041
166.9260, 233.5161
168.3080, 116.3857
169.6890, 179.2944
171.0700, 231.2368
172.4520, 137.2031
173.8330, 104.1855
175.2130, 144.1714
176.5940, 51.15088
177.9740, 68.13184
179.3540, 47.15332
180.7340, 51.21631
182.1140, 79.32422
183.4930, 7.478027
184.8720, 30.31738
186.2510, 19.96875
187.6300, 38.47705
189.0080, 24.69531
190.3870, 22.50586
191.7650, 77.15283
193.1430, 2.117676
194.5200, 31.73340
195.8980, 55.33984
197.2750, 112.5103
198.6520, 105.9536
200.0290, 65.80762
201.4050, 99.92871
202.7820, 172.0161
204.1580, 237.3169
205.5340, 448.3901
206.9090, 498.6260
208.2850, 650.5757
209.6600, 883.3257
211.0350, 805.0801
212.4100, 974.8262
213.7840, 1094.548
215.1590, 1332.234
216.5330, 1462.875
217.9070, 1539.458
219.2810, 1626.971
220.6540, 1631.406
222.0270, 1768.752
223.4000, 1750.000
224.7730, 1793.135
226.1460, 1820.146
227.5180, 1809.183
228.8910, 1908.291
230.2630, 1930.256
231.6340, 1948.450
233.0060, 1977.542
234.3770, 2015.664
235.7480, 2111.049
237.1190, 2200.170
238.4900, 2200.638
239.8600, 2224.964
241.2310, 2252.638
242.6010, 2302.119
243.9700, 2317.521
245.3400, 2379.241
246.7090, 2231.619
248.0790, 2351.373
249.4480, 2198.105
250.8160, 2263.107
252.1850, 2304.370
253.5530, 2214.975
254.9210, 2282.746
256.2890, 2203.279
257.6570, 2207.021
259.0240, 2166.635
260.3910, 2236.970
261.7580, 2135.998
263.1250, 2267.951
264.4920, 2202.152
265.8580, 2063.045
267.2240, 2141.701
268.5900, 1930.546
269.9560, 1992.640
271.3210, 2037.545
272.6870, 1963.108
274.0520, 1776.045
275.4160, 1901.310
276.7810, 1817.472
278.1460, 1614.311
279.5100, 1675.129
280.8740, 1487.510
282.2370, 1446.832
283.6010, 1181.091
284.9640, 1197.287
286.3270, 1138.422
287.6900, 984.4971
289.0530, 944.5132
290.4160, 980.4722
291.7780, 929.5156
293.1400, 840.3809
294.5020, 846.4634
295.8630, 758.2051
297.2250, 800.8047
298.5860, 704.9766
299.9470, 789.1426
301.3080, 717.8906
302.6680, 731.6074
304.0290, 756.1001
305.3890, 830.3667
306.7490, 798.3789
308.1080, 822.1436
309.4680, 845.6548
310.8270, 872.9521
312.1860, 880.6812
313.5450, 917.9009
314.9030, 879.5747
316.2620, 868.9243
317.6200, 834.1489
318.9780, 845.0083
320.3360, 726.4297
321.6930, 652.5210
323.0510, 714.6006
324.4080, 589.1914
325.7650, 660.4834
327.1210, 531.7339
328.4780, 479.3481
329.8340, 428.3789
331.1900, 490.3940
332.5460, 412.7197
333.9020, 479.4087
335.2570, 362.2661
336.6120, 391.6265
337.9670, 437.6616
339.3220, 346.9839
340.6770, 447.3770
342.0310, 340.9385
343.3850, 378.1890
344.7390, 340.4429
346.0930, 385.9673
347.4460, 356.3013
348.7990, 270.3345
350.1530, 329.9077
351.5050, 275.7510
352.8580, 242.0381
354.2100, 253.4155
355.5630, 258.3125
356.9150, 202.1338
358.2670, 180.7827
359.6180, 121.4663
360.9690, 111.5996
362.3210, 138.6064
363.6720, 44.20068
365.0220, 62.99805
366.3730, 27.81348
367.7230, 1.556152
369.0730, 13.97412
370.4230, 47.37500
371.7730, 7.177734
373.1220, 9.090332
374.4710, 38.56641
375.8210, 26.84424
377.1690, 5.334473
378.5180, 99.89941
379.8660, 13.43652
381.2150, 100.7036
382.5630, 135.9058
383.9100, 121.0449
385.2580, 106.1216
386.6050, 255.1343
387.9520, 224.0879
389.2990, 267.9810
390.6460, 245.8154
391.9920, 274.5864
393.3390, 160.2939
394.6850, 197.9346
396.0310, 285.5117
397.3760, 108.0264
398.7220, 102.4727
400.0670, 17.85107
401.4120, 34.15820
402.7570, 80.39404
404.1010, 35.43945
405.4460, 79.35547
406.7900, 34.36963
408.1340, 12.53857
409.4780, 58.63965
410.8210, 59.92725
412.1650, 87.32959
413.5080, 34.84570
414.8510, 78.47314
416.1930, 116.2563
417.5360, 61.15381
418.8780, 27.86035
420.2200, 34.19287
421.5620, 98.31982
422.9040, 31.47021
424.2450, 36.19727
425.5860, 119.8633
426.9270, 178.4810
428.2680, 217.0464
429.6090, 256.4985
430.9490, 517.8896
432.2890, 710.1807
433.6290, 682.3760
434.9690, 953.4551
436.3090, 1078.475
437.6480, 1336.392
438.9870, 1518.271
440.3260, 1631.124
441.6650, 1708.958
443.0030, 1958.815
444.3420, 2036.659
445.6800, 1942.514
447.0180, 1993.343
448.3550, 1851.151
449.6930, 1878.932
451.0300, 1857.688
452.3670, 1920.435
453.7040, 1665.117
455.0410, 1778.775
456.3770, 1679.380
457.7130, 1694.931
459.0490, 1671.439
460.3850, 1807.893
461.7210, 1851.312
463.0560, 1820.685
464.3910, 1877.014
465.7260, 2081.298
467.0610, 2183.534
468.3950, 2243.727
469.7300, 2427.883
471.0640, 2538.995
472.3980, 2853.064
473.7310, 2944.082
475.0650, 3215.049
476.3980, 3385.962
477.7310, 3562.824
479.0640, 3511.636
480.3970, 3681.398
481.7290, 3792.112
483.0620, 3591.780
484.3940, 3536.402
485.7250, 3341.979
487.0570, 3304.512
488.3890, 3272.903
489.7200, 2999.030
491.0510, 2931.902
492.3820, 2686.990
493.7120, 2567.713
495.0430, 2395.266
496.3730, 2217.358
497.7030, 2050.612
499.0320, 1887.277
500.3620, 1733.523
501.6910, 1560.153
503.0200, 1388.302
504.3490, 1411.574
505.6780, 1379.653
507.0070, 1256.886
508.3350, 1192.968
509.6630, 1070.680
510.9910, 1020.611
512.3190, 967.2842
513.6460, 1005.804
514.9730, 832.3579
516.3000, 970.9463
517.6270, 859.2749
518.9540, 721.5063
520.2800, 757.2427
521.6070, 729.8623
522.9330, 741.6743
524.2590, 716.7285
525.5840, 695.5068
526.9100, 644.4648
528.2350, 638.1655
529.5600, 587.8608
530.8850, 555.5825
532.2090, 525.4995
533.5340, 565.4155
534.8580, 604.9180
536.1820, 642.6650
537.5060, 598.7349
538.8290, 668.8428
540.1520, 618.7603
541.4760, 626.7681
542.7990, 678.0376
544.1210, 790.1504
545.4440, 819.1064
546.7660, 788.8887
548.0880, 900.5073
549.4100, 858.2754
550.7320, 950.9170
552.0530, 877.6455
553.3750, 735.8623
554.6960, 740.4434
556.0170, 764.4204
557.3370, 614.4106
558.6580, 558.3496
559.9780, 482.3745
561.2980, 575.6743
562.6180, 461.5796
563.9380, 473.1494
565.2570, 464.8804
566.5760, 392.6899
567.8950, 462.5044
569.2140, 509.5713
570.5330, 415.1924
571.8510, 457.5410
573.1700, 502.5195
574.4880, 530.7344
575.8050, 578.5020
577.1230, 560.7476
578.4400, 664.4131
579.7580, 732.5376
581.0750, 743.6216
582.3910, 1012.438
583.7080, 1074.517
585.0240, 1248.562
586.3410, 1444.443
587.6570, 1628.589
588.9720, 1682.444
590.2880, 1809.764
591.6030, 1863.928
592.9180, 1978.808
594.2330, 2188.204
595.5480, 2365.241
596.8630, 2565.034
598.1770, 2861.778
599.4910, 3278.480
600.8050, 3619.605
602.1190, 4209.091
603.4320, 4981.499
604.7460, 6141.866
606.0590, 7422.866
607.3720, 8820.211
608.6850, 10757.00
609.9970, 12707.96
611.3090, 14904.06
612.6210, 16382.60
613.9330, 17274.15
615.2450, 17182.57
616.5570, 16501.51
617.8680, 15025.95
619.1790, 13699.34
620.4900, 12281.12
621.8010, 11701.94
623.1110, 10702.32
624.4210, 10317.41
625.7310, 9351.475
627.0410, 9066.694
628.3510, 7991.511
629.6600, 7355.718
630.9700, 6761.390
632.2790, 6039.529
633.5880, 5487.524
634.8960, 4956.492
636.2050, 4961.437
637.5130, 4673.353
638.8210, 4836.243
640.1290, 4865.110
641.4370, 5204.950
642.7440, 5517.766
644.0510, 5968.555
645.3580, 6580.323
646.6650, 6958.064
647.9720, 7735.783
649.2780, 8760.479
650.5840, 9824.152
651.8900, 11743.81
653.1960, 13606.43
654.5020, 16361.05
655.8070, 19118.64
657.1130, 23041.20
658.4180, 27669.75
659.7220, 31367.28
661.0270, 34439.80
662.3310, 35394.93
663.6360, 36372.75
664.9400, 34069.21
666.2440, 31331.63
667.5470, 27309.06
668.8510, 24207.46
670.1540, 20836.84
671.4570, 17861.21
672.7600, 15822.55
674.0620, 13610.89
675.3650, 11890.21
676.6670, 10136.51
677.9690, 8955.798
679.2710, 7454.074
680.5720, 6245.339
681.8740, 5617.594
683.1750, 4781.840
684.4760, 4167.090
685.7770, 3403.338
687.0770, 2838.585
688.3780, 2512.826
689.6780, 2044.063
690.9780, 1852.301
692.2780, 1356.533
693.5770, 1440.771
694.8770, 1131.011
696.1760, 1112.277
697.4750, 766.5405
698.7740, 863.7959
700.0720, 596.0444
701.3710, 546.2847
702.6690, 494.5190
703.9670, 413.7437
705.2650, 399.9590
706.5620, 264.1646
707.8600, 192.3613
709.1570, 198.5488
710.4540, 111.7285
711.7510, 94.89893
713.0470, 94.05762
714.3440, 86.20850
715.6400, 62.37695
716.9360, 52.77393
718.2320, 23.62695
719.5270, 7.753418
720.8230, 8.882813
722.1180, 30.97070
723.4130, 41.15820
724.7080, 60.71582
726.0020, 22.38574
727.2970, 31.49707
728.5910, 63.61914
729.8850, 64.74561
731.1790, 81.89453
732.4720, 67.07666
733.7660, 90.27637
735.0590, 18.47656
736.3520, 8.315430
737.6450, 47.90918
738.9370, 9.131836
740.2300, 63.65332
741.5220, 40.48242
742.8140, 25.65234
744.1060, 68.22070
745.3970, 10.14355
746.6890, 26.09082
747.9800, 22.07031
749.2710, 64.07812
750.5620, 47.86328
751.8530, 56.20605
753.1430, 56.32031
754.4330, 72.48145
755.7230, 191.6953
757.0130, 55.02539
758.3030, 150.3975
759.5920, 1.863281
760.8810, 22.34570
762.1700, 5.148438
763.4590, 13.37109
764.7480, 68.91113
766.0360, 1.498047
767.3250, 144.0986
768.6130, 31.78613
769.9010, 30.49902
771.1880, 74.23926
772.4760, 14.02539
773.7630, 99.82910
775.0500, 41.69238
776.3370, 60.58594
777.6240, 54.51660
778.9100, 32.48242
780.1960, 51.47070
781.4820, 72.49023
782.7680, 49.55176
784.0540, 39.64355
785.3390, 9.759766
786.6250, 22.11426
787.9100, 76.98340
789.1950, 81.84961
790.4790, 111.7148
791.7640, 223.5781
793.0480, 186.4385
794.3320, 224.2969
795.6160, 226.1543
796.9000, 330.0107
798.1830, 233.8662
799.4670, 231.7207
800.7500, 116.5732
802.0330, 163.4268
803.3160, 280.2783
804.5980, 173.1328
805.8800, 256.9844
807.1630, 264.8369
808.4450, 271.6895
809.7260, 323.5439
811.0080, 257.3994
812.2890, 290.2549
813.5700, 333.1113
814.8510, 400.9707
816.1320, 395.8301
817.4130, 391.6914
818.6930, 545.5547
819.9730, 594.4199
821.2530, 574.2881
822.5330, 778.1582
823.8130, 728.0303
825.0920, 778.9053
826.3710, 881.7832
827.6500, 820.6650
828.9290, 1015.549
830.2080, 1124.437
831.4860, 1043.328
832.7640, 1118.222
834.0420, 1232.121
835.3200, 1226.024
836.5980, 1365.932
837.8750, 1405.848
839.1520, 1574.767
840.4290, 1648.724
841.7060, 1722.734
842.9830, 1748.804
844.2590, 1836.734
845.5360, 1960.139
846.8120, 2001.395
848.0880, 2068.704
849.3630, 2195.049
850.6390, 2379.454
851.9140, 2458.915
853.1890, 2528.422
854.4640, 2735.943
855.7390, 3004.525
857.0130, 3202.128
858.2880, 3270.748
859.5620, 3383.379
860.8360, 3411.347
862.1100, 3242.660
863.3830, 3378.308
864.6560, 3116.723
865.9300, 3024.082
867.2030, 2796.451
868.4750, 2810.803
869.7480, 2672.067
871.0200, 2773.309
872.2920, 2705.440
873.5640, 2693.299
874.8360, 2932.229
876.1080, 2935.891
877.3790, 3121.153
878.6500, 3280.012
879.9220, 3480.228
881.1920, 3599.986
882.4630, 3937.403
883.7330, 4141.840
885.0040, 4371.363
886.2740, 4896.840
887.5440, 5532.426
888.8130, 5936.727
890.0830, 6604.045
891.3520, 7521.500
892.6210, 8458.744
893.8900, 9696.794
895.1590, 11118.33
896.4270, 12819.75
897.6950, 15824.61
898.9640, 18681.01
900.2320, 22331.55
901.4990, 26996.37
902.7670, 32494.66
904.0340, 37491.30
905.3010, 43175.18
906.5680, 47411.08
907.8350, 49281.02
909.1020, 47649.51
910.3680, 44568.62
911.6340, 40102.84
912.9000, 34615.12
914.1660, 29931.36
915.4320, 24712.01
916.6970, 20755.81
917.9620, 17948.44
919.2270, 14973.91
920.4920, 12869.93
921.7570, 10859.92
923.0210, 9550.025
924.2850, 8196.607
925.5500, 7132.682
926.8130, 6370.781
928.0770, 5708.480
929.3410, 5238.143
930.6040, 4794.216
931.8670, 4296.580
933.1300, 4032.957
934.3930, 3967.166
935.6550, 3552.771
936.9180, 3456.973
938.1800, 3393.701
939.4420, 3300.952
940.7030, 3259.340
941.9650, 3129.745
943.2260, 3060.576
944.4880, 2791.607
945.7490, 2848.064
947.0090, 2665.539
948.2700, 2474.032
949.5300, 2441.543
950.7910, 2410.070
952.0510, 2233.616
953.3110, 2065.180
954.5700, 2099.760
955.8300, 1978.358
957.0890, 1942.974
958.3480, 1735.607
959.6070, 1616.258
960.8660, 1556.928
962.1240, 1406.613
963.3830, 1354.318
964.6410, 1354.041
965.8990, 1272.779
967.1560, 1119.537
968.4140, 1033.312
969.6710, 1077.105
970.9280, 906.9150
972.1850, 978.7441
973.4420, 800.5898
974.6990, 843.4531
975.9550, 674.3359
977.2110, 708.2334
978.4680, 736.1514
979.7230, 610.0859
980.9790, 621.0371
982.2340, 791.0068
983.4900, 625.9941
984.7450, 758.9980
986.0000, 946.1611
987.2540, 744.2002
988.5090, 911.5576
989.7630, 781.6318
991.0170, 765.4043
992.2710, 742.5098
993.5250, 747.8223
994.7790, 787.4131
996.0320, 874.0078
997.2850, 1054.885
998.5380, 1210.346
999.7910, 2032.443
1001.044, 2570.908
1002.296, 3101.090
1003.548, 2842.358
1004.800, 2169.258
1006.052, 1573.364
1007.304, 1212.404
1008.555, 1064.483
1009.807, 970.5264
1011.058, 782.7988
1012.309, 887.0791
1013.559, 896.3701
1014.810, 960.6680
1016.060, 1112.975
1017.310, 1187.292
1018.560, 1238.635
1019.810, 1492.971
1021.060, 1791.316
1022.309, 1693.672
1023.558, 1762.039
1024.807, 1697.417
1026.056, 1598.809
1027.305, 1524.221
1028.553, 1439.032
1029.801, 1313.094
1031.049, 1290.555
1032.297, 1177.035
1033.545, 1150.525
1034.793, 1078.724
1036.040, 1005.529
1037.287, 982.0430
1038.534, 905.6240
1039.781, 926.1533
1041.027, 911.2969
1042.274, 867.2510
1043.520, 921.8125
1044.766, 893.4033
1046.012, 870.0146
1047.257, 735.7246
1048.503, 855.6572
1049.748, 737.0322
1050.993, 994.3633
1052.238, 872.2266
1053.483, 641.1826
1054.727, 699.9111
1055.971, 559.4385
1057.216, 618.7734
1058.459, 438.6465
1059.703, 517.5068
1060.947, 468.8252
1062.190, 444.6055
1063.433, 422.2861
1064.676, 405.2383
1065.919, 448.3623
1067.162, 424.8008
1068.404, 452.0420
1069.646, 430.3213
1070.888, 503.3662
1072.130, 523.4258
1073.372, 570.4971
1074.613, 658.5928
1075.855, 694.6973
1077.096, 764.8311
1078.337, 1069.979
1079.578, 1105.146
1080.818, 1355.331
1082.059, 1528.526
1083.299, 1788.737
1084.539, 1611.970
1085.779, 1648.217
1087.018, 1579.476
1088.258, 1571.739
1089.497, 1151.006
1090.736, 940.2715
1091.975, 936.5400
1093.213, 684.8086
1094.452, 728.0771
1095.690, 573.3467
1096.928, 506.6162
1098.166, 387.8867
1099.404, 430.1572
1100.642, 309.4277
1101.879, 469.6973
1103.116, 434.9668
1104.353, 355.2373
1105.590, 364.5068
1106.827, 410.7764
1108.063, 341.0439
1109.299, 451.3115
1110.536, 431.5781
1111.771, 304.8457
1113.007, 395.1104
1114.243, 357.3740
1115.478, 290.6367
1116.713, 216.9004
1117.948, 196.1611
1119.183, 200.1602
1120.418, 190.6787
1121.652, 283.9355
1122.886, 353.1904
1124.120, 444.4502
1125.354, 209.7090
1126.588, 155.9668
1127.821, 196.2236
1129.055, 199.4785
1130.288, 183.7314
1131.521, 119.9844
1132.753, 103.2354
1133.986, 44.48340
1135.218, 170.7285
1136.450, 11.96875
1137.682, 124.2080
1138.914, 106.6338
1140.146, 158.6289
1141.377, 176.7812
1142.609, 228.0703
1143.840, 163.5361
1145.071, 183.1064
1146.301, 159.8105
1147.532, 89.58496
1148.762, 174.3955
1149.992, 169.2637
1151.222, 122.1865
1152.452, 4.154297
1153.682, 182.1338
1154.911, 21.17383
1156.140, 21.23242
1157.369, 12.69141
1158.598, 112.6055
1159.827, 175.5146
1161.055, 181.6689
1162.284, 116.3174
1163.512, 165.2109
1164.740, 161.0996
1165.967, 105.9814
1167.195, 307.8516
1168.422, 263.6846
1169.650, 381.5098
1170.877, 358.3262
1172.103, 365.1348
1173.330, 345.8623
1174.557, 411.5713
1175.783, 504.2705
1177.009, 348.9590
1178.235, 532.6387
1179.461, 364.3096
1180.686, 309.9707
1181.912, 284.6221
1183.137, 352.2627
1184.362, 188.8926
1185.587, 107.5117
1186.811, 334.1201
1188.036, 270.7158
1189.260, 184.3008
1190.484, 259.8750
1191.708, 206.4355
1192.932, 163.7725
1194.155, 104.5186
1195.378, 59.04102
1196.602, 32.58203
1197.825, 21.92969
1199.047, 20.52734
1200.270, 72.96289
1201.492, 224.3818
1202.715, 54.78516
1203.937, 278.1699
1205.159, 114.5391
1206.380, 143.8906
1207.602, 127.7773
1208.823, 9.491211
1210.044, 11.73145
1211.265, 179.9424
1212.486, 94.13867
1213.707, 152.3203
1214.927, 254.4932
1216.147, 298.6553
1217.367, 313.6035
1218.587, 376.7451
1219.807, 201.8760
1221.027, 227.9971
1222.246, 232.1064
1223.465, 250.2041
1224.684, 332.2900
1225.903, 313.3652
1227.121, 353.2891
1228.340, 353.4814
1229.558, 374.5254
1230.776, 491.5596
1231.994, 476.5850
1233.212, 595.6016
1234.429, 655.6084
1235.646, 815.6074
1236.864, 981.5967
1238.081, 904.5781
1239.297, 973.5508
1240.514, 1036.516
1241.730, 946.4727
1242.947, 850.4229
1244.163, 812.3672
1245.378, 926.3057
1246.594, 953.2393
1247.810, 826.1689
1249.025, 1057.098
1250.240, 1018.005
1251.455, 943.9102
1252.670, 1111.814
1253.885, 765.7178
1255.099, 903.6191
1256.313, 708.5215
1257.527, 874.4248
1258.741, 824.3301
1259.955, 647.2363
1261.168, 810.1484
1262.382, 851.0645
1263.595, 916.9854
1264.808, 914.9141
1266.021, 1047.851
1267.233, 1196.799
1268.446, 1196.758
1269.658, 1183.986
1270.870, 1397.143
1272.082, 1326.150
1273.294, 1393.183
1274.505, 1356.298
1275.716, 1480.381
1276.928, 1400.522
1278.139, 1400.465
1279.349, 1229.357
1280.560, 1106.504
1281.770, 1187.729
1282.981, 1005.850
1284.191, 938.2510
1285.401, 814.1172
1286.610, 852.0850
1287.820, 757.8223
1289.029, 677.8457
1290.239, 773.7578
1291.448, 712.1475
1292.656, 736.2539
1293.865, 974.1963
1295.073, 920.1133
1296.282, 1182.004
1297.490, 980.8496
1298.698, 945.6846
1299.906, 850.4902
1301.113, 734.2715
1302.320, 759.0264
1303.528, 727.7529
1304.735, 640.4512
1305.942, 746.1211
1307.148, 876.6924
1308.355, 837.3047
1309.561, 1014.887
1310.767, 1051.324
1311.973, 1222.582
1313.179, 1112.895
1314.384, 1238.969
1315.590, 1023.870
1316.795, 1256.079
1318.000, 1181.945
1319.205, 1346.644
1320.410, 1322.401
1321.614, 1171.347
1322.819, 1339.243
1324.023, 1086.097
1325.227, 1011.910
1326.431, 948.6797
1327.634, 710.4072
1328.838, 569.0879
1330.041, 588.7236
1331.244, 511.3135
1332.447, 405.8525
1333.650, 255.3418
1334.852, 281.7793
1336.055, 119.1631
1337.257, 207.4893
1338.459, 91.75977
1339.661, 107.9697
1340.862, 2.881836
1342.064, 17.20117
1343.265, 106.2139
1344.466, 254.1572
1345.667, 209.0254
1346.868, 168.8145
1348.068, 228.5088
1349.269, 115.1025
1350.469, 231.6006
1351.669, 163.9961
1352.869, 190.2881
1354.069, 238.4756
1355.268, 199.3613
1356.468, 222.4395
1357.667, 142.3643
1358.866, 180.5957
1360.065, 64.03320
1361.263, 37.56836
1362.462, 12.79297
1363.660, 113.1172
1364.858, 37.40332
1366.056, 109.6504
1367.254, 108.8613
1368.451, 142.0381
1369.649, 143.2881
1370.846, 225.6006
1372.043, 186.0967
1373.240, 319.8594
1374.436, 241.6406
1375.633, 339.4443
1376.829, 262.2744
1378.025, 299.1406
1379.221, 419.0488
1380.417, 373.0068
1381.613, 392.0264
1382.808, 492.1182
1384.003, 535.1777
1385.199, 601.4570
1386.393, 431.8613
1387.588, 459.4092
1388.783, 421.1299
1389.977, 479.0586
1391.171, 374.2061
1392.365, 455.5010
1393.559, 504.3096
1394.753, 267.6885
1395.946, 242.1973
1397.140, 164.8574
1398.333, 93.68555
1399.526, 38.67578
1400.719, 102.8242
1401.911, 70.15039
1403.104, 108.6709
1404.296, 47.40820
1405.488, 93.39355
1406.680, 66.62988
1407.872, 47.12012
1409.063, 132.8564
1410.255, 48.18164
1411.446, 104.8711
1412.637, 19.04102
1413.828, 8.501953
1415.018, 121.5674
1416.209, 137.2266
1417.399, 52.58887
1418.589, 122.7236
1419.779, 18.05273
1420.969, 102.3379
1422.159, 57.29688
1423.348, 2.9297000E-02
1424.537, 0.0000000E+00
##END=



