##NAMES=Hardystonite
##RRUFFID=R040026
##IDEAL CHEMISTRY=Ca_2_Zn^2+^Si_2_O_7_
##LOCALITY=Franklin, Sussex County, New Jersey, USA
##OWNER=RRUFF
##SOURCE=University of Arizona Mineral Museum
##DESCRIPTION=White massive
##STATUS=The identification of this mineral has been confirmed by X-ray diffraction and chemical analysis
##URL=rruff.info/R040026
##MEASURED CHEMISTRY=(Ca_1.98_Mn_0.02_)_Σ=2_(Zn_0.99_Al_0.01_)_Σ=1_(Si_1.99_Al_0.01_)_Σ=2_O_7_
##PIN_ID=S00031
##ORIENTATION=Laser parallel to c* (0 0 1). Fiducial mark perpendicular to laser is parallel to a [1 0 0]
123.9810, 0.0000000E+00
125.3690, 29.56201
126.7580, 108.0376
128.1460, 3.045410
129.5340, 169.1348
130.9220, 137.2446
132.3090, 104.0986
133.6960, 89.60156
135.0830, 187.4727
136.4700, 138.8945
137.8570, 283.9629
139.2430, 299.4614
140.6300, 273.1455
142.0160, 189.6729
143.4010, 347.9219
144.7870, 422.1299
146.1720, 357.9839
147.5570, 356.7935
148.9420, 277.0303
150.3270, 269.0996
151.7110, 252.7441
153.0960, 250.5381
154.4800, 238.6440
155.8630, 199.5801
157.2470, 261.7744
158.6300, 257.9863
160.0130, 295.3286
161.3960, 203.2544
162.7790, 225.2661
164.1610, 248.0615
165.5440, 230.6646
166.9260, 83.32471
168.3080, 191.0337
169.6890, 121.7822
171.0700, 187.5601
172.4520, 140.3545
173.8330, 89.15283
175.2130, 31.95605
176.5940, 96.77832
177.9740, 7.749512
179.3540, 67.57812
180.7340, 24.48242
182.1140, 33.51074
183.4930, 98.55957
184.8720, 26.74463
186.2510, 4.937988
187.6300, 52.25049
189.0080, 25.35303
190.3870, 73.55273
191.7650, 11.64502
193.1430, 81.06689
194.5200, 53.79785
195.8980, 92.88623
197.2750, 96.31348
198.6520, 114.1602
200.0290, 113.1523
201.4050, 187.9478
202.7820, 214.4658
204.1580, 342.6982
205.5340, 533.6558
206.9090, 448.4253
208.2850, 586.2183
209.6600, 814.9844
211.0350, 847.7310
212.4100, 1002.440
213.7840, 1190.104
215.1590, 1197.713
216.5330, 1416.253
217.9070, 1544.716
219.2810, 1522.094
220.6540, 1624.378
222.0270, 1728.553
223.4000, 1776.603
224.7730, 1741.970
226.1460, 1806.887
227.5180, 1780.162
228.8910, 1823.612
230.2630, 1859.059
231.6340, 1916.947
233.0060, 1982.729
234.3770, 1925.799
235.7480, 2000.451
237.1190, 1962.771
238.4900, 2118.671
239.8600, 2145.332
241.2310, 2144.753
242.6010, 2184.796
243.9700, 2216.740
245.3400, 2215.414
246.7090, 2202.448
248.0790, 2249.336
249.4480, 2204.726
250.8160, 2152.981
252.1850, 2161.972
253.5530, 2093.994
254.9210, 2122.396
256.2890, 2006.801
257.6570, 2097.255
259.0240, 2027.662
260.3910, 2071.770
261.7580, 2069.484
263.1250, 1929.793
264.4920, 2006.843
265.8580, 1927.837
267.2240, 1941.780
268.5900, 1921.538
269.9560, 1922.842
271.3210, 1833.067
272.6870, 1786.834
274.0520, 1663.312
275.4160, 1625.524
276.7810, 1558.295
278.1460, 1415.656
279.5100, 1412.557
280.8740, 1233.141
282.2370, 1221.665
283.6010, 1069.131
284.9640, 993.5391
286.3270, 1018.891
287.6900, 872.1885
289.0530, 853.8086
290.4160, 863.5376
291.7780, 730.6934
293.1400, 760.3950
294.5020, 674.0889
295.8630, 639.5605
297.2250, 627.6621
298.5860, 653.4351
299.9470, 666.2388
301.3080, 609.7090
302.6680, 568.0815
304.0290, 680.2100
305.3890, 663.0801
306.7490, 604.6143
308.1080, 727.0195
309.4680, 669.2227
310.8270, 693.2075
312.1860, 637.0039
313.5450, 778.6133
314.9030, 754.0137
316.2620, 734.0903
317.6200, 690.6904
318.9780, 636.0615
320.3360, 647.8740
321.6930, 559.7046
323.0510, 564.3296
324.4080, 475.9932
325.7650, 559.1748
327.1210, 521.3652
328.4780, 500.5928
329.8340, 487.7051
331.1900, 408.8516
332.5460, 374.7085
333.9020, 409.0938
335.2570, 345.8418
336.6120, 427.2964
337.9670, 385.2793
339.3220, 378.5215
340.6770, 418.4780
342.0310, 312.1514
343.3850, 403.7534
344.7390, 381.5044
346.0930, 352.6689
347.4460, 385.4077
348.7990, 365.2935
350.1530, 331.1836
351.5050, 277.0723
352.8580, 237.6118
354.2100, 189.8755
355.5630, 164.1240
356.9150, 127.6816
358.2670, 131.2949
359.6180, 85.48242
360.9690, 91.62891
362.3210, 111.8501
363.6720, 104.9868
365.0220, 100.8413
366.3730, 88.12988
367.7230, 68.00879
369.0730, 41.18750
370.4230, 6.301758
371.7730, 28.65234
373.1220, 15.68408
374.4710, 19.21094
375.8210, 52.96045
377.1690, 73.78418
378.5180, 13.53418
379.8660, 7.4707001E-02
381.2150, 131.6147
382.5630, 127.0942
383.9100, 49.51416
385.2580, 156.8716
386.6050, 218.1709
387.9520, 218.4116
389.2990, 314.5957
390.6460, 258.7231
391.9920, 258.7881
393.3390, 182.7896
394.6850, 170.7305
396.0310, 241.6094
397.3760, 162.4268
398.7220, 132.1846
400.0670, 48.88281
401.4120, 8.476074
402.7570, 26.85498
404.1010, 59.99170
405.4460, 48.01221
406.7900, 67.69580
408.1340, 45.46338
409.4780, 33.30322
410.8210, 48.21777
412.1650, 38.25928
413.5080, 98.40576
414.8510, 50.66895
416.1930, 113.0278
417.5360, 33.49072
418.8780, 116.0176
420.2200, 27.63623
421.5620, 51.32373
422.9040, 19.90918
424.2450, 159.0859
425.5860, 96.20850
426.9270, 251.2559
428.2680, 197.2090
429.6090, 402.0684
430.9490, 424.8359
432.2890, 623.5181
433.6290, 711.1250
434.9690, 911.6245
436.3090, 1004.041
437.6480, 1336.408
438.9870, 1471.745
440.3260, 1573.058
441.6650, 1770.357
443.0030, 1843.665
444.3420, 1934.979
445.6800, 1960.320
447.0180, 1967.657
448.3550, 1859.992
449.6930, 1882.301
451.0300, 1845.562
452.3670, 1833.765
453.7040, 1795.537
455.0410, 1739.030
456.3770, 1717.094
457.7130, 1680.099
459.0490, 1683.052
460.3850, 1695.948
461.7210, 1696.814
463.0560, 1693.637
464.3910, 1788.410
465.7260, 2013.129
467.0610, 2056.810
468.3950, 2104.438
469.7300, 2371.038
471.0640, 2425.594
472.3980, 2786.104
473.7310, 2807.562
475.0650, 2982.973
476.3980, 3156.333
477.7310, 3320.648
479.0640, 3476.917
480.3970, 3551.141
481.7290, 3539.323
483.0620, 3503.461
484.3940, 3503.558
485.7250, 3275.340
487.0570, 3229.354
488.3890, 3084.246
489.7200, 2839.011
491.0510, 2780.682
492.3820, 2544.987
493.7120, 2421.111
495.0430, 2149.343
496.3730, 1995.271
497.7030, 1928.501
499.0320, 1808.522
500.3620, 1636.485
501.6910, 1528.581
503.0200, 1335.206
504.3490, 1385.181
505.6780, 1214.053
507.0070, 1228.797
508.3350, 1181.645
509.6630, 1042.379
510.9910, 1002.951
512.3190, 1009.298
513.6460, 947.4707
514.9730, 876.4111
516.3000, 917.2222
517.6270, 802.6982
518.9540, 727.1758
520.2800, 803.2402
521.6070, 652.3257
522.9330, 717.5493
524.2590, 673.6851
525.5840, 547.7539
526.9100, 593.6836
528.2350, 613.3892
529.5600, 613.7241
530.8850, 535.3130
532.2090, 536.7051
533.5340, 604.8838
534.8580, 550.7231
536.1820, 581.5098
537.5060, 606.0469
538.8290, 567.2573
540.1520, 586.2974
541.4760, 763.2231
542.7990, 696.0801
544.1210, 797.1787
545.4440, 866.2100
546.7660, 873.4648
548.0880, 915.6885
549.4100, 942.2827
550.7320, 932.6104
552.0530, 877.9062
553.3750, 813.8535
554.6960, 728.9150
556.0170, 728.0454
557.3370, 712.3184
558.6580, 586.2959
559.9780, 522.9390
561.2980, 542.2510
562.6180, 425.7314
563.9380, 423.2988
565.2570, 511.2734
566.5760, 523.3501
567.8950, 508.1143
569.2140, 471.0513
570.5330, 413.6421
571.8510, 438.3936
573.1700, 606.7334
574.4880, 595.4277
575.8050, 573.2578
577.1230, 538.0537
578.4400, 639.5610
579.7580, 801.6787
581.0750, 751.0522
582.3910, 1018.667
583.7080, 1122.596
585.0240, 1235.811
586.3410, 1426.312
587.6570, 1590.849
588.9720, 1692.483
590.2880, 1796.047
591.6030, 1901.149
592.9180, 1975.686
594.2330, 2180.539
595.5480, 2441.912
596.8630, 2561.593
598.1770, 2781.771
599.4910, 3249.814
600.8050, 3560.356
602.1190, 4117.191
603.4320, 4931.087
604.7460, 5901.814
606.0590, 6948.157
607.3720, 8442.676
608.6850, 10395.18
609.9970, 12168.66
611.3090, 14183.76
612.6210, 15539.57
613.9330, 16498.92
615.2450, 16550.03
616.5570, 15771.05
617.8680, 14492.25
619.1790, 13201.10
620.4900, 11888.48
621.8010, 11267.61
623.1110, 10372.65
624.4210, 9861.646
625.7310, 9160.566
627.0410, 8778.865
628.3510, 7812.688
629.6600, 7205.007
630.9700, 6594.861
632.2790, 5738.544
633.5880, 5383.169
634.8960, 4762.770
636.2050, 4923.347
637.5130, 4471.898
638.8210, 4623.426
640.1290, 4871.930
641.4370, 5165.410
642.7440, 5484.713
644.0510, 5752.300
645.3580, 6320.709
646.6650, 6861.096
647.9720, 7467.461
649.2780, 8309.805
650.5840, 9343.129
651.8900, 11181.43
653.1960, 12871.71
654.5020, 15454.98
655.8070, 18126.22
657.1130, 21777.45
658.4180, 26203.65
659.7220, 29776.84
661.0270, 32796.01
662.3310, 34715.16
663.6360, 34437.29
664.9400, 32400.40
666.2440, 29668.50
667.5470, 26014.58
668.8510, 23043.64
670.1540, 19696.67
671.4570, 16949.70
672.7600, 15038.72
674.0620, 12878.72
675.3650, 11315.71
676.6670, 9733.680
677.9690, 8254.645
679.2710, 7150.596
680.5720, 6100.537
681.8740, 5330.467
683.1750, 4578.387
684.4760, 3858.295
685.7770, 3219.195
687.0770, 2701.090
688.3780, 2392.980
689.6780, 2038.876
690.9780, 1833.776
692.2780, 1394.672
693.5770, 1364.581
694.8770, 1073.483
696.1760, 1068.391
697.4750, 810.2979
698.7740, 768.1973
700.0720, 627.0889
701.3710, 486.9771
702.6690, 373.8579
703.9670, 434.7300
705.2650, 448.5938
706.5620, 282.4482
707.8600, 211.2944
709.1570, 200.1318
710.4540, 126.9619
711.7510, 195.7852
713.0470, 49.60010
714.3440, 65.40479
715.6400, 9.799316
716.9360, 2.976563
718.2320, 41.74512
719.5270, 56.47852
720.8230, 71.27441
722.1180, 25.95801
723.4130, 63.19531
724.7080, 70.46143
726.0020, 135.2363
727.2970, 42.04883
728.5910, 148.6470
729.8850, 57.37354
731.1790, 41.11572
732.4720, 24.11084
733.7660, 64.65283
735.0590, 45.44971
736.3520, 103.2563
737.6450, 9.081055
738.9370, 13.10010
740.2300, 43.30127
741.5220, 35.53613
742.8140, 40.80322
744.1060, 12.89502
745.3970, 75.41846
746.6890, 128.7871
747.9800, 94.76025
749.2710, 11.29932
750.5620, 123.8252
751.8530, 28.65674
753.1430, 38.16699
754.4330, 53.71240
755.7230, 126.2998
757.0130, 131.9668
758.3030, 197.7153
759.5920, 84.58105
760.8810, 95.50244
762.1700, 11.51367
763.4590, 68.47949
764.7480, 16.51758
766.0360, 85.42383
767.3250, 140.6406
768.6130, 11.21387
769.9010, 57.05957
771.1880, 13.10156
772.4760, 19.72168
773.7630, 99.46094
775.0500, 42.70215
776.3370, 19.97070
777.6240, 24.74316
778.9100, 57.54785
780.1960, 35.12695
781.4820, 98.20312
782.7680, 19.58594
784.0540, 8.984375
785.3390, 17.60742
786.6250, 50.19629
787.9100, 95.78125
789.1950, 105.0303
790.4790, 84.94824
791.7640, 125.5283
793.0480, 145.1084
794.3320, 143.6865
795.6160, 241.2637
796.9000, 282.8398
798.1830, 188.4160
799.4670, 186.9922
800.7500, 250.5674
802.0330, 221.1436
803.3160, 277.7188
804.5980, 274.4219
805.8800, 293.8721
807.1630, 267.4492
808.4450, 263.0273
809.7260, 240.6064
811.0080, 355.1875
812.2890, 361.7686
813.5700, 474.3525
814.8510, 426.9375
816.1320, 466.5244
817.4130, 346.1133
818.6930, 559.7051
819.9730, 513.2998
821.2530, 546.8955
822.5330, 650.4941
823.8130, 656.0967
825.0920, 681.7002
826.3710, 840.3076
827.6500, 762.9199
828.9290, 961.5332
830.2080, 1017.152
831.4860, 982.7734
832.7640, 1021.398
834.0420, 1132.029
835.3200, 1249.666
836.5980, 1323.306
837.8750, 1448.749
839.1520, 1415.637
840.4290, 1637.348
841.7060, 1659.089
842.9830, 1667.856
844.2590, 1841.682
845.5360, 1873.564
846.8120, 1979.499
848.0880, 2014.479
849.3630, 2152.512
850.6390, 2351.606
851.9140, 2190.754
853.1890, 2461.943
854.4640, 2578.178
855.7390, 2936.467
857.0130, 3075.790
858.2880, 3232.146
859.5620, 3456.524
860.8360, 3509.914
862.1100, 3410.309
863.3830, 3288.719
864.6560, 3177.938
865.9300, 2948.362
867.2030, 2749.288
868.4750, 2799.294
869.7480, 2545.855
871.0200, 2668.139
872.2920, 2667.086
873.5640, 2686.854
874.8360, 2724.954
876.1080, 2795.706
877.3790, 3053.152
878.6500, 3138.180
879.9220, 3343.605
881.1920, 3370.486
882.4630, 3815.998
883.7330, 3956.146
885.0040, 4597.237
886.2740, 4784.350
887.5440, 5202.572
888.8130, 5549.727
890.0830, 6214.137
891.3520, 6873.096
892.6210, 7953.959
893.8900, 9125.105
895.1590, 10402.75
896.4270, 12324.14
897.6950, 14893.28
898.9640, 17439.59
900.2320, 21054.59
901.4990, 25213.14
902.7670, 30441.37
904.0340, 35333.07
905.3010, 40760.43
906.5680, 44431.30
907.8350, 46290.28
909.1020, 44993.75
910.3680, 41788.92
911.6340, 37615.00
912.9000, 32501.25
914.1660, 27946.86
915.4320, 23416.29
916.6970, 19596.72
917.9620, 16796.16
919.2270, 14007.97
920.4920, 11913.06
921.7570, 10273.61
923.0210, 8853.368
924.2850, 7557.207
925.5500, 6694.858
926.8130, 5887.852
928.0770, 5216.297
929.3410, 4857.984
930.6040, 4455.756
931.8670, 3942.555
933.1300, 3769.419
934.3930, 3553.897
935.6550, 3348.840
936.9180, 3271.281
938.1800, 3121.176
939.4420, 2911.232
940.7030, 2858.337
941.9650, 2932.459
943.2260, 2544.596
944.4880, 2681.749
945.7490, 2636.920
947.0090, 2442.104
948.2700, 2318.307
949.5300, 2314.524
950.7910, 2323.759
952.0510, 2090.009
953.3110, 1968.276
954.5700, 1999.559
955.8300, 1842.857
957.0890, 1728.173
958.3480, 1455.504
959.6070, 1527.852
960.8660, 1390.215
962.1240, 1346.594
963.3830, 1217.989
964.6410, 1142.401
965.8990, 1153.828
967.1560, 1080.271
968.4140, 1049.731
969.6710, 968.2070
970.9280, 780.6982
972.1850, 923.2051
973.4420, 705.7285
974.6990, 738.2676
975.9550, 650.8223
977.2110, 560.3936
978.4680, 589.9805
979.7230, 550.5830
980.9790, 576.2012
982.2340, 699.8359
983.4900, 545.4844
984.7450, 802.4541
986.0000, 725.3799
987.2540, 731.0762
988.5090, 878.5098
989.7630, 768.2539
991.0170, 799.0537
992.2710, 659.2627
993.5250, 632.5840
994.7790, 761.8027
996.0320, 720.3906
997.2850, 985.1621
998.5380, 1092.870
999.7910, 1918.719
1001.044, 2459.717
1002.296, 3106.536
1003.548, 2680.677
1004.800, 2036.166
1006.052, 1539.680
1007.304, 1090.072
1008.555, 976.6123
1009.807, 906.7373
1011.058, 893.2891
1012.309, 916.2080
1013.559, 856.7227
1014.810, 818.7861
1016.060, 1106.922
1017.310, 1114.848
1018.560, 1230.786
1019.810, 1494.725
1021.060, 1662.679
1022.309, 1606.644
1023.558, 1752.615
1024.807, 1540.613
1026.056, 1533.617
1027.305, 1317.640
1028.553, 1434.688
1029.801, 1293.767
1031.049, 1067.851
1032.297, 1000.955
1033.545, 907.4238
1034.793, 796.1768
1036.040, 807.2979
1037.287, 801.4326
1038.534, 738.5732
1039.781, 768.7188
1041.027, 699.8682
1042.274, 728.0264
1043.520, 747.1953
1044.766, 633.3838
1046.012, 705.1777
1047.257, 641.0381
1048.503, 753.7002
1049.748, 601.4727
1050.993, 846.5156
1052.238, 750.1826
1053.483, 582.0176
1054.727, 528.3252
1055.971, 456.2100
1057.216, 434.1357
1058.459, 401.4893
1059.703, 469.0391
1060.947, 511.6396
1062.190, 454.4072
1063.433, 428.3389
1064.676, 463.2783
1065.919, 355.1006
1067.162, 478.9893
1068.404, 226.5732
1069.646, 383.1572
1070.888, 410.7803
1072.130, 450.4033
1073.372, 497.0283
1074.613, 558.6562
1075.855, 515.3779
1077.096, 643.0332
1078.337, 1028.701
1079.578, 1050.373
1080.818, 1259.046
1082.059, 1304.732
1083.299, 1506.417
1084.539, 1674.126
1085.779, 1683.839
1087.018, 1535.555
1088.258, 1354.268
1089.497, 1135.979
1090.736, 939.6875
1091.975, 848.3955
1093.213, 718.0986
1094.452, 544.7988
1095.690, 470.4980
1096.928, 503.1943
1098.166, 416.8848
1099.404, 390.5742
1100.642, 258.2588
1101.879, 408.9395
1103.116, 268.6182
1104.353, 394.2920
1105.590, 362.9609
1106.827, 385.6270
1108.063, 487.2871
1109.299, 413.9443
1110.536, 374.5947
1111.771, 392.2422
1113.007, 350.8838
1114.243, 302.3008
1115.478, 224.1621
1116.713, 203.7979
1117.948, 164.4287
1119.183, 162.0547
1120.418, 234.6748
1121.652, 317.2891
1122.886, 280.8184
1124.120, 423.5020
1125.354, 224.0986
1126.588, 237.6895
1127.821, 183.2783
1129.055, 189.8613
1130.288, 179.4385
1131.521, 146.0078
1132.753, 44.57031
1133.986, 61.12207
1135.218, 212.6650
1136.450, 42.79980
1137.682, 121.6924
1138.914, 125.8252
1140.146, 67.43164
1141.377, 52.09668
1142.609, 176.8154
1143.840, 165.6953
1145.071, 151.7178
1146.301, 117.8994
1147.532, 151.2109
1148.762, 184.6680
1149.992, 149.2471
1151.222, 105.9043
1152.452, 110.8047
1153.682, 158.3721
1154.911, 76.18848
1156.140, 62.04199
1157.369, 38.92871
1158.598, 28.15820
1159.827, 146.2314
1161.055, 4.296875
1162.284, 116.3447
1163.512, 101.3838
1164.740, 446.4131
1165.967, 153.4316
1167.195, 257.4414
1168.422, 251.4316
1169.650, 615.3838
1170.877, 287.3086
1172.103, 344.2197
1173.330, 217.1191
1174.557, 343.0059
1175.783, 525.8789
1177.009, 343.7354
1178.235, 403.5762
1179.461, 314.4014
1180.686, 241.2148
1181.912, 403.0146
1183.137, 261.7998
1184.362, 179.5723
1185.587, 241.3291
1186.811, 341.0723
1188.036, 205.8008
1189.260, 303.5156
1190.484, 251.2129
1191.708, 198.8955
1192.932, 17.56250
1194.155, 0.6513670
1195.378, 2.963867
1196.602, 64.54785
1197.825, 16.11426
1199.047, 88.65332
1200.270, 65.17285
1201.492, 296.8271
1202.715, 141.3086
1203.937, 216.7686
1205.159, 189.2266
1206.380, 142.6475
1207.602, 140.1250
1208.823, 114.1914
1210.044, 83.77637
1211.265, 87.12988
1212.486, 116.4346
1213.707, 105.7139
1214.927, 200.4443
1216.147, 253.6777
1217.367, 226.8896
1218.587, 346.0850
1219.807, 225.2646
1221.027, 353.4307
1222.246, 166.5830
1223.465, 220.7207
1224.684, 313.8438
1225.903, 316.9521
1227.121, 381.0459
1228.340, 467.1240
1229.558, 415.1885
1230.776, 491.6582
1231.994, 450.2734
1233.212, 546.2949
1234.429, 644.3027
1235.646, 659.2969
1236.864, 832.2754
1238.081, 884.2422
1239.297, 917.1934
1240.514, 937.1318
1241.730, 794.0537
1242.947, 750.9629
1244.163, 694.8594
1245.378, 838.7412
1246.594, 882.6104
1247.810, 699.4658
1249.025, 1002.311
1250.240, 847.1436
1251.455, 920.9678
1252.670, 878.7354
1253.885, 772.4961
1255.099, 814.2451
1256.313, 666.9834
1257.527, 794.7139
1258.741, 833.4619
1259.955, 670.1738
1261.168, 666.2021
1262.382, 765.8965
1263.595, 872.5918
1264.808, 800.2705
1266.021, 1055.941
1267.233, 1052.825
1268.446, 1134.482
1269.658, 1074.159
1270.870, 1162.805
1272.082, 1286.449
1273.294, 1425.756
1274.505, 1211.756
1275.716, 1353.376
1276.928, 1273.892
1278.139, 1290.383
1279.349, 1208.696
1280.560, 1108.902
1281.770, 946.3730
1282.981, 849.9277
1284.191, 843.1475
1285.401, 814.1924
1286.610, 744.9316
1287.820, 661.1250
1289.029, 659.7539
1290.239, 746.3926
1291.448, 674.2227
1292.656, 731.6953
1293.865, 839.7383
1295.073, 853.9082
1296.282, 871.8486
1297.490, 876.5820
1298.698, 790.9043
1299.906, 789.5811
1301.113, 628.2324
1302.320, 656.8506
1303.528, 627.4365
1304.735, 697.9893
1305.942, 625.5088
1307.148, 845.9932
1308.355, 819.4434
1309.561, 933.8604
1310.767, 1040.238
1311.973, 1070.582
1313.179, 1071.963
1314.384, 1200.001
1315.590, 1092.348
1316.795, 1142.304
1318.000, 1009.134
1319.205, 1198.115
1320.410, 1168.637
1321.614, 1189.619
1322.819, 1140.571
1324.023, 1010.913
1325.227, 1032.625
1326.431, 835.2910
1327.634, 806.7871
1328.838, 564.3623
1330.041, 512.8877
1331.244, 473.3662
1332.447, 250.7939
1333.650, 237.1719
1334.852, 245.4980
1336.055, 67.77148
1337.257, 227.9883
1338.459, 24.15039
1339.661, 146.2549
1340.862, 99.30078
1342.064, 131.2842
1343.265, 148.2080
1344.466, 147.0469
1345.667, 14.85938
1346.868, 145.5664
1348.068, 117.1865
1349.269, 43.73145
1350.469, 144.1963
1351.669, 134.5791
1352.869, 167.8740
1354.069, 42.06836
1355.268, 34.17480
1356.468, 166.1953
1357.667, 121.1572
1358.866, 49.85742
1360.065, 99.26465
1361.263, 51.91504
1362.462, 152.2568
1363.660, 204.2129
1364.858, 59.36816
1366.056, 144.5127
1367.254, 62.62109
1368.451, 150.6914
1369.649, 100.7246
1370.846, 143.7236
1372.043, 102.6855
1373.240, 198.7354
1374.436, 277.9189
1375.633, 209.1064
1376.829, 165.3047
1378.025, 358.5352
1379.221, 269.7754
1380.417, 367.0264
1381.613, 366.2900
1382.808, 389.5732
1384.003, 382.8828
1385.199, 400.7324
1386.393, 341.1592
1387.588, 417.5889
1388.783, 389.5605
1389.977, 368.1211
1391.171, 413.7139
1392.365, 341.4854
1393.559, 374.3037
1394.753, 228.3779
1395.946, 249.6143
1397.140, 55.67090
1398.333, 85.78125
1399.526, 45.92871
1400.719, 134.1221
1401.911, 31.37305
1403.104, 87.68359
1404.296, 37.95215
1405.488, 47.46680
1406.680, 41.94922
1407.872, 79.50000
1409.063, 79.14648
1410.255, 5.885742
1411.446, 137.7168
1412.637, 47.61621
1413.828, 105.9180
1415.018, 129.6973
1416.209, 0.6396480
1417.399, 11.46973
1418.589, 24.32031
1419.779, 115.9736
1420.969, 109.2764
1422.159, 16.29004
1423.348, 166.5488
1424.537, 5.594727
1425.726, 60.43848
1426.915, 22.16699
1428.104, 38.16211
1429.293, 0.2685550
1430.481, 0.0000000E+00
##END=



