##NAMES=Hardystonite
##RRUFFID=R040026
##IDEAL CHEMISTRY=Ca_2_Zn^2+^Si_2_O_7_
##LOCALITY=Franklin, Sussex County, New Jersey, USA
##OWNER=RRUFF
##SOURCE=University of Arizona Mineral Museum
##DESCRIPTION=White massive
##STATUS=The identification of this mineral has been confirmed by X-ray diffraction and chemical analysis
##URL=rruff.info/R040026
##MEASURED CHEMISTRY=(Ca_1.98_Mn_0.02_)_Σ=2_(Zn_0.99_Al_0.01_)_Σ=1_(Si_1.99_Al_0.01_)_Σ=2_O_7_
##PIN_ID=S00031
##ORIENTATION=Laser parallel to c* (0 0 1). Fiducial mark perpendicular to laser is parallel to a [1 0 0]
130.9220, 0.0000000E+00
132.3090, 34.19922
133.6960, 4.714355
135.0830, 141.4058
136.4700, 87.80957
137.8570, 224.8438
139.2430, 198.5913
140.6300, 233.9492
142.0160, 157.6543
143.4010, 306.9956
144.7870, 279.2822
146.1720, 405.8438
147.5570, 360.7539
148.9420, 211.0845
150.3270, 172.2964
151.7110, 249.1758
153.0960, 207.5864
154.4800, 129.4785
155.8630, 205.5479
157.2470, 189.9209
158.6300, 207.8535
160.0130, 167.1226
161.3960, 178.3521
162.7790, 260.2290
164.1610, 210.2554
165.5440, 292.9712
166.9260, 273.7178
168.3080, 166.6201
169.6890, 114.2637
171.0700, 185.0308
172.4520, 262.8721
173.8330, 189.7651
175.2130, 197.7031
176.5940, 76.67725
177.9740, 135.6768
179.3540, 134.6880
180.7340, 121.7173
182.1140, 78.82471
183.4930, 11.99463
184.8720, 43.77197
186.2510, 41.50049
187.6300, 78.17676
189.0080, 13.76270
190.3870, 9.157227
191.7650, 2.320313
193.1430, 1.277344
194.5200, 40.11963
195.8980, 13.96338
197.2750, 86.91992
198.6520, 145.7642
200.0290, 132.6763
201.4050, 115.7812
202.7820, 256.3423
204.1580, 287.4067
205.5340, 430.7935
206.9090, 514.0645
208.2850, 617.0928
209.6600, 814.8193
211.0350, 869.2505
212.4100, 1031.396
213.7840, 1117.336
215.1590, 1321.272
216.5330, 1498.198
217.9070, 1588.099
219.2810, 1680.303
220.6540, 1658.783
222.0270, 1751.540
223.4000, 1754.225
224.7730, 1766.827
226.1460, 1849.338
227.5180, 1865.748
228.8910, 1865.036
230.2630, 1992.516
231.6340, 1974.209
233.0060, 1903.466
234.3770, 2048.130
235.7480, 2082.693
237.1190, 2006.853
238.4900, 2194.209
239.8600, 2148.789
241.2310, 2202.269
242.6010, 2177.841
243.9700, 2162.707
245.3400, 2217.215
246.7090, 2154.430
248.0790, 2239.849
249.4480, 2156.905
250.8160, 2175.880
252.1850, 2119.105
253.5530, 2142.207
254.9210, 2208.210
256.2890, 2161.269
257.6570, 2198.465
259.0240, 2189.387
260.3910, 2078.631
261.7580, 2135.753
263.1250, 2176.995
264.4920, 2077.104
265.8580, 2071.460
267.2240, 2095.463
268.5900, 1907.801
269.9560, 1973.288
271.3210, 1986.076
272.6870, 1787.773
274.0520, 1663.327
275.4160, 1752.861
276.7810, 1695.977
278.1460, 1474.746
279.5100, 1497.382
280.8740, 1296.675
282.2370, 1322.898
283.6010, 1171.651
284.9640, 1029.909
286.3270, 1004.447
287.6900, 893.9243
289.0530, 842.3418
290.4160, 823.6992
291.7780, 799.9980
293.1400, 767.0757
294.5020, 730.4116
295.8630, 704.7119
297.2250, 681.9106
298.5860, 612.9604
299.9470, 632.8311
301.3080, 600.5039
302.6680, 597.9707
304.0290, 703.2148
305.3890, 680.2324
306.7490, 645.0293
308.1080, 700.6040
309.4680, 662.9497
310.8270, 698.0146
312.1860, 766.8169
313.5450, 740.3984
314.9030, 730.7334
316.2620, 738.8784
317.6200, 746.8428
318.9780, 656.4077
320.3360, 886.0020
321.6930, 835.9355
323.0510, 746.6172
324.4080, 872.3247
325.7650, 546.2212
327.1210, 439.1021
328.4780, 455.6240
329.8340, 431.4116
331.1900, 408.0430
332.5460, 365.1763
333.9020, 363.1846
335.2570, 407.9546
336.6120, 380.3491
337.9670, 355.3892
339.3220, 421.4121
340.6770, 458.4912
342.0310, 351.0698
343.3850, 404.5923
344.7390, 345.9580
346.0930, 343.8955
347.4460, 335.3081
348.7990, 327.7075
350.1530, 312.0107
351.5050, 293.6094
352.8580, 267.2959
354.2100, 251.9053
355.5630, 210.7856
356.9150, 179.6987
358.2670, 155.1382
359.6180, 97.58643
360.9690, 149.9961
362.3210, 21.83154
363.6720, 71.49463
365.0220, 65.94922
366.3730, 27.03467
367.7230, 18.17041
369.0730, 21.54980
370.4230, 61.85596
371.7730, 4.908691
373.1220, 47.24951
374.4710, 46.33936
375.8210, 28.63867
377.1690, 39.30371
378.5180, 19.17725
379.8660, 132.9819
381.2150, 79.72266
382.5630, 181.3984
383.9100, 186.0127
385.2580, 296.5649
386.6050, 300.0576
387.9520, 251.4912
389.2990, 354.8657
390.6460, 308.1816
391.9920, 354.4395
393.3390, 263.6348
394.6850, 279.7651
396.0310, 340.8286
397.3760, 140.8296
398.7220, 237.7852
400.0670, 39.67676
401.4120, 20.49805
402.7570, 111.2632
404.1010, 25.95752
405.4460, 30.41992
406.7900, 25.12256
408.1340, 23.39746
409.4780, 70.99609
410.8210, 54.69043
412.1650, 85.49219
413.5080, 69.37793
414.8510, 61.38184
416.1930, 87.49170
417.5360, 133.7305
418.8780, 61.08838
420.2200, 34.53906
421.5620, 105.0674
422.9040, 91.68701
424.2450, 14.39355
425.5860, 35.83203
426.9270, 21.99951
428.2680, 62.10303
429.6090, 103.1226
430.9490, 169.0771
432.2890, 291.9595
433.6290, 228.7490
434.9690, 383.4170
436.3090, 447.9932
437.6480, 622.4307
438.9870, 660.7915
440.3260, 725.0479
441.6650, 796.2812
443.0030, 942.5137
444.3420, 957.7070
445.6800, 1002.899
447.0180, 1080.070
448.3550, 1074.236
449.6930, 1122.388
451.0300, 1086.537
452.3670, 1251.679
453.7040, 1186.791
455.0410, 1280.879
456.3770, 1189.936
457.7130, 1369.931
459.0490, 1429.892
460.3850, 1467.790
461.7210, 1598.644
463.0560, 1701.436
464.3910, 1655.187
465.7260, 1863.886
467.0610, 1928.524
468.3950, 2052.104
469.7300, 2387.626
471.0640, 2328.098
472.3980, 2710.513
473.7310, 2866.871
475.0650, 3093.190
476.3980, 3361.456
477.7310, 3528.667
479.0640, 3669.826
480.3970, 3652.935
481.7290, 3721.991
483.0620, 3627.997
484.3940, 3611.954
485.7250, 3503.907
487.0570, 3404.733
488.3890, 3236.120
489.7200, 3068.532
491.0510, 2938.797
492.3820, 2742.921
493.7120, 2515.823
495.0430, 2198.676
496.3730, 2138.674
497.7030, 1989.513
499.0320, 1810.206
500.3620, 1774.132
501.6910, 1621.176
503.0200, 1470.731
504.3490, 1412.470
505.6780, 1334.925
507.0070, 1262.333
508.3350, 1183.689
509.6630, 1089.013
510.9910, 1089.238
512.3190, 1019.402
513.6460, 1063.439
514.9730, 924.3945
516.3000, 871.1548
517.6270, 849.7397
518.9540, 774.1309
520.2800, 850.0151
521.6070, 709.3042
522.9330, 782.0830
524.2590, 652.5884
525.5840, 632.9912
526.9100, 709.7822
528.2350, 528.3521
529.5600, 699.9604
530.8850, 642.1670
532.2090, 575.5913
533.5340, 583.5430
534.8580, 601.4482
536.1820, 588.0498
537.5060, 658.0215
538.8290, 652.3496
540.1520, 667.9863
541.4760, 774.1421
542.7990, 745.0806
544.1210, 824.0029
545.4440, 913.3516
546.7660, 859.6792
548.0880, 1015.769
549.4100, 1015.255
550.7320, 1029.511
552.0530, 958.9263
553.3750, 916.9277
554.6960, 800.2456
556.0170, 829.6240
557.3370, 711.7236
558.6580, 657.6099
559.9780, 501.6133
561.2980, 568.6636
562.6180, 496.9897
563.9380, 505.3052
565.2570, 533.8418
566.5760, 488.9341
567.8950, 513.0620
569.2140, 535.5498
570.5330, 583.1245
571.8510, 517.8633
573.1700, 520.4673
574.4880, 510.5273
575.8050, 604.2344
577.1230, 613.9189
578.4400, 670.2617
579.7580, 867.1748
581.0750, 806.0645
582.3910, 1085.418
583.7080, 1068.652
585.0240, 1314.697
586.3410, 1429.504
587.6570, 1558.253
588.9720, 1804.688
590.2880, 1824.750
591.6030, 1766.475
592.9180, 2029.507
594.2330, 2187.308
595.5480, 2483.187
596.8630, 2608.935
598.1770, 2864.780
599.4910, 3291.809
600.8050, 3696.887
602.1190, 4187.621
603.4320, 5019.146
604.7460, 6040.783
606.0590, 7305.703
607.3720, 8818.787
608.6850, 10912.00
609.9970, 12732.12
611.3090, 14761.86
612.6210, 16393.95
613.9330, 17220.64
615.2450, 17243.45
616.5570, 16556.29
617.8680, 15286.90
619.1790, 13946.80
620.4900, 12511.36
621.8010, 11813.56
623.1110, 10980.73
624.4210, 10619.27
625.7310, 9642.727
627.0410, 9203.413
628.3510, 8050.996
629.6600, 7415.375
630.9700, 6888.729
632.2790, 6029.422
633.5880, 5569.727
634.8960, 5003.008
636.2050, 5066.266
637.5130, 4771.498
638.8210, 4865.708
640.1290, 5193.894
641.4370, 5418.057
642.7440, 5636.199
644.0510, 6111.315
645.3580, 6742.412
646.6650, 7249.485
647.9720, 7966.539
649.2780, 8789.574
650.5840, 9956.588
651.8900, 11769.58
653.1960, 13581.57
654.5020, 16369.52
655.8070, 19180.47
657.1130, 23104.39
658.4180, 27614.30
659.7220, 31278.18
661.0270, 34330.05
662.3310, 36191.91
663.6360, 36223.75
664.9400, 33817.57
666.2440, 31063.37
667.5470, 27129.16
668.8510, 24192.94
670.1540, 20685.70
671.4570, 17988.44
672.7600, 15891.17
674.0620, 13669.89
675.3650, 11963.59
676.6670, 10204.29
677.9690, 8788.974
679.2710, 7644.647
680.5720, 6440.316
681.8740, 5827.979
683.1750, 5099.635
684.4760, 4252.285
685.7770, 3693.935
687.0770, 3133.578
688.3780, 2770.217
689.6780, 2381.857
690.9780, 1956.496
692.2780, 1521.131
693.5770, 1541.774
694.8770, 1141.417
696.1760, 1093.059
697.4750, 921.6953
698.7740, 798.3271
700.0720, 751.9531
701.3710, 606.5723
702.6690, 392.1836
703.9670, 476.7861
705.2650, 492.3838
706.5620, 341.9727
707.8600, 161.5547
709.1570, 176.1299
710.4540, 75.69922
711.7510, 112.2607
713.0470, 58.18652
714.3440, 106.3193
715.6400, 8.820313
716.9360, 49.68652
718.2320, 29.78125
719.5270, 31.24414
720.8230, 4.291016
722.1180, 36.82617
723.4130, 26.38770
724.7080, 48.95898
726.0020, 110.4590
727.2970, 117.1006
728.5910, 107.3008
729.8850, 157.7275
731.1790, 36.18164
732.4720, 58.66504
733.7660, 29.19141
735.0590, 46.74023
736.3520, 4.306641
737.6450, 29.90234
738.9370, 18.52930
740.2300, 14.02637
741.5220, 11.54395
742.8140, 0.4492190
744.1060, 6.915039
745.3970, 46.28711
746.6890, 49.69043
747.9800, 75.87305
749.2710, 78.56348
750.5620, 101.9502
751.8530, 72.53906
753.1430, 75.07520
754.4330, 158.6592
755.7230, 192.3369
757.0130, 25.12109
758.3030, 137.9277
759.5920, 43.81348
760.8810, 98.72852
762.1700, 53.70020
763.4590, 105.7051
764.7480, 89.77051
766.0360, 61.11523
767.3250, 22.00195
768.6130, 45.86426
769.9010, 9.730469
771.1880, 123.4062
772.4760, 60.39062
773.7630, 78.81152
775.0500, 90.94531
776.3370, 86.29883
777.6240, 33.58496
778.9100, 11.11133
780.1960, 59.80762
781.4820, 3.495117
782.7680, 26.80273
784.0540, 25.87891
785.3390, 39.56152
786.6250, 70.75391
787.9100, 112.9004
789.1950, 65.55664
790.4790, 163.2158
791.7640, 242.8770
793.0480, 193.5410
794.3320, 256.2070
795.6160, 298.8770
796.9000, 299.5488
798.1830, 209.2256
799.4670, 331.9053
800.7500, 194.5889
802.0330, 147.2773
803.3160, 316.9688
804.5980, 185.6650
805.8800, 251.3662
807.1630, 239.0723
808.4450, 219.7822
809.7260, 284.4990
811.0080, 433.2197
812.2890, 353.9463
813.5700, 346.6787
814.8510, 480.4170
816.1320, 409.1602
817.4130, 453.9111
818.6930, 548.6670
819.9730, 631.4316
821.2530, 632.2012
822.5330, 826.9775
823.8130, 789.7617
825.0920, 784.5527
826.3710, 745.3506
827.6500, 894.1562
828.9290, 1092.969
830.2080, 1187.791
831.4860, 1079.621
832.7640, 1205.459
834.0420, 1250.304
835.3200, 1284.159
836.5980, 1355.021
837.8750, 1493.914
839.1520, 1577.817
840.4290, 1760.747
841.7060, 1865.724
842.9830, 1826.765
844.2590, 2029.846
845.5360, 2003.003
846.8120, 2141.188
848.0880, 2107.439
849.3630, 2252.728
850.6390, 2435.072
851.9140, 2511.492
853.1890, 2586.951
854.4640, 2762.467
855.7390, 3152.037
857.0130, 3246.644
858.2880, 3342.307
859.5620, 3722.016
860.8360, 3820.738
862.1100, 3590.471
863.3830, 3560.215
864.6560, 3225.685
865.9300, 3115.328
867.2030, 3019.279
868.4750, 2791.938
869.7480, 2720.955
871.0200, 2813.572
872.2920, 2852.971
873.5640, 2855.399
874.8360, 2941.868
876.1080, 2995.475
877.3790, 3222.771
878.6500, 3411.709
879.9220, 3491.572
881.1920, 3798.329
882.4630, 3987.224
883.7330, 4322.154
885.0040, 4574.794
886.2740, 5140.549
887.5440, 5579.203
888.8130, 6001.951
890.0830, 6791.293
891.3520, 7589.010
892.6210, 8497.702
893.8900, 9749.396
895.1590, 11159.10
896.4270, 13141.41
897.6950, 15794.38
898.9640, 18631.20
900.2320, 23036.86
901.4990, 28570.96
902.7670, 32171.94
904.0340, 37375.09
905.3010, 42636.54
906.5680, 46890.87
907.8350, 48695.02
909.1020, 47533.11
910.3680, 44055.52
911.6340, 39742.17
912.9000, 34207.70
914.1660, 29675.93
915.4320, 24603.00
916.6970, 20574.94
917.9620, 17785.95
919.2270, 14812.33
920.4920, 12651.36
921.7570, 10795.78
923.0210, 9391.075
924.2850, 8270.325
925.5500, 7346.803
926.8130, 6408.975
928.0770, 5602.492
929.3410, 5066.363
930.6040, 4716.250
931.8670, 4253.759
933.1300, 4022.351
934.3930, 3886.707
935.6550, 3532.160
936.9180, 3487.812
938.1800, 3317.485
939.4420, 3082.813
940.7030, 3143.526
941.9650, 3017.260
943.2260, 2822.013
944.4880, 2650.785
945.7490, 2674.577
947.0090, 2479.391
948.2700, 2440.225
949.5300, 2409.077
950.7910, 2340.951
952.0510, 2322.845
953.3110, 2227.449
954.5700, 2055.693
955.8300, 1999.646
957.0890, 1869.621
958.3480, 1661.615
959.6070, 1490.630
960.8660, 1485.664
962.1240, 1406.719
963.3830, 1349.794
964.6410, 1231.889
965.8990, 1222.003
967.1560, 1052.139
968.4140, 950.2920
969.6710, 995.4668
970.9280, 879.6621
972.1850, 903.8760
973.4420, 818.1104
974.6990, 707.3652
975.9550, 648.6396
977.2110, 530.9326
978.4680, 550.2471
979.7230, 565.5811
980.9790, 543.9346
982.2340, 775.3076
983.4900, 538.6992
984.7450, 775.1123
986.0000, 850.5439
987.2540, 771.9971
988.5090, 904.0215
989.7630, 823.6621
991.0170, 785.2109
992.2710, 642.9531
993.5250, 670.0762
994.7790, 692.9844
996.0320, 810.5488
997.2850, 1036.008
998.5380, 1155.012
999.7910, 2029.620
1001.044, 2601.820
1002.296, 3268.677
1003.548, 2765.950
1004.800, 2134.938
1006.052, 1515.818
1007.304, 1076.323
1008.555, 1032.805
1009.807, 806.4189
1011.058, 774.6016
1012.309, 885.3828
1013.559, 819.1934
1014.810, 767.9395
1016.060, 1038.717
1017.310, 1214.483
1018.560, 1120.438
1019.810, 1317.244
1021.060, 1745.065
1022.309, 1592.914
1023.558, 1757.773
1024.807, 1527.642
1026.056, 1621.525
1027.305, 1358.434
1028.553, 1381.362
1029.801, 1249.317
1031.049, 1017.280
1032.297, 1055.287
1033.545, 1058.301
1034.793, 821.3223
1036.040, 930.3525
1037.287, 853.3926
1038.534, 797.4395
1039.781, 831.4951
1041.027, 676.5615
1042.274, 701.6357
1043.520, 853.7188
1044.766, 765.8105
1046.012, 760.9102
1047.257, 747.5215
1048.503, 868.8174
1049.748, 722.1133
1050.993, 846.7510
1052.238, 765.9248
1053.483, 686.1279
1054.727, 610.3359
1055.971, 722.6455
1057.216, 652.9082
1058.459, 557.2939
1059.703, 485.6621
1060.947, 395.8721
1062.190, 368.9258
1063.433, 501.0361
1064.676, 376.1914
1065.919, 420.9551
1067.162, 541.5195
1068.404, 397.0791
1069.646, 401.6416
1070.888, 582.2158
1072.130, 523.7920
1073.372, 617.3740
1074.613, 637.9893
1075.855, 772.6084
1077.096, 845.2490
1078.337, 1126.894
1079.578, 1278.562
1080.818, 1565.240
1082.059, 1701.921
1083.299, 1971.604
1084.539, 2031.293
1085.779, 2076.988
1087.018, 2041.684
1088.258, 1893.382
1089.497, 1513.098
1090.736, 1250.814
1091.975, 1076.531
1093.213, 742.2500
1094.452, 720.9697
1095.690, 525.6885
1096.928, 485.4092
1098.166, 411.1299
1099.404, 355.8496
1100.642, 341.5713
1101.879, 328.2920
1103.116, 393.0127
1104.353, 404.7334
1105.590, 330.4541
1106.827, 479.1729
1108.063, 317.8926
1109.299, 457.6104
1110.536, 414.3291
1111.771, 335.0449
1113.007, 327.7607
1114.243, 261.4766
1115.478, 238.1904
1116.713, 177.9023
1117.948, 226.6328
1119.183, 131.3623
1120.418, 89.08984
1121.652, 288.8164
1122.886, 392.5410
1124.120, 368.2656
1125.354, 161.9902
1126.588, 228.7129
1127.821, 118.4326
1129.055, 109.1504
1130.288, 163.8643
1131.521, 77.57422
1132.753, 94.28027
1133.986, 75.98242
1135.218, 200.6787
1136.450, 57.64258
1137.682, 45.99902
1138.914, 47.45215
1140.146, 113.0205
1141.377, 181.7041
1142.609, 97.52051
1143.840, 218.4717
1145.071, 40.58691
1146.301, 191.8018
1147.532, 73.11914
1148.762, 145.4688
1149.992, 218.8711
1151.222, 81.34180
1152.452, 139.8486
1153.682, 137.4043
1154.911, 67.01172
1156.140, 145.6494
1157.369, 99.33887
1158.598, 27.92871
1159.827, 94.18848
1161.055, 90.44434
1162.284, 147.6924
1163.512, 104.9346
1164.740, 216.1699
1165.967, 74.39453
1167.195, 269.5850
1168.422, 319.7676
1169.650, 324.9424
1170.877, 282.1084
1172.103, 290.2266
1173.330, 237.3330
1174.557, 439.4248
1175.783, 371.5078
1177.009, 319.5801
1178.235, 449.6416
1179.461, 344.6934
1180.686, 284.7344
1181.912, 337.7646
1183.137, 390.7832
1184.362, 204.7910
1185.587, 188.7861
1186.811, 241.7715
1188.036, 206.7432
1189.260, 224.7021
1190.484, 304.6494
1191.708, 269.5820
1192.932, 242.8125
1194.155, 49.41016
1195.378, 91.29980
1196.602, 97.17480
1197.825, 30.96680
1199.047, 172.8574
1200.270, 161.6660
1201.492, 220.4561
1202.715, 119.2314
1203.937, 238.9893
1205.159, 120.7275
1206.380, 148.4482
1207.602, 65.85059
1208.823, 85.80078
1210.044, 124.4307
1211.265, 49.04199
1212.486, 78.63477
1213.707, 133.2139
1214.927, 190.7246
1216.147, 289.2842
1217.367, 295.1934
1218.587, 316.3711
1219.807, 298.8994
1221.027, 313.4785
1222.246, 255.9863
1223.465, 276.4824
1224.684, 273.9688
1225.903, 289.4443
1227.121, 229.9111
1228.340, 458.3672
1229.558, 396.8145
1230.776, 511.2520
1231.994, 453.6807
1233.212, 670.1016
1234.429, 724.5137
1235.646, 783.9160
1236.864, 934.3115
1238.081, 935.6992
1239.297, 1014.079
1240.514, 975.4521
1241.730, 853.8184
1242.947, 811.1797
1244.163, 843.5352
1245.378, 927.8867
1246.594, 884.2363
1247.810, 831.5840
1249.025, 953.9092
1250.240, 940.2314
1251.455, 963.5518
1252.670, 913.8721
1253.885, 869.1914
1255.099, 826.5127
1256.313, 766.8359
1257.527, 760.3604
1258.741, 800.4893
1259.955, 759.8232
1261.168, 806.1621
1262.382, 841.5068
1263.595, 1018.152
1264.808, 963.5156
1266.021, 1076.893
1267.233, 1207.283
1268.446, 1253.691
1269.658, 1204.230
1270.870, 1416.946
1272.082, 1493.420
1273.294, 1383.589
1274.505, 1433.729
1275.716, 1481.811
1276.928, 1310.756
1278.139, 1346.637
1279.349, 1407.452
1280.560, 1137.237
1281.770, 1062.504
1282.981, 959.0400
1284.191, 927.4541
1285.401, 800.8857
1286.610, 765.1904
1287.820, 872.9092
1289.029, 650.7041
1290.239, 697.4648
1291.448, 768.0537
1292.656, 722.2734
1293.865, 911.3789
1295.073, 971.5723
1296.282, 1009.585
1297.490, 1024.744
1298.698, 899.8760
1299.906, 827.9795
1301.113, 798.0566
1302.320, 730.1035
1303.528, 767.1221
1304.735, 686.1113
1305.942, 821.0703
1307.148, 988.0000
1308.355, 858.8975
1309.561, 1150.764
1310.767, 1154.749
1311.973, 1163.636
1313.179, 1236.332
1314.384, 1246.900
1315.590, 1215.432
1316.795, 1222.908
1318.000, 1239.966
1319.205, 1312.080
1320.410, 1331.381
1321.614, 1251.687
1322.819, 1338.953
1324.023, 1155.177
1325.227, 1084.357
1326.431, 941.4961
1327.634, 793.5889
1328.838, 743.6357
1330.041, 526.6357
1331.244, 554.5869
1332.447, 402.4883
1333.650, 215.3379
1334.852, 233.1338
1336.055, 157.8740
1337.257, 136.5557
1338.459, 122.1787
1339.661, 155.7393
1340.862, 114.2363
1342.064, 91.66406
1343.265, 156.0205
1344.466, 206.2705
1345.667, 97.40527
1346.868, 278.4541
1348.068, 144.4092
1349.269, 124.2666
1350.469, 307.0332
1351.669, 151.7109
1352.869, 184.2959
1354.069, 238.8633
1355.268, 127.9111
1356.468, 80.53906
1357.667, 99.87598
1358.866, 34.19727
1360.065, 93.79395
1361.263, 31.76367
1362.462, 32.70703
1363.660, 125.6240
1364.858, 4.481445
1366.056, 118.3877
1367.254, 199.2354
1368.451, 185.1543
1369.649, 125.1338
1370.846, 96.21973
1372.043, 174.4492
1373.240, 253.7188
1374.436, 246.0156
1375.633, 231.3438
1376.829, 233.7119
1378.025, 265.3760
1379.221, 319.5977
1380.417, 364.1357
1381.613, 413.7549
1382.808, 497.4668
1384.003, 357.2891
1385.199, 403.2451
1386.393, 306.3594
1387.588, 427.6592
1388.783, 459.1826
1389.977, 429.9443
1391.171, 379.8994
1392.365, 404.7295
1393.559, 365.5459
1394.753, 259.6348
1395.946, 275.9375
1397.140, 263.4033
1398.333, 94.03809
1399.526, 101.8467
1400.719, 211.8486
1401.911, 104.0664
1403.104, 137.5215
1404.296, 58.23340
1405.488, 160.2158
1406.680, 53.52539
1407.872, 104.0020
1409.063, 186.2139
1410.255, 96.87695
1411.446, 191.0078
1412.637, 63.67578
1413.828, 54.96777
1415.018, 113.9941
1416.209, 73.04395
1417.399, 70.64941
1418.589, 102.0537
1419.779, 30.26367
1420.969, 93.11230
1422.159, 41.34766
1423.348, 0.0000000E+00
##END=



