##NAMES=Hausmannite
##RRUFFID=R040091
##IDEAL CHEMISTRY=Mn^2+^Mn^3+^_2_O_4_
##LOCALITY=Germany
##OWNER=RRUFF
##SOURCE=University of Arizona Mineral Museum
##DESCRIPTION=Mass of black octahedral crystals
##STATUS=The identification of this mineral has been confirmed by X-ray diffraction and chemical analysis
##URL=rruff.info/R040091
##MEASURED CHEMISTRY=(Mn^2+^_0.96_Zn_0.02_Mg_0.02_)Mn^3+^_2.00_O_4_
##PIN_ID=S00198
##ORIENTATION=Laser parallel to c* (0 0 1). Fiducial mark perpendicular to laser is parallel to a [1 0 0]
200.717, 0.000
202.093, 44.540
203.470, 35.628
204.846, 38.826
206.221, 26.502
207.597, 12.521
208.972, 1.762
210.347, 7.912
211.722, 33.289
213.097, 29.444
214.472, 18.677
215.846, 12.671
217.220, 104.095
218.594, 10.892
219.967, 81.804
221.341, 59.415
222.714, 43.630
224.087, 91.773
225.460, 90.645
226.832, 161.325
228.204, 89.531
229.577, 145.832
230.948, 87.306
232.320, 120.783
233.692, 111.304
235.063, 156.475
236.434, 92.653
237.805, 67.735
239.175, 102.013
240.545, 125.069
241.916, 145.215
243.286, 203.705
244.655, 241.630
246.025, 146.725
247.394, 264.750
248.763, 173.972
250.132, 236.882
251.501, 214.453
252.869, 162.712
254.237, 143.130
255.605, 129.622
256.973, 97.688
258.340, 135.486
259.708, 99.299
261.075, 138.400
262.442, 99.463
263.808, 112.475
265.175, 100.729
266.541, 136.444
267.907, 87.853
269.273, 120.159
270.639, 123.925
272.004, 114.329
273.369, 65.582
274.734, 91.667
276.099, 26.582
277.463, 82.329
278.828, 84.914
280.192, 111.346
281.556, 8.616
282.919, 2.812
284.283, 22.868
285.646, 20.466
287.009, 42.224
288.372, 28.441
289.734, 66.093
291.097, 26.365
292.459, 48.807
293.821, 150.946
295.183, 63.948
296.544, 123.608
297.905, 155.465
299.266, 107.311
300.627, 172.118
301.988, 303.278
303.348, 362.873
304.709, 381.878
306.069, 385.587
307.428, 396.226
308.788, 503.508
310.147, 439.441
311.507, 548.858
312.865, 455.579
314.224, 461.433
315.583, 413.565
316.941, 414.274
318.299, 377.197
319.657, 273.459
321.015, 329.314
322.372, 250.807
323.729, 254.694
325.086, 300.465
326.443, 257.283
327.800, 214.999
329.156, 242.586
330.512, 192.551
331.868, 269.011
333.224, 175.374
334.579, 189.337
335.935, 250.526
337.290, 288.659
338.645, 280.771
339.999, 299.390
341.354, 369.796
342.708, 351.900
344.062, 393.892
345.416, 388.562
346.769, 418.482
348.123, 437.031
349.476, 405.850
350.829, 502.959
352.182, 608.463
353.534, 759.854
354.887, 741.094
356.239, 784.468
357.591, 867.955
358.942, 994.762
360.294, 1121.509
361.645, 1079.496
362.996, 1145.471
364.347, 1189.373
365.698, 1289.563
367.048, 1245.110
368.398, 1135.142
369.748, 1022.714
371.098, 946.642
372.448, 964.991
373.797, 758.177
375.146, 649.244
376.495, 638.025
377.844, 479.595
379.192, 430.701
380.540, 366.065
381.889, 285.638
383.236, 236.443
384.584, 235.939
385.932, 182.114
387.279, 172.299
388.626, 112.268
389.973, 49.331
391.319, 168.889
392.666, 31.483
394.012, 163.646
395.358, 85.769
396.704, 54.689
398.049, 84.635
399.394, 44.169
400.740, 49.343
402.084, 37.576
403.429, 13.226
404.774, 58.192
406.118, 40.740
407.462, 95.560
408.806, 46.628
410.150, 19.159
411.493, 52.226
412.836, 79.513
414.179, 54.576
415.522, 49.597
416.865, 34.963
418.207, 23.500
419.549, 1.365
420.891, 24.047
422.233, 6.892
423.575, 6.561
424.916, 26.382
426.257, 45.381
427.598, 55.225
428.939, 58.875
430.279, 29.091
431.619, 17.747
432.959, 67.569
434.299, 7.728
435.639, 75.410
436.978, 64.843
438.318, 31.902
439.657, 27.341
440.996, 4.417
442.334, 10.028
443.673, 79.502
445.011, 33.658
446.349, 47.195
447.687, 30.869
449.024, 20.868
450.361, 18.088
451.699, 4.033
453.036, 9.042
454.372, 21.508
455.709, 4.832
457.045, 24.417
458.381, 24.515
459.717, 58.718
461.053, 57.581
462.388, 20.251
463.724, 96.406
465.059, 62.100
466.394, 107.744
467.728, 165.336
469.063, 139.904
470.397, 75.280
471.731, 23.650
473.065, 213.966
474.398, 62.271
475.732, 125.428
477.065, 30.589
478.398, 106.691
479.731, 73.749
481.063, 39.404
482.396, 3.769
483.728, 28.686
485.060, 90.122
486.391, 83.719
487.723, 83.104
489.054, 126.283
490.385, 72.538
491.716, 130.557
493.047, 127.873
494.377, 47.765
495.708, 131.693
497.038, 143.860
498.368, 172.166
499.697, 88.389
501.027, 122.671
502.356, 74.142
503.685, 144.584
505.014, 141.001
506.342, 94.399
507.671, 121.774
508.999, 66.128
510.327, 83.463
511.655, 60.779
512.982, 183.078
514.310, 101.359
515.637, 169.632
516.964, 113.899
518.291, 111.154
519.617, 100.403
520.944, 93.655
522.270, 104.860
523.596, 113.073
524.921, 153.237
526.247, 175.353
527.572, 159.417
528.897, 148.435
530.222, 189.406
531.547, 187.842
532.871, 192.787
534.196, 193.072
535.520, 222.887
536.844, 149.673
538.167, 214.420
539.491, 276.132
540.814, 222.811
542.137, 220.289
543.460, 266.531
544.783, 275.745
546.105, 330.703
547.427, 311.596
548.749, 263.213
550.071, 281.352
551.393, 235.149
552.714, 275.046
554.035, 331.770
555.356, 243.121
556.677, 308.200
557.998, 330.522
559.318, 315.506
560.638, 246.515
561.958, 308.403
563.278, 317.677
564.597, 336.125
565.917, 395.992
567.236, 436.253
568.555, 456.142
569.874, 437.657
571.192, 340.642
572.511, 379.788
573.829, 328.697
575.147, 355.740
576.464, 374.711
577.782, 258.313
579.099, 258.419
580.416, 278.032
581.733, 253.828
583.050, 265.185
584.366, 261.284
585.683, 271.062
586.999, 242.931
588.315, 248.824
589.630, 231.326
590.946, 237.859
592.261, 266.798
593.576, 203.688
594.891, 323.646
596.206, 364.555
597.520, 314.994
598.834, 401.611
600.148, 363.767
601.462, 420.227
602.776, 530.185
604.089, 505.885
605.402, 556.736
606.715, 618.487
608.028, 573.206
609.341, 664.907
610.653, 708.560
611.965, 764.262
613.277, 888.116
614.589, 872.782
615.901, 913.612
617.212, 999.440
618.523, 1092.812
619.834, 1174.372
621.145, 1394.339
622.456, 1534.445
623.766, 1754.396
625.076, 1825.529
626.386, 2096.894
627.696, 2344.142
629.006, 2655.111
630.315, 2890.855
631.624, 3221.449
632.933, 3639.978
634.242, 4202.250
635.551, 4653.991
636.859, 5316.209
638.167, 6058.280
639.475, 7110.038
640.783, 7931.519
642.090, 9123.222
643.398, 10135.175
644.705, 11397.337
646.012, 12559.259
647.318, 13611.430
648.625, 14173.433
649.931, 14535.705
651.237, 14747.929
652.543, 14009.708
653.849, 13642.027
655.155, 12454.570
656.460, 11426.973
657.765, 10519.206
659.070, 9311.526
660.375, 8383.733
661.679, 7535.909
662.984, 6449.210
664.288, 5741.443
665.592, 5193.605
666.895, 4596.588
668.199, 4128.739
669.502, 3606.847
670.805, 3264.753
672.108, 2824.687
673.411, 2616.079
674.713, 2380.432
676.016, 2199.274
677.318, 1918.212
678.620, 1773.850
679.921, 1594.278
681.223, 1489.333
682.524, 1420.160
683.825, 1277.691
685.126, 1191.100
686.427, 1088.364
687.727, 1020.880
689.028, 982.360
690.328, 910.823
691.628, 916.733
692.927, 869.620
694.227, 769.105
695.526, 799.506
696.825, 752.717
698.124, 692.500
699.423, 636.596
700.721, 618.379
702.020, 635.959
703.318, 584.940
704.616, 592.361
705.913, 546.736
707.211, 498.579
708.508, 477.267
709.805, 472.661
711.102, 526.037
712.399, 475.739
713.695, 506.528
714.992, 549.656
716.288, 484.862
717.584, 467.071
718.879, 450.276
720.175, 461.620
721.470, 448.936
722.765, 516.921
724.060, 423.055
725.355, 436.570
726.649, 376.787
727.944, 404.761
729.238, 370.888
730.532, 379.944
731.825, 355.805
733.119, 342.111
734.412, 313.592
735.705, 332.023
736.998, 342.091
738.291, 374.451
739.584, 368.897
740.876, 363.713
742.168, 363.718
743.460, 301.853
744.752, 281.844
746.043, 283.041
747.334, 269.306
748.626, 316.541
749.916, 315.757
751.207, 301.036
752.498, 309.100
753.788, 275.446
755.078, 328.667
756.368, 256.694
757.658, 249.781
758.947, 203.920
760.237, 267.984
761.526, 269.051
762.815, 260.026
764.104, 265.959
765.392, 148.988
766.680, 180.892
767.969, 130.856
769.257, 190.917
770.544, 146.944
771.832, 166.840
773.119, 149.819
774.406, 154.725
775.693, 179.721
776.980, 163.571
778.267, 178.414
779.553, 145.248
780.839, 128.072
782.125, 164.886
783.411, 131.690
784.697, 114.485
785.982, 90.273
787.267, 132.049
788.552, 74.831
789.837, 125.602
791.122, 65.364
792.406, 66.123
793.690, 219.012
794.974, 121.746
796.258, 118.472
797.542, 116.191
798.825, 47.905
800.108, 103.603
801.391, 87.291
802.674, 70.968
803.957, 65.636
805.239, 72.291
806.522, 97.935
807.804, 52.570
809.085, 10.193
810.367, 69.802
811.649, 27.398
812.930, 38.982
814.211, 15.558
815.492, 92.117
816.772, 12.322
818.053, 26.203
819.333, 68.716
820.613, 11.783
821.893, 30.698
823.173, 13.834
824.452, 1.335
825.732, 39.907
827.011, 42.517
828.290, 29.561
829.568, 37.418
830.847, 7.563
832.125, 19.209
833.403, 30.973
834.681, 24.405
835.959, 1.584
837.236, 12.582
838.514, 23.722
839.791, 45.848
841.068, 23.960
842.345, 30.059
843.621, 31.142
844.898, 16.789
846.174, 18.705
847.450, 18.308
848.726, 35.306
850.001, 5.710
851.277, 46.748
852.552, 3.830
853.827, 14.933
855.102, 5.936
856.376, 18.130
857.651, 9.223
858.925, 22.577
860.199, 0.361
861.473, 3.126
862.746, 12.874
864.020, 15.606
865.293, 29.677
866.566, 46.995
867.839, 68.358
869.112, 49.224
870.384, 46.792
871.656, 46.347
872.928, 14.511
874.200, 33.054
875.472, 92.548
876.744, 64.047
878.015, 7.533
879.286, 42.698
880.557, 139.260
881.828, 66.705
883.098, 30.135
884.369, 91.701
885.639, 33.104
886.909, 73.812
888.178, 21.812
889.448, 85.531
890.717, 17.860
891.987, 53.174
893.256, 83.474
894.524, 31.239
895.793, 63.010
897.061, 95.245
898.330, 46.468
899.598, 28.676
900.865, 33.870
902.133, 37.049
903.401, 20.110
904.668, 69.364
905.935, 15.501
907.202, 30.622
908.468, 76.108
909.735, 60.201
911.001, 45.281
912.267, 61.348
913.533, 58.400
914.799, 78.633
916.064, 86.716
917.330, 61.674
918.595, 97.676
919.860, 72.666
921.124, 48.643
922.389, 54.606
923.653, 83.556
924.918, 61.495
926.182, 76.419
927.445, 52.383
928.709, 123.284
929.972, 104.171
931.236, 93.047
932.499, 130.912
933.761, 91.764
935.024, 130.635
936.286, 104.464
937.549, 128.282
938.811, 99.026
940.073, 189.821
941.334, 179.478
942.596, 117.249
943.857, 77.842
945.118, 43.428
946.379, 145.164
947.640, 143.889
948.900, 145.603
950.161, 75.306
951.421, 95.756
952.681, 131.428
953.940, 87.021
955.200, 117.533
956.459, 116.013
957.719, 167.509
958.978, 114.102
960.236, 102.494
961.495, 178.697
962.753, 101.140
964.012, 116.395
965.270, 68.687
966.527, 135.870
967.785, 65.364
969.043, 133.703
970.300, 101.900
971.557, 100.265
972.814, 157.561
974.071, 64.747
975.327, 49.864
976.583, 100.680
977.840, 104.110
979.095, 135.353
980.351, 74.385
981.607, 161.902
982.862, 27.263
984.117, 107.880
985.372, 41.738
986.627, 114.989
987.882, 38.620
989.136, 127.626
990.390, 89.672
991.644, 85.804
992.898, 86.836
994.152, 58.887
995.405, 149.937
996.659, 25.521
997.912, 161.967
999.165, 77.943
1000.417, 90.984
1001.670, 122.196
1002.922, 83.819
1004.174, 63.112
1005.426, 78.704
1006.678, 4.482
1007.930, 1.847
1009.181, 109.756
1010.432, 24.700
1011.683, 120.164
1012.934, 34.771
1014.185, 58.661
1015.435, 19.559
1016.685, 41.117
1017.935, 29.579
1019.185, 9.691
1020.435, 13.715
1021.684, 15.727
1022.934, 17.266
1024.183, 51.597
1025.432, 81.535
1026.680, 24.720
1027.929, 66.784
1029.177, 19.543
1030.425, 4.582
1031.673, 71.611
1032.921, 40.667
1034.169, 6.432
1035.416, 48.724
1036.663, 68.369
1037.911, 17.667
1039.157, 14.393
1040.404, 38.475
1041.650, 75.263
1042.897, 54.207
1044.143, 69.277
1045.389, 60.398
1046.634, 26.381
1047.880, 113.499
1049.125, 42.412
1050.371, 110.250
1051.615, 54.111
1052.860, 42.985
1054.105, 82.788
1055.349, 171.798
1056.593, 113.527
1057.837, 16.616
1059.081, 106.426
1060.325, 76.402
1061.568, 124.317
1062.812, 59.299
1064.055, 10.726
1065.298, 12.331
1066.540, 9.423
1067.783, 13.412
1069.025, 39.520
1070.267, 108.561
1071.509, 47.504
1072.751, 75.474
1073.993, 31.566
1075.234, 56.568
1076.475, 4.366
1077.716, 92.599
1078.957, 66.707
1080.198, 34.823
1081.438, 18.939
1082.679, 26.056
1083.919, 2.825
1085.159, 35.304
1086.398, 108.441
1087.638, 65.579
1088.877, 153.718
1090.116, 59.857
1091.355, 52.997
1092.594, 116.138
1093.833, 84.274
1095.071, 78.270
1096.309, 141.414
1097.547, 94.575
1098.785, 133.737
1100.023, 112.894
1101.260, 142.060
1102.498, 116.229
1103.735, 130.399
1104.972, 206.573
1106.208, 154.748
1107.445, 179.927
1108.681, 198.110
1109.918, 118.312
1111.154, 197.516
1112.389, 162.724
1113.625, 147.934
1114.860, 165.144
1116.096, 109.361
1117.331, 118.571
1118.566, 181.803
1119.800, 144.037
1121.035, 267.274
1122.269, 253.519
1123.503, 137.767
1124.737, 211.970
1125.971, 234.232
1127.205, 236.512
1128.438, 197.808
1129.671, 242.117
1130.904, 207.297
1132.137, 155.683
1133.370, 176.026
1134.602, 167.373
1135.834, 159.748
1137.066, 166.119
1138.298, 183.505
1139.530, 133.897
1140.762, 167.292
1141.993, 107.692
1143.224, 190.096
1144.455, 213.505
1145.686, 160.881
1146.917, 144.312
1148.147, 137.748
1149.377, 106.188
1150.607, 116.637
1151.837, 120.694
1153.067, 163.582
1154.296, 152.069
1155.526, 146.481
1156.755, 159.902
1157.984, 75.417
1159.213, 131.936
1160.441, 85.463
1161.670, 190.996
1162.898, 179.533
1164.126, 123.076
1165.354, 186.633
1166.581, 65.211
1167.809, 53.813
1169.036, 78.420
1170.263, 96.031
1171.490, 64.022
1172.717, 124.642
1173.943, 154.266
1175.170, 52.893
1176.396, 75.524
1177.622, 124.465
1178.848, 129.998
1180.073, 155.641
1181.299, 179.289
1182.524, 120.790
1183.749, 76.445
1184.974, 105.785
1186.199, 100.448
1187.423, 116.125
1188.648, 87.804
1189.872, 59.490
1191.096, 57.179
1192.320, 50.305
1193.543, 116.579
1194.767, 79.292
1195.990, 80.055
1197.213, 132.774
1198.436, 57.498
1199.659, 89.226
1200.881, 104.035
1202.104, 60.771
1203.326, 116.584
1204.548, 58.242
1205.770, 111.624
1206.991, 110.806
1208.213, 123.131
1209.434, 127.921
1210.655, 108.475
1211.876, 107.050
1213.096, 141.858
1214.317, 90.723
1215.537, 115.499
1216.757, 111.388
1217.977, 161.241
1219.197, 121.027
1220.417, 139.815
1221.636, 146.607
1222.855, 175.402
1224.074, 111.216
1225.293, 111.134
1226.512, 114.100
1227.731, 172.958
1228.949, 136.768
1230.167, 149.073
1231.385, 124.516
1232.603, 187.232
1233.820, 112.096
1235.038, 165.051
1236.255, 162.887
1237.472, 142.718
1238.689, 136.664
1239.906, 125.504
1241.122, 143.508
1242.338, 135.646
1243.555, 175.995
1244.771, 146.854
1245.986, 162.777
1247.202, 176.885
1248.417, 138.008
1249.633, 144.474
1250.848, 185.139
1252.063, 131.193
1253.277, 145.249
1254.492, 178.003
1255.706, 191.662
1256.920, 140.745
1258.134, 211.652
1259.348, 199.592
1260.562, 141.602
1261.775, 153.521
1262.988, 154.573
1264.201, 210.501
1265.414, 216.434
1266.627, 129.414
1267.839, 169.354
1269.052, 133.298
1270.264, 235.284
1271.476, 161.236
1272.688, 202.611
1273.899, 211.571
1275.111, 161.612
1276.322, 173.580
1277.533, 124.614
1278.744, 164.589
1279.955, 199.933
1281.165, 240.036
1282.376, 136.028
1283.586, 113.111
1284.796, 158.238
1286.006, 140.235
1287.215, 156.329
1288.425, 104.334
1289.634, 180.386
1290.843, 176.398
1292.052, 147.413
1293.261, 163.431
1294.469, 171.519
1295.678, 119.529
1296.886, 130.421
1298.094, 152.676
1299.302, 99.682
1300.509, 124.689
1301.717, 105.700
1302.924, 96.910
1304.131, 147.713
1305.338, 101.715
1306.545, 120.693
1307.752, 149.657
1308.958, 53.690
1310.164, 121.657
1311.370, 104.624
1312.576, 146.559
1313.782, 91.494
1314.987, 110.425
1316.193, 38.353
1317.398, 63.282
1318.603, 127.165
1319.807, 71.059
1321.012, 97.938
1322.216, 146.803
1323.421, 49.671
1324.625, 77.539
1325.829, 40.403
1327.032, 31.336
1328.236, 39.117
1329.439, 42.969
1330.642, 66.829
1331.845, 82.671
1333.048, 77.759
1334.251, 73.459
1335.453, 64.161
1336.656, 46.980
1337.858, 30.793
1339.060, 34.599
1340.261, 9.398
1341.463, 33.218
1342.664, 28.005
1343.866, 34.785
1345.067, 4.559
1346.267, 36.325
1347.468, 6.085
1348.669, 32.160
1349.869, 21.580
1351.069, 39.318
1352.269, 30.051
1353.469, 18.778
1354.668, 13.498
1355.868, 37.301
1357.067, 18.013
1358.266, 5.723
1359.465, 99.533
1360.664, 17.766
1361.862, 11.926
1363.061, 37.655
1364.259, 136.343
1365.457, 34.035
1366.655, 44.722
1367.852, 15.409
1369.050, 4.093
1370.247, 33.229
1371.444, 20.520
1372.641, 57.204
1373.838, 6.103
1375.035, 40.425
1376.231, 27.966
1377.427, 26.690
1378.623, 5.226
1379.819, 34.229
1381.015, 51.413
1382.211, 11.602
1383.406, 53.794
1384.601, 1.958
1385.796, 55.124
1386.991, 55.712
1388.185, 44.454
1389.380, 28.617
1390.574, 1.744
1391.768, 1.874
1392.962, 0.120
1394.156, 46.126
1395.350, 7.250
1396.543, 8.377
1397.736, 6.496
1398.929, 52.370
1400.122, 8.757
1401.315, 50.885
1402.507, 44.005
1403.700, 29.120
1404.892, 69.234
1406.084, 8.652
1407.276, 107.462
1408.467, 67.576
1409.659, 44.690
1410.850, 57.804
1412.041, 71.918
1413.232, 49.032
1414.423, 74.148
1415.614, 6.265
1416.804, 103.383
1417.994, 42.503
1419.184, 96.625
1420.374, 47.750
1421.564, 64.879
1422.753, 11.012
1423.943, 3.851
1425.132, 64.292
1426.321, 44.440
1427.510, 35.593
1428.698, 92.752
1429.887, 46.918
1431.075, 94.092
1432.263, 60.197
1433.451, 100.385
1434.639, 114.458
1435.827, 67.389
1437.014, 52.538
1438.201, 87.668
1439.388, 41.496
1440.575, 114.447
1441.762, 73.671
1442.949, 123.712
1444.135, 116.893
1445.321, 162.961
1446.507, 149.540
1447.693, 93.929
1448.879, 106.968
1450.064, 108.206
1451.250, 50.935
1452.435, 123.715
1453.620, 102.379
1454.805, 85.356
1455.989, 184.054
1457.174, 81.785
1458.358, 105.726
1459.542, 116.705
1460.726, 91.690
1461.910, 52.734
1463.093, 99.871
1464.277, 78.487
1465.460, 95.790
1466.643, 56.938
1467.826, 64.061
1469.009, 69.817
1470.191, 59.997
1471.373, 86.863
1472.556, 105.793
1473.738, 102.360
1474.919, 93.413
1476.101, 139.765
1477.283, 64.168
1478.464, 81.617
1479.645, 141.742
1480.826, 160.643
1482.007, 106.922
1483.187, 43.114
1484.368, 54.245
1485.548, 78.417
1486.728, 134.419
1487.908, 72.583
1489.088, 49.914
1490.268, 75.197
1491.447, 112.623
1492.626, 138.139
1493.805, 69.768
1494.984, 131.340
1496.163, 154.913
1497.341, 27.473
1498.520, 72.217
1499.698, 113.004
1500.876, 22.832
1502.054, 77.747
1503.232, 74.541
1504.409, 40.638
1505.586, 86.864
1506.763, 50.220
1507.940, 84.704
1509.117, 107.337
1510.294, 71.108
1511.470, 58.526
1512.647, 39.477
1513.823, 56.953
1514.999, 58.122
1516.174, 86.633
1517.350, 1.758
1518.526, 92.758
1519.701, 13.111
1520.876, 0.000
##END=



