##NAMES=Hausmannite
##RRUFFID=R040091
##IDEAL CHEMISTRY=Mn^2+^Mn^3+^_2_O_4_
##LOCALITY=Germany
##OWNER=RRUFF
##SOURCE=University of Arizona Mineral Museum
##DESCRIPTION=Mass of black octahedral crystals
##STATUS=The identification of this mineral has been confirmed by X-ray diffraction and chemical analysis
##URL=rruff.info/R040091
##MEASURED CHEMISTRY=(Mn^2+^_0.96_Zn_0.02_Mg_0.02_)Mn^3+^_2.00_O_4_
##PIN_ID=S00198
##ORIENTATION=Laser parallel to c* (0 0 1). Fiducial mark perpendicular to laser is parallel to a [1 0 0]
200.717, 0.000
202.093, 32.779
203.470, 50.671
204.846, 43.093
206.221, 91.003
207.597, 2.237
208.972, 59.629
210.347, 72.142
211.722, 40.935
213.097, 36.274
214.472, 64.383
215.846, 71.653
217.220, 71.949
218.594, 37.342
219.967, 70.105
221.341, 36.642
222.714, 18.317
224.087, 40.368
225.460, 76.621
226.832, 130.144
228.204, 47.581
229.577, 96.585
230.948, 44.521
232.320, 110.216
233.692, 102.854
235.063, 32.526
236.434, 68.578
237.805, 55.236
239.175, 15.882
240.545, 43.505
241.916, 41.101
243.286, 17.669
244.655, 57.209
246.025, 2.278
247.394, 19.239
248.763, 13.137
250.132, 41.612
251.501, 30.384
252.869, 11.244
254.237, 12.245
255.605, 22.386
256.973, 10.801
258.340, 9.686
259.708, 13.642
261.075, 84.407
262.442, 59.877
263.808, 66.299
265.175, 114.623
266.541, 89.839
267.907, 168.946
269.273, 90.950
270.639, 71.855
272.004, 102.665
273.369, 136.395
274.734, 202.045
276.099, 176.619
277.463, 232.117
278.828, 271.548
280.192, 222.910
281.556, 251.208
282.919, 196.462
284.283, 259.716
285.646, 169.963
287.009, 161.191
288.372, 210.405
289.734, 213.612
291.097, 183.792
292.459, 204.512
293.821, 206.599
295.183, 207.694
296.544, 261.309
297.905, 283.515
299.266, 356.173
300.627, 403.410
301.988, 422.385
303.348, 449.172
304.709, 544.520
306.069, 576.153
307.428, 601.996
308.788, 617.952
310.147, 644.653
311.507, 518.540
312.865, 532.812
314.224, 516.060
315.583, 530.266
316.941, 453.082
318.299, 425.408
319.657, 374.223
321.015, 310.245
322.372, 247.234
323.729, 260.854
325.086, 269.483
326.443, 234.429
327.800, 287.621
329.156, 179.085
330.512, 199.727
331.868, 188.425
333.224, 215.052
334.579, 191.667
335.935, 195.346
337.290, 206.939
338.645, 176.521
339.999, 192.416
341.354, 206.645
342.708, 224.235
344.062, 236.594
345.416, 248.769
346.769, 263.512
348.123, 270.209
349.476, 286.908
350.829, 299.535
352.182, 312.090
353.534, 332.969
354.887, 349.230
356.239, 370.071
357.591, 382.532
358.942, 391.135
360.294, 393.638
361.645, 390.370
362.996, 386.046
364.347, 381.506
365.698, 377.823
367.048, 387.038
368.398, 398.208
369.748, 344.236
371.098, 290.732
372.448, 331.683
373.797, 221.569
375.146, 281.486
376.495, 213.239
377.844, 117.972
379.192, 131.656
380.540, 130.304
381.889, 83.850
383.236, 78.408
384.584, 59.852
385.932, 41.149
387.279, 66.484
388.626, 40.843
389.973, 9.169
391.319, 33.644
392.666, 3.577
394.012, 20.626
395.358, 54.804
396.704, 65.968
398.049, 26.908
399.394, 27.996
400.740, 5.014
402.084, 10.754
403.429, 21.691
404.774, 2.604
406.118, 23.676
407.462, 15.265
408.806, 7.573
410.150, 12.113
411.493, 34.429
412.836, 20.371
414.179, 17.093
415.522, 10.610
416.865, 37.879
418.207, 35.290
419.549, 31.863
420.891, 36.373
422.233, 4.982
423.575, 5.206
424.916, 37.555
426.257, 9.089
427.598, 29.191
428.939, 17.503
430.279, 26.819
431.619, 19.834
432.959, 22.610
434.299, 18.007
435.639, 57.610
436.978, 4.200
438.318, 0.776
439.657, 27.337
440.996, 13.115
442.334, 45.417
443.673, 41.936
445.011, 13.444
446.349, 24.061
447.687, 59.415
449.024, 83.880
450.361, 67.334
451.699, 44.776
453.036, 56.208
454.372, 40.627
455.709, 12.030
457.045, 103.417
458.381, 105.767
459.717, 84.097
461.053, 107.415
462.388, 94.718
463.724, 121.003
465.059, 116.271
466.394, 103.260
467.728, 115.728
469.063, 77.916
470.397, 115.090
471.731, 123.217
473.065, 101.301
474.398, 123.365
475.732, 100.400
477.065, 98.414
478.398, 97.404
479.731, 102.376
481.063, 101.338
482.396, 76.291
483.728, 12.229
485.060, 126.158
486.391, 58.071
487.723, 49.978
489.054, 116.879
490.385, 57.772
491.716, 34.661
493.047, 83.545
494.377, 29.426
495.708, 92.303
497.038, 40.175
498.368, 79.047
499.697, 61.916
501.027, 66.782
502.356, 42.645
503.685, 71.514
505.014, 51.379
506.342, 41.239
507.671, 38.094
508.999, 33.951
510.327, 54.802
511.655, 93.654
512.982, 86.502
514.310, 17.348
515.637, 75.189
516.964, 36.027
518.291, 20.860
519.617, 38.690
520.944, 62.516
522.270, 27.340
523.596, 5.161
524.921, 72.969
526.247, 134.769
527.572, 41.559
528.897, 107.339
530.222, 89.109
531.547, 58.888
532.871, 107.659
534.196, 40.425
535.520, 162.191
536.844, 91.948
538.167, 139.692
539.491, 85.433
540.814, 134.185
542.137, 139.783
543.460, 115.358
544.783, 101.850
546.105, 119.245
547.427, 179.753
548.749, 181.144
550.071, 201.175
551.393, 149.704
552.714, 155.551
554.035, 162.752
555.356, 185.188
556.677, 174.674
557.998, 260.940
559.318, 182.213
560.638, 260.157
561.958, 230.234
563.278, 245.455
564.597, 227.314
565.917, 238.541
567.236, 244.693
568.555, 232.454
569.874, 173.081
571.192, 221.709
572.511, 179.940
573.829, 184.143
575.147, 185.271
576.464, 173.716
577.782, 143.332
579.099, 155.173
580.416, 165.774
581.733, 133.355
583.050, 163.931
584.366, 124.486
585.683, 181.635
586.999, 186.735
588.315, 167.970
589.630, 141.239
590.946, 153.495
592.261, 191.055
593.576, 189.304
594.891, 214.764
596.206, 163.886
597.520, 217.951
598.834, 218.294
600.148, 260.532
601.462, 311.950
602.776, 270.354
604.089, 317.592
605.402, 295.191
606.715, 326.668
608.028, 336.248
609.341, 364.759
610.653, 439.176
611.965, 435.640
613.277, 481.598
614.589, 526.835
615.901, 551.923
617.212, 596.560
618.523, 660.144
619.834, 656.819
621.145, 751.450
622.456, 837.082
623.766, 858.713
625.076, 903.343
626.386, 1056.973
627.696, 1220.540
629.006, 1279.174
630.315, 1412.801
631.624, 1640.429
632.933, 1784.055
634.242, 2010.763
635.551, 2239.390
636.859, 2515.017
638.167, 2938.644
639.475, 3385.271
640.783, 3639.856
642.090, 4163.177
643.398, 4597.805
644.705, 5088.324
646.012, 5549.810
647.318, 5948.439
648.625, 6278.966
649.931, 6386.398
651.237, 6464.029
652.543, 6171.447
653.849, 6049.078
655.155, 5502.348
656.460, 5047.981
657.765, 4841.708
659.070, 4211.334
660.375, 3678.296
661.679, 3469.912
662.984, 2950.447
664.288, 2572.941
665.592, 2348.501
666.895, 2056.977
668.199, 1794.293
669.502, 1629.022
670.805, 1476.745
672.108, 1273.260
673.411, 1240.912
674.713, 1021.407
676.016, 992.841
677.318, 884.354
678.620, 873.368
679.921, 724.950
681.223, 717.378
682.524, 628.599
683.825, 594.330
685.126, 579.903
686.427, 576.572
687.727, 467.916
689.028, 526.668
690.328, 439.253
691.628, 439.783
692.927, 398.490
694.227, 431.128
695.526, 341.777
696.825, 329.892
698.124, 337.618
699.423, 321.917
700.721, 291.571
702.020, 248.225
703.318, 263.956
704.616, 286.326
705.913, 283.992
707.211, 305.659
708.508, 309.897
709.805, 257.062
711.102, 311.750
712.399, 258.171
713.695, 232.696
714.992, 322.387
716.288, 173.123
717.584, 287.818
718.879, 213.707
720.175, 212.414
721.470, 185.194
722.765, 213.285
724.060, 234.006
725.355, 153.855
726.649, 212.583
727.944, 203.177
729.238, 176.936
730.532, 259.680
731.825, 195.424
733.119, 249.292
734.412, 252.062
735.705, 236.467
736.998, 173.263
738.291, 193.142
739.584, 190.945
740.876, 176.784
742.168, 179.801
743.460, 212.649
744.752, 209.477
746.043, 219.328
747.334, 183.260
748.626, 158.105
749.916, 171.641
751.207, 174.361
752.498, 127.213
753.788, 208.501
755.078, 163.511
756.368, 159.369
757.658, 236.252
758.947, 115.231
760.237, 129.088
761.526, 150.953
762.815, 161.816
764.104, 195.679
765.392, 146.542
766.680, 154.402
767.969, 122.269
769.257, 231.129
770.544, 218.989
771.832, 110.847
773.119, 118.703
774.406, 15.558
775.693, 76.411
776.980, 129.262
778.267, 135.112
779.553, 120.959
780.839, 85.805
782.125, 140.651
783.411, 25.496
784.697, 148.338
785.982, 127.179
787.267, 182.017
788.552, 8.854
789.837, 74.688
791.122, 72.520
792.406, 94.350
793.690, 58.177
794.974, 74.003
796.258, 142.827
797.542, 119.651
798.825, 131.393
800.108, 79.291
801.391, 82.109
802.674, 119.924
803.957, 44.738
805.239, 71.550
806.522, 62.360
807.804, 101.168
809.085, 15.025
810.367, 32.771
811.649, 0.434
812.930, 25.357
814.211, 40.855
815.492, 121.909
816.772, 57.672
818.053, 73.432
819.333, 17.811
820.613, 33.936
821.893, 12.320
823.173, 13.415
824.452, 15.146
825.732, 11.873
827.011, 32.599
828.290, 59.321
829.568, 42.041
830.847, 46.178
832.125, 4.525
833.403, 11.184
834.681, 26.890
835.959, 7.406
837.236, 16.289
838.514, 31.046
839.791, 31.830
841.068, 56.485
842.345, 8.166
843.621, 12.188
844.898, 28.505
846.174, 24.109
847.450, 76.765
848.726, 51.000
850.001, 66.283
851.277, 25.280
852.552, 21.161
853.827, 49.052
855.102, 71.590
856.376, 27.240
857.651, 20.529
858.925, 68.983
860.199, 58.491
861.473, 65.055
862.746, 38.514
864.020, 76.303
865.293, 20.169
866.566, 21.696
867.839, 65.758
869.112, 37.208
870.384, 95.654
871.656, 10.038
872.928, 72.389
874.200, 32.835
875.472, 12.727
876.744, 89.676
878.015, 21.074
879.286, 68.514
880.557, 4.097
881.828, 46.280
883.098, 65.653
884.369, 53.021
885.639, 24.405
886.909, 107.765
888.178, 15.881
889.448, 109.823
890.717, 32.155
891.987, 51.481
893.256, 45.803
894.524, 10.124
895.793, 46.443
897.061, 93.757
898.330, 48.066
899.598, 6.629
900.865, 63.660
902.133, 0.055
903.401, 2.936
904.668, 114.483
905.935, 11.261
907.202, 14.978
908.468, 80.267
909.735, 46.496
911.001, 23.718
912.267, 87.935
913.533, 82.147
914.799, 72.360
916.064, 64.585
917.330, 62.799
918.595, 57.991
919.860, 51.179
921.124, 61.360
922.389, 65.537
923.653, 64.767
924.918, 65.411
926.182, 70.040
927.445, 56.156
928.709, 63.308
929.972, 55.456
931.236, 105.598
932.499, 104.735
933.761, 109.235
935.024, 77.362
936.286, 93.477
937.549, 91.088
938.811, 116.707
940.073, 117.815
941.334, 111.837
942.596, 150.935
943.857, 123.811
945.118, 98.116
946.379, 103.199
947.640, 101.277
948.900, 114.351
950.161, 60.419
951.421, 97.484
952.681, 101.542
953.940, 95.597
955.200, 124.646
956.459, 122.690
957.719, 56.730
958.978, 54.765
960.236, 106.795
961.495, 141.019
962.753, 146.038
964.012, 154.104
965.270, 108.869
966.527, 121.404
967.785, 152.406
969.043, 127.402
970.300, 160.395
971.557, 94.308
972.814, 95.285
974.071, 97.507
975.327, 73.387
976.583, 91.269
977.840, 89.132
979.095, 106.076
980.351, 142.034
981.607, 91.986
982.862, 81.935
984.117, 144.479
985.372, 47.306
986.627, 133.193
987.882, 131.540
989.136, 29.373
990.390, 22.262
991.644, 45.147
992.898, 50.355
994.152, 59.132
995.405, 29.090
996.659, 94.011
997.912, 27.839
999.165, 35.267
1000.417, 11.601
1001.670, 78.000
1002.922, 55.782
1004.174, 7.012
1005.426, 70.835
1006.678, 4.678
1007.930, 23.556
1009.181, 48.558
1010.432, 96.375
1011.683, 1.190
1012.934, 66.000
1014.185, 1.769
1015.435, 21.571
1016.685, 37.648
1017.935, 53.619
1019.185, 102.422
1020.435, 63.178
1021.684, 29.024
1022.934, 67.571
1024.183, 19.349
1025.432, 20.051
1026.680, 26.452
1027.929, 26.222
1029.177, 11.867
1030.425, 64.631
1031.673, 39.542
1032.921, 39.285
1034.169, 63.043
1035.416, 16.798
1036.663, 25.823
1037.911, 24.466
1039.157, 6.646
1040.404, 61.110
1041.650, 94.785
1042.897, 68.548
1044.143, 36.249
1045.389, 55.614
1046.634, 72.382
1047.880, 102.136
1049.125, 92.882
1050.371, 86.545
1051.615, 33.302
1052.860, 65.377
1054.105, 18.745
1055.349, 60.995
1056.593, 49.299
1057.837, 1.930
1059.081, 57.668
1060.325, 49.379
1061.568, 59.993
1062.812, 30.726
1064.055, 13.457
1065.298, 9.187
1066.540, 10.602
1067.783, 52.642
1069.025, 36.367
1070.267, 32.084
1071.509, 44.805
1072.751, 21.525
1073.993, 28.694
1075.234, 77.960
1076.475, 27.676
1077.716, 77.391
1078.957, 84.104
1080.198, 74.823
1081.438, 35.539
1082.679, 8.745
1083.919, 65.976
1085.159, 57.697
1086.398, 95.424
1087.638, 95.150
1088.877, 58.876
1090.116, 117.601
1091.355, 87.325
1092.594, 122.049
1093.833, 40.771
1095.071, 67.494
1096.309, 22.217
1097.547, 128.938
1098.785, 57.659
1100.023, 76.379
1101.260, 143.099
1102.498, 51.817
1103.735, 51.535
1104.972, 61.251
1106.208, 106.968
1107.445, 87.683
1108.681, 19.396
1109.918, 85.110
1111.154, 132.827
1112.389, 135.543
1113.625, 56.265
1114.860, 97.985
1116.096, 77.716
1117.331, 143.446
1118.566, 153.176
1119.800, 73.906
1121.035, 121.650
1122.269, 109.395
1123.503, 170.143
1124.737, 172.890
1125.971, 124.638
1127.205, 196.387
1128.438, 54.135
1129.671, 130.883
1130.904, 82.630
1132.137, 110.376
1133.370, 69.125
1134.602, 108.874
1135.834, 67.622
1137.066, 162.373
1138.298, 83.065
1139.530, 129.728
1140.762, 115.484
1141.993, 29.257
1143.224, 96.030
1144.455, 71.758
1145.686, 114.542
1146.917, 161.282
1148.147, 100.438
1149.377, 86.109
1150.607, 31.911
1151.837, 117.712
1153.067, 135.848
1154.296, 72.656
1155.526, 45.349
1156.755, 84.459
1157.984, 48.274
1159.213, 54.098
1160.441, 48.743
1161.670, 23.558
1162.898, 73.231
1164.126, 61.437
1165.354, 113.258
1166.581, 83.087
1167.809, 42.915
1169.036, 31.810
1170.263, 48.878
1171.490, 70.809
1172.717, 108.714
1173.943, 70.548
1175.170, 117.430
1176.396, 20.268
1177.622, 74.175
1178.848, 37.013
1180.073, 105.960
1181.299, 47.963
1182.524, 47.803
1183.749, 40.247
1184.974, 66.085
1186.199, 66.282
1187.423, 47.315
1188.648, 57.610
1189.872, 16.161
1191.096, 21.996
1192.320, 19.117
1193.543, 4.752
1194.767, 18.577
1195.990, 20.062
1197.213, 36.911
1198.436, 64.816
1199.659, 11.641
1200.881, 69.467
1202.104, 32.294
1203.326, 128.254
1204.548, 2.608
1205.770, 126.383
1206.991, 29.334
1208.213, 109.165
1209.434, 59.040
1210.655, 68.870
1211.876, 70.691
1213.096, 52.495
1214.317, 95.462
1215.537, 62.287
1216.757, 73.118
1217.977, 73.940
1219.197, 74.509
1220.417, 85.862
1221.636, 95.400
1222.855, 99.218
1224.074, 110.073
1225.293, 105.969
1226.512, 125.288
1227.731, 109.178
1228.949, 123.037
1230.167, 111.969
1231.385, 127.891
1232.603, 169.593
1233.820, 104.611
1235.038, 193.548
1236.255, 129.397
1237.472, 265.333
1238.689, 87.144
1239.906, 67.156
1241.122, 137.388
1242.338, 80.202
1243.555, 110.122
1244.771, 107.029
1245.986, 90.981
1247.202, 151.860
1248.417, 146.714
1249.633, 112.707
1250.848, 111.524
1252.063, 120.387
1253.277, 88.206
1254.492, 161.025
1255.706, 95.996
1256.920, 166.894
1258.134, 107.714
1259.348, 112.685
1260.562, 134.529
1261.775, 106.489
1262.988, 147.189
1264.201, 124.275
1265.414, 79.098
1266.627, 143.522
1267.839, 142.345
1269.052, 65.414
1270.264, 108.238
1271.476, 155.062
1272.688, 150.218
1273.899, 161.029
1275.111, 99.907
1276.322, 95.717
1277.533, 117.527
1278.744, 72.396
1279.955, 173.289
1281.165, 120.185
1282.376, 90.993
1283.586, 139.477
1284.796, 90.264
1286.006, 110.048
1287.215, 76.823
1288.425, 72.654
1289.634, 88.412
1290.843, 124.168
1292.052, 74.925
1293.261, 117.677
1294.469, 58.438
1295.678, 62.199
1296.886, 134.960
1298.094, 87.719
1299.302, 99.481
1300.509, 63.282
1301.717, 38.251
1302.924, 126.811
1304.131, 37.566
1305.338, 40.320
1306.545, 160.052
1307.752, 77.765
1308.958, 35.524
1310.164, 152.174
1311.370, 66.892
1312.576, 70.581
1313.782, 25.265
1314.987, 15.947
1316.193, 18.108
1317.398, 18.876
1318.603, 36.995
1319.807, 31.671
1321.012, 58.603
1322.216, 14.810
1323.421, 117.680
1324.625, 17.300
1325.829, 4.914
1327.032, 64.518
1328.236, 37.882
1329.439, 64.702
1330.642, 1.719
1331.845, 41.851
1333.048, 74.397
1334.251, 39.062
1335.453, 76.462
1336.656, 22.019
1337.858, 56.726
1339.060, 52.203
1340.261, 23.293
1341.463, 37.197
1342.664, 24.681
1343.866, 53.160
1345.067, 49.623
1346.267, 79.091
1347.468, 12.560
1348.669, 4.978
1349.869, 56.428
1351.069, 15.879
1352.269, 60.322
1353.469, 33.762
1354.668, 112.492
1355.868, 70.824
1357.067, 82.711
1358.266, 7.490
1359.465, 80.916
1360.664, 43.341
1361.862, 61.766
1363.061, 62.191
1364.259, 114.617
1365.457, 83.466
1366.655, 69.475
1367.852, 36.910
1369.050, 10.351
1370.247, 19.120
1371.444, 28.330
1372.641, 35.830
1373.838, 35.695
1375.035, 20.789
1376.231, 25.821
1377.427, 5.682
1378.623, 18.904
1379.819, 58.861
1381.015, 10.723
1382.211, 82.583
1383.406, 7.440
1384.601, 1.704
1385.796, 66.150
1386.991, 25.003
1388.185, 28.855
1389.380, 18.708
1390.574, 36.559
1391.768, 43.169
1392.962, 13.244
1394.156, 79.082
1395.350, 42.905
1396.543, 71.716
1397.736, 99.523
1398.929, 18.328
1400.122, 36.130
1401.315, 61.933
1402.507, 11.268
1403.700, 50.522
1404.892, 52.303
1406.084, 62.084
1407.276, 7.864
1408.467, 59.644
1409.659, 33.576
1410.850, 99.204
1412.041, 10.983
1413.232, 82.759
1414.423, 60.527
1415.614, 5.308
1416.804, 94.812
1417.994, 41.557
1419.184, 66.063
1420.374, 78.537
1421.564, 44.187
1422.753, 38.762
1423.943, 38.348
1425.132, 104.851
1426.321, 20.304
1427.510, 85.840
1428.698, 50.410
1429.887, 52.920
1431.075, 39.589
1432.263, 66.589
1433.451, 67.104
1434.639, 100.748
1435.827, 72.323
1437.014, 79.763
1438.201, 97.583
1439.388, 79.270
1440.575, 111.344
1441.762, 81.981
1442.949, 45.638
1444.135, 77.300
1445.321, 88.898
1446.507, 65.591
1447.693, 97.987
1448.879, 106.570
1450.064, 101.973
1451.250, 106.196
1452.435, 59.316
1453.620, 41.465
1454.805, 87.638
1455.989, 120.522
1457.174, 119.650
1458.358, 59.584
1459.542, 129.784
1460.726, 147.708
1461.910, 103.770
1463.093, 149.160
1464.277, 49.254
1465.460, 37.697
1466.643, 90.075
1467.826, 74.314
1469.009, 104.249
1470.191, 163.900
1471.373, 129.694
1472.556, 139.030
1473.738, 80.471
1474.919, 85.476
1476.101, 95.733
1477.283, 86.208
1478.464, 99.953
1479.645, 92.119
1480.826, 107.058
1482.007, 85.569
1483.187, 71.865
1484.368, 78.269
1485.548, 37.730
1486.728, 190.352
1487.908, 82.845
1489.088, 123.424
1490.268, 132.965
1491.447, 62.462
1492.626, 212.968
1493.805, 100.302
1494.984, 92.105
1496.163, 96.962
1497.341, 68.836
1498.520, 78.879
1499.698, 157.104
1500.876, 45.395
1502.054, 136.764
1503.232, 76.253
1504.409, 88.870
1505.586, 108.632
1506.763, 92.574
1507.940, 59.755
1509.117, 198.192
1510.294, 62.918
1511.470, 28.960
1512.647, 157.387
1513.823, 45.287
1514.999, 104.778
1516.174, 203.003
1517.350, 2.645
1518.526, 159.776
1519.701, 100.528
1520.876, 0.000
##END=



