##NAMES=Hausmannite
##RRUFFID=R040091
##IDEAL CHEMISTRY=Mn^2+^Mn^3+^_2_O_4_
##LOCALITY=Germany
##OWNER=RRUFF
##SOURCE=University of Arizona Mineral Museum
##DESCRIPTION=Mass of black octahedral crystals
##STATUS=The identification of this mineral has been confirmed by X-ray diffraction and chemical analysis
##URL=rruff.info/R040091
##MEASURED CHEMISTRY=(Mn^2+^_0.96_Zn_0.02_Mg_0.02_)Mn^3+^_2.00_O_4_
##PIN_ID=S00198
##ORIENTATION=Laser parallel to c* (0 0 1). Fiducial mark perpendicular to laser is parallel to a [1 0 0]
200.717, 0.000
202.093, 81.882
203.470, 81.679
204.846, 87.157
206.221, 197.214
207.597, 89.761
208.972, 1.278
210.347, 21.448
211.722, 6.537
213.097, 141.263
214.472, 143.650
215.846, 154.235
217.220, 235.799
218.594, 134.383
219.967, 151.254
221.341, 141.100
222.714, 53.908
224.087, 118.909
225.460, 84.393
226.832, 92.303
228.204, 187.483
229.577, 140.804
230.948, 78.577
232.320, 159.248
233.692, 287.118
235.063, 188.291
236.434, 220.367
237.805, 147.835
239.175, 85.053
240.545, 201.470
241.916, 241.082
243.286, 139.467
244.655, 158.047
246.025, 220.209
247.394, 137.974
248.763, 94.989
250.132, 89.833
251.501, 80.965
252.869, 59.764
254.237, 98.067
255.605, 60.880
256.973, 33.849
258.340, 183.263
259.708, 56.655
261.075, 26.281
262.442, 29.335
263.808, 9.743
265.175, 24.238
266.541, 16.678
267.907, 67.148
269.273, 102.275
270.639, 94.798
272.004, 181.125
273.369, 217.384
274.734, 182.287
276.099, 210.297
277.463, 202.184
278.828, 187.038
280.192, 207.480
281.556, 156.961
282.919, 217.902
284.283, 231.050
285.646, 218.391
287.009, 219.098
288.372, 122.354
289.734, 116.992
291.097, 106.275
292.459, 82.528
293.821, 136.325
295.183, 145.841
296.544, 188.258
297.905, 241.603
299.266, 331.589
300.627, 365.258
301.988, 428.625
303.348, 390.105
304.709, 484.379
306.069, 497.774
307.428, 482.330
308.788, 559.116
310.147, 542.097
311.507, 464.790
312.865, 463.999
314.224, 411.625
315.583, 416.600
316.941, 265.244
318.299, 223.520
319.657, 100.995
321.015, 182.912
322.372, 114.856
323.729, 203.741
325.086, 241.591
326.443, 101.406
327.800, 87.176
329.156, 104.899
330.512, 13.582
331.868, 2.232
333.224, 67.854
334.579, 74.450
335.935, 83.020
337.290, 135.565
338.645, 118.085
339.999, 82.581
341.354, 77.042
342.708, 50.541
344.062, 15.165
345.416, 81.174
346.769, 23.467
348.123, 106.694
349.476, 120.868
350.829, 169.001
352.182, 196.099
353.534, 183.138
354.887, 211.095
356.239, 253.013
357.591, 260.404
358.942, 287.774
360.294, 307.626
361.645, 356.464
362.996, 382.184
364.347, 400.318
365.698, 410.867
367.048, 413.922
368.398, 409.470
369.748, 308.529
371.098, 238.249
372.448, 226.058
373.797, 207.680
375.146, 186.702
376.495, 164.042
377.844, 183.029
379.192, 84.661
380.540, 55.067
381.889, 70.934
383.236, 24.513
384.584, 53.214
385.932, 50.280
387.279, 21.057
388.626, 43.155
389.973, 9.852
391.319, 13.049
392.666, 30.456
394.012, 10.270
395.358, 63.873
396.704, 54.727
398.049, 87.153
399.394, 54.584
400.740, 92.509
402.084, 6.147
403.429, 10.029
404.774, 13.290
406.118, 41.955
407.462, 39.704
408.806, 31.384
410.150, 25.062
411.493, 5.049
412.836, 20.919
414.179, 24.626
415.522, 50.985
416.865, 75.207
418.207, 237.331
419.549, 134.041
420.891, 189.335
422.233, 231.443
423.575, 147.819
424.916, 131.138
426.257, 135.650
427.598, 146.840
428.939, 195.597
430.279, 144.484
431.619, 243.728
432.959, 95.872
434.299, 152.505
435.639, 109.178
436.978, 85.660
438.318, 54.454
439.657, 252.198
440.996, 272.632
442.334, 213.138
443.673, 280.426
445.011, 253.960
446.349, 268.540
447.687, 385.057
449.024, 297.561
450.361, 338.556
451.699, 325.492
453.036, 355.318
454.372, 352.921
455.709, 279.875
457.045, 354.841
458.381, 330.939
459.717, 330.201
461.053, 231.706
462.388, 291.207
463.724, 270.797
465.059, 314.274
466.394, 388.811
467.728, 366.326
469.063, 449.824
470.397, 408.299
471.731, 392.762
473.065, 336.211
474.398, 383.649
475.732, 365.075
477.065, 373.489
478.398, 386.378
479.731, 422.091
481.063, 453.078
482.396, 545.659
483.728, 533.824
485.060, 578.461
486.391, 604.262
487.723, 555.354
489.054, 650.342
490.385, 527.492
491.716, 600.203
493.047, 605.375
494.377, 557.255
495.708, 628.217
497.038, 640.271
498.368, 619.716
499.697, 502.097
501.027, 621.217
502.356, 571.305
503.685, 686.626
505.014, 683.219
506.342, 714.384
507.671, 757.863
508.999, 779.091
510.327, 773.785
511.655, 795.380
512.982, 792.256
514.310, 790.015
515.637, 768.908
516.964, 734.985
518.291, 779.357
519.617, 712.344
520.944, 886.677
522.270, 919.046
523.596, 1023.416
524.921, 1322.767
526.247, 1437.096
527.572, 1540.403
528.897, 1528.679
530.222, 1396.906
531.547, 1028.806
532.871, 1066.626
534.196, 1059.342
535.520, 1121.946
536.844, 1010.436
538.167, 1106.987
539.491, 955.113
540.814, 944.044
542.137, 853.098
543.460, 1119.760
544.783, 857.697
546.105, 1067.556
547.427, 1031.534
548.749, 1115.318
550.071, 1079.027
551.393, 1155.544
552.714, 1170.000
554.035, 1200.494
555.356, 1375.908
556.677, 1456.924
557.998, 1186.935
559.318, 1538.021
560.638, 1355.762
561.958, 1308.923
563.278, 1640.475
564.597, 1797.061
565.917, 2034.912
567.236, 2184.755
568.555, 1964.540
569.874, 2060.338
571.192, 2093.883
572.511, 1837.672
573.829, 1991.478
575.147, 1754.458
576.464, 1204.548
577.782, 980.375
579.099, 862.787
580.416, 800.438
581.733, 806.279
583.050, 580.790
584.366, 423.273
585.683, 397.809
586.999, 249.411
588.315, 187.239
589.630, 135.867
590.946, 50.869
592.261, 5.317
593.576, 77.011
594.891, 30.543
596.206, 15.011
597.520, 15.690
598.834, 126.333
600.148, 142.357
601.462, 112.367
602.776, 43.396
604.089, 106.456
605.402, 154.488
606.715, 156.521
608.028, 227.558
609.341, 202.599
610.653, 248.645
611.965, 375.719
613.277, 387.012
614.589, 468.158
615.901, 489.334
617.212, 521.400
618.523, 596.469
619.834, 610.539
621.145, 729.671
622.456, 819.748
623.766, 834.827
625.076, 1012.606
626.386, 1116.305
627.696, 1311.574
629.006, 1466.100
630.315, 1677.198
631.624, 1865.462
632.933, 2025.552
634.242, 2417.695
635.551, 2630.914
636.859, 3015.094
638.167, 3550.419
639.475, 4149.618
640.783, 4517.031
642.090, 5193.315
643.398, 5785.641
644.705, 6417.010
646.012, 7168.358
647.318, 7679.698
648.625, 7971.045
649.931, 8112.470
651.237, 8283.693
652.543, 7867.601
653.849, 7690.202
655.155, 7086.543
656.460, 6508.637
657.765, 5990.304
659.070, 5461.601
660.375, 4761.959
661.679, 4135.202
662.984, 3663.458
664.288, 3260.854
665.592, 2875.978
666.895, 2552.599
668.199, 2310.096
669.502, 2093.318
670.805, 1849.795
672.108, 1605.136
673.411, 1438.482
674.713, 1259.088
676.016, 1131.372
677.318, 1042.870
678.620, 947.428
679.921, 900.025
681.223, 818.005
682.524, 747.360
683.825, 697.987
685.126, 608.665
686.427, 571.178
687.727, 528.555
689.028, 519.872
690.328, 410.184
691.628, 429.600
692.927, 350.151
694.227, 483.239
695.526, 348.358
696.825, 448.220
698.124, 364.701
699.423, 303.167
700.721, 252.548
702.020, 253.861
703.318, 300.298
704.616, 260.657
705.913, 310.008
707.211, 268.445
708.508, 287.937
709.805, 313.520
711.102, 295.169
712.399, 224.874
713.695, 185.352
714.992, 176.952
716.288, 174.488
717.584, 188.112
718.879, 155.835
720.175, 229.532
721.470, 234.463
722.765, 259.299
724.060, 135.051
725.355, 135.689
726.649, 125.222
727.944, 154.096
729.238, 78.632
730.532, 186.321
731.825, 93.865
733.119, 231.509
734.412, 181.344
735.705, 173.341
736.998, 175.014
738.291, 145.890
739.584, 118.431
740.876, 115.441
742.168, 109.852
743.460, 102.043
744.752, 132.576
746.043, 140.188
747.334, 170.997
748.626, 161.619
749.916, 154.952
751.207, 186.752
752.498, 85.051
753.788, 53.588
755.078, 83.103
756.368, 101.613
757.658, 99.208
758.947, 48.892
760.237, 120.387
761.526, 180.001
762.815, 57.712
764.104, 115.453
765.392, 107.126
766.680, 53.599
767.969, 3.157
769.257, 39.615
770.544, 34.271
771.832, 72.716
773.119, 88.154
774.406, 98.668
775.693, 49.345
776.980, 140.487
778.267, 134.229
779.553, 12.044
780.839, 30.465
782.125, 22.909
783.411, 4.510
784.697, 65.843
785.982, 27.470
787.267, 123.808
788.552, 58.138
789.837, 40.746
791.122, 52.064
792.406, 20.150
793.690, 52.527
794.974, 2.814
796.258, 36.090
797.542, 27.356
798.825, 18.613
800.108, 25.859
801.391, 30.193
802.674, 30.570
803.957, 15.571
805.239, 68.248
806.522, 40.550
807.804, 18.380
809.085, 78.233
810.367, 8.140
811.649, 0.936
812.930, 61.998
814.211, 49.241
815.492, 144.351
816.772, 146.383
818.053, 53.528
819.333, 22.461
820.613, 6.521
821.893, 34.491
823.173, 54.551
824.452, 41.362
825.732, 23.738
827.011, 75.134
828.290, 11.996
829.568, 90.844
830.847, 39.728
832.125, 25.618
833.403, 16.430
834.681, 74.771
835.959, 68.030
837.236, 46.343
838.514, 9.673
839.791, 36.946
841.068, 69.554
842.345, 84.148
843.621, 85.796
844.898, 61.550
846.174, 5.890
847.450, 14.173
848.726, 14.344
850.001, 25.862
851.277, 35.416
852.552, 54.991
853.827, 76.494
855.102, 108.119
856.376, 69.633
857.651, 98.875
858.925, 110.946
860.199, 84.941
861.473, 73.189
862.746, 55.229
864.020, 40.520
865.293, 32.795
866.566, 91.693
867.839, 69.544
869.112, 89.599
870.384, 80.360
871.656, 58.644
872.928, 65.931
874.200, 31.681
875.472, 34.451
876.744, 55.706
878.015, 58.195
879.286, 132.847
880.557, 28.875
881.828, 167.886
883.098, 73.883
884.369, 111.860
885.639, 86.982
886.909, 44.994
888.178, 25.980
889.448, 82.901
890.717, 33.806
891.987, 120.694
893.256, 124.568
894.524, 156.428
895.793, 162.433
897.061, 147.292
898.330, 94.227
899.598, 49.868
900.865, 87.651
902.133, 16.581
903.401, 50.148
904.668, 119.860
905.935, 56.559
907.202, 128.241
908.468, 185.929
909.735, 94.596
911.001, 72.413
912.267, 119.167
913.533, 89.102
914.799, 64.851
916.064, 56.431
917.330, 70.988
918.595, 126.529
919.860, 96.030
921.124, 215.302
922.389, 68.710
923.653, 238.111
924.918, 126.575
926.182, 98.024
927.445, 59.538
928.709, 24.991
929.972, 41.303
931.236, 42.680
932.499, 74.341
933.761, 173.069
935.024, 65.212
936.286, 132.084
937.549, 49.475
938.811, 151.580
940.073, 172.846
941.334, 48.045
942.596, 115.152
943.857, 22.289
945.118, 99.266
946.379, 178.362
947.640, 153.231
948.900, 151.224
950.161, 129.162
951.421, 171.046
952.681, 91.944
953.940, 82.473
955.200, 111.354
956.459, 64.156
957.719, 117.158
958.978, 150.469
960.236, 236.079
961.495, 184.940
962.753, 160.039
964.012, 175.557
965.270, 61.436
966.527, 90.627
967.785, 145.180
969.043, 77.104
970.300, 126.879
971.557, 109.922
972.814, 181.458
974.071, 133.108
975.327, 138.021
976.583, 146.669
977.840, 163.443
979.095, 131.202
980.351, 104.742
981.607, 87.535
982.862, 83.102
984.117, 142.595
985.372, 113.034
986.627, 126.354
987.882, 188.064
989.136, 79.103
990.390, 116.410
991.644, 89.867
992.898, 106.448
994.152, 68.078
995.405, 39.700
996.659, 92.208
997.912, 38.569
999.165, 13.384
1000.417, 118.157
1001.670, 139.178
1002.922, 149.573
1004.174, 46.975
1005.426, 14.455
1006.678, 38.012
1007.930, 51.562
1009.181, 1.074
1010.432, 27.412
1011.683, 37.811
1012.934, 94.146
1014.185, 71.396
1015.435, 95.575
1016.685, 97.709
1017.935, 55.080
1019.185, 74.347
1020.435, 31.313
1021.684, 49.947
1022.934, 45.124
1024.183, 17.322
1025.432, 89.279
1026.680, 31.323
1027.929, 110.445
1029.177, 96.672
1030.425, 98.000
1031.673, 103.980
1032.921, 75.292
1034.169, 10.968
1035.416, 22.387
1036.663, 28.436
1037.911, 46.532
1039.157, 105.328
1040.404, 149.438
1041.650, 97.333
1042.897, 79.553
1044.143, 115.766
1045.389, 16.970
1046.634, 48.166
1047.880, 26.354
1049.125, 26.543
1050.371, 61.345
1051.615, 108.382
1052.860, 90.728
1054.105, 107.595
1055.349, 157.731
1056.593, 160.611
1057.837, 44.734
1059.081, 45.850
1060.325, 5.868
1061.568, 9.785
1062.812, 21.122
1064.055, 9.834
1065.298, 45.690
1066.540, 99.505
1067.783, 114.374
1069.025, 51.433
1070.267, 88.395
1071.509, 90.441
1072.751, 36.278
1073.993, 93.314
1075.234, 53.344
1076.475, 18.715
1077.716, 54.048
1078.957, 39.338
1080.198, 120.017
1081.438, 164.699
1082.679, 62.514
1083.919, 59.514
1085.159, 93.293
1086.398, 15.286
1087.638, 66.991
1088.877, 46.974
1090.116, 53.967
1091.355, 55.672
1092.594, 71.782
1093.833, 122.849
1095.071, 125.759
1096.309, 122.736
1097.547, 160.711
1098.785, 101.681
1100.023, 37.647
1101.260, 115.611
1102.498, 31.528
1103.735, 133.270
1104.972, 81.187
1106.208, 207.912
1107.445, 149.855
1108.681, 232.807
1109.918, 167.761
1111.154, 133.734
1112.389, 118.708
1113.625, 139.680
1114.860, 100.457
1116.096, 128.647
1117.331, 107.317
1118.566, 178.152
1119.800, 163.110
1121.035, 210.083
1122.269, 229.055
1123.503, 192.033
1124.737, 146.025
1125.971, 88.015
1127.205, 164.011
1128.438, 15.005
1129.671, 129.998
1130.904, 97.940
1132.137, 106.863
1133.370, 166.849
1134.602, 207.835
1135.834, 153.841
1137.066, 143.867
1138.298, 93.880
1139.530, 84.313
1140.762, 62.966
1141.993, 66.005
1143.224, 115.979
1144.455, 113.834
1145.686, 253.868
1146.917, 154.726
1148.147, 105.450
1149.377, 224.501
1150.607, 164.563
1151.837, 158.637
1153.067, 105.600
1154.296, 32.426
1155.526, 139.351
1156.755, 76.532
1157.984, 46.872
1159.213, 114.752
1160.441, 193.682
1161.670, 177.765
1162.898, 193.847
1164.126, 142.930
1165.354, 172.012
1166.581, 92.032
1167.809, 73.113
1169.036, 71.774
1170.263, 58.160
1171.490, 55.351
1172.717, 151.216
1173.943, 98.312
1175.170, 186.268
1176.396, 197.363
1177.622, 149.480
1178.848, 103.596
1180.073, 50.712
1181.299, 17.989
1182.524, 5.157
1183.749, 41.255
1184.974, 98.468
1186.199, 161.659
1187.423, 173.767
1188.648, 176.874
1189.872, 187.981
1191.096, 103.088
1192.320, 125.194
1193.543, 77.137
1194.767, 90.213
1195.990, 43.753
1197.213, 76.054
1198.436, 148.157
1199.659, 86.724
1200.881, 106.837
1202.104, 240.951
1203.326, 122.064
1204.548, 163.177
1205.770, 185.351
1206.991, 37.448
1208.213, 119.451
1209.434, 61.578
1210.655, 67.362
1211.876, 134.264
1213.096, 128.570
1214.317, 210.808
1215.537, 348.916
1216.757, 212.023
1217.977, 196.128
1219.197, 79.233
1220.417, 136.301
1221.636, 122.404
1222.855, 162.600
1224.074, 180.923
1225.293, 191.071
1226.512, 183.575
1227.731, 200.679
1228.949, 206.878
1230.167, 165.982
1231.385, 212.084
1232.603, 193.189
1233.820, 52.189
1235.038, 83.463
1236.255, 80.147
1237.472, 136.129
1238.689, 150.385
1239.906, 220.681
1241.122, 266.940
1242.338, 217.053
1243.555, 210.168
1244.771, 159.284
1245.986, 97.402
1247.202, 109.521
1248.417, 79.643
1249.633, 78.254
1250.848, 194.431
1252.063, 232.646
1253.277, 274.040
1254.492, 258.310
1255.706, 168.443
1256.920, 267.578
1258.134, 180.715
1259.348, 103.853
1260.562, 170.992
1261.775, 111.134
1262.988, 64.277
1264.201, 118.600
1265.414, 142.791
1266.627, 206.198
1267.839, 217.618
1269.052, 249.523
1270.264, 251.677
1271.476, 182.833
1272.688, 140.995
1273.899, 144.153
1275.111, 66.254
1276.322, 138.405
1277.533, 70.539
1278.744, 137.851
1279.955, 245.035
1281.165, 225.222
1282.376, 247.359
1283.586, 225.496
1284.796, 152.632
1286.006, 141.769
1287.215, 93.907
1288.425, 85.045
1289.634, 110.175
1290.843, 160.301
1292.052, 222.461
1293.261, 228.640
1294.469, 248.088
1295.678, 283.099
1296.886, 217.214
1298.094, 161.329
1299.302, 87.444
1300.509, 82.562
1301.717, 71.680
1302.924, 147.812
1304.131, 136.620
1305.338, 140.795
1306.545, 143.759
1307.752, 149.005
1308.958, 143.772
1310.164, 206.413
1311.370, 104.496
1312.576, 102.579
1313.782, 20.663
1314.987, 70.244
1316.193, 0.830
1317.398, 84.879
1318.603, 88.719
1319.807, 95.819
1321.012, 122.879
1322.216, 182.017
1323.421, 181.058
1324.625, 77.070
1325.829, 9.059
1327.032, 45.456
1328.236, 19.374
1329.439, 14.357
1330.642, 22.344
1331.845, 108.326
1333.048, 85.305
1334.251, 98.280
1335.453, 172.252
1336.656, 117.220
1337.858, 78.181
1339.060, 106.139
1340.261, 22.908
1341.463, 47.036
1342.664, 71.981
1343.866, 5.153
1345.067, 107.699
1346.267, 79.609
1347.468, 126.447
1348.669, 145.278
1349.869, 38.085
1351.069, 65.882
1352.269, 40.668
1353.469, 15.448
1354.668, 57.219
1355.868, 28.011
1357.067, 9.742
1358.266, 27.485
1359.465, 82.448
1360.664, 95.223
1361.862, 146.935
1363.061, 88.640
1364.259, 124.336
1365.457, 105.026
1366.655, 37.713
1367.852, 0.395
1369.050, 15.923
1370.247, 10.739
1371.444, 70.395
1372.641, 38.049
1373.838, 61.764
1375.035, 146.421
1376.231, 113.888
1377.427, 167.555
1378.623, 21.965
1379.819, 51.870
1381.015, 8.573
1382.211, 27.721
1383.406, 19.015
1384.601, 29.312
1385.796, 112.610
1386.991, 92.919
1388.185, 195.228
1389.380, 88.525
1390.574, 156.825
1391.768, 143.127
1392.962, 40.431
1394.156, 56.736
1395.350, 24.968
1396.543, 14.307
1397.736, 37.576
1398.929, 102.845
1400.122, 109.116
1401.315, 185.388
1402.507, 115.661
1403.700, 161.935
1404.892, 108.210
1406.084, 81.488
1407.276, 32.767
1408.467, 65.048
1409.659, 24.670
1410.850, 20.613
1412.041, 16.101
1413.232, 130.188
1414.423, 228.468
1415.614, 77.708
1416.804, 115.948
1417.994, 113.189
1419.184, 71.206
1420.374, 102.087
1421.564, 34.250
1422.753, 65.534
1423.943, 65.575
1425.132, 99.430
1426.321, 140.153
1427.510, 159.556
1428.698, 156.791
1429.887, 148.480
1431.075, 132.661
1432.263, 105.325
1433.451, 99.738
1434.639, 72.570
1435.827, 68.848
1437.014, 44.085
1438.201, 71.835
1439.388, 96.650
1440.575, 130.347
1441.762, 146.343
1442.949, 171.493
1444.135, 184.654
1445.321, 158.093
1446.507, 58.516
1447.693, 12.524
1448.879, 31.369
1450.064, 54.785
1451.250, 36.420
1452.435, 64.365
1453.620, 135.665
1454.805, 171.642
1455.989, 153.605
1457.174, 161.553
1458.358, 130.108
1459.542, 148.665
1460.726, 1.869
1461.910, 63.889
1463.093, 73.625
1464.277, 55.333
1465.460, 107.460
1466.643, 195.606
1467.826, 84.468
1469.009, 244.775
1470.191, 245.050
1471.373, 171.381
1472.556, 220.077
1473.738, 75.214
1474.919, 77.462
1476.101, 102.661
1477.283, 117.836
1478.464, 139.909
1479.645, 205.332
1480.826, 176.280
1482.007, 207.370
1483.187, 226.388
1484.368, 174.035
1485.548, 114.474
1486.728, 92.713
1487.908, 40.974
1489.088, 64.346
1490.268, 62.598
1491.447, 55.235
1492.626, 136.982
1493.805, 163.440
1494.984, 127.606
1496.163, 286.765
1497.341, 157.816
1498.520, 137.755
1499.698, 138.545
1500.876, 6.194
1502.054, 36.684
1503.232, 51.969
1504.409, 63.317
1505.586, 161.110
1506.763, 169.589
1507.940, 114.333
1509.117, 276.193
1510.294, 121.190
1511.470, 128.196
1512.647, 184.594
1513.823, 64.019
1514.999, 42.722
1516.174, 110.638
1517.350, 2.224
1518.526, 172.153
1519.701, 84.351
1520.876, 0.000
##END=



