##NAMES=Hauyne
##RRUFFID=R070121
##IDEAL CHEMISTRY=Na_3_Ca(Si_3_Al_3_)O_12_(S^6+^O_4_)
##LOCALITY=Hesse, Germany
##OWNER=RRUFF
##SOURCE=Michael Scott
##DESCRIPTION=Blue cut gemstones
##STATUS=The identification of this mineral has been confirmed by single-crystal X-ray diffraction.
##URL=rruff.info/R070121
##PIN_ID=M01514
##ORIENTATION=Laser parallel to a* (1 0 0). Fiducial mark perpendicular to laser is parallel to c [0 0 1]
224.7060, 0.0000000E+00
225.9260, 87.53516
227.1470, 28.07715
228.3670, 11.90527
229.5860, 5.829102
230.8060, 80.53027
232.0260, 111.2461
233.2450, 143.3389
234.4640, 289.0029
235.6830, 371.2666
236.9020, 346.2773
238.1200, 436.5840
239.3390, 685.3281
240.5570, 824.7383
241.7750, 1024.909
242.9930, 1284.064
244.2110, 1377.533
245.4290, 1616.090
246.6460, 1846.712
247.8630, 2243.732
249.0810, 2497.688
250.2980, 2769.562
251.5140, 2962.763
252.7310, 3168.340
253.9470, 3364.258
255.1640, 3372.323
256.3800, 3438.864
257.5960, 3371.173
258.8120, 3346.478
260.0270, 3406.430
261.2430, 3067.154
262.4580, 2846.064
263.6730, 2524.867
264.8880, 2376.268
266.1030, 2221.371
267.3170, 1985.956
268.5320, 1749.053
269.7460, 1555.209
270.9600, 1419.874
272.1740, 1334.378
273.3880, 1253.016
274.6010, 1250.172
275.8150, 1252.534
277.0280, 1226.870
278.2410, 1217.258
279.4540, 1301.669
280.6670, 1350.032
281.8790, 1362.730
283.0920, 1507.293
284.3040, 1467.587
285.5160, 1508.408
286.7280, 1507.369
287.9400, 1466.633
289.1510, 1291.369
290.3630, 1233.217
291.5740, 1077.240
292.7850, 1058.205
293.9960, 1007.556
295.2070, 1030.442
296.4170, 957.6089
297.6280, 874.7061
298.8380, 791.0063
300.0480, 747.9976
301.2580, 686.1211
302.4680, 662.1553
303.6770, 578.3062
304.8870, 560.8306
306.0960, 511.6958
307.3050, 449.8691
308.5140, 389.3218
309.7230, 370.0259
310.9310, 317.7061
312.1400, 428.0830
313.3480, 281.3828
314.5560, 351.8291
315.7640, 417.4004
316.9720, 387.0747
318.1790, 277.8350
319.3870, 371.6611
320.5940, 170.5396
321.8010, 214.4590
323.0080, 156.4038
324.2150, 120.3555
325.4210, 67.28760
326.6280, 68.17090
327.8340, 43.01221
329.0400, 14.26807
330.2460, 160.6060
331.4510, 283.0396
332.6570, 205.5747
333.8620, 193.2109
335.0680, 307.9580
336.2730, 234.8193
337.4780, 315.8037
338.6820, 239.9189
339.8870, 290.1777
341.0910, 188.5825
342.2950, 118.1304
343.5000, 23.79834
344.7030, 196.5918
345.9070, 41.53418
347.1110, 11.36328
348.3140, 170.0684
349.5170, 155.5049
350.7200, 141.5161
351.9230, 233.0435
353.1260, 294.0649
354.3290, 265.5840
355.5310, 241.6538
356.7330, 271.4531
357.9350, 322.9976
359.1370, 334.4424
360.3390, 417.8579
361.5400, 340.2603
362.7420, 397.6597
363.9430, 359.0625
365.1440, 351.4800
366.3450, 361.9180
367.5460, 355.3755
368.7460, 415.8550
369.9470, 381.4062
371.1470, 558.9268
372.3470, 614.3027
373.5470, 626.2715
374.7460, 752.4126
375.9460, 683.3823
377.1450, 726.1562
378.3450, 847.7148
379.5440, 748.0415
380.7430, 1028.122
381.9410, 1083.953
383.1400, 1160.524
384.3380, 1145.829
385.5370, 1084.854
386.7350, 1247.591
387.9320, 1207.034
389.1300, 1161.183
390.3280, 1205.034
391.5250, 1333.591
392.7220, 1258.854
393.9190, 1414.829
395.1160, 1447.526
396.3130, 1517.920
397.5100, 1589.027
398.7060, 1534.691
399.9020, 1701.054
401.0980, 1734.073
402.2940, 1819.761
403.4900, 2013.104
404.6860, 2082.126
405.8810, 2053.840
407.0760, 2378.245
408.2710, 2630.362
409.4660, 2870.179
410.6610, 3243.722
411.8550, 3243.967
413.0500, 3526.955
414.2440, 3880.685
415.4380, 4429.180
416.6320, 4571.461
417.8260, 5024.480
419.0190, 5514.245
420.2130, 5972.747
421.4060, 6710.847
422.5990, 7256.325
423.7920, 7860.253
424.9850, 8587.529
426.1770, 9515.195
427.3700, 10680.34
428.5620, 11585.21
429.7540, 12589.79
430.9460, 13906.26
432.1380, 15027.63
433.3290, 16082.52
434.5210, 17084.15
435.7120, 17918.14
436.9030, 18668.07
438.0940, 19029.82
439.2850, 19532.68
440.4750, 19618.26
441.6660, 19734.53
442.8560, 19660.48
444.0460, 19652.31
445.2360, 19056.92
446.4260, 18754.42
447.6160, 18326.31
448.8050, 17357.13
449.9940, 16883.63
451.1830, 16174.70
452.3720, 15439.21
453.5610, 14774.61
454.7500, 14075.44
455.9380, 13258.64
457.1260, 12692.22
458.3150, 11984.80
459.5020, 11226.12
460.6900, 10628.28
461.8780, 9786.236
463.0650, 9135.384
464.2530, 8525.793
465.4400, 7955.150
466.6270, 7406.583
467.8130, 7013.332
469.0000, 6610.645
470.1870, 6192.227
471.3730, 5720.998
472.5590, 5408.835
473.7450, 5081.716
474.9310, 4612.143
476.1160, 4484.665
477.3020, 4227.209
478.4870, 3803.786
479.6720, 3576.188
480.8570, 3423.749
482.0420, 3213.317
483.2270, 2977.971
484.4110, 3051.237
485.5960, 2826.147
486.7800, 2580.199
487.9640, 2295.634
489.1480, 2265.019
490.3310, 2246.938
491.5150, 2027.029
492.6980, 2036.034
493.8810, 2092.963
495.0640, 1899.929
496.2470, 1745.488
497.4300, 1842.895
498.6120, 1827.192
499.7950, 1851.831
500.9770, 1732.993
502.1590, 1700.326
503.3410, 1736.067
504.5220, 1790.541
505.7040, 1721.312
506.8850, 1848.977
508.0660, 1815.667
509.2470, 2030.455
510.4280, 2195.271
511.6090, 2032.394
512.7890, 2205.320
513.9700, 2318.936
515.1500, 2509.729
516.3300, 2725.523
517.5100, 2762.791
518.6900, 3020.209
519.8690, 3313.601
521.0490, 3803.271
522.2280, 4255.656
523.4070, 4835.618
524.5860, 5633.655
525.7640, 6482.971
526.9430, 7493.186
528.1210, 8733.521
529.3000, 10297.69
530.4780, 12198.87
531.6560, 14717.92
532.8330, 17634.07
534.0110, 20827.43
535.1880, 24924.64
536.3650, 28998.27
537.5430, 33777.56
538.7190, 38873.71
539.8960, 43687.67
541.0730, 48499.49
542.2490, 52036.49
543.4250, 54029.13
544.6020, 54308.44
545.7780, 53288.06
546.9530, 49207.67
548.1290, 43957.50
549.3040, 37308.39
550.4800, 30552.19
551.6550, 25131.26
552.8300, 19065.53
554.0040, 14964.16
555.1790, 11847.05
556.3540, 9673.222
557.5280, 8074.213
558.7020, 6832.973
559.8760, 6094.650
561.0500, 5484.770
562.2230, 4950.459
563.3970, 4735.289
564.5700, 4444.186
565.7430, 4318.954
566.9160, 4232.729
568.0890, 4317.469
569.2620, 4501.801
570.4340, 4585.754
571.6070, 4856.409
572.7790, 5119.010
573.9510, 5418.711
575.1230, 5538.273
576.2940, 5964.933
577.4660, 6215.577
578.6370, 6322.354
579.8080, 6289.813
580.9790, 6401.367
582.1500, 6266.347
583.3210, 6196.535
584.4910, 6126.436
585.6620, 5748.928
586.8320, 5644.103
588.0020, 5356.818
589.1720, 5206.008
590.3410, 4822.441
591.5110, 4668.975
592.6800, 4704.158
593.8500, 4508.036
595.0190, 4480.025
596.1880, 4367.844
597.3560, 4368.582
598.5250, 4720.437
599.6930, 4935.673
600.8620, 5118.938
602.0300, 5738.162
603.1970, 6276.887
604.3650, 6641.647
605.5330, 7231.090
606.7000, 7881.650
607.8680, 8205.871
609.0350, 8427.172
610.2020, 8386.944
611.3680, 8007.129
612.5350, 7891.180
613.7010, 7413.314
614.8680, 7271.350
616.0340, 6720.517
617.2000, 6603.855
618.3660, 6110.918
619.5310, 5687.285
620.6970, 5400.007
621.8620, 5006.271
623.0270, 4739.072
624.1920, 4351.770
625.3570, 3852.549
626.5220, 3583.394
627.6860, 3097.653
628.8500, 2760.424
630.0140, 2441.019
631.1780, 2142.498
632.3420, 1817.295
633.5060, 1687.220
634.6700, 1545.725
635.8330, 1522.298
636.9960, 1361.618
638.1590, 1400.906
639.3220, 1364.075
640.4850, 1398.737
641.6470, 1197.929
642.8100, 1269.501
643.9720, 1136.062
645.1340, 1065.622
646.2960, 1074.165
647.4570, 1000.673
648.6190, 923.1484
649.7800, 946.6113
650.9420, 881.1123
652.1030, 686.6055
653.2640, 663.0908
654.4240, 461.5508
655.5850, 516.0029
656.7450, 507.4277
657.9060, 179.8105
659.0660, 219.1807
660.2260, 263.5254
661.3850, 222.8281
662.5450, 207.1221
663.7040, 180.0586
664.8640, 104.4326
666.0230, 119.5244
667.1820, 81.55859
668.3410, 112.5371
669.4990, 104.4570
670.6580, 124.3193
671.8160, 95.12402
672.9740, 37.86914
674.1320, 62.55371
675.2900, 76.82422
676.4480, 29.71387
677.6050, 60.18848
678.7630, 27.39844
679.9200, 55.05859
681.0770, 77.20020
682.2340, 49.60254
683.3900, 1.512695
684.5470, 16.43945
685.7030, 47.46387
686.8590, 24.57031
688.0150, 72.75195
689.1710, 24.02832
690.3270, 137.3818
691.4830, 57.86914
692.6380, 143.4453
693.7930, 130.1621
694.9480, 32.00977
696.1030, 128.9404
697.2580, 76.00586
698.4130, 121.1787
699.5670, 206.4834
700.7210, 54.96777
701.8750, 135.5518
703.0290, 151.2783
704.1830, 49.84180
705.3370, 51.11035
706.4900, 65.16406
707.6430, 73.32812
708.7970, 145.6094
709.9490, 69.95410
711.1020, 81.44434
712.2550, 56.86230
713.4070, 22.79297
714.5600, 65.45605
715.7120, 68.62891
716.8640, 37.72949
718.0160, 112.7529
719.1670, 89.70215
720.3190, 227.5771
721.4700, 177.3809
722.6210, 1.888672
723.7720, 105.7500
724.9230, 3.686523
726.0740, 52.78125
727.2250, 180.1699
728.3750, 122.4844
729.5250, 4.277344
730.6750, 184.8613
731.8250, 23.07617
732.9750, 235.0312
734.1240, 40.90723
735.2740, 59.19336
736.4230, 14.90625
737.5720, 6.475586
738.7210, 37.63867
739.8700, 187.0615
741.0190, 68.51953
742.1670, 60.03320
743.3150, 83.58203
744.4630, 112.7412
745.6110, 1.976563
746.7590, 14.00879
747.9070, 84.03906
749.0540, 9.598633
750.2020, 69.58398
751.3490, 54.62402
752.4960, 63.06055
753.6430, 34.57324
754.7890, 17.84375
755.9360, 21.78027
757.0820, 19.06738
758.2280, 4.806641
759.3740, 17.33789
760.5200, 10.78711
761.6660, 17.90430
762.8120, 104.5459
763.9570, 102.0205
765.1020, 54.83789
766.2470, 155.4961
767.3920, 209.0371
768.5370, 240.2930
769.6810, 179.3496
770.8260, 187.0400
771.9700, 230.2070
773.1140, 255.3701
774.2580, 311.5654
775.4020, 322.7520
776.5460, 362.9004
777.6890, 482.4912
778.8320, 366.3760
779.9750, 558.7168
781.1180, 667.9902
782.2610, 661.0967
783.4040, 633.5938
784.5460, 663.1592
785.6890, 788.6709
786.8310, 861.7969
787.9730, 1040.730
789.1150, 1028.188
790.2560, 1033.467
791.3980, 1218.147
792.5390, 1341.644
793.6810, 1393.647
794.8220, 1472.950
795.9630, 1561.385
797.1030, 1613.137
798.2440, 1551.015
799.3840, 1692.053
800.5240, 1798.702
801.6650, 1776.136
802.8040, 1630.149
803.9440, 1657.124
805.0840, 1710.835
806.2230, 1611.575
807.3630, 1663.182
808.5020, 1605.765
809.6410, 1568.123
810.7790, 1587.140
811.9180, 1535.158
813.0570, 1408.642
814.1950, 1380.320
815.3330, 1268.025
816.4710, 1275.795
817.6090, 1220.565
818.7470, 1110.039
819.8840, 962.7432
821.0220, 1054.653
822.1590, 975.1387
823.2960, 1099.518
824.4330, 1041.559
825.5690, 987.4258
826.7060, 900.2510
827.8420, 909.8594
828.9790, 845.8447
830.1150, 926.5107
831.2510, 932.8066
832.3860, 940.7129
833.5220, 868.6895
834.6570, 872.7959
835.7930, 746.8730
836.9280, 737.4072
838.0630, 893.2656
839.1980, 703.8828
840.3320, 760.3340
841.4670, 655.8184
842.6010, 827.2041
843.7350, 804.5342
844.8690, 627.1807
846.0030, 656.1221
847.1370, 614.2773
848.2700, 715.4004
849.4040, 588.3408
850.5370, 623.3350
851.6700, 617.1543
852.8030, 528.9102
853.9360, 638.4600
855.0680, 617.2471
856.2000, 560.8633
857.3330, 647.9814
858.4650, 717.8154
859.5970, 763.8662
860.7290, 642.2549
861.8600, 727.8906
862.9920, 574.9131
864.1230, 423.3984
865.2540, 529.5713
866.3850, 485.5801
867.5160, 366.8770
868.6460, 309.4180
869.7770, 381.7881
870.9070, 223.2715
872.0370, 372.7686
873.1670, 337.0957
874.2970, 249.9814
875.4270, 245.7734
876.5570, 281.5449
877.6860, 245.7549
878.8150, 253.2686
879.9440, 221.2490
881.0730, 219.4561
882.2020, 240.9531
883.3300, 216.3242
884.4590, 71.17773
885.5870, 123.5781
886.7150, 58.09570
887.8430, 43.49902
888.9710, 148.0098
890.0990, 30.43359
891.2260, 57.70215
892.3530, 105.2607
893.4810, 158.4346
894.6080, 57.48730
895.7340, 52.08398
896.8610, 56.18945
897.9880, 80.82520
899.1140, 20.76953
900.2400, 17.36328
901.3660, 93.95605
902.4920, 31.08008
903.6180, 12.07227
904.7430, 125.0078
905.8690, 8.357422
906.9940, 170.7451
908.1190, 50.14258
909.2440, 9.468750
910.3690, 62.73633
911.4930, 128.9971
912.6180, 25.24219
913.7420, 131.0566
914.8660, 157.5059
915.9900, 63.45117
917.1140, 96.47559
918.2380, 39.59473
919.3610, 74.22168
920.4850, 61.00391
921.6080, 77.24805
922.7310, 269.5791
923.8540, 106.0898
924.9760, 106.6904
926.0990, 48.37891
927.2210, 133.1279
928.3440, 42.97656
929.4660, 10.87695
930.5880, 134.8174
931.7090, 86.85059
932.8310, 21.95117
933.9520, 9.908203
935.0740, 60.56348
936.1950, 166.5547
937.3160, 75.34570
938.4360, 211.1182
939.5570, 76.87109
940.6780, 193.6074
941.7980, 24.32715
942.9180, 283.0293
944.0380, 154.7148
945.1580, 14.38672
946.2780, 142.0449
947.3970, 214.6895
948.5170, 222.3340
949.6360, 368.9688
950.7550, 481.5918
951.8740, 534.2090
952.9930, 770.8271
954.1110, 860.2549
955.2300, 854.0430
956.3480, 1197.645
957.4660, 1356.246
958.5840, 1639.851
959.7020, 2025.453
960.8190, 2682.067
961.9370, 3249.681
963.0540, 4129.324
964.1710, 5339.979
965.2880, 6773.664
966.4050, 8650.380
967.5220, 10568.10
968.6380, 12914.86
969.7550, 15203.65
970.8710, 17783.51
971.9870, 19846.42
973.1030, 21164.35
974.2190, 22442.32
975.3340, 23146.34
976.4500, 23760.37
977.5650, 24253.44
978.6800, 25891.54
979.7950, 26993.70
980.9100, 28847.90
982.0250, 30973.17
983.1390, 33621.49
984.2530, 36530.82
985.3680, 38813.25
986.4820, 40596.73
987.5950, 42204.25
988.7090, 42331.84
989.8230, 42457.53
990.9360, 41506.28
992.0490, 39829.06
993.1620, 38799.87
994.2750, 36726.70
995.3880, 34832.59
996.5010, 32576.50
997.6130, 30570.46
998.7250, 28766.44
999.8370, 26715.48
1000.949, 25036.59
1002.061, 23136.71
1003.173, 21455.78
1004.284, 20292.04
1005.396, 18600.85
1006.507, 17492.18
1007.618, 16402.52
1008.729, 15585.61
1009.839, 14646.75
1010.950, 13883.07
1012.060, 13182.28
1013.171, 12189.55
1014.281, 10987.79
1015.391, 10283.05
1016.500, 9394.465
1017.610, 8490.834
1018.719, 7872.637
1019.829, 7068.793
1020.938, 6622.660
1022.047, 5966.238
1023.156, 5775.715
1024.264, 5192.055
1025.373, 5116.277
1026.481, 5095.801
1027.589, 5047.156
1028.697, 4942.289
1029.805, 4641.107
1030.913, 4769.543
1032.020, 4721.379
1033.128, 4737.609
1034.235, 4908.852
1035.342, 4937.473
1036.449, 4996.145
1037.556, 5043.041
1038.663, 5467.078
1039.769, 5481.416
1040.875, 5724.834
1041.981, 5716.953
1043.087, 5854.594
1044.193, 6138.186
1045.299, 5943.756
1046.404, 6091.824
1047.510, 5931.539
1048.615, 6029.734
1049.720, 5959.941
1050.825, 5774.254
1051.930, 5485.121
1053.034, 5436.859
1054.139, 5375.596
1055.243, 5131.660
1056.347, 5098.859
1057.451, 5139.479
1058.555, 5134.219
1059.658, 5051.500
1060.762, 5149.908
1061.865, 5051.754
1062.968, 5462.242
1064.071, 5696.051
1065.174, 5703.883
1066.277, 6301.227
1067.380, 6352.418
1068.482, 6869.867
1069.584, 7121.352
1070.686, 7608.875
1071.788, 8082.439
1072.890, 8550.039
1073.992, 9055.105
1075.093, 9655.354
1076.194, 10130.07
1077.295, 10800.83
1078.396, 11503.62
1079.497, 12260.46
1080.598, 12902.33
1081.698, 13604.24
1082.799, 13904.20
1083.899, 14675.19
1084.999, 14958.22
1086.099, 15409.29
1087.199, 15457.39
1088.298, 15735.54
1089.398, 15487.94
1090.497, 15548.16
1091.596, 15211.43
1092.695, 14994.80
1093.794, 14239.14
1094.892, 13557.53
1095.991, 12773.95
1097.089, 11982.41
1098.187, 11323.90
1099.285, 10548.58
1100.383, 9918.242
1101.481, 9293.146
1102.579, 8708.902
1103.676, 8196.871
1104.773, 7668.969
1105.870, 7307.766
1106.967, 7059.746
1108.064, 6923.914
1109.161, 6907.039
1110.257, 6956.939
1111.353, 6768.477
1112.449, 6761.102
1113.545, 6715.342
1114.641, 6781.820
1115.737, 6800.078
1116.832, 6687.521
1117.928, 6778.682
1119.023, 6646.039
1120.118, 6500.680
1121.213, 6198.918
1122.308, 6373.457
1123.402, 6175.559
1124.497, 6159.195
1125.591, 5908.018
1126.685, 5759.316
1127.779, 5536.049
1128.873, 5326.070
1129.967, 5063.170
1131.060, 4758.115
1132.153, 4619.203
1133.247, 4429.479
1134.340, 4521.539
1135.433, 4257.396
1136.525, 4222.812
1137.618, 4268.633
1138.710, 4188.559
1139.802, 4017.670
1140.895, 3968.648
1141.987, 4022.666
1143.078, 3923.973
1144.170, 3987.178
1145.261, 4004.166
1146.353, 3753.908
1147.444, 3748.666
1148.535, 3854.443
1149.626, 3894.238
1150.716, 3600.324
1151.807, 3788.232
1152.897, 3677.293
1153.988, 3697.916
1155.078, 3798.686
1156.168, 3569.838
1157.257, 3686.430
1158.347, 3786.844
1159.436, 3431.637
1160.526, 3507.623
1161.615, 3585.492
1162.704, 3508.088
1163.793, 3318.387
1164.881, 3129.133
1165.970, 3183.541
1167.058, 2982.885
1168.147, 3068.234
1169.235, 2774.287
1170.323, 2771.664
1171.410, 2710.438
1172.498, 2590.297
1173.585, 2567.299
1174.673, 2802.803
1175.760, 2420.738
1176.847, 2365.939
1177.934, 2231.527
1179.020, 1924.164
1180.107, 2132.857
1181.193, 1878.582
1182.279, 1842.342
1183.365, 1628.119
1184.451, 1512.902
1185.537, 1427.688
1186.623, 1374.504
1187.708, 1337.391
1188.793, 1247.312
1189.878, 1169.266
1190.963, 967.2344
1192.048, 1053.240
1193.133, 825.2598
1194.217, 831.2852
1195.302, 740.3457
1196.386, 724.4258
1197.470, 668.2891
1198.554, 499.5977
1199.638, 531.6816
1200.721, 425.7637
1201.805, 301.8457
1202.888, 499.9238
1203.971, 390.9980
1205.054, 308.0703
1206.137, 265.1406
1207.219, 157.6348
1208.302, 194.2637
1209.384, 159.2578
1210.466, 142.3672
1211.548, 188.4102
1212.630, 159.4434
1213.712, 207.8555
1214.794, 271.4980
1215.875, 227.5137
1216.956, 134.5234
1218.037, 187.5254
1219.118, 6.521484
1220.199, 98.50586
1221.280, 62.47852
1222.360, 46.44727
1223.441, 138.4062
1224.521, 71.35352
1225.601, 141.2891
1226.681, 221.2148
1227.760, 148.1289
1228.840, 55.03125
1229.919, 34.91797
1230.999, 57.20703
1232.078, 113.3730
1233.157, 39.38672
1234.236, 21.13281
1235.314, 65.87695
1236.393, 13.39453
1237.471, 43.30273
1238.549, 99.01562
1239.627, 173.6211
1240.705, 84.75586
1241.783, 3.814453
1242.860, 186.6406
1243.938, 172.2188
1245.015, 108.1035
1246.092, 262.5938
1247.169, 128.4551
1248.246, 113.4160
1249.323, 211.4688
1250.399, 266.6699
1251.475, 158.0449
1252.552, 53.54102
1253.628, 76.10352
1254.703, 68.25391
1255.779, 92.41211
1256.855, 0.8339840
1257.930, 42.96289
1259.005, 5.169922
1260.080, 197.7344
1261.155, 70.78711
1262.230, 46.07812
1263.305, 212.0879
1264.379, 46.41406
1265.454, 53.80859
1266.528, 163.7148
1267.602, 146.2148
1268.676, 76.31250
1269.750, 149.0645
1270.823, 146.4180
1271.897, 84.74023
1272.970, 116.0352
1274.043, 175.3027
1275.116, 471.5371
1276.189, 522.7461
1277.261, 664.9297
1278.334, 529.0859
1279.406, 45.21875
1280.478, 236.3516
1281.550, 51.96094
1282.622, 81.70117
1283.694, 76.68945
1284.766, 57.31445
1285.837, 76.81250
1286.908, 25.19922
1287.979, 43.62500
1289.050, 1.287109
1290.121, 27.11914
1291.192, 58.39258
1292.262, 245.2090
1293.333, 145.3555
1294.403, 234.7461
1295.473, 94.30469
1296.543, 234.6152
1297.613, 118.7715
1298.682, 222.0723
1299.752, 270.2305
1300.821, 202.5000
1301.890, 433.7988
1302.959, 174.0527
1304.028, 210.7305
1305.096, 161.9277
1306.165, 416.1113
1307.233, 495.4355
1308.301, 475.1543
1309.370, 494.0195
1310.437, 429.7812
1311.505, 343.4980
1312.573, 612.1738
1313.640, 561.8164
1314.708, 503.4258
1315.775, 552.0000
1316.842, 383.5391
1317.908, 581.0449
1318.975, 614.5137
1320.042, 484.9473
1321.108, 640.3438
1322.174, 578.7051
1323.240, 676.0293
1324.306, 766.3125
1325.372, 807.5586
1326.438, 741.7656
1327.503, 822.9336
1328.568, 701.0625
1329.634, 700.1504
1330.699, 821.1973
1331.763, 807.2070
1332.828, 808.1719
1333.893, 960.0957
1334.957, 857.9805
1336.021, 875.8223
1337.085, 1097.619
1338.149, 1090.377
1339.213, 1026.090
1340.277, 1121.758
1341.340, 1055.385
1342.404, 1161.969
1343.467, 1194.666
1344.530, 1140.186
1345.593, 1174.250
1346.655, 1005.068
1347.718, 1152.484
1348.780, 1004.820
1349.843, 1161.150
1350.905, 1307.410
1351.967, 1243.627
1353.028, 1240.932
1354.090, 999.0742
1355.152, 1161.180
1356.213, 1030.250
1357.274, 867.1348
1358.335, 1094.734
1359.396, 953.2129
1360.457, 1227.203
1361.517, 1069.137
1362.578, 1240.031
1363.638, 1078.609
1364.698, 1018.336
1365.758, 930.1250
1366.818, 943.4199
1367.878, 989.5059
1368.937, 951.2617
1369.997, 1174.818
1371.056, 1117.365
1372.115, 1220.420
1373.174, 1187.877
1374.232, 1183.980
1375.291, 1070.479
1376.350, 1263.059
1377.408, 1448.150
1378.466, 1865.465
1379.524, 2057.334
1380.582, 1894.783
1381.640, 2026.549
1382.697, 1593.525
1383.754, 1135.027
1384.812, 820.2617
1385.869, 775.7559
1386.926, 812.3535
1387.983, 710.0059
1389.039, 754.2910
1390.096, 720.4727
1391.152, 557.9824
1392.208, 586.7539
1393.264, 529.8398
