##NAMES=Hauyne
##RRUFFID=R050606
##IDEAL CHEMISTRY=Na_3_Ca(Si_3_Al_3_)O_12_(S^6+^O_4_)
##LOCALITY=Ariccia, near Rome, Italy
##OWNER=RRUFF
##SOURCE=University of Arizona Mineral Museum
##DESCRIPTION=Blue crystal embedded in calcite
##STATUS=The identification of this mineral has been confirmed only by X-ray diffraction
##URL=rruff.info/R050606
##PIN_ID=M01913
##ORIENTATION=Laser parallel to c* (0 0 1). Fiducial mark perpendicular to laser is parallel to a [1 0 0]
235.6830, 0.0000000E+00
236.9020, 65.71387
238.1200, 1.296875
239.3390, 134.1191
240.5570, 138.4814
241.7750, 126.3652
242.9930, 6.137695
244.2110, 62.18359
245.4290, 160.0928
246.6460, 42.81934
247.8630, 142.1006
249.0810, 165.5723
250.2980, 190.7090
251.5140, 229.6523
252.7310, 225.8691
253.9470, 221.5947
255.1640, 188.6318
256.3800, 214.1777
257.5960, 173.5332
258.8120, 281.5840
260.0270, 457.8643
261.2430, 330.7217
262.4580, 151.2588
263.6730, 259.5098
264.8880, 148.2939
266.1030, 177.2559
267.3170, 173.3682
268.5320, 174.9355
269.7460, 108.2529
270.9600, 191.3574
272.1740, 237.4893
273.3880, 172.8828
274.6010, 255.0283
275.8150, 269.3770
277.0280, 197.0703
278.2410, 150.2021
279.4540, 70.11230
280.6670, 154.3926
281.8790, 174.7490
283.0920, 154.3779
284.3040, 234.6396
285.5160, 202.2910
286.7280, 365.8877
287.9400, 483.2891
289.1510, 456.5010
290.3630, 459.9609
291.5740, 530.0674
292.7850, 373.0967
293.9960, 482.6074
295.2070, 540.0273
296.4170, 418.2607
297.6280, 363.0820
298.8380, 454.8721
300.0480, 486.4199
301.2580, 372.3506
302.4680, 413.9307
303.6770, 379.0996
304.8870, 397.5879
306.0960, 411.3457
307.3050, 324.6943
308.5140, 267.1113
309.7230, 275.7881
310.9310, 274.8604
312.1400, 302.0127
313.3480, 375.4316
314.5560, 458.0381
315.7640, 553.8115
316.9720, 492.7324
318.1790, 595.7793
319.3870, 554.9336
320.5940, 621.1816
321.8010, 524.5039
323.0080, 438.8877
324.2150, 404.3086
325.4210, 266.7520
326.6280, 294.2080
327.8340, 146.6709
329.0400, 268.1348
330.2460, 138.5811
331.4510, 118.4424
332.6570, 63.59375
333.8620, 10.78320
335.0680, 15.12402
336.2730, 88.59375
337.4780, 114.3789
338.6820, 167.2295
339.8870, 102.1543
341.0910, 76.14551
342.2950, 102.2080
343.5000, 86.33789
344.7030, 86.54102
345.9070, 1.173828
347.1110, 110.8193
348.3140, 87.41309
349.5170, 2.964844
350.7200, 62.47949
351.9230, 167.9541
353.1260, 22.62598
354.3290, 109.7266
355.5310, 180.0059
356.7330, 121.1553
357.9350, 181.1338
359.1370, 201.0332
360.3390, 279.2969
361.5400, 262.4814
362.7420, 301.4297
363.9430, 333.2480
365.1440, 441.9971
366.3450, 441.6768
367.5460, 493.2705
368.7460, 513.9160
369.9470, 412.1729
371.1470, 508.9805
372.3470, 429.3164
373.5470, 434.8652
374.7460, 501.2598
375.9460, 639.1426
377.1450, 634.5371
378.3450, 639.0342
379.5440, 739.2266
380.7430, 741.6494
381.9410, 828.7432
383.1400, 807.2490
384.3380, 819.5068
385.5370, 903.5625
386.7350, 820.4053
387.9320, 827.7891
389.1300, 790.2129
390.3280, 890.4131
391.5250, 798.3291
392.7220, 751.1006
393.9190, 908.6426
395.1160, 869.9590
396.3130, 824.0293
397.5100, 985.8613
398.7060, 1091.472
399.9020, 1167.856
401.0980, 1163.045
402.2940, 1347.982
403.4900, 1427.483
404.6860, 1469.262
405.8810, 1689.630
407.0760, 1842.499
408.2710, 1965.490
409.4660, 2157.803
410.6610, 2437.968
411.8550, 2641.859
413.0500, 2821.521
414.2440, 3239.537
415.4380, 3669.839
416.6320, 4059.160
417.8260, 4344.998
419.0190, 4877.005
420.2130, 5264.965
421.4060, 6098.494
422.5990, 6673.607
423.7920, 7447.932
424.9850, 8376.807
426.1770, 9422.783
427.3700, 10302.78
428.5620, 11608.00
429.7540, 12804.15
430.9460, 13882.92
432.1380, 14474.08
433.3290, 15285.63
434.5210, 15741.73
435.7120, 15317.97
436.9030, 15083.30
438.0940, 14501.12
439.2850, 13371.04
440.4750, 12619.40
441.6660, 11306.35
442.8560, 10263.81
444.0460, 9438.390
445.2360, 8551.446
446.4260, 7674.723
447.6160, 7012.856
448.8050, 6402.068
449.9940, 6058.342
451.1830, 5584.094
452.3720, 4970.388
453.5610, 4726.779
454.7500, 4275.182
455.9380, 4012.831
457.1260, 3953.992
458.3150, 3747.498
459.5020, 3639.405
460.6900, 3509.055
461.8780, 3243.133
463.0650, 3115.037
464.2530, 2945.216
465.4400, 2710.985
466.6270, 2710.393
467.8130, 2488.651
469.0000, 2389.121
470.1870, 2436.826
471.3730, 2130.086
472.5590, 2028.582
473.7450, 1890.769
474.9310, 1817.653
476.1160, 1720.913
477.3020, 1593.863
478.4870, 1375.092
479.6720, 1213.979
480.8570, 1222.345
482.0420, 1219.462
483.2270, 1084.728
484.4110, 960.6934
485.5960, 1033.090
486.7800, 969.5479
487.9640, 948.0615
489.1480, 796.1465
490.3310, 679.2295
491.5150, 652.7686
492.6980, 498.3623
493.8810, 558.7100
495.0640, 595.5049
496.2470, 547.4844
497.4300, 412.6729
498.6120, 378.6143
499.7950, 318.2627
500.9770, 254.9678
502.1590, 253.1309
503.3410, 287.8057
504.5220, 309.4131
505.7040, 249.1885
506.8850, 219.0996
508.0660, 189.4688
509.2470, 220.8398
510.4280, 284.4482
511.6090, 162.1494
512.7890, 231.4277
513.9700, 75.11719
515.1500, 254.4688
516.3300, 166.5264
517.5100, 154.7559
518.6900, 237.4102
519.8690, 192.6885
521.0490, 268.4141
522.2280, 195.3359
523.4070, 228.3789
524.5860, 404.3945
525.7640, 495.5771
526.9430, 497.4365
528.1210, 650.9395
529.3000, 493.3916
530.4780, 615.7568
531.6560, 775.5420
532.8330, 966.0615
534.0110, 961.8604
535.1880, 1233.520
536.3650, 1493.818
537.5430, 1993.241
538.7190, 2363.533
539.8960, 2673.449
541.0730, 3187.999
542.2490, 3462.395
543.4250, 4158.613
544.6020, 4524.742
545.7780, 4814.859
546.9530, 4975.859
548.1290, 4900.857
549.3040, 4737.841
550.4800, 4337.438
551.6550, 3700.556
552.8300, 3002.657
554.0040, 2307.623
555.1790, 1668.723
556.3540, 1367.870
557.5280, 1160.419
558.7020, 924.2598
559.8760, 706.5576
561.0500, 577.5098
562.2230, 446.9521
563.3970, 492.2236
564.5700, 297.8652
565.7430, 435.1982
566.9160, 323.1289
568.0890, 243.3916
569.2620, 214.8633
570.4340, 407.7578
571.6070, 238.8818
572.7790, 348.8389
573.9510, 404.6641
575.1230, 427.3379
576.2940, 476.2158
577.4660, 528.5078
578.6370, 596.7305
579.8080, 641.2832
580.9790, 706.7988
582.1500, 772.1963
583.3210, 867.6641
584.4910, 894.2695
585.6620, 833.9678
586.8320, 975.2324
588.0020, 1039.771
589.1720, 925.2305
590.3410, 1100.248
591.5110, 1151.180
592.6800, 990.5781
593.8500, 1145.560
595.0190, 1157.127
596.1880, 1251.520
597.3560, 1769.058
598.5250, 1792.488
599.6930, 2182.551
600.8620, 2449.046
602.0300, 2466.264
603.1970, 2790.549
604.3650, 3164.127
605.5330, 3259.555
606.7000, 3439.965
607.8680, 3719.647
609.0350, 3875.891
610.2020, 3850.058
611.3680, 3787.659
612.5350, 3636.373
613.7010, 3493.475
614.8680, 3334.668
616.0340, 3220.226
617.2000, 3189.781
618.3660, 2978.250
619.5310, 2915.256
620.6970, 2770.352
621.8620, 2352.857
623.0270, 2218.053
624.1920, 2042.591
625.3570, 1685.977
626.5220, 1470.240
627.6860, 1288.040
628.8500, 1180.512
630.0140, 1015.058
631.1780, 680.4180
632.3420, 849.4883
633.5060, 705.8701
634.6700, 443.7803
635.8330, 487.6689
636.9960, 550.8594
638.1590, 648.4004
639.3220, 524.3584
640.4850, 550.6807
641.6470, 703.6074
642.8100, 463.1709
643.9720, 677.3291
645.1340, 731.7832
646.2960, 624.0508
647.4570, 635.1660
648.6190, 603.1328
649.7800, 566.8652
650.9420, 576.8086
652.1030, 529.5068
653.2640, 424.1875
654.4240, 413.2891
655.5850, 186.3174
656.7450, 212.3145
657.9060, 153.9756
659.0660, 243.0254
660.2260, 134.1621
661.3850, 85.01367
662.5450, 43.82617
663.7040, 39.20508
664.8640, 227.2148
666.0230, 53.99121
667.1820, 128.4443
668.3410, 54.21094
669.4990, 139.0635
670.6580, 28.32910
671.8160, 80.53418
672.9740, 60.10156
674.1320, 27.53906
675.2900, 36.32617
676.4480, 63.99219
677.6050, 84.07227
678.7630, 30.29492
679.9200, 5.328125
681.0770, 54.04297
682.2340, 64.67773
683.3900, 49.86914
684.5470, 71.86133
685.7030, 119.7031
686.8590, 37.35156
688.0150, 97.90039
689.1710, 57.54883
690.3270, 28.90820
691.4830, 33.79688
692.6380, 49.37500
693.7930, 12.68945
694.9480, 4.406250
696.1030, 184.3848
697.2580, 49.35938
698.4130, 2.476563
699.5670, 95.44922
700.7210, 122.2344
701.8750, 155.8535
703.0290, 60.46289
704.1830, 127.4961
705.3370, 47.59961
706.4900, 37.10742
707.6430, 71.58398
708.7970, 201.6035
709.9490, 139.8574
711.1020, 172.2090
712.2550, 196.4082
713.4070, 226.1152
714.5600, 171.1777
715.7120, 178.2754
716.8640, 203.8574
718.0160, 231.3418
719.1670, 234.8848
720.3190, 259.6426
721.4700, 237.7285
722.6210, 198.8359
723.7720, 171.1230
724.9230, 269.0039
726.0740, 197.7441
727.2250, 210.3828
728.3750, 309.9512
729.5250, 324.9902
730.6750, 207.5879
731.8250, 63.90430
732.9750, 157.7773
734.1240, 194.3184
735.2740, 153.6836
736.4230, 172.9004
737.5720, 254.1504
738.7210, 142.8340
739.8700, 201.7363
741.0190, 177.9297
742.1670, 100.0488
743.3150, 127.6836
744.4630, 124.2480
745.6110, 51.88867
746.7590, 149.4297
747.9070, 161.1602
749.0540, 50.64258
750.2020, 257.5527
751.3490, 158.1777
752.4960, 132.1953
753.6430, 289.0684
754.7890, 53.36133
755.9360, 310.7754
757.0820, 192.1406
758.2280, 78.26953
759.3740, 96.12305
760.5200, 178.9082
761.6660, 107.0918
762.8120, 146.1016
763.9570, 179.0684
765.1020, 57.16797
766.2470, 153.3086
767.3920, 138.6660
768.5370, 186.1934
769.6810, 249.2832
770.8260, 170.6270
771.9700, 278.1836
773.1140, 63.41016
774.2580, 11.17188
775.4020, 140.8711
776.5460, 271.8164
777.6890, 12.45117
778.8320, 180.9883
779.9750, 258.5215
781.1180, 143.0020
782.2610, 324.4219
783.4040, 304.7188
784.5460, 301.4434
785.6890, 311.2988
786.8310, 5.150391
787.9730, 257.4453
789.1150, 106.9727
790.2560, 174.2910
791.3980, 396.7324
792.5390, 360.2520
793.6810, 269.9043
794.8220, 339.3359
795.9630, 115.5000
797.1030, 256.2695
798.2440, 386.7324
799.3840, 312.1543
800.5240, 197.3906
801.6650, 363.7812
802.8040, 405.4277
803.9440, 467.4434
805.0840, 484.6133
806.2230, 499.8105
807.3630, 467.5449
808.5020, 465.8672
809.6410, 423.2461
810.7790, 331.4316
811.9180, 437.5410
813.0570, 372.0098
814.1950, 446.7617
815.3330, 453.4277
816.4710, 663.3438
817.6090, 449.4961
818.7470, 401.6816
819.8840, 208.9180
821.0220, 356.1133
822.1590, 409.1992
823.2960, 390.7695
824.4330, 341.3906
825.5690, 330.0918
826.7060, 277.2109
827.8420, 297.6914
828.9790, 302.7344
830.1150, 251.1973
831.2510, 375.5996
832.3860, 239.5820
833.5220, 298.0449
834.6570, 459.1016
835.7930, 192.5918
836.9280, 237.3086
838.0630, 236.4238
839.1980, 220.5938
840.3320, 296.2832
841.4670, 353.1719
842.6010, 452.3555
843.7350, 247.1016
844.8690, 361.5254
846.0030, 179.4199
847.1370, 271.9746
848.2700, 416.5859
849.4040, 256.2246
850.5370, 443.9082
851.6700, 366.4082
852.8030, 232.6270
853.9360, 237.9902
855.0680, 206.3945
856.2000, 38.73242
857.3330, 280.0820
858.4650, 257.2656
859.5970, 196.2090
860.7290, 274.9590
861.8600, 290.0449
862.9920, 296.7559
864.1230, 295.4492
865.2540, 164.4844
866.3850, 252.5059
867.5160, 61.96289
868.6460, 148.4805
869.7770, 208.8320
870.9070, 232.0020
872.0370, 247.9277
873.1670, 220.8652
874.2970, 337.0664
875.4270, 265.7363
876.5570, 296.5801
877.6860, 294.7461
878.8150, 270.5391
879.9440, 267.8652
881.0730, 229.1113
882.2020, 232.9844
883.3300, 189.0000
884.4590, 185.3906
885.5870, 84.04883
886.7150, 132.5020
887.8430, 38.46680
888.9710, 50.75195
890.0990, 152.5469
891.2260, 102.7910
892.3530, 63.96094
893.4810, 10.64648
894.6080, 71.89648
895.7340, 150.0742
896.8610, 24.67383
897.9880, 53.16797
899.1140, 42.10547
900.2400, 23.11523
901.3660, 124.4688
902.4920, 24.82422
903.6180, 58.34180
904.7430, 141.2109
905.8690, 57.96484
906.9940, 18.32422
908.1190, 61.93750
909.2440, 51.29297
910.3690, 81.04688
911.4930, 27.73438
912.6180, 57.00000
913.7420, 91.72266
914.8660, 46.48828
915.9900, 36.51953
917.1140, 28.00586
918.2380, 22.80469
919.3610, 150.2148
920.4850, 99.83398
921.6080, 101.9805
922.7310, 175.7227
923.8540, 102.8477
924.9760, 38.19531
926.0990, 90.34570
927.2210, 125.6953
928.3440, 11.35156
929.4660, 106.4512
930.5880, 140.3965
931.7090, 6.476563
932.8310, 184.9727
933.9520, 28.02734
935.0740, 11.40820
936.1950, 36.32422
937.3160, 136.3828
938.4360, 90.22461
939.5570, 104.2812
940.6780, 66.65625
941.7980, 13.65820
942.9180, 139.2422
944.0380, 99.90430
945.1580, 97.66211
946.2780, 16.16602
947.3970, 81.40234
948.5170, 188.6738
949.6360, 282.2285
950.7550, 338.8184
951.8740, 320.4570
952.9930, 463.9883
954.1110, 522.3184
955.2300, 564.8145
956.3480, 796.9277
957.4660, 1017.232
958.5840, 1202.494
959.7020, 1468.543
960.8190, 1923.562
961.9370, 2422.365
963.0540, 2876.230
964.1710, 3566.109
965.2880, 4665.756
966.4050, 5827.898
967.5220, 7397.453
968.6380, 8950.531
969.7550, 10747.68
970.8710, 12741.07
971.9870, 15040.68
973.1030, 17498.27
974.2190, 19303.79
975.3340, 21080.59
976.4500, 22214.25
977.5650, 23382.88
978.6800, 23392.48
979.7950, 23079.56
980.9100, 22581.84
982.0250, 22113.52
983.1390, 21622.68
984.2530, 21982.29
985.3680, 22119.47
986.4820, 22380.55
987.5950, 23267.11
988.7090, 23152.68
989.8230, 22958.11
990.9360, 22365.23
992.0490, 22142.93
993.1620, 21176.51
994.2750, 20395.84
995.3880, 19480.46
996.5010, 19059.19
997.6130, 18422.94
998.7250, 18187.71
999.8370, 18187.92
1000.949, 18331.49
1002.061, 18139.26
1003.173, 17837.37
1004.284, 17311.73
1005.396, 16663.18
1006.507, 15315.69
1007.618, 14503.07
1008.729, 13281.93
1009.839, 12184.49
1010.950, 10951.20
1012.060, 9767.924
1013.171, 9070.564
1014.281, 8059.211
1015.391, 7259.707
1016.500, 6269.219
1017.610, 5652.553
1018.719, 5208.867
1019.829, 4359.762
1020.938, 4277.850
1022.047, 3821.463
1023.156, 3774.133
1024.264, 3608.316
1025.373, 3560.299
1026.481, 3690.271
1027.589, 3588.965
1028.697, 3578.773
1029.805, 3560.141
1030.913, 3429.051
1032.020, 3449.066
1033.128, 3375.055
1034.235, 3309.820
1035.342, 3247.658
1036.449, 3266.793
1037.556, 3174.582
1038.663, 3094.707
1039.769, 3032.385
1040.875, 2884.172
1041.981, 2751.201
1043.087, 2654.949
1044.193, 2732.982
1045.299, 2438.021
1046.404, 2474.189
1047.510, 2492.545
1048.615, 1844.723
1049.720, 2227.867
1050.825, 1681.988
1051.930, 1767.146
1053.034, 1808.793
1054.139, 1561.227
1055.243, 1775.578
1056.347, 1665.389
1057.451, 1595.879
1058.555, 1507.496
1059.658, 1458.900
1060.762, 1603.154
1061.865, 1596.508
1062.968, 1593.854
1064.071, 1477.645
1065.174, 1494.857
1066.277, 1492.838
1067.380, 1288.572
1068.482, 1706.236
1069.584, 1517.641
1070.686, 1625.488
1071.788, 1830.160
1072.890, 1663.906
1073.992, 1754.770
1075.093, 1523.602
1076.194, 1808.547
1077.295, 1833.557
1078.396, 1882.398
1079.497, 1904.338
1080.598, 1936.227
1081.698, 2353.777
1082.799, 2337.266
1083.899, 2342.896
1084.999, 2392.639
1086.099, 2384.988
1087.199, 2550.281
1088.298, 2482.105
1089.398, 2654.484
1090.497, 2679.869
1091.596, 2680.258
1092.695, 2718.654
1093.794, 2539.125
1094.892, 2602.633
1095.991, 2469.342
1097.089, 2705.650
1098.187, 2510.137
1099.285, 2404.615
1100.383, 2371.729
1101.481, 1929.189
1102.579, 2120.006
1103.676, 1646.541
1104.773, 1967.279
1105.870, 1584.482
1106.967, 1725.594
1108.064, 1742.012
1109.161, 1641.223
1110.257, 1575.381
1111.353, 1644.604
1112.449, 1423.135
1113.545, 1569.865
1114.641, 1516.176
1115.737, 1721.412
1116.832, 1671.395
1117.928, 1600.408
1119.023, 1609.080
1120.118, 1658.221
1121.213, 1574.732
1122.308, 1631.016
1123.402, 1578.221
1124.497, 1702.145
1125.591, 1578.174
1126.685, 1769.812
1127.779, 1610.379
1128.873, 1613.092
1129.967, 1644.168
1131.060, 1814.383
1132.153, 1695.988
1133.247, 1351.227
1134.340, 1715.684
1135.433, 1702.398
1136.525, 1512.457
1137.618, 1694.109
1138.710, 1586.176
1139.802, 1667.844
1140.895, 1786.246
1141.987, 1515.434
1143.078, 1789.301
1144.170, 1922.723
1145.261, 1799.961
1146.353, 1940.961
1147.444, 1942.457
1148.535, 1989.105
1149.626, 1717.359
1150.716, 1631.094
1151.807, 1923.332
1152.897, 1605.012
1153.988, 2005.910
1155.078, 2095.688
1156.168, 1802.984
1157.257, 2083.137
1158.347, 1992.582
1159.436, 1820.836
1160.526, 1948.727
1161.615, 1659.973
1162.704, 1888.098
1163.793, 1737.391
1164.881, 1642.828
1165.970, 1719.445
1167.058, 1794.602
1168.147, 1792.125
1169.235, 1647.324
1170.323, 1630.844
1171.410, 1445.004
1172.498, 1316.277
1173.585, 1540.211
1174.673, 1140.941
1175.760, 1305.660
1176.847, 1461.027
1177.934, 1083.250
1179.020, 984.2188
1180.107, 1185.512
1181.193, 1041.133
1182.279, 1010.293
1183.365, 687.3438
1184.451, 845.3398
1185.537, 740.3594
1186.623, 681.4023
1187.708, 383.4336
1188.793, 686.6211
1189.878, 737.6719
1190.963, 544.7422
1192.048, 679.8398
1193.133, 519.9297
1194.217, 502.3750
1195.302, 387.5117
1196.386, 299.6406
1197.470, 243.7383
1198.554, 242.8906
1199.638, 228.3633
1200.721, 139.3359
1201.805, 297.4219
1202.888, 204.5000
1203.971, 285.6328
1205.054, 223.7031
1206.137, 237.2031
1207.219, 239.2539
1208.302, 131.3164
1209.384, 131.3672
1210.466, 118.1328
1211.548, 73.58203
1212.630, 113.5859
1213.712, 83.85156
1214.794, 61.08984
1215.875, 237.7461
1216.956, 13.33594
1218.037, 54.99609
1219.118, 173.8633
1220.199, 328.7109
1221.280, 195.5352
1222.360, 281.3398
1223.441, 160.1289
1224.521, 155.8984
1225.601, 111.6406
1226.681, 4.628906
1227.760, 174.9492
1228.840, 181.2422
1229.919, 33.89453
1230.999, 290.7422
1232.078, 113.3438
1233.157, 184.9180
1234.236, 39.53125
1235.314, 33.99609
1236.393, 23.46094
1237.471, 1.082031
1238.549, 44.57422
1239.627, 61.51172
1240.705, 51.15625
1241.783, 219.8359
1242.860, 47.77734
1243.938, 43.17578
1245.015, 117.0039
1246.092, 88.58984
1247.169, 102.2344
1248.246, 184.0391
1249.323, 103.0508
1250.399, 17.91797
1251.475, 75.75000
1252.552, 99.54688
1253.628, 170.3125
1254.703, 148.0430
1255.779, 244.7344
1256.855, 93.59766
1257.930, 63.02344
1259.005, 131.5156
1260.080, 121.1289
1261.155, 30.78125
1262.230, 121.7266
1263.305, 75.56250
1264.379, 256.1562
1265.454, 177.3711
1266.528, 297.5469
1267.602, 181.3906
1268.676, 40.50000
1269.750, 107.5820
1270.823, 73.89062
1271.897, 99.60156
1272.970, 59.80859
1274.043, 40.03125
1275.116, 35.37109
1276.189, 98.42188
1277.261, 12.14844
1278.334, 161.1562
1279.406, 48.72656
1280.478, 171.8477
1281.550, 357.5430
1282.622, 38.34375
1283.694, 23.64844
1284.766, 19.74219
1285.837, 75.55859
1286.908, 78.99609
1287.979, 75.13672
1289.050, 115.8555
1290.121, 57.05078
1291.192, 38.26562
1292.262, 5.890625
1293.333, 190.0234
1294.403, 149.0664
1295.473, 269.0820
1296.543, 187.2227
1297.613, 269.8906
1298.682, 194.1094
1299.752, 287.0664
1300.821, 260.3672
1301.890, 372.1914
1302.959, 12.89453
1304.028, 172.5234
1305.096, 256.3906
1306.165, 302.8594
1307.233, 564.6172
1308.301, 304.2812
1309.370, 224.4297
1310.437, 344.6914
1311.505, 353.3125
1312.573, 519.4453
1313.640, 562.3047
1314.708, 704.7344
1315.775, 425.1328
1316.842, 349.5000
1317.908, 496.8203
1318.975, 498.1094
1320.042, 620.3516
1321.108, 519.5625
1322.174, 307.7344
1323.240, 422.9727
1324.306, 592.0586
1325.372, 157.1016
1326.438, 384.1055
1327.503, 337.4492
1328.568, 426.3086
1329.634, 523.1836
1330.699, 671.0156
1331.763, 143.8047
1332.828, 668.5898
1333.893, 298.7383
1334.957, 587.9609
1336.021, 440.7500
1337.085, 678.6133
1338.149, 370.0820
1339.213, 559.1211
1340.277, 934.4961
1341.340, 343.7266
1342.404, 543.9414
1343.467, 715.8281
1344.530, 638.0664
1345.593, 114.4492
1346.655, 657.1406
1347.718, 454.8555
1348.780, 863.9141
1349.843, 734.0820
1350.905, 712.7891
1351.967, 441.0391
1353.028, 535.3945
1354.090, 737.9258
1355.152, 214.1836
1356.213, 277.8359
1357.274, 713.4766
1358.335, 373.5625
1359.396, 542.1172
1360.457, 483.7070
1361.517, 523.0703
1362.578, 608.2227
1363.638, 572.3672
1364.698, 441.7031
1365.758, 551.7031
1366.818, 338.3203
1367.878, 337.3477
1368.937, 489.6562
1369.997, 476.9805
1371.056, 303.2891
1372.115, 391.3398
1373.174, 331.8945
1374.232, 386.0117
1375.291, 398.6523
1376.350, 381.0859
1377.408, 430.8086
1378.466, 471.6328
1379.524, 486.0664
1380.582, 591.7578
1381.640, 610.7109
1382.697, 671.0977
1383.754, 471.0469
1384.812, 536.2031
1385.869, 425.5859
1386.926, 140.1211
1387.983, 344.1484
1389.039, 518.1523
1390.096, 70.37500
1391.152, 333.3320
1392.208, 436.4531
1393.264, 459.7227
1394.320, 250.3398
1395.376, 554.5195
1396.431, 174.0078
1397.487, 299.6953
1398.542, 328.5469
1399.597, 429.6719
1400.652, 404.1797
