##NAMES=Hauyne
##RRUFFID=R070557
##IDEAL CHEMISTRY=Na_3_Ca(Si_3_Al_3_)O_12_(S^6+^O_4_)
##LOCALITY=Badakhshan, Afghanistan
##OWNER=RRUFF
##SOURCE=Farooq Hashmi
##DESCRIPTION=Sky blue fragment
##STATUS=The identification of this mineral is confirmed by single-crystal X-ray diffraction and chemical analysis.
##URL=rruff.info/R070557
##MEASURED CHEMISTRY=Na_3.00_(Ca_0.84_Na_0.16_)_Σ=1_(Si_3.05_Al_2.95_)O_12_((SO_4_)_0.89_Cl_0.11_)_Σ=1_
##PIN_ID=M01358
##ORIENTATION=Laser parallel to a* (1 0 0). Fiducial mark perpendicular to laser is parallel to c [0 0 1]
211.2710, 0.0000000E+00
212.4940, 1.143555
213.7160, 182.9717
214.9370, 157.9014
216.1590, 42.60352
217.3810, 143.4238
218.6020, 50.66699
219.8230, 162.5732
221.0440, 11.53223
222.2650, 100.0352
223.4860, 116.2637
224.7060, 52.18262
225.9260, 20.37500
227.1470, 46.65625
228.3670, 31.70508
229.5860, 92.20703
230.8060, 78.68164
232.0260, 91.06250
233.2450, 129.3193
234.4640, 31.41016
235.6830, 178.4219
236.9020, 244.4912
238.1200, 165.9541
239.3390, 241.0977
240.5570, 286.2197
241.7750, 356.9414
242.9930, 271.5088
244.2110, 370.5273
245.4290, 271.4707
246.6460, 552.2100
247.8630, 415.2178
249.0810, 745.5947
250.2980, 591.7432
251.5140, 562.8867
252.7310, 625.9561
253.9470, 548.0781
255.1640, 579.6777
256.3800, 606.6572
257.5960, 616.7051
258.8120, 610.7139
260.0270, 674.6973
261.2430, 535.4443
262.4580, 592.1250
263.6730, 493.6084
264.8880, 422.2158
266.1030, 430.7314
267.3170, 477.9150
268.5320, 399.7930
269.7460, 272.9150
270.9600, 469.5059
272.1740, 519.7617
273.3880, 303.2939
274.6010, 319.3672
275.8150, 492.9854
277.0280, 493.8330
278.2410, 444.2158
279.4540, 541.6113
280.6670, 469.2598
281.8790, 467.8652
283.0920, 310.5957
284.3040, 286.0771
285.5160, 305.5957
286.7280, 236.4727
287.9400, 547.5488
289.1510, 259.0498
290.3630, 322.4482
291.5740, 473.2139
292.7850, 283.8398
293.9960, 357.3252
295.2070, 232.7168
296.4170, 305.7744
297.6280, 328.7266
298.8380, 294.5049
300.0480, 246.9746
301.2580, 202.8320
302.4680, 195.9434
303.6770, 149.3213
304.8870, 321.4814
306.0960, 144.6592
307.3050, 159.8457
308.5140, 34.03809
309.7230, 146.2324
310.9310, 44.42285
312.1400, 117.6084
313.3480, 201.7783
314.5560, 193.9277
315.7640, 175.0439
316.9720, 206.1309
318.1790, 232.1807
319.3870, 65.19336
320.5940, 58.15137
321.8010, 53.04980
323.0080, 151.9023
324.2150, 101.2988
325.4210, 41.54883
326.6280, 61.14648
327.8340, 57.20898
329.0400, 68.37793
330.2460, 46.90332
331.4510, 104.6270
332.6570, 38.23145
333.8620, 39.08301
335.0680, 41.32812
336.2730, 62.47852
337.4780, 36.33496
338.6820, 98.25684
339.8870, 67.25098
341.0910, 35.41113
342.2950, 88.68555
343.5000, 80.04883
344.7030, 31.57227
345.9070, 29.82129
347.1110, 75.08984
348.3140, 74.80859
349.5170, 10.15039
350.7200, 27.96094
351.9230, 5.291016
353.1260, 36.36230
354.3290, 184.9619
355.5310, 177.5205
356.7330, 277.4609
357.9350, 246.4443
359.1370, 14.82031
360.3390, 31.11523
361.5400, 87.30469
362.7420, 245.4023
363.9430, 237.4004
365.1440, 247.2920
366.3450, 351.9785
367.5460, 240.6865
368.7460, 251.3027
369.9470, 203.8193
371.1470, 245.3350
372.3470, 325.5908
373.5470, 280.6748
374.7460, 339.6943
375.9460, 429.9922
377.1450, 386.9189
378.3450, 406.7520
379.5440, 432.2549
380.7430, 418.0674
381.9410, 530.4160
383.1400, 455.8418
384.3380, 500.2441
385.5370, 327.3965
386.7350, 518.5303
387.9320, 377.5400
389.1300, 375.4590
390.3280, 389.2949
391.5250, 450.0400
392.7220, 448.1582
393.9190, 404.1426
395.1160, 488.5234
396.3130, 506.8027
397.5100, 532.9727
398.7060, 443.0391
399.9020, 575.0098
401.0980, 587.1621
402.2940, 707.6484
403.4900, 713.3301
404.6860, 811.8867
405.8810, 854.3906
407.0760, 1076.805
408.2710, 960.1582
409.4660, 873.4551
410.6610, 1079.648
411.8550, 1249.756
413.0500, 1315.631
414.2440, 1495.027
415.4380, 1580.682
416.6320, 1733.217
417.8260, 1924.121
419.0190, 2020.924
420.2130, 2173.941
421.4060, 2284.023
422.5990, 2660.689
423.7920, 2940.664
424.9850, 3102.105
426.1770, 3199.467
427.3700, 3498.143
428.5620, 3601.727
429.7540, 3863.330
430.9460, 4112.318
432.1380, 4508.309
433.3290, 4556.650
434.5210, 4763.240
435.7120, 4814.441
436.9030, 5068.838
438.0940, 5084.531
439.2850, 5287.693
440.4750, 5312.152
441.6660, 5009.699
442.8560, 5341.090
444.0460, 5158.270
445.2360, 5258.176
446.4260, 5184.027
447.6160, 5254.488
448.8050, 4825.934
449.9940, 4807.352
451.1830, 4564.891
452.3720, 4442.447
453.5610, 4536.863
454.7500, 4535.797
455.9380, 4254.955
457.1260, 4119.824
458.3150, 3996.625
459.5020, 3870.266
460.6900, 3486.113
461.8780, 3571.057
463.0650, 3485.535
464.2530, 3277.902
465.4400, 2860.186
466.6270, 2947.605
467.8130, 2650.678
469.0000, 2382.541
470.1870, 2238.008
471.3730, 2210.961
472.5590, 2195.545
473.7450, 2053.797
474.9310, 1944.881
476.1160, 2041.168
477.3020, 1788.316
478.4870, 1863.521
479.6720, 1709.398
480.8570, 1606.953
482.0420, 1579.660
483.2270, 1485.350
484.4110, 1427.076
485.5960, 1393.500
486.7800, 1277.629
487.9640, 943.6035
489.1480, 1071.738
490.3310, 860.4922
491.5150, 716.0098
492.6980, 864.7695
493.8810, 800.9570
495.0640, 761.9980
496.2470, 771.3574
497.4300, 654.9219
498.6120, 664.4102
499.7950, 716.2715
500.9770, 543.9707
502.1590, 509.7578
503.3410, 385.9551
504.5220, 352.6914
505.7040, 375.0098
506.8850, 552.4824
508.0660, 401.9062
509.2470, 397.6250
510.4280, 505.9668
511.6090, 376.7246
512.7890, 218.2969
513.9700, 305.6191
515.1500, 319.0488
516.3300, 273.4238
517.5100, 241.2461
518.6900, 348.5078
519.8690, 276.2559
521.0490, 260.1914
522.2280, 480.4688
523.4070, 329.3652
524.5860, 531.4609
525.7640, 439.0684
526.9430, 354.7891
528.1210, 717.9961
529.3000, 808.8770
530.4780, 944.5508
531.6560, 1440.395
532.8330, 1638.496
534.0110, 1975.402
535.1880, 2340.490
536.3650, 2756.496
537.5430, 3193.523
538.7190, 3776.641
539.8960, 4285.230
541.0730, 4910.953
542.2490, 5038.350
543.4250, 5336.609
544.6020, 5428.924
545.7780, 5121.236
546.9530, 4711.281
548.1290, 4363.234
549.3040, 3611.717
550.4800, 3016.420
551.6550, 2649.395
552.8300, 2063.262
554.0040, 1614.672
555.1790, 1233.062
556.3540, 947.0137
557.5280, 788.5039
558.7020, 514.6836
559.8760, 441.8066
561.0500, 323.3281
562.2230, 256.7480
563.3970, 276.1738
564.5700, 235.3652
565.7430, 389.5859
566.9160, 412.6504
568.0890, 341.7441
569.2620, 307.8691
570.4340, 359.2793
571.6070, 221.1445
572.7790, 345.3340
573.9510, 345.2637
575.1230, 434.4336
576.2940, 516.5840
577.4660, 482.5508
578.6370, 366.1602
579.8080, 576.8262
580.9790, 616.9414
582.1500, 514.0469
583.3210, 344.5547
584.4910, 506.4395
585.6620, 526.0508
586.8320, 458.4785
588.0020, 532.7188
589.1720, 422.9668
590.3410, 374.9023
591.5110, 432.8906
592.6800, 358.5020
593.8500, 527.2832
595.0190, 526.5547
596.1880, 570.7520
597.3560, 547.2480
598.5250, 551.1621
599.6930, 798.7070
600.8620, 729.7910
602.0300, 805.9863
603.1970, 1090.996
604.3650, 1150.119
605.5330, 1136.658
606.7000, 1332.496
607.8680, 1346.850
609.0350, 1692.344
610.2020, 1587.869
611.3680, 1524.225
612.5350, 1844.299
613.7010, 1920.547
614.8680, 1712.986
616.0340, 1695.174
617.2000, 1600.850
618.3660, 1720.082
619.5310, 1488.836
620.6970, 1368.660
621.8620, 1134.293
623.0270, 1106.877
624.1920, 945.4082
625.3570, 964.8477
626.5220, 949.2598
627.6860, 796.5801
628.8500, 761.8965
630.0140, 621.9980
631.1780, 550.2715
632.3420, 466.3789
633.5060, 381.7383
634.6700, 331.9727
635.8330, 519.5410
636.9960, 306.5918
638.1590, 334.2168
639.3220, 485.3301
640.4850, 415.0898
641.6470, 125.0742
642.8100, 392.0371
643.9720, 507.0762
645.1340, 135.1738
646.2960, 390.1895
647.4570, 96.16992
648.6190, 123.0488
649.7800, 75.96680
650.9420, 235.9473
652.1030, 225.1445
653.2640, 78.79883
654.4240, 72.33789
655.5850, 86.46680
656.7450, 31.21484
657.9060, 46.20703
659.0660, 80.62891
660.2260, 49.00586
661.3850, 79.37109
662.5450, 55.25195
663.7040, 20.85938
664.8640, 12.54688
666.0230, 15.99023
667.1820, 85.47852
668.3410, 45.95703
669.4990, 89.64844
670.6580, 140.3359
671.8160, 95.76367
672.9740, 15.41797
674.1320, 60.44922
675.2900, 131.6230
676.4480, 17.78906
677.6050, 179.7949
678.7630, 60.75586
679.9200, 23.68359
681.0770, 13.40039
682.2340, 122.4238
683.3900, 31.80078
684.5470, 97.91211
685.7030, 219.3867
686.8590, 4.664063
688.0150, 51.22461
689.1710, 54.86328
690.3270, 150.4141
691.4830, 170.6445
692.6380, 33.82812
693.7930, 33.95898
694.9480, 133.0977
696.1030, 238.1270
697.2580, 68.11133
698.4130, 77.04102
699.5670, 53.40625
700.7210, 111.2344
701.8750, 37.29883
703.0290, 40.87695
704.1830, 95.76953
705.3370, 60.78906
706.4900, 49.29297
707.6430, 276.7441
708.7970, 205.1230
709.9490, 91.47852
711.1020, 248.6152
712.2550, 305.8691
713.4070, 244.0781
714.5600, 244.2383
715.7120, 284.1270
716.8640, 125.4551
718.0160, 346.4629
719.1670, 235.4277
720.3190, 233.7090
721.4700, 371.8828
722.6210, 277.7012
723.7720, 338.4668
724.9230, 139.1875
726.0740, 180.1582
727.2250, 175.3203
728.3750, 244.8789
729.5250, 228.9961
730.6750, 316.1133
731.8250, 273.1289
732.9750, 151.9160
734.1240, 167.5000
735.2740, 331.7441
736.4230, 227.4590
737.5720, 311.1641
738.7210, 178.2520
739.8700, 386.2871
741.0190, 186.2734
742.1670, 394.7109
743.3150, 292.5898
744.4630, 217.7578
745.6110, 257.5605
746.7590, 133.2773
747.9070, 293.9375
749.0540, 330.7852
750.2020, 503.0742
751.3490, 356.0059
752.4960, 306.5859
753.6430, 132.9824
754.7890, 256.1172
755.9360, 358.8105
757.0820, 231.3027
758.2280, 216.7988
759.3740, 268.2871
760.5200, 285.0059
761.6660, 299.8320
762.8120, 322.1992
763.9570, 334.7246
765.1020, 361.0312
766.2470, 369.0449
767.3920, 417.1250
768.5370, 372.3496
769.6810, 573.9414
770.8260, 360.3027
771.9700, 431.9512
773.1140, 267.8223
774.2580, 449.0625
775.4020, 283.9395
776.5460, 416.9727
777.6890, 258.0312
778.8320, 547.5605
779.9750, 216.3086
781.1180, 432.7402
782.2610, 443.9785
783.4040, 223.1309
784.5460, 478.7676
785.6890, 273.3574
786.8310, 582.3574
787.9730, 503.6445
789.1150, 423.8164
790.2560, 584.1621
791.3980, 606.8359
792.5390, 694.0977
793.6810, 544.8262
794.8220, 841.8691
795.9630, 471.9082
797.1030, 332.3418
798.2440, 707.2520
799.3840, 762.1367
800.5240, 736.4688
801.6650, 659.1641
802.8040, 559.0293
803.9440, 731.2305
805.0840, 714.6113
806.2230, 744.2734
807.3630, 662.8145
808.5020, 443.3809
809.6410, 624.6133
810.7790, 598.1250
811.9180, 706.7148
813.0570, 488.6660
814.1950, 637.0684
815.3330, 827.7012
816.4710, 823.4961
817.6090, 516.4355
818.7470, 760.0781
819.8840, 581.9180
821.0220, 523.8613
822.1590, 515.4609
823.2960, 458.2383
824.4330, 652.0098
825.5690, 514.1621
826.7060, 638.0020
827.8420, 698.4766
828.9790, 714.9688
830.1150, 587.8223
831.2510, 493.6094
832.3860, 647.7422
833.5220, 681.2500
834.6570, 663.9766
835.7930, 392.6777
836.9280, 692.2070
838.0630, 385.9082
839.1980, 666.2324
840.3320, 536.5059
841.4670, 518.6641
842.6010, 667.8867
843.7350, 690.9980
844.8690, 574.9941
846.0030, 717.6250
847.1370, 450.7148
848.2700, 638.3945
849.4040, 539.2500
850.5370, 631.7832
851.6700, 619.2480
852.8030, 492.8145
853.9360, 596.6523
855.0680, 570.3516
856.2000, 414.5176
857.3330, 428.6094
858.4650, 588.2129
859.5970, 579.3574
860.7290, 628.6895
861.8600, 429.1250
862.9920, 370.6621
864.1230, 642.1094
865.2540, 355.7852
866.3850, 343.3242
867.5160, 536.1582
868.6460, 490.7480
869.7770, 432.7656
870.9070, 559.7832
872.0370, 375.4238
873.1670, 364.5586
874.2970, 662.9746
875.4270, 640.7734
876.5570, 648.3770
877.6860, 377.0801
878.8150, 607.5898
879.9440, 416.6055
881.0730, 490.2461
882.2020, 531.9902
883.3300, 513.1465
884.4590, 437.9160
885.5870, 319.7754
886.7150, 392.8789
887.8430, 224.6875
888.9710, 528.2383
890.0990, 302.9980
891.2260, 394.2070
892.3530, 189.7793
893.4810, 174.7461
894.6080, 15.58008
895.7340, 104.5312
896.8610, 253.4766
897.9880, 179.4160
899.1140, 37.37500
900.2400, 134.3008
901.3660, 16.73828
902.4920, 160.1367
903.6180, 113.1387
904.7430, 29.11719
905.8690, 289.7090
906.9940, 206.2070
908.1190, 41.90430
909.2440, 74.86133
910.3690, 335.4082
911.4930, 90.70703
912.6180, 73.56445
913.7420, 143.0898
914.8660, 102.7051
915.9900, 374.4004
917.1140, 211.6523
918.2380, 0.9257810
919.3610, 72.77734
920.4850, 204.5801
921.6080, 49.00586
922.7310, 92.38477
923.8540, 129.2773
924.9760, 161.6445
926.0990, 158.7773
927.2210, 0.8457030
928.3440, 118.8496
929.4660, 48.79297
930.5880, 151.3301
931.7090, 131.2832
932.8310, 165.7480
933.9520, 30.75195
935.0740, 47.79883
936.1950, 73.45312
937.3160, 9.984375
938.4360, 6.6405997E-02
939.5570, 63.01953
940.6780, 27.06250
941.7980, 25.05664
942.9180, 147.9824
944.0380, 52.46094
945.1580, 304.3047
946.2780, 10.94141
947.3970, 59.75000
948.5170, 23.75000
949.6360, 365.8262
950.7550, 1.357422
951.8740, 337.8145
952.9930, 223.1895
954.1110, 451.5605
955.2300, 121.8848
956.3480, 474.1680
957.4660, 428.3691
958.5840, 609.3984
959.7020, 972.6172
960.8190, 1048.809
961.9370, 1168.977
963.0540, 1541.113
964.1710, 1936.207
965.2880, 2627.262
966.4050, 3156.242
967.5220, 3988.242
968.6380, 4714.203
969.7550, 5474.121
970.8710, 6157.516
971.9870, 6642.359
973.1030, 7259.652
974.2190, 7899.430
975.3340, 8110.164
976.4500, 8470.895
977.5650, 9111.590
978.6800, 9732.242
979.7950, 10514.19
980.9100, 11282.48
982.0250, 12342.83
983.1390, 13563.35
984.2530, 14628.83
985.3680, 15702.28
986.4820, 16320.73
987.5950, 16877.09
988.7090, 16540.50
989.8230, 16010.88
990.9360, 14601.84
992.0490, 13785.83
993.1620, 12617.09
994.2750, 11401.32
995.3880, 10101.50
996.5010, 9062.352
997.6130, 8110.027
998.7250, 7082.008
999.8370, 6489.453
1000.949, 5803.812
1002.061, 5131.805
1003.173, 4560.625
1004.284, 3796.410
1005.396, 3474.332
1006.507, 3043.699
1007.618, 2683.984
1008.729, 2497.809
1009.839, 2601.598
1010.950, 2334.355
1012.060, 2292.570
1013.171, 2233.289
1014.281, 2201.637
1015.391, 1818.266
1016.500, 1870.891
1017.610, 1654.488
1018.719, 1543.812
1019.829, 1506.613
1020.938, 1164.691
1022.047, 1175.039
1023.156, 1279.488
1024.264, 1003.109
1025.373, 1057.082
1026.481, 1044.184
1027.589, 1038.188
1028.697, 875.1250
1029.805, 910.3086
1030.913, 828.0039
1032.020, 904.9375
1033.128, 865.6523
1034.235, 877.4141
1035.342, 799.1211
1036.449, 921.9258
1037.556, 822.5000
1038.663, 874.6328
1039.769, 914.2891
1040.875, 975.8203
1041.981, 991.4219
1043.087, 849.5781
1044.193, 868.2422
1045.299, 778.1562
1046.404, 881.2422
1047.510, 953.7773
1048.615, 837.1953
1049.720, 909.6602
1050.825, 905.2383
1051.930, 868.0430
1053.034, 944.0625
1054.139, 822.1211
1055.243, 764.7695
1056.347, 915.8398
1057.451, 703.6875
1058.555, 825.1680
1059.658, 828.6289
1060.762, 870.6172
1061.865, 898.8828
1062.968, 918.5312
1064.071, 783.0039
1065.174, 838.3047
1066.277, 1062.910
1067.380, 885.1875
1068.482, 1061.238
1069.584, 987.6953
1070.686, 1019.367
1071.788, 964.4805
1072.890, 1411.359
1073.992, 1280.613
1075.093, 1010.570
1076.194, 1582.508
1077.295, 1327.469
1078.396, 1211.766
1079.497, 1564.438
1080.598, 1592.312
1081.698, 1835.562
1082.799, 1830.047
1083.899, 1902.555
1084.999, 1767.797
1086.099, 2096.445
1087.199, 1992.973
1088.298, 2051.957
1089.398, 1888.684
1090.497, 2067.156
1091.596, 1963.625
1092.695, 1905.086
1093.794, 1684.539
1094.892, 1791.062
1095.991, 1806.512
1097.089, 1987.949
1098.187, 1486.398
1099.285, 1486.832
1100.383, 1405.258
1101.481, 1268.680
1102.579, 1094.098
1103.676, 1279.566
1104.773, 1179.980
1105.870, 953.8945
1106.967, 1210.301
1108.064, 983.7070
1109.161, 1143.129
1110.257, 944.6953
1111.353, 928.6641
1112.449, 790.0586
1113.545, 999.4531
1114.641, 946.8398
1115.737, 918.2344
1116.832, 862.6602
1117.928, 1047.426
1119.023, 809.8086
1120.118, 1042.387
1121.213, 1394.898
1122.308, 1011.277
1123.402, 1049.652
1124.497, 1096.031
1125.591, 1033.410
1126.685, 891.7852
1127.779, 938.1602
1128.873, 908.5391
1129.967, 1001.918
1131.060, 990.2930
1132.153, 622.6094
1133.247, 732.9883
1134.340, 715.8984
1135.433, 561.2812
1136.525, 895.6641
1137.618, 648.0508
1138.710, 603.4375
1139.802, 541.8242
1140.895, 987.2227
1141.987, 877.6094
1143.078, 709.0078
1144.170, 964.9219
1145.261, 744.3242
1146.353, 688.7266
1147.444, 752.1289
1148.535, 757.6445
1149.626, 796.0547
1150.716, 797.4688
1151.807, 931.8789
1152.897, 932.1250
1153.988, 594.7344
1155.078, 886.1602
1156.168, 902.5977
1157.257, 621.0391
1158.347, 771.4883
1159.436, 673.9492
1160.526, 859.4297
1161.615, 875.9180
1162.704, 616.4141
1163.793, 758.9180
1164.881, 665.4414
1165.970, 546.9766
1167.058, 536.4648
1168.147, 780.0352
1169.235, 521.6133
1170.323, 576.2266
1171.410, 612.8477
1172.498, 428.4766
1173.585, 583.1211
1174.673, 655.7812
1175.760, 623.4414
1176.847, 458.1562
1177.934, 480.8789
1179.020, 535.6172
1180.107, 207.3984
1181.193, 507.1914
1182.279, 335.0586
1183.365, 594.9570
1184.451, 20.86719
1185.537, 549.8555
1186.623, 23.14453
1187.708, 48.14453
1188.793, 157.8984
1189.878, 308.9531
1190.963, 221.0117
1192.048, 163.0977
1193.133, 96.19141
1194.217, 80.30859
1195.302, 35.16016
1196.386, 174.6797
1197.470, 47.93359
1198.554, 82.20703
1199.638, 234.5195
1200.721, 238.8711
1201.805, 156.2422
1202.888, 84.64062
1203.971, 63.95312
1205.054, 38.55078
1206.137, 104.8516
1207.219, 240.3164
1208.302, 173.1797
1209.384, 10.25000
1210.466, 23.70703
1211.548, 123.8203
1212.630, 2.375000
1213.712, 206.0781
1214.794, 2.609375
1215.875, 167.1406
1216.956, 13.68750
1218.037, 132.2383
1219.118, 114.8047
1220.199, 219.3789
1221.280, 194.9609
1222.360, 297.5664
1223.441, 350.1836
1224.521, 42.19531
1225.601, 102.4180
1226.681, 93.03906
1227.760, 114.3281
1228.840, 95.25781
1229.919, 233.8594
1230.999, 187.4766
1232.078, 242.1445
1233.157, 10.81250
1234.236, 91.50000
1235.314, 28.81250
1236.393, 111.8750
1237.471, 139.5859
1238.549, 21.33594
1239.627, 3.101563
1240.705, 86.12109
1241.783, 182.6211
1242.860, 89.37109
1243.938, 61.13281
1245.015, 189.9023
1246.092, 18.67969
1247.169, 149.5312
1248.246, 80.19141
1249.323, 146.0781
1250.399, 5.593750
1251.475, 96.26562
1252.552, 128.9492
1253.628, 216.5625
1254.703, 263.2891
1255.779, 290.0586
1256.855, 362.7812
1257.930, 364.5117
1259.005, 411.2539
1260.080, 276.0117
1261.155, 12.22656
1262.230, 141.5352
1263.305, 115.6914
1264.379, 212.0312
1265.454, 269.7617
1266.528, 137.5039
1267.602, 283.2539
1268.676, 193.0156
1269.750, 153.7852
1270.823, 175.5625
1271.897, 243.3555
1272.970, 96.85156
1274.043, 294.9023
1275.116, 131.6641
1276.189, 297.4336
1277.261, 13.21484
1278.334, 518.0000
1279.406, 299.7930
1280.478, 451.5977
1281.550, 212.4102
1282.622, 393.2344
1283.694, 490.0586
1284.766, 435.8984
1285.837, 339.7383
1286.908, 94.58984
1287.979, 284.4414
1289.050, 190.3008
1290.121, 344.1680
1291.192, 445.0469
1292.262, 187.9180
1293.333, 457.8086
1294.403, 326.7109
1295.473, 180.3867
1296.543, 419.5898
1297.613, 153.6367
1298.682, 350.4531
1299.752, 767.2812
1300.821, 342.1133
1301.890, 507.9453
1302.959, 497.7852
1304.028, 274.6250
1305.096, 326.4648
1306.165, 436.3086
1307.233, 626.1484
1308.301, 603.9961
1309.370, 822.8398
1310.437, 910.6797
1311.505, 625.5234
1312.573, 608.3594
1313.640, 413.1719
1314.708, 531.0195
1315.775, 477.0898
1316.842, 557.2461
1317.908, 551.6250
1318.975, 722.5000
1320.042, 845.3789
1321.108, 773.2656
1322.174, 736.1562
1323.240, 781.0547
1324.306, 721.9609
1325.372, 709.8750
1326.438, 999.7930
1327.503, 773.2383
1328.568, 1004.172
1329.634, 602.1094
1330.699, 901.1328
1331.763, 868.0820
1332.828, 826.1875
1333.893, 809.4336
1334.957, 884.9336
1336.021, 871.0664
1337.085, 1030.824
1338.149, 948.7500
1339.213, 1039.277
1340.277, 820.8867
1341.340, 1083.062
1342.404, 718.1211
1343.467, 862.0156
1344.530, 791.0664
1345.593, 532.2773
1346.655, 750.2930
1347.718, 671.6680
1348.780, 728.6953
1349.843, 1106.074
1350.905, 811.1133
1351.967, 936.9297
1353.028, 911.0117
1354.090, 775.0742
1355.152, 784.1797
1356.213, 818.9492
1357.274, 885.2773
1358.335, 654.2461
1359.396, 618.0508
1360.457, 673.1406
1361.517, 708.4727
1362.578, 985.5859
1363.638, 486.8867
1364.698, 791.3711
1365.758, 677.4961
1366.818, 935.0625
1367.878, 720.1484
1368.937, 850.1484
1369.997, 800.2891
1371.056, 749.4375
1372.115, 819.8203
1373.174, 796.9844
1374.232, 833.4414
