##NAMES=Hauyne
##RRUFFID=R070121
##IDEAL CHEMISTRY=Na_3_Ca(Si_3_Al_3_)O_12_(S^6+^O_4_)
##LOCALITY=Hesse, Germany
##OWNER=RRUFF
##SOURCE=Michael Scott
##DESCRIPTION=Blue cut gemstones
##STATUS=The identification of this mineral has been confirmed by single-crystal X-ray diffraction.
##URL=rruff.info/R070121
##PIN_ID=M01514
##ORIENTATION=Laser parallel to a* (1 0 0). Fiducial mark perpendicular to laser is parallel to c [0 0 1]
224.7060, 0.0000000E+00
225.9260, 149.7793
227.1470, 5.262695
228.3670, 0.7968750
229.5860, 94.67285
230.8060, 81.61719
232.0260, 170.3125
233.2450, 222.2041
234.4640, 264.5488
235.6830, 324.4951
236.9020, 397.1748
238.1200, 425.2861
239.3390, 534.8086
240.5570, 619.2891
241.7750, 741.9707
242.9930, 803.1670
244.2110, 1180.798
245.4290, 1294.317
246.6460, 1466.996
247.8630, 1544.201
249.0810, 1836.143
250.2980, 1892.771
251.5140, 2181.012
252.7310, 2221.109
253.9470, 2336.877
255.1640, 2518.897
256.3800, 2578.285
257.5960, 2546.229
258.8120, 2810.005
260.0270, 2958.261
261.2430, 2494.566
262.4580, 2115.628
263.6730, 1935.782
264.8880, 1853.477
266.1030, 1530.055
267.3170, 1460.504
268.5320, 1480.615
269.7460, 1308.614
270.9600, 1167.095
272.1740, 1024.760
273.3880, 896.0186
274.6010, 1022.482
275.8150, 1043.000
277.0280, 942.0166
278.2410, 897.6553
279.4540, 931.0010
280.6670, 1108.452
281.8790, 909.1377
283.0920, 1174.511
284.3040, 1104.719
285.5160, 1133.146
286.7280, 1076.309
287.9400, 1003.225
289.1510, 950.5605
290.3630, 1009.907
291.5740, 823.1582
292.7850, 905.5586
293.9960, 872.3447
295.2070, 817.9678
296.4170, 793.9307
297.6280, 649.6982
298.8380, 625.8320
300.0480, 522.5605
301.2580, 505.8701
302.4680, 365.3643
303.6770, 288.0596
304.8870, 316.0254
306.0960, 219.4258
307.3050, 249.8623
308.5140, 165.5029
309.7230, 322.3281
310.9310, 329.3184
312.1400, 580.4541
313.3480, 174.7178
314.5560, 372.0908
315.7640, 54.56055
316.9720, 256.1113
318.1790, 218.7256
319.3870, 126.3926
320.5940, 113.0986
321.8010, 138.8359
323.0080, 0.5917970
324.2150, 3.355469
325.4210, 50.11230
326.6280, 62.84277
327.8340, 184.0410
329.0400, 71.83691
330.2460, 90.21777
331.4510, 115.7305
332.6570, 51.26855
333.8620, 107.8730
335.0680, 290.5537
336.2730, 148.3193
337.4780, 238.1924
338.6820, 250.1777
339.8870, 179.2812
341.0910, 161.4609
342.2950, 202.7275
343.5000, 217.1143
344.7030, 170.5947
345.9070, 91.18457
347.1110, 58.06055
348.3140, 22.83301
349.5170, 40.18359
350.7200, 6.055664
351.9230, 65.68457
353.1260, 70.93359
354.3290, 236.8086
355.5310, 195.3545
356.7330, 202.5869
357.9350, 268.5557
359.1370, 217.4443
360.3390, 377.2842
361.5400, 259.0986
362.7420, 153.9150
363.9430, 227.7412
365.1440, 453.5850
366.3450, 407.4453
367.5460, 301.3262
368.7460, 457.2344
369.9470, 367.4160
371.1470, 408.1309
372.3470, 450.3809
373.5470, 519.9912
374.7460, 443.5400
375.9460, 507.9736
377.1450, 465.2734
378.3450, 655.4248
379.5440, 485.4170
380.7430, 749.2412
381.9410, 633.8896
383.1400, 830.3613
384.3380, 802.6475
385.5370, 596.7383
386.7350, 812.6240
387.9320, 869.3154
389.1300, 804.8115
390.3280, 845.0957
391.5250, 1017.169
392.7220, 832.0293
393.9190, 929.6807
395.1160, 1019.117
396.3130, 1001.343
397.5100, 818.3457
398.7060, 1102.104
399.9020, 988.6230
401.0980, 1160.959
402.2940, 1379.058
403.4900, 1430.919
404.6860, 1594.414
405.8810, 1522.023
407.0760, 1747.241
408.2710, 1983.226
409.4660, 1924.969
410.6610, 2093.468
411.8550, 2427.756
413.0500, 2699.878
414.2440, 2888.847
415.4380, 3187.593
416.6320, 3452.145
417.8260, 3720.187
419.0190, 4165.583
420.2130, 4348.473
421.4060, 4820.230
422.5990, 5261.713
423.7920, 5752.881
424.9850, 6383.608
426.1770, 6753.878
427.3700, 7418.775
428.5620, 8129.271
429.7540, 8783.482
430.9460, 9676.643
432.1380, 10454.62
433.3290, 11069.36
434.5210, 11936.34
435.7120, 12403.57
436.9030, 13227.16
438.0940, 13170.62
439.2850, 13694.88
440.4750, 14004.07
441.6660, 13930.71
442.8560, 13778.28
444.0460, 13672.47
445.2360, 13541.62
446.4260, 13338.79
447.6160, 13051.31
448.8050, 12521.23
449.9940, 12019.09
451.1830, 11530.44
452.3720, 10855.64
453.5610, 10475.87
454.7500, 10059.21
455.9380, 9478.061
457.1260, 9251.850
458.3150, 8618.725
459.5020, 8203.870
460.6900, 7650.885
461.8780, 7059.568
463.0650, 6663.029
464.2530, 6164.361
465.4400, 5870.229
466.6270, 5532.750
467.8130, 5249.625
469.0000, 4785.875
470.1870, 4550.633
471.3730, 4115.451
472.5590, 3837.657
473.7450, 3568.363
474.9310, 3342.848
476.1160, 3146.026
477.3020, 2949.306
478.4870, 2820.980
479.6720, 2642.144
480.8570, 2522.837
482.0420, 2454.947
483.2270, 2268.676
484.4110, 2175.712
485.5960, 2178.327
486.7800, 1911.212
487.9640, 1802.192
489.1480, 1678.341
490.3310, 1656.854
491.5150, 1504.646
492.6980, 1489.052
493.8810, 1326.889
495.0640, 1298.816
496.2470, 1221.891
497.4300, 1246.507
498.6120, 1230.859
499.7950, 1263.344
500.9770, 1264.421
502.1590, 1259.951
503.3410, 1268.385
504.5220, 1274.374
505.7040, 1250.880
506.8850, 1363.755
508.0660, 1295.690
509.2470, 1379.475
510.4280, 1458.859
511.6090, 1495.757
512.7890, 1595.763
513.9700, 1662.405
515.1500, 1780.354
516.3300, 1882.559
517.5100, 2005.410
518.6900, 2221.497
519.8690, 2478.790
521.0490, 2787.296
522.2280, 3155.807
523.4070, 3776.578
524.5860, 4230.148
525.7640, 5015.420
526.9430, 5789.502
528.1210, 6897.119
529.3000, 7993.852
530.4780, 9544.815
531.6560, 11426.86
532.8330, 13471.51
534.0110, 16362.08
535.1880, 19271.65
536.3650, 22707.22
537.5430, 26158.07
538.7190, 29821.05
539.8960, 33643.02
541.0730, 36226.84
542.2490, 38887.34
543.4250, 40161.18
544.6020, 40624.88
545.7780, 38879.63
546.9530, 36344.51
548.1290, 32576.43
549.3040, 28238.09
550.4800, 23033.48
551.6550, 18664.33
552.8300, 14585.92
554.0040, 11343.99
555.1790, 8917.838
556.3540, 7065.387
557.5280, 5917.817
558.7020, 5074.495
559.8760, 4229.840
561.0500, 3909.559
562.2230, 3584.655
563.3970, 3405.457
564.5700, 3279.855
565.7430, 3135.608
566.9160, 3347.371
568.0890, 3166.260
569.2620, 3288.950
570.4340, 3395.500
571.6070, 3464.988
572.7790, 3623.319
573.9510, 3887.248
575.1230, 3994.701
576.2940, 4181.757
577.4660, 4317.453
578.6370, 4469.936
579.8080, 4581.064
580.9790, 4675.883
582.1500, 4536.475
583.3210, 4527.232
584.4910, 4371.997
585.6620, 4114.218
586.8320, 4172.857
588.0020, 3849.043
589.1720, 3448.418
590.3410, 3475.012
591.5110, 3211.265
592.6800, 3279.790
593.8500, 3009.340
595.0190, 2817.160
596.1880, 2792.108
597.3560, 2751.473
598.5250, 2769.303
599.6930, 3042.013
600.8620, 3320.529
602.0300, 3468.229
603.1970, 3683.928
604.3650, 4130.209
605.5330, 4274.816
606.7000, 4665.675
607.8680, 4779.602
609.0350, 4899.425
610.2020, 4980.075
611.3680, 4812.564
612.5350, 4858.676
613.7010, 4655.778
614.8680, 4393.889
616.0340, 4343.801
617.2000, 4075.914
618.3660, 3849.093
619.5310, 3630.763
620.6970, 3624.896
621.8620, 3285.477
623.0270, 3123.338
624.1920, 2730.582
625.3570, 2591.117
626.5220, 2352.865
627.6860, 2146.083
628.8500, 1907.651
630.0140, 1793.847
631.1780, 1627.899
632.3420, 1384.863
633.5060, 1307.938
634.6700, 1264.877
635.8330, 1288.732
636.9960, 1297.344
638.1590, 1190.561
639.3220, 1136.807
640.4850, 1103.351
641.6470, 1169.741
642.8100, 1185.449
643.9720, 1242.786
645.1340, 1009.420
646.2960, 905.0557
647.4570, 839.6943
648.6190, 849.3174
649.7800, 780.9102
650.9420, 744.4727
652.1030, 674.0039
653.2640, 640.5098
654.4240, 574.5156
655.5850, 499.4932
656.7450, 409.9893
657.9060, 300.4824
659.0660, 131.9600
660.2260, 252.4131
661.3850, 88.83008
662.5450, 159.2041
663.7040, 8.464844
664.8640, 28.81543
666.0230, 68.04785
667.1820, 149.2334
668.3410, 54.62402
669.4990, 60.54688
670.6580, 58.46387
671.8160, 146.4268
672.9740, 161.3428
674.1320, 156.2129
675.2900, 153.1465
676.4480, 81.81055
677.6050, 47.53711
678.7630, 42.21094
679.9200, 75.16699
681.0770, 262.6260
682.2340, 68.73438
683.3900, 93.04395
684.5470, 103.6992
685.7030, 518.4580
686.8590, 35.57031
688.0150, 91.62598
689.1710, 39.37109
690.3270, 25.43848
691.4830, 94.57422
692.6380, 1.188477
693.7930, 160.1074
694.9480, 39.54102
696.1030, 131.9502
697.2580, 18.61426
698.4130, 9.248047
699.5670, 56.94531
700.7210, 93.73340
701.8750, 34.37305
703.0290, 48.58203
704.1830, 180.6240
705.3370, 163.8213
706.4900, 8.831055
707.6430, 55.68750
708.7970, 89.19141
709.9490, 171.1602
711.1020, 141.1504
712.2550, 15.59766
713.4070, 16.57812
714.5600, 91.81641
715.7120, 24.86328
716.8640, 104.8477
718.0160, 189.7715
719.1670, 24.63477
720.3190, 3.568359
721.4700, 39.25977
722.6210, 53.08398
723.7720, 169.4688
724.9230, 65.04297
726.0740, 93.67969
727.2250, 53.00781
728.3750, 86.62891
729.5250, 6.931641
730.6750, 107.5000
731.8250, 104.9316
732.9750, 2.996094
734.1240, 1.833984
735.2740, 150.6328
736.4230, 42.12891
737.5720, 8.373047
738.7210, 122.7441
739.8700, 79.27734
741.0190, 80.27539
742.1670, 28.82227
743.3150, 107.2480
744.4630, 51.25977
745.6110, 41.04297
746.7590, 71.94336
747.9070, 128.7031
749.0540, 169.6738
750.2020, 40.08008
751.3490, 109.0488
752.4960, 52.07227
753.6430, 51.37695
754.7890, 71.96680
755.9360, 77.45312
757.0820, 9.447266
758.2280, 134.2188
759.3740, 86.31836
760.5200, 273.2520
761.6660, 14.16406
762.8120, 144.7559
763.9570, 56.72266
765.1020, 47.12305
766.2470, 3.412109
767.3920, 13.78320
768.5370, 99.88086
769.6810, 77.31641
770.8260, 134.8535
771.9700, 181.3691
773.1140, 204.7402
774.2580, 270.3027
775.4020, 359.5859
776.5460, 363.6973
777.6890, 288.1953
778.8320, 319.1387
779.9750, 477.2676
781.1180, 320.3047
782.2610, 567.0996
783.4040, 565.4336
784.5460, 637.2949
785.6890, 628.6797
786.8310, 582.1152
787.9730, 582.3984
789.1150, 587.5234
790.2560, 717.5547
791.3980, 836.3633
792.5390, 862.7598
793.6810, 923.1367
794.8220, 1004.566
795.9630, 1161.354
797.1030, 1112.303
798.2440, 1236.963
799.3840, 1249.316
800.5240, 1284.875
801.6650, 1170.803
802.8040, 1235.051
803.9440, 1275.982
805.0840, 1237.127
806.2230, 1287.148
807.3630, 1203.377
808.5020, 1224.895
809.6410, 1153.660
810.7790, 1116.396
811.9180, 1030.021
813.0570, 1019.082
814.1950, 970.6738
815.3330, 985.5684
816.4710, 956.3535
817.6090, 927.1914
818.7470, 958.2520
819.8840, 811.8770
821.0220, 723.5137
822.1590, 721.0254
823.2960, 738.2832
824.4330, 675.4180
825.5690, 737.6973
826.7060, 839.1523
827.8420, 778.0605
828.9790, 877.1230
830.1150, 866.0000
831.2510, 688.2363
832.3860, 813.0586
833.5220, 670.9062
834.6570, 539.4160
835.7930, 530.1660
836.9280, 487.4531
838.0630, 624.2715
839.1980, 763.2988
840.3320, 506.6406
841.4670, 544.5410
842.6010, 433.3457
843.7350, 353.9473
844.8690, 379.6621
846.0030, 466.4395
847.1370, 551.2031
848.2700, 469.0449
849.4040, 486.2129
850.5370, 368.3848
851.6700, 428.7969
852.8030, 481.8516
853.9360, 637.1699
855.0680, 589.7715
856.2000, 624.2207
857.3330, 361.6055
858.4650, 623.3594
859.5970, 382.0391
860.7290, 458.1992
861.8600, 289.8730
862.9920, 376.5762
864.1230, 261.7500
865.2540, 291.2832
866.3850, 269.0977
867.5160, 251.5781
868.6460, 321.9805
869.7770, 408.0527
870.9070, 100.9297
872.0370, 155.3184
873.1670, 197.1836
874.2970, 144.1016
875.4270, 326.1660
876.5570, 195.9863
877.6860, 200.7441
878.8150, 129.8633
879.9440, 39.59961
881.0730, 160.0195
882.2020, 112.3340
883.3300, 49.28906
884.4590, 62.18359
885.5870, 172.7559
886.7150, 25.34961
887.8430, 68.52930
888.9710, 13.80078
890.0990, 59.09570
891.2260, 52.24219
892.3530, 30.68555
893.4810, 1.394531
894.6080, 277.0098
895.7340, 43.07031
896.8610, 13.88867
897.9880, 12.68359
899.1140, 194.0332
900.2400, 64.38477
901.3660, 63.46094
902.4920, 75.11719
903.6180, 68.70898
904.7430, 183.2441
905.8690, 203.7871
906.9940, 110.5645
908.1190, 31.29688
909.2440, 69.02148
910.3690, 89.41211
911.4930, 116.8281
912.6180, 17.80273
913.7420, 101.0664
914.8660, 32.41211
915.9900, 32.11328
917.1140, 65.63477
918.2380, 87.47266
919.3610, 98.67383
920.4850, 45.97461
921.6080, 61.65234
922.7310, 75.23633
923.8540, 90.78320
924.9760, 14.71289
926.0990, 50.25781
927.2210, 158.8750
928.3440, 129.6133
929.4660, 117.4570
930.5880, 78.40234
931.7090, 57.42578
932.8310, 15.23828
933.9520, 168.3652
935.0740, 192.2129
936.1950, 79.03125
937.3160, 190.8223
938.4360, 31.58398
939.5570, 237.3184
940.6780, 325.0234
941.7980, 56.71289
942.9180, 58.38281
944.0380, 133.0254
945.1580, 184.6426
946.2780, 132.2344
947.3970, 319.8027
948.5170, 270.3477
949.6360, 286.8691
950.7550, 520.3730
951.8740, 508.8555
952.9930, 549.3633
954.1110, 692.9141
955.2300, 772.4473
956.3480, 860.9609
957.4660, 1144.498
958.5840, 1335.012
959.7020, 1545.527
960.8190, 2143.031
961.9370, 2749.527
963.0540, 3267.020
964.1710, 4154.521
965.2880, 5285.010
966.4050, 6402.531
967.5220, 8053.049
968.6380, 9612.551
969.7550, 11457.09
970.8710, 12897.64
971.9870, 14267.18
973.1030, 15256.74
974.2190, 16763.29
975.3340, 17143.86
976.4500, 17855.50
977.5650, 18339.18
978.6800, 19152.61
979.7950, 20077.15
980.9100, 21293.85
982.0250, 23076.60
983.1390, 24590.39
984.2530, 26668.23
985.3680, 28118.00
986.4820, 29951.91
987.5950, 30700.86
988.7090, 31104.85
989.8230, 30976.84
990.9360, 30191.86
992.0490, 29560.77
993.1620, 28438.89
994.2750, 27200.02
995.3880, 25466.19
996.5010, 24294.03
997.6130, 22379.22
998.7250, 21034.01
999.8370, 19664.97
1000.949, 18684.86
1002.061, 17308.69
1003.173, 16302.88
1004.284, 15189.24
1005.396, 14132.60
1006.507, 13225.59
1007.618, 12355.62
1008.729, 11579.65
1009.839, 10869.08
1010.950, 10370.99
1012.060, 9771.930
1013.171, 8775.615
1014.281, 8312.297
1015.391, 7613.133
1016.500, 7121.787
1017.610, 6295.514
1018.719, 5903.963
1019.829, 5439.912
1020.938, 4820.322
1022.047, 4637.377
1023.156, 4180.977
1024.264, 3869.691
1025.373, 3703.195
1026.481, 3543.377
1027.589, 3407.205
1028.697, 3531.885
1029.805, 3472.668
1030.913, 3637.730
1032.020, 3560.367
1033.128, 3562.891
1034.235, 3753.908
1035.342, 3894.957
1036.449, 4009.148
1037.556, 3963.902
1038.663, 4076.742
1039.769, 4005.039
1040.875, 4175.469
1041.981, 4314.979
1043.087, 4378.227
1044.193, 4409.682
1045.299, 4558.135
1046.404, 4294.352
1047.510, 4457.949
1048.615, 4569.293
1049.720, 4103.662
1050.825, 4265.203
1051.930, 4320.148
1053.034, 4179.498
1054.139, 3968.262
1055.243, 3854.912
1056.347, 3932.648
1057.451, 3895.482
1058.555, 3919.344
1059.658, 3990.746
1060.762, 4038.736
1061.865, 4122.066
1062.968, 4265.281
1064.071, 4347.070
1065.174, 4548.225
1066.277, 4692.189
1067.380, 4790.438
1068.482, 5076.877
1069.584, 5356.049
1070.686, 5634.531
1071.788, 6240.584
1072.890, 6586.109
1073.992, 7005.656
1075.093, 7390.926
1076.194, 7920.238
1077.295, 8472.852
1078.396, 9029.488
1079.497, 9423.217
1080.598, 10055.90
1081.698, 10507.60
1082.799, 11010.75
1083.899, 11338.78
1084.999, 11675.81
1086.099, 11837.59
1087.199, 11989.41
1088.298, 12119.24
1089.398, 12018.60
1090.497, 12036.83
1091.596, 11796.70
1092.695, 11334.40
1093.794, 11053.82
1094.892, 10666.70
1095.991, 9921.918
1097.089, 9565.918
1098.187, 8850.648
1099.285, 8286.000
1100.383, 7687.062
1101.481, 7001.725
1102.579, 6641.906
1103.676, 6386.420
1104.773, 6286.838
1105.870, 5709.561
1106.967, 5622.371
1108.064, 5417.904
1109.161, 5521.033
1110.257, 5299.787
1111.353, 5373.729
1112.449, 4997.799
1113.545, 5053.979
1114.641, 5158.375
1115.737, 5189.270
1116.832, 5262.395
1117.928, 5006.102
1119.023, 5257.480
1120.118, 5262.668
1121.213, 4936.039
1122.308, 5271.201
1123.402, 4616.992
1124.497, 4824.816
1125.591, 4466.418
1126.685, 4585.760
1127.779, 4126.969
1128.873, 4202.082
1129.967, 3742.082
1131.060, 3662.275
1132.153, 3651.615
1133.247, 3297.531
1134.340, 3876.418
1135.433, 3439.750
1136.525, 3229.340
1137.618, 3700.312
1138.710, 2895.719
1139.802, 3022.965
1140.895, 2901.414
1141.987, 2690.613
1143.078, 2818.531
1144.170, 2889.152
1145.261, 2797.303
1146.353, 2819.428
1147.444, 2766.080
1148.535, 2908.742
1149.626, 2953.439
1150.716, 2749.148
1151.807, 2681.865
1152.897, 2377.955
1153.988, 2483.352
1155.078, 2701.924
1156.168, 2577.738
1157.257, 2700.590
1158.347, 2404.742
1159.436, 2782.518
1160.526, 2782.836
1161.615, 2471.812
1162.704, 2577.025
1163.793, 2436.688
1164.881, 2396.785
1165.970, 2522.807
1167.058, 2479.834
1168.147, 2240.893
1169.235, 2353.980
1170.323, 2290.127
1171.410, 1981.336
1172.498, 2215.945
1173.585, 2046.209
1174.673, 1849.500
1175.760, 1800.791
1176.847, 1705.201
1177.934, 1616.527
1179.020, 1551.457
1180.107, 1636.184
1181.193, 1374.516
1182.279, 1402.844
1183.365, 1262.197
1184.451, 927.5801
1185.537, 1169.975
1186.623, 1114.367
1187.708, 873.7578
1188.793, 1052.145
1189.878, 518.5352
1190.963, 666.9375
1192.048, 623.3809
1193.133, 583.8535
1194.217, 650.3535
1195.302, 679.8672
1196.386, 492.3926
1197.470, 390.9160
1198.554, 425.4297
1199.638, 276.9375
1200.721, 311.4375
1201.805, 279.9297
1202.888, 203.7207
1203.971, 311.9004
1205.054, 167.3730
1206.137, 145.8359
1207.219, 282.2930
1208.302, 214.7402
1209.384, 90.17773
1210.466, 297.6035
1211.548, 194.0215
1212.630, 15.42969
1213.712, 216.8223
1214.794, 119.7949
1215.875, 209.5156
1216.956, 211.8125
1218.037, 225.0996
1219.118, 65.62109
1220.199, 55.60742
1221.280, 54.17773
1222.360, 4.005859
1223.441, 36.14258
1224.521, 7.724609
1225.601, 98.38672
1226.681, 319.4824
1227.760, 3.566406
1228.840, 91.63086
1229.919, 260.6797
1230.999, 178.2891
1232.078, 155.6289
1233.157, 83.53320
1234.236, 114.4238
1235.314, 49.29492
1236.393, 36.14844
1237.471, 150.0137
1238.549, 3.716797
1239.627, 70.50586
1240.705, 34.20508
1241.783, 10.89258
1242.860, 40.44531
1243.938, 153.8359
1245.015, 128.3359
1246.092, 178.2852
1247.169, 58.64258
1248.246, 163.4258
1249.323, 95.31445
1250.399, 1.273438
1251.475, 76.26953
1252.552, 5.339844
1253.628, 259.4512
1254.703, 0.2695310
1255.779, 90.05078
1256.855, 61.54297
1257.930, 90.10742
1259.005, 121.6641
1260.080, 130.8027
1261.155, 50.61328
1262.230, 156.3594
1263.305, 186.2754
1264.379, 17.05078
1265.454, 83.88477
1266.528, 160.1934
1267.602, 110.7520
1268.676, 103.1934
1269.750, 29.88672
1270.823, 25.03320
1271.897, 193.7559
1272.970, 448.5215
1274.043, 314.2656
1275.116, 588.9883
1276.189, 485.6992
1277.261, 466.3770
1278.334, 509.4746
1279.406, 304.1074
1280.478, 282.0684
1281.550, 199.7520
1282.622, 96.68359
1283.694, 101.7715
1284.766, 336.6055
1285.837, 69.00000
1286.908, 222.4395
1287.979, 84.76953
1289.050, 211.0645
1290.121, 393.3281
1291.192, 244.6855
1292.262, 142.8887
1293.333, 280.0566
1294.403, 323.8066
1295.473, 363.9141
1296.543, 476.2324
1297.613, 334.4863
1298.682, 521.0352
1299.752, 476.0137
1300.821, 223.9570
1301.890, 559.8652
1302.959, 435.7363
1304.028, 428.5723
1305.096, 296.3730
1306.165, 576.1348
1307.233, 411.8613
1308.301, 481.5527
1309.370, 541.2031
1310.437, 504.8184
1311.505, 517.3945
1312.573, 521.9277
1313.640, 580.4297
1314.708, 632.9043
1315.775, 619.3496
1316.842, 374.7695
1317.908, 609.1562
1318.975, 766.5156
1320.042, 445.8457
1321.108, 742.1465
1322.174, 660.4141
1323.240, 753.6543
1324.306, 760.8613
1325.372, 671.0391
1326.438, 545.1797
1327.503, 795.2891
1328.568, 718.3711
1329.634, 478.4180
1330.699, 849.4336
1331.763, 940.4180
1332.828, 967.5430
1333.893, 847.2852
1334.957, 1199.168
1336.021, 931.0195
1337.085, 1154.840
1338.149, 1043.547
1339.213, 1085.305
1340.277, 1102.020
1341.340, 1067.277
1342.404, 1166.930
1343.467, 1158.105
1344.530, 1175.691
1345.593, 990.5078
1346.655, 1138.336
1347.718, 1175.316
1348.780, 968.4297
1349.843, 1068.883
1350.905, 1137.508
1351.967, 957.6953
1353.028, 1342.434
1354.090, 999.0078
1355.152, 736.9219
1356.213, 798.4727
1357.274, 908.6055
1358.335, 1046.082
1359.396, 898.1641
1360.457, 969.0625
1361.517, 933.1641
1362.578, 832.2930
1363.638, 753.8125
1364.698, 851.1875
1365.758, 974.3047
1366.818, 1002.043
1367.878, 1069.727
1368.937, 971.2070
1369.997, 801.3047
1371.056, 827.5234
1372.115, 876.8203
1373.174, 1101.641
1374.232, 1201.438
1375.291, 838.3867
1376.350, 1218.594
1377.408, 1067.438
1378.466, 1354.992
1379.524, 1588.883
1380.582, 1537.477
1381.640, 1344.047
1382.697, 1359.695
1383.754, 1044.176
1384.812, 861.0859
1385.869, 547.1680
1386.926, 402.4297
1387.983, 497.5234
1389.039, 204.3438
1390.096, 353.4688
1391.152, 503.0391
1392.208, 289.7383
1393.264, 294.2500
