##NAMES=Hauyne
##RRUFFID=R050606
##IDEAL CHEMISTRY=Na_3_Ca(Si_3_Al_3_)O_12_(S^6+^O_4_)
##LOCALITY=Ariccia, near Rome, Italy
##OWNER=RRUFF
##SOURCE=University of Arizona Mineral Museum
##DESCRIPTION=Blue crystal embedded in calcite
##STATUS=The identification of this mineral has been confirmed only by X-ray diffraction
##URL=rruff.info/R050606
##PIN_ID=M01913
##ORIENTATION=Laser parallel to c* (0 0 1). Fiducial mark perpendicular to laser is parallel to a [1 0 0]
235.6830, 0.0000000E+00
236.9020, 39.25977
238.1200, 1.554688
239.3390, 25.27539
240.5570, 36.84180
241.7750, 20.75586
242.9930, 74.33105
244.2110, 4.987305
245.4290, 69.70312
246.6460, 46.63086
247.8630, 276.9307
249.0810, 53.18066
250.2980, 37.98340
251.5140, 93.95312
252.7310, 324.0820
253.9470, 200.1055
255.1640, 311.3994
256.3800, 215.1094
257.5960, 311.8447
258.8120, 287.8613
260.0270, 381.6436
261.2430, 300.2812
262.4580, 344.9902
263.6730, 269.1230
264.8880, 351.3447
266.1030, 199.7539
267.3170, 252.8125
268.5320, 124.0684
269.7460, 246.7969
270.9600, 232.1035
272.1740, 349.9072
273.3880, 261.0146
274.6010, 340.9717
275.8150, 359.6172
277.0280, 232.2178
278.2410, 400.0664
279.4540, 293.9961
280.6670, 540.9717
281.8790, 468.3604
283.0920, 444.3320
284.3040, 592.0703
285.5160, 523.3506
286.7280, 480.5957
287.9400, 677.3525
289.1510, 623.4268
290.3630, 748.1865
291.5740, 644.0264
292.7850, 594.0605
293.9960, 392.8096
295.2070, 413.5381
296.4170, 501.5869
297.6280, 448.9590
298.8380, 430.6152
300.0480, 543.8750
301.2580, 437.0107
302.4680, 432.8574
303.6770, 241.3340
304.8870, 348.1582
306.0960, 367.9814
307.3050, 294.8105
308.5140, 330.7236
309.7230, 242.9570
310.9310, 269.4619
312.1400, 295.8604
313.3480, 314.1768
314.5560, 294.9482
315.7640, 270.6699
316.9720, 230.1523
318.1790, 218.0654
319.3870, 168.4951
320.5940, 155.3232
321.8010, 136.2383
323.0080, 91.22168
324.2150, 103.6719
325.4210, 125.3066
326.6280, 104.3809
327.8340, 37.46582
329.0400, 12.55664
330.2460, 49.35938
331.4510, 50.27832
332.6570, 35.19824
333.8620, 14.86426
335.0680, 15.88086
336.2730, 91.15430
337.4780, 30.73438
338.6820, 171.4629
339.8870, 111.7422
341.0910, 150.0957
342.2950, 122.5361
343.5000, 24.93457
344.7030, 91.67969
345.9070, 43.38477
347.1110, 164.8281
348.3140, 48.95996
349.5170, 275.0059
350.7200, 57.95605
351.9230, 212.8018
353.1260, 171.5381
354.3290, 182.1650
355.5310, 183.6230
356.7330, 227.6436
357.9350, 282.9648
359.1370, 333.8604
360.3390, 422.5010
361.5400, 438.8545
362.7420, 482.0391
363.9430, 496.0771
365.1440, 588.0654
366.3450, 606.0098
367.5460, 506.9209
368.7460, 353.8008
369.9470, 403.6621
371.1470, 468.5137
372.3470, 739.1602
373.5470, 607.6133
374.7460, 629.8623
375.9460, 720.8428
377.1450, 625.3662
378.3450, 588.7676
379.5440, 722.9824
380.7430, 695.5996
381.9410, 760.9277
383.1400, 827.3438
384.3380, 732.5059
385.5370, 926.4297
386.7350, 754.1133
387.9320, 915.5703
389.1300, 789.6387
390.3280, 805.6572
391.5250, 673.3701
392.7220, 711.7500
393.9190, 828.1709
395.1160, 826.0449
396.3130, 879.8467
397.5100, 1040.494
398.7060, 904.9141
399.9020, 1148.107
401.0980, 1090.077
402.2940, 1360.838
403.4900, 1390.458
404.6860, 1631.890
405.8810, 1623.113
407.0760, 1878.163
408.2710, 2249.977
409.4660, 2388.566
410.6610, 2490.486
411.8550, 3030.343
413.0500, 3165.316
414.2440, 3556.616
415.4380, 3851.640
416.6320, 4466.921
417.8260, 4843.590
419.0190, 5100.410
420.2130, 5833.119
421.4060, 6606.120
422.5990, 7214.623
423.7920, 8136.533
424.9850, 9086.889
426.1770, 10155.56
427.3700, 11227.58
428.5620, 12502.21
429.7540, 13509.90
430.9460, 14847.56
432.1380, 15285.36
433.3290, 15823.37
434.5210, 16374.84
435.7120, 16055.45
436.9030, 15434.79
438.0940, 14715.14
439.2850, 13829.61
440.4750, 12966.42
441.6660, 11697.99
442.8560, 11009.48
444.0460, 9942.441
445.2360, 9200.967
446.4260, 8379.471
447.6160, 7848.578
448.8050, 7147.639
449.9940, 6778.899
451.1830, 6306.574
452.3720, 5794.573
453.5610, 5506.863
454.7500, 5015.397
455.9380, 4785.178
457.1260, 4412.129
458.3150, 4247.939
459.5020, 4045.559
460.6900, 3660.854
461.8780, 3741.061
463.0650, 3437.715
464.2530, 3143.226
465.4400, 2904.516
466.6270, 2884.049
467.8130, 2588.857
469.0000, 2555.060
470.1870, 2542.940
471.3730, 2296.287
472.5590, 2109.670
473.7450, 1991.311
474.9310, 1808.965
476.1160, 1832.681
477.3020, 1828.542
478.4870, 1807.534
479.6720, 1832.012
480.8570, 1639.693
482.0420, 1609.171
483.2270, 1677.688
484.4110, 1382.764
485.5960, 1331.642
486.7800, 1174.434
487.9640, 1060.410
489.1480, 946.4902
490.3310, 1000.584
491.5150, 887.0635
492.6980, 790.1084
493.8810, 807.9268
495.0640, 686.4639
496.2470, 702.3271
497.4300, 460.9736
498.6120, 534.3057
499.7950, 481.0205
500.9770, 381.0088
502.1590, 401.2178
503.3410, 367.8037
504.5220, 403.4697
505.7040, 273.3271
506.8850, 184.2539
508.0660, 88.57422
509.2470, 176.9219
510.4280, 208.9180
511.6090, 92.28516
512.7890, 247.8682
513.9700, 103.7334
515.1500, 89.06543
516.3300, 126.3848
517.5100, 38.69531
518.6900, 195.9941
519.8690, 90.28027
521.0490, 179.5508
522.2280, 122.8066
523.4070, 126.1104
524.5860, 274.8818
525.7640, 428.6758
526.9430, 310.4268
528.1210, 460.2881
529.3000, 575.0371
530.4780, 700.8857
531.6560, 820.8721
532.8330, 938.9150
534.0110, 1212.994
535.1880, 1554.385
536.3650, 1815.292
537.5430, 2041.762
538.7190, 2494.110
539.8960, 3106.066
541.0730, 3461.729
542.2490, 4287.690
543.4250, 4443.722
544.6020, 5013.272
545.7780, 5425.305
546.9530, 5641.840
548.1290, 5527.399
549.3040, 5081.051
550.4800, 4413.392
551.6550, 3565.643
552.8300, 2707.876
554.0040, 2170.441
555.1790, 1611.795
556.3540, 1218.314
557.5280, 974.6816
558.7020, 566.0605
559.8760, 456.4219
561.0500, 491.7246
562.2230, 331.7305
563.3970, 369.3652
564.5700, 293.4766
565.7430, 303.4102
566.9160, 181.5703
568.0890, 216.7578
569.2620, 73.42969
570.4340, 202.0762
571.6070, 332.8926
572.7790, 430.0449
573.9510, 333.3066
575.1230, 254.1816
576.2940, 344.2188
577.4660, 463.0332
578.6370, 561.6602
579.8080, 432.3535
580.9790, 768.5527
582.1500, 549.3379
583.3210, 628.1992
584.4910, 719.1562
585.6620, 658.5625
586.8320, 527.3340
588.0020, 675.0195
589.1720, 707.7148
590.3410, 618.7344
591.5110, 692.6309
592.6800, 718.9336
593.8500, 676.7734
595.0190, 808.1289
596.1880, 759.4512
597.3560, 721.5000
598.5250, 868.4023
599.6930, 773.2832
600.8620, 827.9902
602.0300, 865.6211
603.1970, 1179.242
604.3650, 1184.758
605.5330, 1400.426
606.7000, 1482.227
607.8680, 1445.072
609.0350, 1506.904
610.2020, 1524.176
611.3680, 1709.705
612.5350, 1621.674
613.7010, 1746.850
614.8680, 1643.262
616.0340, 1704.381
617.2000, 1443.227
618.3660, 1636.881
619.5310, 1483.205
620.6970, 1501.371
621.8620, 1385.666
623.0270, 1209.930
624.1920, 1273.566
625.3570, 1238.818
626.5220, 1213.244
627.6860, 943.1816
628.8500, 741.5723
630.0140, 1086.838
631.1780, 743.6289
632.3420, 845.6230
633.5060, 878.6230
634.6700, 848.3887
635.8330, 862.2324
636.9960, 907.6719
638.1590, 1033.295
639.3220, 1132.223
640.4850, 1061.885
641.6470, 1131.398
642.8100, 1156.943
643.9720, 1234.178
645.1340, 1254.275
646.2960, 1273.668
647.4570, 1280.082
648.6190, 1280.627
649.7800, 1247.518
650.9420, 1201.861
652.1030, 1105.938
653.2640, 1053.762
654.4240, 931.1289
655.5850, 820.3906
656.7450, 610.5488
657.9060, 604.4746
659.0660, 475.1484
660.2260, 413.5918
661.3850, 424.8066
662.5450, 312.7715
663.7040, 188.2969
664.8640, 172.4883
666.0230, 172.7246
667.1820, 135.9453
668.3410, 153.0703
669.4990, 118.9297
670.6580, 76.34375
671.8160, 52.69531
672.9740, 33.98438
674.1320, 189.2812
675.2900, 56.65820
676.4480, 152.0547
677.6050, 172.4180
678.7630, 18.85938
679.9200, 80.09961
681.0770, 3.630859
682.2340, 2.183594
683.3900, 184.2031
684.5470, 48.14062
685.7030, 19.35156
686.8590, 167.8672
688.0150, 22.61914
689.1710, 93.67773
690.3270, 114.9531
691.4830, 104.1016
692.6380, 17.31641
693.7930, 61.28516
694.9480, 86.87305
696.1030, 44.50000
697.2580, 34.09766
698.4130, 68.01172
699.5670, 16.94336
700.7210, 93.94727
701.8750, 71.90039
703.0290, 66.51953
704.1830, 102.9141
705.3370, 80.15625
706.4900, 26.75391
707.6430, 24.29297
708.7970, 141.2051
709.9490, 93.95898
711.1020, 8.150391
712.2550, 215.1211
713.4070, 63.00781
714.5600, 257.5332
715.7120, 67.31250
716.8640, 107.0000
718.0160, 326.7070
719.1670, 202.6406
720.3190, 297.1855
721.4700, 274.2051
722.6210, 247.2520
723.7720, 373.4922
724.9230, 282.8750
726.0740, 59.11523
727.2250, 293.3340
728.3750, 6.882813
729.5250, 237.2344
730.6750, 457.6465
731.8250, 231.3555
732.9750, 116.4941
734.1240, 120.9668
735.2740, 181.6328
736.4230, 213.0957
737.5720, 213.3750
738.7210, 250.9980
739.8700, 265.3027
741.0190, 263.8652
742.1670, 284.5391
743.3150, 244.8320
744.4630, 209.9609
745.6110, 196.0469
746.7590, 197.4648
747.9070, 328.3848
749.0540, 0.7285160
750.2020, 156.6133
751.3490, 106.8848
752.4960, 293.0918
753.6430, 119.7324
754.7890, 130.8613
755.9360, 16.06641
757.0820, 77.59766
758.2280, 119.8164
759.3740, 86.50977
760.5200, 123.0449
761.6660, 39.63672
762.8120, 152.3965
763.9570, 0.2792970
765.1020, 28.63672
766.2470, 125.6387
767.3920, 165.7324
768.5370, 273.7773
769.6810, 220.7148
770.8260, 224.6445
771.9700, 276.4199
773.1140, 263.5410
774.2580, 129.3262
775.4020, 323.4219
776.5460, 247.1738
777.6890, 304.3711
778.8320, 93.41602
779.9750, 318.5078
781.1180, 144.1738
782.2610, 172.9180
783.4040, 163.8945
784.5460, 309.0449
785.6890, 321.5625
786.8310, 224.0527
787.9730, 167.7148
789.1150, 260.2969
790.2560, 235.3945
791.3980, 88.62695
792.5390, 252.4277
793.6810, 223.5137
794.8220, 241.9004
795.9630, 452.6777
797.1030, 391.8574
798.2440, 533.8926
799.3840, 553.3145
800.5240, 389.2500
801.6650, 382.6309
802.8040, 398.4043
803.9440, 389.4492
805.0840, 398.4922
806.2230, 447.5781
807.3630, 592.2539
808.5020, 546.0078
809.6410, 559.9395
810.7790, 523.8262
811.9180, 490.5176
813.0570, 470.5098
814.1950, 463.7676
815.3330, 431.0156
816.4710, 462.5273
817.6090, 377.2012
818.7470, 443.4434
819.8840, 475.4863
821.0220, 168.8828
822.1590, 449.6641
823.2960, 263.8184
824.4330, 587.8203
825.5690, 481.6035
826.7060, 448.5801
827.8420, 486.5137
828.9790, 431.3535
830.1150, 473.7402
831.2510, 487.5625
832.3860, 327.4180
833.5220, 501.6504
834.6570, 408.7539
835.7930, 336.7578
836.9280, 107.7070
838.0630, 286.8223
839.1980, 405.2012
840.3320, 371.9844
841.4670, 574.8320
842.6010, 323.3398
843.7350, 330.6973
844.8690, 273.4629
846.0030, 324.1309
847.1370, 317.5195
848.2700, 351.4629
849.4040, 354.5137
850.5370, 363.1465
851.6700, 345.9180
852.8030, 349.7695
853.9360, 326.7051
855.0680, 256.4707
856.2000, 332.3320
857.3330, 441.1055
858.4650, 417.4023
859.5970, 354.5078
860.7290, 304.0547
861.8600, 321.1406
862.9920, 307.2090
864.1230, 211.1719
865.2540, 237.7129
866.3850, 205.2715
867.5160, 357.3750
868.6460, 236.7422
869.7770, 376.5469
870.9070, 311.2871
872.0370, 341.2031
873.1670, 127.1719
874.2970, 343.0527
875.4270, 204.0137
876.5570, 286.9531
877.6860, 505.8086
878.8150, 271.6738
879.9440, 292.2969
881.0730, 283.6914
882.2020, 184.9512
883.3300, 285.1367
884.4590, 274.7930
885.5870, 141.0977
886.7150, 137.8770
887.8430, 133.3691
888.9710, 121.5586
890.0990, 146.9766
891.2260, 115.5938
892.3530, 119.3223
893.4810, 204.2988
894.6080, 70.37695
895.7340, 125.7598
896.8610, 52.05469
897.9880, 69.55859
899.1140, 72.14258
900.2400, 141.6191
901.3660, 97.50000
902.4920, 52.12891
903.6180, 43.26953
904.7430, 48.04297
905.8690, 71.47656
906.9940, 42.86523
908.1190, 75.64648
909.2440, 94.36523
910.3690, 18.81250
911.4930, 0.4453130
912.6180, 20.29102
913.7420, 14.30078
914.8660, 50.32031
915.9900, 129.2676
917.1140, 88.39258
918.2380, 16.43164
919.3610, 53.39062
920.4850, 188.8672
921.6080, 222.5234
922.7310, 195.8398
923.8540, 181.0938
924.9760, 96.24023
926.0990, 69.11328
927.2210, 17.25586
928.3440, 56.27734
929.4660, 111.5391
930.5880, 8.880859
931.7090, 151.5781
932.8310, 161.7227
933.9520, 90.62891
935.0740, 114.9043
936.1950, 121.2129
937.3160, 99.50977
938.4360, 111.1211
939.5570, 286.6621
940.6780, 29.19531
941.7980, 328.8789
942.9180, 219.9141
944.0380, 238.9043
945.1580, 224.8496
946.2780, 272.6836
947.3970, 282.2637
948.5170, 427.9004
949.6360, 341.3809
950.7550, 494.6836
951.8740, 557.0820
952.9930, 479.0859
954.1110, 643.3340
955.2300, 1071.680
956.3480, 1222.799
957.4660, 1297.076
958.5840, 1369.551
959.7020, 1465.117
960.8190, 2208.531
961.9370, 2564.771
963.0540, 3093.197
964.1710, 3900.355
965.2880, 4680.666
966.4050, 6126.027
967.5220, 7796.734
968.6380, 9196.121
969.7550, 11159.10
970.8710, 13481.80
971.9870, 15780.45
973.1030, 17856.94
974.2190, 20064.94
975.3340, 21810.77
976.4500, 23121.01
977.5650, 23639.63
978.6800, 23833.26
979.7950, 23235.64
980.9100, 22503.23
982.0250, 21891.76
983.1390, 21739.42
984.2530, 21918.07
985.3680, 22406.73
986.4820, 22885.34
987.5950, 23097.94
988.7090, 23217.45
989.8230, 22961.64
990.9360, 22214.13
992.0490, 21841.04
993.1620, 21079.84
994.2750, 20181.36
995.3880, 19478.63
996.5010, 18641.01
997.6130, 18517.31
998.7250, 18329.20
999.8370, 18366.21
1000.949, 18622.06
1002.061, 18346.53
1003.173, 18088.48
1004.284, 17489.04
1005.396, 16236.32
1006.507, 15620.75
1007.618, 14360.30
1008.729, 13205.74
1009.839, 12000.58
1010.950, 10972.80
1012.060, 10121.64
1013.171, 8772.867
1014.281, 8049.168
1015.391, 6941.469
1016.500, 6321.346
1017.610, 5467.652
1018.719, 5066.922
1019.829, 4797.670
1020.938, 4481.430
1022.047, 4189.166
1023.156, 4017.795
1024.264, 3820.938
1025.373, 3736.615
1026.481, 3625.510
1027.589, 3570.760
1028.697, 3508.227
1029.805, 3365.221
1030.913, 3438.846
1032.020, 3337.209
1033.128, 3366.910
1034.235, 3366.920
1035.342, 3201.746
1036.449, 3166.531
1037.556, 3118.982
1038.663, 2980.598
1039.769, 2938.129
1040.875, 2902.732
1041.981, 2877.092
1043.087, 2790.320
1044.193, 2363.336
1045.299, 2307.609
1046.404, 2284.977
1047.510, 2313.145
1048.615, 1916.797
1049.720, 1782.785
1050.825, 1791.609
1051.930, 1821.105
1053.034, 1803.332
1054.139, 1480.109
1055.243, 1386.828
1056.347, 1242.289
1057.451, 1315.738
1058.555, 1390.582
1059.658, 1099.199
1060.762, 1288.160
1061.865, 1203.742
1062.968, 1436.938
1064.071, 1070.656
1065.174, 1285.887
1066.277, 1245.176
1067.380, 1402.996
1068.482, 1266.113
1069.584, 1182.176
1070.686, 1423.688
1071.788, 1421.844
1072.890, 1297.750
1073.992, 1331.594
1075.093, 1538.609
1076.194, 1635.621
1077.295, 1569.387
1078.396, 1534.113
1079.497, 1736.230
1080.598, 1901.637
1081.698, 1754.676
1082.799, 1856.086
1083.899, 1958.137
1084.999, 1919.188
1086.099, 2071.496
1087.199, 2119.598
1088.298, 2199.633
1089.398, 2281.711
1090.497, 2424.383
1091.596, 2502.887
1092.695, 2581.285
1093.794, 2494.387
1094.892, 2373.496
1095.991, 2177.625
1097.089, 2254.691
1098.187, 2209.234
1099.285, 2328.570
1100.383, 2039.699
1101.481, 2028.828
1102.579, 2076.973
1103.676, 1815.723
1104.773, 1471.191
1105.870, 1487.207
1106.967, 1499.219
1108.064, 1257.598
1109.161, 1431.656
1110.257, 1458.777
1111.353, 1455.059
1112.449, 1377.191
1113.545, 1405.262
1114.641, 1214.457
1115.737, 1431.984
1116.832, 1377.227
1117.928, 1553.797
1119.023, 1425.117
1120.118, 1496.188
1121.213, 1586.590
1122.308, 1592.543
1123.402, 1576.773
1124.497, 1631.586
1125.591, 1445.254
1126.685, 1366.895
1127.779, 1551.824
1128.873, 1529.324
1129.967, 1297.820
1131.060, 1474.438
1132.153, 1547.977
1133.247, 1501.500
1134.340, 1584.230
1135.433, 1385.445
1136.525, 1616.719
1137.618, 1528.312
1138.710, 1560.188
1139.802, 1313.582
1140.895, 1431.027
1141.987, 1517.508
1143.078, 1367.812
1144.170, 1703.949
1145.261, 1727.500
1146.353, 1708.129
1147.444, 1697.191
1148.535, 1635.746
1149.626, 1489.621
1150.716, 1666.570
1151.807, 1529.777
1152.897, 1588.074
1153.988, 1820.316
1155.078, 1701.789
1156.168, 1730.262
1157.257, 1550.180
1158.347, 1701.199
1159.436, 1417.332
1160.526, 1641.664
1161.615, 1715.578
1162.704, 1718.180
1163.793, 1350.695
1164.881, 1430.273
1165.970, 1347.637
1167.058, 1545.844
1168.147, 1386.129
1169.235, 1151.695
1170.323, 1309.441
1171.410, 1370.391
1172.498, 1397.262
1173.585, 1134.434
1174.673, 1086.953
1175.760, 895.8828
1176.847, 870.2539
1177.934, 988.8945
1179.020, 810.3906
1180.107, 895.8711
1181.193, 768.2031
1182.279, 808.7070
1183.365, 923.5039
1184.451, 794.0273
1185.537, 715.2148
1186.623, 850.3438
1187.708, 655.1211
1188.793, 533.8594
1189.878, 579.6172
1190.963, 516.3828
1192.048, 443.1484
1193.133, 453.9297
1194.217, 358.7383
1195.302, 290.5430
1196.386, 501.3359
1197.470, 686.7227
1198.554, 558.5234
1199.638, 325.3008
1200.721, 644.8711
1201.805, 166.6953
1202.888, 484.5078
1203.971, 467.3047
1205.054, 441.0859
1206.137, 96.84766
1207.219, 404.5859
1208.302, 385.3125
1209.384, 96.53516
1210.466, 91.11719
1211.548, 315.7422
1212.630, 105.3555
1213.712, 244.9375
1214.794, 407.5078
1215.875, 141.0586
1216.956, 466.5859
1218.037, 325.0938
1219.118, 461.5820
1220.199, 70.04297
1221.280, 285.4805
1222.360, 46.51953
1223.441, 292.9883
1224.521, 223.5625
1225.601, 218.1328
1226.681, 3.457031
1227.760, 97.24219
1228.840, 180.9922
1229.919, 270.2031
1230.999, 312.3867
1232.078, 312.9961
1233.157, 95.73828
1234.236, 168.8516
1235.314, 40.94141
1236.393, 47.00391
1237.471, 201.0430
1238.549, 41.05078
1239.627, 31.03516
1240.705, 2.992188
1241.783, 23.08984
1242.860, 54.78516
1243.938, 28.64453
1245.015, 4.535156
1246.092, 25.25781
1247.169, 121.9961
1248.246, 13.64844
1249.323, 63.74219
1250.399, 240.8047
1251.475, 111.3203
1252.552, 405.8047
1253.628, 151.2617
1254.703, 189.6875
1255.779, 199.0742
1256.855, 116.5742
1257.930, 28.66016
1259.005, 243.8008
1260.080, 60.04688
1261.155, 241.0273
1262.230, 14.07031
1263.305, 206.0664
1264.379, 112.9766
1265.454, 333.8750
1266.528, 180.2539
1267.602, 40.23047
1268.676, 56.35547
1269.750, 48.48438
1270.823, 121.6641
1271.897, 107.3125
1272.970, 305.3516
1274.043, 51.82031
1275.116, 136.1211
1276.189, 171.8047
1277.261, 37.65625
1278.334, 25.97266
1279.406, 74.23047
1280.478, 93.37891
1281.550, 125.1172
1282.622, 138.2695
1283.694, 186.3320
1284.766, 109.8984
1285.837, 23.29297
1286.908, 32.41797
1287.979, 169.4844
1289.050, 41.91406
1290.121, 235.0352
1291.192, 309.9062
1292.262, 338.1445
1293.333, 323.9297
1294.403, 486.6641
1295.473, 173.5664
1296.543, 160.2070
1297.613, 332.0117
1298.682, 290.5547
1299.752, 3.984375
1300.821, 285.4961
1301.890, 220.5234
1302.959, 145.2930
1304.028, 292.4570
1305.096, 153.3438
1306.165, 647.5078
1307.233, 464.1719
1308.301, 565.2305
1309.370, 201.1328
1310.437, 533.0039
1311.505, 347.1367
1312.573, 479.2773
1313.640, 269.5195
1314.708, 302.0781
1315.775, 396.7969
1316.842, 540.7930
1317.908, 503.6992
1318.975, 543.6875
1320.042, 477.7305
1321.108, 551.6406
1322.174, 553.7891
1323.240, 674.9492
1324.306, 969.3477
1325.372, 284.9258
1326.438, 673.3281
1327.503, 490.1680
1328.568, 251.9258
1329.634, 506.6328
1330.699, 664.2578
1331.763, 635.3555
1332.828, 540.6328
1333.893, 650.6328
1334.957, 461.3203
1336.021, 524.0273
1337.085, 337.4297
1338.149, 592.0781
1339.213, 653.7305
1340.277, 607.4688
1341.340, 636.7891
1342.404, 469.5469
1343.467, 853.1484
1344.530, 971.1992
1345.593, 590.1016
1346.655, 744.8164
1347.718, 563.2266
1348.780, 474.1367
1349.843, 304.1953
1350.905, 434.1602
1351.967, 403.4766
1353.028, 402.5273
1354.090, 530.4609
1355.152, 531.5781
1356.213, 549.8828
1357.274, 537.6406
1358.335, 555.7188
1359.396, 445.2969
1360.457, 544.2227
1361.517, 517.3125
1362.578, 666.5859
1363.638, 626.5312
1364.698, 640.6484
1365.758, 570.1602
1366.818, 645.2070
1367.878, 591.5625
1368.937, 673.2773
1369.997, 528.0898
1371.056, 610.1953
1372.115, 657.3320
1373.174, 464.0820
1374.232, 592.4961
1375.291, 664.0352
1376.350, 490.7734
1377.408, 463.0234
1378.466, 589.5703
1379.524, 709.2188
1380.582, 711.0039
1381.640, 891.6602
1382.697, 601.7461
1383.754, 969.9648
1384.812, 299.6836
1385.869, 391.5000
1386.926, 675.5977
1387.983, 634.4961
1389.039, 709.3828
1390.096, 521.2070
1391.152, 623.8477
1392.208, 624.7852
1393.264, 435.7695
1394.320, 351.3711
1395.376, 645.6406
1396.431, 295.3203
1397.487, 99.42969
1398.542, 283.0273
1399.597, 449.6602
1400.652, 155.3359
