##NAMES=Hauyne
##RRUFFID=R070121
##IDEAL CHEMISTRY=Na_3_Ca(Si_3_Al_3_)O_12_(S^6+^O_4_)
##LOCALITY=Hesse, Germany
##OWNER=RRUFF
##SOURCE=Michael Scott
##DESCRIPTION=Blue cut gemstones
##STATUS=The identification of this mineral has been confirmed by single-crystal X-ray diffraction.
##URL=rruff.info/R070121
##PIN_ID=M01514
##ORIENTATION=Laser parallel to a* (1 0 0). Fiducial mark perpendicular to laser is parallel to c [0 0 1]
224.7060, 0.0000000E+00
225.9260, 42.61914
227.1470, 86.00586
228.3670, 16.97070
229.5860, 107.4150
230.8060, 211.3633
232.0260, 153.8047
233.2450, 326.7158
234.4640, 287.5332
235.6830, 409.0723
236.9020, 574.8760
238.1200, 543.4805
239.3390, 751.3281
240.5570, 930.7051
241.7750, 978.7705
242.9930, 1259.849
244.2110, 1513.941
245.4290, 1824.081
246.6460, 2248.342
247.8630, 2365.410
249.0810, 2779.529
250.2980, 2910.082
251.5140, 3227.182
252.7310, 3445.533
253.9470, 3597.102
255.1640, 3805.752
256.3800, 3593.531
257.5960, 3594.938
258.8120, 3626.778
260.0270, 3645.816
261.2430, 3299.610
262.4580, 3046.738
263.6730, 2731.376
264.8880, 2643.768
266.1030, 2431.502
267.3170, 2214.540
268.5320, 1922.952
269.7460, 1986.766
270.9600, 1835.203
272.1740, 1606.391
273.3880, 1756.231
274.6010, 1667.269
275.8150, 1696.215
277.0280, 1714.402
278.2410, 1743.289
279.4540, 1619.902
280.6670, 1813.266
281.8790, 1997.073
283.0920, 1862.726
284.3040, 1781.374
285.5160, 1807.569
286.7280, 1804.906
287.9400, 1660.411
289.1510, 1651.197
290.3630, 1391.369
291.5740, 1478.581
292.7850, 1334.826
293.9960, 1287.813
295.2070, 1080.300
296.4170, 988.7217
297.6280, 877.2100
298.8380, 869.4868
300.0480, 813.6333
301.2580, 708.7900
302.4680, 634.3862
303.6770, 578.4756
304.8870, 535.7656
306.0960, 495.4854
307.3050, 421.5171
308.5140, 434.8301
309.7230, 318.3994
310.9310, 342.1958
312.1400, 254.1919
313.3480, 165.3618
314.5560, 227.6836
315.7640, 60.13428
316.9720, 106.6958
318.1790, 129.3516
319.3870, 59.91455
320.5940, 64.11914
321.8010, 64.28076
323.0080, 40.41992
324.2150, 42.56006
325.4210, 45.65820
326.6280, 141.9307
327.8340, 78.19238
329.0400, 150.5112
330.2460, 206.8862
331.4510, 142.3145
332.6570, 179.8027
333.8620, 149.3701
335.0680, 228.0225
336.2730, 175.7656
337.4780, 220.6128
338.6820, 257.5718
339.8870, 74.65186
341.0910, 145.8652
342.2950, 183.2354
343.5000, 5.798828
344.7030, 53.57373
345.9070, 75.31738
347.1110, 154.9160
348.3140, 127.2129
349.5170, 362.1753
350.7200, 295.7451
351.9230, 403.9600
353.1260, 404.8027
354.3290, 522.2651
355.5310, 379.4614
356.7330, 468.4170
357.9350, 460.2729
359.1370, 635.1118
360.3390, 552.9639
361.5400, 599.8442
362.7420, 669.7632
363.9430, 559.7192
365.1440, 594.7256
366.3450, 634.7852
367.5460, 588.8989
368.7460, 709.0698
369.9470, 721.2676
371.1470, 736.4756
372.3470, 774.5439
373.5470, 774.0552
374.7460, 806.9976
375.9460, 893.8057
377.1450, 992.4487
378.3450, 977.8999
379.5440, 901.1396
380.7430, 990.1548
381.9410, 926.9341
383.1400, 989.4634
384.3380, 1067.729
385.5370, 1047.718
386.7350, 1130.428
387.9320, 1044.858
389.1300, 1080.004
390.3280, 1152.874
391.5250, 1090.461
392.7220, 1138.790
393.9190, 1117.772
395.1160, 1185.468
396.3130, 1238.849
397.5100, 1332.884
398.7060, 1381.572
399.9020, 1525.935
401.0980, 1592.984
402.2940, 1799.730
403.4900, 1898.203
404.6860, 2097.395
405.8810, 2286.301
407.0760, 2425.933
408.2710, 2697.320
409.4660, 2833.448
410.6610, 3204.333
411.8550, 3420.953
413.0500, 3776.330
414.2440, 4225.454
415.4380, 4449.262
416.6320, 4921.702
417.8260, 5491.692
419.0190, 5946.300
420.2130, 6440.488
421.4060, 6867.250
422.5990, 7642.517
423.7920, 8163.329
424.9850, 9131.682
426.1770, 9656.525
427.3700, 10618.10
428.5620, 11626.43
429.7540, 12387.64
430.9460, 13593.79
432.1380, 14650.92
433.3290, 15584.03
434.5210, 16513.53
435.7120, 17541.27
436.9030, 18070.29
438.0940, 18620.17
439.2850, 19206.25
440.4750, 19411.01
441.6660, 19534.37
442.8560, 19530.77
444.0460, 19364.00
445.2360, 19000.87
446.4260, 18695.35
447.6160, 17952.48
448.8050, 17391.34
449.9940, 16838.97
451.1830, 16081.07
452.3720, 15369.38
453.5610, 14741.54
454.7500, 13973.13
455.9380, 13407.72
457.1260, 12633.90
458.3150, 11839.35
459.5020, 11338.95
460.6900, 10737.30
461.8780, 10010.39
463.0650, 9275.954
464.2530, 8664.518
465.4400, 8148.330
466.6270, 7611.899
467.8130, 7004.595
469.0000, 6584.363
470.1870, 6113.354
471.3730, 5740.600
472.5590, 5442.561
473.7450, 5032.431
474.9310, 4609.232
476.1160, 4398.123
477.3020, 4074.201
478.4870, 3896.624
479.6720, 3548.584
480.8570, 3334.978
482.0420, 3251.310
483.2270, 2973.368
484.4110, 2831.212
485.5960, 2606.955
486.7800, 2502.079
487.9640, 2342.452
489.1480, 2282.954
490.3310, 2103.584
491.5150, 2001.989
492.6980, 1771.537
493.8810, 1810.662
495.0640, 1629.521
496.2470, 1516.457
497.4300, 1503.958
498.6120, 1392.506
499.7950, 1338.363
500.9770, 1321.830
502.1590, 1393.107
503.3410, 1436.114
504.5220, 1419.391
505.7040, 1268.033
506.8850, 1558.284
508.0660, 1503.754
509.2470, 1464.460
510.4280, 1732.043
511.6090, 1664.199
512.7890, 1738.369
513.9700, 2025.569
515.1500, 2091.895
516.3300, 2316.184
517.5100, 2440.576
518.6900, 2758.980
519.8690, 3145.347
521.0490, 3565.677
522.2280, 4037.973
523.4070, 4536.256
524.5860, 5595.539
525.7640, 6541.931
526.9430, 7780.217
528.1210, 9230.420
529.3000, 11077.19
530.4780, 13208.26
531.6560, 16019.04
532.8330, 19330.87
534.0110, 23162.71
535.1880, 27310.66
536.3650, 31969.62
537.5430, 37245.59
538.7190, 42567.01
539.8960, 47256.82
541.0730, 51649.91
542.2490, 54597.88
543.4250, 55951.19
544.6020, 55579.77
545.7780, 52919.71
546.9530, 48745.70
548.1290, 42529.00
549.3040, 35725.26
550.4800, 28753.09
551.6550, 22350.47
552.8300, 17377.27
554.0040, 13396.90
555.1790, 10504.72
556.3540, 8485.787
557.5280, 7022.363
558.7020, 6096.840
559.8760, 5397.965
561.0500, 4778.508
562.2230, 4367.961
563.3970, 4124.693
564.5700, 4021.794
565.7430, 3870.340
566.9160, 3897.648
568.0890, 4021.604
569.2620, 3969.179
570.4340, 4254.603
571.6070, 4532.785
572.7790, 4776.797
573.9510, 5080.364
575.1230, 5321.377
576.2940, 5542.787
577.4660, 5757.479
578.6370, 5789.455
579.8080, 5865.766
580.9790, 5918.100
582.1500, 5727.410
583.3210, 5505.007
584.4910, 5453.373
585.6620, 5151.512
586.8320, 4901.621
588.0020, 4511.204
589.1720, 4375.686
590.3410, 3855.057
591.5110, 3739.841
592.6800, 3382.665
593.8500, 3110.042
595.0190, 2977.174
596.1880, 2834.929
597.3560, 2692.618
598.5250, 2658.006
599.6930, 2553.971
600.8620, 2667.401
602.0300, 2628.062
603.1970, 2866.900
604.3650, 2911.723
605.5330, 3073.415
606.7000, 3163.072
607.8680, 3331.436
609.0350, 3368.974
610.2020, 3277.644
611.3680, 3462.374
612.5350, 3351.180
613.7010, 3224.139
614.8680, 3245.294
616.0340, 3344.325
617.2000, 3383.959
618.3660, 3358.885
619.5310, 3315.959
620.6970, 3250.498
621.8620, 3120.369
623.0270, 3020.987
624.1920, 2932.479
625.3570, 2832.396
626.5220, 2564.312
627.6860, 2647.545
628.8500, 2396.600
630.0140, 2358.029
631.1780, 2183.231
632.3420, 2141.504
633.5060, 2230.198
634.6700, 2129.770
635.8330, 2146.918
636.9960, 2211.691
638.1590, 2180.136
639.3220, 2128.058
640.4850, 2105.312
641.6470, 2088.807
642.8100, 1975.309
643.9720, 1970.271
645.1340, 1832.216
646.2960, 1801.134
647.4570, 1666.025
648.6190, 1549.910
649.7800, 1558.823
650.9420, 1391.706
652.1030, 1201.585
653.2640, 1253.437
654.4240, 948.2920
655.5850, 792.1133
656.7450, 703.8984
657.9060, 596.6484
659.0660, 494.3623
660.2260, 413.0400
661.3850, 337.2705
662.5450, 247.2822
663.7040, 241.8467
664.8640, 211.3711
666.0230, 231.8545
667.1820, 246.2988
668.3410, 107.7031
669.4990, 296.0615
670.6580, 96.37988
671.8160, 80.65137
672.9740, 73.87500
674.1320, 46.05078
675.2900, 40.17676
676.4480, 82.74902
677.6050, 161.2441
678.7630, 25.81055
679.9200, 100.9258
681.0770, 56.13672
682.2340, 182.5781
683.3900, 44.75586
684.5470, 31.83789
685.7030, 27.62305
686.8590, 35.15234
688.0150, 154.7529
689.1710, 114.4863
690.3270, 169.1113
691.4830, 94.32031
692.6380, 185.4150
693.7930, 218.6631
694.9480, 157.0840
696.1030, 163.6475
697.2580, 176.3584
698.4130, 153.2227
699.5670, 190.2305
700.7210, 155.4043
701.8750, 78.72461
703.0290, 67.15332
704.1830, 104.6855
705.3370, 4.657227
706.4900, 156.0693
707.6430, 52.94922
708.7970, 96.93066
709.9490, 10.03516
711.1020, 20.77930
712.2550, 128.5264
713.4070, 24.21191
714.5600, 42.17188
715.7120, 103.3438
716.8640, 36.79492
718.0160, 197.1797
719.1670, 193.5029
720.3190, 201.7637
721.4700, 135.9619
722.6210, 193.0957
723.7720, 250.1650
724.9230, 260.1729
726.0740, 150.1191
727.2250, 178.2031
728.3750, 208.0166
729.5250, 113.1836
730.6750, 347.0498
731.8250, 219.3525
732.9750, 283.4961
734.1240, 139.6660
735.2740, 161.8730
736.4230, 240.8486
737.5720, 109.0195
738.7210, 246.9873
739.8700, 200.1279
741.0190, 35.90918
742.1670, 188.2930
743.3150, 236.5205
744.4630, 262.0322
745.6110, 107.6016
746.7590, 15.69336
747.9070, 35.75293
749.0540, 80.26074
750.2020, 79.33594
751.3490, 69.34473
752.4960, 41.54395
753.6430, 103.1465
754.7890, 25.00684
755.9360, 44.40723
757.0820, 51.18359
758.2280, 205.9639
759.3740, 52.98633
760.5200, 189.3457
761.6660, 82.97559
762.8120, 184.6943
763.9570, 222.5254
765.1020, 170.7041
766.2470, 241.3242
767.3920, 177.4561
768.5370, 233.3936
769.6810, 342.1201
770.8260, 264.4463
771.9700, 416.4336
773.1140, 295.7129
774.2580, 395.2168
775.4020, 470.2109
776.5460, 365.4004
777.6890, 521.2168
778.8320, 459.8613
779.9750, 453.8057
781.1180, 685.7695
782.2610, 651.5322
783.4040, 716.5957
784.5460, 680.4189
785.6890, 921.0430
786.8310, 1041.301
787.9730, 1092.862
789.1150, 1035.521
790.2560, 1218.691
791.3980, 1385.056
792.5390, 1330.929
793.6810, 1440.709
794.8220, 1526.395
795.9630, 1646.188
797.1030, 1609.689
798.2440, 1695.098
799.3840, 1783.412
800.5240, 1631.611
801.6650, 1819.681
802.8040, 1776.518
803.9440, 1751.335
805.0840, 1649.107
806.2230, 1654.196
807.3630, 1621.862
808.5020, 1630.692
809.6410, 1514.353
810.7790, 1331.880
811.9180, 1648.187
813.0570, 1362.365
814.1950, 1192.422
815.3330, 1297.898
816.4710, 1086.901
817.6090, 1147.489
818.7470, 1148.090
819.8840, 1137.244
821.0220, 1190.479
822.1590, 1016.337
823.2960, 1167.498
824.4330, 992.2227
825.5690, 755.9131
826.7060, 913.9141
827.8420, 928.2705
828.9790, 779.1074
830.1150, 1029.017
831.2510, 904.6338
832.3860, 692.9150
833.5220, 765.5859
834.6570, 808.2666
835.7930, 899.2090
836.9280, 777.6445
838.0630, 773.0840
839.1980, 586.1582
840.3320, 773.7832
841.4670, 566.8809
842.6010, 634.1396
843.7350, 626.6738
844.8690, 640.5156
846.0030, 604.2959
847.1370, 407.5254
848.2700, 521.7139
849.4040, 433.2764
850.5370, 429.3223
851.6700, 519.8975
852.8030, 491.1230
853.9360, 417.9932
855.0680, 558.4590
856.2000, 582.8350
857.3330, 436.1729
858.4650, 525.1611
859.5970, 526.3164
860.7290, 423.6357
861.8600, 364.9258
862.9920, 309.6836
864.1230, 355.4844
865.2540, 253.3408
866.3850, 305.7256
867.5160, 184.0186
868.6460, 203.7002
869.7770, 179.5771
870.9070, 151.0088
872.0370, 186.9980
873.1670, 121.4756
874.2970, 150.3281
875.4270, 89.68457
876.5570, 26.77344
877.6860, 227.6318
878.8150, 60.50293
879.9440, 46.49902
881.0730, 123.5186
882.2020, 25.82422
883.3300, 4.929688
884.4590, 5.122070
885.5870, 36.75977
886.7150, 34.55664
887.8430, 23.79199
888.9710, 33.33496
890.0990, 71.76465
891.2260, 89.28418
892.3530, 127.4805
893.4810, 118.0527
894.6080, 124.7422
895.7340, 149.8877
896.8610, 141.2588
897.9880, 146.3350
899.1140, 151.2588
900.2400, 128.2012
901.3660, 154.4404
902.4920, 86.31250
903.6180, 86.64062
904.7430, 70.82129
905.8690, 115.6709
906.9940, 66.00098
908.1190, 153.8086
909.2440, 97.30176
910.3690, 17.48828
911.4930, 99.45996
912.6180, 9.023438
913.7420, 19.10742
914.8660, 4.110352
915.9900, 62.40820
917.1140, 7.251953
918.2380, 49.85254
919.3610, 80.91699
920.4850, 71.05762
921.6080, 213.1104
922.7310, 62.68555
923.8540, 99.55566
924.9760, 18.88379
926.0990, 150.2607
927.2210, 153.2529
928.3440, 133.7354
929.4660, 117.1855
930.5880, 54.60449
931.7090, 155.9922
932.8310, 182.3496
933.9520, 106.6797
935.0740, 139.9805
936.1950, 249.2529
937.3160, 170.4980
938.4360, 300.7197
939.5570, 196.9160
940.6780, 157.0859
941.7980, 245.2354
942.9180, 241.3594
944.0380, 367.4648
945.1580, 366.5498
946.2780, 384.6162
947.3970, 487.6670
948.5170, 304.7012
949.6360, 687.7344
950.7550, 625.7500
951.8740, 961.7578
952.9930, 870.7725
954.1110, 948.7842
955.2300, 1146.781
956.3480, 1321.777
957.4660, 1481.763
958.5840, 1840.744
959.7020, 2447.724
960.8190, 2803.730
961.9370, 3716.760
963.0540, 4659.824
964.1710, 5810.905
965.2880, 7198.027
966.4050, 8903.203
967.5220, 11170.44
968.6380, 13282.71
969.7550, 15725.03
970.8710, 17787.39
971.9870, 19648.81
973.1030, 20920.29
974.2190, 22180.80
975.3340, 22881.33
976.4500, 23179.90
977.5650, 24153.50
978.6800, 25280.19
979.7950, 26693.96
980.9100, 28379.84
982.0250, 30882.75
983.1390, 33162.73
984.2530, 35629.75
985.3680, 37817.77
986.4820, 39874.86
987.5950, 41036.99
988.7090, 40943.17
989.8230, 40711.39
990.9360, 39705.65
992.0490, 38418.93
993.1620, 36769.24
994.2750, 35082.58
995.3880, 33722.92
996.5010, 31142.28
997.6130, 29133.45
998.7250, 27157.84
999.8370, 25301.83
1000.949, 23712.11
1002.061, 22014.93
1003.173, 20480.88
1004.284, 18927.79
1005.396, 17883.65
1006.507, 16742.69
1007.618, 15824.49
1008.729, 14965.46
1009.839, 14125.25
1010.950, 13299.70
1012.060, 12362.84
1013.171, 11621.40
1014.281, 10852.62
1015.391, 9815.732
1016.500, 8900.262
1017.610, 8086.746
1018.719, 7474.719
1019.829, 6778.469
1020.938, 6376.422
1022.047, 5755.527
1023.156, 5377.191
1024.264, 5146.545
1025.373, 5079.127
1026.481, 4707.652
1027.589, 4689.936
1028.697, 4468.920
1029.805, 4643.496
1030.913, 4489.738
1032.020, 4742.822
1033.128, 4377.734
1034.235, 4626.232
1035.342, 4607.230
1036.449, 4705.656
1037.556, 4909.217
1038.663, 4829.922
1039.769, 5045.965
1040.875, 5333.285
1041.981, 5418.254
1043.087, 5493.930
1044.193, 5534.061
1045.299, 5475.934
1046.404, 5471.271
1047.510, 5407.426
1048.615, 5345.369
1049.720, 5348.234
1050.825, 5271.244
1051.930, 5177.951
1053.034, 5049.738
1054.139, 4946.723
1055.243, 4631.016
1056.347, 4501.949
1057.451, 4501.730
1058.555, 4563.945
1059.658, 4580.912
1060.762, 4537.314
1061.865, 4799.754
1062.968, 4933.230
1064.071, 5101.545
1065.174, 5119.098
1066.277, 5561.686
1067.380, 5804.314
1068.482, 6225.979
1069.584, 6674.684
1070.686, 6989.428
1071.788, 7609.209
1072.890, 8279.027
1073.992, 8566.887
1075.093, 9384.785
1076.194, 9934.723
1077.295, 10534.70
1078.396, 11091.71
1079.497, 11597.76
1080.598, 12534.86
1081.698, 13008.99
1082.799, 13779.16
1083.899, 14229.36
1084.999, 14745.61
1086.099, 15190.90
1087.199, 15172.22
1088.298, 14974.59
1089.398, 15136.00
1090.497, 14675.44
1091.596, 14467.93
1092.695, 14089.45
1093.794, 13211.01
1094.892, 12907.61
1095.991, 12064.34
1097.089, 11257.02
1098.187, 10441.74
1099.285, 9731.008
1100.383, 9356.812
1101.481, 8535.643
1102.579, 8182.906
1103.676, 7695.188
1104.773, 7261.340
1105.870, 6926.693
1106.967, 6764.887
1108.064, 6607.482
1109.161, 6452.168
1110.257, 6363.045
1111.353, 6288.697
1112.449, 6292.094
1113.545, 6236.656
1114.641, 6381.877
1115.737, 6413.998
1116.832, 6201.051
1117.928, 6094.260
1119.023, 5962.141
1120.118, 6124.807
1121.213, 5976.725
1122.308, 5824.920
1123.402, 5591.422
1124.497, 5402.791
1125.591, 5164.309
1126.685, 4974.361
1127.779, 4721.430
1128.873, 4530.650
1129.967, 4197.693
1131.060, 4109.062
1132.153, 3998.195
1133.247, 3706.627
1134.340, 3719.152
1135.433, 3393.746
1136.525, 3467.268
1137.618, 3348.504
1138.710, 3268.051
1139.802, 3167.551
1140.895, 3054.639
1141.987, 3245.512
1143.078, 3208.467
1144.170, 3211.146
1145.261, 3158.115
1146.353, 3030.082
1147.444, 2952.066
1148.535, 3210.080
1149.626, 3114.518
1150.716, 3026.531
1151.807, 3274.340
1152.897, 3011.195
1153.988, 2879.420
1155.078, 3273.652
1156.168, 3217.770
1157.257, 3236.934
1158.347, 3177.670
1159.436, 3088.898
1160.526, 3066.623
1161.615, 3054.316
1162.704, 2995.266
1163.793, 3034.598
1164.881, 3004.707
1165.970, 3130.666
1167.058, 2876.725
1168.147, 2967.121
1169.235, 2659.469
1170.323, 2755.428
1171.410, 2593.482
1172.498, 2405.523
1173.585, 2571.814
1174.673, 2420.031
1175.760, 2276.236
1176.847, 2425.893
1177.934, 2125.658
1179.020, 2224.193
1180.107, 1912.434
1181.193, 1934.732
1182.279, 1868.869
1183.365, 1680.148
1184.451, 1511.617
1185.537, 1478.533
1186.623, 1369.717
1187.708, 1397.482
1188.793, 1193.207
1189.878, 1165.846
1190.963, 1062.287
1192.048, 876.7285
1193.133, 987.1699
1194.217, 869.6074
1195.302, 839.0449
1196.386, 623.4824
1197.470, 600.3418
1198.554, 652.3535
1199.638, 518.7832
1200.721, 478.2090
1201.805, 528.6309
1202.888, 466.0469
1203.971, 443.4590
1205.054, 464.8672
1206.137, 394.9922
1207.219, 326.4785
1208.302, 281.0605
1209.384, 226.4473
1210.466, 212.8789
1211.548, 282.2012
1212.630, 227.5645
1213.712, 187.9219
1214.794, 246.2754
1215.875, 195.9395
1216.956, 401.9863
1218.037, 209.3438
1219.118, 180.6895
1220.199, 259.0234
1221.280, 115.3535
1222.360, 218.6738
1223.441, 105.9844
1224.521, 162.3008
1225.601, 61.61328
1226.681, 206.9102
1227.760, 97.19336
1228.840, 91.53516
1229.919, 99.67578
1230.999, 113.8691
1232.078, 16.04883
1233.157, 64.79102
1234.236, 42.67773
1235.314, 34.39453
1236.393, 38.54883
1237.471, 7.482422
1238.549, 74.50781
1239.627, 177.5605
1240.705, 218.7324
1241.783, 236.6309
1242.860, 93.50391
1243.938, 213.0430
1245.015, 81.72070
1246.092, 46.47266
1247.169, 142.2832
1248.246, 55.19141
1249.323, 145.1562
1250.399, 99.23633
1251.475, 133.4082
1252.552, 40.68750
1253.628, 8.927734
1254.703, 80.41602
1255.779, 81.11133
1256.855, 85.60938
1257.930, 60.08008
1259.005, 21.48047
1260.080, 24.68750
1261.155, 82.77148
1262.230, 101.5371
1263.305, 53.40625
1264.379, 116.3535
1265.454, 113.4180
1266.528, 4.404297
1267.602, 62.17578
1268.676, 60.08984
1269.750, 147.4414
1270.823, 14.93164
1271.897, 1.513672
1272.970, 72.89648
1274.043, 251.2441
1275.116, 621.5625
1276.189, 431.8496
1277.261, 500.1074
1278.334, 176.3340
1279.406, 69.68164
1280.478, 106.8301
1281.550, 103.9453
1282.622, 33.98242
1283.694, 73.06641
1284.766, 155.9883
1285.837, 43.20117
1286.908, 2.466797
1287.979, 104.1465
1289.050, 71.83008
1290.121, 262.5137
1291.192, 217.6172
1292.262, 253.7637
1293.333, 146.4980
1294.403, 221.8613
1295.473, 85.18164
1296.543, 189.5957
1297.613, 212.8320
1298.682, 328.4160
1299.752, 307.9746
1300.821, 334.2480
1301.890, 277.6953
1302.959, 306.7227
1304.028, 314.4004
1305.096, 227.5117
1306.165, 205.9141
1307.233, 266.1152
1308.301, 430.2148
1309.370, 334.9727
1310.437, 148.6855
1311.505, 483.3418
1312.573, 304.9473
1313.640, 271.7188
1314.708, 330.2402
1315.775, 260.0410
1316.842, 278.1582
1317.908, 302.5586
1318.975, 454.3301
1320.042, 546.6465
1321.108, 622.9219
1322.174, 508.1582
1323.240, 585.3516
1324.306, 592.0000
1325.372, 734.1113
1326.438, 734.1777
1327.503, 741.2012
1328.568, 787.1836
1329.634, 688.1191
1330.699, 625.0117
1331.763, 728.8574
1332.828, 716.9238
1333.893, 841.8828
1334.957, 1083.592
1336.021, 956.6230
1337.085, 1101.377
1338.149, 883.5781
1339.213, 1194.096
1340.277, 997.5684
1341.340, 1173.303
1342.404, 1055.840
1343.467, 1122.240
1344.530, 1140.393
1345.593, 1135.631
1346.655, 991.8262
1347.718, 1171.975
1348.780, 1137.121
1349.843, 1363.525
1350.905, 1094.543
1351.967, 1260.297
1353.028, 1197.893
1354.090, 997.6875
1355.152, 1014.014
1356.213, 1142.816
1357.274, 1086.062
1358.335, 837.8008
1359.396, 1131.750
1360.457, 1082.988
1361.517, 1309.420
1362.578, 1317.225
1363.638, 1308.314
1364.698, 1219.137
1365.758, 1207.609
1366.818, 912.6387
1367.878, 1178.252
1368.937, 850.3203
1369.997, 1106.377
1371.056, 1176.586
1372.115, 1216.174
1373.174, 1149.434
1374.232, 1106.338
1375.291, 1126.100
1376.350, 1363.295
1377.408, 1667.977
1378.466, 1931.719
1379.524, 2065.049
1380.582, 2193.143
1381.640, 1572.818
1382.697, 1721.869
1383.754, 1196.109
1384.812, 840.3223
1385.869, 993.6172
1386.926, 726.1875
1387.983, 1017.938
1389.039, 818.4102
1390.096, 627.7754
1391.152, 545.4570
1392.208, 436.3633
1393.264, 505.5566
