##NAMES=Hedenbergite
##RRUFFID=R060040
##IDEAL CHEMISTRY=CaFe^2+^Si_2_O_6_
##LOCALITY=Rio Marina, Elba, Italy
##OWNER=RRUFF
##SOURCE=University of Arizona Mineral Museum
##DESCRIPTION=Radial aggregate of green thin bladed crystals
##STATUS=The identification of this mineral has been confirmed by X-ray diffraction and chemical analysis
##URL=rruff.info/R060040
##MEASURED CHEMISTRY=Ca_1.00_(Fe^2+^_0.89_Mg_0.09_Mn_0.02_)_Î£=1_Si_2.00_O_6_
##PIN_ID=M00921
##ORIENTATION=Laser parallel to -b* (0 -1 0). Fiducial mark perpendicular to laser is parallel to c [0 0 1]
262.4900, 0.0000000E+00
263.7050, 50.52734
264.9210, 4.924805
266.1360, 137.7988
267.3520, 78.22070
268.5670, 70.61426
269.7820, 165.8398
270.9960, 260.1016
272.2110, 157.8057
273.4250, 65.52832
274.6400, 372.9678
275.8540, 209.8818
277.0680, 238.0703
278.2810, 300.3457
279.4950, 303.5449
280.7090, 278.5400
281.9220, 340.2598
283.1350, 157.6611
284.3480, 175.6904
285.5610, 79.32617
286.7730, 199.5312
287.9860, 200.2305
289.1980, 305.3652
290.4100, 175.8682
291.6220, 478.6738
292.8340, 689.7256
294.0460, 516.9756
295.2570, 644.3877
296.4690, 785.9316
297.6800, 870.5840
298.8910, 889.6758
300.1020, 1292.822
301.3120, 1322.506
302.5230, 1465.413
303.7330, 1591.574
304.9440, 1509.846
306.1540, 1868.628
307.3630, 1902.699
308.5730, 1798.010
309.7830, 1961.553
310.9920, 1759.190
312.2010, 1662.678
313.4100, 1548.271
314.6190, 1505.875
315.8280, 1443.453
317.0370, 1472.911
318.2450, 1518.233
319.4530, 1512.415
320.6610, 1591.458
321.8690, 1636.372
323.0770, 1584.160
324.2850, 1975.836
325.4920, 2063.403
326.6990, 2112.869
327.9060, 2123.236
329.1130, 2331.512
330.3200, 2503.696
331.5270, 2505.793
332.7330, 2389.806
333.9390, 2427.201
335.1450, 2266.891
336.3510, 2249.955
337.5570, 2007.792
338.7630, 1859.979
339.9680, 1755.444
341.1740, 1615.525
342.3790, 1339.845
343.5840, 1370.754
344.7890, 1100.897
345.9930, 1124.896
347.1980, 849.0244
348.4020, 783.5742
349.6060, 670.3955
350.8100, 775.5146
352.0140, 756.4072
353.2180, 759.2236
354.4210, 855.5723
355.6250, 703.0459
356.8280, 943.7148
358.0310, 774.8193
359.2340, 965.5898
360.4360, 1044.105
361.6390, 1085.398
362.8410, 1369.282
364.0430, 1631.685
365.2450, 1687.446
366.4470, 2054.969
367.6490, 2271.285
368.8510, 2281.271
370.0520, 2668.417
371.2530, 2679.164
372.4540, 3041.199
373.6550, 3290.618
374.8560, 2854.459
376.0560, 3149.299
377.2570, 3061.137
378.4570, 2673.971
379.6570, 2437.801
380.8570, 2167.623
382.0570, 1789.438
383.2560, 1638.240
384.4560, 1251.035
385.6550, 972.8184
386.8540, 882.7852
388.0530, 832.5439
389.2520, 665.4199
390.4510, 481.1553
391.6490, 606.8770
392.8470, 284.8516
394.0450, 419.7334
395.2430, 293.4209
396.4410, 206.0977
397.6390, 166.7617
398.8360, 236.4180
400.0340, 181.0615
401.2310, 195.6953
402.4280, 237.3164
403.6250, 185.9268
404.8210, 77.47266
406.0180, 116.0947
407.2140, 226.5020
408.4100, 27.03906
409.6060, 75.22559
410.8020, 43.32031
411.9980, 112.5508
413.1930, 59.10547
414.3890, 81.31445
415.5840, 1.188477
416.7790, 123.6250
417.9740, 109.9590
419.1680, 138.5918
420.3630, 110.2656
421.5570, 54.97559
422.7510, 78.28613
423.9450, 65.45312
425.1390, 59.24609
426.3330, 207.0566
427.5270, 80.87988
428.7200, 145.7139
429.9130, 103.4365
431.1060, 176.7109
432.2990, 122.4580
433.4920, 14.38672
434.6840, 61.43848
435.8770, 115.3984
437.0690, 45.80957
438.2610, 58.04004
439.4530, 130.6797
440.6450, 2.637695
441.8360, 59.58105
443.0280, 41.60352
444.2190, 54.91602
445.4100, 38.47168
446.6010, 17.83984
447.7920, 35.76074
448.9820, 55.46680
450.1730, 97.09180
451.3630, 21.85547
452.5530, 32.93945
453.7430, 62.54492
454.9330, 82.62500
456.1230, 148.0957
457.3120, 61.52930
458.5010, 216.9375
459.6910, 100.7402
460.8800, 89.88672
462.0680, 65.54883
463.2570, 306.8379
464.4460, 67.10742
465.6340, 8.595703
466.8220, 38.98047
468.0100, 43.82031
469.1980, 76.34570
470.3860, 159.4922
471.5730, 13.62891
472.7600, 4.738281
473.9480, 135.8262
475.1350, 95.89258
476.3210, 154.0996
477.5080, 134.0879
478.6950, 34.05664
479.8810, 118.0059
481.0670, 164.9375
482.2530, 61.82031
483.4390, 141.6152
484.6250, 261.3965
485.8100, 224.1621
486.9960, 333.8691
488.1810, 410.5996
489.3660, 295.3164
490.5510, 315.9688
491.7360, 296.5430
492.9200, 209.1074
494.1050, 457.5996
495.2890, 358.0723
496.4730, 364.5059
497.6570, 317.8789
498.8400, 484.2227
500.0240, 372.5215
501.2070, 327.7852
502.3910, 323.0352
503.5740, 190.2734
504.7570, 321.5098
505.9400, 174.6934
507.1220, 170.8672
508.3050, 328.0117
509.4870, 127.1152
510.6690, 220.2461
511.8510, 246.3594
513.0330, 227.4629
514.2140, 141.5566
515.3960, 311.6621
516.5770, 327.7559
517.7580, 436.8438
518.9390, 222.9160
520.1200, 114.0215
521.3010, 353.1152
522.4810, 132.2012
523.6610, 252.2754
524.8420, 245.3379
526.0220, 335.3926
527.2010, 235.4395
528.3810, 274.4707
529.5610, 265.4961
530.7400, 219.5098
531.9190, 336.5137
533.0980, 391.5078
534.2770, 328.4902
535.4560, 224.4629
536.6340, 342.4238
537.8120, 179.3730
538.9910, 326.3125
540.1690, 368.2441
541.3460, 429.1680
542.5240, 514.1016
543.7020, 488.0234
544.8790, 466.9375
546.0560, 496.8418
547.2330, 484.5234
548.4100, 480.4102
549.5870, 641.2793
550.7630, 614.9277
551.9400, 360.7734
553.1160, 725.4688
554.2920, 582.3047
555.4680, 509.0430
556.6440, 554.8477
557.8190, 349.1328
558.9950, 382.7227
560.1700, 432.4883
561.3450, 209.2344
562.5200, 287.9688
563.6950, 251.5449
564.8690, 263.7852
566.0440, 201.8027
567.2180, 241.3301
568.3920, 297.9785
569.5660, 303.5527
570.7400, 206.9531
571.9130, 92.33594
573.0870, 288.4609
574.2600, 151.4531
575.4330, 102.0742
576.6060, 123.7246
577.7790, 188.2246
578.9520, 301.0684
580.1240, 42.04102
581.2960, 104.3691
582.4690, 14.15234
583.6410, 133.6484
584.8120, 238.1973
585.9840, 7.507813
587.1560, 152.5020
588.3270, 164.3945
589.4980, 102.7188
590.6690, 140.7754
591.8400, 87.18945
593.0110, 6.845703
594.1810, 154.1523
595.3510, 11.62305
596.5220, 138.5117
597.6920, 227.4199
598.8610, 255.3730
600.0310, 46.07227
601.2010, 143.2441
602.3700, 110.1660
603.5390, 202.6738
604.7080, 330.7441
605.8770, 128.0430
607.0460, 52.78516
608.2140, 195.2559
609.3830, 310.3516
610.5510, 175.3242
611.7190, 423.2676
612.8870, 212.0957
614.0550, 302.4414
615.2220, 278.2422
616.3900, 96.85156
617.5570, 370.6660
618.7240, 306.3945
619.8910, 339.5664
621.0580, 461.1895
622.2240, 361.9922
623.3910, 485.3379
624.5570, 408.9980
625.7230, 527.6992
626.8890, 407.3848
628.0550, 619.6973
629.2200, 721.3516
630.3860, 742.2754
631.5510, 791.8984
632.7160, 932.9727
633.8810, 690.5605
635.0460, 933.1367
636.2100, 920.0723
637.3750, 1037.254
638.5390, 1193.047
639.7030, 1292.664
640.8670, 1581.279
642.0310, 1671.205
643.1950, 2070.676
644.3580, 2113.879
645.5210, 2550.830
646.6850, 2962.402
647.8480, 3432.908
649.0100, 4174.301
650.1730, 4974.371
651.3350, 5753.895
652.4980, 6906.242
653.6600, 8155.250
654.8220, 8816.307
655.9840, 10037.88
657.1450, 10926.43
658.3070, 11501.13
659.4680, 11765.62
660.6300, 11571.01
661.7910, 10928.42
662.9510, 9729.602
664.1120, 8399.197
665.2730, 7069.713
666.4330, 5956.186
667.5930, 4687.328
668.7530, 3963.984
669.9130, 3323.131
671.0730, 2540.891
672.2320, 2021.004
673.3920, 1757.332
674.5510, 1531.443
675.7100, 1393.543
676.8690, 1056.119
678.0280, 1081.193
679.1860, 820.7734
680.3450, 760.3242
681.5030, 780.5723
682.6610, 714.5801
683.8190, 584.7031
684.9770, 308.9883
686.1340, 299.3359
687.2920, 416.4082
688.4490, 408.3594
689.6060, 485.6719
690.7630, 194.9043
691.9200, 303.9238
693.0760, 269.8555
694.2330, 319.1973
695.3890, 322.3223
696.5450, 378.4707
697.7010, 233.3086
698.8570, 171.3105
700.0130, 170.1504
701.1680, 377.1523
702.3230, 212.9590
703.4780, 278.7500
704.6330, 96.45508
705.7880, 202.2617
706.9430, 219.9609
708.0970, 171.6445
709.2520, 6.691406
710.4060, 195.9395
711.5600, 37.26367
712.7140, 8.886719
713.8670, 50.47461
715.0210, 92.83789
716.1740, 211.2695
717.3270, 131.8516
718.4800, 178.4297
719.6330, 177.0352
720.7860, 268.3809
721.9380, 15.71484
723.0910, 385.1504
724.2430, 19.68359
725.3950, 75.42969
726.5470, 159.9590
727.6980, 54.48242
728.8500, 22.80664
730.0010, 85.30859
731.1530, 12.43750
732.3040, 25.33398
733.4550, 22.21484
734.6050, 98.58789
735.7560, 7.035156
736.9060, 69.32812
738.0560, 146.7285
739.2060, 73.64648
740.3560, 215.9531
741.5060, 136.1641
742.6560, 140.4785
743.8050, 20.77930
744.9540, 209.0137
746.1030, 239.9355
747.2520, 7.802734
748.4010, 75.44922
749.5500, 1.685547
750.6980, 215.8965
751.8460, 164.0957
752.9950, 172.2891
754.1420, 248.4668
755.2900, 180.4746
756.4380, 184.6230
757.5850, 217.7578
758.7330, 179.8809
759.8800, 141.9902
761.0270, 244.0840
762.1730, 220.1660
763.3200, 266.2324
764.4670, 166.2852
765.6130, 119.6777
766.7590, 155.2734
767.9050, 85.20898
769.0510, 268.1270
770.1960, 41.03320
771.3420, 266.9180
772.4870, 269.7930
773.6320, 62.65234
774.7770, 8.505859
775.9220, 89.53906
777.0670, 127.3359
778.2110, 124.1172
779.3560, 45.88867
780.5000, 200.6387
781.6440, 10.62500
782.7880, 6.916016
783.9320, 114.7617
785.0750, 128.4297
786.2180, 220.0820
787.3620, 140.2129
788.5050, 1.669922
789.6480, 219.3516
790.7900, 7.857422
791.9330, 76.65625
793.0750, 83.76758
794.2170, 86.17578
795.3590, 45.57031
796.5010, 131.0527
797.6430, 55.24414
798.7850, 101.5137
799.9260, 112.8203
801.0670, 48.06445
802.2080, 64.29492
803.3490, 69.50781
804.4900, 152.7695
805.6310, 33.51172
806.7710, 187.6816
807.9110, 13.83789
809.0510, 166.9766
810.1910, 94.10352
811.3310, 173.9648
812.4710, 211.2793
813.6100, 36.36719
814.7490, 198.3516
815.8880, 31.40820
817.0270, 33.45117
818.1660, 61.52539
819.3050, 246.9023
820.4430, 122.8535
821.5820, 78.80273
822.7200, 59.88281
823.8580, 126.7910
824.9950, 164.6523
826.1330, 0.9062500
827.2710, 77.21484
828.4080, 123.3887
829.5450, 139.8477
830.6820, 37.68359
831.8190, 88.67773
832.9560, 78.26367
834.0920, 197.7793
835.2280, 113.5391
836.3650, 196.2871
837.5010, 104.0234
838.6360, 223.7480
839.7720, 265.4590
840.9080, 275.1602
842.0430, 317.4062
843.1780, 723.0840
844.3130, 712.7480
845.4480, 786.4023
846.5830, 1088.256
847.7170, 1245.889
848.8520, 1585.965
849.9860, 1598.676
851.1200, 1774.795
852.2540, 1780.084
853.3870, 1909.670
854.5210, 1712.104
855.6540, 1749.664
856.7880, 1395.232
857.9210, 1110.793
859.0540, 907.6738
860.1860, 754.2227
861.3190, 782.1172
862.4510, 719.2988
863.5840, 393.8203
864.7160, 512.8945
865.8480, 497.7812
866.9790, 571.9648
868.1110, 286.4727
869.2420, 352.3535
870.3740, 503.2324
871.5050, 291.4473
872.6360, 349.2930
873.7660, 105.3984
874.8970, 302.8281
876.0280, 163.9492
877.1580, 204.4062
878.2880, 324.7715
879.4180, 155.1465
880.5480, 142.9648
881.6770, 308.3906
882.8070, 487.8086
883.9360, 200.5762
885.0650, 207.6387
886.1940, 316.9863
887.3230, 252.3691
888.4520, 420.7422
889.5800, 191.1074
890.7090, 138.4629
891.8370, 337.8105
892.9650, 341.1465
894.0930, 418.4766
895.2200, 474.8203
896.3480, 205.1016
897.4750, 291.4258
898.6020, 195.7441
899.7290, 263.0547
900.8560, 190.3574
901.9830, 390.0625
903.1090, 398.4043
904.2360, 366.4512
905.3620, 275.7754
906.4880, 182.6230
907.6140, 272.9375
908.7400, 304.2422
909.8650, 408.1621
910.9900, 37.81250
912.1160, 313.8359
913.2410, 256.0117
914.3660, 182.2402
915.4900, 183.1367
916.6150, 172.4785
917.7390, 123.0840
918.8640, 146.9258
919.9880, 316.1172
921.1120, 227.3633
922.2350, 72.69336
923.3590, 109.1582
924.4820, 6.679688
925.6060, 448.8340
926.7290, 144.4668
927.8520, 189.9121
928.9740, 196.9316
930.0970, 198.9590
931.2190, 149.8301
932.3420, 61.89258
933.4640, 259.7988
934.5860, 51.89648
935.7080, 330.0391
936.8290, 142.9062
937.9510, 129.8398
939.0720, 47.79688
940.1930, 149.9355
941.3140, 135.7598
942.4350, 260.9434
943.5560, 87.49609
944.6760, 124.6699
945.7960, 137.3887
946.9170, 9.720703
948.0370, 120.8242
949.1560, 44.54492
950.2760, 101.4844
951.3960, 184.1855
952.5150, 207.5039
953.6340, 11.14648
954.7530, 81.76953
955.8720, 51.77930
956.9910, 16.57422
958.1090, 152.1816
959.2280, 26.86914
960.3460, 186.8438
961.4640, 14.49414
962.5820, 98.22852
963.6990, 240.1445
964.8170, 319.1523
965.9340, 279.7344
967.0510, 362.5293
968.1690, 229.2773
969.2850, 145.3770
970.4020, 273.2695
971.5190, 337.3047
972.6350, 185.1562
973.7510, 205.1816
974.8670, 288.2070
975.9830, 219.2266
977.0990, 264.2754
978.2150, 411.3223
979.3300, 568.3633
980.4450, 407.4043
981.5600, 409.7148
982.6750, 680.7578
983.7900, 338.7969
984.9050, 489.8379
986.0190, 623.2012
987.1340, 821.2422
988.2480, 807.2773
989.3620, 965.3125
990.4750, 958.3438
991.5890, 1062.660
992.7020, 1225.906
993.8160, 1397.930
994.9290, 1530.947
996.0420, 1944.967
997.1550, 2228.984
998.2670, 2686.000
999.3800, 3037.014
1000.492, 3537.064
1001.604, 4457.076
1002.716, 5545.094
1003.828, 6975.109
1004.940, 8325.137
1006.051, 10605.16
1007.163, 12682.10
1008.274, 14723.95
1009.385, 16894.97
1010.496, 18422.29
1011.606, 18527.58
1012.717, 17954.60
1013.827, 16276.87
1014.937, 13540.87
1016.047, 11084.32
1017.157, 8783.316
1018.267, 6850.539
1019.377, 5454.590
1020.486, 4749.742
1021.595, 3899.742
1022.704, 3546.738
1023.813, 2964.730
1024.922, 2552.729
1026.030, 2611.805
1027.139, 2134.957
1028.247, 2131.188
1029.355, 2051.172
1030.463, 1753.152
1031.571, 1654.139
1032.678, 1680.113
1033.786, 1410.197
1034.893, 1249.541
1036.000, 1289.537
1037.107, 1013.807
1038.214, 882.7949
1039.321, 928.8223
1040.427, 964.3965
1041.533, 852.4922
1042.639, 755.4668
1043.745, 656.4395
1044.851, 651.3809
1045.957, 557.3535
1047.062, 634.8926
1048.168, 524.0137
1049.273, 758.2383
1050.378, 347.2148
1051.482, 431.5039
1052.587, 519.5000
1053.692, 515.4512
1054.796, 364.3965
1055.900, 352.6543
1057.004, 223.6309
1058.108, 46.52148
1059.212, 274.4883
1060.315, 246.4531
1061.418, 446.4375
1062.522, 413.5957
1063.625, 326.9629
1064.728, 324.9316
1065.830, 377.2188
1066.933, 310.2129
1068.035, 358.1582
1069.137, 216.1465
1070.239, 372.1270
1071.341, 545.5898
1072.443, 299.5000
1073.545, 229.9082
1074.646, 288.8691
1075.747, 318.0254
1076.848, 430.9766
1077.949, 387.9219
1079.050, 194.2891
1080.150, 257.0078
1081.251, 87.93945
1082.351, 77.94727
1083.451, 427.9746
1084.551, 155.8887
1085.651, 304.9824
1086.750, 285.4512
1087.850, 303.4414
1088.949, 124.3477
1090.048, 401.1016
1091.147, 297.0098
1092.246, 207.0820
1093.345, 311.1934
1094.443, 186.6660
1095.541, 240.5684
1096.639, 380.1973
1097.737, 317.0781
1098.835, 256.9844
1099.933, 261.8555
1101.030, 86.71875
1102.128, 124.5781
1103.225, 359.4277
1104.322, 497.2715
1105.419, 334.1113
1106.515, 268.1758
1107.612, 255.0000
1108.708, 446.8203
1109.804, 394.6309
1110.900, 203.4355
1111.996, 173.3965
1113.092, 39.18750
1114.187, 172.9688
1115.283, 213.7441
1116.378, 362.5117
1117.473, 26.27148
1118.568, 206.0234
1119.662, 403.7656
1120.757, 227.5020
1121.851, 206.2324
1122.946, 34.95508
1124.040, 51.66602
1125.134, 290.3691
1126.227, 163.0645
1127.321, 222.7539
1128.414, 139.4336
1129.508, 452.1074
1130.601, 271.7773
1131.693, 96.43359
1132.786, 135.0859
1133.879, 160.7324
1134.971, 173.3672
1136.064, 274.9961
1137.156, 181.6172
1138.248, 93.76758
1139.339, 29.22070
1140.431, 168.2930
1141.522, 35.79883
1142.614, 40.29492
1143.705, 190.7793
1144.796, 45.25781
1145.887, 233.7266
1146.977, 16.18359
1148.068, 331.6328
1149.158, 55.07422
1150.248, 95.50391
1151.338, 72.94727
1152.428, 141.3828
1153.518, 223.8105
1154.607, 193.2441
1155.696, 131.7891
1156.785, 90.22266
1157.874, 71.64648
1158.963, 63.93750
1160.052, 204.4238
1161.141, 129.7754
1162.229, 108.1211
1163.317, 133.4590
1164.405, 81.80469
1165.493, 192.8613
1166.581, 151.3555
1167.668, 44.56055
1168.756, 139.7559
1169.843, 99.94141
1170.930, 15.12109
1172.017, 81.29492
1173.103, 200.4609
1174.190, 222.6172
1175.276, 1.767578
1176.363, 270.9023
1177.449, 258.9727
1178.535, 70.99805
1179.620, 15.04297
1180.706, 43.11328
1181.791, 0.2246090
1182.877, 98.64062
1183.962, 128.4980
1185.047, 148.3477
1186.131, 25.19141
1187.216, 247.0195
1188.300, 22.84570
1189.385, 141.4551
1190.469, 129.2617
1191.553, 319.0586
1192.637, 62.84570
1193.720, 49.37695
1194.804, 142.3555
1195.887, 35.08008
1196.970, 401.7930
1198.053, 230.4980
1199.136, 150.1934
1200.219, 371.8828
1201.301, 3.437500
1202.383, 270.2207
1203.465, 224.8711
1204.547, 367.5488
1205.629, 53.21875
1206.711, 196.8789
1207.792, 124.5312
1208.874, 14.82422
1209.955, 375.8242
1211.036, 120.4668
1212.117, 244.0918
1213.198, 72.67969
1214.278, 162.3066
1215.359, 53.92383
1216.439, 306.5352
1217.519, 81.13867
1218.599, 313.7324
1219.678, 153.3223
1220.758, 193.9004
1221.837, 46.52734
1222.917, 44.00586
1223.996, 68.52930
1225.075, 3.046875
1226.153, 72.45508
1227.232, 101.9844
1228.310, 85.41797
1229.389, 137.8457
1230.467, 108.2637
1231.545, 144.6152
1232.622, 195.0176
1233.700, 138.4121
1234.777, 225.8008
1235.855, 34.18555
1236.932, 239.5605
1238.009, 320.9277
1239.086, 159.2891
1240.162, 524.6406
1241.239, 47.98633
1242.315, 101.3223
1243.391, 253.3867
1244.467, 255.7109
1245.543, 310.0254
1246.619, 188.3320
1247.694, 471.3105
1248.769, 121.6035
1249.844, 135.8887
1250.919, 208.1680
1251.994, 267.4375
1253.069, 516.4102
1254.144, 190.4453
1255.218, 282.6953
1256.292, 226.9395
1257.366, 332.1738
1258.440, 312.4062
1259.514, 297.6270
1260.587, 154.8398
1261.661, 216.0117
1262.734, 349.2109
1263.807, 193.4062
1264.880, 298.5957
1265.952, 176.7773
1267.025, 161.9512
1268.097, 336.2031
1269.170, 417.4902
1270.242, 120.6465
1271.314, 306.5000
1272.385, 289.3672
1273.457, 313.5078
1274.528, 416.3828
1275.600, 293.5098
1276.671, 397.1914
1277.742, 319.3105
1278.812, 452.2031
1279.883, 297.2910
1280.954, 328.2500
1282.024, 147.3438
1283.094, 65.80664
1284.164, 20.10547
1285.234, 326.1367
1286.303, 214.1152
1287.373, 186.0098
1288.442, 136.8184
1289.511, 214.8633
1290.580, 157.9062
1291.649, 336.9453
1292.718, 187.6113
1293.786, 320.5332
1294.855, 263.1934
1295.923, 317.2246
1296.991, 525.9785
1298.059, 420.0039
1299.126, 269.9844
1300.194, 169.3809
1301.261, 155.2773
1302.328, 460.2852
1303.395, 198.2930
1304.462, 88.06641
1305.529, 299.0703
1306.596, 323.5000
1307.662, 250.3398
1308.728, 345.0703
1309.794, 526.1055
1310.860, 497.7656
1311.926, 356.7188
1312.991, 487.7148
1314.057, 333.7070
1315.122, 549.3164
1316.187, 497.3164
1317.252, 358.8906
1318.317, 479.8828
1319.381, 565.8750
1320.446, 411.8672
1321.510, 515.6797
1322.574, 455.2773
1323.638, 549.2656
1324.702, 383.9727
1325.766, 508.9609
1326.829, 460.9531
1327.892, 292.9414
1328.956, 455.9336
1330.019, 208.4375
1331.081, 348.4258
1332.144, 464.4141
1333.206, 555.4062
1334.269, 393.1953
1335.331, 345.1836
1336.393, 261.1680
1337.455, 174.9805
1338.516, 429.9688
1339.578, 442.9570
1340.639, 398.9453
1341.701, 344.8281
1342.762, 476.8164
1343.822, 307.6250
1344.883, 329.6172
1345.944, 240.5391
1347.004, 592.5352
1348.064, 96.53516
1349.124, 400.5312
1350.184, 345.4023
1351.244, 356.1875
1352.304, 348.0781
1353.363, 213.0703
1354.422, 192.3359
1355.481, 269.3477
1356.540, 269.3281
1357.599, 306.3398
1358.657, 387.3555
1359.716, 297.3789
1360.774, 291.4023
1361.832, 469.4297
1362.890, 293.2773
1363.948, 262.0742
1365.006, 285.1133
1366.063, 464.1523
1367.120, 464.1641
1368.178, 337.1797
1369.234, 410.0117
1370.291, 305.9883
1371.348, 170.9727
1372.404, 450.9609
1373.461, 229.9258
1374.517, 308.8945
1375.573, 336.8711
1376.629, 338.8477
1377.684, 388.8086
1378.740, 316.7734
1379.795, 440.7383
1380.850, 251.7070
1381.905, 462.6797
1382.960, 209.6562
1384.015, 658.6328
1385.070, 234.6172
1386.124, 141.6055
1387.178, 182.5938
1388.232, 329.5898
1389.286, 422.5898
1390.340, 446.5938
1391.393, 373.6016
1392.447, 453.6094
1393.500, 201.6250
1394.553, 280.6484
1395.606, 159.6992
1396.659, 379.7734
1397.711, 320.8516
1398.764, 289.9336
1399.816, 224.0234
1400.868, 49.11719
1401.920, 140.2188
1402.972, 95.32031
1404.023, 226.4375
1405.075, 357.5547
1406.126, 97.32422
1407.177, 196.7852
1408.228, 40.88672
1409.279, 71.00781
1410.330, 90.08984
1411.380, 68.92578
1412.431, 371.9062
1413.481, 249.0156
1414.531, 59.12500
1415.580, 201.2734
1416.630, 138.4297
1417.680, 175.7773
1418.729, 74.05078
