##NAMES=Hedenbergite
##RRUFFID=R060040
##IDEAL CHEMISTRY=CaFe^2+^Si_2_O_6_
##LOCALITY=Rio Marina, Elba, Italy
##OWNER=RRUFF
##SOURCE=University of Arizona Mineral Museum
##DESCRIPTION=Radial aggregate of green thin bladed crystals
##STATUS=The identification of this mineral has been confirmed by X-ray diffraction and chemical analysis
##URL=rruff.info/R060040
##MEASURED CHEMISTRY=Ca_1.00_(Fe^2+^_0.89_Mg_0.09_Mn_0.02_)_Î£=1_Si_2.00_O_6_
##PIN_ID=M00548
##ORIENTATION=Laser parallel to c* (0 0 1). Fiducial mark perpendicular to laser is parallel to a [1 0 0]
262.4900, 0.0000000E+00
263.7050, 7.817383
264.9210, 97.87891
266.1360, 19.29297
267.3520, 121.9893
268.5670, 242.1553
269.7820, 255.4434
270.9960, 321.5723
272.2110, 456.5986
273.4250, 661.8916
274.6400, 904.9678
275.8540, 969.3828
277.0680, 981.7803
278.2810, 1187.876
279.4950, 1047.412
280.7090, 1073.188
281.9220, 1043.161
283.1350, 1059.404
284.3480, 979.7744
285.5610, 785.0430
286.7730, 790.0361
287.9860, 734.6377
289.1980, 898.7910
290.4100, 841.4854
291.6220, 814.6611
292.8340, 847.2275
294.0460, 982.1035
295.2570, 1021.228
296.4690, 1087.551
297.6800, 1126.042
298.8910, 1158.021
300.1020, 1414.805
301.3120, 1603.010
302.5230, 1591.306
303.7330, 1552.213
304.9440, 1709.883
306.1540, 1712.266
307.3630, 1740.386
308.5730, 1629.259
309.7830, 1538.936
310.9920, 1631.449
312.2010, 1363.888
313.4100, 1077.494
314.6190, 1019.104
315.8280, 983.0850
317.0370, 977.6270
318.2450, 774.1553
319.4530, 736.6230
320.6610, 736.8525
321.8690, 727.8223
323.0770, 825.5605
324.2850, 968.0811
325.4920, 864.4014
326.6990, 1084.523
327.9060, 1273.440
329.1130, 1351.164
330.3200, 1607.123
331.5270, 1792.527
332.7330, 1738.354
333.9390, 1985.360
335.1450, 2095.231
336.3510, 2476.383
337.5570, 2640.354
338.7630, 2756.091
339.9680, 2836.754
341.1740, 2809.945
342.3790, 2592.848
343.5840, 2516.320
344.7890, 1978.885
345.9930, 1656.585
347.1980, 1477.760
348.4020, 1145.211
349.6060, 1097.807
350.8100, 900.2314
352.0140, 843.4551
353.2180, 678.7031
354.4210, 702.5010
355.6250, 827.0889
356.8280, 663.9150
358.0310, 684.5400
359.2340, 926.5234
360.4360, 1071.879
361.6390, 983.1865
362.8410, 1162.444
364.0430, 1483.411
365.2450, 1630.803
366.4470, 1874.383
367.6490, 2195.507
368.8510, 2578.333
370.0520, 3089.715
371.2530, 3461.033
372.4540, 3811.869
373.6550, 4137.021
374.8560, 4198.246
376.0560, 4118.795
377.2570, 3942.357
378.4570, 3570.164
379.6570, 3203.953
380.8570, 2550.720
382.0570, 2235.927
383.2560, 1838.988
384.4560, 1386.783
385.6550, 1237.616
386.8540, 1006.659
388.0530, 727.5449
389.2520, 608.7432
390.4510, 452.2969
391.6490, 312.8242
392.8470, 250.3223
394.0450, 162.7910
395.2430, 233.3174
396.4410, 85.73145
397.6390, 182.6387
398.8360, 131.6143
400.0340, 153.7998
401.2310, 121.5605
402.4280, 80.97168
403.6250, 5.794922
404.8210, 11.58789
406.0180, 65.57031
407.2140, 56.92969
408.4100, 41.25879
409.6060, 44.58398
410.8020, 185.7959
411.9980, 72.05371
413.1930, 4.836914
414.3890, 53.13574
415.5840, 166.0098
416.7790, 153.8350
417.9740, 52.62598
419.1680, 58.63184
420.3630, 87.05273
421.5570, 106.7207
422.7510, 51.38477
423.9450, 53.03906
425.1390, 3.311523
426.3330, 52.67578
427.5270, 150.3320
428.7200, 11.71289
429.9130, 189.3652
431.1060, 238.2285
432.2990, 140.0762
433.4920, 265.5508
434.6840, 123.8955
435.8770, 331.4570
437.0690, 154.0703
438.2610, 274.8096
439.4530, 375.3145
440.6450, 325.9932
441.8360, 328.2754
443.0280, 228.1729
444.2190, 227.5117
445.4100, 119.2529
446.6010, 397.3828
447.7920, 155.1953
448.9820, 140.2939
450.1730, 49.64355
451.3630, 155.8516
452.5530, 209.5586
453.7430, 213.9385
454.9330, 21.39551
456.1230, 83.07227
457.3120, 42.87598
458.5010, 1.550781
459.6910, 95.86328
460.8800, 68.21680
462.0680, 26.83301
463.2570, 18.36621
464.4460, 80.19043
465.6340, 47.70020
466.8220, 18.83496
468.0100, 80.57520
469.1980, 108.9414
470.3860, 98.73242
471.5730, 54.52344
472.7600, 35.26367
473.9480, 141.1104
475.1350, 14.04395
476.3210, 161.0342
477.5080, 115.8672
478.6950, 3.690430
479.8810, 21.46387
481.0670, 51.04980
482.2530, 13.56152
483.4390, 57.13770
484.6250, 16.07324
485.8100, 129.1387
486.9960, 167.1113
488.1810, 72.04785
489.3660, 156.9492
490.5510, 234.8271
491.7360, 430.6787
492.9200, 463.5029
494.1050, 344.3057
495.2890, 373.0850
496.4730, 497.8398
497.6570, 460.5693
498.8400, 537.2754
500.0240, 181.9502
501.2070, 238.6172
502.3910, 242.2500
503.5740, 256.8496
504.7570, 341.4072
505.9400, 158.9326
507.1220, 159.4170
508.3050, 241.8486
509.4870, 234.2471
510.6690, 328.5654
511.8510, 224.8076
513.0330, 152.9375
514.2140, 375.0244
515.3960, 445.0820
516.5770, 442.0684
517.7580, 537.0205
518.9390, 400.9443
520.1200, 553.8652
521.3010, 464.7656
522.4810, 437.6426
523.6610, 470.5410
524.8420, 268.4736
526.0220, 366.3828
527.2010, 498.2715
528.3810, 393.1357
529.5610, 172.9951
530.7400, 344.8457
531.9190, 278.6738
533.0980, 162.4824
534.2770, 204.2773
535.4560, 183.0508
536.6340, 293.8008
537.8120, 185.5439
538.9910, 259.0674
540.1690, 390.7617
541.3460, 431.4199
542.5240, 577.0645
543.7020, 567.6250
544.8790, 622.9922
546.0560, 890.5225
547.2330, 903.6621
548.4100, 1243.889
549.5870, 1567.123
550.7630, 1412.189
551.9400, 1537.240
553.1160, 1556.334
554.2920, 1595.523
555.4680, 1359.217
556.6440, 1117.494
557.8190, 931.7861
558.9950, 735.6270
560.1700, 579.7588
561.3450, 512.4854
562.5200, 473.3271
563.6950, 317.2002
564.8690, 330.1455
566.0440, 343.2227
567.2180, 374.4033
568.3920, 176.0176
569.5660, 281.9365
570.7400, 178.0859
571.9130, 127.0117
573.0870, 129.8994
574.2600, 216.5977
575.4330, 331.4131
576.6060, 189.9570
577.7790, 174.0869
578.9520, 139.7295
580.1240, 191.5586
581.2960, 145.8975
582.4690, 26.73145
583.6410, 84.08887
584.8120, 211.5068
585.9840, 107.7422
587.1560, 269.4404
588.3270, 79.18066
589.4980, 239.6846
590.6690, 237.3613
591.8400, 165.3584
593.0110, 323.8730
594.1810, 422.4883
595.3510, 242.2207
596.5220, 387.1152
597.6920, 300.8154
598.8610, 353.9873
600.0310, 279.6426
601.2010, 316.5410
602.3700, 299.0215
603.5390, 280.2432
604.7080, 342.1826
605.8770, 442.6318
607.0460, 409.0137
608.2140, 332.6670
609.3830, 540.7559
610.5510, 310.4609
611.7190, 522.5732
612.8870, 476.7080
614.0550, 456.4883
615.2220, 444.5586
616.3900, 459.5576
617.5570, 454.8643
618.7240, 351.8047
619.8910, 562.5195
621.0580, 584.2266
622.2240, 454.1299
623.3910, 683.9473
624.5570, 643.4082
625.7230, 596.1133
626.8890, 771.7354
628.0550, 766.0010
629.2200, 548.5537
630.3860, 736.8496
631.5510, 704.9102
632.7160, 933.2412
633.8810, 722.2207
635.0460, 971.0537
636.2100, 977.3867
637.3750, 1098.437
638.5390, 1186.971
639.7030, 1249.654
640.8670, 1450.977
642.0310, 1366.177
643.1950, 1531.702
644.3580, 1850.063
645.5210, 2030.319
646.6850, 2418.740
647.8480, 2757.938
649.0100, 3375.887
650.1730, 3851.141
651.3350, 4641.456
652.4980, 5331.555
653.6600, 6302.049
654.8220, 7524.695
655.9840, 8504.727
657.1450, 9691.036
658.3070, 10780.73
659.4680, 11683.39
660.6300, 11587.17
661.7910, 11085.96
662.9510, 10132.00
664.1120, 8961.550
665.2730, 7344.031
666.4330, 6107.945
667.5930, 4992.849
668.7530, 4078.525
669.9130, 3458.799
671.0730, 2641.989
672.2320, 2313.744
673.3920, 1761.051
674.5510, 1579.369
675.7100, 1409.058
676.8690, 1190.767
678.0280, 936.7070
679.1860, 897.6152
680.3450, 951.9385
681.5030, 584.9346
682.6610, 589.1689
683.8190, 602.9072
684.9770, 601.2803
686.1340, 459.1670
687.2920, 646.0303
688.4490, 452.0811
689.6060, 461.9043
690.7630, 276.7002
691.9200, 468.4678
693.0760, 416.2559
694.2330, 262.0381
695.3890, 310.7930
696.5450, 223.5361
697.7010, 355.2969
698.8570, 265.0723
700.0130, 49.83496
701.1680, 379.5625
702.3230, 180.2881
703.4780, 272.0137
704.6330, 186.7285
705.7880, 292.4297
706.9430, 30.10742
708.0970, 296.4668
709.2520, 408.0781
710.4060, 459.3887
711.5600, 598.4551
712.7140, 588.5020
713.8670, 430.8809
715.0210, 347.3477
716.1740, 166.5547
717.3270, 242.6621
718.4800, 220.5957
719.6330, 89.71289
720.7860, 201.6035
721.9380, 65.83594
723.0910, 46.40039
724.2430, 76.46094
725.3950, 26.94922
726.5470, 11.16797
727.6980, 173.5254
728.8500, 106.5195
730.0010, 149.4746
731.1530, 139.0977
732.3040, 158.0527
733.4550, 123.9766
734.6050, 32.17578
735.7560, 227.3398
736.9060, 34.48242
738.0560, 42.12500
739.2060, 151.7422
740.3560, 22.33203
741.5060, 136.9121
742.6560, 137.4688
743.8050, 198.0020
744.9540, 133.5059
746.1030, 130.9883
747.2520, 267.4531
748.4010, 126.8945
749.5500, 12.30859
750.6980, 150.7227
751.8460, 310.1133
752.9950, 276.5000
754.1420, 242.9062
755.2900, 2.306641
756.4380, 258.7207
757.5850, 54.10938
758.7330, 266.4805
759.8800, 104.8340
761.0270, 117.1641
762.1730, 106.4727
763.3200, 148.7812
764.4670, 37.07031
765.6130, 150.3301
766.7590, 188.5625
767.9050, 116.7715
769.0510, 292.9551
770.1960, 202.1172
771.3420, 40.25195
772.4870, 68.35547
773.6320, 180.4297
774.7770, 19.47656
775.9220, 118.4902
777.0670, 75.47656
778.2110, 48.56836
779.3560, 141.3262
780.5000, 59.19336
781.6440, 105.0312
782.7880, 139.1582
783.9320, 215.5391
785.0750, 28.21680
786.2180, 155.8672
787.3620, 67.49023
788.5050, 142.9160
789.6480, 0.4335940
790.7900, 144.0117
791.9330, 6.568359
793.0750, 128.8145
794.2170, 56.30664
795.3590, 196.6309
796.5010, 57.06836
797.6430, 161.3379
798.7850, 149.9863
799.9260, 124.4199
801.0670, 197.0840
802.2080, 203.4688
803.3490, 110.5801
804.4900, 105.7441
805.6310, 40.84375
806.7710, 27.02148
807.9110, 22.86328
809.0510, 98.58398
810.1910, 14.72070
811.3310, 110.9316
812.4710, 250.5684
813.6100, 30.82422
814.7490, 156.7305
815.8880, 251.2656
817.0270, 156.7793
818.1660, 260.2695
819.3050, 163.9785
820.4430, 35.42383
821.5820, 114.8438
822.7200, 264.4414
823.8580, 338.8164
824.9950, 171.3164
826.1330, 293.6484
827.2710, 338.9629
828.4080, 458.2578
829.5450, 238.5312
830.6820, 519.7852
831.8190, 378.0176
832.9560, 400.2324
834.0920, 793.2695
835.2280, 806.4453
836.3650, 938.8613
837.5010, 1018.236
838.6360, 1049.164
839.7720, 882.8281
840.9080, 971.1094
842.0430, 975.5547
843.1780, 950.5977
844.3130, 774.5605
845.4480, 741.5664
846.5830, 778.5508
847.7170, 643.5176
848.8520, 895.4688
849.9860, 794.4023
851.1200, 862.3223
852.2540, 1119.221
853.3870, 1092.721
854.5210, 1058.520
855.6540, 1057.213
856.7880, 888.3418
857.9210, 831.9238
859.0540, 555.9238
860.1860, 587.8145
861.3190, 619.8340
862.4510, 582.9922
863.5840, 271.4043
864.7160, 520.7891
865.8480, 490.8789
866.9790, 505.1328
868.1110, 201.3340
869.2420, 437.6113
870.3740, 407.7578
871.5050, 314.5352
872.6360, 131.0527
873.7660, 192.7305
874.8970, 340.4629
876.0280, 394.6621
877.1580, 362.2109
878.2880, 414.3242
879.4180, 423.4297
880.5480, 435.7754
881.6770, 302.8418
882.8070, 367.8848
883.9360, 339.4160
885.0650, 306.4336
886.1940, 295.7695
887.3230, 433.8652
888.4520, 500.3574
889.5800, 534.8340
890.7090, 649.3047
891.8370, 325.2031
892.9650, 413.6992
894.0930, 631.4023
895.2200, 377.8984
896.3480, 534.7891
897.4750, 413.7266
898.6020, 494.6055
899.7290, 438.6504
900.8560, 590.2090
901.9830, 451.2812
903.1090, 492.5000
904.2360, 399.4238
905.3620, 469.8652
906.4880, 502.1270
907.6140, 533.7031
908.7400, 565.3848
909.8650, 596.5312
910.9900, 255.9180
912.1160, 434.7949
913.2410, 493.4824
914.3660, 511.1133
915.4900, 354.0898
916.6150, 439.7129
917.7390, 317.5215
918.8640, 446.4746
919.9880, 619.7285
921.1120, 435.1699
922.2350, 249.1602
923.3590, 229.7734
924.4820, 132.4766
925.6060, 404.1211
926.7290, 169.0371
927.8520, 141.3027
928.9740, 77.14062
930.0970, 197.6641
931.2190, 145.7695
932.3420, 63.86719
933.4640, 1.808594
934.5860, 140.3086
935.7080, 34.27148
936.8290, 69.70898
937.9510, 35.25977
939.0720, 15.84961
940.1930, 12.58789
941.3140, 72.16016
942.4350, 42.78711
943.5560, 166.9492
944.6760, 103.4629
945.7960, 184.8984
946.9170, 68.45898
948.0370, 84.52344
949.1560, 204.9883
950.2760, 157.7402
951.3960, 68.79297
952.5150, 250.5410
953.6340, 41.41602
954.7530, 178.3477
955.8720, 164.6230
956.9910, 16.23047
958.1090, 182.2949
959.2280, 29.35352
960.3460, 307.1895
961.4640, 330.2363
962.5820, 220.2891
963.6990, 125.3359
964.8170, 451.3789
965.9340, 447.4160
967.0510, 364.4492
968.1690, 485.4805
969.2850, 488.5039
970.4020, 360.6348
971.5190, 552.6484
972.6350, 206.7051
973.7510, 247.9473
974.8670, 444.9746
975.9830, 365.4746
977.0990, 545.6113
978.2150, 382.6250
979.3300, 508.6387
980.4450, 463.6465
981.5600, 614.8242
982.6750, 629.8281
983.7900, 624.0020
984.9050, 813.0020
986.0190, 831.9980
987.1340, 793.9863
988.2480, 1128.975
989.3620, 1057.961
990.4750, 1269.941
991.5890, 1436.947
992.7020, 1692.924
993.8160, 1550.525
994.9290, 2105.498
996.0420, 2389.467
997.1550, 2504.756
998.2670, 3280.740
999.3800, 3707.395
1000.492, 4224.375
1001.604, 5357.844
1002.716, 6386.979
1003.828, 7819.193
1004.940, 9827.594
1006.051, 12034.66
1007.163, 14831.89
1008.274, 18209.32
1009.385, 21586.37
1010.496, 24714.05
1011.606, 26825.10
1012.717, 26586.23
1013.827, 24452.26
1014.937, 20734.99
1016.047, 16952.02
1017.157, 13238.58
1018.267, 10524.84
1019.377, 8219.957
1020.486, 6859.969
1021.595, 5568.611
1022.704, 5114.607
1023.813, 4347.490
1024.922, 3999.893
1026.030, 3884.881
1027.139, 3653.432
1028.247, 3594.619
1029.355, 3321.590
1030.463, 3070.303
1031.571, 2991.703
1032.678, 2866.818
1033.786, 2643.770
1034.893, 2486.900
1036.000, 2150.842
1037.107, 1945.920
1038.214, 1686.260
1039.321, 1540.879
1040.427, 1563.416
1041.533, 1276.861
1042.639, 1051.596
1043.745, 1036.486
1044.851, 820.4375
1045.957, 884.0254
1047.062, 848.7832
1048.168, 877.5762
1049.273, 495.1172
1050.378, 642.8066
1051.482, 716.2637
1052.587, 719.2402
1053.692, 440.8086
1054.796, 525.7441
1055.900, 464.7676
1057.004, 397.7891
1058.108, 533.3926
1059.212, 296.6348
1060.315, 429.2480
1061.418, 378.6699
1062.522, 488.4102
1063.625, 384.2832
1064.728, 431.1445
1065.830, 339.8457
1066.933, 459.2695
1068.035, 229.0742
1069.137, 402.7012
1070.239, 412.7656
1071.341, 312.6895
1072.443, 398.4453
1073.545, 348.8047
1074.646, 395.7773
1075.747, 415.9316
1076.848, 487.5352
1077.949, 669.6680
1079.050, 562.7383
1080.150, 968.2207
1081.251, 1418.902
1082.351, 1853.240
1083.451, 2757.121
1084.551, 3945.402
1085.651, 5535.035
1086.750, 5742.090
1087.850, 4449.551
1088.949, 2640.625
1090.048, 1730.406
1091.147, 976.3301
1092.246, 658.9746
1093.345, 535.2598
1094.443, 547.4043
1095.541, 407.4668
1096.639, 444.2051
1097.737, 145.2832
1098.835, 240.9785
1099.933, 289.5352
1101.030, 292.7305
1102.128, 117.0801
1103.225, 172.3965
1104.322, 135.1836
1105.419, 99.54492
1106.515, 187.4062
1107.612, 37.52344
1108.708, 123.7188
1109.804, 299.6367
1110.900, 380.1855
1111.996, 317.7207
1113.092, 114.4648
1114.187, 208.0547
1115.283, 116.9785
1116.378, 158.9004
1117.473, 436.3574
1118.568, 247.8008
1119.662, 177.9902
1120.757, 180.8438
1121.851, 301.3613
1122.946, 155.7402
1124.040, 322.1055
1125.134, 13.50195
1126.227, 339.8926
1127.321, 318.2871
1128.414, 93.33594
1129.508, 253.6309
1130.601, 8.126953
1131.693, 327.3848
1132.786, 53.12891
1133.879, 36.01758
1134.971, 84.84570
1136.064, 69.65234
1137.156, 152.7363
1138.248, 92.85742
1139.339, 80.90430
1140.431, 260.2129
1141.522, 20.23242
1142.614, 330.2285
1143.705, 152.2051
1144.796, 177.1719
1145.887, 9.119141
1146.977, 178.0430
1148.068, 47.94922
1149.158, 33.16406
1150.248, 154.0684
1151.338, 306.9062
1152.428, 27.72852
1153.518, 292.5234
1154.607, 73.64844
1155.696, 113.5586
1156.785, 259.6211
1157.874, 67.69141
1158.963, 133.9570
1160.052, 212.4785
1161.141, 12.98828
1162.229, 79.46875
1163.317, 147.0684
1164.405, 262.9785
1165.493, 139.5898
1166.581, 238.7305
1167.668, 42.96289
1168.756, 88.28320
1169.843, 21.50586
1170.930, 37.70508
1172.017, 58.88086
1173.103, 13.03125
1174.190, 216.1523
1175.276, 24.44922
1176.363, 22.60547
1177.449, 12.63477
1178.535, 85.18750
1179.620, 44.73438
1180.706, 80.63086
1181.791, 37.50195
1182.877, 60.34766
1183.962, 74.16992
1185.047, 54.96680
1186.131, 129.7383
1187.216, 133.4863
1188.300, 170.2129
1189.385, 6.917969
1190.469, 113.9316
1191.553, 192.5820
1192.637, 291.2930
1193.720, 314.8984
1194.804, 348.4844
1195.887, 239.0527
1196.970, 209.5996
1198.053, 109.1250
1199.136, 271.6602
1200.219, 25.17383
1201.301, 23.33008
1202.383, 168.1211
1203.465, 279.5469
1204.547, 176.9551
1205.629, 109.3418
1206.711, 32.80859
1207.792, 142.1406
1208.874, 157.4531
1209.955, 54.74023
1211.036, 22.00000
1212.117, 90.23242
1213.198, 425.4395
1214.278, 98.62500
1215.359, 24.78711
1216.439, 89.91992
1217.519, 171.9707
1218.599, 139.0508
1219.678, 158.0059
1220.758, 168.9434
1221.837, 277.8555
1222.917, 76.74805
1223.996, 8.388672
1225.075, 123.7109
1226.153, 222.5078
1227.232, 90.28711
1228.310, 128.0391
1229.389, 71.76758
1230.467, 243.4707
1231.545, 153.1504
1232.622, 429.6953
1233.700, 165.3320
1234.777, 58.09375
1235.855, 183.2383
1236.932, 246.7598
1238.009, 83.78125
1239.086, 194.1348
1240.162, 411.6992
1241.239, 459.1270
1242.315, 11.53711
1243.391, 175.7402
1244.467, 7.158203
1245.543, 89.30664
1246.619, 326.7363
1247.694, 430.5957
1248.769, 27.91211
1249.844, 91.13086
1250.919, 167.4141
1251.994, 688.6035
1253.069, 453.7441
1254.144, 184.8906
1255.218, 180.3965
1256.292, 175.5039
1257.366, 33.77734
1258.440, 332.5352
1259.514, 13.57227
1260.587, 201.9102
1261.661, 76.89453
1262.734, 46.36914
1263.807, 246.1484
1264.880, 96.23633
1265.952, 376.7383
1267.025, 176.5273
1268.097, 345.0410
1269.170, 126.2676
1270.242, 335.0703
1271.314, 308.2070
1272.385, 296.9688
1273.457, 271.7871
1274.528, 249.5293
1275.600, 263.7461
1276.671, 401.9434
1277.742, 201.0605
1278.812, 100.9453
1279.883, 365.4688
1280.954, 228.0664
1282.024, 221.0039
1283.094, 177.5625
1284.164, 93.20703
1285.234, 44.18164
1286.303, 161.1484
1287.373, 150.0508
1288.442, 273.2949
1289.511, 410.2793
1290.580, 303.3242
1291.649, 140.2773
1292.718, 60.49414
1293.786, 208.1191
1294.855, 340.2695
1295.923, 571.5879
1296.991, 168.7422
1298.059, 301.6094
1299.126, 266.1719
1300.194, 383.7910
1301.261, 167.4766
1302.328, 222.8516
1303.395, 89.04883
1304.462, 240.1621
1305.529, 490.6133
1306.596, 113.8691
1307.662, 218.0859
1308.728, 255.5840
1309.794, 265.2168
1310.860, 163.6543
1311.926, 281.1699
1312.991, 190.7266
1314.057, 287.1875
1315.122, 397.9434
1316.187, 226.7012
1317.252, 229.5977
1318.317, 64.33789
1319.381, 235.9629
1320.446, 125.9180
1321.510, 248.8613
1322.574, 232.7891
1323.638, 257.7051
1324.702, 499.6074
1325.766, 198.4902
1326.829, 521.9941
1327.892, 434.8438
1328.956, 298.9395
1330.019, 542.5703
1331.081, 245.2637
1332.144, 334.0625
1333.206, 318.7656
1334.269, 114.1738
1335.331, 223.2422
1336.393, 194.7598
1337.455, 342.3320
1338.516, 366.4609
1339.578, 562.8730
1340.639, 290.1230
1341.701, 281.8203
1342.762, 244.0801
1343.822, 234.9727
1344.883, 281.1738
1345.944, 115.1914
1347.004, 447.5762
1348.064, 135.0332
1349.124, 452.5488
1350.184, 276.1504
1351.244, 213.2305
1352.304, 54.68359
1353.363, 278.9414
1354.422, 206.8828
1355.481, 343.3262
1356.540, 229.5508
1357.599, 163.5312
1358.657, 195.0332
1359.716, 137.4395
1360.774, 213.1172
1361.832, 226.4375
1362.890, 219.3711
1363.948, 237.7441
1365.006, 113.1641
1366.063, 372.1016
1367.120, 84.46289
1368.178, 212.8320
1369.234, 118.5234
1370.291, 341.6270
1371.348, 93.86328
1372.404, 296.7344
1373.461, 74.58594
1374.517, 6.136719
1375.573, 91.13086
1376.629, 212.6270
1377.684, 85.43945
1378.740, 221.2480
1379.795, 140.4863
1380.850, 302.7168
1381.905, 184.4883
1382.960, 114.6445
1384.015, 70.22461
1385.070, 312.2285
1386.124, 177.6836
1387.178, 185.6465
1388.232, 278.8203
1389.286, 187.5664
1390.340, 136.0996
1391.393, 7.712891
1392.447, 97.51367
1393.500, 119.7031
1394.553, 271.8340
1395.606, 49.12695
1396.659, 145.6426
1397.711, 253.8242
1398.764, 279.8867
1399.816, 22.31445
1400.868, 99.31445
1401.920, 51.33984
1402.972, 3.861328
1404.023, 177.3633
1405.075, 77.12500
1406.126, 99.95703
1407.177, 104.9707
1408.228, 188.9082
1409.279, 101.9375
1410.330, 137.2754
1411.380, 16.00195
1412.431, 45.42383
1413.481, 280.6250
1414.531, 217.6719
1415.580, 6.179688
1416.630, 11.02539
1417.680, 125.0781
1418.729, 167.9902
