##NAMES=Hedenbergite
##RRUFFID=R050030
##IDEAL CHEMISTRY=CaFe^2+^Si_2_O_6_
##LOCALITY=Heroult, Ontario, Canada
##OWNER=RRUFF
##SOURCE=University of Arizona Mineral Museum
##DESCRIPTION=Green fragments
##STATUS=The identification of this mineral has been confirmed by X-ray diffraction and chemical analysis
##URL=rruff.info/R050030
##MEASURED CHEMISTRY=(Ca_.993_Na_.007_)(Fe_.860_Mn_.111_Mg_.029_)(Si_.993_Al_.007_)_2_O_6_
##PIN_ID=M00111
##ORIENTATION=Laser parallel to a* (1 0 0). Fiducial mark perpendicular to laser is parallel to b [0 1 0]
96.976, 0.000
98.370, 72.780
99.764, 94.943
101.157, 196.221
102.550, 248.105
103.943, 325.119
105.336, 235.206
106.729, 153.933
108.121, 102.291
109.513, 115.521
110.905, 141.499
112.297, 213.455
113.688, 356.313
115.079, 449.517
116.470, 671.302
117.861, 861.057
119.251, 1054.929
120.642, 1171.908
122.032, 1036.989
123.422, 906.168
124.811, 794.660
126.201, 488.721
127.590, 358.989
128.979, 220.566
130.367, 119.176
131.756, 1.174
133.144, 46.517
134.532, 5.253
135.920, 18.940
137.307, 91.933
138.695, 135.850
140.082, 206.808
141.469, 303.808
142.856, 305.849
144.242, 279.934
145.628, 181.060
147.014, 114.234
148.400, 49.459
149.786, 55.737
151.171, 4.901
152.556, 15.329
153.941, 29.307
155.325, 29.028
156.710, 60.629
158.094, 60.603
159.478, 69.434
160.862, 38.530
162.245, 102.684
163.629, 42.892
165.012, 176.152
166.395, 231.462
167.777, 236.817
169.160, 246.216
170.542, 569.656
171.924, 828.134
173.306, 1094.649
174.687, 1333.389
176.068, 1470.956
177.449, 1450.560
178.830, 1363.201
180.211, 1264.872
181.591, 1146.547
182.972, 1142.264
184.351, 1343.003
185.731, 1382.769
187.111, 1322.565
188.490, 1311.393
189.869, 1102.260
191.248, 958.163
192.626, 674.092
194.005, 488.057
195.383, 301.118
196.761, 208.274
198.139, 120.469
199.516, 104.705
200.893, 35.993
202.271, 11.298
203.647, 47.354
205.024, 26.016
206.400, 12.400
207.777, 46.793
209.152, 27.816
210.528, 33.566
211.904, 20.059
213.279, 12.326
214.654, 30.723
216.029, 81.870
217.403, 5.548
218.778, 43.023
220.152, 87.417
221.526, 138.866
222.900, 151.326
224.273, 286.795
225.646, 298.275
227.019, 468.765
228.392, 496.264
229.765, 538.772
231.137, 542.191
232.509, 496.815
233.881, 429.329
235.253, 373.852
236.625, 311.605
237.996, 252.234
239.367, 187.405
240.738, 149.896
242.108, 100.390
243.479, 80.892
244.849, 79.402
246.219, 67.920
247.589, 72.447
248.958, 61.982
250.328, 98.535
251.697, 17.892
253.065, 70.692
254.434, 42.293
255.803, 26.923
257.171, 91.598
258.539, 72.350
259.906, 48.121
261.274, 88.946
262.641, 91.667
264.008, 84.688
265.375, 145.889
266.742, 181.390
268.108, 214.819
269.475, 205.326
270.840, 157.891
272.206, 325.500
273.572, 261.147
274.937, 294.827
276.302, 480.959
277.667, 421.696
279.032, 503.448
280.396, 630.213
281.760, 587.256
283.125, 672.031
284.488, 881.820
285.852, 863.622
287.215, 960.438
288.578, 1042.267
289.941, 1258.463
291.304, 1461.864
292.666, 1635.855
294.029, 1967.558
295.391, 2309.558
296.753, 2695.313
298.114, 3030.143
299.476, 3304.947
300.837, 3521.093
302.198, 3607.602
303.558, 3504.747
304.919, 3187.584
306.279, 2840.471
307.639, 2471.977
308.999, 2095.484
310.359, 1675.551
311.718, 1392.458
313.077, 1216.349
314.436, 1061.233
315.795, 851.941
317.154, 893.811
318.512, 741.545
319.870, 767.403
321.228, 791.222
322.586, 856.998
323.943, 831.809
325.300, 957.627
326.657, 991.451
328.014, 1098.282
329.371, 1242.119
330.727, 1538.961
332.083, 1686.810
333.439, 1948.662
334.795, 2084.520
336.150, 2068.383
337.506, 2011.251
338.861, 1953.117
340.215, 1689.988
341.570, 1591.863
342.924, 1416.741
344.279, 1438.624
345.633, 1337.511
346.986, 1271.401
348.340, 1337.295
349.693, 1372.193
351.046, 1504.093
352.399, 1546.997
353.752, 1911.903
355.104, 2059.812
356.457, 2430.724
357.809, 2757.639
359.160, 3329.555
360.512, 3877.472
361.863, 4672.390
363.214, 5813.310
364.565, 7024.230
365.916, 8945.151
367.267, 10514.079
368.617, 11994.997
369.967, 13325.921
371.317, 13436.842
372.666, 13166.693
374.016, 11847.756
375.365, 10167.938
376.714, 8428.859
378.063, 6879.790
379.411, 5496.949
380.760, 4327.871
382.108, 3403.047
383.456, 2780.103
384.803, 2242.022
386.151, 1825.942
387.498, 1503.862
388.845, 1368.780
390.192, 1078.698
391.539, 928.615
392.885, 750.530
394.231, 751.445
395.577, 612.358
396.923, 438.271
398.269, 498.234
399.614, 302.144
400.959, 334.041
402.304, 281.989
403.649, 232.687
404.993, 239.687
406.337, 183.589
407.681, 153.481
409.025, 248.379
410.369, 104.639
411.712, 176.126
413.055, 165.652
414.398, 25.711
415.741, 131.409
417.084, 88.989
418.426, 46.872
419.768, 95.751
421.110, 70.629
422.452, 91.552
423.793, 41.586
425.134, 82.560
426.475, 73.840
427.816, 11.822
429.157, 85.201
430.497, 38.318
431.837, 94.596
433.177, 86.488
434.517, 118.843
435.857, 40.769
437.196, 2.812
438.535, 150.663
439.874, 41.498
441.213, 54.606
442.551, 10.455
443.889, 61.611
445.227, 80.390
446.565, 85.164
447.903, 100.932
449.240, 59.711
450.577, 10.475
451.914, 29.738
453.251, 39.978
454.588, 19.084
455.924, 39.434
457.260, 60.182
458.596, 40.962
459.932, 92.566
461.267, 49.837
462.602, 1.723
463.938, 13.269
465.272, 71.808
466.607, 43.340
467.941, 13.134
469.276, 3.370
470.610, 20.862
471.943, 47.344
473.277, 53.842
474.610, 71.211
475.944, 84.817
477.276, 100.308
478.609, 90.798
479.942, 115.287
481.274, 167.769
482.606, 176.254
483.938, 172.724
485.270, 227.210
486.601, 237.697
487.932, 250.177
489.263, 312.650
490.594, 287.117
491.925, 295.578
493.255, 243.054
494.585, 238.532
495.915, 195.002
497.245, 119.484
498.575, 292.958
499.904, 215.430
501.233, 186.894
502.562, 341.349
503.891, 219.797
505.219, 392.242
506.548, 437.704
507.876, 456.157
509.203, 605.606
510.531, 764.048
511.859, 943.481
513.186, 1106.707
514.513, 1231.321
515.840, 1423.728
517.166, 1536.131
518.493, 1620.526
519.819, 1538.911
521.145, 1439.288
522.470, 1217.655
523.796, 903.017
525.121, 762.387
526.446, 681.746
527.771, 401.105
529.096, 327.458
530.421, 194.802
531.745, 236.136
533.069, 54.465
534.393, 161.784
535.716, 119.096
537.040, 87.398
538.363, 136.691
539.686, 152.990
541.009, 92.279
542.331, 59.566
543.654, 103.736
544.976, 177.108
546.298, 198.364
547.620, 201.609
548.941, 267.845
550.263, 306.071
551.584, 232.286
552.905, 266.491
554.225, 177.685
555.546, 164.870
556.866, 86.043
558.186, 180.206
559.506, 6.642
560.826, 90.483
562.145, 19.597
563.465, 78.694
564.784, 133.779
566.103, 13.853
567.421, 107.908
568.740, 41.952
570.058, 46.835
571.376, 28.145
572.694, 32.821
574.011, 49.897
575.329, 32.026
576.646, 116.852
577.963, 109.671
579.279, 68.521
580.596, 94.225
581.912, 10.958
583.228, 12.670
584.544, 41.362
585.860, 11.960
587.175, 10.516
588.491, 8.138
589.806, 39.737
591.121, 95.322
592.435, 34.895
593.750, 85.452
595.064, 8.003
596.378, 100.095
597.692, 102.598
599.006, 49.089
600.319, 75.566
601.632, 49.744
602.945, 155.194
604.258, 138.634
605.571, 154.062
606.883, 103.479
608.195, 93.885
609.507, 160.916
610.819, 143.715
612.131, 44.850
613.442, 114.271
614.753, 243.396
616.064, 56.733
617.375, 260.025
618.685, 148.340
619.995, 254.729
621.306, 235.336
622.615, 328.754
623.925, 264.029
625.235, 324.251
626.544, 384.130
627.853, 319.726
629.162, 315.759
630.471, 541.284
631.779, 420.556
633.087, 607.759
634.395, 613.707
635.703, 699.681
637.011, 790.869
638.318, 987.030
639.625, 1053.181
640.932, 1303.348
642.239, 1354.166
643.546, 1836.201
644.852, 2237.308
646.158, 2796.500
647.464, 3366.111
648.770, 4515.186
650.076, 5729.715
651.381, 7170.764
652.686, 8939.805
653.991, 9973.373
655.296, 11072.395
656.600, 10452.647
657.905, 9821.645
659.209, 8510.630
660.513, 6939.604
661.817, 5699.830
663.120, 4584.423
664.423, 3743.425
665.726, 3023.477
667.029, 2402.391
668.332, 2081.300
669.635, 1790.190
670.937, 1569.071
672.239, 1313.939
673.541, 1132.944
674.842, 1084.790
676.144, 830.622
677.445, 863.442
678.746, 775.252
680.047, 617.914
681.348, 698.336
682.648, 592.110
683.948, 439.874
685.248, 543.183
686.548, 342.922
687.848, 543.648
689.147, 454.363
690.447, 513.930
691.746, 438.621
693.044, 517.302
694.343, 429.963
695.641, 487.620
696.940, 383.267
698.238, 373.899
699.535, 450.387
700.833, 333.998
702.130, 342.598
703.427, 221.187
704.724, 313.764
706.021, 227.329
707.318, 431.885
708.614, 270.428
709.910, 251.961
711.206, 309.483
712.502, 245.994
713.798, 236.441
715.093, 248.931
716.388, 209.422
717.683, 196.124
718.978, 171.789
720.272, 209.142
721.567, 136.578
722.861, 245.014
724.155, 295.432
725.448, 62.535
726.742, 188.451
728.035, 84.204
729.328, 145.851
730.621, 155.407
731.914, 77.071
733.206, 88.861
734.499, 173.200
735.791, 236.529
737.083, 245.875
738.374, 163.947
739.666, 251.279
740.957, 203.164
742.248, 134.981
743.539, 266.099
744.830, 211.111
746.120, 137.953
747.410, 232.169
748.701, 151.909
749.990, 257.067
751.280, 104.097
752.570, 262.306
753.859, 94.518
755.148, 148.444
756.437, 206.528
757.725, 131.556
759.014, 204.684
760.302, 131.892
761.590, 149.094
762.878, 219.271
764.166, 138.405
765.453, 164.596
766.740, 213.791
768.027, 81.724
769.314, 225.931
770.601, 69.146
771.887, 87.187
773.174, 184.390
774.460, 116.589
775.745, 144.799
777.031, 6.008
778.316, 132.208
779.602, 129.403
780.887, 9.594
782.172, 139.783
783.456, 92.971
784.741, 73.845
786.025, 35.288
787.309, 136.416
788.593, 33.461
789.876, 18.367
791.160, 45.706
792.443, 112.773
793.726, 64.838
795.009, 40.897
796.291, 34.049
797.574, 22.023
798.856, 104.982
800.138, 21.983
801.420, 0.021
802.702, 96.966
803.983, 80.053
805.264, 25.121
806.545, 66.789
807.826, 66.306
809.107, 106.557
810.387, 14.584
811.667, 102.261
812.947, 155.101
814.227, 76.937
815.507, 16.229
816.786, 86.410
818.065, 18.357
819.344, 14.880
820.623, 54.872
821.902, 29.619
823.180, 84.363
824.459, 134.104
825.737, 114.210
827.014, 17.418
828.292, 120.307
829.569, 35.027
830.847, 63.748
832.124, 44.465
833.401, 13.817
834.677, 60.111
835.954, 25.561
837.230, 103.231
838.506, 9.100
839.782, 34.562
841.057, 152.223
842.333, 70.883
843.608, 249.544
844.883, 197.203
846.158, 254.864
847.433, 572.525
848.707, 330.187
849.981, 347.848
851.255, 305.508
852.529, 143.167
853.803, 360.827
855.076, 158.502
856.350, 236.180
857.623, 163.876
858.895, 131.574
860.168, 119.274
861.441, 106.974
862.713, 83.105
863.985, 58.211
865.257, 40.095
866.528, 37.812
867.800, 5.532
869.071, 83.252
870.342, 9.017
871.613, 98.716
872.884, 26.452
874.154, 74.190
875.425, 61.942
876.695, 9.700
877.965, 2.540
879.234, 4.958
880.504, 122.826
881.773, 120.547
883.042, 18.356
884.311, 166.189
885.580, 16.007
886.848, 141.844
888.117, 119.700
889.385, 7.583
890.653, 5.471
891.920, 6.634
893.188, 71.270
894.455, 139.179
895.722, 127.104
896.989, 185.039
898.256, 102.983
899.523, 180.936
900.789, 228.891
902.055, 46.852
903.321, 384.817
904.587, 192.796
905.852, 160.778
907.118, 198.765
908.383, 356.758
909.648, 174.754
910.913, 272.756
912.177, 160.761
913.442, 158.770
914.706, 116.784
915.970, 274.805
917.233, 212.828
918.497, 70.857
919.760, 268.894
921.024, 26.934
922.287, 214.979
923.550, 293.029
924.812, 211.084
926.075, 59.154
927.337, 167.229
928.599, 125.309
929.861, 282.943
931.122, 51.033
932.384, 139.126
933.645, 216.944
934.906, 5.047
936.167, 263.153
937.428, 125.927
938.688, 163.973
939.948, 372.095
941.208, 107.465
942.468, 253.805
943.728, 121.926
944.987, 270.066
946.247, 208.214
947.506, 216.338
948.765, 301.807
950.023, 228.055
951.282, 216.224
952.540, 304.305
953.798, 251.959
955.056, 400.145
956.314, 182.874
957.572, 349.078
958.829, 357.282
960.086, 180.957
961.343, 179.175
962.600, 416.151
963.856, 404.382
965.113, 362.621
966.369, 440.866
967.625, 397.854
968.881, 410.474
970.136, 438.677
971.392, 435.827
972.647, 454.107
973.902, 612.392
975.157, 610.688
976.411, 678.991
977.666, 797.305
978.920, 664.474
980.174, 932.804
981.428, 701.141
982.682, 1049.596
983.935, 1027.950
985.188, 1105.448
986.441, 1190.191
987.694, 1348.578
988.947, 1456.975
990.199, 1664.823
991.452, 1993.239
992.704, 2132.046
993.956, 2490.531
995.207, 2938.975
996.459, 3528.110
997.710, 4296.586
998.961, 5255.191
1000.212, 6543.685
1001.463, 8472.322
1002.714, 11090.834
1003.964, 15589.361
1005.214, 21561.553
1006.464, 29160.107
1007.714, 37103.398
1008.964, 40972.355
1010.213, 39851.195
1011.462, 34229.938
1012.711, 26718.979
1013.960, 20467.732
1015.209, 15308.596
1016.457, 11847.626
1017.705, 9456.588
1018.954, 7775.381
1020.201, 7004.207
1021.449, 5963.049
1022.697, 5621.887
1023.944, 5350.745
1025.191, 4831.934
1026.438, 4513.163
1027.685, 4269.837
1028.931, 3708.660
1030.177, 3277.455
1031.423, 2836.635
1032.669, 2475.623
1033.915, 2194.551
1035.161, 1743.905
1036.406, 1862.402
1037.651, 1471.580
1038.896, 1370.533
1040.141, 1379.700
1041.386, 1028.665
1042.630, 1307.522
1043.874, 1056.945
1045.118, 996.216
1046.362, 1075.581
1047.606, 1064.965
1048.849, 814.155
1050.092, 813.193
1051.336, 772.289
1052.578, 901.292
1053.821, 700.334
1055.064, 649.349
1056.306, 778.364
1057.548, 537.661
1058.790, 706.686
1060.032, 515.713
1061.273, 494.743
1062.515, 513.775
1063.756, 343.381
1064.997, 432.600
1066.237, 591.640
1067.478, 481.054
1068.718, 510.524
1069.959, 469.575
1071.199, 318.993
1072.438, 377.951
1073.678, 407.111
1074.918, 338.978
1076.157, 368.059
1077.396, 227.144
1078.635, 326.661
1079.873, 385.753
1081.112, 335.021
1082.350, 514.137
1083.588, 343.251
1084.826, 252.415
1086.064, 351.555
1087.301, 170.720
1088.539, 490.033
1089.776, 209.200
1091.013, 138.385
1092.250, 377.578
1093.486, 256.771
1094.723, 196.009
1095.959, 215.203
1097.195, 274.396
1098.431, 193.732
1099.666, 202.950
1100.902, 142.167
1102.137, 431.384
1103.372, 80.603
1104.607, 230.060
1105.842, 259.303
1107.076, 8.554
1108.311, 327.834
1109.545, 67.103
1110.779, 106.472
1112.012, 195.745
1113.246, 115.313
1114.479, 254.585
1115.712, 73.854
1116.945, 203.301
1118.178, 242.660
1119.411, 141.956
1120.643, 301.256
1121.875, 10.576
1123.108, 259.872
1124.339, 119.510
1125.571, 218.954
1126.802, 38.246
1128.034, 88.420
1129.265, 87.709
1130.496, 3.006
1131.727, 66.846
1132.957, 25.705
1134.187, 97.718
1135.418, 37.166
1136.648, 46.465
1137.877, 97.018
1139.107, 86.311
1140.336, 13.900
1141.566, 17.292
1142.795, 145.363
1144.023, 23.247
1145.252, 37.556
1146.480, 7.054
1147.709, 166.686
1148.937, 5.916
1150.165, 105.762
1151.392, 127.751
1152.620, 81.738
1153.847, 207.891
1155.074, 94.535
1156.301, 5.405
1157.528, 8.368
1158.755, 39.472
1159.981, 0.006
1161.207, 110.982
1162.433, 39.664
1163.659, 31.706
1164.885, 51.308
1166.110, 160.325
1167.336, 168.487
1168.561, 34.709
1169.786, 143.795
1171.010, 103.529
1172.235, 37.497
1173.459, 233.255
1174.683, 72.887
1175.907, 151.902
1177.131, 164.957
1178.355, 53.825
1179.578, 102.733
1180.801, 152.624
1182.024, 21.711
1183.247, 210.929
1184.470, 70.443
1185.692, 199.380
1186.915, 78.573
1188.137, 197.646
1189.359, 126.372
1190.580, 25.539
1191.802, 64.232
1193.023, 43.695
1194.244, 42.042
1195.465, 90.676
1196.686, 129.292
1197.907, 117.891
1199.127, 236.471
1200.347, 135.753
1201.567, 224.661
1202.787, 263.188
1204.007, 82.105
1205.226, 220.593
1206.446, 249.063
1207.665, 177.515
1208.884, 295.949
1210.102, 24.465
1211.321, 113.109
1212.539, 361.479
1213.758, 70.396
1214.976, 59.007
1216.193, 307.312
1217.411, 76.595
1218.628, 304.857
1219.846, 263.109
1221.063, 24.233
1222.280, 363.952
1223.496, 202.570
1224.713, 71.191
1225.929, 249.481
1227.145, 141.535
1228.361, 179.732
1229.577, 207.968
1230.793, 181.766
1232.008, 399.856
1233.223, 338.469
1234.438, 156.442
1235.653, 344.403
1236.868, 253.894
1238.082, 221.831
1239.297, 249.756
1240.511, 187.976
1241.725, 225.876
1242.938, 253.763
1244.152, 172.662
1245.365, 400.521
1246.578, 228.367
1247.791, 336.200
1249.004, 284.017
1250.217, 152.422
1251.429, 380.212
1252.642, 297.984
1253.854, 205.738
1255.066, 443.478
1256.277, 191.200
1257.489, 279.440
1258.700, 147.113
1259.911, 274.765
1261.122, 292.399
1262.333, 180.331
1263.544, 208.268
1264.754, 255.875
1265.964, 263.393
1267.174, 221.516
1268.384, 288.941
1269.594, 146.309
1270.803, 195.191
1272.013, 342.378
1273.222, 59.508
1274.431, 236.703
1275.640, 383.781
1276.848, 104.025
1278.057, 321.018
1279.265, 7.987
1280.473, 206.176
1281.681, 303.179
1282.888, 40.350
1284.096, 297.831
1285.303, 124.651
1286.510, 91.061
1287.717, 357.778
1288.924, 14.521
1290.131, 30.631
1291.337, 187.579
1292.543, 154.103
1293.749, 250.726
1294.955, 107.183
1296.161, 3.750
1297.366, 50.249
1298.571, 148.372
1299.777, 85.197
1300.981, 286.467
1302.186, 27.535
1303.391, 18.821
1304.595, 135.108
1305.799, 142.168
1307.003, 187.006
1308.207, 10.886
1309.411, 116.572
1310.614, 392.311
1311.818, 51.818
1313.021, 213.998
1314.224, 229.494
1315.426, 95.242
1316.629, 250.948
1317.831, 24.290
1319.033, 99.928
1320.235, 225.369
1321.437, 19.069
1322.639, 406.436
1323.840, 241.639
1325.042, 66.992
1326.243, 192.382
1327.444, 157.277
1328.644, 102.563
1329.845, 217.570
1331.045, 152.765
1332.245, 177.718
1333.445, 292.845
1334.645, 147.916
1335.845, 262.524
1337.044, 257.256
1338.244, 141.779
1339.443, 296.376
1340.642, 301.006
1341.840, 265.759
1343.039, 330.415
1344.237, 105.134
1345.435, 169.781
1346.633, 334.423
1347.831, 159.029
1349.029, 414.264
1350.226, 368.195
1351.424, 652.351
1352.621, 386.873
1353.818, 231.299
1355.014, 195.119
1356.211, 329.341
1357.407, 123.660
1358.604, 187.574
1359.800, 401.404
1360.995, 75.628
1362.191, 369.460
1363.387, 285.803
1364.582, 20.056
1365.777, 311.253
1366.972, 145.324
1368.167, 139.376
1369.361, 212.979
1370.556, 13.203
1371.750, 180.385
1372.944, 264.383
1374.138, 42.028
1375.331, 231.331
1376.525, 114.553
1377.718, 330.750
1378.911, 517.060
1380.104, 43.331
1381.297, 419.524
1382.490, 405.595
1383.682, 181.761
1384.874, 307.896
1386.066, 263.738
1387.258, 79.769
1388.450, 465.687
1389.641, 461.350
1390.833, 267.305
1392.024, 442.959
1393.215, 128.836
1394.406, 384.651
1395.596, 389.882
1396.787, 284.611
1397.977, 880.328
1399.167, 355.318
1400.357, 138.000
1401.547, 432.018
1402.736, 276.896
1403.925, 301.474
1405.115, 182.298
1406.304, 176.832
1407.492, 251.349
1408.681, 291.355
1409.870, 114.993
1411.058, 243.918
1412.246, 220.961
1413.434, 19.279
1414.622, 399.881
1415.809, 235.774
1416.997, 189.743
1418.184, 372.944
1419.371, 16.417
1420.558, 311.578
1421.744, 295.602
1422.931, 27.719
1424.117, 180.032
1425.303, 133.095
1426.489, 76.511
1427.675, 529.688
1428.861, 282.779
1430.046, 266.602
1431.231, 380.395
1432.416, 182.378
1433.601, 135.410
1434.786, 209.091
1435.970, 292.743
1437.155, 475.755
1438.339, 238.355
1439.523, 48.580
1440.707, 433.147
1441.890, 198.411
1443.074, 220.917
1444.257, 493.006
1445.440, 108.020
1446.623, 269.759
1447.806, 341.251
1448.989, 94.050
1450.171, 453.522
1451.353, 215.363
1452.535, 167.706
1453.717, 457.662
1454.899, 309.687
1456.080, 260.195
1457.262, 451.890
1458.443, 233.445
1459.624, 353.553
1460.805, 304.849
1461.985, 165.197
1463.166, 325.209
1464.346, 464.556
1465.526, 195.728
1466.706, 503.006
1467.886, 404.609
1469.065, 226.887
1470.245, 468.539
1471.424, 246.021
1472.603, 224.535
1473.782, 605.764
1474.960, 136.852
1476.139, 386.635
1477.317, 427.434
1478.495, 168.088
1479.673, 349.305
1480.851, 79.332
1482.029, 258.062
1483.206, 418.355
1484.383, 357.150
1485.560, 147.168
1486.737, 297.123
1487.914, 246.975
1489.091, 336.699
1490.267, 256.328
1491.443, 205.914
1492.619, 265.473
1493.795, 75.158
1494.971, 144.980
1496.146, 394.881
1497.322, 74.654
1498.497, 204.314
1499.672, 314.166
1500.846, 185.061
1502.021, 326.131
1503.196, 237.340
1504.370, 21.242
1505.544, 410.463
1506.718, 121.734
1507.892, 93.477
1509.065, 336.375
1510.238, 139.797
1511.412, 126.506
1512.585, 160.779
1513.758, 0.195
1514.930, 167.217
1516.103, 31.240
1517.275, 0.000
##END=



