##NAMES=Hedenbergite
##RRUFFID=R060040
##IDEAL CHEMISTRY=CaFe^2+^Si_2_O_6_
##LOCALITY=Rio Marina, Elba, Italy
##OWNER=RRUFF
##SOURCE=University of Arizona Mineral Museum
##DESCRIPTION=Radial aggregate of green thin bladed crystals
##STATUS=The identification of this mineral has been confirmed by X-ray diffraction and chemical analysis
##URL=rruff.info/R060040
##MEASURED CHEMISTRY=Ca_1.00_(Fe^2+^_0.89_Mg_0.09_Mn_0.02_)_Î£=1_Si_2.00_O_6_
##PIN_ID=M01289
##ORIENTATION=Laser parallel to a* (1 0 0). Fiducial mark perpendicular to laser is parallel to b [0 1 0]
262.4900, 0.0000000E+00
263.7050, 166.5957
264.9210, 4.494141
266.1360, 99.73926
267.3520, 108.7939
268.5670, 128.9189
269.7820, 80.95215
270.9960, 192.0811
272.2110, 180.7031
273.4250, 76.38770
274.6400, 161.8213
275.8540, 232.7510
277.0680, 6.967773
278.2810, 196.2920
279.4950, 215.5625
280.7090, 79.65820
281.9220, 343.4873
283.1350, 326.0029
284.3480, 260.1641
285.5610, 370.9365
286.7730, 465.2471
287.9860, 632.0156
289.1980, 494.2109
290.4100, 421.8008
291.6220, 671.7197
292.8340, 698.9160
294.0460, 722.3418
295.2570, 967.9590
296.4690, 1133.739
297.6800, 1432.742
298.8910, 1528.935
300.1020, 1844.293
301.3120, 2064.953
302.5230, 2549.940
303.7330, 2828.259
304.9440, 3331.881
306.1540, 3604.661
307.3630, 3953.992
308.5730, 3942.246
309.7830, 3998.587
310.9920, 3723.900
312.2010, 3369.136
313.4100, 2989.353
314.6190, 2748.982
315.8280, 2444.749
317.0370, 2181.572
318.2450, 1938.284
319.4530, 1705.900
320.6610, 1584.406
321.8690, 1407.809
323.0770, 1566.113
324.2850, 1420.328
325.4920, 1333.455
326.6990, 1435.498
327.9060, 1182.464
329.1130, 1247.353
330.3200, 1178.169
331.5270, 1339.918
332.7330, 1320.893
333.9390, 1335.439
335.1450, 1239.931
336.3510, 1353.135
337.5570, 1342.264
338.7630, 1241.365
339.9680, 1279.865
341.1740, 1414.045
342.3790, 1108.462
343.5840, 1002.872
344.7890, 1052.208
345.9930, 964.2012
347.1980, 910.9199
348.4020, 1004.085
349.6060, 686.6357
350.8100, 576.6494
352.0140, 754.0508
353.2180, 814.8652
354.4210, 720.0186
355.6250, 697.6211
356.8280, 748.1475
358.0310, 697.9336
359.2340, 780.7012
360.4360, 1088.357
361.6390, 942.0293
362.8410, 983.9121
364.0430, 1078.352
365.2450, 1442.274
366.4470, 1525.458
367.6490, 1819.896
368.8510, 1938.254
370.0520, 2213.057
371.2530, 2449.291
372.4540, 2942.405
373.6550, 3093.066
374.8560, 3463.511
376.0560, 3555.512
377.2570, 3511.508
378.4570, 3065.503
379.6570, 2878.490
380.8570, 2535.473
382.0570, 2328.446
383.2560, 1949.413
384.4560, 1537.372
385.6550, 1240.323
386.8540, 978.2656
388.0530, 796.1982
389.2520, 804.1201
390.4510, 648.0322
391.6490, 526.9316
392.8470, 443.8242
394.0450, 414.7051
395.2430, 399.5771
396.4410, 224.4395
397.6390, 353.2920
398.8360, 286.1348
400.0340, 136.9707
401.2310, 19.20215
402.4280, 14.38770
403.6250, 140.4180
404.8210, 113.1982
406.0180, 66.96387
407.2140, 138.3984
408.4100, 14.06348
409.6060, 165.5713
410.8020, 140.5059
411.9980, 3.414063
413.1930, 30.21777
414.3890, 7.929688
415.5840, 98.43848
416.7790, 27.11914
417.9740, 99.37695
419.1680, 54.92871
420.3630, 66.47461
421.5570, 63.85547
422.7510, 5.220703
423.9450, 9.557617
425.1390, 55.12598
426.3330, 14.16895
427.5270, 46.89355
428.7200, 96.29883
429.9130, 108.4258
431.1060, 65.16113
432.2990, 63.09570
433.4920, 57.01855
434.6840, 142.9668
435.8770, 90.70117
437.0690, 98.56348
438.2610, 102.8496
439.4530, 161.8252
440.6450, 65.50488
441.8360, 45.27148
443.0280, 49.02734
444.2190, 5.956055
445.4100, 59.88770
446.6010, 27.44629
447.7920, 43.81836
448.9820, 122.3994
450.1730, 23.86426
451.3630, 129.0791
452.5530, 45.63086
453.7430, 234.4248
454.9330, 51.03320
456.1230, 132.7568
457.3120, 71.45801
458.5010, 104.9951
459.6910, 81.71680
460.8800, 72.16992
462.0680, 1.160156
463.2570, 148.5703
464.4460, 123.6680
465.6340, 83.56445
466.8220, 96.06543
468.0100, 20.57520
469.1980, 151.9990
470.3860, 74.38184
471.5730, 40.36328
472.7600, 9.857422
473.9480, 35.94434
475.1350, 143.2217
476.3210, 14.64941
477.5080, 96.45312
478.6950, 170.5400
479.8810, 119.6055
481.0670, 167.6533
482.2530, 172.6641
483.4390, 39.64648
484.6250, 109.6133
485.8100, 92.52637
486.9960, 284.4121
488.1810, 213.2852
489.3660, 176.0977
490.5510, 346.9141
491.7360, 203.6865
492.9200, 375.4492
494.1050, 503.1035
495.2890, 453.7490
496.4730, 529.3828
497.6570, 522.0029
498.8400, 454.5977
500.0240, 564.1650
501.2070, 569.7256
502.3910, 494.3027
503.5740, 356.8711
504.7570, 331.4258
505.9400, 431.9629
507.1220, 221.4961
508.3050, 250.9482
509.4870, 295.3877
510.6690, 331.7891
511.8510, 317.1484
513.0330, 552.4834
514.2140, 336.8105
515.3960, 474.1436
516.5770, 542.4639
517.7580, 413.7939
518.9390, 391.1133
520.1200, 449.4766
521.3010, 520.8301
522.4810, 668.1719
523.6610, 541.5068
524.8420, 491.8311
526.0220, 490.1455
527.2010, 546.4512
528.3810, 555.7871
529.5610, 582.1143
530.7400, 527.4326
531.9190, 489.7402
533.0980, 485.0381
534.2770, 667.3252
535.4560, 692.6025
536.6340, 537.8691
537.8120, 491.1260
538.9910, 630.3721
540.1690, 578.6094
541.3460, 555.8369
542.5240, 530.0537
543.7020, 568.0723
544.8790, 609.3555
546.0560, 511.5410
547.2330, 671.7178
548.4100, 731.8838
549.5870, 674.0391
550.7630, 642.2676
551.9400, 627.4102
553.1160, 656.5449
554.2920, 774.2500
555.4680, 474.4268
556.6440, 494.9053
557.8190, 545.9980
558.9950, 436.2842
560.1700, 375.3516
561.3450, 471.3682
562.5200, 518.0781
563.6950, 344.9131
564.8690, 439.3291
566.0440, 381.4844
567.2180, 85.40820
568.3920, 335.1377
569.5660, 150.3945
570.7400, 223.0615
571.9130, 257.2949
573.0870, 249.0361
574.2600, 66.90039
575.4330, 107.9336
576.6060, 254.4307
577.7790, 369.2705
578.9520, 152.3398
580.1240, 256.0947
581.2960, 147.3555
582.4690, 126.0645
583.6410, 127.6641
584.8120, 85.24512
585.9840, 82.72656
587.1560, 144.6289
588.3270, 96.00391
589.4980, 53.35254
590.6690, 115.2031
591.8400, 3.035156
593.0110, 167.5449
594.1810, 85.77051
595.3510, 126.2471
596.5220, 95.59863
597.6920, 105.6465
598.8610, 140.9355
600.0310, 92.72461
601.2010, 198.0586
602.3700, 45.75586
603.5390, 166.2607
604.7080, 25.56641
605.8770, 68.25977
607.0460, 116.0664
608.2140, 63.61816
609.3830, 110.5098
610.5510, 117.1846
611.7190, 306.2617
612.8870, 175.1113
614.0550, 181.0293
615.2220, 339.0811
616.3900, 337.2197
617.5570, 158.5371
618.7240, 278.5576
619.8910, 158.9873
621.0580, 262.1416
622.2240, 338.2090
623.3910, 307.2598
624.5570, 343.7988
625.7230, 271.8594
626.8890, 257.6602
628.0550, 513.6543
629.2200, 483.6348
630.3860, 534.1035
631.5510, 616.0586
632.7160, 614.0527
633.8810, 535.9805
635.0460, 685.3613
636.2100, 839.3887
637.3750, 964.3086
638.5390, 1003.312
639.7030, 850.1699
640.8670, 1193.201
642.0310, 1319.648
643.1950, 1514.008
644.3580, 1686.809
645.5210, 1877.215
646.6850, 2267.672
647.8480, 2514.914
649.0100, 3104.701
650.1730, 3465.584
651.3350, 4172.527
652.4980, 5190.795
653.6600, 6273.781
654.8220, 7226.387
655.9840, 8592.055
657.1450, 10339.17
658.3070, 11817.82
659.4680, 13227.97
660.6300, 14079.58
661.7910, 13960.18
662.9510, 12916.88
664.1120, 11499.54
665.2730, 9733.094
666.4330, 7901.760
667.5930, 6774.938
668.7530, 5400.930
669.9130, 4398.422
671.0730, 3631.898
672.2320, 3204.365
673.3920, 2684.818
674.5510, 2275.258
675.7100, 2054.684
676.8690, 1682.094
678.0280, 1479.488
679.1860, 1165.172
680.3450, 1218.586
681.5030, 983.9355
682.6610, 888.2695
683.8190, 877.5918
684.9770, 790.9062
686.1340, 685.4043
687.2920, 679.6875
688.4490, 633.2051
689.6060, 641.6562
690.7630, 610.0859
691.9200, 435.7559
693.0760, 555.0977
694.2330, 485.2949
695.3890, 550.0254
696.5450, 478.4590
697.7010, 340.8262
698.8570, 490.9961
700.0130, 336.3926
701.1680, 345.8359
702.3230, 331.9805
703.4780, 377.2227
704.6330, 270.3730
705.7880, 292.5391
706.9430, 321.3262
708.0970, 302.4375
709.2520, 218.4629
710.4060, 472.5703
711.5600, 204.6641
712.7140, 187.7402
713.8670, 190.4395
715.0210, 249.2910
716.1740, 230.3418
717.3270, 200.3789
718.4800, 173.4219
719.6330, 62.49023
720.7860, 164.5332
721.9380, 165.4707
723.0910, 207.4004
724.2430, 125.1348
725.3950, 90.84375
726.5470, 118.7949
727.6980, 95.12305
728.8500, 299.1094
730.0010, 275.9082
731.1530, 185.4746
732.3040, 206.4023
733.4550, 230.0605
734.6050, 118.8730
735.7560, 45.45898
736.9060, 143.1836
738.0560, 52.96094
739.2060, 131.5176
740.3560, 184.3105
741.5060, 95.53320
742.6560, 182.3086
743.8050, 60.63867
744.9540, 42.69727
746.1030, 138.2676
747.2520, 58.66797
748.4010, 42.25195
749.5500, 118.8496
750.6980, 179.6367
751.8460, 180.3379
752.9950, 158.0352
754.1420, 232.7363
755.2900, 263.4277
756.4380, 125.1191
757.5850, 63.79883
758.7330, 107.4629
759.8800, 349.1152
761.0270, 240.7578
762.1730, 281.3867
763.3200, 73.99219
764.4670, 162.5645
765.6130, 215.1113
766.7590, 184.6465
767.9050, 31.83008
769.0510, 162.6543
770.1960, 126.1250
771.3420, 230.5840
772.4870, 35.03320
773.6320, 107.4648
774.7770, 129.8887
775.9220, 5.300781
777.0670, 248.6895
778.2110, 4.066406
779.3560, 82.58008
780.5000, 24.70898
781.6440, 175.9824
782.7880, 19.24609
783.9320, 4.509766
785.0750, 49.28906
786.2180, 123.8828
787.3620, 97.04102
788.5050, 78.18945
789.6480, 20.32617
790.7900, 60.44922
791.9330, 41.44336
793.0750, 200.6211
794.2170, 50.32422
795.3590, 125.6816
796.5010, 179.3223
797.6430, 261.5566
798.7850, 227.4277
799.9260, 96.99805
801.0670, 103.8477
802.2080, 128.6875
803.3490, 93.51758
804.4900, 134.6621
805.6310, 19.06641
806.7710, 241.7812
807.9110, 161.4883
809.0510, 167.5312
810.1910, 161.2188
811.3310, 246.4141
812.4710, 186.0840
813.6100, 193.7480
814.7490, 276.4004
815.8880, 44.04297
817.0270, 103.6777
818.1660, 198.3047
819.3050, 192.9199
820.4430, 255.5293
821.5820, 140.1309
822.7200, 63.72461
823.8580, 129.3066
824.9950, 50.88281
826.1330, 61.44727
827.2710, 64.00391
828.4080, 10.55273
829.5450, 76.08789
830.6820, 264.6133
831.8190, 10.08008
832.9560, 45.41602
834.0920, 60.59180
835.2280, 128.0703
836.3650, 5.458984
837.5010, 31.06836
838.6360, 270.5117
839.7720, 84.98438
840.9080, 175.4121
842.0430, 95.83008
843.1780, 186.2402
844.3130, 295.6445
845.4480, 384.0430
846.5830, 589.4355
847.7170, 406.8184
848.8520, 564.1992
849.9860, 618.5723
851.1200, 866.9414
852.2540, 1008.305
853.3870, 1048.660
854.5210, 797.0098
855.6540, 793.3516
856.7880, 853.2227
857.9210, 717.5352
859.0540, 662.8457
860.1860, 548.1621
861.3190, 290.2949
862.4510, 491.2793
863.5840, 403.3770
864.7160, 499.4316
865.8480, 402.7734
866.9790, 280.1113
868.1110, 374.4492
869.2420, 369.8105
870.3740, 213.1660
871.5050, 282.3672
872.6360, 510.1074
873.7660, 190.4043
874.8970, 214.3145
876.0280, 173.5566
877.1580, 315.8887
878.2880, 158.0137
879.4180, 407.3555
880.5480, 373.2793
881.6770, 416.1523
882.8070, 389.4473
883.9360, 271.4082
885.0650, 241.2734
886.1940, 40.48438
887.3230, 291.8027
888.4520, 201.1152
889.5800, 109.4219
890.7090, 172.7598
891.8370, 264.0898
892.9650, 357.3809
894.0930, 356.4121
895.2200, 312.6250
896.3480, 375.9805
897.4750, 248.3340
898.6020, 206.6816
899.7290, 241.8574
900.8560, 204.1973
901.9830, 315.5371
903.1090, 340.8926
904.2360, 189.7461
905.3620, 199.0977
906.4880, 403.3887
907.6140, 282.7324
908.7400, 460.6055
909.8650, 201.8145
910.9900, 169.1172
912.1160, 146.3145
913.2410, 331.6445
914.3660, 412.7852
915.4900, 233.4941
916.6150, 344.2754
917.7390, 328.5957
918.8640, 358.3105
919.9880, 263.9590
921.1120, 236.8047
922.2350, 268.0938
923.3590, 98.26953
924.4820, 109.3867
925.6060, 440.1699
926.7290, 47.21680
927.8520, 62.62891
928.9740, 86.96875
930.0970, 137.8438
931.2190, 75.17188
932.3420, 145.9746
933.4640, 137.3105
934.5860, 26.35352
935.7080, 23.85547
936.8290, 236.0957
937.9510, 239.4277
939.0720, 27.65430
940.1930, 120.3555
941.3140, 19.22656
942.4350, 24.58203
943.5560, 45.06055
944.6760, 125.2949
945.7960, 24.34766
946.9170, 69.00977
948.0370, 228.3691
949.1560, 52.73242
950.2760, 30.09766
951.3960, 47.18359
952.5150, 94.52539
953.6340, 115.9199
954.7530, 71.31641
955.8720, 94.72461
956.9910, 126.1348
958.1090, 60.34766
959.2280, 256.7617
960.3460, 129.9297
961.4640, 218.1465
962.5820, 137.3809
963.6990, 24.35742
964.8170, 97.65039
965.9340, 32.92383
967.0510, 78.96094
968.1690, 53.86914
969.2850, 100.3477
970.4020, 108.7578
971.5190, 6.070313
972.6350, 86.04492
973.7510, 79.53320
974.8670, 56.78320
975.9830, 152.1836
977.0990, 241.5820
978.2150, 102.0117
979.3300, 244.4512
980.4450, 303.8984
981.5600, 71.34570
982.6750, 259.2676
983.7900, 304.7207
984.9050, 296.1758
986.0190, 171.6309
987.1340, 433.0918
988.2480, 595.5566
989.3620, 459.0273
990.4750, 466.4980
991.5890, 519.9746
992.7020, 868.4551
993.8160, 696.9375
994.9290, 1033.422
996.0420, 1013.910
997.1550, 988.4023
998.2670, 1297.896
999.3800, 1682.396
1000.492, 2252.898
1001.604, 2441.404
1002.716, 3089.225
1003.828, 4129.732
1004.940, 4828.244
1006.051, 5901.814
1007.163, 7734.350
1008.274, 9582.889
1009.385, 11795.43
1010.496, 13568.12
1011.606, 15297.67
1012.717, 16084.22
1013.827, 16026.77
1014.937, 14227.35
1016.047, 11687.00
1017.157, 9542.590
1018.267, 7536.180
1019.377, 6160.010
1020.486, 4989.514
1021.595, 4034.113
1022.704, 3578.715
1023.813, 2976.834
1024.922, 2804.439
1026.030, 2222.256
1027.139, 2404.891
1028.247, 2083.502
1029.355, 1899.115
1030.463, 1965.729
1031.571, 1734.348
1032.678, 1766.963
1033.786, 1522.607
1034.893, 1258.553
1036.000, 1475.355
1037.107, 1308.006
1038.214, 1116.730
1039.321, 1136.396
1040.427, 1048.064
1041.533, 946.7324
1042.639, 909.4961
1043.745, 973.1699
1044.851, 939.8438
1045.957, 793.5234
1047.062, 1041.205
1048.168, 957.8926
1049.273, 696.6133
1050.378, 742.3359
1051.482, 608.1816
1052.587, 665.9082
1053.692, 654.6582
1054.796, 466.4277
1055.900, 545.1973
1057.004, 581.3145
1058.108, 474.0879
1059.212, 622.0703
1060.315, 445.8848
1061.418, 482.6797
1062.522, 358.4766
1063.625, 515.2891
1064.728, 299.2363
1065.830, 400.0781
1066.933, 456.0977
1068.035, 468.9785
1069.137, 313.0605
1070.239, 376.0137
1071.341, 356.1914
1072.443, 327.8359
1073.545, 509.4395
1074.646, 318.3555
1075.747, 355.2734
1076.848, 465.7227
1077.949, 549.6641
1079.050, 382.2168
1080.150, 493.1348
1081.251, 339.0527
1082.351, 317.0645
1083.451, 302.2676
1084.551, 424.1836
1085.651, 509.0977
1086.750, 312.0137
1087.850, 424.3926
1088.949, 377.3066
1090.048, 397.2207
1091.147, 545.1328
1092.246, 229.0469
1093.345, 389.9551
1094.443, 155.8691
1095.541, 236.7812
1096.639, 248.6953
1097.737, 257.6094
1098.835, 378.7344
1099.933, 332.6523
1101.030, 313.8809
1102.128, 313.8008
1103.225, 251.7168
1104.322, 172.3906
1105.419, 347.0039
1106.515, 225.9375
1107.612, 275.8633
1108.708, 212.0234
1109.804, 229.9414
1110.900, 86.25781
1111.996, 181.1738
1113.092, 265.0898
1114.187, 3.000000
1115.283, 288.9062
1116.378, 179.8086
1117.473, 67.71289
1118.568, 216.6133
1119.662, 166.2363
1120.757, 411.1348
1121.851, 166.0293
1122.946, 202.9238
1124.040, 235.8164
1125.134, 86.70508
1126.227, 176.5938
1127.321, 244.4805
1128.414, 185.3652
1129.508, 90.24805
1130.601, 223.1289
1131.693, 208.0078
1132.786, 129.8848
1133.879, 93.24219
1134.971, 140.5781
1136.064, 192.3945
1137.156, 29.20898
1138.248, 147.0195
1139.339, 215.8281
1140.431, 78.63477
1141.522, 9.562500
1142.614, 149.2266
1143.705, 234.0137
1144.796, 149.8008
1145.887, 290.5840
1146.977, 29.36719
1148.068, 163.1445
1149.158, 95.92188
1150.248, 7.693359
1151.338, 94.46094
1152.428, 224.2285
1153.518, 193.9922
1154.607, 109.2461
1155.696, 207.4453
1156.785, 151.8633
1157.874, 41.73828
1158.963, 110.3379
1160.052, 80.94922
1161.141, 108.5410
1162.229, 169.1348
1163.317, 127.7227
1164.405, 75.30664
1165.493, 7.888672
1166.581, 70.53711
1167.668, 123.9961
1168.756, 35.52344
1169.843, 192.1035
1170.930, 247.6270
1172.017, 84.14648
1173.103, 28.66406
1174.190, 215.1777
1175.276, 112.6895
1176.363, 85.19727
1177.449, 171.7031
1178.535, 114.2051
1179.620, 204.7031
1180.706, 74.19922
1181.791, 37.30664
1182.877, 81.15625
1183.962, 57.48047
1185.047, 124.9375
1186.131, 210.3906
1187.216, 55.15820
1188.300, 56.25000
1189.385, 14.65430
1190.469, 45.05273
1191.553, 68.44922
1192.637, 158.8379
1193.720, 157.2266
1194.804, 30.61133
1195.887, 116.9922
1196.970, 163.3691
1198.053, 105.7402
1199.136, 313.1133
1200.219, 231.4805
1201.301, 64.15430
1202.383, 333.1641
1203.465, 242.4766
1204.547, 114.7871
1205.629, 256.0938
1206.711, 15.60547
1207.792, 48.68164
1208.874, 4.035156
1209.955, 74.23242
1211.036, 226.4961
1212.117, 3.246094
1213.198, 70.00000
1214.278, 263.1973
1215.359, 93.38867
1216.439, 170.5781
1217.519, 25.24023
1218.599, 298.9180
1219.678, 163.0742
1220.758, 273.2246
1221.837, 148.3906
1222.917, 248.5547
1223.996, 253.7129
1225.075, 150.8672
1226.153, 80.01562
1227.232, 246.1621
1228.310, 232.3066
1229.389, 348.4492
1230.467, 131.5898
1231.545, 85.73242
1232.622, 217.8730
1233.700, 7.8130001E-03
1234.777, 2.134766
1235.855, 40.24805
1236.932, 51.36914
1238.009, 70.51367
1239.086, 118.5566
1240.162, 25.37891
1241.239, 134.6680
1242.315, 74.70898
1243.391, 129.7461
1244.467, 112.3047
1245.543, 284.3340
1246.619, 240.3613
1247.694, 239.3848
1248.769, 0.4042970
1249.844, 270.4141
1250.919, 399.4199
1251.994, 242.4434
1253.069, 123.4688
1254.144, 540.4883
1255.218, 118.5059
1256.292, 304.5215
1257.366, 211.5332
1258.440, 358.5410
1259.514, 342.5469
1260.587, 250.5488
1261.661, 372.5488
1262.734, 123.5430
1263.807, 238.2246
1264.880, 455.2148
1265.952, 345.2012
1267.025, 237.1309
1268.097, 177.1133
1269.170, 233.0918
1270.242, 400.0723
1271.314, 141.9141
1272.385, 241.8926
1273.457, 246.8652
1274.528, 105.8379
1275.600, 170.8047
1276.671, 199.7070
1277.742, 159.6719
1278.812, 228.6367
1279.883, 136.3594
1280.954, 254.3184
1282.024, 97.27539
1283.094, 360.2285
1284.164, 182.6641
1285.234, 52.61523
1286.303, 450.3555
1287.373, 165.2793
1288.442, 16.20508
1289.511, 219.8047
1290.580, 333.7363
1291.649, 362.8008
1292.718, 52.87500
1293.786, 180.6797
1294.855, 132.7793
1295.923, 73.81055
1296.991, 263.2383
1298.059, 2.535156
1299.126, 188.0684
1300.194, 195.5020
1301.261, 284.4316
1302.328, 196.7656
1303.395, 163.7090
1304.462, 307.2109
1305.529, 352.9512
1306.596, 245.0527
1307.662, 364.6230
1308.728, 152.5645
1309.794, 394.5059
1310.860, 275.6699
1311.926, 53.38672
1312.991, 198.7656
1314.057, 293.6816
1315.122, 203.5977
1316.187, 131.1641
1317.252, 394.0840
1318.317, 588.7988
1319.381, 544.6777
1320.446, 46.91797
1321.510, 260.8906
1322.574, 385.1934
1323.638, 424.5332
1324.702, 124.9883
1325.766, 263.1777
1326.829, 225.9199
1327.892, 181.4570
1328.956, 381.2676
1330.019, 126.0605
1331.081, 321.9434
1332.144, 339.7422
1333.206, 439.0371
1334.269, 361.8418
1335.331, 337.2715
1336.393, 491.1133
1337.455, 546.0605
1338.516, 448.5020
1339.578, 552.9844
1340.639, 295.4102
1341.701, 260.6289
1342.762, 178.5684
1343.822, 266.5078
1344.883, 369.4512
1345.944, 321.9297
1347.004, 311.8789
1348.064, 367.8262
1349.124, 377.4844
1350.184, 318.4414
1351.244, 118.4004
1352.304, 240.3633
1353.363, 205.3281
1354.422, 274.2969
1355.481, 283.2676
1356.540, 119.2461
1357.599, 306.2227
1358.657, 241.2051
1359.716, 189.1914
1360.774, 186.1797
1361.832, 338.3438
1362.890, 364.6484
1363.948, 204.5977
1365.006, 488.5957
1366.063, 192.3633
1367.120, 351.3750
1368.178, 341.9043
1369.234, 437.9238
1370.291, 321.9492
1371.348, 369.9785
1372.404, 82.01172
1373.461, 204.0527
1374.517, 340.0977
1375.573, 311.1426
1376.629, 334.4648
1377.684, 262.5176
1378.740, 429.4512
1379.795, 373.5117
1380.850, 351.5801
1381.905, 514.6523
1382.960, 97.72656
1384.015, 298.8066
1385.070, 307.8867
1386.124, 118.9766
1387.178, 352.0723
1388.232, 309.1719
1389.286, 150.2773
1390.340, 132.3906
1391.393, 157.5371
1392.447, 226.6895
1393.500, 149.8477
1394.553, 273.0137
1395.606, 97.18555
1396.659, 159.1426
1397.711, 180.3301
1398.764, 147.5273
1399.816, 388.7344
1400.868, 336.9473
1401.920, 271.1172
1402.972, 213.2949
1404.023, 169.4805
1405.075, 249.6719
1406.126, 78.87109
1407.177, 362.0781
1408.228, 162.2930
1409.279, 252.5137
1410.330, 243.7422
1411.380, 151.9980
1412.431, 180.2598
1413.481, 145.5723
1414.531, 254.8945
1415.580, 196.2031
1416.630, 37.45312
1417.680, 92.70898
1418.729, 156.9668
