##NAMES=Hedenbergite
##RRUFFID=R060040
##IDEAL CHEMISTRY=CaFe^2+^Si_2_O_6_
##LOCALITY=Rio Marina, Elba, Italy
##OWNER=RRUFF
##SOURCE=University of Arizona Mineral Museum
##DESCRIPTION=Radial aggregate of green thin bladed crystals
##STATUS=The identification of this mineral has been confirmed by X-ray diffraction and chemical analysis
##URL=rruff.info/R060040
##MEASURED CHEMISTRY=Ca_1.00_(Fe^2+^_0.89_Mg_0.09_Mn_0.02_)_Î£=1_Si_2.00_O_6_
##PIN_ID=M00921
##ORIENTATION=Laser parallel to -b* (0 -1 0). Fiducial mark perpendicular to laser is parallel to c [0 0 1]
262.4900, 0.0000000E+00
263.7050, 4.936523
264.9210, 165.6963
266.1360, 98.36133
267.3520, 356.6357
268.5670, 141.9414
269.7820, 295.8350
270.9960, 28.42090
272.2110, 194.8125
273.4250, 51.33105
274.6400, 224.9658
275.8540, 207.5332
277.0680, 362.8760
278.2810, 199.8535
279.4950, 210.3604
280.7090, 153.3486
281.9220, 396.8672
283.1350, 323.0127
284.3480, 285.6650
285.5610, 331.7002
286.7730, 406.0273
287.9860, 331.5957
289.1980, 463.3467
290.4100, 548.2285
291.6220, 685.2002
292.8340, 881.2314
294.0460, 923.3320
295.2570, 886.5107
296.4690, 1103.801
297.6800, 1175.235
298.8910, 1442.253
300.1020, 1635.660
301.3120, 1722.113
302.5230, 2022.600
303.7330, 2053.811
304.9440, 2104.770
306.1540, 2201.508
307.3630, 2346.022
308.5730, 2086.332
309.7830, 2012.459
310.9920, 2177.473
312.2010, 1752.580
313.4100, 1681.483
314.6190, 1256.213
315.8280, 1166.782
317.0370, 1089.195
318.2450, 870.4443
319.4530, 959.5371
320.6610, 800.4883
321.8690, 1025.300
323.0770, 783.9834
324.2850, 850.6211
325.4920, 634.8809
326.6990, 641.1826
327.9060, 810.2354
329.1130, 746.9727
330.3200, 576.6787
331.5270, 805.9258
332.7330, 681.3857
333.9390, 701.7656
335.1450, 417.3711
336.3510, 579.7188
337.5570, 498.4590
338.7630, 596.0293
339.9680, 696.7676
341.1740, 568.8047
342.3790, 407.4814
343.5840, 588.8105
344.7890, 515.0303
345.9930, 518.6367
347.1980, 500.6816
348.4020, 385.6963
349.6060, 450.7676
350.8100, 476.3779
352.0140, 362.6992
353.2180, 401.6172
354.4210, 335.2998
355.6250, 293.2100
356.8280, 280.9092
358.0310, 422.3145
359.2340, 309.2939
360.4360, 391.8252
361.6390, 416.1562
362.8410, 513.9414
364.0430, 438.6328
365.2450, 508.9189
366.4470, 474.5391
367.6490, 456.4229
368.8510, 368.0986
370.0520, 773.1582
371.2530, 424.8467
372.4540, 634.5371
373.6550, 306.2227
374.8560, 587.8994
376.0560, 452.5664
377.2570, 648.2246
378.4570, 506.8740
379.6570, 472.5146
380.8570, 336.1436
382.0570, 299.7637
383.2560, 264.3740
384.4560, 256.9727
385.6550, 157.5596
386.8540, 384.1357
388.0530, 28.06250
389.2520, 172.6123
390.4510, 227.1504
391.6490, 81.73242
392.8470, 55.79980
394.0450, 28.13574
395.2430, 170.8232
396.4410, 50.29199
397.6390, 93.74512
398.8360, 95.83789
400.0340, 69.25879
401.2310, 19.26562
402.4280, 146.1172
403.6250, 114.4873
404.8210, 59.18164
406.0180, 33.88086
407.2140, 2.722656
408.4100, 47.32422
409.6060, 35.73828
410.8020, 172.1074
411.9980, 8.394531
413.1930, 86.84766
414.3890, 68.28516
415.5840, 44.53125
416.7790, 129.9414
417.9740, 205.3945
419.1680, 13.72461
420.3630, 167.9336
421.5570, 234.4824
422.7510, 76.03711
423.9450, 41.59961
425.1390, 54.16406
426.3330, 63.73633
427.5270, 46.30273
428.7200, 166.2285
429.9130, 18.78320
431.1060, 197.3477
432.2990, 174.0430
433.4920, 19.93750
434.6840, 71.47461
435.8770, 64.99414
437.0690, 255.5039
438.2610, 47.30859
439.4530, 301.2832
440.6450, 88.78711
441.8360, 29.29102
443.0280, 301.0742
444.2190, 186.6914
445.4100, 47.21289
446.6010, 167.8008
447.7920, 31.16602
448.9820, 89.50391
450.1730, 116.8125
451.3630, 80.09766
452.5530, 223.6992
453.7430, 19.96484
454.9330, 30.60547
456.1230, 65.30078
457.3120, 60.88086
458.5010, 79.06836
459.6910, 161.8574
460.8800, 164.9336
462.0680, 168.2207
463.2570, 215.2598
464.4460, 233.2773
465.6340, 145.6055
466.8220, 106.5859
468.0100, 86.56641
469.1980, 107.5586
470.3860, 265.5000
471.5730, 144.4141
472.7600, 136.3047
473.9480, 50.16992
475.1350, 112.0117
476.3210, 291.1055
477.5080, 227.8457
478.6950, 217.5273
479.8810, 186.1621
481.0670, 249.8203
482.2530, 240.3652
483.4390, 280.7930
484.6250, 408.0840
485.8100, 441.3652
486.9960, 306.6348
488.1810, 408.8887
489.3660, 418.1309
490.5510, 445.3633
491.7360, 502.5801
492.9200, 456.7871
494.1050, 373.9824
495.2890, 495.1680
496.4730, 621.3477
497.6570, 413.5156
498.8400, 479.6699
500.0240, 517.8086
501.2070, 408.9434
502.3910, 412.0371
503.5740, 452.0879
504.7570, 413.1289
505.9400, 198.1641
507.1220, 253.1914
508.3050, 187.2070
509.4870, 267.2129
510.6690, 173.2168
511.8510, 102.2051
513.0330, 254.1836
514.2140, 207.1523
515.3960, 247.1133
516.5770, 298.0684
517.7580, 175.0137
518.9390, 162.9531
520.1200, 54.88086
521.3010, 265.7988
522.4810, 90.70898
523.6610, 74.61133
524.8420, 128.5156
526.0220, 288.4121
527.2010, 200.3027
528.3810, 274.1504
529.5610, 201.0527
530.7400, 369.1484
531.9190, 201.0332
533.0980, 31.91016
534.2770, 308.4277
535.4560, 207.7812
536.6340, 339.8574
537.8120, 155.4160
538.9910, 258.3223
540.1690, 317.6738
541.3460, 335.5879
542.5240, 187.9434
543.7020, 251.6230
544.8790, 232.3320
546.0560, 209.3789
547.2330, 300.6504
548.4100, 335.8066
549.5870, 261.9473
550.7630, 344.2930
551.9400, 511.3359
553.1160, 419.0508
554.2920, 319.7969
555.4680, 278.6172
556.6440, 203.5957
557.8190, 165.1348
558.9950, 265.3066
560.1700, 90.73633
561.3450, 93.37500
562.5200, 191.1289
563.6950, 280.7402
564.8690, 339.4766
566.0440, 172.0039
567.2180, 310.2754
568.3920, 124.7559
569.5660, 35.77930
570.7400, 154.7793
571.9130, 242.1582
573.0870, 94.75000
574.2600, 45.57031
575.4330, 200.4648
576.6060, 208.7031
577.7790, 187.7188
578.9520, 24.85547
580.1240, 9.158203
581.2960, 38.35156
582.4690, 119.9668
583.6410, 49.18359
584.8120, 86.66992
585.9840, 104.5508
587.1560, 81.98633
588.3270, 182.3945
589.4980, 151.5195
590.6690, 222.6250
591.8400, 162.2441
593.0110, 52.26758
594.1810, 133.0840
595.3510, 87.57617
596.5220, 105.9082
597.6920, 119.9043
598.8610, 113.0840
600.0310, 7.574219
601.2010, 277.4531
602.3700, 73.56641
603.5390, 159.3711
604.7080, 252.4062
605.8770, 50.42773
607.0460, 241.5547
608.2140, 138.3984
609.3830, 124.4258
610.5510, 288.8379
611.7190, 153.7832
612.8870, 135.5742
614.0550, 213.3125
615.2220, 170.1699
616.3900, 63.84570
617.5570, 172.8965
618.7240, 147.0215
619.8910, 176.4316
621.0580, 230.9766
622.2240, 421.3516
623.3910, 371.1426
624.5570, 194.0840
625.7230, 273.8457
626.8890, 531.5957
628.0550, 455.3320
629.2200, 180.0527
630.3860, 597.7617
631.5510, 401.9551
632.7160, 444.8672
633.8810, 518.9004
635.0460, 668.8926
636.2100, 692.6484
637.3750, 587.2832
638.5390, 677.9043
639.7030, 874.5566
640.8670, 835.6484
642.0310, 1134.225
643.1950, 1350.938
644.3580, 1422.027
645.5210, 1854.914
646.6850, 2120.891
647.8480, 2346.625
649.0100, 2777.430
650.1730, 3254.967
651.3350, 3849.422
652.4980, 4639.883
653.6600, 5318.320
654.8220, 5829.334
655.9840, 6681.881
657.1450, 7132.307
658.3070, 7681.236
659.4680, 7804.553
660.6300, 7625.402
661.7910, 7164.125
662.9510, 6473.438
664.1120, 5607.676
665.2730, 4474.539
666.4330, 3893.438
667.5930, 3277.770
668.7530, 2686.814
669.9130, 2221.549
671.0730, 1685.918
672.2320, 1510.146
673.3920, 1215.738
674.5510, 1029.131
675.7100, 906.3203
676.8690, 852.4961
678.0280, 654.5840
679.1860, 520.7344
680.3450, 650.4961
681.5030, 319.0469
682.6610, 421.3770
683.8190, 408.6055
684.9770, 220.0957
686.1340, 413.1660
687.2920, 117.3652
688.4490, 402.4414
689.6060, 126.5352
690.7630, 323.6133
691.9200, 197.6895
693.0760, 525.9473
694.2330, 302.0000
695.3890, 341.0684
696.5450, 320.6133
697.7010, 302.2598
698.8570, 197.5781
700.0130, 115.2520
701.1680, 128.2695
702.3230, 361.2168
703.4780, 43.52539
704.6330, 41.68750
705.7880, 24.01562
706.9430, 82.09375
708.0970, 285.1855
709.2520, 49.89844
710.4060, 79.04492
711.5600, 141.0996
712.7140, 10.02539
713.8670, 116.5742
715.0210, 121.5059
716.1740, 248.4219
717.3270, 170.4512
718.4800, 128.0215
719.6330, 137.3926
720.7860, 41.80078
721.9380, 22.96094
723.0910, 23.45312
724.2430, 23.11133
725.3950, 5.726563
726.5470, 38.77148
727.6980, 27.89453
728.8500, 112.5410
730.0010, 15.17188
731.1530, 114.7812
732.3040, 45.73047
733.4550, 131.7988
734.6050, 44.12305
735.7560, 78.53125
736.9060, 38.01953
738.0560, 16.45898
739.2060, 306.2539
740.3560, 144.7285
741.5060, 1.951172
742.6560, 295.3828
743.8050, 166.7969
744.9540, 107.0488
746.1030, 68.56836
747.2520, 64.75195
748.4010, 5.019531
749.5500, 203.4980
750.6980, 238.7637
751.8460, 267.0117
752.9950, 46.24805
754.1420, 151.4629
755.2900, 124.3730
756.4380, 102.5547
757.5850, 31.74219
758.7330, 188.1152
759.8800, 32.90430
761.0270, 180.9004
762.1730, 129.8809
763.3200, 335.8418
764.4670, 202.7891
765.6130, 188.7188
766.7590, 171.6367
767.9050, 246.8145
769.0510, 49.69727
770.1960, 114.5605
771.3420, 81.40430
772.4870, 92.37109
773.6320, 1.640625
774.7770, 278.2168
775.9220, 171.9805
777.0670, 159.7285
778.2110, 52.45898
779.3560, 302.1680
780.5000, 135.8613
781.6440, 42.53906
782.7880, 87.19727
783.9320, 63.00391
785.0750, 117.6230
786.2180, 97.22266
787.3620, 0.1953130
788.5050, 260.3594
789.6480, 95.90039
790.7900, 342.4238
791.9330, 29.92969
793.0750, 138.4141
794.2170, 164.3105
795.3590, 40.77148
796.5010, 233.2129
797.6430, 302.6562
798.7850, 79.08594
799.9260, 90.67773
801.0670, 35.92969
802.2080, 8.417969
803.3490, 32.29297
804.4900, 163.5977
805.6310, 88.59961
806.7710, 60.61328
807.9110, 146.1426
809.0510, 296.5352
810.1910, 276.6953
811.3310, 129.8457
812.4710, 294.7031
813.6100, 232.8340
814.7490, 254.9355
815.8880, 275.4355
817.0270, 28.50391
818.1660, 72.55273
819.3050, 79.41992
820.4430, 144.5371
821.5820, 79.47852
822.7200, 250.4004
823.8580, 146.3047
824.9950, 212.2109
826.1330, 216.0664
827.2710, 226.7910
828.4080, 199.6328
829.5450, 133.4570
830.6820, 334.2676
831.8190, 255.0566
832.9560, 66.83008
834.0920, 43.58398
835.2280, 127.3203
836.3650, 28.03711
837.5010, 250.6172
838.6360, 22.39453
839.7720, 14.82422
840.9080, 258.4590
842.0430, 157.5684
843.1780, 289.0312
844.3130, 229.4238
845.4480, 366.0039
846.5830, 316.0977
847.7170, 151.9980
848.8520, 179.4355
849.9860, 395.6133
851.1200, 373.9141
852.2540, 237.2168
853.3870, 156.6777
854.5210, 376.1250
855.6540, 362.4102
856.7880, 295.7188
857.9210, 257.8223
859.0540, 150.6309
860.1860, 248.8359
861.3190, 237.6133
862.4510, 543.2539
863.5840, 185.4258
864.7160, 242.1738
865.8480, 466.2578
866.9790, 516.9062
868.1110, 121.9648
869.2420, 310.5820
870.3740, 437.6855
871.5050, 331.4062
872.6360, 530.2773
873.7660, 335.9609
874.8970, 246.5293
876.0280, 354.7207
877.1580, 340.8066
878.2880, 390.1855
879.4180, 440.3301
880.5480, 130.4590
881.6770, 369.3223
882.8070, 391.3008
883.9360, 381.9824
885.0650, 122.3359
886.1940, 280.4160
887.3230, 533.4805
888.4520, 181.5391
889.5800, 251.0723
890.7090, 287.0293
891.8370, 245.8613
892.9650, 162.5840
894.0930, 439.9961
895.2200, 319.2441
896.3480, 290.6328
897.4750, 272.5938
898.6020, 356.3770
899.7290, 185.3105
900.8560, 358.2324
901.9830, 454.1387
903.1090, 89.03906
904.2360, 330.9473
905.3620, 190.3438
906.4880, 236.9961
907.6140, 18.50781
908.7400, 112.0000
909.8650, 136.7148
910.9900, 245.5215
912.1160, 198.3145
913.2410, 165.0469
914.3660, 234.3145
915.4900, 300.0703
916.6150, 192.6582
917.7390, 200.8789
918.8640, 113.2383
919.9880, 156.7051
921.1120, 330.1719
922.2350, 323.5488
923.3590, 209.1699
924.4820, 356.8652
925.6060, 188.1992
926.7290, 180.8359
927.8520, 230.8711
928.9740, 50.34570
930.0970, 275.4375
931.2190, 289.4727
932.3420, 262.7109
933.4640, 196.2656
934.5860, 112.5430
935.7080, 238.7363
936.8290, 427.9121
937.9510, 55.33984
939.0720, 317.5176
940.1930, 30.91406
941.3140, 337.5684
942.4350, 67.51758
943.5560, 95.84766
944.6760, 204.4355
945.7960, 221.8633
946.9170, 4.083984
948.0370, 142.4785
949.1560, 208.8594
950.2760, 46.25195
951.3960, 200.6289
952.5150, 173.3652
953.6340, 233.2852
954.7530, 264.4023
955.8720, 300.6035
956.9910, 273.5332
958.1090, 220.8730
959.2280, 95.08203
960.3460, 82.59766
961.4640, 156.6582
962.5820, 309.0781
963.6990, 177.3105
964.8170, 186.3398
965.9340, 212.5508
967.0510, 310.8535
968.1690, 263.5684
969.2850, 251.1758
970.4020, 194.5137
971.5190, 121.0000
972.6350, 133.8555
973.7510, 126.5898
974.8670, 17.24805
975.9830, 249.1992
977.0990, 403.5742
978.2150, 109.8496
979.3300, 339.7812
980.4450, 204.7012
981.5600, 402.6133
982.6750, 637.3867
983.7900, 318.2637
984.9050, 695.1719
986.0190, 537.3945
987.1340, 587.2852
988.2480, 630.2598
989.3620, 569.1250
990.4750, 983.0938
991.5890, 799.9375
992.7020, 950.7832
993.8160, 1256.486
994.9290, 1405.580
996.0420, 1302.412
997.1550, 1699.232
998.2670, 1986.057
999.3800, 2301.871
1000.492, 2870.678
1001.604, 3433.473
1002.716, 4435.176
1003.828, 5148.133
1004.940, 6359.014
1006.051, 8134.430
1007.163, 9454.291
1008.274, 10731.05
1009.385, 12048.79
1010.496, 12915.53
1011.606, 12999.25
1012.717, 12572.97
1013.827, 11042.86
1014.937, 9659.375
1016.047, 7613.490
1017.157, 6319.188
1018.267, 4685.877
1019.377, 3829.361
1020.486, 3317.162
1021.595, 2879.779
1022.704, 2100.426
1023.813, 1937.117
1024.922, 1697.744
1026.030, 1401.359
1027.139, 1514.941
1028.247, 1410.537
1029.355, 1355.451
1030.463, 1238.195
1031.571, 961.9141
1032.678, 1031.525
1033.786, 981.1250
1034.893, 977.8184
1036.000, 878.0781
1037.107, 609.4727
1038.214, 556.0293
1039.321, 725.5742
1040.427, 608.1074
1041.533, 242.6875
1042.639, 513.2051
1043.745, 383.6465
1044.851, 532.1504
1045.957, 492.6445
1047.062, 474.1289
1048.168, 521.6055
1049.273, 499.0684
1050.378, 133.7695
1051.482, 342.2148
1052.587, 89.77930
1053.692, 144.2031
1054.796, 145.3281
1055.900, 162.8105
1057.004, 135.2090
1058.108, 252.5957
1059.212, 482.0117
1060.315, 140.3789
1061.418, 510.9023
1062.522, 14.17578
1063.625, 275.1387
1064.728, 32.38086
1065.830, 187.8809
1066.933, 110.1348
1068.035, 143.4141
1069.137, 200.8340
1070.239, 391.1719
1071.341, 197.3574
1072.443, 163.5801
1073.545, 317.2793
1074.646, 168.4336
1075.747, 279.1934
1076.848, 107.1914
1077.949, 172.3906
1079.050, 267.5781
1080.150, 473.0312
1081.251, 543.1816
1082.351, 356.5586
1083.451, 397.2871
1084.551, 340.4219
1085.651, 164.6543
1086.750, 232.7734
1087.850, 557.9043
1088.949, 148.4219
1090.048, 374.0508
1091.147, 237.1543
1092.246, 394.0664
1093.345, 409.1641
1094.443, 102.2324
1095.541, 186.2910
1096.639, 199.3379
1097.737, 162.5234
1098.835, 117.5527
1099.933, 188.5684
1101.030, 230.5742
1102.128, 47.57227
1103.225, 242.5566
1104.322, 296.4629
1105.419, 237.1992
1106.515, 260.3867
1107.612, 195.8438
1108.708, 64.20898
1109.804, 41.67969
1110.900, 416.4707
1111.996, 273.3398
1113.092, 454.1973
1114.187, 238.0488
1115.283, 298.8906
1116.378, 155.7246
1117.473, 39.54883
1118.568, 128.3574
1119.662, 62.16016
1120.757, 123.9531
1121.851, 87.73633
1122.946, 117.5098
1124.040, 309.2734
1125.134, 256.0273
1126.227, 50.80859
1127.321, 218.5449
1128.414, 146.2734
1129.508, 209.9902
1130.601, 219.7012
1131.693, 236.4023
1132.786, 122.0957
1133.879, 71.77734
1134.971, 3.453125
1136.064, 83.10742
1137.156, 52.24805
1138.248, 82.34766
1139.339, 247.9336
1140.431, 203.5117
1141.522, 241.0820
1142.614, 164.6426
1143.705, 158.1953
1144.796, 57.74023
1145.887, 137.2754
1146.977, 82.19727
1148.068, 138.2656
1149.158, 535.7207
1150.248, 302.1680
1151.338, 65.60938
1152.428, 11.95898
1153.518, 272.4453
1154.607, 81.83984
1155.696, 347.2285
1156.785, 195.6094
1157.874, 274.9844
1158.963, 200.3496
1160.052, 25.70508
1161.141, 47.94727
1162.229, 65.35742
1163.317, 376.6855
1164.405, 157.0039
1165.493, 61.31641
1166.581, 10.37891
1167.668, 81.09961
1168.756, 109.1230
1169.843, 190.3398
1170.930, 159.5547
1172.017, 34.76367
1173.103, 36.97461
1174.190, 194.7246
1175.276, 97.91992
1176.363, 150.1133
1177.449, 124.3008
1178.535, 202.4805
1179.620, 113.6523
1180.706, 16.81836
1181.791, 81.94727
1182.877, 6.902344
1183.962, 118.0117
1185.047, 29.86133
1186.131, 53.23242
1187.216, 91.32227
1188.300, 236.3730
1189.385, 60.44922
1190.469, 77.51953
1191.553, 27.58008
1192.637, 151.6367
1193.720, 98.16016
1194.804, 21.20703
1195.887, 123.5781
1196.970, 165.6152
1198.053, 11.47656
1199.136, 11.53906
1200.219, 31.54688
1201.301, 0.5488280
1202.383, 94.55859
1203.465, 422.5664
1204.547, 40.42773
1205.629, 135.4551
1206.711, 112.4395
1207.792, 121.1797
1208.874, 244.0645
1209.955, 101.9453
1211.036, 83.82617
1212.117, 79.29688
1213.198, 72.53125
1214.278, 63.35547
1215.359, 16.17773
1216.439, 477.9902
1217.519, 258.8047
1218.599, 52.38867
1219.678, 70.61523
1220.758, 228.1172
1221.837, 14.15625
1222.917, 52.56055
1223.996, 79.29688
1225.075, 274.8594
1226.153, 144.5898
1227.232, 2.316406
1228.310, 208.0410
1229.389, 102.6582
1230.467, 231.3750
1231.545, 459.0898
1232.622, 153.4121
1233.700, 150.1211
1234.777, 395.8281
1235.855, 113.5859
1236.932, 306.3789
1238.009, 217.1699
1239.086, 260.3789
1240.162, 2.833984
1241.239, 109.6191
1242.315, 209.4043
1243.391, 78.19141
1244.467, 357.9727
1245.543, 189.7539
1246.619, 239.5352
1247.694, 384.9902
1248.769, 368.7793
1249.844, 226.3398
1250.919, 79.12695
1251.994, 60.79883
1253.069, 211.5840
1254.144, 79.36719
1255.218, 0.1503910
1256.292, 313.6719
1257.366, 328.4531
1258.440, 300.2305
1259.514, 253.0117
1260.587, 269.7969
1261.661, 203.5742
1262.734, 308.3555
1263.807, 312.9844
1264.880, 266.5977
1265.952, 73.28125
1267.025, 118.4219
1268.097, 255.1055
1269.170, 296.8906
1270.242, 295.6758
1271.314, 525.4648
1272.385, 371.2539
1273.457, 267.0391
1274.528, 617.6484
1275.600, 578.4375
1276.671, 299.8047
1277.742, 350.6016
1278.812, 157.4023
1279.883, 328.1992
1280.954, 511.8750
1282.024, 283.7188
1283.094, 56.52734
1284.164, 283.2891
1285.234, 160.1016
1286.303, 137.9180
1287.373, 281.7422
1288.442, 108.5664
1289.511, 228.1211
1290.580, 446.8398
1291.649, 102.8984
1292.718, 136.7383
1293.786, 155.5820
1294.855, 175.3164
1295.923, 174.4883
1296.991, 148.2344
1298.059, 311.7695
1299.126, 470.0430
1300.194, 268.9141
1301.261, 357.5938
1302.328, 49.71094
1303.395, 91.16016
1304.462, 587.2227
1305.529, 133.1055
1306.596, 305.9922
1307.662, 368.8867
1308.728, 468.7852
1309.794, 192.4414
1310.860, 415.3555
1311.926, 533.9727
1312.991, 458.9023
1314.057, 331.1328
1315.122, 475.9961
1316.187, 615.9648
1317.252, 559.9492
1318.317, 602.8984
1319.381, 404.8945
1320.446, 617.7383
1321.510, 403.7539
1322.574, 348.7891
1323.638, 627.6602
1324.702, 229.7266
1325.766, 541.8008
1326.829, 605.6602
1327.892, 461.5547
1328.956, 397.5469
1330.019, 434.1328
1331.081, 393.2344
1332.144, 454.3398
1333.206, 341.5273
1334.269, 233.7773
1335.331, 420.9023
1336.393, 215.0391
1337.455, 350.1797
1338.516, 409.3281
1339.578, 483.4883
1340.639, 418.4336
1341.701, 436.6055
1342.762, 432.7891
1343.822, 423.9297
1344.883, 482.1250
1345.944, 333.3359
1347.004, 557.1602
1348.064, 591.8750
1349.124, 485.1133
1350.184, 317.3555
1351.244, 498.6094
1352.304, 491.8789
1353.363, 148.1562
1354.422, 215.4414
1355.481, 302.5938
1356.540, 162.8984
1357.599, 317.2227
1358.657, 290.5547
1359.716, 460.8984
1360.774, 275.2539
1361.832, 535.6211
1362.890, 265.9570
1363.948, 227.3438
1365.006, 394.7422
1366.063, 492.1523
1367.120, 79.60156
1368.178, 387.0234
1369.234, 398.6133
1370.291, 269.1016
1371.348, 307.5938
1372.404, 347.1055
1373.461, 63.57812
1374.517, 103.0664
1375.573, 358.6523
1376.629, 377.1484
1377.684, 427.6562
1378.740, 429.1758
1379.795, 218.6953
1380.850, 424.2305
1381.905, 468.7773
1382.960, 139.3086
1384.015, 92.88281
1385.070, 219.4688
1386.124, 222.0703
1387.178, 483.6875
1388.232, 184.3086
1389.286, 233.9531
1390.340, 242.6055
1391.393, 375.2734
1392.447, 167.9609
1393.500, 320.6641
1394.553, 44.39844
1395.606, 348.1484
1396.659, 187.9141
1397.711, 326.6875
1398.764, 227.4844
1399.816, 355.2969
1400.868, 221.1211
1401.920, 130.9648
1402.972, 299.8203
1404.023, 195.7227
1405.075, 291.6406
1406.126, 135.5742
1407.177, 306.5273
1408.228, 193.4531
1409.279, 247.4102
1410.330, 139.3750
1411.380, 272.3633
1412.431, 83.36328
1413.481, 153.3828
1414.531, 213.3867
1415.580, 18.41406
1416.630, 269.4570
1417.680, 169.4609
1418.729, 6.609375
