##NAMES=Hedenbergite
##RRUFFID=R060040
##IDEAL CHEMISTRY=CaFe^2+^Si_2_O_6_
##LOCALITY=Rio Marina, Elba, Italy
##OWNER=RRUFF
##SOURCE=University of Arizona Mineral Museum
##DESCRIPTION=Radial aggregate of green thin bladed crystals
##STATUS=The identification of this mineral has been confirmed by X-ray diffraction and chemical analysis
##URL=rruff.info/R060040
##MEASURED CHEMISTRY=Ca_1.00_(Fe^2+^_0.89_Mg_0.09_Mn_0.02_)_Î£=1_Si_2.00_O_6_
##PIN_ID=M00548
##ORIENTATION=Laser parallel to c* (0 0 1). Fiducial mark perpendicular to laser is parallel to a [1 0 0]
262.4900, 0.0000000E+00
263.7050, 9.589844
264.9210, 51.05566
266.1360, 26.43164
267.3520, 11.77734
268.5670, 64.70020
269.7820, 51.07422
270.9960, 243.5088
272.2110, 395.7109
273.4250, 435.1953
274.6400, 467.8066
275.8540, 479.9209
277.0680, 472.3857
278.2810, 379.0137
279.4950, 400.6943
280.7090, 378.3350
281.9220, 405.5859
283.1350, 454.7451
284.3480, 521.1494
285.5610, 372.5723
286.7730, 502.8340
287.9860, 540.8350
289.1980, 616.5557
290.4100, 493.9170
291.6220, 838.7988
292.8340, 782.0928
294.0460, 970.7080
295.2570, 1063.576
296.4690, 1091.639
297.6800, 1228.847
298.8910, 1503.388
300.1020, 1382.591
301.3120, 1589.329
302.5230, 1833.042
303.7330, 1965.478
304.9440, 2127.112
306.1540, 2192.541
307.3630, 2321.734
308.5730, 2289.648
309.7830, 2154.522
310.9920, 1994.253
312.2010, 2034.264
313.4100, 1634.525
314.6190, 1572.565
315.8280, 1250.682
317.0370, 1281.707
318.2450, 1440.444
319.4530, 1213.913
320.6610, 1385.073
321.8690, 1473.939
323.0770, 1581.525
324.2850, 1533.859
325.4920, 1779.953
326.6990, 1929.812
327.9060, 2145.444
329.1130, 2124.855
330.3200, 2330.055
331.5270, 2694.055
332.7330, 2768.857
333.9390, 2923.615
335.1450, 2797.132
336.3510, 3080.207
337.5570, 3026.662
338.7630, 3348.688
339.9680, 3089.383
341.1740, 2995.951
342.3790, 2858.983
343.5840, 2251.993
344.7890, 2191.781
345.9930, 1962.351
347.1980, 1589.665
348.4020, 1272.186
349.6060, 1144.094
350.8100, 1051.568
352.0140, 854.0615
353.2180, 768.8926
354.4210, 889.6426
355.6250, 686.8760
356.8280, 713.8203
358.0310, 699.7402
359.2340, 862.7842
360.4360, 928.9092
361.6390, 882.8516
362.8410, 1149.703
364.0430, 1392.306
365.2450, 1655.434
366.4470, 1970.851
367.6490, 2305.594
368.8510, 2525.729
370.0520, 2950.209
371.2530, 3305.726
372.4540, 3669.577
373.6550, 3825.397
374.8560, 3984.842
376.0560, 3922.074
377.2570, 3808.963
378.4570, 3294.754
379.6570, 3126.522
380.8570, 2374.270
382.0570, 2211.992
383.2560, 1732.777
384.4560, 1440.557
385.6550, 1272.211
386.8540, 942.9365
388.0530, 848.8857
389.2520, 612.7197
390.4510, 577.2168
391.6490, 418.6836
392.8470, 286.3828
394.0450, 369.7852
395.2430, 267.1582
396.4410, 132.5000
397.6390, 194.9678
398.8360, 224.2500
400.0340, 189.5010
401.2310, 197.7227
402.4280, 158.9170
403.6250, 25.91797
404.8210, 94.21875
406.0180, 135.2998
407.2140, 80.79102
408.4100, 6.884766
409.6060, 40.64062
410.8020, 23.86621
411.9980, 47.98730
413.1930, 60.80273
414.3890, 88.51660
415.5840, 151.0352
416.7790, 329.5303
417.9740, 0.7167970
419.1680, 29.01660
420.3630, 34.12207
421.5570, 17.31055
422.7510, 87.27734
423.9450, 78.48730
425.1390, 49.86230
426.3330, 48.44336
427.5270, 60.56445
428.7200, 97.09180
429.9130, 20.91406
431.1060, 79.65723
432.2990, 218.4180
433.4920, 263.1758
434.6840, 6.219727
435.8770, 119.5459
437.0690, 264.5605
438.2610, 197.7197
439.4530, 219.5488
440.6450, 222.5225
441.8360, 227.5244
443.0280, 140.9736
444.2190, 234.5020
445.4100, 158.8809
446.6010, 186.3623
447.7920, 25.98535
448.9820, 76.24707
450.1730, 134.4287
451.3630, 96.56738
452.5530, 106.8184
453.7430, 142.8672
454.9330, 14.08789
456.1230, 167.0381
457.3120, 130.0615
458.5010, 162.7383
459.6910, 46.48535
460.8800, 61.17578
462.0680, 25.18750
463.2570, 120.3760
464.4460, 160.1113
465.6340, 31.70703
466.8220, 116.3760
468.0100, 7.870117
469.1980, 116.9473
470.3860, 104.1436
471.5730, 164.1885
472.7600, 23.81055
473.9480, 23.12402
475.1350, 24.00391
476.3210, 194.8291
477.5080, 134.5859
478.6950, 137.2998
479.8810, 166.9277
481.0670, 200.4521
482.2530, 145.8936
483.4390, 109.0312
484.6250, 117.1133
485.8100, 181.1484
486.9960, 202.0391
488.1810, 316.8574
489.3660, 264.5996
490.5510, 510.3018
491.7360, 447.9775
492.9200, 390.6016
494.1050, 514.1992
495.2890, 513.7852
496.4730, 422.3447
497.6570, 464.8857
498.8400, 501.3652
500.0240, 343.8105
501.2070, 335.2227
502.3910, 273.5889
503.5740, 335.8525
504.7570, 271.0791
505.9400, 184.2500
507.1220, 196.3047
508.3050, 269.2285
509.4870, 358.0713
510.6690, 216.9004
511.8510, 314.6865
513.0330, 472.4727
514.2140, 234.2314
515.3960, 436.9854
516.5770, 375.7715
517.7580, 375.5283
518.9390, 520.2627
520.1200, 428.9766
521.3010, 244.6699
522.4810, 586.3398
523.6610, 370.9893
524.8420, 428.6318
526.0220, 329.2559
527.2010, 374.8867
528.3810, 389.4932
529.5610, 443.0811
530.7400, 271.6455
531.9190, 404.2080
533.0980, 443.7559
534.2770, 337.2812
535.4560, 456.7852
536.6340, 514.2686
537.8120, 371.7295
538.9910, 437.1836
540.1690, 416.6494
541.3460, 564.1172
542.5240, 498.5635
543.7020, 760.9932
544.8790, 683.4014
546.0560, 920.7568
547.2330, 1008.097
548.4100, 1148.441
549.5870, 1358.672
550.7630, 1474.936
551.9400, 1635.174
553.1160, 1461.652
554.2920, 1446.303
555.4680, 1404.121
556.6440, 1105.174
557.8190, 794.1162
558.9950, 754.8643
560.1700, 581.1611
561.3450, 560.6719
562.5200, 463.1973
563.6950, 395.6436
564.8690, 289.0566
566.0440, 477.0518
567.2180, 380.4961
568.3920, 208.0664
569.5660, 290.1328
570.7400, 210.8564
571.9130, 226.7900
573.0870, 220.1631
574.2600, 217.8330
575.4330, 361.8613
576.6060, 209.2432
577.7790, 144.9043
578.9520, 108.5596
580.1240, 178.5654
581.2960, 138.6572
582.4690, 127.2324
583.6410, 284.9766
584.8120, 226.3633
585.9840, 285.9941
587.1560, 56.41895
588.3270, 166.6768
589.4980, 250.5283
590.6690, 253.5771
591.8400, 270.4619
593.0110, 213.4150
594.1810, 355.9404
595.3510, 200.6641
596.5220, 323.3789
597.6920, 348.3184
598.8610, 370.5039
600.0310, 395.6387
601.2010, 374.3135
602.3700, 323.4307
603.5390, 477.0176
604.7080, 288.2441
605.8770, 296.8887
607.0460, 345.5176
608.2140, 364.2637
609.3830, 436.2188
610.5510, 457.5332
611.7190, 588.3164
612.8870, 338.4883
614.0550, 500.2031
615.2220, 526.6055
616.3900, 480.9883
617.5570, 612.1387
618.7240, 385.9434
619.8910, 541.7246
621.0580, 486.6504
622.2240, 708.6836
623.3910, 592.4199
624.5570, 625.7598
625.7230, 915.2051
626.8890, 837.0527
628.0550, 710.1523
629.2200, 949.3145
630.3860, 1061.395
631.5510, 1000.807
632.7160, 1044.895
633.8810, 1376.963
635.0460, 1336.502
636.2100, 1286.127
637.3750, 1299.162
638.5390, 1888.180
639.7030, 1768.264
640.8670, 1883.443
642.0310, 2211.025
643.1950, 2495.230
644.3580, 2612.441
645.5210, 3222.473
646.6850, 3726.855
647.8480, 4210.424
649.0100, 4939.156
650.1730, 5691.469
651.3350, 6872.959
652.4980, 8279.340
653.6600, 9693.416
654.8220, 11585.20
655.9840, 13510.16
657.1450, 15496.06
658.3070, 17213.04
659.4680, 18204.83
660.6300, 18077.70
661.7910, 17289.26
662.9510, 15500.88
664.1120, 13006.23
665.2730, 10918.22
666.4330, 8909.549
667.5930, 7295.494
668.7530, 5786.406
669.9130, 4619.316
671.0730, 3644.154
672.2320, 3108.025
673.3920, 2620.330
674.5510, 2040.764
675.7100, 1832.375
676.8690, 1630.559
678.0280, 1341.133
679.1860, 1138.004
680.3450, 1069.711
681.5030, 1027.809
682.6610, 775.0703
683.8190, 597.0996
684.9770, 510.3574
686.1340, 585.4570
687.2920, 562.4238
688.4490, 477.3672
689.6060, 297.0117
690.7630, 398.9102
691.9200, 160.8008
693.0760, 360.0684
694.2330, 208.3438
695.3890, 291.2148
696.5450, 219.1758
697.7010, 195.0449
698.8570, 266.9824
700.0130, 311.6562
701.1680, 352.5547
702.3230, 91.42969
703.4780, 257.3066
704.6330, 184.1680
705.7880, 246.0332
706.9430, 303.8770
708.0970, 127.5215
709.2520, 167.3652
710.4060, 92.01367
711.5600, 258.7109
712.7140, 317.3555
713.8670, 113.9668
715.0210, 29.31055
716.1740, 132.1875
717.3270, 175.3926
718.4800, 81.40430
719.6330, 56.69531
720.7860, 16.78906
721.9380, 114.8008
723.0910, 142.3145
724.2430, 123.6895
725.3950, 127.1523
726.5470, 179.4473
727.6980, 12.50195
728.8500, 58.88672
730.0010, 16.25391
731.1530, 100.5898
732.3040, 20.74414
733.4550, 17.02930
734.6050, 60.07422
735.7560, 141.3164
736.9060, 149.5391
738.0560, 67.78711
739.2060, 68.01367
740.3560, 46.22070
741.5060, 112.4082
742.6560, 215.5957
743.8050, 215.7656
744.9540, 273.9785
746.1030, 1.193359
747.2520, 347.4238
748.4010, 125.6504
749.5500, 388.9082
750.6980, 227.1445
751.8460, 216.3652
752.9950, 362.5938
754.1420, 357.8164
755.2900, 474.0312
756.4380, 182.2305
757.5850, 307.4121
758.7330, 255.5781
759.8800, 314.7246
761.0270, 323.8555
762.1730, 290.9707
763.3200, 166.0703
764.4670, 169.1562
765.6130, 122.2246
766.7590, 232.2773
767.9050, 202.3086
769.0510, 102.3262
770.1960, 201.3223
771.3420, 289.2988
772.4870, 34.74023
773.6320, 29.17188
774.7770, 11.93750
775.9220, 156.9141
777.0670, 134.7480
778.2110, 105.5645
779.3560, 16.36328
780.5000, 69.13867
781.6440, 77.89453
782.7880, 33.36914
783.9320, 154.3203
785.0750, 114.9961
786.2180, 110.3438
787.3620, 38.76562
788.5050, 111.2402
789.6480, 136.7969
790.7900, 60.54688
791.9330, 69.12891
793.0750, 211.8672
794.2170, 80.25781
795.3590, 57.36719
796.5010, 93.45703
797.6430, 68.52930
798.7850, 75.58398
799.9260, 115.6230
801.0670, 48.35156
802.2080, 12.62500
803.3490, 97.42188
804.4900, 14.01758
805.6310, 13.87891
806.7710, 9.722656
807.9110, 61.45312
809.0510, 12.68359
810.1910, 130.0566
811.3310, 91.78320
812.4710, 42.49609
813.6100, 164.1914
814.7490, 44.12500
815.8880, 113.4883
817.0270, 79.92969
818.1660, 128.5664
819.3050, 10.94922
820.4430, 137.5078
821.5820, 66.95508
822.7200, 101.3887
823.8580, 192.8105
824.9950, 223.2188
826.1330, 38.38281
827.2710, 193.9785
828.4080, 194.3301
829.5450, 24.41602
830.6820, 19.74219
831.8190, 159.0039
832.9560, 85.30273
834.0920, 419.5918
835.2280, 162.7754
836.3650, 7.960938
837.5010, 398.2852
838.6360, 331.5215
839.7720, 99.23242
840.9080, 253.4473
842.0430, 254.5273
843.1780, 546.7207
844.3130, 585.9043
845.4480, 606.7285
846.5830, 702.7109
847.7170, 984.3711
848.8520, 920.5176
849.9860, 1352.656
851.1200, 1190.389
852.2540, 1394.680
853.3870, 1689.479
854.5210, 1493.453
855.6540, 1429.031
856.7880, 1174.477
857.9210, 1094.400
859.0540, 1059.109
860.1860, 907.7461
861.3190, 845.7715
862.4510, 774.5078
863.5840, 695.2949
864.7160, 539.6406
865.8480, 513.2617
866.9790, 454.8203
868.1110, 282.9199
869.2420, 426.4805
870.3740, 509.5957
871.5050, 535.9961
872.6360, 334.4160
873.7660, 427.6562
874.8970, 402.4395
876.0280, 372.3633
877.1580, 506.6836
878.2880, 338.1797
879.4180, 470.5059
880.5480, 482.8672
881.6770, 550.0996
882.8070, 496.9805
883.9360, 482.0430
885.0650, 585.7637
886.1940, 623.8867
887.3230, 585.4727
888.4520, 500.4531
889.5800, 568.4316
890.7090, 493.4004
891.8370, 478.4102
892.9650, 518.4121
894.0930, 454.4102
895.2200, 445.4082
896.3480, 619.4004
897.4750, 517.3867
898.6020, 574.4023
899.7290, 713.3691
900.8560, 647.3574
901.9830, 612.1699
903.1090, 547.1992
904.2360, 638.2246
905.3620, 632.9473
906.4880, 764.9727
907.6140, 515.9883
908.7400, 630.5059
909.8650, 474.9102
910.9900, 474.8770
912.1160, 624.8359
913.2410, 540.7012
914.3660, 542.4492
915.4900, 559.7656
916.6150, 421.3574
917.7390, 265.9883
918.8640, 463.7441
919.9880, 399.7637
921.1120, 436.6270
922.2350, 415.5996
923.3590, 402.0938
924.4820, 394.0566
925.6060, 463.4336
926.7290, 390.0996
927.8520, 242.7656
928.9740, 110.4961
930.0970, 103.2617
931.2190, 161.9355
932.3420, 98.76758
933.4640, 114.5000
934.5860, 237.2695
935.7080, 52.21094
936.8290, 45.39453
937.9510, 169.9219
939.0720, 98.91016
940.1930, 303.6113
941.3140, 48.14062
942.4350, 190.6484
943.5560, 50.05859
944.6760, 139.5703
945.7960, 89.63281
946.9170, 129.5391
948.0370, 85.25195
949.1560, 86.36914
950.2760, 307.0762
951.3960, 121.4629
952.5150, 65.00195
953.6340, 147.1348
954.7530, 503.1133
955.8720, 365.3008
956.9910, 338.2402
958.1090, 430.3320
959.2280, 427.5586
960.3460, 272.7910
961.4640, 349.3027
962.5820, 559.5469
963.6990, 305.7949
964.8170, 557.6602
965.9340, 425.5156
967.0510, 503.7812
968.1690, 668.9355
969.2850, 369.2129
970.4020, 398.4961
971.5190, 466.0312
972.6350, 605.3262
973.7510, 621.6309
974.8670, 506.9199
975.9830, 532.2852
977.0990, 650.6602
978.2150, 788.0566
979.3300, 803.4629
980.4450, 963.8750
981.5600, 887.2930
982.6750, 1013.721
983.7900, 989.1543
984.9050, 1108.594
986.0190, 1102.039
987.1340, 1381.510
988.2480, 1378.988
989.3620, 1668.473
990.4750, 1735.969
991.5890, 1947.469
992.7020, 2204.982
993.8160, 2490.504
994.9290, 2794.033
996.0420, 3020.570
997.1550, 3577.113
998.2670, 4340.666
999.3800, 4975.012
1000.492, 5945.590
1001.604, 7154.178
1002.716, 8577.773
1003.828, 10420.38
1004.940, 13165.00
1006.051, 16278.62
1007.163, 19838.26
1008.274, 24814.91
1009.385, 29547.56
1010.496, 33786.09
1011.606, 35889.75
1012.717, 35233.52
1013.827, 31873.21
1014.937, 27030.89
1016.047, 21841.59
1017.157, 17134.30
1018.267, 13168.27
1019.377, 10660.99
1020.486, 8558.752
1021.595, 7310.740
1022.704, 6274.662
1023.813, 5489.412
1024.922, 5243.191
1026.030, 4771.951
1027.139, 4570.932
1028.247, 4228.348
1029.355, 4085.322
1030.463, 3845.102
1031.571, 3550.225
1032.678, 3502.070
1033.786, 3179.711
1034.893, 2695.033
1036.000, 2335.895
1037.107, 2097.707
1038.214, 2130.523
1039.321, 1948.963
1040.427, 1632.803
1041.533, 1408.742
1042.639, 1283.818
1043.745, 1141.670
1044.851, 900.1875
1045.957, 749.0566
1047.062, 1110.389
1048.168, 875.2695
1049.273, 695.1543
1050.378, 651.0508
1051.482, 731.6758
1052.587, 608.5781
1053.692, 662.1562
1054.796, 510.1289
1055.900, 454.6172
1057.004, 609.5508
1058.108, 412.7988
1059.212, 754.9375
1060.315, 484.9941
1061.418, 628.3652
1062.522, 435.5449
1063.625, 425.6953
1064.728, 506.0195
1065.830, 498.1758
1066.933, 401.3320
1068.035, 353.6250
1069.137, 442.8535
1070.239, 343.4277
1071.341, 235.6113
1072.443, 293.2676
1073.545, 433.4863
1074.646, 360.7070
1075.747, 610.9336
1076.848, 362.9980
1077.949, 366.9922
1079.050, 314.2520
1080.150, 551.5098
1081.251, 529.7695
1082.351, 641.0312
1083.451, 503.3066
1084.551, 868.5410
1085.651, 1020.877
1086.750, 1241.369
1087.850, 1057.928
1088.949, 766.2676
1090.048, 560.6094
1091.147, 634.8535
1092.246, 441.1914
1093.345, 371.5293
1094.443, 516.8789
1095.541, 317.2891
1096.639, 259.6348
1097.737, 124.9805
1098.835, 350.3262
1099.933, 103.6719
1101.030, 186.0137
1102.128, 334.3555
1103.225, 299.6914
1104.322, 300.5449
1105.419, 215.8848
1106.515, 215.2207
1107.612, 255.0273
1108.708, 487.5234
1109.804, 319.2969
1110.900, 92.61914
1111.996, 201.9395
1113.092, 248.2578
1114.187, 260.5723
1115.283, 191.8809
1116.378, 306.2305
1117.473, 243.5332
1118.568, 474.8301
1119.662, 188.2246
1120.757, 154.5117
1121.851, 320.7969
1122.946, 139.0762
1124.040, 192.3535
1125.134, 74.62109
1126.227, 54.88867
1127.321, 177.1465
1128.414, 743.4023
1129.508, 241.6504
1130.601, 63.10352
1131.693, 236.1797
1132.786, 242.3789
1133.879, 304.5723
1134.971, 73.99609
1136.064, 97.21680
1137.156, 82.72656
1138.248, 123.9355
1139.339, 205.6758
1140.431, 105.8730
1141.522, 122.9336
1142.614, 70.18359
1143.705, 45.70508
1144.796, 125.3770
1145.887, 84.45312
1146.977, 171.5195
1148.068, 293.5840
1149.158, 8.638672
1150.248, 242.6855
1151.338, 61.74023
1152.428, 10.77344
1153.518, 28.79492
1154.607, 131.3965
1155.696, 150.5957
1156.785, 112.3164
1157.874, 27.33594
1158.963, 0.2363280
1160.052, 32.12500
1161.141, 85.00391
1162.229, 105.1270
1163.317, 70.72461
1164.405, 16.48633
1165.493, 74.69336
1166.581, 72.18359
1167.668, 158.6230
1168.756, 187.9434
1169.843, 11.07617
1170.930, 84.78320
1172.017, 62.38281
1173.103, 35.11133
1174.190, 172.3301
1175.276, 6.431641
1176.363, 193.9473
1177.449, 11.54492
1178.535, 132.1270
1179.620, 169.7012
1180.706, 93.26562
1181.791, 200.1797
1182.877, 12.75000
1183.962, 7.347656
1185.047, 84.02930
1186.131, 20.60352
1187.216, 4.728516
1188.300, 42.04297
1189.385, 78.34570
1190.469, 110.6348
1191.553, 30.91992
1192.637, 92.18945
1193.720, 199.4492
1194.804, 59.69531
1195.887, 173.9336
1196.970, 170.1602
1198.053, 71.37695
1199.136, 86.58398
1200.219, 15.22070
1201.301, 121.9395
1202.383, 245.0898
1203.465, 138.2422
1204.547, 173.3848
1205.629, 160.5117
1206.711, 12.63477
1207.792, 3.267578
1208.874, 154.8066
1209.955, 183.8652
1211.036, 179.9141
1212.117, 209.9551
1213.198, 123.9844
1214.278, 21.00195
1215.359, 384.9766
1216.439, 88.05664
1217.519, 56.83789
1218.599, 205.7188
1219.678, 149.5879
1220.758, 67.55664
1221.837, 227.2363
1222.917, 130.0195
1223.996, 212.7949
1225.075, 95.55664
1226.153, 313.3066
1227.232, 124.0449
1228.310, 235.7676
1229.389, 230.4844
1230.467, 173.1855
1231.545, 274.8750
1232.622, 153.5547
1233.700, 26.22070
1234.777, 269.8730
1235.855, 209.5098
1236.932, 154.8652
1238.009, 72.65039
1239.086, 42.84766
1240.162, 305.6055
1241.239, 336.0449
1242.315, 118.4727
1243.391, 148.8867
1244.467, 181.2930
1245.543, 100.6816
1246.619, 209.0625
1247.694, 207.4316
1248.769, 86.78711
1249.844, 271.1309
1250.919, 162.4609
1251.994, 217.7832
1253.069, 225.0898
1254.144, 314.3848
1255.218, 448.6699
1256.292, 163.9434
1257.366, 214.2051
1258.440, 271.4570
1259.514, 264.7031
1260.587, 88.16211
1261.661, 148.3828
1262.734, 141.5957
1263.807, 67.85547
1264.880, 191.0410
1265.952, 44.22266
1267.025, 228.3867
1268.097, 28.53906
1269.170, 241.6758
1270.242, 168.8008
1271.314, 257.0488
1272.385, 254.1523
1273.457, 324.4863
1274.528, 189.5703
1275.600, 208.6406
1276.671, 293.7051
1277.742, 451.7539
1278.812, 418.5391
1279.883, 98.56836
1280.954, 297.5469
1282.024, 212.2969
1283.094, 0.8906250
1284.164, 166.0859
1285.234, 396.0254
1286.303, 64.98047
1287.373, 151.0156
1288.442, 270.3066
1289.511, 301.0332
1290.580, 569.9512
1291.649, 0.4765630
1292.718, 229.3633
1293.786, 267.4043
1294.855, 392.7598
1295.923, 283.5723
1296.991, 359.4297
1298.059, 170.2812
1299.126, 53.51367
1300.194, 322.3457
1301.261, 271.0723
1302.328, 342.6758
1303.395, 374.5020
1304.462, 474.6660
1305.529, 240.4785
1306.596, 288.8281
1307.662, 447.6250
1308.728, 273.4180
1309.794, 322.1953
1310.860, 76.24219
1311.926, 178.0312
1312.991, 176.1367
1314.057, 308.8438
1315.122, 352.0723
1316.187, 373.8672
1317.252, 552.3828
1318.317, 247.0449
1319.381, 183.7988
1320.446, 349.2578
1321.510, 301.9688
1322.574, 264.7109
1323.638, 372.2715
1324.702, 551.0020
1325.766, 450.7266
1326.829, 77.31250
1327.892, 192.9551
1328.956, 114.2676
1330.019, 262.9648
1331.081, 470.6602
1332.144, 268.3496
1333.206, 349.0332
1334.269, 397.7129
1335.331, 394.5684
1336.393, 452.5000
1337.455, 552.1680
1338.516, 380.8262
1339.578, 273.4863
1340.639, 397.1406
1341.701, 419.7891
1342.762, 527.5098
1343.822, 394.1523
1344.883, 329.6387
1345.944, 162.0547
1347.004, 348.6895
1348.064, 208.3223
1349.124, 261.0488
1350.184, 262.2520
1351.244, 362.8809
1352.304, 363.5078
1353.363, 293.0723
1354.422, 462.6973
1355.481, 516.3203
1356.540, 403.9434
1357.599, 221.5645
1358.657, 351.1875
1359.716, 168.7559
1360.774, 286.3242
1361.832, 323.3809
1362.890, 466.9473
1363.948, 335.5039
1365.006, 221.5879
1366.063, 283.9805
1367.120, 287.0957
1368.178, 361.6523
1369.234, 39.21094
1370.291, 378.7715
1371.348, 65.32422
1372.404, 297.8789
1373.461, 33.38672
1374.517, 336.9414
1375.573, 414.4980
1376.629, 210.9551
1377.684, 472.5156
1378.740, 262.0801
1379.795, 195.6426
1380.850, 138.2070
1381.905, 228.7773
1382.960, 237.3477
1384.015, 21.91992
1385.070, 124.4961
1386.124, 99.82227
1387.178, 195.4004
1388.232, 184.9258
1389.286, 263.5273
1390.340, 167.8672
1391.393, 182.5098
1392.447, 96.53711
1393.500, 126.8203
1394.553, 239.4023
1395.606, 287.4492
1396.659, 227.0371
1397.711, 396.6289
1398.764, 236.2598
1399.816, 43.10352
1400.868, 63.54297
1401.920, 90.18750
1402.972, 424.8379
1404.023, 135.4941
1405.075, 251.1543
1406.126, 191.8203
1407.177, 224.4785
1408.228, 218.1562
1409.279, 5.845703
1410.330, 20.95312
1411.380, 243.6582
1412.431, 260.4141
1413.481, 43.93555
1414.531, 277.8340
1415.580, 168.6152
1416.630, 182.4062
1417.680, 256.2090
1418.729, 158.9980
