##NAMES=Hedenbergite
##RRUFFID=R050030
##IDEAL CHEMISTRY=CaFe^2+^Si_2_O_6_
##LOCALITY=Heroult, Ontario, Canada
##OWNER=RRUFF
##SOURCE=University of Arizona Mineral Museum
##DESCRIPTION=Green fragments
##STATUS=The identification of this mineral has been confirmed by X-ray diffraction and chemical analysis
##URL=rruff.info/R050030
##MEASURED CHEMISTRY=(Ca_.993_Na_.007_)(Fe_.860_Mn_.111_Mg_.029_)(Si_.993_Al_.007_)_2_O_6_
##PIN_ID=M00481
##ORIENTATION=Laser parallel to (-1 0 -1). Fiducial mark perpendicular to laser is parallel to b [0 1 0]
49.184, 0.000
50.590, 0.277
51.996, 37.658
53.401, 55.517
54.807, 67.850
56.212, 49.064
57.617, 96.617
59.021, 89.562
60.426, 90.270
61.830, 97.104
63.234, 86.269
64.637, 100.661
66.041, 79.173
67.444, 49.774
68.847, 83.503
70.250, 88.185
71.652, 184.665
73.054, 283.180
74.456, 352.514
75.858, 367.122
77.260, 373.001
78.661, 453.083
80.062, 447.121
81.463, 525.707
82.863, 443.180
84.264, 433.545
85.664, 352.812
87.064, 261.064
88.463, 72.381
89.863, 81.796
91.262, 13.947
92.661, 23.507
94.059, 27.351
95.458, 5.136
96.856, 3.369
98.254, 9.091
99.652, 39.617
101.049, 11.185
102.446, 38.924
103.843, 135.565
105.240, 145.028
106.637, 195.775
108.033, 261.217
109.429, 170.443
110.825, 360.953
112.220, 398.409
113.616, 410.813
115.011, 326.169
116.406, 356.480
117.800, 309.747
119.195, 394.972
120.589, 515.158
121.983, 624.380
123.377, 638.832
124.770, 614.581
126.163, 552.296
127.556, 495.370
128.949, 382.302
130.342, 290.945
131.734, 269.142
133.126, 228.063
134.518, 219.865
135.909, 246.392
137.301, 237.455
138.692, 244.137
140.083, 255.870
141.473, 211.637
142.864, 200.423
144.254, 207.220
145.644, 171.682
147.034, 184.799
148.423, 193.770
149.812, 206.847
151.201, 165.948
152.590, 124.073
153.979, 213.026
155.367, 141.610
156.755, 112.936
158.143, 82.024
159.530, 160.847
160.918, 51.374
162.305, 138.644
163.692, 154.917
165.078, 138.200
166.465, 190.492
167.851, 237.826
169.237, 286.187
170.623, 317.553
172.008, 442.928
173.393, 630.309
174.778, 840.689
176.163, 944.063
177.548, 1036.432
178.932, 959.795
180.316, 932.153
181.700, 831.501
183.083, 683.843
184.467, 658.177
185.850, 563.505
187.233, 601.821
188.616, 545.122
189.998, 465.410
191.380, 328.687
192.762, 336.960
194.144, 192.228
195.525, 157.493
196.907, 95.753
198.288, 101.010
199.669, 106.262
201.049, 63.511
202.429, 38.755
203.810, 74.995
205.189, 64.231
206.569, 30.460
207.949, 34.677
209.328, 10.019
210.707, 4.073
212.085, 19.752
213.464, 19.594
214.842, 23.469
216.220, 5.041
217.598, 10.835
218.976, 10.814
220.353, 27.989
221.730, 21.572
223.107, 67.905
224.483, 121.039
225.860, 195.945
227.236, 270.613
228.612, 318.059
229.988, 447.222
231.363, 427.245
232.738, 472.010
234.113, 368.377
235.488, 311.818
236.863, 248.993
238.237, 241.183
239.611, 148.367
240.985, 119.281
242.359, 126.080
243.732, 41.836
245.105, 102.569
246.478, 76.280
247.851, 81.979
249.223, 71.666
250.595, 68.341
251.967, 72.194
253.339, 67.751
254.711, 57.321
256.082, 72.763
257.453, 60.161
258.824, 75.010
260.195, 88.077
261.565, 57.721
262.935, 114.424
264.305, 70.069
265.675, 112.573
267.044, 68.153
268.414, 133.208
269.783, 124.204
271.151, 116.232
272.520, 187.767
273.888, 154.513
275.256, 190.791
276.624, 221.351
277.992, 256.188
279.359, 302.855
280.726, 363.588
282.093, 391.323
283.460, 408.168
284.827, 478.920
286.193, 544.656
287.559, 640.340
288.925, 687.009
290.290, 832.662
291.656, 974.456
293.021, 1033.242
294.386, 1229.880
295.750, 1404.537
297.115, 1568.856
298.479, 1849.036
299.843, 2098.152
301.207, 2286.367
302.570, 2482.541
303.933, 2558.745
305.296, 2525.973
306.659, 2273.043
308.022, 2176.196
309.384, 1913.248
310.746, 1630.149
312.108, 1400.101
313.470, 1161.328
314.831, 1025.363
316.193, 864.453
317.554, 789.180
318.914, 713.426
320.275, 682.435
321.635, 646.181
322.995, 634.646
324.355, 618.625
325.715, 623.847
327.074, 644.581
328.434, 677.385
329.792, 723.153
331.151, 773.082
332.510, 854.180
333.868, 986.274
335.226, 1087.366
336.584, 1100.453
337.941, 1115.538
339.299, 1108.618
340.656, 1102.695
342.013, 1000.769
343.370, 1004.839
344.726, 915.906
346.082, 986.969
347.438, 963.029
348.794, 989.085
350.150, 1065.138
351.505, 1111.188
352.860, 1231.536
354.215, 1345.277
355.570, 1517.317
356.924, 1701.354
358.278, 1897.354
359.632, 2245.210
360.986, 2695.809
362.339, 3039.432
363.693, 3755.079
365.046, 4538.546
366.399, 5498.844
367.751, 6542.363
369.104, 7643.838
370.456, 8703.080
371.808, 9492.358
373.159, 9851.438
374.511, 9520.456
375.862, 8948.564
377.213, 7816.695
378.564, 6591.599
379.914, 5411.433
381.265, 4384.035
382.615, 3519.623
383.965, 2880.794
385.315, 2317.895
386.664, 1894.281
388.013, 1547.874
389.362, 1341.721
390.711, 1064.555
392.060, 913.376
393.408, 773.187
394.756, 622.985
396.104, 586.775
397.451, 499.557
398.799, 428.330
400.146, 364.095
401.493, 301.854
402.840, 279.472
404.186, 222.031
405.533, 220.632
406.879, 151.844
408.225, 158.265
409.570, 158.709
410.916, 95.083
412.261, 114.447
413.606, 27.792
414.951, 54.129
416.295, 16.563
417.639, 71.907
418.983, 31.495
420.327, 1.385
421.671, 43.515
423.014, 7.935
424.357, 26.500
425.700, 33.094
427.043, 25.863
428.386, 11.591
429.728, 45.223
431.070, 52.527
432.412, 55.310
433.753, 2.369
435.095, 4.623
436.436, 25.573
437.777, 56.488
439.118, 2.116
440.458, 28.814
441.798, 11.857
443.138, 9.692
444.478, 42.344
445.818, 24.068
447.157, 23.445
448.496, 24.269
449.835, 25.089
451.174, 25.902
452.513, 1.699
453.851, 2.012
455.189, 18.542
456.527, 9.088
457.864, 86.638
459.202, 87.169
460.539, 86.695
461.876, 133.215
463.212, 102.914
464.549, 122.423
465.885, 85.927
467.221, 83.424
468.557, 46.916
469.893, 108.403
471.228, 82.884
472.563, 103.361
473.898, 18.832
475.233, 76.297
476.567, 20.757
477.902, 64.210
479.236, 27.662
480.570, 12.107
481.903, 45.546
483.237, 96.986
484.570, 37.423
485.903, 117.853
487.235, 91.286
488.568, 131.714
489.900, 193.139
491.232, 170.567
492.564, 175.990
493.896, 154.415
495.227, 120.848
496.558, 180.277
497.889, 129.703
499.220, 176.124
500.551, 134.543
501.881, 237.957
503.211, 200.365
504.541, 230.768
505.870, 236.166
507.200, 325.569
508.529, 317.965
509.858, 422.371
511.187, 434.771
512.515, 553.166
513.844, 694.555
515.172, 744.940
516.500, 909.323
517.827, 1084.704
519.155, 1162.078
520.482, 1233.447
521.809, 1259.816
523.136, 1069.180
524.462, 875.560
525.789, 779.938
527.115, 602.325
528.441, 520.709
529.766, 380.089
531.092, 305.465
532.417, 245.843
533.742, 199.219
535.067, 126.592
536.391, 124.966
537.716, 107.343
539.040, 166.722
540.364, 87.101
541.688, 162.478
543.011, 136.855
544.334, 188.229
545.657, 201.601
546.980, 196.968
548.303, 331.330
549.625, 325.686
550.947, 371.035
552.269, 324.379
553.591, 339.717
554.913, 240.049
556.234, 252.375
557.555, 165.694
558.876, 158.008
560.197, 87.315
561.517, 93.617
562.837, 53.913
564.157, 50.204
565.477, 58.489
566.797, 70.769
568.116, 37.045
569.435, 59.315
570.754, 51.036
572.073, 51.842
573.391, 56.910
574.709, 29.085
576.027, 41.100
577.345, 5.340
578.663, 5.592
579.980, 32.692
581.297, 7.622
582.614, 7.284
583.931, 20.738
585.248, 17.051
586.564, 34.875
587.880, 15.736
589.196, 1.268
590.511, 41.254
591.827, 50.272
593.142, 11.616
594.457, 9.084
595.772, 15.864
597.086, 2.234
598.401, 8.376
599.715, 4.141
601.029, 26.827
602.343, 27.504
603.656, 17.968
604.969, 8.357
606.282, 34.254
607.595, 6.903
608.908, 6.550
610.220, 5.808
611.532, 31.667
612.844, 65.129
614.156, 88.716
615.468, 57.258
616.779, 63.093
618.090, 70.922
619.401, 95.746
620.712, 15.563
622.022, 144.374
623.332, 148.178
624.642, 71.977
625.952, 111.770
627.262, 167.454
628.571, 190.236
629.880, 199.012
631.189, 264.782
632.498, 243.303
633.807, 274.060
635.115, 372.580
636.423, 406.928
637.731, 456.468
639.039, 491.938
640.346, 643.682
641.653, 673.434
642.960, 816.003
644.267, 926.394
645.574, 1154.237
646.880, 1400.938
648.186, 1731.492
649.492, 2148.182
650.798, 2735.568
652.103, 3523.377
653.409, 4345.458
654.714, 5495.752
656.019, 6495.541
657.323, 7262.038
658.628, 7623.705
659.932, 7472.346
661.236, 6646.223
662.540, 5791.944
663.843, 4850.021
665.147, 3902.648
666.450, 3268.695
667.753, 2751.322
669.056, 2259.112
670.358, 1906.835
671.660, 1619.600
672.963, 1351.966
674.264, 1233.377
675.566, 1050.970
676.868, 910.538
678.169, 772.849
679.470, 720.395
680.771, 637.655
682.071, 582.538
683.372, 504.139
684.672, 510.658
685.972, 415.170
687.271, 399.675
688.571, 354.127
689.870, 377.618
691.169, 300.103
692.468, 304.580
693.767, 258.051
695.065, 264.515
696.364, 272.972
697.662, 253.421
698.960, 224.865
700.257, 215.301
701.555, 208.730
702.852, 196.152
704.149, 190.567
705.446, 184.975
706.742, 187.377
708.038, 153.772
709.335, 184.160
710.631, 141.541
711.926, 137.916
713.222, 125.284
714.517, 103.645
715.812, 106.000
717.107, 69.349
718.402, 115.691
719.696, 111.962
720.990, 128.212
722.284, 112.490
723.578, 97.807
724.872, 122.982
726.165, 67.246
727.458, 122.468
728.751, 103.687
730.044, 83.923
731.336, 118.036
732.629, 105.195
733.921, 117.173
735.213, 106.574
736.504, 120.261
737.796, 165.509
739.087, 159.334
740.378, 119.898
741.669, 187.565
742.960, 181.671
744.250, 216.357
745.540, 216.316
746.830, 235.419
748.120, 249.945
749.410, 242.892
750.699, 258.868
751.988, 313.870
753.277, 296.381
754.566, 351.346
755.854, 308.187
757.143, 313.225
758.431, 283.123
759.719, 293.688
761.006, 271.891
762.294, 264.986
763.581, 209.965
764.868, 246.940
766.155, 189.319
767.442, 201.398
768.728, 159.599
770.014, 157.798
771.300, 226.981
772.586, 135.174
773.872, 154.365
775.157, 113.552
776.442, 155.551
777.727, 87.733
779.012, 73.911
780.297, 77.087
781.581, 23.260
782.865, 86.429
784.149, 93.597
785.433, 89.761
786.716, 31.923
787.999, 55.083
789.282, 44.241
790.565, 4.603
791.848, 36.544
793.130, 28.690
794.413, 13.166
795.695, 18.966
796.977, 23.094
798.258, 5.778
799.540, 4.340
800.821, 49.455
802.102, 25.433
803.382, 35.660
804.663, 23.248
805.943, 46.175
807.224, 2.130
808.504, 6.091
809.783, 2.939
811.063, 10.035
812.342, 14.982
813.621, 49.997
814.900, 0.010
816.179, 3.018
817.457, 36.977
818.736, 15.005
820.014, 53.015
821.292, 10.934
822.569, 0.119
823.847, 0.824
825.124, 0.236
826.401, 11.300
827.678, 12.373
828.954, 6.545
830.231, 10.462
831.507, 11.623
832.783, 20.284
834.059, 75.810
835.334, 4.946
836.610, 50.086
837.885, 43.745
839.160, 14.576
840.435, 61.407
841.709, 16.762
842.983, 76.059
844.258, 50.880
845.532, 62.700
846.805, 81.520
848.079, 121.339
849.352, 144.158
850.625, 130.977
851.898, 222.795
853.171, 191.614
854.443, 164.432
855.715, 164.251
856.988, 111.069
858.259, 70.888
859.531, 106.706
860.803, 77.526
862.074, 51.345
863.345, 105.166
864.616, 90.997
865.886, 77.828
867.157, 121.666
868.427, 107.504
869.697, 59.350
870.967, 126.204
872.236, 41.058
873.506, 107.914
874.775, 85.771
876.044, 78.629
877.313, 27.489
878.581, 57.355
879.849, 49.614
881.118, 54.099
882.386, 79.981
883.653, 76.864
884.921, 99.750
886.188, 130.637
887.455, 124.532
888.722, 91.433
889.989, 130.347
891.255, 96.271
892.522, 97.199
893.788, 148.136
895.054, 135.096
896.319, 140.059
897.585, 148.025
898.850, 141.005
900.115, 144.455
901.380, 163.177
902.645, 147.036
903.909, 194.060
905.174, 212.096
906.438, 204.137
907.701, 253.182
908.965, 192.231
910.229, 176.282
911.492, 155.347
912.755, 173.420
914.018, 149.885
915.280, 176.585
916.543, 127.675
917.805, 114.768
919.067, 103.488
920.329, 167.970
921.590, 121.080
922.852, 137.192
924.113, 171.306
925.374, 116.426
926.635, 160.548
927.895, 101.672
929.156, 119.803
930.416, 105.929
931.676, 136.061
932.936, 132.195
934.195, 132.304
935.454, 177.444
936.714, 144.585
937.973, 123.729
939.231, 181.876
940.490, 171.025
941.748, 179.176
943.006, 167.679
944.264, 166.835
945.522, 206.995
946.780, 237.018
948.037, 195.156
949.294, 251.326
950.551, 199.831
951.808, 281.880
953.064, 218.068
954.320, 263.401
955.577, 252.594
956.832, 285.089
958.088, 253.157
959.344, 346.953
960.599, 275.531
961.854, 347.612
963.109, 329.984
964.364, 355.182
965.618, 310.403
966.872, 401.386
968.127, 418.522
969.380, 373.300
970.634, 455.526
971.888, 484.329
973.141, 447.551
974.394, 532.607
975.647, 480.727
976.900, 536.805
978.152, 591.277
979.404, 616.705
980.656, 688.948
981.908, 757.215
983.160, 782.737
984.411, 927.023
985.663, 834.594
986.914, 1056.540
988.165, 1185.765
989.415, 1161.084
990.666, 1369.546
991.916, 1525.876
993.166, 1682.258
994.416, 1953.599
995.665, 2225.944
996.915, 2699.297
998.164, 2979.656
999.413, 3613.021
1000.662, 4444.391
1001.911, 5547.767
1003.159, 7080.146
1004.407, 8948.531
1005.655, 11776.925
1006.903, 15955.320
1008.151, 21073.725
1009.398, 26342.139
1010.646, 30170.594
1011.893, 29429.080
1013.139, 26287.521
1014.386, 20878.324
1015.633, 15936.767
1016.879, 12216.380
1018.125, 9454.839
1019.371, 7724.948
1020.616, 6411.898
1021.862, 5580.369
1023.107, 4999.861
1024.352, 4597.414
1025.597, 4288.913
1026.842, 3987.426
1028.086, 3671.083
1029.330, 3385.604
1030.574, 3111.710
1031.818, 2758.040
1033.062, 2416.573
1034.305, 2102.111
1035.548, 1856.680
1036.791, 1622.390
1038.034, 1524.939
1039.277, 1393.493
1040.519, 1350.949
1041.762, 1148.510
1043.004, 1108.140
1044.246, 990.088
1045.487, 940.741
1046.729, 885.317
1047.970, 841.057
1049.211, 784.639
1050.452, 729.312
1051.692, 770.899
1052.933, 615.489
1054.173, 691.130
1055.413, 576.726
1056.653, 571.436
1057.893, 486.073
1059.132, 493.676
1060.371, 544.335
1061.610, 505.037
1062.849, 450.697
1064.088, 497.450
1065.326, 472.686
1066.565, 352.301
1067.803, 412.981
1069.041, 397.601
1070.278, 339.465
1071.516, 368.088
1072.753, 356.797
1073.990, 367.927
1075.227, 390.577
1076.464, 299.250
1077.700, 335.882
1078.936, 272.516
1080.173, 336.173
1081.408, 340.811
1082.644, 299.450
1083.880, 305.091
1085.115, 272.733
1086.350, 268.376
1087.585, 247.021
1088.820, 293.666
1090.054, 242.313
1091.288, 201.961
1092.522, 317.614
1093.756, 316.382
1094.990, 218.037
1096.224, 264.698
1097.457, 203.000
1098.690, 233.663
1099.923, 183.460
1101.156, 237.138
1102.388, 223.807
1103.621, 190.485
1104.853, 198.184
1106.085, 230.871
1107.316, 187.712
1108.548, 178.505
1109.779, 187.212
1111.010, 163.921
1112.241, 138.634
1113.472, 167.385
1114.703, 179.099
1115.933, 175.814
1117.163, 130.652
1118.393, 176.379
1119.623, 139.271
1120.853, 163.014
1122.082, 185.869
1123.311, 206.613
1124.540, 173.464
1125.769, 114.209
1126.997, 197.240
1128.226, 133.185
1129.454, 113.014
1130.682, 108.109
1131.910, 43.914
1133.138, 140.945
1134.365, 85.789
1135.592, 99.564
1136.819, 67.556
1138.046, 6.550
1139.273, 71.438
1140.499, 110.448
1141.725, 30.234
1142.951, 62.085
1144.177, 67.736
1145.403, 40.578
1146.628, 61.434
1147.854, 14.473
1149.079, 27.408
1150.304, 22.346
1151.528, 26.285
1152.753, 27.543
1153.977, 7.209
1155.201, 19.254
1156.425, 22.962
1157.649, 5.102
1158.872, 0.867
1160.096, 64.912
1161.319, 42.162
1162.542, 26.568
1163.764, 22.556
1164.987, 25.165
1166.209, 29.878
1167.431, 27.010
1168.653, 57.715
1169.875, 74.167
1171.097, 7.932
1172.318, 64.606
1173.539, 61.430
1174.760, 17.902
1175.981, 25.848
1177.202, 24.502
1178.422, 11.870
1179.642, 47.877
1180.862, 51.656
1182.082, 22.334
1183.302, 16.856
1184.521, 83.738
1185.740, 38.328
1186.959, 12.052
1188.178, 46.521
1189.397, 16.411
1190.615, 50.977
1191.834, 13.554
1193.052, 67.281
1194.269, 31.031
1195.487, 84.467
1196.705, 14.063
1197.922, 38.552
1199.139, 51.036
1200.356, 28.386
1201.573, 72.071
1202.789, 10.523
1204.006, 29.053
1205.222, 42.495
1206.438, 25.932
1207.653, 16.364
1208.869, 27.819
1210.084, 6.239
1211.299, 4.202
1212.514, 62.201
1213.729, 26.734
1214.944, 77.127
1216.158, 13.461
1217.372, 44.930
1218.586, 23.296
1219.800, 1.208
1221.014, 39.256
1222.227, 34.712
1223.440, 52.081
1224.654, 57.506
1225.866, 40.988
1227.079, 91.504
1228.292, 66.825
1229.504, 63.230
1230.716, 66.541
1231.928, 54.481
1233.139, 63.812
1234.351, 54.472
1235.562, 65.812
1236.773, 82.094
1237.984, 59.369
1239.195, 23.694
1240.406, 89.109
1241.616, 73.354
1242.826, 32.404
1244.036, 56.821
1245.246, 22.043
1246.456, 51.365
1247.665, 103.601
1248.874, 68.808
1250.083, 50.078
1251.292, 71.275
1252.501, 22.521
1253.709, 34.707
1254.917, 83.887
1256.125, 102.091
1257.333, 104.259
1258.541, 48.420
1259.748, 93.649
1260.956, 96.782
1262.163, 30.051
1263.370, 108.169
1264.576, 20.277
1265.783, 72.625
1266.989, 33.717
1268.195, 70.802
1269.401, 36.037
1270.607, 98.094
1271.813, 12.138
1273.018, 19.171
1274.223, 44.196
1275.428, 10.305
1276.633, 51.554
1277.838, 13.603
1279.042, 47.561
1280.246, 66.599
1281.450, 37.458
1282.654, 39.463
1283.858, 20.256
1285.061, 18.159
1286.265, 77.259
1287.468, 50.145
1288.671, 0.173
1289.873, 52.038
1291.076, 48.895
1292.278, 16.792
1293.480, 29.633
1294.682, 28.466
1295.884, 28.397
1297.086, 21.355
1298.287, 29.164
1299.488, 16.962
1300.689, 16.247
1301.890, 7.183
1303.091, 68.258
1304.291, 16.956
1305.491, 28.697
1306.691, 103.068
1307.891, 32.792
1309.091, 88.012
1310.290, 19.720
1311.490, 27.770
1312.689, 56.977
1313.888, 47.340
1315.086, 46.319
1316.285, 102.911
1317.483, 21.447
1318.681, 91.306
1319.879, 43.808
1321.077, 69.416
1322.275, 77.437
1323.472, 35.228
1324.669, 26.810
1325.866, 50.383
1327.063, 20.921
1328.260, 86.313
1329.456, 76.860
1330.653, 57.397
1331.849, 123.029
1333.045, 9.553
1334.240, 54.005
1335.436, 88.133
1336.631, 17.551
1337.826, 23.044
1339.021, 84.437
1340.216, 36.913
1341.411, 101.365
1342.605, 102.829
1343.799, 38.288
1344.993, 107.691
1346.187, 82.111
1347.381, 40.410
1348.574, 121.918
1349.767, 92.318
1350.961, 129.655
1352.153, 54.008
1353.346, 75.335
1354.539, 26.564
1355.731, 114.333
1356.923, 28.692
1358.115, 128.983
1359.307, 55.330
1360.498, 55.429
1361.690, 79.833
1362.881, 28.075
1364.072, 32.892
1365.263, 36.106
1366.453, 55.735
1367.644, 41.036
1368.834, 26.437
1370.024, 18.707
1371.214, 112.995
1372.404, 41.425
1373.593, 71.706
1374.783, 77.885
1375.972, 55.139
1377.161, 102.265
1378.349, 50.482
1379.538, 82.666
1380.726, 77.942
1381.915, 49.213
1383.103, 26.828
1384.290, 115.863
1385.478, 84.414
1386.665, 121.077
1387.853, 126.718
1389.040, 37.221
1390.227, 56.763
1391.413, 93.388
1392.600, 46.959
1393.786, 122.427
1394.972, 50.833
1396.158, 66.281
1397.344, 75.721
1398.530, 56.948
1399.715, 80.172
1400.900, 137.236
1402.085, 46.333
1403.270, 92.044
1404.455, 27.111
1405.639, 101.260
1406.824, 101.533
1408.008, 10.749
1409.192, 72.598
1410.375, 72.537
1411.559, 23.386
1412.742, 148.866
1413.925, 65.354
1415.108, 64.996
1416.291, 80.053
1417.474, 3.967
1418.656, 48.933
1419.839, 36.905
1421.021, 74.098
1422.202, 30.091
1423.384, 83.223
1424.566, 62.948
1425.747, 46.685
1426.928, 77.806
1428.109, 6.870
1429.290, 102.427
1430.470, 15.256
1431.651, 73.135
1432.831, 61.112
1434.011, 40.080
1435.191, 101.219
1436.370, 53.214
1437.550, 2.333
1438.729, 93.395
1439.908, 85.258
1441.087, 79.126
1442.266, 80.145
1443.444, 59.001
1444.623, 63.687
1445.801, 74.542
1446.979, 87.962
1448.157, 51.821
1449.334, 60.832
1450.512, 24.230
1451.689, 61.657
1452.866, 130.525
1454.043, 72.205
1455.220, 105.194
1456.396, 100.934
1457.573, 67.816
1458.749, 100.577
1459.925, 22.342
1461.100, 47.135
1462.276, 109.979
1463.451, 58.667
1464.627, 68.208
1465.802, 107.483
1466.977, 63.351
1468.151, 108.833
1469.326, 53.777
1470.500, 58.929
1471.674, 85.608
1472.848, 58.455
1474.022, 173.548
1475.195, 77.593
1476.369, 114.078
1477.542, 59.714
1478.715, 149.657
1479.888, 39.747
1481.061, 117.001
1482.233, 40.069
1483.405, 72.141
1484.577, 137.226
1485.749, 92.325
1486.921, 91.914
1488.093, 117.816
1489.264, 20.721
1490.435, 160.625
1491.606, 110.955
1492.777, 39.730
1493.948, 138.622
1495.118, 147.542
1496.288, 50.475
1497.459, 167.443
1498.628, 103.411
1499.798, 100.375
1500.968, 153.358
1502.137, 42.881
1503.306, 142.338
1504.475, 119.237
1505.644, 12.441
1506.813, 105.690
1507.981, 121.440
1509.149, 40.823
1510.318, 68.963
1511.485, 130.441
1512.653, 35.032
1513.821, 125.703
1514.988, 59.925
1516.155, 31.525
