##NAMES=Hedenbergite
##RRUFFID=R050030
##IDEAL CHEMISTRY=CaFe^2+^Si_2_O_6_
##LOCALITY=Heroult, Ontario, Canada
##OWNER=RRUFF
##SOURCE=University of Arizona Mineral Museum
##DESCRIPTION=Green fragments
##STATUS=The identification of this mineral has been confirmed by X-ray diffraction and chemical analysis
##URL=rruff.info/R050030
##MEASURED CHEMISTRY=(Ca_.993_Na_.007_)(Fe_.860_Mn_.111_Mg_.029_)(Si_.993_Al_.007_)_2_O_6_
##PIN_ID=M00481
##ORIENTATION=Laser parallel to (-1 0 -1). Fiducial mark perpendicular to laser is parallel to b [0 1 0]
49.184, 0.000
50.590, 132.001
51.996, 221.895
53.401, 190.002
54.807, 234.558
56.212, 306.560
57.617, 313.689
59.021, 393.072
60.426, 427.766
61.830, 472.729
63.234, 441.647
64.637, 349.635
66.041, 229.830
67.444, 125.870
68.847, 19.007
70.250, 10.922
71.652, 21.990
73.054, 74.612
74.456, 65.600
75.858, 183.608
77.260, 233.666
78.661, 191.226
80.062, 132.218
81.463, 109.881
82.863, 245.061
84.264, 317.323
85.664, 372.420
87.064, 483.630
88.463, 437.638
89.863, 612.733
91.262, 734.448
92.661, 696.410
94.059, 804.604
95.458, 769.874
96.856, 682.812
98.254, 687.903
99.652, 620.870
101.049, 322.138
102.446, 242.653
103.843, 225.610
105.240, 182.346
106.637, 244.701
108.033, 213.702
109.429, 265.371
110.825, 347.679
112.220, 484.797
113.616, 490.586
115.011, 345.109
116.406, 290.376
117.800, 356.399
119.195, 420.187
120.589, 583.751
121.983, 713.989
123.377, 817.931
124.770, 767.267
126.163, 735.342
127.556, 631.951
128.949, 505.574
130.342, 347.825
131.734, 267.192
133.126, 263.471
134.518, 136.488
135.909, 211.422
137.301, 190.238
138.692, 208.363
140.083, 171.522
141.473, 144.699
142.864, 143.838
144.254, 141.290
145.644, 184.645
147.034, 136.652
148.423, 170.727
149.812, 205.837
151.201, 189.178
152.590, 227.839
153.979, 244.971
155.367, 333.813
156.755, 351.565
158.143, 459.961
159.530, 581.953
160.918, 739.937
162.305, 1046.906
163.692, 1079.852
165.078, 978.789
166.465, 784.712
167.851, 649.620
169.237, 616.514
170.623, 599.390
172.008, 721.243
173.393, 875.067
174.778, 1046.840
176.163, 1118.545
177.548, 1151.187
178.932, 1081.761
180.316, 961.265
181.700, 874.702
183.083, 846.072
184.467, 797.377
185.850, 824.623
187.233, 756.818
188.616, 654.972
189.998, 587.086
191.380, 469.160
192.762, 396.194
194.144, 282.188
195.525, 228.144
196.907, 145.062
198.288, 62.941
199.669, 79.783
201.049, 108.592
202.429, 34.400
203.810, 32.188
205.189, 28.937
206.569, 36.363
207.949, 16.271
209.328, 41.161
210.707, 4.337
212.085, 59.271
213.464, 49.988
214.842, 56.829
216.220, 16.742
217.598, 9.958
218.976, 30.262
220.353, 46.055
221.730, 52.851
223.107, 228.186
224.483, 263.119
225.860, 455.389
227.236, 631.969
228.612, 904.269
229.988, 1046.422
231.363, 1092.410
232.738, 966.752
234.113, 743.403
235.488, 546.737
236.863, 374.614
238.237, 240.898
239.611, 203.178
240.985, 60.299
242.359, 104.325
243.732, 16.632
245.105, 10.803
246.478, 2.573
247.851, 86.528
249.223, 27.901
250.595, 46.253
251.967, 7.540
253.339, 11.365
254.711, 14.035
256.082, 23.723
257.453, 11.957
258.824, 85.021
260.195, 62.762
261.565, 148.901
262.935, 209.543
264.305, 241.885
265.675, 316.093
267.044, 387.042
268.414, 493.299
269.783, 520.625
271.151, 569.342
272.520, 603.671
273.888, 667.779
275.256, 654.873
276.624, 660.161
277.992, 640.871
279.359, 693.476
280.726, 712.882
282.093, 765.132
283.460, 773.466
284.827, 911.913
286.193, 992.255
287.559, 1122.525
288.925, 1319.640
290.290, 1486.681
291.656, 1766.698
293.021, 2009.497
294.386, 2485.215
295.750, 2951.260
297.115, 3483.743
298.479, 4279.059
299.843, 4807.446
301.207, 5531.357
302.570, 6148.111
303.933, 6307.957
305.296, 6206.523
306.659, 5932.849
308.022, 5507.152
309.384, 4792.413
310.746, 4230.001
312.108, 3588.107
313.470, 3213.395
314.831, 2897.757
316.193, 2609.927
317.554, 2457.300
318.914, 2310.648
320.275, 2290.330
321.635, 2340.061
322.995, 2338.224
324.355, 2504.432
325.715, 2637.621
327.074, 2646.787
328.434, 2649.934
329.792, 2537.061
331.151, 2466.167
332.510, 2252.253
333.868, 2180.319
335.226, 1938.365
336.584, 1811.390
337.941, 1612.396
339.299, 1432.859
340.656, 1291.121
342.013, 1146.005
343.370, 1018.225
344.726, 923.135
346.082, 855.166
347.438, 786.066
348.794, 674.179
350.150, 673.227
351.505, 645.286
352.860, 696.086
354.215, 619.942
355.570, 651.023
356.924, 635.760
358.278, 654.065
359.632, 675.116
360.986, 813.682
362.339, 799.314
363.693, 979.263
365.046, 1110.516
366.399, 1240.745
367.751, 1466.616
369.104, 1743.788
370.456, 1866.575
371.808, 2059.392
373.159, 1982.071
374.511, 2002.616
375.862, 1833.627
377.213, 1601.621
378.564, 1305.467
379.914, 1121.334
381.265, 939.954
382.615, 791.060
383.965, 563.300
385.315, 525.586
386.664, 399.039
388.013, 396.600
389.362, 339.776
390.711, 280.920
392.060, 269.035
393.408, 239.569
394.756, 216.176
396.104, 223.206
397.451, 184.213
398.799, 177.210
400.146, 150.061
401.493, 118.357
402.840, 111.477
404.186, 101.930
405.533, 117.242
406.879, 93.090
408.225, 126.291
409.570, 104.000
410.916, 109.431
412.261, 30.532
413.606, 15.500
414.951, 43.094
416.295, 7.808
417.639, 18.414
418.983, 8.834
420.327, 7.549
421.671, 1.614
423.014, 16.450
424.357, 4.904
425.700, 16.839
427.043, 26.015
428.386, 9.164
429.728, 21.411
431.070, 21.987
432.412, 17.621
433.753, 9.732
435.095, 17.066
436.436, 71.382
437.777, 66.680
439.118, 7.960
440.458, 21.218
441.798, 10.456
443.138, 3.326
444.478, 14.872
445.818, 13.051
447.157, 27.209
448.496, 31.990
449.835, 53.469
451.174, 52.573
452.513, 39.658
453.851, 71.727
455.189, 63.779
456.527, 149.815
457.864, 262.840
459.202, 283.854
460.539, 426.861
461.876, 526.861
463.212, 554.856
464.549, 622.844
465.885, 549.829
467.221, 509.809
468.557, 364.788
469.893, 291.764
471.228, 226.738
472.563, 204.706
473.898, 153.851
475.233, 113.633
476.567, 112.592
477.902, 86.546
479.236, 108.496
480.570, 96.444
481.903, 169.387
483.237, 230.336
484.570, 247.293
485.903, 358.248
487.235, 472.218
488.568, 617.203
489.900, 775.194
491.232, 788.182
492.564, 877.161
493.896, 849.148
495.227, 618.128
496.558, 504.108
497.889, 423.088
499.220, 263.060
500.551, 134.032
501.881, 149.008
503.211, 102.978
504.541, 97.955
505.870, 36.934
507.200, 62.907
508.529, 6.875
509.858, 16.845
511.187, 73.192
512.515, 24.265
513.844, 26.336
515.172, 2.410
516.500, 22.507
517.827, 8.417
519.155, 11.322
520.482, 21.222
521.809, 64.120
523.136, 31.020
524.462, 16.920
525.789, 50.822
527.115, 17.271
528.441, 38.634
529.766, 83.542
531.092, 57.469
532.417, 8.402
533.742, 4.354
535.067, 15.689
536.391, 46.287
537.716, 3.716
539.040, 37.303
540.364, 30.327
541.688, 114.357
543.011, 93.405
544.334, 125.456
545.657, 143.510
546.980, 191.562
548.303, 223.160
549.625, 303.658
550.947, 294.699
552.269, 254.736
553.591, 266.768
554.913, 189.796
556.234, 172.819
557.555, 197.731
558.876, 121.615
560.197, 52.390
561.517, 73.038
562.837, 90.662
564.157, 60.258
565.477, 57.927
566.797, 49.526
568.116, 29.290
569.435, 72.984
570.754, 44.766
572.073, 18.253
573.391, 10.310
574.709, 40.257
576.027, 35.455
577.345, 15.294
578.663, 42.492
579.980, 17.748
581.297, 51.226
582.614, 13.201
583.931, 58.568
585.248, 9.861
586.564, 32.752
587.880, 26.300
589.196, 76.123
590.511, 14.735
591.827, 87.715
593.142, 80.285
594.457, 64.892
595.772, 120.731
597.086, 109.555
598.401, 97.140
599.715, 140.785
601.029, 157.391
602.343, 126.879
603.656, 174.515
604.969, 236.148
606.282, 223.847
607.595, 262.572
608.908, 261.393
610.220, 273.215
611.532, 293.990
612.844, 384.905
614.156, 368.792
615.468, 410.924
616.779, 483.054
618.090, 440.185
619.401, 627.315
620.712, 541.538
622.022, 646.677
623.332, 678.635
624.642, 747.799
625.952, 824.885
627.262, 927.104
628.571, 968.811
629.880, 1050.021
631.189, 1230.217
632.498, 1267.691
633.807, 1365.896
635.115, 1623.124
636.423, 1766.332
637.731, 1990.976
639.039, 2239.396
640.346, 2601.133
641.653, 2791.073
642.960, 3371.617
644.267, 3780.962
645.574, 4589.697
646.880, 5429.812
648.186, 6607.057
649.492, 8155.229
650.798, 10136.768
652.103, 12874.891
653.409, 15714.902
654.714, 19464.578
656.019, 22462.688
657.323, 24412.457
658.628, 25103.293
659.932, 23601.398
661.236, 19933.223
662.540, 17243.002
663.843, 13871.618
665.147, 11019.811
666.450, 9220.645
667.753, 7328.577
669.056, 6066.534
670.358, 4844.577
671.660, 4218.444
672.963, 3383.533
674.264, 2909.507
675.566, 2451.403
676.868, 2081.277
678.169, 1804.209
679.470, 1574.290
680.771, 1318.313
682.071, 1200.708
683.372, 1058.959
684.672, 877.326
685.972, 812.326
687.271, 764.381
688.571, 662.433
689.870, 638.311
691.169, 530.172
692.468, 509.600
693.767, 423.638
695.065, 470.407
696.364, 378.410
697.662, 378.384
698.960, 304.413
700.257, 302.438
701.555, 285.461
702.852, 311.481
704.149, 223.497
705.446, 218.510
706.742, 154.520
708.038, 149.527
709.335, 139.530
710.631, 114.634
711.926, 128.710
713.222, 114.522
714.517, 130.514
715.812, 173.503
717.107, 138.490
718.402, 181.476
719.696, 68.460
720.990, 157.444
722.284, 107.425
723.578, 148.406
724.872, 120.385
726.165, 103.362
727.458, 124.337
728.751, 130.273
730.044, 96.878
731.336, 114.851
732.629, 64.825
733.921, 69.578
735.213, 39.740
736.504, 63.697
737.796, 92.674
739.087, 101.619
740.378, 99.599
741.669, 152.259
742.960, 134.237
744.250, 148.214
745.540, 132.194
746.830, 187.160
748.120, 149.141
749.410, 180.121
750.699, 149.101
751.988, 195.078
753.277, 224.054
754.566, 135.029
755.854, 171.003
757.143, 177.977
758.431, 152.950
759.719, 131.922
761.006, 161.894
762.294, 121.864
763.581, 128.833
764.868, 125.800
766.155, 53.766
767.442, 129.730
768.728, 84.692
770.014, 81.653
771.300, 101.610
772.586, 37.565
773.872, 81.517
775.157, 14.466
776.442, 34.411
777.727, 4.646
779.012, 28.285
780.297, 6.786
781.581, 15.130
782.865, 0.043
784.149, 16.947
785.433, 19.847
786.716, 4.744
787.999, 17.635
789.282, 13.664
790.565, 12.281
791.848, 1.285
793.130, 6.156
794.413, 33.979
795.695, 53.140
796.977, 14.337
798.258, 75.550
799.540, 81.810
800.821, 40.122
802.102, 9.462
803.382, 22.184
804.663, 47.173
805.943, 32.438
807.224, 22.955
808.504, 17.367
809.783, 37.204
811.063, 19.227
812.342, 36.677
813.621, 53.848
814.900, 52.631
816.179, 20.144
817.457, 2.675
818.736, 9.786
820.014, 41.757
821.292, 17.672
822.569, 10.099
823.847, 57.463
825.124, 40.057
826.401, 2.325
827.678, 13.704
828.954, 18.080
830.231, 29.696
831.507, 22.284
832.783, 23.200
834.059, 10.571
835.334, 2.062
836.610, 3.300
837.885, 77.656
839.160, 82.015
840.435, 119.371
841.709, 220.726
842.983, 244.079
844.258, 354.431
845.532, 429.782
846.805, 645.135
848.079, 764.486
849.352, 812.837
850.625, 944.187
851.898, 1006.537
853.171, 824.885
854.443, 799.231
855.715, 647.577
856.988, 489.921
858.259, 449.264
859.531, 317.606
860.803, 363.947
862.074, 265.289
863.345, 256.631
864.616, 223.972
865.886, 182.317
867.157, 157.665
868.427, 226.015
869.697, 177.364
870.967, 221.714
872.236, 107.064
873.506, 181.424
874.775, 147.791
876.044, 140.156
877.313, 150.532
878.581, 206.912
879.849, 241.293
881.118, 196.672
882.386, 192.055
883.653, 204.445
884.921, 186.842
886.188, 191.241
887.455, 174.643
888.722, 188.052
889.989, 215.460
891.255, 272.869
892.522, 299.290
893.788, 212.710
895.054, 289.132
896.319, 246.554
897.585, 297.976
898.850, 246.405
900.115, 292.840
901.380, 375.275
902.645, 227.711
903.909, 327.148
905.174, 324.590
906.438, 331.032
907.701, 360.480
908.965, 332.928
910.229, 309.377
911.492, 249.825
912.755, 373.280
914.018, 313.734
915.280, 320.194
916.543, 274.657
917.805, 237.122
919.067, 282.585
920.329, 281.050
921.590, 309.515
922.852, 277.001
924.113, 296.489
925.374, 283.976
926.635, 306.463
927.895, 276.857
929.156, 314.336
930.416, 297.996
931.676, 251.452
932.936, 342.986
934.195, 314.390
935.454, 330.305
936.714, 305.718
937.973, 341.143
939.231, 335.294
940.490, 405.713
941.748, 386.109
943.006, 423.482
944.264, 378.463
945.522, 397.670
946.780, 460.560
948.037, 394.247
949.294, 499.331
950.551, 361.614
951.808, 502.507
953.064, 502.021
954.320, 470.405
955.577, 502.863
956.832, 559.952
958.088, 543.459
959.344, 549.080
960.599, 548.036
961.854, 619.557
963.109, 637.421
964.364, 682.217
965.618, 651.746
966.872, 680.562
968.127, 755.410
969.380, 732.298
970.634, 826.720
971.888, 883.270
973.141, 820.770
974.394, 909.220
975.647, 917.824
976.900, 965.534
978.152, 1164.779
979.404, 1084.288
980.656, 1224.822
981.908, 1278.396
983.160, 1313.958
984.411, 1587.530
985.663, 1577.056
986.914, 1766.156
988.165, 1873.548
989.415, 2054.149
990.666, 2305.758
991.916, 2575.369
993.166, 2910.985
994.416, 3310.605
995.665, 3728.231
996.915, 4356.862
998.164, 5070.496
999.413, 5965.134
1000.662, 7342.929
1001.911, 9020.632
1003.159, 11388.297
1004.407, 14395.965
1005.655, 18953.637
1006.903, 25511.316
1008.151, 32858.992
1009.398, 40396.684
1010.646, 44824.371
1011.893, 42632.457
1013.139, 36760.398
1014.386, 28118.189
1015.633, 21096.705
1016.879, 15705.538
1018.125, 12173.563
1019.371, 9451.401
1020.616, 7659.408
1021.862, 6477.194
1023.107, 5588.603
1024.352, 4910.784
1025.597, 4435.569
1026.842, 3958.806
1028.086, 3681.568
1029.330, 3351.447
1030.574, 3091.212
1031.818, 2684.633
1033.062, 2573.774
1034.305, 2209.251
1035.548, 2051.314
1036.791, 1869.041
1038.034, 1730.241
1039.277, 1645.037
1040.519, 1514.986
1041.762, 1366.615
1043.004, 1333.402
1044.246, 1300.321
1045.487, 1116.269
1046.729, 1162.062
1047.970, 1023.620
1049.211, 1024.717
1050.452, 945.651
1051.692, 876.706
1052.933, 826.609
1054.173, 732.743
1055.413, 793.544
1056.653, 736.830
1057.893, 633.770
1059.132, 728.575
1060.371, 678.381
1061.610, 609.846
1062.849, 651.653
1064.088, 525.519
1065.326, 609.307
1066.565, 515.207
1067.803, 527.082
1069.041, 542.086
1070.278, 480.896
1071.516, 462.008
1072.753, 465.856
1073.990, 461.793
1075.227, 433.604
1076.464, 486.414
1077.700, 485.273
1078.936, 495.291
1080.173, 442.439
1081.408, 475.625
1082.644, 417.616
1083.880, 380.586
1085.115, 399.430
1086.350, 462.255
1087.585, 439.445
1088.820, 467.271
1090.054, 394.098
1091.288, 380.106
1092.522, 430.932
1093.756, 269.160
1094.990, 326.988
1096.224, 275.827
1097.457, 403.836
1098.690, 321.696
1099.923, 314.577
1101.156, 301.482
1102.388, 260.399
1103.621, 287.320
1104.853, 272.241
1106.085, 279.175
1107.316, 221.262
1108.548, 250.202
1109.779, 218.213
1111.010, 274.212
1112.241, 266.164
1113.472, 201.161
1114.703, 223.123
1115.933, 184.106
1117.163, 180.974
1118.393, 219.001
1119.623, 221.021
1120.853, 256.096
1122.082, 369.089
1123.311, 300.082
1124.540, 275.122
1125.769, 170.140
1126.997, 231.157
1128.226, 97.172
1129.454, 150.185
1130.682, 58.282
1131.910, 66.462
1133.138, 150.762
1134.365, 81.830
1135.592, 91.962
1136.819, 147.631
1138.046, 58.110
1139.273, 75.131
1140.499, 112.449
1141.725, 45.599
1142.951, 70.896
1144.177, 57.146
1145.403, 66.315
1146.628, 48.524
1147.854, 3.470
1149.079, 10.728
1150.304, 29.831
1151.528, 50.165
1152.753, 89.257
1153.977, 74.233
1155.201, 67.618
1156.425, 30.721
1157.649, 50.687
1158.872, 9.353
1160.096, 4.369
1161.319, 10.702
1162.542, 15.187
1163.764, 18.896
1164.987, 4.985
1166.209, 10.018
1167.431, 3.958
1168.653, 26.955
1169.875, 42.042
1171.097, 22.187
1172.318, 31.650
1173.539, 38.358
1174.760, 14.555
1175.981, 13.233
1177.202, 50.015
1178.422, 8.209
1179.642, 19.396
1180.862, 24.426
1182.082, 1.640
1183.302, 11.924
1184.521, 19.188
1185.740, 42.493
1186.959, 7.167
1188.178, 41.167
1189.397, 70.467
1190.615, 17.164
1191.834, 11.447
1193.052, 77.551
1194.269, 22.844
1195.487, 15.261
1196.705, 18.303
1197.922, 1.911
1199.139, 27.458
1200.356, 14.910
1201.573, 71.609
1202.789, 16.878
1204.006, 21.682
1205.222, 74.166
1206.438, 57.642
1207.653, 18.890
1208.869, 63.642
1210.084, 8.919
1211.299, 7.497
1212.514, 35.912
1213.729, 42.350
1214.944, 12.743
1216.158, 60.206
1217.372, 75.418
1218.586, 50.905
1219.800, 30.220
1221.014, 133.526
1222.227, 65.825
1223.440, 50.417
1224.654, 14.699
1225.866, 6.592
1227.079, 5.478
1228.292, 22.745
1229.504, 27.984
1230.716, 59.214
1231.928, 92.850
1233.139, 7.063
1234.351, 89.388
1235.562, 65.586
1236.773, 22.796
1237.984, 97.979
1239.195, 7.155
1240.406, 72.324
1241.616, 106.486
1242.826, 31.643
1244.036, 98.792
1245.246, 103.933
1246.456, 117.067
1247.665, 131.195
1248.874, 71.311
1250.083, 76.419
1251.292, 95.520
1252.501, 34.613
1253.709, 137.698
1254.917, 56.835
1256.125, 59.902
1257.333, 111.245
1258.541, 65.290
1259.748, 94.476
1260.956, 72.500
1262.163, 0.487
1263.370, 102.576
1264.576, 86.547
1265.783, 56.760
1266.989, 137.818
1268.195, 91.756
1269.401, 68.693
1270.607, 124.599
1271.813, 83.480
1273.018, 109.350
1274.223, 105.203
1275.428, 57.047
1276.633, 36.878
1277.838, 27.599
1279.042, 72.409
1280.246, 57.414
1281.450, 11.600
1282.654, 18.375
1283.858, 103.266
1285.061, 28.165
1286.265, 53.964
1287.468, 29.695
1288.671, 34.414
1289.873, 47.133
1291.076, 38.830
1292.278, 4.651
1293.480, 14.696
1294.682, 59.915
1295.884, 26.177
1297.086, 61.266
1298.287, 35.887
1299.488, 47.655
1300.689, 56.254
1301.890, 119.842
1303.091, 92.419
1304.291, 13.403
1305.491, 96.929
1306.691, 47.383
1307.891, 16.896
1309.091, 157.543
1310.290, 63.747
1311.490, 57.130
1312.689, 4.336
1313.888, 58.757
1315.086, 131.552
1316.285, 120.564
1317.483, 45.964
1318.681, 109.903
1319.879, 115.311
1321.077, 95.595
1322.275, 106.982
1323.472, 69.708
1324.669, 31.707
1325.866, 64.366
1327.063, 80.431
1328.260, 69.767
1329.456, 114.601
1330.653, 93.829
1331.849, 140.895
1333.045, 89.272
1334.240, 58.484
1335.436, 64.552
1336.631, 48.582
1337.826, 162.758
1339.021, 92.157
1340.216, 118.009
1341.411, 60.015
1342.605, 90.954
1343.799, 49.972
1344.993, 126.750
1346.187, 96.850
1347.381, 53.457
1348.574, 133.397
1349.767, 110.464
1350.961, 105.519
1352.153, 47.931
1353.346, 134.966
1354.539, 141.936
1355.731, 139.988
1356.923, 58.908
1358.115, 117.848
1359.307, 48.652
1360.498, 101.642
1361.690, 124.325
1362.881, 105.267
1364.072, 98.116
1365.263, 81.089
1366.453, 8.999
1367.644, 96.852
1368.834, 32.536
1370.024, 29.081
1371.214, 127.575
1372.404, 65.263
1373.593, 121.970
1374.783, 3.087
1375.972, 99.693
1377.161, 32.809
1378.349, 96.087
1379.538, 57.127
1380.726, 96.560
1381.915, 116.817
1383.103, 99.219
1384.290, 122.606
1385.478, 88.979
1386.665, 130.168
1387.853, 102.378
1389.040, 76.661
1390.227, 193.957
1391.413, 124.160
1392.600, 67.332
1393.786, 243.574
1394.972, 424.763
1396.158, 94.975
1397.344, 48.069
1398.530, 83.692
1399.715, 11.619
1400.900, 62.366
1402.085, 25.045
1403.270, 71.550
1404.455, 88.045
1405.639, 43.489
1406.824, 94.473
1408.008, 10.776
1409.192, 31.110
1410.375, 68.780
1411.559, 49.727
1412.742, 62.568
1413.925, 69.791
1415.108, 63.255
1416.291, 66.374
1417.474, 97.096
1418.656, 66.595
1419.839, 72.667
1421.021, 52.985
1422.202, 8.301
1423.384, 17.012
1424.566, 71.742
1425.747, 18.502
1426.928, 15.093
1428.109, 34.672
1429.290, 86.445
1430.470, 134.136
1431.651, 45.757
1432.831, 58.425
1434.011, 16.210
1435.191, 17.850
1436.370, 47.646
1437.550, 29.380
1438.729, 152.030
1439.908, 101.854
1441.087, 13.714
1442.266, 154.002
1443.444, 123.608
1444.623, 58.188
1445.801, 121.036
1446.979, 43.051
1448.157, 135.625
1449.334, 120.385
1450.512, 38.163
1451.689, 92.917
1452.866, 96.650
1454.043, 90.360
1455.220, 66.070
1456.396, 75.756
1457.573, 72.630
1458.749, 83.840
1459.925, 76.525
1461.100, 112.173
1462.276, 100.698
1463.451, 92.488
1464.627, 144.189
1465.802, 137.021
1466.977, 79.920
1468.151, 188.849
1469.326, 62.333
1470.500, 96.068
1471.674, 72.128
1472.848, 63.906
1474.022, 108.302
1475.195, 88.644
1476.369, 74.088
1477.542, 69.101
1478.715, 177.361
1479.888, 102.990
1481.061, 93.174
1482.233, 107.251
1483.405, 14.374
1484.577, 117.274
1485.749, 107.283
1486.921, 103.231
1488.093, 124.135
1489.264, 90.999
1490.435, 155.811
1491.606, 127.551
1492.777, 20.169
1493.948, 181.530
1495.118, 108.042
1496.288, 15.424
1497.459, 109.185
1498.628, 62.854
1499.798, 59.597
1500.968, 156.861
1502.137, 95.760
1503.306, 65.809
1504.475, 117.066
1505.644, 68.241
1506.813, 66.679
1507.981, 127.691
