##NAMES=Hedenbergite
##RRUFFID=R050030
##IDEAL CHEMISTRY=CaFe^2+^Si_2_O_6_
##LOCALITY=Heroult, Ontario, Canada
##OWNER=RRUFF
##SOURCE=University of Arizona Mineral Museum
##DESCRIPTION=Green fragments
##STATUS=The identification of this mineral has been confirmed by X-ray diffraction and chemical analysis
##URL=rruff.info/R050030
##MEASURED CHEMISTRY=(Ca_.993_Na_.007_)(Fe_.860_Mn_.111_Mg_.029_)(Si_.993_Al_.007_)_2_O_6_
##PIN_ID=M00284
##ORIENTATION=Laser parallel to -b* (0 -1 0). Fiducial mark perpendicular to laser is parallel to -c [0 0 -1]
87.064, 0.000
88.463, 17.076
89.863, 46.837
91.262, 1.361
92.661, 7.496
94.059, 70.583
95.458, 49.111
96.856, 125.490
98.254, 115.255
99.652, 143.045
101.049, 212.569
102.446, 357.592
103.843, 483.927
105.240, 637.424
106.637, 623.952
108.033, 748.406
109.429, 833.695
110.825, 1156.732
112.220, 1289.444
113.616, 1427.766
115.011, 1510.646
116.406, 1752.037
117.800, 2135.901
119.195, 2632.216
120.589, 3175.949
121.983, 3860.084
123.377, 4009.566
124.770, 4078.372
126.163, 3766.483
127.556, 3170.937
128.949, 2640.680
130.342, 1965.681
131.734, 1708.895
133.126, 1293.311
134.518, 1132.922
135.909, 1049.716
137.301, 1001.686
138.692, 942.823
140.083, 909.119
141.473, 871.570
142.864, 829.457
144.254, 795.904
145.644, 758.836
147.034, 729.886
148.423, 699.073
149.812, 679.429
151.201, 733.174
152.590, 661.775
153.979, 671.428
155.367, 608.739
156.755, 621.586
158.143, 695.530
159.530, 765.564
160.918, 754.685
162.305, 859.887
163.692, 924.167
165.078, 922.522
166.465, 988.243
167.851, 921.109
169.237, 949.640
170.623, 948.287
172.008, 1140.889
173.393, 1237.474
174.778, 1415.052
176.163, 1619.645
177.548, 1621.324
178.932, 1475.114
180.316, 1171.972
181.700, 952.865
183.083, 766.800
184.467, 674.806
185.850, 556.847
187.233, 460.928
188.616, 471.063
189.998, 362.243
191.380, 261.451
192.762, 352.728
194.144, 317.061
195.525, 216.511
196.907, 136.071
198.288, 110.714
199.669, 114.404
201.049, 110.208
202.429, 119.092
203.810, 101.038
205.189, 135.028
206.569, 86.030
207.949, 49.042
209.328, 67.064
210.707, 0.904
212.085, 6.138
213.464, 30.189
214.842, 15.751
216.220, 105.324
217.598, 2.576
218.976, 22.538
220.353, 116.663
221.730, 24.183
223.107, 24.984
224.483, 83.160
225.860, 245.341
227.236, 190.528
228.612, 363.721
229.988, 362.921
231.363, 367.128
232.738, 451.343
234.113, 426.563
235.488, 346.786
236.863, 220.014
238.237, 213.240
239.611, 163.470
240.985, 91.700
242.359, 67.930
243.732, 32.840
245.105, 24.042
246.478, 18.377
247.851, 3.127
249.223, 31.136
250.595, 87.566
251.967, 20.833
253.339, 40.490
254.711, 89.021
256.082, 14.946
257.453, 67.303
258.824, 21.374
260.195, 42.965
261.565, 69.637
262.935, 160.431
264.305, 229.456
265.675, 181.984
267.044, 326.101
268.414, 468.505
269.783, 557.092
271.151, 545.572
272.520, 676.948
273.888, 669.396
275.256, 625.899
276.624, 647.598
277.992, 601.845
279.359, 519.177
280.726, 492.946
282.093, 465.992
283.460, 324.410
284.827, 402.371
286.193, 346.281
287.559, 452.402
288.925, 488.512
290.290, 540.609
291.656, 677.759
293.021, 719.851
294.386, 882.972
295.750, 926.064
297.115, 1248.242
298.479, 1464.331
299.843, 1856.703
301.207, 1989.055
302.570, 2226.494
303.933, 2340.986
305.296, 2510.871
306.659, 2397.725
308.022, 2269.175
309.384, 2110.901
310.746, 1930.110
312.108, 1716.731
313.470, 1563.399
314.831, 1535.898
316.193, 1323.765
317.554, 1421.534
318.914, 1415.001
320.275, 1535.604
321.635, 1713.041
322.995, 1766.295
324.355, 1949.606
325.715, 2197.865
327.074, 2263.129
328.434, 2381.396
329.792, 2361.664
331.151, 2260.929
332.510, 2268.194
333.868, 2016.458
335.226, 1907.720
336.584, 1643.021
337.941, 1587.284
339.299, 1338.550
340.656, 1112.816
342.013, 947.606
343.370, 859.125
344.726, 746.548
346.082, 721.000
347.438, 561.531
348.794, 492.122
350.150, 485.526
351.505, 483.102
352.860, 395.860
354.215, 449.737
355.570, 550.250
356.924, 547.620
358.278, 493.952
359.632, 573.332
360.986, 725.568
362.339, 703.800
363.693, 912.027
365.046, 1088.380
366.399, 1439.594
367.751, 1667.800
369.104, 2093.350
370.456, 2211.645
371.808, 2480.846
373.159, 2678.499
374.511, 2658.780
375.862, 2485.189
377.213, 2278.343
378.564, 1885.689
379.914, 1634.845
381.265, 1296.178
382.615, 1044.296
383.965, 900.507
385.315, 768.421
386.664, 541.513
388.013, 550.731
389.362, 498.804
390.711, 305.867
392.060, 262.921
393.408, 319.966
394.756, 259.001
396.104, 232.027
397.451, 184.042
398.799, 158.887
400.146, 183.129
401.493, 118.229
402.840, 105.299
404.186, 90.507
405.533, 157.267
406.879, 90.145
408.225, 91.185
409.570, 7.134
410.916, 4.379
412.261, 52.054
413.606, 31.960
414.951, 43.856
416.295, 54.551
417.639, 21.669
418.983, 10.046
420.327, 57.805
421.671, 25.991
423.014, 53.855
424.357, 66.087
425.700, 11.078
427.043, 16.887
428.386, 71.988
429.728, 10.916
431.070, 59.794
432.412, 14.883
433.753, 21.240
435.095, 75.457
436.436, 59.085
437.777, 25.024
439.118, 29.357
440.458, 13.496
441.798, 45.758
443.138, 11.289
444.478, 4.804
445.818, 31.299
447.157, 1.025
448.496, 16.636
449.835, 18.125
451.174, 34.283
452.513, 29.676
453.851, 51.055
455.189, 50.585
456.527, 29.228
457.864, 50.083
459.202, 11.616
460.539, 22.667
461.876, 62.066
463.212, 30.854
464.549, 5.314
465.885, 104.532
467.221, 14.541
468.557, 28.595
469.893, 19.632
471.228, 23.353
472.563, 29.379
473.898, 61.451
475.233, 33.416
476.567, 47.736
477.902, 2.060
479.236, 48.827
480.570, 10.422
481.903, 60.303
483.237, 106.011
484.570, 94.727
485.903, 267.424
487.235, 163.104
488.568, 227.804
489.900, 373.491
491.232, 311.181
492.564, 307.853
493.896, 314.508
495.227, 226.148
496.558, 108.796
497.889, 134.434
499.220, 137.068
500.551, 139.699
501.881, 35.314
503.211, 62.905
504.541, 17.476
505.870, 81.017
507.200, 62.539
508.529, 50.040
509.858, 94.534
511.187, 54.011
512.515, 12.465
513.844, 36.889
515.172, 70.301
516.500, 104.691
517.827, 114.018
519.155, 102.411
520.482, 137.741
521.809, 151.049
523.136, 172.782
524.462, 107.632
525.789, 185.894
527.115, 119.135
528.441, 80.354
529.766, 118.551
531.092, 139.726
532.417, 51.879
533.742, 115.008
535.067, 87.114
536.391, 157.197
537.716, 71.260
539.040, 144.299
540.364, 95.317
541.688, 166.312
543.011, 127.462
544.334, 142.413
545.657, 190.601
546.980, 121.511
548.303, 283.396
549.625, 278.261
550.947, 303.479
552.269, 266.693
553.591, 296.493
554.913, 248.409
556.234, 191.165
557.555, 139.202
558.876, 283.068
560.197, 133.758
561.517, 140.000
562.837, 104.643
564.157, 16.587
565.477, 88.234
566.797, 90.620
568.116, 127.138
569.435, 88.888
570.754, 53.554
572.073, 205.314
573.391, 199.253
574.709, 114.674
576.027, 83.617
577.345, 29.322
578.663, 230.750
579.980, 90.192
581.297, 166.494
582.614, 77.973
583.931, 175.613
585.248, 82.712
586.564, 146.401
587.880, 88.590
589.196, 71.479
590.511, 182.234
591.827, 113.146
593.142, 148.201
594.457, 202.223
595.772, 86.222
597.086, 160.054
598.401, 188.363
599.715, 194.624
601.029, 266.456
602.343, 194.028
603.656, 252.243
604.969, 114.941
606.282, 231.689
607.595, 188.233
608.908, 262.834
610.220, 293.414
611.532, 237.320
612.844, 270.100
614.156, 224.251
615.468, 265.846
616.779, 271.042
618.090, 254.919
619.401, 395.645
620.712, 309.416
622.022, 479.730
623.332, 408.923
624.642, 421.071
625.952, 592.795
627.262, 536.241
628.571, 556.300
629.880, 632.097
631.189, 683.449
632.498, 702.821
633.807, 797.154
635.115, 926.920
636.423, 972.299
637.731, 1098.895
639.039, 1235.947
640.346, 1452.462
641.653, 1454.416
642.960, 1840.652
644.267, 2057.194
645.574, 2462.036
646.880, 3039.062
648.186, 3510.188
649.492, 4456.406
650.798, 5493.002
652.103, 6979.516
653.409, 8642.012
654.714, 10609.798
656.019, 12239.222
657.323, 13448.996
658.628, 13565.353
659.932, 12800.813
661.236, 10966.839
662.540, 9571.584
663.843, 7597.684
665.147, 6103.451
666.450, 4782.861
667.753, 3828.926
669.056, 3184.650
670.358, 2389.235
671.660, 1967.906
672.963, 1553.443
674.264, 1499.028
675.566, 1224.913
676.868, 1060.622
678.169, 926.306
679.470, 834.640
680.771, 720.622
682.071, 576.348
683.372, 601.918
684.672, 497.358
685.972, 462.612
687.271, 358.000
688.571, 443.451
689.870, 368.425
691.169, 203.723
692.468, 308.880
693.767, 214.265
695.065, 289.308
696.364, 264.629
697.662, 249.724
698.960, 125.026
700.257, 260.205
701.555, 105.423
702.852, 220.661
704.149, 285.741
705.446, 230.938
706.742, 76.115
708.038, 71.270
709.335, 176.401
710.631, 131.513
711.926, 286.603
713.222, 91.675
714.517, 126.637
715.812, 201.665
717.107, 36.558
718.402, 231.451
719.696, 126.279
720.990, 97.421
722.284, 47.972
723.578, 226.566
724.872, 81.236
726.165, 85.965
727.458, 80.016
728.751, 34.802
730.044, 149.681
731.336, 124.186
732.629, 58.568
733.921, 211.865
735.213, 116.575
736.504, 130.928
737.796, 95.605
739.087, 49.869
740.378, 144.502
741.669, 138.752
742.960, 133.394
744.250, 187.683
745.540, 151.894
746.830, 246.504
748.120, 210.887
749.410, 215.416
750.699, 239.985
751.988, 274.219
753.277, 238.744
754.566, 143.279
755.854, 247.806
757.143, 282.317
758.431, 146.815
759.719, 141.301
761.006, 265.578
762.294, 160.038
763.581, 134.486
764.868, 168.928
766.155, 53.355
767.442, 97.766
768.728, 12.159
770.014, 166.534
771.300, 9.092
772.586, 34.749
773.872, 39.561
775.157, 6.146
776.442, 118.143
777.727, 27.568
779.012, 6.686
780.297, 0.953
781.581, 75.201
782.865, 99.435
784.149, 43.655
785.433, 47.873
786.716, 29.319
787.999, 20.472
789.282, 0.518
790.565, 4.722
791.848, 8.913
793.130, 36.911
794.413, 27.234
795.695, 78.637
796.977, 115.429
798.258, 49.482
799.540, 126.480
800.821, 2.529
802.102, 68.601
803.382, 105.273
804.663, 9.133
805.943, 22.976
807.224, 93.197
808.504, 19.438
809.783, 45.705
811.063, 52.018
812.342, 31.627
813.621, 115.256
814.900, 38.876
816.179, 142.480
817.457, 26.081
818.736, 79.666
820.014, 56.760
821.292, 26.770
822.569, 60.284
823.847, 43.789
825.124, 52.714
826.401, 100.744
827.678, 164.191
828.954, 47.630
830.231, 71.056
831.507, 104.473
832.783, 42.123
834.059, 21.249
835.334, 44.607
836.610, 107.956
837.885, 261.297
839.160, 234.629
840.435, 367.963
841.709, 431.288
842.983, 434.606
844.258, 707.919
845.532, 801.223
846.805, 954.533
848.079, 1357.835
849.352, 1381.131
850.625, 1474.432
851.898, 1577.726
853.171, 1300.834
854.443, 1164.126
855.715, 957.151
856.988, 750.457
858.259, 663.756
859.531, 617.048
860.803, 439.959
862.074, 282.849
863.345, 296.126
864.616, 319.281
865.886, 232.568
867.157, 185.562
868.427, 298.699
869.697, 181.993
870.967, 264.712
872.236, 68.000
873.506, 211.134
874.775, 104.198
876.044, 222.671
877.313, 135.985
878.581, 28.979
879.849, 261.986
881.118, 114.972
882.386, 57.753
883.653, 171.024
884.921, 184.189
886.188, 117.077
887.455, 160.382
888.722, 146.438
889.989, 76.734
891.255, 159.790
892.522, 192.652
893.788, 201.259
895.054, 49.163
896.319, 172.392
897.585, 145.698
898.850, 79.002
900.115, 192.305
901.380, 135.604
902.645, 218.898
903.909, 202.191
905.174, 185.485
906.438, 178.773
907.701, 112.046
908.965, 148.959
910.229, 146.596
911.492, 191.882
912.755, 225.143
914.018, 238.413
915.280, 341.682
916.543, 204.908
917.805, 78.169
919.067, 281.053
920.329, 224.121
921.590, 316.783
922.852, 190.028
924.113, 201.581
925.374, 211.537
926.635, 144.354
927.895, 196.137
929.156, 279.281
930.416, 289.750
931.676, 242.329
932.936, 274.617
934.195, 267.572
935.454, 270.640
936.714, 243.451
937.973, 266.289
939.231, 289.049
940.490, 231.769
941.748, 264.134
943.006, 176.734
944.264, 239.404
945.522, 209.463
946.780, 312.205
948.037, 249.674
949.294, 452.783
950.551, 245.615
951.808, 360.131
953.064, 312.438
954.320, 290.622
955.577, 273.689
956.832, 296.354
958.088, 399.082
959.344, 335.804
960.599, 207.178
961.854, 386.928
963.109, 296.303
964.364, 409.070
965.618, 302.191
966.872, 394.994
968.127, 418.149
969.380, 320.900
970.634, 563.878
971.888, 533.125
973.141, 395.883
974.394, 608.782
975.647, 521.615
976.900, 521.217
978.152, 604.443
979.404, 497.587
980.656, 620.789
981.908, 733.752
983.160, 606.858
984.411, 857.777
985.663, 700.543
986.914, 913.837
988.165, 997.560
989.415, 1010.712
990.666, 1306.297
991.916, 1319.449
993.166, 1553.115
994.416, 1776.773
995.665, 2419.939
996.915, 3236.395
998.164, 2649.559
999.413, 3122.988
1000.662, 4069.596
1001.911, 4752.773
1003.159, 6086.146
1004.407, 7592.139
1005.655, 10225.331
1006.903, 14015.888
1008.151, 18349.287
1009.398, 23452.594
1010.646, 26076.180
1011.893, 25090.689
1013.139, 22844.168
1014.386, 18163.045
1015.633, 14006.260
1016.879, 10773.295
1018.125, 8027.270
1019.371, 6312.174
1020.616, 4986.994
1021.862, 4030.658
1023.107, 3573.979
1024.352, 3123.835
1025.597, 2877.090
1026.842, 2541.059
1028.086, 2415.061
1029.330, 2128.086
1030.574, 1981.948
1031.818, 1665.386
1033.062, 1689.250
1034.305, 1213.139
1035.548, 1246.474
1036.791, 1032.617
1038.034, 1096.315
1039.277, 929.590
1040.519, 872.832
1041.762, 866.259
1043.004, 819.892
1044.246, 808.500
1045.487, 671.984
1046.729, 787.221
1047.970, 671.114
1049.211, 684.747
1050.452, 688.542
1051.692, 632.035
1052.933, 445.813
1054.173, 640.047
1055.413, 573.231
1056.653, 606.859
1057.893, 390.562
1059.132, 583.727
1060.371, 467.911
1061.610, 441.422
1062.849, 464.924
1064.088, 358.710
1065.326, 471.834
1066.565, 335.437
1067.803, 388.822
1069.041, 412.158
1070.278, 335.321
1071.516, 468.729
1072.753, 362.380
1073.990, 365.569
1075.227, 438.648
1076.464, 402.299
1077.700, 395.780
1078.936, 448.877
1080.173, 382.147
1081.408, 455.213
1082.644, 398.271
1083.880, 571.902
1085.115, 645.151
1086.350, 438.267
1087.585, 471.752
1088.820, 344.771
1090.054, 308.595
1091.288, 481.594
1092.522, 425.056
1093.756, 318.594
1094.990, 341.574
1096.224, 295.027
1097.457, 338.008
1098.690, 250.976
1099.923, 234.980
1101.156, 408.126
1102.388, 211.095
1103.621, 304.122
1104.853, 337.086
1106.085, 310.887
1107.316, 244.184
1108.548, 197.137
1109.779, 240.703
1111.010, 323.649
1112.241, 316.644
1113.472, 310.215
1114.703, 313.136
1115.933, 251.712
1117.163, 288.933
1118.393, 211.928
1119.623, 164.787
1120.853, 337.654
1122.082, 260.507
1123.311, 383.780
1124.540, 196.753
1125.769, 99.941
1126.997, 412.755
1128.226, 55.549
1129.454, 240.190
1130.682, 152.952
1131.910, 26.146
1133.138, 169.783
1134.365, 42.503
1135.592, 5.886
1136.819, 309.793
1138.046, 47.473
1139.273, 175.776
1140.499, 29.004
1141.725, 32.344
1142.951, 268.370
1144.177, 58.479
1145.403, 244.258
1146.628, 97.446
1147.854, 59.502
1149.079, 206.159
1150.304, 119.120
1151.528, 47.480
1152.753, 218.170
1153.977, 118.461
1155.201, 124.526
1156.425, 147.383
1157.649, 79.506
1158.872, 16.386
1160.096, 120.286
1161.319, 87.556
1162.542, 186.004
1163.764, 53.580
1164.987, 18.347
1166.209, 18.232
1167.431, 16.272
1168.653, 95.755
1169.875, 164.200
1171.097, 93.707
1172.318, 228.516
1173.539, 41.043
1174.760, 33.028
1175.981, 225.167
1177.202, 67.320
1178.422, 169.036
1179.642, 42.823
1180.862, 64.979
1182.082, 196.999
1183.302, 30.576
1184.521, 110.863
1185.740, 213.859
1186.959, 215.783
1188.178, 177.447
1189.397, 131.012
1190.615, 67.658
1191.834, 134.494
1193.052, 13.266
1194.269, 67.973
1195.487, 130.379
1196.705, 91.979
1197.922, 163.148
1199.139, 95.135
1200.356, 16.256
1201.573, 297.348
1202.789, 129.174
1204.006, 110.496
1205.222, 271.518
1206.438, 22.900
1207.653, 153.871
1208.869, 155.062
1210.084, 85.984
1211.299, 246.879
1212.514, 127.787
1213.729, 178.639
1214.944, 189.467
1216.158, 230.637
1217.372, 171.414
1218.586, 112.561
1219.800, 223.275
1221.014, 313.961
1222.227, 114.990
1223.440, 155.611
1224.654, 246.740
1225.866, 208.811
1227.079, 359.312
1228.292, 269.834
1229.504, 120.242
1230.716, 209.881
1231.928, 242.115
1233.139, 152.385
1234.351, 262.592
1235.562, 73.180
1236.773, 453.332
1237.984, 153.354
1239.195, 133.283
1240.406, 443.170
1241.616, 153.021
1242.826, 302.836
1244.036, 292.596
1245.246, 52.398
1246.456, 232.061
1247.665, 291.689
1248.874, 261.686
1250.083, 371.205
1251.292, 80.715
1252.501, 190.145
1253.709, 309.531
1254.917, 128.996
1256.125, 418.402
1257.333, 267.660
1258.541, 127.674
1259.748, 436.848
1260.956, 355.980
1262.163, 359.051
1263.370, 254.111
1264.576, 313.105
1265.783, 303.939
1266.989, 312.814
1268.195, 181.691
1269.401, 250.467
1270.607, 199.182
1271.813, 300.896
1273.018, 309.518
1274.223, 17.750
1275.428, 397.438
1276.633, 185.922
1277.838, 94.289
1279.042, 313.006
1280.246, 130.924
1281.450, 58.635
1282.654, 276.867
1283.858, 142.619
1285.061, 159.027
1286.265, 126.557
1287.468, 5.953
1288.671, 162.025
1289.873, 246.508
1291.076, 134.182
1292.278, 161.959
1293.480, 3.971
1294.682, 163.514
1295.884, 88.008
1297.086, 5.789
1298.287, 80.760
1299.488, 109.723
1300.689, 125.602
1301.890, 381.484
1303.091, 16.770
1304.291, 29.068
1305.491, 255.979
1306.691, 30.770
1307.891, 93.477
1309.091, 273.469
1310.290, 33.037
1311.490, 246.264
1312.689, 224.770
1313.888, 65.910
1315.086, 203.039
1316.285, 162.123
1317.483, 98.279
1318.681, 207.945
1319.879, 166.971
1321.077, 150.127
1322.275, 246.598
1323.472, 4.883
1324.669, 133.258
1325.866, 161.367
1327.063, 89.480
1328.260, 297.469
1329.456, 35.758
1330.653, 164.072
1331.849, 222.191
1333.045, 10.816
1334.240, 428.656
1335.436, 107.418
1336.631, 95.014
1337.826, 413.506
1339.021, 72.242
1340.216, 199.893
1341.411, 417.801
1342.605, 115.275
1343.799, 383.160
1344.993, 410.873
1346.187, 128.639
1347.381, 235.551
1348.574, 343.658
1349.767, 211.893
1350.961, 358.393
1352.153, 245.689
1353.346, 533.791
1354.539, 370.955
1355.731, 299.043
1356.923, 436.920
1358.115, 464.926
1359.307, 221.959
1360.498, 549.275
1361.690, 214.070
1362.881, 361.109
1364.072, 387.330
1365.263, 221.744
1366.453, 338.162
1367.644, 183.324
1368.834, 63.545
1370.024, 319.248
1371.214, 289.523
1372.404, 383.791
1373.593, 562.639
1374.783, 87.066
1375.972, 310.428
1377.161, 298.213
1378.349, 164.855
1379.538, 258.428
1380.726, 444.479
1381.915, 306.145
1383.103, 539.580
1384.290, 614.029
1385.478, 328.707
1386.665, 568.229
1387.853, 250.729
1389.040, 352.752
1390.227, 476.393
1391.413, 166.330
1392.600, 546.863
1393.786, 258.738
1394.972, 332.432
1396.158, 464.734
1397.344, 237.023
1398.530, 240.426
1399.715, 543.293
1400.900, 106.334
1402.085, 379.793
1403.270, 413.111
1404.455, 294.996
1405.639, 376.527
1406.824, 347.879
1408.008, 28.371
1409.192, 555.062
1410.375, 246.920
1411.559, 254.338
1412.742, 496.340
1413.925, 3.582
1415.108, 398.965
1416.291, 391.641
1417.474, 74.256
1418.656, 476.516
1419.839, 157.033
1421.021, 179.600
1422.202, 422.312
1423.384, 363.674
1424.566, 321.375
1425.747, 513.598
1426.928, 74.195
1428.109, 414.406
1429.290, 535.857
1430.470, 247.848
1431.651, 501.688
1432.831, 380.432
1434.011, 144.457
1435.191, 557.926
1436.370, 223.920
1437.550, 112.424
1438.729, 481.387
1439.908, 144.561
1441.087, 224.057
1442.266, 108.316
1443.444, 12.652
1444.623, 86.307
1445.801, 77.316
1446.979, 0.000
##END=



