##NAMES=Hedenbergite
##RRUFFID=R060040
##IDEAL CHEMISTRY=CaFe^2+^Si_2_O_6_
##LOCALITY=Rio Marina, Elba, Italy
##OWNER=RRUFF
##SOURCE=University of Arizona Mineral Museum
##DESCRIPTION=Radial aggregate of green thin bladed crystals
##STATUS=The identification of this mineral has been confirmed by X-ray diffraction and chemical analysis
##URL=rruff.info/R060040
##MEASURED CHEMISTRY=Ca_1.00_(Fe^2+^_0.89_Mg_0.09_Mn_0.02_)_Î£=1_Si_2.00_O_6_
##PIN_ID=M01578
##ORIENTATION=Laser parallel to (-1 0 -1). Fiducial mark perpendicular to laser is parallel to -b [0 -1 0]
262.4900, 0.0000000E+00
263.7050, 4.712891
264.9210, 129.2559
266.1360, 7.496094
267.3520, 11.63086
268.5670, 242.1963
269.7820, 35.85254
270.9960, 89.54883
272.2110, 208.7021
273.4250, 200.8906
274.6400, 188.8008
275.8540, 242.1797
277.0680, 234.8340
278.2810, 299.5918
279.4950, 396.2969
280.7090, 307.8154
281.9220, 349.0498
283.1350, 451.9893
284.3480, 313.5811
285.5610, 376.7314
286.7730, 430.3848
287.9860, 433.5000
289.1980, 503.0605
290.4100, 493.0508
291.6220, 526.3955
292.8340, 523.0303
294.0460, 785.9004
295.2570, 568.9600
296.4690, 895.1738
297.6800, 866.5557
298.8910, 792.0918
300.1020, 955.7734
301.3120, 944.5879
302.5230, 1117.287
303.7330, 1092.447
304.9440, 1070.558
306.1540, 1389.723
307.3630, 1443.826
308.5730, 1304.108
309.7830, 1318.540
310.9920, 1251.995
312.2010, 1133.585
313.4100, 1139.476
314.6190, 984.6162
315.8280, 932.0918
317.0370, 1075.724
318.2450, 1073.207
319.4530, 971.5439
320.6610, 1152.714
321.8690, 1237.725
323.0770, 1321.591
324.2850, 1341.312
325.4920, 1639.898
326.6990, 1723.357
327.9060, 1724.699
329.1130, 2102.921
330.3200, 1993.028
331.5270, 2177.958
332.7330, 2289.837
333.9390, 2529.401
335.1450, 2640.653
336.3510, 2838.371
337.5570, 2658.960
338.7630, 2874.510
339.9680, 2774.509
341.1740, 2972.315
342.3790, 2481.986
343.5840, 2370.557
344.7890, 1995.096
345.9930, 1801.725
347.1980, 1547.045
348.4020, 1380.896
349.6060, 998.5967
350.8100, 799.6436
352.0140, 921.7773
353.2180, 761.6475
354.4210, 876.2695
355.6250, 626.6318
356.8280, 623.4580
358.0310, 730.7754
359.2340, 736.8652
360.4360, 827.5635
361.6390, 1026.151
362.8410, 1129.323
364.0430, 1155.107
365.2450, 1519.135
366.4470, 1564.173
367.6490, 1726.593
368.8510, 2166.773
370.0520, 2458.044
371.2530, 2941.489
372.4540, 3280.393
373.6550, 3508.732
374.8560, 3648.328
376.0560, 4056.567
377.2570, 3629.943
378.4570, 3644.164
379.6570, 2937.471
380.8570, 2746.737
382.0570, 2398.161
383.2560, 1963.332
384.4560, 1491.488
385.6550, 1203.630
386.8540, 1187.755
388.0530, 818.0342
389.2520, 710.1992
390.4510, 691.2627
391.6490, 586.6543
392.8470, 424.7480
394.0450, 407.7490
395.2430, 174.7783
396.4410, 275.7422
397.6390, 238.7178
398.8360, 1.833984
400.0340, 179.7441
401.2310, 194.6348
402.4280, 249.5381
403.6250, 6.389648
404.8210, 218.2227
406.0180, 25.03418
407.2140, 0.7021480
408.4100, 73.51855
409.6060, 97.92773
410.8020, 3.495117
411.9980, 16.92188
413.1930, 11.74121
414.3890, 39.64941
415.5840, 64.63477
416.7790, 46.68555
417.9740, 99.20996
419.1680, 106.9121
420.3630, 38.07324
421.5570, 255.7334
422.7510, 100.4150
423.9450, 5.413086
425.1390, 161.7725
426.3330, 138.9717
427.5270, 32.32910
428.7200, 40.54688
429.9130, 142.7705
431.1060, 15.99512
432.2990, 21.78125
433.4920, 51.62207
434.6840, 131.8281
435.8770, 83.03125
437.0690, 213.3125
438.2610, 35.75000
439.4530, 92.92773
440.6450, 64.07910
441.8360, 70.60547
443.0280, 164.7598
444.2190, 111.8213
445.4100, 30.72949
446.6010, 121.7695
447.7920, 325.0352
448.9820, 173.2217
450.1730, 54.24121
451.3630, 9.702148
452.5530, 2.751953
453.7430, 62.96875
454.9330, 96.17969
456.1230, 70.60840
457.3120, 60.10547
458.5010, 172.1357
459.6910, 14.18262
460.8800, 103.6484
462.0680, 116.5449
463.2570, 60.55566
464.4460, 36.09180
465.6340, 49.29004
466.8220, 118.2803
468.0100, 24.90820
469.1980, 21.37109
470.3860, 120.0938
471.5730, 149.4658
472.7600, 84.90234
473.9480, 26.24512
475.1350, 120.4453
476.3210, 34.80078
477.5080, 228.0215
478.6950, 149.2129
479.8810, 176.3799
481.0670, 69.51562
482.2530, 250.6240
483.4390, 9.708984
484.6250, 117.7100
485.8100, 207.5615
486.9960, 235.3877
488.1810, 248.1973
489.3660, 157.6758
490.5510, 244.4219
491.7360, 292.5244
492.9200, 304.0791
494.1050, 169.7021
495.2890, 223.7168
496.4730, 202.2002
497.6570, 177.4951
498.8400, 257.8711
500.0240, 144.5391
501.2070, 223.1982
502.3910, 225.1875
503.5740, 262.2061
504.7570, 223.2305
505.9400, 207.6445
507.1220, 267.9971
508.3050, 286.2559
509.4870, 238.2988
510.6690, 277.2207
511.8510, 160.7656
513.0330, 180.5742
514.2140, 259.1768
515.3960, 214.8643
516.5770, 255.0371
517.7580, 263.0400
518.9390, 124.7383
520.1200, 240.8398
521.3010, 184.8105
522.4810, 270.3242
523.6610, 317.2246
524.8420, 327.6074
526.0220, 192.0586
527.2010, 244.8965
528.3810, 222.2305
529.5610, 196.4941
530.7400, 275.8438
531.9190, 161.4648
533.0980, 295.0039
534.2770, 254.8750
535.4560, 341.7324
536.6340, 296.5762
537.8120, 302.4297
538.9910, 199.2695
540.1690, 495.0977
541.3460, 398.4629
542.5240, 323.2617
543.7020, 476.0488
544.8790, 562.8203
546.0560, 696.1875
547.2330, 675.9531
548.4100, 901.4492
549.5870, 934.6895
550.7630, 1106.369
551.9400, 1094.113
553.1160, 1091.615
554.2920, 1049.000
555.4680, 932.3184
556.6440, 719.7520
557.8190, 721.7852
558.9950, 665.2227
560.1700, 562.9961
561.3450, 385.8223
562.5200, 552.1484
563.6950, 274.9629
564.8690, 351.5000
566.0440, 386.0391
567.2180, 274.5547
568.3920, 159.0488
569.5660, 224.3789
570.7400, 268.6016
571.9130, 325.0273
573.0870, 261.9531
574.2600, 148.2539
575.4330, 252.3262
576.6060, 288.0176
577.7790, 174.2383
578.9520, 12.36328
580.1240, 199.2832
581.2960, 18.59180
582.4690, 107.9199
583.6410, 193.8125
584.8120, 127.0840
585.9840, 6.429688
587.1560, 79.66797
588.3270, 130.5488
589.4980, 145.0332
590.6690, 13.94141
591.8400, 70.70898
593.0110, 50.82617
594.1810, 27.10156
595.3510, 109.8027
596.5220, 0.8007810
597.6920, 80.48828
598.8610, 85.55469
600.0310, 125.7266
601.2010, 88.89844
602.3700, 75.50195
603.5390, 138.6875
604.7080, 231.3438
605.8770, 372.6074
607.0460, 244.4336
608.2140, 115.0195
609.3830, 168.1270
610.5510, 183.4121
611.7190, 264.7227
612.8870, 208.0898
614.0550, 293.8926
615.2220, 340.5137
616.3900, 341.9316
617.5570, 207.2188
618.7240, 260.6719
619.8910, 238.4648
621.0580, 213.4219
622.2240, 293.0410
623.3910, 179.2090
624.5570, 255.7891
625.7230, 352.4590
626.8890, 261.0625
628.0550, 474.8359
629.2200, 465.3926
630.3860, 612.5039
631.5510, 561.3438
632.7160, 680.0117
633.8810, 597.1934
635.0460, 658.2227
636.2100, 763.3086
637.3750, 848.3770
638.5390, 986.3711
639.7030, 952.4766
640.8670, 1096.291
642.0310, 1172.701
643.1950, 1495.551
644.3580, 1660.502
645.5210, 1446.436
646.6850, 1927.938
647.8480, 2252.410
649.0100, 2666.736
650.1730, 3056.988
651.3350, 3468.344
652.4980, 4187.609
653.6600, 5008.963
654.8220, 6101.750
655.9840, 6962.521
657.1450, 8344.121
658.3070, 9110.133
659.4680, 10158.54
660.6300, 10333.23
661.7910, 9902.844
662.9510, 9029.814
664.1120, 7845.203
665.2730, 6364.988
666.4330, 5169.928
667.5930, 4358.609
668.7530, 3312.258
669.9130, 2684.766
671.0730, 2332.422
672.2320, 1892.826
673.3920, 1784.311
674.5510, 1541.945
675.7100, 1244.887
676.8690, 931.8281
678.0280, 1004.814
679.1860, 778.4551
680.3450, 743.2988
681.5030, 688.2324
682.6610, 621.7344
683.8190, 513.4102
684.9770, 487.1191
686.1340, 495.2715
687.2920, 426.5840
688.4490, 526.8145
689.6060, 238.6309
690.7630, 431.9551
691.9200, 61.45898
693.0760, 241.6055
694.2330, 225.7324
695.3890, 218.0664
696.5450, 68.07812
697.7010, 201.5566
698.8570, 318.6328
700.0130, 145.7773
701.1680, 226.2012
702.3230, 303.7188
703.4780, 378.2070
704.6330, 169.2422
705.7880, 308.2617
706.9430, 309.2598
708.0970, 147.0898
709.2520, 174.0430
710.4060, 283.9766
711.5600, 257.8887
712.7140, 133.7832
713.8670, 234.4727
715.0210, 105.3340
716.1740, 173.1699
717.3270, 25.90039
718.4800, 178.4395
719.6330, 180.2090
720.7860, 45.97266
721.9380, 209.3262
723.0910, 153.0195
724.2430, 47.41016
725.3950, 356.0938
726.5470, 136.3320
727.6980, 115.7617
728.8500, 37.22656
730.0010, 65.81641
731.1530, 282.9238
732.3040, 178.3301
733.4550, 222.0938
734.6050, 112.3223
735.7560, 109.2891
736.9060, 68.64648
738.0560, 68.39258
739.2060, 63.57422
740.3560, 98.41602
741.5060, 113.4902
742.6560, 220.6426
743.8050, 112.0000
744.9540, 139.3398
746.1030, 129.6816
747.2520, 269.7402
748.4010, 260.0273
749.5500, 247.3438
750.6980, 249.6445
751.8460, 175.9727
752.9950, 218.2871
754.1420, 388.5859
755.2900, 7.908203
756.4380, 394.2090
757.5850, 318.4883
758.7330, 132.7500
759.8800, 124.9961
761.0270, 240.2227
762.1730, 207.4336
763.3200, 122.6328
764.4670, 84.81641
765.6130, 38.97852
766.7590, 86.11914
767.9050, 159.2402
769.0510, 22.34375
770.1960, 44.42383
771.3420, 155.4824
772.4870, 350.5273
773.6320, 195.5508
774.7770, 185.5605
775.9220, 313.5547
777.0670, 147.5332
778.2110, 240.4922
779.3560, 64.43555
780.5000, 24.63672
781.6440, 169.2441
782.7880, 270.1133
783.9320, 27.96289
785.0750, 36.20508
786.2180, 54.57812
787.3620, 68.34180
788.5050, 38.08594
789.6480, 24.81055
790.7900, 53.48438
791.9330, 226.1836
793.0750, 235.8164
794.2170, 152.5645
795.3590, 91.94531
796.5010, 194.4414
797.6430, 60.07812
798.7850, 243.3418
799.9260, 82.74805
801.0670, 8.863281
802.2080, 31.50586
803.3490, 62.80859
804.4900, 129.1074
805.6310, 110.6094
806.7710, 207.5898
807.9110, 122.9316
809.0510, 135.0996
810.1910, 153.2559
811.3310, 111.3984
812.4710, 34.55664
813.6100, 69.33594
814.7490, 17.71094
815.8880, 82.73828
817.0270, 34.75000
818.1660, 14.74414
819.3050, 105.7188
820.4430, 58.67969
821.5820, 45.62695
822.7200, 61.44727
823.8580, 80.57422
824.9950, 163.2324
826.1330, 41.97461
827.2710, 108.7754
828.4080, 60.50977
829.5450, 206.6816
830.6820, 221.3887
831.8190, 83.08398
832.9560, 1.234375
834.0920, 73.09180
835.2280, 126.5078
836.3650, 111.0977
837.5010, 37.46680
838.6360, 10.02539
839.7720, 27.79492
840.9080, 189.3223
842.0430, 218.7363
843.1780, 181.2441
844.3130, 374.7363
845.4480, 519.0254
846.5830, 486.4180
847.7170, 718.8809
848.8520, 900.3281
849.9860, 993.5254
851.1200, 1274.953
852.2540, 1516.010
853.3870, 1604.344
854.5210, 1541.904
855.6540, 1339.248
856.7880, 1088.590
857.9210, 912.3574
859.0540, 666.7324
860.1860, 739.9570
861.3190, 407.7207
862.4510, 556.0762
863.5840, 531.2246
864.7160, 485.2793
865.8480, 404.9492
866.9790, 376.7832
868.1110, 5.099609
869.2420, 279.3906
870.3740, 309.6895
871.5050, 141.6953
872.6360, 329.6895
873.7660, 236.1035
874.8970, 167.9180
876.0280, 403.7051
877.1580, 354.2539
878.2880, 316.2402
879.4180, 377.5273
880.5480, 236.5371
881.6770, 505.6543
882.8070, 254.7246
883.9360, 269.0039
885.0650, 270.2773
886.1940, 362.5410
887.3230, 363.7988
888.4520, 366.0469
889.5800, 394.2871
890.7090, 434.5195
891.8370, 438.7285
892.9650, 272.9453
894.0930, 253.1738
895.2200, 303.2285
896.3480, 251.2441
897.4750, 239.4492
898.6020, 383.6465
899.7290, 435.6367
900.8560, 372.4648
901.9830, 247.1523
903.1090, 271.0312
904.2360, 477.2109
905.3620, 248.7520
906.4880, 403.4414
907.6140, 510.6055
908.7400, 431.8164
909.8650, 272.0195
910.9900, 507.2188
912.1160, 284.4199
913.2410, 384.5391
914.3660, 241.7285
915.4900, 370.4980
916.6150, 343.8086
917.7390, 212.0137
918.8640, 341.2148
919.9880, 240.8223
921.1120, 304.4355
922.2350, 309.1680
923.3590, 95.95703
924.4820, 378.6133
925.6060, 192.1855
926.7290, 29.27344
927.8520, 127.8770
928.9740, 145.0430
930.0970, 103.3652
931.2190, 87.24805
932.3420, 286.4082
933.4640, 179.5566
934.5860, 78.71289
935.7080, 304.5547
936.8290, 89.95703
937.9510, 131.9453
939.0720, 64.76758
940.1930, 125.8672
941.3140, 33.97656
942.4350, 64.82422
943.5560, 95.22461
944.6760, 155.3242
945.7960, 163.4980
946.9170, 39.49805
948.0370, 50.16992
949.1560, 27.81445
950.2760, 53.39648
951.3960, 241.2734
952.5150, 168.9766
953.6340, 230.5938
954.7530, 130.6211
955.8720, 250.4551
956.9910, 182.2344
958.1090, 141.5508
959.2280, 340.6797
960.3460, 29.87695
961.4640, 323.4727
962.5820, 94.53516
963.6990, 167.4004
964.8170, 308.6211
965.9340, 510.8398
967.0510, 274.8340
968.1690, 211.1270
969.2850, 148.9336
970.4020, 280.1230
971.5190, 239.2520
972.6350, 259.0801
973.7510, 19.20312
974.8670, 86.60742
975.9830, 332.8477
977.0990, 278.0918
978.2150, 398.3379
979.3300, 285.5859
980.4450, 497.8320
981.5600, 389.0820
982.6750, 500.3301
983.7900, 448.5801
984.9050, 384.8320
986.0190, 522.0840
987.1340, 652.3379
988.2480, 778.5957
989.3620, 801.8574
990.4750, 868.1211
991.5890, 886.3867
992.7020, 1073.652
993.8160, 1125.926
994.9290, 1242.195
996.0420, 1428.471
997.1550, 1655.822
998.2670, 1821.102
999.3800, 2348.379
1000.492, 2649.664
1001.604, 3086.951
1002.716, 3817.812
1003.828, 4811.350
1004.940, 5917.641
1006.051, 7470.934
1007.163, 9396.389
1008.274, 11655.85
1009.385, 14471.18
1010.496, 17183.50
1011.606, 19022.87
1012.717, 19264.55
1013.827, 17780.70
1014.937, 15345.26
1016.047, 12240.66
1017.157, 9499.875
1018.267, 7529.248
1019.377, 6202.621
1020.486, 4852.994
1021.595, 4115.367
1022.704, 3646.742
1023.813, 3143.117
1024.922, 2961.492
1026.030, 2872.039
1027.139, 2532.441
1028.247, 2353.820
1029.355, 2553.203
1030.463, 2225.586
1031.571, 1984.332
1032.678, 1847.715
1033.786, 2018.264
1034.893, 2237.055
1036.000, 2255.725
1037.107, 1328.133
1038.214, 1214.539
1039.321, 1434.117
1040.427, 945.1035
1041.533, 732.5137
1042.639, 998.9238
1043.745, 801.3340
1044.851, 743.0664
1045.957, 683.4766
1047.062, 686.0859
1048.168, 706.0254
1049.273, 428.4355
1050.378, 597.0059
1051.482, 550.4590
1052.587, 663.8965
1053.692, 510.3223
1054.796, 517.8008
1055.900, 231.4258
1057.004, 217.8652
1058.108, 214.3105
1059.212, 359.7539
1060.315, 290.2012
1061.418, 383.1035
1062.522, 418.3262
1063.625, 347.8301
1064.728, 331.3301
1065.830, 354.8301
1066.933, 399.8711
1068.035, 223.3906
1069.137, 310.6367
1070.239, 395.3242
1071.341, 518.4414
1072.443, 215.9766
1073.545, 215.5098
1074.646, 182.2031
1075.747, 224.6992
1076.848, 385.2617
1077.949, 367.8203
1079.050, 184.3730
1080.150, 318.9434
1081.251, 189.4941
1082.351, 403.0664
1083.451, 431.0234
1084.551, 358.2539
1085.651, 531.0859
1086.750, 515.6543
1087.850, 357.2188
1088.949, 409.7812
1090.048, 442.3418
1091.147, 387.9219
1092.246, 121.5293
1093.345, 208.6348
1094.443, 249.2500
1095.541, 355.8633
1096.639, 326.9531
1097.737, 211.5586
1098.835, 212.1582
1099.933, 171.7949
1101.030, 376.3945
1102.128, 157.0117
1103.225, 121.6250
1104.322, 342.2324
1105.419, 229.9922
1106.515, 209.9746
1107.612, 100.5762
1108.708, 356.1719
1109.804, 68.76172
1110.900, 206.3477
1111.996, 309.9277
1113.092, 237.5020
1114.187, 494.0723
1115.283, 249.6387
1116.378, 506.1973
1117.473, 228.7520
1118.568, 217.3027
1119.662, 209.9004
1120.757, 266.4375
1121.851, 377.9727
1122.946, 314.5000
1124.040, 416.0234
1125.134, 206.5391
1126.227, 249.0508
1127.321, 102.5547
1128.414, 60.05469
1129.508, 108.5488
1130.601, 187.0352
1131.693, 232.5176
1132.786, 180.9941
1133.879, 230.4648
1134.971, 21.92969
1136.064, 166.3867
1137.156, 232.8398
1138.248, 45.28516
1139.339, 49.72266
1140.431, 179.1543
1141.522, 212.5781
1142.614, 280.9980
1143.705, 119.5918
1144.796, 0.7421880
1145.887, 39.08984
1146.977, 80.42969
1148.068, 63.23633
1149.158, 163.0488
1150.248, 194.3242
1151.338, 300.5957
1152.428, 235.9297
1153.518, 116.1855
1154.607, 96.43359
1155.696, 95.67773
1156.785, 49.91406
1157.874, 47.85742
1158.963, 119.3281
1160.052, 123.5039
1161.141, 193.6777
1162.229, 14.84180
1163.317, 178.9922
1164.405, 53.13867
1165.493, 193.8242
1166.581, 33.19141
1167.668, 144.1973
1168.756, 309.1973
1169.843, 56.18555
1170.930, 36.69922
1172.017, 149.6641
1173.103, 252.3809
1174.190, 275.9590
1175.276, 15.72461
1176.363, 99.92578
1177.449, 51.92969
1178.535, 2.765625
1179.620, 170.2676
1180.706, 75.60352
1181.791, 93.74023
1182.877, 96.99609
1183.962, 176.2520
1185.047, 90.87500
1186.131, 56.31445
1187.216, 186.4453
1188.300, 225.3594
1189.385, 120.9961
1190.469, 205.0156
1191.553, 47.58984
1192.637, 4.853516
1193.720, 165.2930
1194.804, 114.5859
1195.887, 285.2246
1196.970, 18.85547
1198.053, 170.4707
1199.136, 3.921875
1200.219, 61.66211
1201.301, 176.7520
1202.383, 201.7188
1203.465, 376.1816
1204.547, 69.63867
1205.629, 78.08398
1206.711, 111.5312
1207.792, 282.9668
1208.874, 294.3984
1209.955, 87.82031
1211.036, 233.2383
1212.117, 257.6465
1213.198, 23.04688
1214.278, 66.56641
1215.359, 60.23438
1216.439, 126.0410
1217.519, 173.3086
1218.599, 349.5684
1219.678, 260.8164
1220.758, 208.0605
1221.837, 151.4863
1222.917, 19.71094
1223.996, 286.9199
1225.075, 306.1250
1226.153, 47.68164
1227.232, 351.4648
1228.310, 210.6035
1229.389, 86.73242
1230.467, 179.8516
1231.545, 198.9648
1232.622, 246.0703
1233.700, 220.1641
1234.777, 57.25000
1235.855, 34.67188
1236.932, 287.3672
1238.009, 190.3965
1239.086, 440.4160
1240.162, 219.4277
1241.239, 306.4316
1242.315, 152.4297
1243.391, 114.4219
1244.467, 374.4004
1245.543, 128.3711
1246.619, 123.3359
1247.694, 90.29102
1248.769, 76.24023
1249.844, 312.1797
1250.919, 322.1133
1251.994, 96.03516
1253.069, 158.9531
1254.144, 259.8613
1255.218, 167.7617
1256.292, 442.6543
1257.366, 154.5371
1258.440, 255.3379
1259.514, 159.2051
1260.587, 339.0664
1261.661, 255.9199
1262.734, 279.7656
1263.807, 83.60547
1264.880, 443.1875
1265.952, 191.0117
1267.025, 271.8281
1268.097, 278.4824
1269.170, 309.1465
1270.242, 535.9414
1271.314, 96.72852
1272.385, 287.5117
1273.457, 227.9688
1274.528, 114.0117
1275.600, 257.5781
1276.671, 434.3066
1277.742, 399.2070
1278.812, 236.9492
1279.883, 165.6875
1280.954, 52.41602
1282.024, 161.1426
1283.094, 261.8613
1284.164, 199.5898
1285.234, 238.2949
1286.303, 213.8281
1287.373, 202.5156
1288.442, 170.2090
1289.511, 193.8926
1290.580, 485.5742
1291.649, 182.8926
1292.718, 157.5645
1293.786, 52.93164
1294.855, 214.3105
1295.923, 140.6719
1296.991, 193.2910
1298.059, 198.9102
1299.126, 230.3535
1300.194, 227.7090
1301.261, 77.31641
1302.328, 94.92188
1303.395, 12.46289
1304.462, 132.8086
1305.529, 48.39844
1306.596, 272.7891
1307.662, 289.8418
1308.728, 12.57422
1309.794, 201.8574
1310.860, 271.4062
1311.926, 392.9668
1312.991, 234.5410
1314.057, 221.0742
1315.122, 192.4668
1316.187, 44.05859
1317.252, 486.6543
1318.317, 492.2480
1319.381, 186.8418
1320.446, 298.9961
1321.510, 307.8301
1322.574, 81.42578
1323.638, 337.0195
1324.702, 325.6777
1325.766, 112.7539
1326.829, 117.3398
1327.892, 153.2031
1328.956, 541.3242
1330.019, 344.3281
1331.081, 265.9141
1332.144, 282.4961
1333.206, 261.9531
1334.269, 139.4414
1335.331, 240.0234
1336.393, 210.6055
1337.455, 226.1875
1338.516, 107.7109
1339.578, 173.2852
1340.639, 275.8594
1341.701, 276.0547
1342.762, 212.9688
1343.822, 273.2852
1344.883, 527.8633
1345.944, 432.4453
1347.004, 273.0273
1348.064, 242.6094
1349.124, 37.80469
1350.184, 219.7734
1351.244, 325.8633
1352.304, 203.4492
1353.363, 150.0391
1354.422, 32.40234
1355.481, 221.7344
1356.540, 327.4453
1357.599, 353.9844
1358.657, 64.38281
1359.716, 183.0586
1360.774, 138.1094
1361.832, 86.45703
1362.890, 262.4336
1363.948, 15.18359
1365.006, 187.6719
1366.063, 194.0195
1367.120, 276.6875
1368.178, 194.4766
1369.234, 163.0664
1370.291, 296.3594
1371.348, 338.4805
1372.404, 237.3008
1373.461, 324.5469
1374.517, 75.15625
1375.573, 121.1562
1376.629, 294.5547
1377.684, 201.6445
1378.740, 291.8867
1379.795, 202.2227
1380.850, 209.8633
1381.905, 278.5156
1382.960, 311.1680
1384.015, 328.8320
1385.070, 69.50000
1386.124, 277.1758
1387.178, 66.85547
1388.232, 226.5430
1389.286, 60.23828
1390.340, 32.94141
1391.393, 135.6211
1392.447, 285.3125
1393.500, 22.01172
1394.553, 101.7148
1395.606, 166.4297
1396.659, 253.1484
1397.711, 128.8789
1398.764, 214.6172
1399.816, 326.3633
1400.868, 148.8477
1401.920, 191.9219
1402.972, 110.7031
1404.023, 220.4961
1405.075, 388.3203
1406.126, 91.15234
1407.177, 353.9961
1408.228, 27.77344
1409.279, 250.6367
1410.330, 0.4921880
1411.380, 383.3906
1412.431, 272.2812
1413.481, 0.1875000
1414.531, 146.1250
1415.580, 265.0781
1416.630, 255.0391
1417.680, 185.0156
1418.729, 143.0117
