##NAMES=Hedenbergite
##RRUFFID=R060040
##IDEAL CHEMISTRY=CaFe^2+^Si_2_O_6_
##LOCALITY=Rio Marina, Elba, Italy
##OWNER=RRUFF
##SOURCE=University of Arizona Mineral Museum
##DESCRIPTION=Radial aggregate of green thin bladed crystals
##STATUS=The identification of this mineral has been confirmed by X-ray diffraction and chemical analysis
##URL=rruff.info/R060040
##MEASURED CHEMISTRY=Ca_1.00_(Fe^2+^_0.89_Mg_0.09_Mn_0.02_)_Î£=1_Si_2.00_O_6_
##PIN_ID=M01578
##ORIENTATION=Laser parallel to (-1 0 -1). Fiducial mark perpendicular to laser is parallel to -b [0 -1 0]
262.4900, 0.0000000E+00
263.7050, 30.67188
264.9210, 113.1357
266.1360, 40.61035
267.3520, 49.90039
268.5670, 11.76660
269.7820, 2.008789
270.9960, 245.7148
272.2110, 53.04980
273.4250, 258.7275
274.6400, 253.5566
275.8540, 332.3818
277.0680, 263.0791
278.2810, 221.5322
279.4950, 357.6279
280.7090, 340.2734
281.9220, 303.4219
283.1350, 349.0342
284.3480, 316.0957
285.5610, 369.5674
286.7730, 366.4033
287.9860, 485.5938
289.1980, 443.1113
290.4100, 473.9248
291.6220, 747.9824
292.8340, 548.2344
294.0460, 548.6357
295.2570, 784.1533
296.4690, 703.7568
297.6800, 726.4248
298.8910, 717.2002
300.1020, 776.3320
301.3120, 987.5547
302.5230, 907.8887
303.7330, 1198.601
304.9440, 1154.474
306.1540, 1063.731
307.3630, 1262.881
308.5730, 1036.071
309.7830, 1066.369
310.9920, 1021.853
312.2010, 890.6045
313.4100, 718.5039
314.6190, 631.3672
315.8280, 614.3994
317.0370, 554.4268
318.2450, 554.4297
319.4530, 487.2852
320.6610, 649.0000
321.8690, 608.5674
323.0770, 716.9863
324.2850, 624.2676
325.4920, 830.4160
326.6990, 946.4375
327.9060, 806.3389
329.1130, 1118.124
330.3200, 1115.798
331.5270, 1287.371
332.7330, 1340.879
333.9390, 1536.305
335.1450, 1831.050
336.3510, 1818.312
337.5570, 1997.844
338.7630, 2015.507
339.9680, 2008.695
341.1740, 2117.264
342.3790, 1898.944
343.5840, 1636.847
344.7890, 1639.332
345.9930, 1333.934
347.1980, 1230.101
348.4020, 912.8369
349.6060, 852.3643
350.8100, 713.6826
352.0140, 588.7568
353.2180, 663.1045
354.4210, 674.6797
355.6250, 654.5176
356.8280, 663.8789
358.0310, 694.3506
359.2340, 743.7900
360.4360, 898.7402
361.6390, 1053.960
362.8410, 1289.179
364.0430, 1261.233
365.2450, 1468.486
366.4470, 1680.505
367.6490, 1864.674
368.8510, 1959.064
370.0520, 2492.688
371.2530, 2704.627
372.4540, 2885.895
373.6550, 3021.263
374.8560, 3298.875
376.0560, 3224.479
377.2570, 3256.885
378.4570, 2912.438
379.6570, 2432.418
380.8570, 2179.359
382.0570, 1946.279
383.2560, 1621.186
384.4560, 1399.127
385.6550, 1099.999
386.8540, 924.8564
388.0530, 778.6934
389.2520, 688.5137
390.4510, 398.3154
391.6490, 618.0977
392.8470, 448.8623
394.0450, 484.6074
395.2430, 382.3359
396.4410, 168.0469
397.6390, 355.7402
398.8360, 111.6992
400.0340, 244.3564
401.2310, 104.3965
402.4280, 235.0195
403.6250, 14.62695
404.8210, 202.2188
406.0180, 15.79297
407.2140, 51.28613
408.4100, 14.14648
409.6060, 10.56055
410.8020, 77.97656
411.9980, 10.40137
413.1930, 26.67578
414.3890, 184.3750
415.5840, 6.165039
416.7790, 132.9922
417.9740, 194.8525
419.1680, 27.74121
420.3630, 76.65137
421.5570, 32.42188
422.7510, 7.494141
423.9450, 56.43848
425.1390, 63.62500
426.3330, 36.46191
427.5270, 89.44531
428.7200, 229.3594
429.9130, 26.66406
431.1060, 228.5703
432.2990, 112.8145
433.4920, 135.8770
434.6840, 66.96680
435.8770, 200.8027
437.0690, 97.94336
438.2610, 174.9609
439.4530, 233.0977
440.6450, 138.0254
441.8360, 0.2851560
443.0280, 109.0508
444.2190, 55.09961
445.4100, 39.08008
446.6010, 28.38281
447.7920, 204.5586
448.9820, 70.99023
450.1730, 158.9082
451.3630, 177.0566
452.5530, 54.86719
453.7430, 103.5645
454.9330, 91.33008
456.1230, 32.02148
457.3120, 16.45703
458.5010, 31.14062
459.6910, 95.21875
460.8800, 69.80469
462.0680, 162.4805
463.2570, 26.82812
464.4460, 70.06250
465.6340, 41.27344
466.8220, 202.4570
468.0100, 21.61719
469.1980, 46.25000
470.3860, 75.15820
471.5730, 29.18945
472.7600, 42.32422
473.9480, 102.3203
475.1350, 83.29102
476.3210, 33.24414
477.5080, 144.1680
478.6950, 99.93555
479.8810, 176.8770
481.0670, 21.21484
482.2530, 112.5156
483.4390, 166.6699
484.6250, 185.4453
485.8100, 63.39648
486.9960, 123.1094
488.1810, 109.8652
489.3660, 93.62500
490.5510, 178.7754
491.7360, 76.96094
492.9200, 160.3828
494.1050, 169.8574
495.2890, 213.1367
496.4730, 183.1016
497.6570, 175.6504
498.8400, 241.4785
500.0240, 266.7070
501.2070, 228.1016
502.3910, 273.2871
503.5740, 168.5605
504.7570, 195.3066
505.9400, 278.7500
507.1220, 243.6074
508.3050, 245.2969
509.4870, 284.2734
510.6690, 392.2207
511.8510, 357.1504
513.0330, 282.0645
514.2140, 369.9219
515.3960, 329.7637
516.5770, 540.5938
517.7580, 353.4160
518.9390, 415.2285
520.1200, 564.0312
521.3010, 384.8184
522.4810, 539.5957
523.6610, 423.3633
524.8420, 342.1309
526.0220, 260.8848
527.2010, 248.6465
528.3810, 201.3965
529.5610, 260.1582
530.7400, 402.9121
531.9190, 221.6582
533.0980, 118.4277
534.2770, 200.1875
535.4560, 184.9336
536.6340, 118.6660
537.8120, 155.4004
538.9910, 210.1172
540.1690, 222.8496
541.3460, 400.5684
542.5240, 365.2930
543.7020, 438.0078
544.8790, 503.8945
546.0560, 487.0898
547.2330, 524.7969
548.4100, 585.0000
549.5870, 820.7012
550.7630, 957.5117
551.9400, 711.6426
553.1160, 865.4570
554.2920, 634.4199
555.4680, 657.1309
556.6440, 489.9355
557.8190, 363.0273
558.9950, 529.8457
560.1700, 365.6426
561.3450, 360.7871
562.5200, 356.2891
563.6950, 258.6992
564.8690, 373.6426
566.0440, 301.8652
567.2180, 119.2227
568.3920, 217.2480
569.5660, 197.1797
570.7400, 80.61719
571.9130, 360.8125
573.0870, 93.18555
574.2600, 76.46680
575.4330, 198.0391
576.6060, 203.0781
577.7790, 91.62305
578.9520, 119.3867
580.1240, 87.90234
581.2960, 135.1895
582.4690, 53.40430
583.6410, 166.8184
584.8120, 95.17188
585.9840, 146.3496
587.1560, 169.1270
588.3270, 97.20703
589.4980, 4.886719
590.6690, 93.90820
591.8400, 34.19922
593.0110, 109.3105
594.1810, 176.1602
595.3510, 4.365234
596.5220, 72.91797
597.6920, 148.7988
598.8610, 263.2031
600.0310, 210.5879
601.2010, 5.917969
602.3700, 195.6660
603.5390, 121.5371
604.7080, 260.0391
605.8770, 378.4414
607.0460, 214.5723
608.2140, 308.3672
609.3830, 302.1797
610.5510, 233.2129
611.7190, 59.40625
612.8870, 104.2773
614.0550, 240.5918
615.2220, 268.9121
616.3900, 226.2227
617.5570, 215.1289
618.7240, 253.5625
619.8910, 350.0293
621.0580, 192.9648
622.2240, 174.5117
623.3910, 96.73438
624.5570, 292.4414
625.7230, 434.1641
626.8890, 186.3945
628.0550, 216.7539
629.2200, 469.0469
630.3860, 353.6816
631.5510, 456.7012
632.7160, 591.0820
633.8810, 495.6855
635.0460, 471.0137
636.2100, 536.3184
637.3750, 695.0957
638.5390, 733.3379
639.7030, 620.2148
640.8670, 634.7031
642.0310, 840.6426
643.1950, 870.0781
644.3580, 1037.555
645.5210, 967.8730
646.6850, 1187.809
647.8480, 1105.104
649.0100, 1483.887
650.1730, 1604.686
651.3350, 2202.293
652.4980, 2605.992
653.6600, 2710.543
654.8220, 3111.000
655.9840, 3600.385
657.1450, 4247.312
658.3070, 4794.727
659.4680, 4987.379
660.6300, 4744.326
661.7910, 4884.312
662.9510, 4486.908
664.1120, 3960.699
665.2730, 3396.625
666.4330, 2761.656
667.5930, 2219.076
668.7530, 1852.578
669.9130, 1736.207
671.0730, 1296.131
672.2320, 1090.717
673.3920, 960.9199
674.5510, 742.6738
675.7100, 713.7305
676.8690, 754.3906
678.0280, 565.9883
679.1860, 642.7207
680.3450, 350.3984
681.5030, 367.5527
682.6610, 306.7715
683.8190, 125.7480
684.9770, 205.6035
686.1340, 245.6191
687.2920, 251.6855
688.4490, 122.3418
689.6060, 167.4824
690.7630, 140.3887
691.9200, 109.9141
693.0760, 181.0195
694.2330, 64.86523
695.3890, 134.6641
696.5450, 129.7090
697.7010, 123.1152
698.8570, 124.7500
700.0130, 386.4785
701.1680, 145.4688
702.3230, 258.2344
703.4780, 257.6914
704.6330, 245.0293
705.7880, 241.3496
706.9430, 248.4277
708.0970, 26.74219
709.2520, 170.0352
710.4060, 105.9121
711.5600, 344.1621
712.7140, 245.0488
713.8670, 211.8457
715.0210, 198.0781
716.1740, 114.2910
717.3270, 26.09570
718.4800, 111.7500
719.6330, 160.0195
720.7860, 173.2285
721.9380, 45.29102
723.0910, 99.59375
724.2430, 80.73633
725.3950, 59.06836
726.5470, 138.8926
727.6980, 31.53906
728.8500, 108.9395
730.0010, 112.8535
731.1530, 150.3477
732.3040, 114.8242
733.4550, 123.2207
734.6050, 185.4277
735.7560, 56.47461
736.9060, 60.39258
738.0560, 136.4102
739.2060, 7.310547
740.3560, 257.5508
741.5060, 149.4355
742.6560, 53.21289
743.8050, 162.0566
744.9540, 265.8809
746.1030, 150.6895
747.2520, 199.4805
748.4010, 182.2539
749.5500, 301.0293
750.6980, 234.5098
751.8460, 98.16211
752.9950, 367.9121
754.1420, 151.6465
755.2900, 155.3633
756.4380, 295.0605
757.5850, 297.7422
758.7330, 70.43945
759.8800, 208.1152
761.0270, 196.7773
762.1730, 107.3008
763.3200, 104.9258
764.4670, 106.5273
765.6130, 133.1113
766.7590, 131.6758
767.9050, 29.22266
769.0510, 21.74414
770.1960, 64.24609
771.3420, 90.72461
772.4870, 162.1836
773.6320, 169.6230
774.7770, 53.04688
775.9220, 207.4434
777.0670, 25.82422
778.2110, 111.1816
779.3560, 14.51758
780.5000, 115.8281
781.6440, 92.14844
782.7880, 136.4180
783.9320, 107.3301
785.0750, 134.8359
786.2180, 21.98438
787.3620, 73.89062
788.5050, 49.16602
789.6480, 26.36133
790.7900, 53.37500
791.9330, 73.36328
793.0750, 86.33008
794.2170, 13.53516
795.3590, 71.53711
796.5010, 9.572266
797.6430, 193.2832
798.7850, 162.5508
799.9260, 21.37109
801.0670, 28.64844
802.2080, 165.3848
803.3490, 48.87891
804.4900, 40.99609
805.6310, 72.34375
806.7710, 7.453125
807.9110, 2.1484001E-02
809.0510, 106.4141
810.1910, 18.26953
811.3310, 266.7266
812.4710, 103.3945
813.6100, 15.94727
814.7490, 224.4375
815.8880, 77.13672
817.0270, 182.1602
818.1660, 49.67773
819.3050, 35.13281
820.4430, 177.2832
821.5820, 28.59570
822.7200, 40.51758
823.8580, 8.390625
824.9950, 94.33789
826.1330, 188.4121
827.2710, 32.33398
828.4080, 122.1211
829.5450, 71.75586
830.6820, 162.6523
831.8190, 13.06250
832.9560, 225.7422
834.0920, 121.3809
835.2280, 122.9766
836.3650, 94.68359
837.5010, 29.46289
838.6360, 76.11133
839.7720, 146.8691
840.9080, 191.6465
842.0430, 192.3711
843.1780, 238.0781
844.3130, 227.7676
845.4480, 253.7969
846.5830, 289.4297
847.7170, 426.7773
848.8520, 405.4023
849.9860, 577.0137
851.1200, 687.6094
852.2540, 613.1934
853.3870, 783.5039
854.5210, 592.4082
855.6540, 721.6738
856.7880, 506.1289
857.9210, 496.6250
859.0540, 414.5664
860.1860, 159.7227
861.3190, 570.7852
862.4510, 284.7441
863.5840, 207.0215
864.7160, 415.8379
865.8480, 159.9648
866.9790, 163.0977
868.1110, 339.3711
869.2420, 143.4805
870.3740, 178.6113
871.5050, 302.9453
872.6360, 259.8066
873.7660, 132.6680
874.8970, 259.8320
876.0280, 171.3535
877.1580, 354.6387
878.2880, 403.8105
879.4180, 372.5664
880.5480, 228.7617
881.6770, 345.9844
882.8070, 354.1016
883.9360, 420.2930
885.0650, 428.4824
886.1940, 210.6582
887.3230, 333.8438
888.4520, 502.7383
889.5800, 166.9316
890.7090, 345.0195
891.8370, 212.1074
892.9650, 156.2559
894.0930, 560.3887
895.2200, 321.0781
896.3480, 214.1836
897.4750, 199.2715
898.6020, 298.0703
899.7290, 284.8418
900.8560, 438.6055
901.9830, 305.4688
903.1090, 360.3105
904.2360, 258.7070
905.3620, 265.0293
906.4880, 218.5430
907.6140, 221.1777
908.7400, 323.0957
909.8650, 389.0293
910.9900, 390.4629
912.1160, 237.3926
913.2410, 329.6699
914.3660, 211.3066
915.4900, 378.4629
916.6150, 136.0938
917.7390, 194.6660
918.8640, 257.4141
919.9880, 212.5137
921.1120, 143.2266
922.2350, 225.4219
923.3590, 147.5723
924.4820, 89.89062
925.6060, 135.0840
926.7290, 140.3945
927.8520, 233.7773
928.9740, 82.26172
930.0970, 87.11523
931.2190, 197.4531
932.3420, 312.5273
933.4640, 21.27539
934.5860, 150.9570
935.7080, 79.00195
936.8290, 53.82227
937.9510, 306.7070
939.0720, 17.76953
940.1930, 195.3359
941.3140, 62.32617
942.4350, 139.1621
943.5560, 120.8086
944.6760, 60.63281
945.7960, 131.5410
946.9170, 53.85742
948.0370, 50.43164
949.1560, 205.8184
950.2760, 91.39062
951.3960, 103.9199
952.5150, 99.52148
953.6340, 18.50391
954.7530, 34.43555
955.8720, 25.09961
956.9910, 317.1953
958.1090, 180.0625
959.2280, 284.6230
960.3460, 87.78906
961.4640, 313.2520
962.5820, 195.0527
963.6990, 192.2344
964.8170, 342.1992
965.9340, 83.54102
967.0510, 201.1660
968.1690, 376.5566
969.2850, 305.9180
970.4020, 47.23438
971.5190, 131.2734
972.6350, 218.6875
973.7510, 185.6367
974.8670, 69.87695
975.9830, 367.2246
977.0990, 243.5645
978.2150, 99.89844
979.3300, 334.4121
980.4450, 333.7383
981.5600, 199.0566
982.6750, 423.3691
983.7900, 593.6758
984.9050, 389.9766
986.0190, 310.2227
987.1340, 305.5117
988.2480, 625.7969
989.3620, 560.0762
990.4750, 665.3516
991.5890, 612.6211
992.7020, 694.8867
993.8160, 811.1484
994.9290, 744.3809
996.0420, 942.6348
997.1550, 1052.012
998.2670, 1253.551
999.3800, 1500.791
1000.492, 1856.018
1001.604, 2412.297
1002.716, 2814.594
1003.828, 3412.768
1004.940, 4118.012
1006.051, 5347.248
1007.163, 6467.482
1008.274, 7522.602
1009.385, 9690.148
1010.496, 11118.38
1011.606, 11807.89
1012.717, 11709.38
1013.827, 10977.53
1014.937, 9490.602
1016.047, 7282.053
1017.157, 6222.557
1018.267, 4748.848
1019.377, 4016.203
1020.486, 3191.453
1021.595, 2781.297
1022.704, 2524.490
1023.813, 2135.678
1024.922, 1892.861
1026.030, 1859.326
1027.139, 1781.414
1028.247, 1675.617
1029.355, 1544.078
1030.463, 1281.295
1031.571, 1209.787
1032.678, 1075.154
1033.786, 946.8398
1034.893, 929.5859
1036.000, 735.0625
1037.107, 735.1230
1038.214, 670.8535
1039.321, 649.7988
1040.427, 570.0508
1041.533, 517.3945
1042.639, 547.5020
1043.745, 546.4961
1044.851, 491.2891
1045.957, 598.9844
1047.062, 546.1055
1048.168, 224.4941
1049.273, 384.9727
1050.378, 514.3613
1051.482, 307.4668
1052.587, 495.5703
1053.692, 452.9570
1054.796, 199.0820
1055.900, 297.2012
1057.004, 168.3418
1058.108, 429.3477
1059.212, 322.5117
1060.315, 426.9824
1061.418, 77.14062
1062.522, 332.1055
1063.625, 222.0996
1064.728, 385.2539
1065.830, 207.4062
1066.933, 189.1250
1068.035, 313.2695
1069.137, 327.5293
1070.239, 37.39844
1071.341, 203.5391
1072.443, 298.5020
1073.545, 361.6504
1074.646, 308.6758
1075.747, 95.15430
1076.848, 222.9590
1077.949, 163.9023
1079.050, 391.0430
1080.150, 205.1953
1081.251, 137.0898
1082.351, 362.2266
1083.451, 668.2988
1084.551, 765.6309
1085.651, 560.8965
1086.750, 868.7363
1087.850, 703.6641
1088.949, 403.6953
1090.048, 425.8711
1091.147, 341.0410
1092.246, 338.2168
1093.345, 80.41992
1094.443, 142.6191
1095.541, 260.8750
1096.639, 160.0645
1097.737, 228.2539
1098.835, 145.4355
1099.933, 348.6172
1101.030, 40.79297
1102.128, 51.96289
1103.225, 121.0039
1104.322, 69.83594
1105.419, 172.2832
1106.515, 293.5410
1107.612, 213.9297
1108.708, 212.0801
1109.804, 450.2246
1110.900, 45.36719
1111.996, 171.6406
1113.092, 170.7695
1114.187, 255.8926
1115.283, 105.0117
1116.378, 338.1250
1117.473, 8.765625
1118.568, 232.3281
1119.662, 337.4160
1120.757, 432.5000
1121.851, 480.5781
1122.946, 297.6543
1124.040, 103.7207
1125.134, 180.7871
1126.227, 171.8457
1127.321, 399.9004
1128.414, 9.937500
1129.508, 22.09570
1130.601, 119.1211
1131.693, 273.1426
1132.786, 81.15820
1133.879, 76.16797
1134.971, 182.8945
1136.064, 122.9766
1137.156, 266.9707
1138.248, 147.9570
1139.339, 148.9414
1140.431, 346.9199
1141.522, 70.89258
1142.614, 185.8594
1143.705, 73.82031
1144.796, 188.7754
1145.887, 89.72461
1146.977, 179.6680
1148.068, 114.6035
1149.158, 33.47656
1150.248, 68.51953
1151.338, 64.58789
1152.428, 121.7441
1153.518, 221.0176
1154.607, 124.7734
1155.696, 259.5254
1156.785, 84.27148
1157.874, 30.01172
1158.963, 244.7402
1160.052, 235.4668
1161.141, 244.1875
1162.229, 116.9004
1163.317, 75.61133
1164.405, 245.3125
1165.493, 86.00781
1166.581, 56.69727
1167.668, 231.5156
1168.756, 73.19141
1169.843, 161.8633
1170.930, 60.09375
1172.017, 101.5234
1173.103, 120.1309
1174.190, 227.7344
1175.276, 81.33008
1176.363, 35.92188
1177.449, 271.5039
1178.535, 43.07812
1179.620, 24.64844
1180.706, 190.7949
1181.791, 137.7480
1182.877, 124.1797
1183.962, 45.60742
1185.047, 400.0273
1186.131, 140.4414
1187.216, 128.8496
1188.300, 180.5566
1189.385, 168.9531
1190.469, 38.34180
1191.553, 130.7246
1192.637, 120.0371
1193.720, 111.4043
1194.804, 324.7656
1195.887, 231.1230
1196.970, 137.4727
1198.053, 124.8203
1199.136, 38.15625
1200.219, 129.4863
1201.301, 246.5879
1202.383, 372.9062
1203.465, 119.2305
1204.547, 95.53906
1205.629, 289.8438
1206.711, 274.0195
1207.792, 173.3125
1208.874, 294.6016
1209.955, 93.11719
1211.036, 272.1094
1212.117, 242.3320
1213.198, 124.5508
1214.278, 58.75781
1215.359, 163.9609
1216.439, 447.1836
1217.519, 367.4023
1218.599, 252.6133
1219.678, 124.8203
1220.758, 193.0273
1221.837, 203.2227
1222.917, 142.4141
1223.996, 324.5625
1225.075, 84.73438
1226.153, 282.9062
1227.232, 312.0664
1228.310, 124.2227
1229.389, 313.3711
1230.467, 205.5117
1231.545, 263.4453
1232.622, 502.4180
1233.700, 240.5430
1234.777, 137.9961
1235.855, 58.10547
1236.932, 36.42578
1238.009, 263.5234
1239.086, 370.6094
1240.162, 279.6914
1241.239, 66.57812
1242.315, 311.6445
1243.391, 141.7031
1244.467, 211.7578
1245.543, 229.8047
1246.619, 192.8516
1247.694, 208.9336
1248.769, 315.9688
1249.844, 423.9961
1250.919, 310.0156
1251.994, 188.0312
1253.069, 224.0352
1254.144, 210.0391
1255.218, 248.0352
1256.292, 324.0234
1257.366, 68.00391
1258.440, 373.8516
1259.514, 115.5273
1260.587, 198.4922
1261.661, 149.4531
1262.734, 107.3594
1263.807, 67.75781
1264.880, 72.12891
1265.952, 216.0195
1267.025, 232.8945
1268.097, 265.7734
1269.170, 202.6367
1270.242, 113.5039
1271.314, 202.2461
1272.385, 231.1016
1273.457, 358.8438
1274.528, 142.6836
1275.600, 217.4844
1276.671, 317.3125
1277.742, 56.86328
1278.812, 60.83594
1279.883, 249.4609
1280.954, 264.1758
1282.024, 109.2930
1283.094, 330.0586
1284.164, 163.8125
1285.234, 226.5625
1286.303, 107.2305
1287.373, 89.66797
1288.442, 220.4062
1289.511, 283.1445
1290.580, 530.8789
1291.649, 237.6055
1292.718, 301.2188
1293.786, 395.9375
1294.855, 141.5859
1295.923, 32.10547
1296.991, 308.8203
1298.059, 121.4023
1299.126, 87.89453
1300.194, 134.6953
1301.261, 183.3047
1302.328, 139.9453
1303.395, 103.6562
1304.462, 146.1758
1305.529, 210.5039
1306.596, 134.1367
1307.662, 222.4922
1308.728, 157.7578
1309.794, 17.08203
1310.860, 480.7109
1311.926, 137.3320
1312.991, 86.69531
1314.057, 237.3164
1315.122, 65.93750
1316.187, 112.4414
1317.252, 61.11328
1318.317, 279.6680
1319.381, 238.9141
1320.446, 392.4648
1321.510, 86.01953
1322.574, 446.5703
1323.638, 155.1211
1324.702, 453.6719
1325.766, 296.2227
1326.829, 188.7734
1327.892, 350.0156
1328.956, 505.5625
1330.019, 90.10938
1331.081, 412.6523
1332.144, 462.1953
1333.206, 380.6797
1334.269, 237.2148
1335.331, 393.7812
1336.393, 699.3438
1337.455, 214.9062
1338.516, 386.2266
1339.578, 267.7852
1340.639, 344.3438
1341.701, 84.90625
1342.762, 296.2812
1343.822, 222.8398
1344.883, 163.3945
1345.944, 267.9023
1347.004, 199.4062
1348.064, 204.9102
1349.124, 326.4102
1350.184, 212.9102
1351.244, 162.4102
1352.304, 312.9023
1353.363, 339.3438
1354.422, 318.8398
1355.481, 137.3359
1356.540, 219.8320
1357.599, 116.3203
1358.657, 87.81641
1359.716, 383.3125
1360.774, 248.8086
1361.832, 207.7031
1362.890, 357.2188
1363.948, 167.4062
1365.006, 487.7930
1366.063, 289.2656
1367.120, 126.7383
1368.178, 385.2148
1369.234, 189.5469
1370.291, 223.0195
1371.348, 129.4961
1372.404, 364.9766
1373.461, 162.2773
1374.517, 209.7539
1375.573, 198.2422
1376.629, 16.72266
1377.684, 225.2109
1378.740, 301.6953
1379.795, 311.1836
1380.850, 257.6719
1381.905, 222.1602
1382.960, 29.65234
1384.015, 187.1484
1385.070, 115.5352
1386.124, 178.4336
1387.178, 542.9414
1388.232, 287.4492
1389.286, 181.9609
1390.340, 180.4766
1391.393, 94.26953
1392.447, 295.7070
1393.500, 173.2305
1394.553, 193.7578
1395.606, 261.2852
1396.659, 103.8125
1397.711, 132.3477
1398.764, 242.8867
1399.816, 249.4297
1400.868, 137.9766
1401.920, 152.5273
1402.972, 121.0820
1404.023, 143.6445
1405.075, 63.22266
1406.126, 213.7148
1407.177, 311.3008
1408.228, 105.9180
1409.279, 265.3164
1410.330, 122.9805
1411.380, 118.6484
1412.431, 182.3242
1413.481, 309.0000
1414.531, 421.6758
1415.580, 260.3633
1416.630, 76.05859
1417.680, 367.7617
1418.729, 191.4727
