##NAMES=Hedenbergite
##RRUFFID=R050030
##IDEAL CHEMISTRY=CaFe^2+^Si_2_O_6_
##LOCALITY=Heroult, Ontario, Canada
##OWNER=RRUFF
##SOURCE=University of Arizona Mineral Museum
##DESCRIPTION=Green fragments
##STATUS=The identification of this mineral has been confirmed by X-ray diffraction and chemical analysis
##URL=rruff.info/R050030
##MEASURED CHEMISTRY=(Ca_.993_Na_.007_)(Fe_.860_Mn_.111_Mg_.029_)(Si_.993_Al_.007_)_2_O_6_
##PIN_ID=M00478
##ORIENTATION=Laser parallel to c* (0 0 1). Fiducial mark perpendicular to laser is parallel to a [1 0 0]
102.428, 0.000
103.820, 168.837
105.212, 439.229
106.604, 461.623
107.995, 340.729
109.387, 137.746
110.777, 19.175
112.168, 12.292
113.559, 5.794
114.949, 23.548
116.339, 17.631
117.729, 62.707
119.119, 70.881
120.508, 146.561
121.897, 129.898
123.286, 168.748
124.675, 253.838
126.063, 250.363
127.452, 243.215
128.840, 279.366
130.228, 160.799
131.615, 149.495
133.003, 135.438
134.390, 49.614
135.777, 91.007
137.164, 105.603
138.550, 179.390
139.937, 162.356
141.323, 279.488
142.709, 272.778
144.094, 336.216
145.480, 361.790
146.865, 390.030
148.250, 443.294
149.635, 437.205
151.019, 463.219
152.403, 445.334
153.788, 402.554
155.171, 400.881
156.555, 346.316
157.939, 343.862
159.322, 240.512
160.705, 235.261
162.088, 179.101
163.470, 224.026
164.853, 231.031
166.235, 256.112
167.617, 364.263
168.998, 390.481
170.380, 424.762
171.761, 450.103
173.142, 481.500
174.523, 655.949
175.904, 746.450
177.284, 756.999
178.664, 815.592
180.044, 716.229
181.424, 666.907
182.803, 565.627
184.183, 474.385
185.562, 380.172
186.940, 374.969
188.319, 325.766
189.698, 353.556
191.076, 344.317
192.454, 303.075
193.831, 281.861
195.209, 225.661
196.586, 202.491
197.963, 170.407
199.340, 149.382
200.717, 146.431
202.093, 165.566
203.470, 123.767
204.846, 185.087
206.221, 144.528
207.597, 206.032
208.972, 157.614
210.347, 84.297
211.722, 5.102
213.097, 7.925
214.472, 35.749
215.846, 19.575
217.220, 7.401
218.594, 105.227
219.967, 125.053
221.341, 134.878
222.714, 156.705
224.087, 270.534
225.460, 327.364
226.832, 404.196
228.204, 553.028
229.577, 554.862
230.948, 602.698
232.320, 575.535
233.692, 535.375
235.063, 381.215
236.434, 265.057
237.805, 201.901
239.175, 113.748
240.545, 86.594
241.916, 53.968
243.286, 75.292
244.655, 49.143
246.025, 60.995
247.394, 98.848
248.763, 130.701
250.132, 52.554
251.501, 186.408
252.869, 121.262
254.237, 155.117
255.605, 236.971
256.973, 279.827
258.340, 277.681
259.708, 334.536
261.075, 389.508
262.442, 414.418
263.808, 536.271
265.175, 595.125
266.541, 758.979
267.907, 806.381
269.273, 879.667
270.639, 954.812
272.004, 907.849
273.369, 1136.644
274.734, 1236.502
276.099, 1171.133
277.463, 1152.698
278.828, 1294.021
280.192, 1419.071
281.556, 1426.178
282.919, 1609.301
284.283, 1662.619
285.646, 1885.989
287.009, 1933.467
288.372, 2162.917
289.734, 2576.164
291.097, 2742.983
292.459, 2985.871
293.821, 3363.012
295.183, 3547.575
296.544, 3813.795
297.905, 3957.942
299.266, 4042.979
300.627, 4021.828
301.988, 4020.365
303.348, 4038.213
304.709, 3767.895
306.069, 3550.571
307.428, 3299.759
308.788, 2853.557
310.147, 2463.049
311.507, 2164.177
312.865, 1926.050
314.224, 1785.441
315.583, 1609.144
316.941, 1639.044
318.299, 1665.584
319.657, 1700.993
321.015, 2007.771
322.372, 2072.757
323.729, 2437.655
325.086, 2764.570
326.443, 3222.507
327.800, 3553.323
329.156, 4360.146
330.512, 4770.973
331.868, 5439.807
333.224, 6005.647
334.579, 6614.491
335.935, 6725.340
337.290, 7391.194
338.645, 7095.052
339.999, 6827.915
341.354, 5949.781
342.708, 4959.649
344.062, 4183.664
345.416, 3409.540
346.769, 2800.419
348.123, 2451.300
349.476, 2045.184
350.829, 1873.071
352.182, 1794.960
353.534, 1812.851
354.887, 1751.745
356.239, 1822.642
357.591, 2001.540
358.942, 2171.440
360.294, 2582.344
361.645, 2939.249
362.996, 3410.154
364.347, 4293.061
365.698, 5021.968
367.048, 6155.875
368.398, 6982.782
369.748, 8023.688
371.098, 8887.593
372.448, 9309.494
373.797, 9487.397
375.146, 8924.294
376.495, 8125.188
377.844, 7155.080
379.192, 5645.969
380.540, 4825.854
381.889, 3736.735
383.236, 3031.614
384.584, 2454.490
385.932, 1960.363
387.279, 1676.231
388.626, 1416.097
389.973, 1193.959
391.319, 1003.334
392.666, 874.673
394.012, 735.524
395.358, 587.372
396.704, 565.215
398.049, 446.056
399.394, 454.892
400.740, 301.725
402.084, 321.558
403.429, 256.387
404.774, 233.211
406.118, 288.044
407.462, 245.874
408.806, 224.946
410.150, 184.520
411.493, 138.335
412.836, 151.148
414.179, 99.961
415.522, 10.770
416.865, 89.591
418.207, 113.407
419.549, 27.223
420.891, 158.031
422.233, 125.834
423.575, 62.633
424.916, 94.427
426.257, 177.325
427.598, 158.109
428.939, 143.889
430.279, 209.683
431.619, 167.480
432.959, 116.276
434.299, 206.070
435.639, 319.941
436.978, 226.736
438.318, 223.531
439.657, 172.332
440.996, 210.134
442.334, 123.935
443.673, 8.267
445.011, 33.519
446.349, 31.303
447.687, 15.083
449.024, 30.857
450.361, 21.372
451.699, 29.622
453.036, 29.897
454.372, 17.199
455.709, 42.494
457.045, 48.819
458.381, 0.843
459.717, 44.506
461.053, 24.890
462.388, 19.299
463.724, 7.731
465.059, 68.161
466.394, 51.639
467.728, 75.146
469.063, 4.703
470.397, 15.268
471.731, 40.854
473.065, 4.460
474.398, 60.083
475.732, 32.750
477.065, 51.451
478.398, 77.186
479.731, 26.978
481.063, 81.203
482.396, 28.377
483.728, 51.548
485.060, 49.718
486.391, 46.881
487.723, 158.037
489.054, 239.186
490.385, 212.357
491.716, 243.522
493.047, 207.692
494.377, 253.865
495.708, 263.030
497.038, 274.206
498.368, 106.374
499.697, 117.535
501.027, 92.701
502.356, 108.859
503.685, 49.008
505.014, 126.172
506.342, 131.327
507.671, 184.474
508.999, 131.612
510.327, 226.750
511.655, 237.880
512.982, 254.002
514.310, 352.115
515.637, 369.219
516.964, 494.315
518.291, 582.402
519.617, 711.481
520.944, 786.561
522.270, 704.631
523.596, 715.692
524.921, 649.745
526.247, 576.788
527.572, 461.821
528.897, 351.845
530.222, 383.861
531.547, 326.866
532.871, 419.862
534.196, 273.850
535.520, 271.826
536.844, 406.794
538.167, 438.752
539.491, 555.700
540.814, 651.639
542.137, 796.567
543.460, 961.486
544.783, 1236.395
546.105, 1505.294
547.427, 1932.183
548.749, 2229.062
550.071, 2541.933
551.393, 2550.164
552.714, 2491.154
554.035, 2287.555
555.356, 1980.383
556.677, 1548.202
557.998, 1095.230
559.318, 908.029
560.638, 763.601
561.958, 540.378
563.278, 465.201
564.597, 441.748
565.917, 334.494
567.236, 349.313
568.555, 269.039
569.874, 198.918
571.192, 273.623
572.511, 293.562
573.829, 210.246
575.147, 176.742
576.464, 227.403
577.782, 109.053
579.099, 130.959
580.416, 168.727
581.733, 211.374
583.050, 197.079
584.366, 84.841
585.683, 213.446
586.999, 172.104
588.315, 123.551
589.630, 240.072
590.946, 218.851
592.261, 251.375
593.576, 98.120
594.891, 126.620
596.206, 135.108
597.520, 195.743
598.834, 255.207
600.148, 241.687
601.462, 209.127
602.776, 352.614
604.089, 199.197
605.402, 270.492
606.715, 323.786
608.028, 298.178
609.341, 332.723
610.653, 310.738
611.965, 334.331
613.277, 324.661
614.589, 371.895
615.901, 432.095
617.212, 423.987
618.523, 409.993
619.834, 535.246
621.145, 451.558
622.456, 545.160
623.766, 589.580
625.076, 570.388
626.386, 626.981
627.696, 786.019
629.006, 655.658
630.315, 1009.414
631.624, 782.606
632.933, 1001.432
634.242, 1149.751
635.551, 1210.427
636.859, 1427.778
638.167, 1474.868
639.475, 1912.151
640.783, 1914.995
642.090, 2321.602
643.398, 2652.786
644.705, 3252.941
646.012, 3801.078
647.318, 4674.226
648.625, 5845.318
649.931, 7334.065
651.237, 9185.423
652.543, 11210.433
653.849, 13645.666
655.155, 16296.799
656.460, 17727.885
657.765, 18917.635
659.070, 17714.672
660.375, 16035.620
661.679, 14129.696
662.984, 11111.618
664.288, 8829.529
665.592, 7017.428
666.895, 5594.157
668.199, 4360.034
669.502, 3532.898
670.805, 2758.814
672.108, 2487.658
673.411, 1957.613
674.713, 1665.433
676.016, 1509.242
677.318, 1219.282
678.620, 1112.068
679.921, 911.844
681.223, 836.607
682.524, 747.360
683.825, 569.102
685.126, 660.832
686.427, 511.551
687.727, 418.259
689.028, 427.957
690.328, 303.643
691.628, 331.318
692.927, 380.982
694.227, 383.635
695.526, 344.534
696.825, 361.910
698.124, 312.372
699.423, 236.142
700.721, 219.742
702.020, 203.331
703.318, 148.910
704.616, 146.478
705.913, 111.035
707.211, 79.583
708.508, 167.120
709.805, 120.646
711.102, 134.162
712.399, 130.668
713.695, 43.165
714.992, 139.649
716.288, 10.124
717.584, 127.581
718.879, 81.028
720.175, 23.535
721.470, 128.868
722.765, 73.261
724.060, 96.644
725.355, 53.018
726.649, 124.381
727.944, 0.265
729.238, 209.068
730.532, 43.607
731.825, 104.674
733.119, 170.946
734.412, 18.206
735.705, 55.457
736.998, 80.698
738.291, 63.930
739.584, 47.153
740.876, 81.256
742.168, 65.460
743.460, 45.345
744.752, 0.808
746.043, 26.942
747.334, 121.066
748.626, 28.181
749.916, 97.213
751.207, 119.310
752.498, 44.400
753.788, 156.480
755.078, 74.554
756.368, 136.619
757.658, 113.676
758.947, 16.730
760.237, 158.775
761.526, 58.812
762.815, 46.843
764.104, 62.866
765.392, 56.889
766.680, 129.916
767.969, 43.054
769.257, 102.948
770.544, 31.057
771.832, 21.924
773.119, 22.900
774.406, 10.883
775.693, 77.867
776.980, 64.146
778.267, 14.800
779.553, 33.239
780.839, 6.292
782.125, 23.335
783.411, 9.602
784.697, 56.460
785.982, 25.452
787.267, 2.361
788.552, 35.282
789.837, 20.792
791.122, 66.131
792.406, 3.927
793.690, 24.016
794.974, 10.050
796.258, 21.130
797.542, 11.771
798.825, 12.664
800.108, 44.551
801.391, 109.568
802.674, 49.246
803.957, 42.945
805.239, 32.167
806.522, 68.586
807.804, 65.667
809.085, 24.039
810.367, 31.739
811.649, 43.567
812.930, 37.097
814.211, 95.756
815.492, 84.590
816.772, 103.015
818.053, 78.615
819.333, 53.212
820.613, 31.196
821.893, 127.374
823.173, 64.940
824.452, 35.503
825.732, 102.061
827.011, 19.615
828.290, 77.164
829.568, 125.711
830.847, 40.746
832.125, 182.773
833.403, 149.290
834.681, 125.803
835.959, 161.312
837.236, 170.820
838.514, 252.324
839.791, 353.825
841.068, 412.327
842.345, 439.827
843.621, 710.331
844.898, 846.834
846.174, 986.338
847.450, 1450.854
848.726, 1590.369
850.001, 1699.882
851.277, 1713.392
852.552, 1581.899
853.827, 1263.405
855.102, 1094.911
856.376, 784.421
857.651, 701.931
858.925, 673.454
860.199, 509.975
861.473, 413.422
862.746, 368.944
864.020, 356.483
865.293, 291.036
866.566, 374.590
867.839, 325.936
869.112, 336.502
870.384, 331.286
871.656, 324.874
872.928, 304.407
874.200, 318.206
875.472, 300.793
876.744, 220.300
878.015, 328.911
879.286, 329.358
880.557, 426.970
881.828, 400.335
883.098, 385.964
884.369, 373.656
885.639, 387.089
886.909, 497.930
888.178, 468.244
889.448, 493.743
890.717, 611.348
891.987, 542.887
893.256, 625.357
894.524, 571.974
895.793, 597.529
897.061, 692.283
898.330, 713.952
899.598, 798.359
900.865, 951.012
902.133, 923.434
903.401, 993.091
904.668, 978.750
905.935, 1136.253
907.202, 1051.923
908.468, 1166.568
909.735, 1107.244
911.001, 1107.922
912.267, 941.337
913.533, 852.017
914.799, 862.615
916.064, 658.169
917.330, 770.792
918.595, 609.394
919.860, 463.081
921.124, 569.393
922.389, 421.107
923.653, 485.225
924.918, 318.736
926.182, 371.255
927.445, 484.729
928.709, 367.465
929.972, 265.633
931.236, 254.162
932.499, 198.477
933.761, 405.170
935.024, 199.980
936.286, 282.502
937.549, 336.273
938.811, 138.869
940.073, 305.314
941.334, 243.959
942.596, 252.052
943.857, 367.850
945.118, 303.039
946.379, 278.668
947.640, 350.529
948.900, 363.715
950.161, 344.304
951.421, 358.899
952.681, 383.631
953.940, 476.345
955.200, 439.104
956.459, 487.649
957.719, 514.691
958.978, 523.514
960.236, 459.103
961.495, 468.785
962.753, 507.754
964.012, 528.594
965.270, 614.374
966.527, 611.237
967.785, 656.813
969.043, 598.687
970.300, 646.545
971.557, 606.444
972.814, 680.485
974.071, 694.370
975.327, 680.257
976.583, 781.084
977.840, 869.976
979.095, 909.748
980.351, 812.881
981.607, 998.798
982.862, 1031.641
984.117, 1125.568
985.372, 1238.499
986.627, 1023.504
987.882, 1565.478
989.136, 1638.542
990.390, 1592.481
991.644, 1933.219
992.898, 2168.165
994.152, 2324.865
995.405, 2702.163
996.659, 3019.830
997.912, 3637.006
999.165, 4295.203
1000.417, 5134.375
1001.670, 5997.336
1002.922, 7936.297
1004.174, 9739.466
1005.426, 13181.775
1006.678, 17709.324
1007.930, 23930.605
1009.181, 32631.977
1010.432, 41246.105
1011.683, 48321.535
1012.934, 49728.004
1014.185, 44449.438
1015.435, 35935.215
1016.685, 27851.572
1017.935, 20523.316
1019.185, 16041.989
1020.435, 12373.555
1021.684, 9885.643
1022.934, 8646.938
1024.183, 7845.298
1025.432, 7155.643
1026.680, 7023.013
1027.929, 6537.373
1029.177, 6376.883
1030.425, 5856.968
1031.673, 5464.331
1032.921, 4685.367
1034.169, 4091.555
1035.416, 3664.248
1036.663, 3256.811
1037.911, 2759.865
1039.157, 2530.875
1040.404, 2303.884
1041.650, 1983.362
1042.897, 1908.467
1044.143, 1637.841
1045.389, 1486.246
1046.634, 1434.304
1047.880, 1292.479
1049.125, 1225.885
1050.371, 1092.443
1051.615, 1078.040
1052.860, 893.363
1054.105, 1057.884
1055.349, 935.279
1056.593, 873.057
1057.837, 749.616
1059.081, 789.101
1060.325, 801.416
1061.568, 709.623
1062.812, 623.832
1064.055, 608.851
1065.298, 560.280
1066.540, 596.359
1067.783, 546.491
1069.025, 494.868
1070.267, 573.421
1071.509, 426.779
1072.751, 471.641
1073.993, 549.576
1075.234, 441.104
1076.475, 444.493
1077.716, 462.423
1078.957, 349.715
1080.198, 404.937
1081.438, 457.823
1082.679, 341.061
1083.919, 322.319
1085.159, 290.272
1086.398, 276.518
1087.638, 330.489
1088.877, 316.522
1090.116, 303.849
1091.355, 342.825
1092.594, 307.854
1093.833, 273.863
1095.071, 276.083
1096.309, 247.966
1097.547, 248.620
1098.785, 269.187
1100.023, 253.051
1101.260, 300.010
1102.498, 311.069
1103.735, 239.120
1104.972, 347.294
1106.208, 160.460
1107.445, 251.333
1108.681, 184.472
1109.918, 196.381
1111.154, 58.866
1112.389, 74.073
1113.625, 171.769
1114.860, 77.528
1116.096, 156.328
1117.331, 217.587
1118.566, 96.795
1119.800, 207.762
1121.035, 256.634
1122.269, 152.559
1123.503, 145.413
1124.737, 229.326
1125.971, 206.032
1127.205, 224.516
1128.438, 32.665
1129.671, 98.069
1130.904, 54.452
1132.137, 117.848
1133.370, 101.831
1134.602, 79.801
1135.834, 88.719
1137.066, 68.822
1138.298, 119.025
1139.530, 11.972
1140.762, 128.858
1141.993, 28.148
1143.224, 21.681
1144.455, 8.659
1145.686, 50.260
1146.917, 49.495
1148.147, 57.320
1149.377, 115.948
1150.607, 116.498
1151.837, 64.788
1153.067, 33.217
1154.296, 19.576
1155.526, 45.896
1156.755, 47.720
1157.984, 85.778
1159.213, 16.311
1160.441, 8.589
1161.670, 63.085
1162.898, 52.239
1164.126, 39.047
1165.354, 35.009
1166.581, 1.095
1167.809, 2.970
1169.036, 71.242
1170.263, 55.562
1171.490, 40.796
1172.717, 47.539
1173.943, 41.577
1175.170, 73.726
1176.396, 15.348
1177.622, 110.954
1178.848, 44.687
1180.073, 51.365
1181.299, 88.142
1182.524, 12.808
1183.749, 15.699
1184.974, 126.223
1186.199, 182.489
1187.423, 165.196
1188.648, 30.537
1189.872, 118.872
1191.096, 54.481
1192.320, 46.896
1193.543, 129.160
1194.767, 105.657
1195.990, 4.123
1197.213, 25.298
1198.436, 20.455
1199.659, 69.588
1200.881, 29.956
1202.104, 51.205
1203.326, 8.740
1204.548, 25.562
1205.770, 34.120
1206.991, 67.443
1208.213, 92.380
1209.434, 91.294
1210.655, 135.794
1211.876, 40.087
1213.096, 119.927
1214.317, 106.331
1215.537, 47.135
1216.757, 66.858
1217.977, 52.849
1219.197, 23.472
1220.417, 154.161
1221.636, 29.862
1222.855, 46.445
1224.074, 152.002
1225.293, 77.327
1226.512, 84.129
1227.731, 231.560
1228.949, 79.979
1230.167, 74.359
1231.385, 147.785
1232.603, 149.116
1233.820, 71.422
1235.038, 127.927
1236.255, 56.178
1237.472, 138.460
1238.689, 39.352
1239.906, 127.796
1241.122, 77.207
1242.338, 155.310
1243.555, 76.390
1244.771, 123.440
1245.986, 156.466
1247.202, 131.467
1248.417, 105.510
1249.633, 112.438
1250.848, 7.729
1252.063, 83.596
1253.277, 153.436
1254.492, 87.251
1255.706, 144.036
1256.920, 34.775
1258.134, 119.447
1259.348, 67.873
1260.562, 181.758
1261.775, 159.358
1262.988, 6.932
1264.201, 62.704
1265.414, 116.291
1266.627, 135.814
1267.839, 122.262
1269.052, 135.665
1270.264, 119.954
1271.476, 166.301
1272.688, 29.898
1273.899, 60.186
1275.111, 28.522
1276.322, 33.698
1277.533, 32.737
1278.744, 81.897
1279.955, 81.028
1281.165, 135.062
1282.376, 94.092
1283.586, 155.007
1284.796, 63.005
1286.006, 93.182
1287.215, 59.124
1288.425, 80.287
1289.634, 115.828
1290.843, 177.976
1292.052, 73.587
1293.261, 59.152
1294.469, 94.720
1295.678, 109.474
1296.886, 1.797
1298.094, 129.695
1299.302, 16.975
1300.509, 105.091
1301.717, 121.393
1302.924, 79.590
1304.131, 67.001
1305.338, 122.090
1306.545, 105.107
1307.752, 63.137
1308.958, 24.794
1310.164, 165.933
1311.370, 152.571
1312.576, 179.261
1313.782, 125.036
1314.987, 146.260
1316.193, 45.254
1317.398, 243.159
1318.603, 74.066
1319.807, 161.921
1321.012, 43.764
1322.216, 156.430
1323.421, 109.495
1324.625, 52.259
1325.829, 198.319
1327.032, 6.800
1328.236, 125.565
1329.439, 115.036
1330.642, 28.008
1331.845, 74.968
1333.048, 128.924
1334.251, 206.384
1335.453, 67.195
1336.656, 107.714
1337.858, 159.180
1339.060, 75.968
1340.261, 150.635
1341.463, 79.050
1342.664, 137.294
1343.866, 147.473
1345.067, 71.905
1346.267, 94.117
1347.468, 143.430
1348.669, 81.339
1349.869, 190.446
1351.069, 278.603
1352.269, 147.909
1353.469, 139.302
1354.668, 218.673
1355.868, 122.216
1357.067, 268.326
1358.266, 21.215
1359.465, 171.585
1360.664, 76.694
1361.862, 126.609
1363.061, 242.716
1364.259, 150.659
1365.457, 102.168
1366.655, 251.069
1367.852, 168.312
1369.050, 90.787
1370.247, 191.898
1371.444, 127.916
1372.641, 114.208
1373.838, 282.114
1375.035, 98.918
1376.231, 136.256
1377.427, 183.245
1378.623, 60.773
1379.819, 156.343
1381.015, 101.002
1382.211, 132.792
1383.406, 146.474
1384.601, 41.965
1385.796, 166.786
1386.991, 159.254
1388.185, 148.366
1389.380, 111.818
1390.574, 234.800
1391.768, 79.681
1392.962, 193.339
1394.156, 15.833
1395.350, 134.015
1396.543, 197.176
1397.736, 243.409
1398.929, 182.367
1400.122, 132.506
1401.315, 130.470
1402.507, 119.622
1403.700, 125.851
1404.892, 117.059
1406.084, 107.125
1407.276, 35.975
1408.467, 72.004
1409.659, 80.389
1410.850, 94.663
1412.041, 178.493
1413.232, 12.280
1414.423, 111.867
1415.614, 15.901
1416.804, 111.851
1417.994, 17.768
1419.184, 176.512
1420.374, 76.798
1421.564, 268.258
1422.753, 121.564
1423.943, 99.701
1425.132, 242.326
1426.321, 253.980
1427.510, 228.134
1428.698, 247.846
1429.887, 137.943
1431.075, 134.258
1432.263, 116.571
1433.451, 183.244
1434.639, 220.195
1435.827, 176.474
1437.014, 151.095
1438.201, 234.692
1439.388, 298.202
1440.575, 93.721
1441.762, 160.779
1442.949, 237.295
1444.135, 168.656
1445.321, 207.159
1446.507, 308.424
1447.693, 178.946
1448.879, 213.331
1450.064, 263.828
1451.250, 217.860
1452.435, 43.227
1453.620, 315.101
1454.805, 220.512
1455.989, 199.906
1457.174, 342.123
1458.358, 182.690
1459.542, 231.115
1460.726, 372.516
1461.910, 226.011
1463.093, 356.500
1464.277, 112.994
1465.460, 157.714
1466.643, 292.115
1467.826, 187.326
1469.009, 348.150
1470.191, 325.933
1471.373, 118.495
1472.556, 300.036
1473.738, 290.612
1474.919, 189.263
1476.101, 267.974
1477.283, 304.703
1478.464, 248.444
1479.645, 161.202
1480.826, 191.965
1482.007, 197.772
1483.187, 199.600
1484.368, 211.256
1485.548, 197.352
1486.728, 206.202
1487.908, 165.831
1489.088, 137.793
1490.268, 112.330
1491.447, 184.882
1492.626, 120.991
1493.805, 76.156
1494.984, 193.445
1496.163, 214.897
1497.341, 170.444
1498.520, 206.071
1499.698, 30.222
1500.876, 192.576
1502.054, 64.476
1503.232, 89.487
1504.409, 177.629
1505.586, 14.941
1506.763, 255.423
1507.940, 230.101
1509.117, 33.990
1510.294, 161.104
1511.470, 19.126
1512.647, 92.216
1513.823, 74.704
1514.999, 94.774
1516.174, 50.545
1517.350, 0.489
1518.526, 122.423
1519.701, 8.795
1520.876, 0.000
##END=



