##NAMES=Hedenbergite
##RRUFFID=R060040
##IDEAL CHEMISTRY=CaFe^2+^Si_2_O_6_
##LOCALITY=Rio Marina, Elba, Italy
##OWNER=RRUFF
##SOURCE=University of Arizona Mineral Museum
##DESCRIPTION=Radial aggregate of green thin bladed crystals
##STATUS=The identification of this mineral has been confirmed by X-ray diffraction and chemical analysis
##URL=rruff.info/R060040
##MEASURED CHEMISTRY=Ca_1.00_(Fe^2+^_0.89_Mg_0.09_Mn_0.02_)_Î£=1_Si_2.00_O_6_
##PIN_ID=M01289
##ORIENTATION=Laser parallel to a* (1 0 0). Fiducial mark perpendicular to laser is parallel to b [0 1 0]
262.4900, 0.0000000E+00
263.7050, 56.64941
264.9210, 127.1396
266.1360, 89.79883
267.3520, 82.59473
268.5670, 121.7100
269.7820, 21.53809
270.9960, 64.34180
272.2110, 93.94238
273.4250, 161.9756
274.6400, 185.2510
275.8540, 110.6104
277.0680, 31.90039
278.2810, 99.97949
279.4950, 212.7158
280.7090, 178.0049
281.9220, 320.7861
283.1350, 238.0801
284.3480, 284.8896
285.5610, 446.1826
286.7730, 378.9258
287.9860, 498.0449
289.1980, 630.4766
290.4100, 669.1621
291.6220, 536.0488
292.8340, 715.0830
294.0460, 728.2207
295.2570, 767.4258
296.4690, 927.6719
297.6800, 1136.982
298.8910, 1300.373
300.1020, 1587.871
301.3120, 1706.826
302.5230, 1874.391
303.7330, 2071.168
304.9440, 2070.399
306.1540, 2484.798
307.3630, 2518.389
308.5730, 2671.070
309.7830, 2416.131
310.9920, 2306.060
312.2010, 2147.821
313.4100, 1744.500
314.6190, 1408.149
315.8280, 1470.702
317.0370, 1130.082
318.2450, 1043.398
319.4530, 1004.533
320.6610, 927.4775
321.8690, 877.2285
323.0770, 929.7959
324.2850, 822.1855
325.4920, 878.4092
326.6990, 1063.469
327.9060, 916.3750
329.1130, 1057.133
330.3200, 1108.837
331.5270, 1017.283
332.7330, 1178.418
333.9390, 1268.590
335.1450, 1412.132
336.3510, 1605.285
337.5570, 1714.685
338.7630, 1851.209
339.9680, 1787.377
341.1740, 2061.825
342.3790, 1818.667
343.5840, 1821.950
344.7890, 1407.149
345.9930, 1364.648
347.1980, 1250.840
348.4020, 1043.274
349.6060, 1261.298
350.8100, 1378.889
352.0140, 1090.299
353.2180, 928.4971
354.4210, 864.8965
355.6250, 1062.250
356.8280, 1070.044
358.0310, 994.5820
359.2340, 1230.225
360.4360, 1346.411
361.6390, 1399.209
362.8410, 1585.571
364.0430, 1767.393
365.2450, 2019.068
366.4470, 2406.828
367.6490, 2816.477
368.8510, 3268.012
370.0520, 3740.154
371.2530, 4154.033
372.4540, 4770.039
373.6550, 5145.435
374.8560, 5467.828
376.0560, 5433.702
377.2570, 5313.271
378.4570, 4811.485
379.6570, 4341.672
380.8570, 3634.830
382.0570, 3103.955
383.2560, 2669.049
384.4560, 2235.111
385.6550, 1600.141
386.8540, 1329.137
388.0530, 1158.100
389.2520, 940.0293
390.4510, 873.9258
391.6490, 694.7891
392.8470, 596.6201
394.0450, 353.4189
395.2430, 436.1855
396.4410, 305.9209
397.6390, 182.6270
398.8360, 191.3008
400.0340, 82.94629
401.2310, 98.55957
402.4280, 227.1436
403.6250, 204.6963
404.8210, 76.21191
406.0180, 111.6982
407.2140, 26.47266
408.4100, 55.08594
409.6060, 83.48340
410.8020, 66.44629
411.9980, 140.5352
413.1930, 70.71875
414.3890, 34.20508
415.5840, 85.94922
416.7790, 17.30762
417.9740, 56.58398
419.1680, 72.12500
420.3630, 2.848633
421.5570, 9.572266
422.7510, 42.69629
423.9450, 11.03809
425.1390, 20.78613
426.3330, 44.44727
427.5270, 19.33105
428.7200, 58.13184
429.9130, 37.03125
431.1060, 41.82715
432.2990, 69.27930
433.4920, 21.63574
434.6840, 6.414063
435.8770, 7.246094
437.0690, 17.07324
438.2610, 85.88086
439.4530, 19.02930
440.6450, 57.97266
441.8360, 4.387695
443.0280, 18.32520
444.2190, 80.59668
445.4100, 34.15039
446.6010, 106.7461
447.7920, 57.37891
448.9820, 20.43555
450.1730, 47.91211
451.3630, 79.94043
452.5530, 18.21387
453.7430, 126.9775
454.9330, 49.70508
456.1230, 190.0967
457.3120, 193.8262
458.5010, 6.213867
459.6910, 144.3916
460.8800, 7.930664
462.0680, 249.3857
463.2570, 124.9707
464.4460, 150.1934
465.6340, 35.62598
466.8220, 91.54980
468.0100, 66.66016
469.1980, 82.38477
470.3860, 14.87402
471.5730, 25.95605
472.7600, 96.15918
473.9480, 214.3164
475.1350, 93.04980
476.3210, 107.8594
477.5080, 179.8545
478.6950, 238.4736
479.8810, 33.75684
481.0670, 133.0215
482.2530, 237.6621
483.4390, 283.4727
484.6250, 95.02832
485.8100, 209.0352
486.9960, 201.5781
488.1810, 189.3623
489.3660, 345.8379
490.5510, 190.7090
491.7360, 344.3896
492.9200, 457.4961
494.1050, 555.3457
495.2890, 585.1162
496.4730, 699.8477
497.6570, 513.5479
498.8400, 685.1338
500.0240, 578.6865
501.2070, 670.2080
502.3910, 437.7012
503.5740, 483.1719
504.7570, 521.6025
505.9400, 504.9990
507.1220, 521.3682
508.3050, 481.6885
509.4870, 448.9785
510.6690, 568.2383
511.8510, 541.4717
513.0330, 468.6787
514.2140, 486.8721
515.3960, 583.0166
516.5770, 607.1416
517.7580, 789.2783
518.9390, 619.3916
520.1200, 704.4873
521.3010, 902.5654
522.4810, 842.6553
523.6610, 697.7373
524.8420, 699.8008
526.0220, 634.8428
527.2010, 571.8652
528.3810, 546.8711
529.5610, 533.8643
530.7400, 588.8535
531.9190, 582.8301
533.0980, 541.7881
534.2770, 544.7266
535.4560, 527.6475
536.6340, 459.5479
537.8120, 538.4307
538.9910, 437.2959
540.1690, 453.0986
541.3460, 621.9209
542.5240, 551.2871
543.7020, 650.7168
544.8790, 611.5244
546.0560, 631.3145
547.2330, 590.5947
548.4100, 720.0049
549.5870, 609.8447
550.7630, 614.9170
551.9400, 674.1426
553.1160, 642.2598
554.2920, 647.6748
555.4680, 687.7715
556.6440, 634.7979
557.8190, 561.5449
558.9950, 529.0840
560.1700, 568.9785
561.3450, 453.5010
562.5200, 524.3359
563.6950, 337.7119
564.8690, 508.3652
566.0440, 466.5791
567.2180, 369.1436
568.3920, 376.7227
569.5660, 485.2979
570.7400, 442.3984
571.9130, 462.8184
573.0870, 418.8613
574.2600, 318.4883
575.4330, 310.7178
576.6060, 135.5654
577.7790, 166.6133
578.9520, 238.0029
580.1240, 168.5693
581.2960, 165.7832
582.4690, 77.48242
583.6410, 169.0332
584.8120, 81.85156
585.9840, 29.50000
587.1560, 105.5596
588.3270, 31.98047
589.4980, 132.4561
590.6690, 5.125977
591.8400, 8.750000
593.0110, 45.18164
594.1810, 103.2549
595.3510, 109.8857
596.5220, 31.34375
597.6920, 89.09961
598.8610, 33.52930
600.0310, 95.95898
601.2010, 69.25098
602.3700, 34.82129
603.5390, 68.64062
604.7080, 145.7861
605.8770, 146.8506
607.0460, 130.7998
608.2140, 36.46094
609.3830, 31.00098
610.5510, 31.52539
611.7190, 115.1318
612.8870, 75.98145
614.0550, 78.53809
615.2220, 184.5645
616.3900, 143.0430
617.5570, 89.57715
618.7240, 196.3848
619.8910, 36.79785
621.0580, 176.2979
622.2240, 248.8379
623.3910, 267.7939
624.5570, 45.78809
625.7230, 292.3496
626.8890, 204.3291
628.0550, 92.51074
629.2200, 356.1553
630.3860, 252.0557
631.5510, 273.6660
632.7160, 329.7549
633.8810, 429.5898
635.0460, 391.7705
636.2100, 421.7852
637.3750, 491.5771
638.5390, 510.3389
639.7030, 756.2607
640.8670, 706.1396
642.0310, 834.9570
643.1950, 959.8262
644.3580, 948.6445
645.5210, 1323.467
646.6850, 1409.205
647.8480, 1531.045
649.0100, 2032.757
650.1730, 2474.306
651.3350, 2685.525
652.4980, 3322.158
653.6600, 4263.609
654.8220, 5423.141
655.9840, 5717.889
657.1450, 6785.791
658.3070, 7699.486
659.4680, 8611.125
660.6300, 8760.496
661.7910, 8827.224
662.9510, 8112.084
664.1120, 7100.598
665.2730, 6114.982
666.4330, 5109.639
667.5930, 4229.011
668.7530, 3393.077
669.9130, 2935.804
671.0730, 2255.741
672.2320, 1960.046
673.3920, 1651.334
674.5510, 1342.707
675.7100, 1185.049
676.8690, 1104.410
678.0280, 895.8496
679.1860, 832.0576
680.3450, 728.2490
681.5030, 631.6689
682.6610, 716.7500
683.8190, 654.1592
684.9770, 529.4209
686.1340, 477.6924
687.2920, 491.9141
688.4490, 396.3184
689.6060, 357.3887
690.7630, 433.4463
691.9200, 320.5703
693.0760, 425.8389
694.2330, 353.8701
695.3890, 304.8770
696.5450, 358.8838
697.7010, 417.2705
698.8570, 298.2793
700.0130, 254.2734
701.1680, 315.3203
702.3230, 335.3174
703.4780, 371.5176
704.6330, 248.7344
705.7880, 363.9102
706.9430, 354.8789
708.0970, 340.8350
709.2520, 233.7891
710.4060, 224.7490
711.5600, 195.6992
712.7140, 196.6504
713.8670, 220.5898
715.0210, 171.5283
716.1740, 285.1406
717.3270, 237.8838
718.4800, 210.8057
719.6330, 138.5518
720.7860, 170.2930
721.9380, 148.6934
723.0910, 214.4727
724.2430, 80.88086
725.3950, 116.9619
726.5470, 178.4482
727.6980, 141.6250
728.8500, 168.3057
730.0010, 97.27441
731.1530, 42.64258
732.3040, 270.7129
733.4550, 50.75977
734.6050, 227.7344
735.7560, 161.5127
736.9060, 141.9023
738.0560, 51.01270
739.2060, 97.42480
740.3560, 125.7158
741.5060, 206.3174
742.6560, 79.60449
743.8050, 117.2061
744.9540, 164.8037
746.1030, 137.3564
747.2520, 190.9336
748.4010, 120.8506
749.5500, 130.9609
750.6980, 114.4346
751.8460, 129.7432
752.9950, 198.0566
754.1420, 160.7520
755.2900, 196.3232
756.4380, 151.6670
757.5850, 20.33594
758.7330, 237.4414
759.8800, 203.1084
761.0270, 265.7676
762.1730, 108.4180
763.3200, 45.56934
764.4670, 57.20020
765.6130, 11.17773
766.7590, 120.1318
767.9050, 102.7227
769.0510, 169.3047
770.1960, 47.88086
771.3420, 131.4443
772.4870, 16.00098
773.6320, 50.54590
774.7770, 99.08008
775.9220, 136.6074
777.0670, 58.12500
778.2110, 63.63477
779.3560, 74.13477
780.5000, 56.62500
781.6440, 64.10742
782.7880, 58.58008
783.9320, 74.04395
785.0750, 28.49902
786.2180, 172.9453
787.3620, 15.61621
788.5050, 157.7998
789.6480, 76.20801
790.7900, 20.39258
791.9330, 132.9834
793.0750, 35.35352
794.2170, 124.2861
795.3590, 38.99512
796.5010, 48.26758
797.6430, 5.467773
798.7850, 107.2178
799.9260, 30.03711
801.0670, 59.11426
802.2080, 97.25781
803.3490, 15.39551
804.4900, 163.9268
805.6310, 16.95117
806.7710, 43.84961
807.9110, 15.78516
809.0510, 141.2578
810.1910, 118.2949
811.3310, 58.32715
812.4710, 61.35156
813.6100, 51.36816
814.7490, 28.37988
815.8880, 96.71289
817.0270, 91.71094
818.1660, 59.29590
819.3050, 54.34570
820.4430, 13.56445
821.5820, 43.46777
822.7200, 36.36328
823.8580, 44.25488
824.9950, 77.86133
826.1330, 140.9707
827.2710, 89.79883
828.4080, 9.680664
829.5450, 15.12793
830.6820, 66.92969
831.8190, 83.72559
832.9560, 78.51855
834.0920, 31.69336
835.2280, 192.0684
836.3650, 90.82520
837.5010, 53.57812
838.6360, 109.3271
839.7720, 12.07031
840.9080, 15.19141
842.0430, 11.52930
843.1780, 145.2461
844.3130, 176.9570
845.4480, 222.6650
846.5830, 172.3691
847.7170, 299.0693
848.8520, 363.7637
849.9860, 476.4561
851.1200, 288.8525
852.2540, 448.3867
853.3870, 530.3291
854.5210, 538.8379
855.6540, 254.0127
856.7880, 347.9336
857.9210, 290.0918
859.0540, 226.0195
860.1860, 373.2842
861.3190, 130.8584
862.4510, 274.6660
863.5840, 264.4580
864.7160, 324.7891
865.8480, 232.3877
866.9790, 186.9902
868.1110, 294.1436
869.2420, 317.1299
870.3740, 202.7959
871.5050, 276.8584
872.6360, 137.5439
873.7660, 188.2266
874.8970, 240.5820
876.0280, 270.1338
877.1580, 325.8057
878.2880, 78.49902
879.4180, 183.0049
880.5480, 355.6689
881.6770, 248.3584
882.8070, 228.0635
883.9360, 289.7803
885.0650, 286.5068
886.1940, 343.2354
887.3230, 336.9570
888.4520, 211.6836
889.5800, 356.4082
890.7090, 285.1328
891.8370, 233.8555
892.9650, 256.5781
894.0930, 300.9170
895.2200, 227.6641
896.3480, 252.4102
897.4750, 124.1533
898.6020, 236.9053
899.7290, 126.3975
900.8560, 141.9395
901.9830, 222.2285
903.1090, 194.0029
904.2360, 222.8232
905.3620, 126.6533
906.4880, 219.2471
907.6140, 130.0752
908.7400, 44.54102
909.8650, 135.1592
910.9900, 141.9834
912.1160, 149.8311
913.2410, 166.5117
914.3660, 136.2178
915.4900, 220.9688
916.6150, 74.65039
917.7390, 243.3662
918.8640, 230.0605
919.9880, 129.8232
921.1120, 213.3984
922.2350, 99.25488
923.3590, 148.4893
924.4820, 195.3525
925.6060, 317.1455
926.7290, 92.10645
927.8520, 168.9727
928.9740, 217.6045
930.0970, 83.06738
931.2190, 120.7236
932.3420, 56.42383
933.4640, 98.37598
934.5860, 46.95410
935.7080, 140.3877
936.8290, 37.15137
937.9510, 174.0303
939.0720, 95.37891
940.1930, 59.46582
941.3140, 46.59961
942.4350, 146.0596
943.5560, 16.29688
944.6760, 23.15234
945.7960, 120.0107
946.9170, 164.7695
948.0370, 51.54785
949.1560, 109.2910
950.2760, 19.05664
951.3960, 201.8125
952.5150, 60.68262
953.6340, 105.3125
954.7530, 99.27051
955.8720, 179.8916
956.9910, 153.6416
958.1090, 207.3711
959.2280, 98.14160
960.3460, 122.7158
961.4640, 41.61523
962.5820, 58.47168
963.6990, 200.3584
964.8170, 145.0342
965.9340, 111.9346
967.0510, 237.8506
968.1690, 121.7705
969.2850, 227.3291
970.4020, 107.2578
971.5190, 185.1904
972.6350, 131.0859
973.7510, 58.02734
974.8670, 56.76562
975.9830, 272.4766
977.0990, 218.2305
978.2150, 323.1924
979.3300, 174.1582
980.4450, 108.1289
981.5600, 376.1064
982.6750, 413.0879
983.7900, 349.0732
984.9050, 459.0645
986.0190, 315.0605
987.1340, 509.0605
988.2480, 340.0674
989.3620, 506.0781
990.4750, 481.0947
991.5890, 723.1162
992.7020, 854.1426
993.8160, 939.1748
994.9290, 874.2119
996.0420, 1246.255
997.1550, 1362.303
998.2670, 1617.357
999.3800, 1855.417
1000.492, 2300.481
1001.604, 2929.552
1002.716, 3608.630
1003.828, 4355.712
1004.940, 5168.819
1006.051, 6803.930
1007.163, 8618.045
1008.274, 10422.17
1009.385, 12872.29
1010.496, 15320.43
1011.606, 17207.57
1012.717, 17930.71
1013.827, 16716.87
1014.937, 14558.02
1016.047, 12049.00
1017.157, 9721.165
1018.267, 7459.336
1019.377, 6179.514
1020.486, 5095.697
1021.595, 4109.884
1022.704, 3413.076
1023.813, 3108.279
1024.922, 2715.480
1026.030, 2489.688
1027.139, 2310.899
1028.247, 2136.154
1029.355, 2173.376
1030.463, 2171.602
1031.571, 1708.398
1032.678, 1792.634
1033.786, 1594.874
1034.893, 1352.121
1036.000, 1427.651
1037.107, 1380.697
1038.214, 1170.972
1039.321, 1120.248
1040.427, 1001.560
1041.533, 870.0723
1042.639, 927.9287
1043.745, 904.2764
1044.851, 882.4111
1045.957, 769.0273
1047.062, 696.3945
1048.168, 760.7637
1049.273, 477.1367
1050.378, 600.5137
1051.482, 610.9805
1052.587, 737.3633
1053.692, 491.8057
1054.796, 464.1963
1055.900, 607.5898
1057.004, 470.4346
1058.108, 491.8408
1059.212, 504.2500
1060.315, 392.6719
1061.418, 543.0947
1062.522, 509.5225
1063.625, 444.2275
1064.728, 451.6973
1065.830, 363.1699
1066.933, 481.6494
1068.035, 367.1631
1069.137, 486.6914
1070.239, 435.2207
1071.341, 395.7549
1072.443, 313.8896
1073.545, 158.4453
1074.646, 441.0273
1075.747, 352.8838
1076.848, 99.46191
1077.949, 331.0430
1079.050, 425.6250
1080.150, 415.2119
1081.251, 258.7998
1082.351, 245.3916
1083.451, 279.6582
1084.551, 291.2559
1085.651, 356.8574
1086.750, 219.4785
1087.850, 164.1191
1088.949, 239.7637
1090.048, 251.4102
1091.147, 228.0625
1092.246, 269.7148
1093.345, 202.3936
1094.443, 175.0420
1095.541, 343.2861
1096.639, 251.9824
1097.737, 306.6816
1098.835, 137.3828
1099.933, 169.0859
1101.030, 317.7900
1102.128, 172.5088
1103.225, 333.2285
1104.322, 143.9492
1105.419, 134.6738
1106.515, 165.3994
1107.612, 184.1289
1108.708, 281.9307
1109.804, 327.6699
1110.900, 195.4102
1111.996, 251.1543
1113.092, 50.89941
1114.187, 218.6455
1115.283, 206.3936
1116.378, 193.1416
1117.473, 220.8926
1118.568, 115.6436
1119.662, 122.3965
1120.757, 197.1494
1121.851, 96.90527
1122.946, 285.6846
1124.040, 100.4424
1125.134, 104.2012
1126.227, 97.96094
1127.321, 220.7227
1128.414, 268.4844
1129.508, 74.24707
1130.601, 157.0098
1131.693, 258.7734
1132.786, 87.60254
1133.879, 151.3682
1134.971, 125.1348
1136.064, 140.9023
1137.156, 82.11133
1138.248, 167.2080
1139.339, 207.9775
1140.431, 206.7861
1141.522, 37.98535
1142.614, 85.61426
1143.705, 46.51465
1144.796, 3.854492
1145.887, 81.96387
1146.977, 62.45605
1148.068, 13.70117
1149.158, 133.0664
1150.248, 10.46875
1151.338, 68.20410
1152.428, 60.94141
1153.518, 102.6768
1154.607, 6.416016
1155.696, 90.15625
1156.785, 54.89551
1157.874, 245.6338
1158.963, 94.62793
1160.052, 53.05957
1161.141, 21.74414
1162.229, 38.56934
1163.317, 62.10449
1164.405, 88.76562
1165.493, 72.42578
1166.581, 79.76855
1167.668, 215.1543
1168.756, 84.34473
1169.843, 177.8418
1170.930, 16.98535
1172.017, 7.878906
1173.103, 15.63086
1174.190, 37.24414
1175.276, 33.26562
1176.363, 24.80273
1177.449, 153.6553
1178.535, 66.09375
1179.620, 204.5312
1180.706, 41.00586
1181.791, 18.43945
1182.877, 214.8682
1183.962, 21.29590
1185.047, 53.72168
1186.131, 67.14551
1187.216, 9.433594
1188.300, 52.97266
1189.385, 166.3760
1190.469, 139.7764
1191.553, 224.1758
1192.637, 200.5723
1193.720, 13.96582
1194.804, 130.3711
1195.887, 62.77344
1196.970, 123.1738
1198.053, 100.5703
1199.136, 109.9648
1200.219, 117.3574
1201.301, 90.74609
1202.383, 188.1328
1203.465, 35.53516
1204.547, 31.93457
1205.629, 14.33105
1206.711, 121.7217
1207.792, 239.1094
1208.874, 92.49414
1209.955, 84.87598
1211.036, 208.2549
1212.117, 52.63574
1213.198, 50.01465
1214.278, 126.3916
1215.359, 76.76562
1216.439, 129.1357
1217.519, 74.50293
1218.599, 195.8662
1219.678, 181.2266
1220.758, 187.5840
1221.837, 209.9375
1222.917, 64.28809
1223.996, 13.03809
1225.075, 19.28613
1226.153, 125.6143
1227.232, 307.9365
1228.310, 114.2559
1229.389, 80.57129
1230.467, 92.88379
1231.545, 124.1914
1232.622, 306.4941
1233.700, 235.7949
1234.777, 103.0908
1235.855, 169.3838
1236.932, 152.9150
1238.009, 34.19922
1239.086, 94.47852
1240.162, 156.7549
1241.239, 210.0273
1242.315, 167.2959
1243.391, 147.5596
1244.467, 96.82031
1245.543, 170.0762
1246.619, 201.3281
1247.694, 79.57715
1248.769, 198.8203
1249.844, 65.06055
1250.919, 75.29688
1251.994, 46.53125
1253.069, 229.7627
1254.144, 119.9893
1255.218, 229.2119
1256.292, 105.4307
1257.366, 152.6455
1258.440, 287.8545
1259.514, 309.0596
1260.587, 158.2617
1261.661, 38.45996
1262.734, 154.6523
1263.807, 120.8389
1264.880, 126.0234
1265.952, 134.2031
1267.025, 276.3779
1268.097, 93.54883
1269.170, 204.7148
1270.242, 203.8770
1271.314, 124.0352
1272.385, 170.1885
1273.457, 132.3369
1274.528, 262.4814
1275.600, 222.6230
1276.671, 218.9385
1277.742, 196.0703
1278.812, 10.19922
1279.883, 179.3477
1280.954, 211.4609
1282.024, 215.5713
1283.094, 143.4766
1284.164, 325.5732
1285.234, 300.6738
1286.303, 188.7695
1287.373, 122.8623
1288.442, 161.9141
1289.511, 341.9980
1290.580, 141.0801
1291.649, 43.59180
1292.718, 90.66602
1293.786, 176.7354
1294.855, 17.77539
1295.923, 99.00293
1296.991, 71.26953
1298.059, 113.3086
1299.126, 50.65527
1300.194, 62.66504
1301.261, 47.10352
1302.328, 63.46777
1303.395, 277.2168
1304.462, 50.35059
1305.529, 25.99609
1306.596, 186.9004
1307.662, 120.7939
1308.728, 17.68652
1309.794, 248.5771
1310.860, 173.3799
1311.926, 166.2666
1312.991, 153.0986
1314.057, 179.9814
1315.122, 135.8643
1316.187, 135.3057
1317.252, 205.1855
1318.317, 124.0635
1319.381, 248.9424
1320.446, 115.8193
1321.510, 169.6973
1322.574, 137.9756
1323.638, 45.85449
1324.702, 121.7334
1325.766, 273.6162
1326.829, 322.4912
1327.892, 102.3643
1328.956, 226.2363
1330.019, 351.1074
1331.081, 177.9766
1332.144, 184.8291
1333.206, 273.6621
1334.269, 228.2666
1335.331, 225.1289
1336.393, 216.9902
1337.455, 123.8506
1338.516, 571.7100
1339.578, 176.8828
1340.639, 374.7314
1341.701, 236.5791
1342.762, 102.4258
1343.822, 210.2705
1344.883, 90.11426
1345.944, 60.95508
1347.004, 399.8037
1348.064, 273.6416
1349.124, 158.4775
1350.184, 240.3145
1351.244, 16.85156
1352.304, 167.0156
1353.363, 314.5879
1354.422, 237.4131
1355.481, 200.2383
1356.540, 173.0615
1357.599, 86.88477
1358.657, 145.7070
1359.716, 303.5283
1360.774, 284.3477
1361.832, 291.1680
1362.890, 194.9883
1363.948, 0.8066410
1365.006, 216.6367
1366.063, 227.3906
1367.120, 117.2051
1368.178, 220.0215
1369.234, 137.8311
1370.291, 106.6387
1371.348, 201.4473
1372.404, 214.2568
1373.461, 85.06543
1374.517, 222.8691
1375.573, 145.6748
1376.629, 270.4795
1377.684, 372.2842
1378.740, 209.6533
1379.795, 253.5986
1380.850, 127.3789
1381.905, 199.1602
1382.960, 125.9414
1384.015, 285.7246
1385.070, 198.5088
1386.124, 239.2930
1387.178, 225.0791
1388.232, 179.8350
1389.286, 144.5283
1390.340, 114.2861
1391.393, 218.0449
1392.447, 105.8047
1393.500, 84.56543
1394.553, 141.3262
1395.606, 363.0879
1396.659, 235.8379
1397.711, 144.5879
1398.764, 234.3408
1399.816, 165.0938
1400.868, 222.8467
1401.920, 87.74805
1402.972, 184.5059
1404.023, 127.2803
1405.075, 99.05566
1406.126, 15.16895
1407.177, 209.9482
1408.228, 94.72852
1409.279, 14.49023
1410.330, 102.2900
1411.380, 120.8018
1412.431, 171.5869
1413.481, 84.37305
1414.531, 112.1621
1415.580, 338.9785
1416.630, 96.78516
1417.680, 169.5957
1418.729, 266.4082
