##NAMES=Hedenbergite
##RRUFFID=R050030
##IDEAL CHEMISTRY=CaFe^2+^Si_2_O_6_
##LOCALITY=Heroult, Ontario, Canada
##OWNER=RRUFF
##SOURCE=University of Arizona Mineral Museum
##DESCRIPTION=Green fragments
##STATUS=The identification of this mineral has been confirmed by X-ray diffraction and chemical analysis
##URL=rruff.info/R050030
##MEASURED CHEMISTRY=(Ca_.993_Na_.007_)(Fe_.860_Mn_.111_Mg_.029_)(Si_.993_Al_.007_)_2_O_6_
##PIN_ID=M00284
##ORIENTATION=Laser parallel to -b* (0 -1 0). Fiducial mark perpendicular to laser is parallel to -c [0 0 -1]
92.661, 0.000
94.059, 47.816
95.458, 56.142
96.856, 48.554
98.254, 8.154
99.652, 0.342
101.049, 15.413
102.446, 185.577
103.843, 288.490
105.240, 411.886
106.637, 399.527
108.033, 492.221
109.429, 650.819
110.825, 1046.221
112.220, 1142.353
113.616, 1293.167
115.011, 1342.613
116.406, 1753.583
117.800, 2119.996
119.195, 2784.788
120.589, 3553.912
121.983, 4309.327
123.377, 4620.021
124.770, 4822.963
126.163, 4362.247
127.556, 3687.783
128.949, 3022.508
130.342, 2325.631
131.734, 1817.079
133.126, 1517.726
134.518, 1214.019
135.909, 1059.307
137.301, 1050.591
138.692, 912.874
140.083, 890.158
141.473, 796.452
142.864, 886.762
144.254, 819.089
145.644, 799.439
147.034, 831.815
148.423, 805.222
149.812, 792.663
151.201, 859.140
152.590, 855.878
153.979, 924.420
155.367, 798.995
156.755, 788.083
158.143, 797.410
159.530, 831.691
160.918, 884.295
162.305, 925.217
163.692, 986.450
165.078, 1035.237
166.465, 1109.371
167.851, 1150.994
169.237, 1181.191
170.623, 1260.534
172.008, 1305.096
173.393, 1405.854
174.778, 1579.461
176.163, 1712.793
177.548, 1575.126
178.932, 1404.453
180.316, 1134.784
181.700, 873.129
183.083, 602.493
184.467, 488.876
185.850, 475.289
187.233, 381.726
188.616, 310.287
189.998, 375.889
191.380, 169.524
192.762, 298.201
194.144, 269.901
195.525, 194.631
196.907, 156.465
198.288, 155.326
199.669, 144.229
201.049, 63.197
202.429, 59.197
203.810, 54.278
205.189, 52.427
206.569, 54.161
207.949, 34.817
209.328, 53.046
210.707, 16.297
212.085, 4.444
213.464, 39.815
214.842, 56.077
216.220, 43.342
217.598, 64.610
218.976, 9.106
220.353, 3.208
221.730, 12.473
223.107, 13.854
224.483, 43.782
225.860, 11.703
227.236, 38.050
228.612, 97.485
229.988, 70.926
231.363, 111.362
232.738, 139.801
234.113, 8.762
235.488, 89.673
236.863, 9.895
238.237, 79.532
239.611, 69.049
240.985, 23.360
242.359, 34.746
243.732, 45.875
245.105, 31.497
246.478, 57.139
247.851, 57.216
249.223, 63.550
250.595, 32.864
251.967, 30.155
253.339, 32.580
254.711, 99.318
256.082, 70.069
257.453, 30.279
258.824, 63.028
260.195, 12.510
261.565, 97.833
262.935, 98.266
264.305, 146.238
265.675, 129.864
267.044, 190.812
268.414, 283.597
269.783, 351.446
271.151, 369.425
272.520, 387.435
273.888, 559.562
275.256, 532.639
276.624, 625.966
277.992, 633.394
279.359, 688.536
280.726, 704.749
282.093, 711.827
283.460, 550.132
284.827, 551.433
286.193, 511.047
287.559, 536.804
288.925, 489.265
290.290, 500.811
291.656, 507.427
293.021, 570.742
294.386, 635.219
295.750, 747.154
297.115, 977.672
298.479, 1069.021
299.843, 1338.813
301.207, 1430.381
302.570, 1693.356
303.933, 1810.853
305.296, 2031.413
306.659, 1950.966
308.022, 1856.441
309.384, 1854.035
310.746, 1724.774
312.108, 1567.383
313.470, 1528.513
314.831, 1583.220
316.193, 1584.532
317.554, 1705.178
318.914, 1801.118
320.275, 2109.384
321.635, 2363.020
322.995, 2615.354
324.355, 2947.116
325.715, 3410.501
327.074, 3892.053
328.434, 4032.643
329.792, 4092.935
331.151, 3943.194
332.510, 3753.452
333.868, 3433.690
335.226, 3153.905
336.584, 2832.117
337.941, 2518.719
339.299, 2219.878
340.656, 1945.332
342.013, 1663.239
343.370, 1524.160
344.726, 1199.634
346.082, 1237.912
347.438, 1111.542
348.794, 998.922
350.150, 889.546
351.505, 919.053
352.860, 835.396
354.215, 885.858
355.570, 1018.622
356.924, 1009.031
358.278, 1195.960
359.632, 1262.663
360.986, 1552.074
362.339, 1736.231
363.693, 2142.972
365.046, 2615.425
366.399, 3140.483
367.751, 3905.534
369.104, 4665.954
370.456, 5466.666
371.808, 6116.783
373.159, 6557.093
374.511, 6697.270
375.862, 6307.485
377.213, 5657.727
378.564, 4837.941
379.914, 4057.925
381.265, 3408.099
382.615, 2727.878
383.965, 2283.846
385.315, 1811.518
386.664, 1531.458
388.013, 1369.914
389.362, 1097.836
390.711, 910.750
392.060, 757.653
393.408, 799.547
394.756, 664.432
396.104, 623.306
397.451, 523.996
398.799, 487.096
400.146, 408.723
401.493, 371.679
402.840, 423.701
404.186, 367.518
405.533, 342.441
406.879, 303.592
408.225, 201.417
409.570, 170.185
410.916, 126.953
412.261, 104.807
413.606, 176.826
414.951, 112.582
416.295, 102.250
417.639, 128.066
418.983, 30.813
420.327, 33.751
421.671, 62.657
423.014, 62.343
424.357, 71.023
425.700, 11.699
427.043, 101.368
428.386, 20.271
429.728, 83.237
431.070, 92.881
432.412, 61.518
433.753, 67.350
435.095, 50.967
436.436, 73.573
437.777, 23.169
439.118, 14.753
440.458, 136.324
441.798, 73.884
443.138, 94.567
444.478, 63.979
445.818, 1.554
447.157, 14.892
448.496, 10.323
449.835, 45.738
451.174, 3.859
452.513, 19.521
453.851, 107.886
455.189, 55.239
456.527, 8.581
457.864, 49.903
459.202, 78.787
460.539, 14.472
461.876, 41.714
463.212, 8.943
464.549, 60.154
465.885, 33.648
467.221, 17.488
468.557, 67.640
469.893, 39.755
471.228, 20.144
472.563, 2.075
473.898, 74.030
475.233, 21.960
476.567, 29.065
477.902, 28.872
479.236, 11.793
480.570, 3.708
481.903, 30.608
483.237, 101.494
484.570, 20.616
485.903, 85.239
487.235, 45.099
488.568, 34.971
489.900, 184.828
491.232, 118.695
492.564, 169.557
493.896, 185.416
495.227, 122.269
496.558, 141.710
497.889, 22.968
499.220, 100.796
500.551, 30.621
501.881, 8.431
503.211, 8.222
504.541, 17.990
505.870, 72.764
507.200, 18.502
508.529, 48.223
509.858, 18.967
511.187, 25.697
512.515, 31.588
513.844, 30.091
515.172, 38.246
516.500, 39.385
517.827, 9.001
519.155, 5.417
520.482, 37.139
521.809, 96.681
523.136, 14.209
524.462, 28.716
525.789, 118.205
527.115, 118.681
528.441, 31.140
529.766, 14.581
531.092, 98.003
532.417, 50.408
533.742, 80.796
535.067, 50.168
536.391, 62.523
537.716, 66.861
539.040, 189.183
540.364, 73.489
541.688, 183.778
543.011, 119.053
544.334, 164.313
545.657, 206.560
546.980, 184.792
548.303, 309.015
549.625, 286.224
550.947, 288.416
552.269, 203.594
553.591, 211.756
554.913, 197.902
556.234, 121.035
557.555, 66.158
558.876, 205.497
560.197, 96.583
561.517, 108.788
562.837, 197.854
564.157, 97.904
565.477, 144.939
566.797, 117.034
568.116, 73.045
569.435, 216.440
570.754, 39.500
572.073, 128.470
573.391, 123.425
574.709, 190.648
576.027, 134.577
577.345, 100.826
578.663, 71.590
579.980, 77.703
581.297, 134.199
582.614, 135.035
583.931, 134.068
585.248, 195.662
586.564, 72.500
587.880, 55.081
589.196, 166.881
590.511, 180.665
591.827, 81.359
593.142, 168.057
594.457, 251.666
595.772, 221.352
597.086, 156.807
598.401, 164.178
599.715, 217.849
601.029, 276.459
602.343, 110.212
603.656, 222.742
604.969, 211.280
606.282, 234.509
607.595, 280.596
608.908, 302.289
610.220, 346.702
611.532, 285.922
612.844, 363.549
614.156, 294.063
615.468, 292.944
616.779, 361.685
618.090, 398.842
619.401, 545.832
620.712, 418.450
622.022, 604.411
623.332, 515.020
624.642, 562.525
625.952, 620.124
627.262, 679.740
628.571, 764.011
629.880, 851.264
631.189, 834.731
632.498, 889.968
633.807, 907.091
635.115, 1101.733
636.423, 1259.003
637.731, 1398.373
639.039, 1716.405
640.346, 1863.684
641.653, 2015.011
642.960, 2349.976
644.267, 2701.100
645.574, 3224.814
646.880, 3931.823
648.186, 4844.409
649.492, 6043.484
650.798, 7322.816
652.103, 9421.776
653.409, 11672.249
654.714, 14249.946
656.019, 16336.861
657.323, 17726.199
658.628, 18143.154
659.932, 16919.773
661.236, 14330.392
662.540, 12424.990
663.843, 9891.769
665.147, 7868.174
666.450, 6274.154
667.753, 4911.453
669.056, 4038.588
670.358, 3183.630
671.660, 2670.197
672.963, 2096.601
674.264, 1923.134
675.566, 1498.313
676.868, 1293.634
678.169, 1130.862
679.470, 1067.766
680.771, 843.833
682.071, 790.162
683.372, 686.864
684.672, 613.551
685.972, 599.850
687.271, 505.832
688.571, 532.386
689.870, 468.725
691.169, 420.966
692.468, 411.481
693.767, 315.823
695.065, 293.167
696.364, 234.719
697.662, 201.719
698.960, 203.583
700.257, 200.083
701.555, 211.725
702.852, 243.060
704.149, 259.526
705.446, 264.149
706.742, 292.769
708.038, 278.843
709.335, 315.254
710.631, 301.650
711.926, 358.034
713.222, 134.389
714.517, 78.500
715.812, 186.840
717.107, 103.047
718.402, 189.290
719.696, 165.590
720.990, 221.758
722.284, 118.028
723.578, 234.248
724.872, 40.294
726.165, 116.650
727.458, 142.500
728.751, 158.827
730.044, 65.061
731.336, 191.234
732.629, 57.396
733.921, 173.426
735.213, 139.321
736.504, 135.434
737.796, 131.542
739.087, 87.639
740.378, 123.723
741.669, 129.793
742.960, 185.612
744.250, 141.544
745.540, 167.579
746.830, 173.603
748.120, 149.408
749.410, 185.407
750.699, 221.396
751.988, 237.373
753.277, 183.338
754.566, 289.292
755.854, 215.236
757.143, 251.168
758.431, 127.052
759.719, 132.991
761.006, 238.924
762.294, 184.847
763.581, 50.761
764.868, 96.681
766.155, 132.615
767.442, 98.499
768.728, 84.371
770.014, 210.232
771.300, 16.085
772.586, 28.075
773.872, 157.754
775.157, 23.574
776.442, 79.383
777.727, 35.182
779.012, 40.967
780.297, 16.753
781.581, 27.774
782.865, 78.303
784.149, 44.060
785.433, 19.814
786.716, 14.438
787.999, 71.308
789.282, 37.043
790.565, 42.777
791.848, 31.152
793.130, 15.461
794.413, 30.210
795.695, 54.132
796.977, 61.480
798.258, 52.908
799.540, 97.342
800.821, 78.158
802.102, 76.353
803.382, 20.921
804.663, 25.516
805.943, 20.141
807.224, 44.792
808.504, 0.516
809.783, 45.809
811.063, 28.908
812.342, 46.345
813.621, 11.587
814.900, 63.180
816.179, 112.010
817.457, 127.200
818.736, 112.383
820.014, 142.441
821.292, 7.352
822.569, 2.277
823.847, 17.217
825.124, 87.835
826.401, 47.119
827.678, 97.904
828.954, 52.921
830.231, 67.937
831.507, 7.049
832.783, 47.951
834.059, 102.945
835.334, 247.934
836.610, 152.916
837.885, 317.894
839.160, 392.863
840.435, 697.827
841.709, 762.787
842.983, 937.742
844.258, 1452.722
845.532, 1977.695
846.805, 2462.674
848.079, 3167.646
849.352, 3352.615
850.625, 3407.623
851.898, 3462.623
853.171, 2877.618
854.443, 2352.610
855.715, 1897.595
856.988, 1592.577
858.259, 1247.557
859.531, 972.531
860.803, 887.501
862.074, 482.469
863.345, 527.430
864.616, 542.406
865.886, 347.378
867.157, 352.355
868.427, 277.097
869.697, 162.072
870.967, 316.915
872.236, 131.888
873.506, 216.856
874.775, 121.828
876.044, 246.727
877.313, 81.710
878.581, 56.299
879.849, 201.204
881.118, 56.182
882.386, 71.153
883.653, 95.841
884.921, 120.811
886.188, 135.464
887.455, 90.443
888.722, 35.422
889.989, 110.396
891.255, 165.367
892.522, 130.154
893.788, 115.090
895.054, 153.190
896.319, 35.013
897.585, 169.973
898.850, 154.929
900.115, 89.882
901.380, 164.837
902.645, 89.792
903.909, 194.744
905.174, 149.702
906.438, 114.656
907.701, 129.609
908.965, 224.560
910.229, 139.507
911.492, 84.453
912.755, 219.396
914.018, 94.337
915.280, 149.277
916.543, 73.900
917.805, 68.716
919.067, 133.646
920.329, 108.462
921.590, 113.216
922.852, 132.887
924.113, 122.174
925.374, 134.806
926.635, 129.718
927.895, 114.209
929.156, 125.563
930.416, 118.482
931.676, 119.563
932.936, 132.491
934.195, 126.992
935.454, 161.701
936.714, 176.266
937.973, 120.725
939.231, 213.878
940.490, 188.547
941.748, 173.075
943.006, 2.377
944.264, 159.755
945.522, 102.880
946.780, 297.367
948.037, 108.086
949.294, 312.701
950.551, 73.516
951.808, 181.555
953.064, 186.237
954.320, 205.621
955.577, 158.499
956.832, 201.102
958.088, 224.061
959.344, 275.488
960.599, 189.678
961.854, 334.229
963.109, 76.707
964.364, 191.261
965.618, 55.672
966.872, 236.055
968.127, 290.886
969.380, 125.719
970.634, 350.551
971.888, 306.041
973.141, 189.949
974.394, 364.120
975.647, 197.526
976.900, 272.269
978.152, 344.058
979.404, 318.850
980.656, 513.712
981.908, 488.405
983.160, 372.461
984.411, 717.791
985.663, 542.643
986.914, 777.594
988.165, 762.781
989.415, 747.640
990.666, 962.717
991.916, 987.614
993.166, 1192.832
994.416, 1484.758
995.665, 1509.643
996.915, 2017.139
998.164, 2262.021
999.413, 2747.141
1000.662, 3482.611
1001.911, 4317.498
1003.159, 5662.660
1004.407, 7048.266
1005.655, 9563.163
1006.903, 13348.975
1008.151, 17874.477
1009.398, 23059.703
1010.646, 26405.256
1011.893, 25690.676
1013.139, 23605.742
1014.386, 18765.494
1015.633, 14520.496
1016.879, 11259.285
1018.125, 8404.723
1019.371, 6560.162
1020.616, 5016.438
1021.862, 4141.430
1023.107, 3636.703
1024.352, 3123.344
1025.597, 2798.337
1026.842, 2328.211
1028.086, 2173.443
1029.330, 2118.940
1030.574, 1924.636
1031.818, 1719.729
1033.062, 1635.581
1034.305, 1391.361
1035.548, 1346.875
1036.791, 1085.608
1038.034, 1091.094
1039.277, 1006.108
1040.519, 991.604
1041.762, 948.674
1043.004, 961.986
1044.246, 857.541
1045.487, 812.789
1046.729, 748.121
1047.970, 783.134
1049.211, 778.559
1050.452, 724.482
1051.692, 717.028
1052.933, 625.734
1054.173, 662.616
1055.413, 637.511
1056.653, 663.239
1057.893, 608.323
1059.132, 663.352
1060.371, 538.991
1061.610, 523.844
1062.849, 539.244
1064.088, 494.881
1065.326, 629.791
1066.565, 465.086
1067.803, 559.929
1069.041, 494.722
1070.278, 529.573
1071.516, 554.661
1072.753, 290.068
1073.990, 535.044
1075.227, 539.808
1076.464, 424.809
1077.700, 599.961
1078.936, 604.978
1080.173, 659.718
1081.408, 974.676
1082.644, 1519.454
1083.880, 2824.253
1085.115, 3499.005
1086.350, 2533.785
1087.585, 1558.472
1088.820, 753.152
1090.054, 648.610
1091.288, 423.270
1092.522, 507.854
1093.756, 382.821
1094.990, 417.462
1096.224, 312.744
1097.457, 437.376
1098.690, 231.993
1099.923, 307.268
1101.156, 341.901
1102.388, 216.966
1103.621, 381.871
1104.853, 236.492
1106.085, 351.637
1107.316, 326.357
1108.548, 231.034
1109.779, 255.992
1111.010, 290.574
1112.241, 245.429
1113.472, 370.438
1114.703, 224.986
1115.933, 149.690
1117.163, 305.049
1118.393, 239.564
1119.623, 294.515
1120.853, 369.195
1122.082, 273.702
1123.311, 208.526
1124.540, 203.010
1125.769, 98.100
1126.997, 312.984
1128.226, 87.430
1129.454, 187.900
1130.682, 272.309
1131.910, 2.449
1133.138, 213.024
1134.365, 137.372
1135.592, 82.519
1136.819, 258.123
1138.046, 112.815
1139.273, 158.751
1140.499, 83.603
1141.725, 120.465
1142.951, 237.696
1144.177, 47.646
1145.403, 246.976
1146.628, 121.745
1147.854, 173.628
1149.079, 222.067
1150.304, 116.931
1151.528, 11.165
1152.753, 188.973
1153.977, 4.391
1155.201, 50.350
1156.425, 115.248
1157.649, 39.005
1158.872, 74.988
1160.096, 159.539
1161.319, 76.180
1162.542, 179.122
1163.764, 53.704
1164.987, 99.783
1166.209, 108.562
1167.431, 7.532
1168.653, 216.596
1169.875, 151.665
1171.097, 14.582
1172.318, 219.390
1173.539, 66.296
1174.760, 157.348
1175.981, 73.270
1177.202, 56.701
1178.422, 170.069
1179.642, 15.037
1180.862, 38.150
1182.082, 101.033
1183.302, 45.058
1184.521, 108.252
1185.740, 171.706
1186.959, 105.014
1188.178, 228.089
1189.397, 136.570
1190.615, 99.570
1191.834, 173.550
1193.052, 108.341
1194.269, 231.232
1195.487, 137.075
1196.705, 29.881
1197.922, 42.829
1199.139, 140.200
1200.356, 7.030
1201.573, 365.174
1202.789, 69.080
1204.006, 221.784
1205.222, 234.430
1206.438, 86.932
1207.653, 278.999
1208.869, 141.801
1210.084, 83.815
1211.299, 256.160
1212.514, 158.948
1213.729, 260.881
1214.944, 342.789
1216.158, 265.400
1217.372, 207.257
1218.586, 129.625
1219.800, 231.423
1221.014, 284.226
1222.227, 226.456
1223.440, 188.502
1224.654, 221.672
1225.866, 297.604
1227.079, 239.227
1228.292, 281.751
1229.504, 276.866
1230.716, 286.142
1231.928, 278.993
1233.139, 320.467
1234.351, 352.022
1235.562, 114.532
1236.773, 415.908
1237.984, 237.345
1239.195, 228.637
1240.406, 439.878
1241.616, 151.076
1242.826, 382.478
1244.036, 333.587
1245.246, 154.768
1246.456, 365.775
1247.665, 206.736
1248.874, 247.658
1250.083, 398.500
1251.292, 189.297
1252.501, 290.789
1253.709, 301.490
1254.917, 232.404
1256.125, 423.107
1257.333, 253.555
1258.541, 215.143
1259.748, 465.908
1260.956, 286.195
1262.163, 127.078
1263.370, 387.559
1264.576, 218.105
1265.783, 288.590
1266.989, 358.646
1268.195, 249.695
1269.401, 419.621
1270.607, 179.451
1271.813, 231.555
1273.018, 401.248
1274.223, 49.135
1275.428, 511.430
1276.633, 130.955
1277.838, 90.406
1279.042, 480.830
1280.246, 140.107
1281.450, 69.328
1282.654, 238.857
1283.858, 37.852
1285.061, 205.217
1286.265, 43.910
1287.468, 14.180
1288.671, 215.129
1289.873, 211.350
1291.076, 170.119
1292.278, 198.598
1293.480, 26.670
1294.682, 105.686
1295.884, 244.441
1297.086, 17.793
1298.287, 0.625
1299.488, 108.066
1300.689, 85.758
1301.890, 323.775
1303.091, 11.279
1304.291, 118.850
1305.491, 176.701
1306.691, 29.795
1307.891, 172.416
1309.091, 321.480
1310.290, 41.348
1311.490, 205.752
1312.689, 141.938
1313.888, 29.334
1315.086, 216.219
1316.285, 151.666
1317.483, 88.686
1318.681, 200.752
1319.879, 2.643
1321.077, 233.510
1322.275, 239.516
1323.472, 15.918
1324.669, 281.561
1325.866, 477.244
1327.063, 93.117
1328.260, 195.689
1329.456, 151.430
1330.653, 177.365
1331.849, 222.957
1333.045, 51.002
1334.240, 227.557
1335.436, 52.895
1336.631, 8.486
1337.826, 223.744
1339.021, 10.525
1340.216, 224.320
1341.411, 179.127
1342.605, 36.887
1343.799, 196.594
1344.993, 324.262
1346.187, 32.787
1347.381, 191.352
1348.574, 200.234
1349.767, 228.709
1350.961, 347.443
1352.153, 146.654
1353.346, 454.857
1354.539, 243.771
1355.731, 132.143
1356.923, 420.838
1358.115, 389.447
1359.307, 158.156
1360.498, 506.852
1361.690, 204.682
1362.881, 353.018
1364.072, 111.246
1365.263, 219.020
1366.453, 256.725
1367.644, 64.611
1368.834, 17.361
1370.024, 420.158
1371.214, 127.863
1372.404, 85.689
1373.593, 403.234
1374.783, 80.033
1375.972, 367.430
1377.161, 315.137
1378.349, 112.555
1379.538, 388.945
1380.726, 308.492
1381.915, 334.891
1383.103, 390.855
1384.290, 465.312
1385.478, 279.693
1386.665, 513.600
1387.853, 304.197
1389.040, 369.443
1390.227, 412.996
1391.413, 348.033
1392.600, 534.670
1393.786, 491.414
1394.972, 151.326
1396.158, 545.535
1397.344, 227.502
1398.530, 255.109
1399.715, 569.197
1400.900, 71.650
1402.085, 204.627
1403.270, 334.984
1404.455, 149.727
1405.639, 231.881
1406.824, 205.943
1408.008, 209.658
1409.192, 483.719
1410.375, 77.832
1411.559, 286.447
1412.742, 484.592
1413.925, 1.949
1415.108, 382.285
1416.291, 224.006
1417.474, 76.832
1418.656, 390.867
1419.839, 113.971
1421.021, 75.924
1422.202, 340.275
1423.384, 222.797
1424.566, 215.531
1425.747, 485.723
1426.928, 95.123
1428.109, 327.611
1429.290, 294.885
1430.470, 163.953
1431.651, 485.900
1432.831, 484.963
1434.011, 346.475
1435.191, 458.174
1436.370, 159.027
1437.550, 140.137
1438.729, 641.475
1439.908, 352.863
1441.087, 431.754
1442.266, 441.664
1443.444, 219.326
1444.623, 459.395
1445.801, 357.453
1446.979, 265.705
1448.157, 772.633
1449.334, 313.676
1450.512, 394.678
1451.689, 630.451
1452.866, 358.002
1454.043, 633.715
1455.220, 411.268
1456.396, 310.648
1457.573, 568.967
1458.749, 534.955
1459.925, 232.850
1461.100, 587.961
1462.276, 241.990
1463.451, 358.432
1464.627, 533.637
1465.802, 189.322
1466.977, 454.695
1468.151, 459.756
1469.326, 254.799
1470.500, 499.537
1471.674, 467.072
1472.848, 354.627
1474.022, 612.525
1475.195, 19.125
1476.369, 369.686
1477.542, 429.648
1478.715, 200.971
1479.888, 333.541
1481.061, 405.334
1482.233, 11.029
1483.405, 119.844
1484.577, 0.000
##END=



