##NAMES=Hedenbergite
##RRUFFID=R050030
##IDEAL CHEMISTRY=CaFe^2+^Si_2_O_6_
##LOCALITY=Heroult, Ontario, Canada
##OWNER=RRUFF
##SOURCE=University of Arizona Mineral Museum
##DESCRIPTION=Green fragments
##STATUS=The identification of this mineral has been confirmed by X-ray diffraction and chemical analysis
##URL=rruff.info/R050030
##MEASURED CHEMISTRY=(Ca_.993_Na_.007_)(Fe_.860_Mn_.111_Mg_.029_)(Si_.993_Al_.007_)_2_O_6_
##PIN_ID=M00284
##ORIENTATION=Laser parallel to -b* (0 -1 0). Fiducial mark perpendicular to laser is parallel to -c [0 0 -1]
91.262, 0.000
92.661, 37.487
94.059, 109.387
95.458, 92.712
96.856, 15.333
98.254, 78.103
99.652, 40.035
101.049, 77.615
102.446, 123.213
103.843, 261.348
105.240, 292.645
106.637, 413.807
108.033, 397.594
109.429, 611.812
110.825, 972.300
112.220, 1126.922
113.616, 1152.561
115.011, 1143.117
116.406, 1411.501
117.800, 1673.639
119.195, 2021.467
120.589, 2404.931
121.983, 2767.980
123.377, 2774.570
124.770, 2637.664
126.163, 2376.225
127.556, 2017.222
128.949, 1636.628
130.342, 1321.416
131.734, 1188.562
133.126, 1021.046
134.518, 828.840
135.909, 889.918
137.301, 836.260
138.692, 796.854
140.083, 846.686
141.473, 796.747
142.864, 776.029
144.254, 757.525
145.644, 772.226
147.034, 773.118
148.423, 775.194
149.812, 704.450
151.201, 827.879
152.590, 732.472
153.979, 811.221
155.367, 807.117
156.755, 780.156
158.143, 745.332
159.530, 858.639
160.918, 819.074
162.305, 938.632
163.692, 935.307
165.078, 910.094
166.465, 883.990
167.851, 867.990
169.237, 887.088
170.623, 917.281
172.008, 1030.568
173.393, 1083.954
174.778, 1191.409
176.163, 1174.914
177.548, 1209.298
178.932, 1082.746
180.316, 943.270
181.700, 798.845
183.083, 632.491
184.467, 704.222
185.850, 671.993
187.233, 583.857
188.616, 550.365
189.998, 545.814
191.380, 364.931
192.762, 441.093
194.144, 346.395
195.525, 373.800
196.907, 260.238
198.288, 210.707
199.669, 268.208
201.049, 217.741
202.429, 205.305
203.810, 208.953
205.189, 137.672
206.569, 187.484
207.949, 168.347
209.328, 183.260
210.707, 163.198
212.085, 157.162
213.464, 79.150
214.842, 177.164
216.220, 131.201
217.598, 72.263
218.976, 89.354
220.353, 154.483
221.730, 62.649
223.107, 149.852
224.483, 231.087
225.860, 248.357
227.236, 369.679
228.612, 343.032
229.988, 478.413
231.363, 361.812
232.738, 464.241
234.113, 357.693
235.488, 368.165
236.863, 260.649
238.237, 194.161
239.611, 126.699
240.985, 80.249
242.359, 88.810
243.732, 101.382
245.105, 60.966
246.478, 74.560
247.851, 49.164
249.223, 44.779
250.595, 73.411
251.967, 105.203
253.339, 93.859
254.711, 125.666
256.082, 126.319
257.453, 146.202
258.824, 129.042
260.195, 116.936
261.565, 123.041
262.935, 182.291
264.305, 177.729
265.675, 292.416
267.044, 307.062
268.414, 388.241
269.783, 440.257
271.151, 482.604
272.520, 503.696
273.888, 535.935
275.256, 489.051
276.624, 554.847
277.992, 575.891
279.359, 529.544
280.726, 554.500
282.093, 592.284
283.460, 489.998
284.827, 522.658
286.193, 466.308
287.559, 504.313
288.925, 500.792
290.290, 496.080
291.656, 565.311
293.021, 638.493
294.386, 766.863
295.750, 967.899
297.115, 1115.079
298.479, 1357.421
299.843, 1594.822
301.207, 1696.261
302.570, 1880.676
303.933, 1992.119
305.296, 1837.587
306.659, 1869.146
308.022, 1642.672
309.384, 1430.213
310.746, 1248.776
312.108, 975.434
313.470, 975.112
314.831, 855.513
316.193, 843.271
317.554, 877.959
318.914, 899.056
320.275, 983.320
321.635, 1049.027
322.995, 1178.748
324.355, 1227.381
325.715, 1375.128
327.074, 1445.888
328.434, 1522.658
329.792, 1480.440
331.151, 1454.873
332.510, 1222.036
333.868, 1254.850
335.226, 1081.671
336.584, 890.502
337.941, 885.341
339.299, 760.187
340.656, 700.075
342.013, 632.937
343.370, 462.176
344.726, 418.320
346.082, 370.204
347.438, 254.329
348.794, 324.309
350.150, 327.377
351.505, 290.952
352.860, 340.503
354.215, 325.018
355.570, 339.626
356.924, 295.735
358.278, 214.400
359.632, 338.159
360.986, 481.408
362.339, 434.339
363.693, 559.523
365.046, 809.214
366.399, 856.149
367.751, 1019.305
369.104, 1266.375
370.456, 1401.402
371.808, 1512.335
373.159, 1516.140
374.511, 1520.167
375.862, 1460.312
377.213, 1133.238
378.564, 998.162
379.914, 883.083
381.265, 591.363
382.615, 561.279
383.965, 432.466
385.315, 342.377
386.664, 315.285
388.013, 321.189
389.362, 286.091
390.711, 168.989
392.060, 159.884
393.408, 123.774
394.756, 140.660
396.104, 67.540
397.451, 167.414
398.799, 143.325
400.146, 26.187
401.493, 47.219
402.840, 106.070
404.186, 21.918
405.533, 66.759
406.879, 73.389
408.225, 82.343
409.570, 6.835
410.916, 3.979
412.261, 8.992
413.606, 23.897
414.951, 7.016
416.295, 3.769
417.639, 54.542
418.983, 7.607
420.327, 15.168
421.671, 3.934
423.014, 61.147
424.357, 10.770
425.700, 8.654
427.043, 1.564
428.386, 70.790
429.728, 7.049
431.070, 18.688
432.412, 73.576
433.753, 17.678
435.095, 0.101
436.436, 60.215
437.777, 4.566
439.118, 7.725
440.458, 54.906
441.798, 68.450
443.138, 66.136
444.478, 29.283
445.818, 42.726
447.157, 8.199
448.496, 11.315
449.835, 67.177
451.174, 14.716
452.513, 5.727
453.851, 16.160
455.189, 78.407
456.527, 67.027
457.864, 38.692
459.202, 17.616
460.539, 12.835
461.876, 13.205
463.212, 32.491
464.549, 30.767
465.885, 51.751
467.221, 17.294
468.557, 32.562
469.893, 47.826
471.228, 78.099
472.563, 22.359
473.898, 34.381
475.233, 13.157
476.567, 17.962
477.902, 40.215
479.236, 37.621
480.570, 39.498
481.903, 78.608
483.237, 55.703
484.570, 11.200
485.903, 163.868
487.235, 155.924
488.568, 101.974
489.900, 288.028
491.232, 217.098
492.564, 248.182
493.896, 231.253
495.227, 148.327
496.558, 191.387
497.889, 96.433
499.220, 92.465
500.551, 68.482
501.881, 102.486
503.211, 28.477
504.541, 33.496
505.870, 110.427
507.200, 7.624
508.529, 66.291
509.858, 48.212
511.187, 24.116
512.515, 14.999
513.844, 51.856
515.172, 25.828
516.500, 51.516
517.827, 4.315
519.155, 24.082
520.482, 4.167
521.809, 154.533
523.136, 48.225
524.462, 28.898
525.789, 148.545
527.115, 55.176
528.441, 76.787
529.766, 22.379
531.092, 115.943
532.417, 29.489
533.742, 92.007
535.067, 64.505
536.391, 118.982
537.716, 123.440
539.040, 126.879
540.364, 20.298
541.688, 154.686
543.011, 23.448
544.334, 214.819
545.657, 184.360
546.980, 169.855
548.303, 281.293
549.625, 277.890
550.947, 266.181
552.269, 281.385
553.591, 205.216
554.913, 221.391
556.234, 184.546
557.555, 127.680
558.876, 162.794
560.197, 97.887
561.517, 245.358
562.837, 141.702
564.157, 149.120
565.477, 18.599
566.797, 115.670
568.116, 154.621
569.435, 168.712
570.754, 100.764
572.073, 76.790
573.391, 129.003
574.709, 182.352
576.027, 189.514
577.345, 134.424
578.663, 166.569
579.980, 127.631
581.297, 161.628
582.614, 117.481
583.931, 128.476
585.248, 154.287
586.564, 214.159
587.880, 180.945
589.196, 185.462
590.511, 186.335
591.827, 105.157
593.142, 130.876
594.457, 239.304
595.772, 185.607
597.086, 103.774
598.401, 193.746
599.715, 148.715
601.029, 192.920
602.343, 197.665
603.656, 208.247
604.969, 218.147
606.282, 203.224
607.595, 218.501
608.908, 218.726
610.220, 212.074
611.532, 151.310
612.844, 188.142
614.156, 183.799
615.468, 218.404
616.779, 255.417
618.090, 288.953
619.401, 341.335
620.712, 341.818
622.022, 436.314
623.332, 342.865
624.642, 438.617
625.952, 410.947
627.262, 422.149
628.571, 538.299
629.880, 507.446
631.189, 510.011
632.498, 681.434
633.807, 552.793
635.115, 804.507
636.423, 712.481
637.731, 915.271
639.039, 876.868
640.346, 1029.113
641.653, 1113.707
642.960, 1385.796
644.267, 1554.989
645.574, 1914.301
646.880, 2216.409
648.186, 2790.691
649.492, 3385.125
650.798, 4123.176
652.103, 5494.579
653.409, 6572.621
654.714, 8100.199
656.019, 8918.008
657.323, 9505.812
658.628, 9153.722
659.932, 8131.658
661.236, 6941.677
662.540, 5818.754
663.843, 4506.223
665.147, 3641.450
666.450, 2904.246
667.753, 2411.453
669.056, 1988.447
670.358, 1575.081
671.660, 1352.522
672.963, 1155.152
674.264, 1144.069
675.566, 890.642
676.868, 775.370
678.169, 657.649
679.470, 637.161
680.771, 597.168
682.071, 519.318
683.372, 456.487
684.672, 317.268
685.972, 266.421
687.271, 374.137
688.571, 261.918
689.870, 367.804
691.169, 251.440
692.468, 267.933
693.767, 205.616
695.065, 262.275
696.364, 188.910
697.662, 220.159
698.960, 88.746
700.257, 174.033
701.555, 128.568
702.852, 135.077
704.149, 143.562
705.446, 101.019
706.742, 87.450
708.038, 138.855
709.335, 158.234
710.631, 182.486
711.926, 401.920
713.222, 248.229
714.517, 228.575
715.812, 266.837
717.107, 85.927
718.402, 111.138
719.696, 88.567
720.990, 68.727
722.284, 156.404
723.578, 183.388
724.872, 107.864
726.165, 17.218
727.458, 146.043
728.751, 152.211
730.044, 35.104
731.336, 97.062
732.629, 15.993
733.921, 44.461
735.213, 104.684
736.504, 86.417
737.796, 125.312
739.087, 103.974
740.378, 141.650
741.669, 102.561
742.960, 163.480
744.250, 127.388
745.540, 105.459
746.830, 60.155
748.120, 164.641
749.410, 197.217
750.699, 92.863
751.988, 213.500
753.277, 201.919
754.566, 42.517
755.854, 163.073
757.143, 84.645
758.431, 149.188
759.719, 114.722
761.006, 41.243
762.294, 181.743
763.581, 79.222
764.868, 100.695
766.155, 146.152
767.442, 6.411
768.728, 31.986
770.014, 5.383
771.300, 6.232
772.586, 64.129
773.872, 88.466
775.157, 2.219
776.442, 61.062
777.727, 42.319
779.012, 11.551
780.297, 50.243
781.581, 16.096
782.865, 47.629
784.149, 110.062
785.433, 24.908
786.716, 20.076
787.999, 95.049
789.282, 29.991
790.565, 114.931
791.848, 59.833
793.130, 85.273
794.413, 39.562
795.695, 45.627
796.977, 89.131
798.258, 33.877
799.540, 11.399
800.821, 56.711
802.102, 92.079
803.382, 95.272
804.663, 36.958
805.943, 48.585
807.224, 25.818
808.504, 130.199
809.783, 68.371
811.063, 63.002
812.342, 23.223
813.621, 17.520
814.900, 38.207
816.179, 146.025
817.457, 110.241
818.736, 104.530
820.014, 81.282
821.292, 112.841
822.569, 36.945
823.847, 21.031
825.124, 35.101
826.401, 99.150
827.678, 143.184
828.954, 87.202
830.231, 21.212
831.507, 5.204
832.783, 19.187
834.059, 73.157
835.334, 167.110
836.610, 81.053
837.885, 114.980
839.160, 38.893
840.435, 322.787
841.709, 286.673
842.983, 420.545
844.258, 424.412
845.532, 558.265
846.805, 742.144
848.079, 876.010
849.352, 789.860
850.625, 833.753
851.898, 877.640
853.171, 701.118
854.443, 644.947
855.715, 558.575
856.988, 402.219
858.259, 395.890
859.531, 469.368
860.803, 352.778
862.074, 176.393
863.345, 140.075
864.616, 363.848
865.886, 147.609
867.157, 111.373
868.427, 225.123
869.697, 128.864
870.967, 242.202
872.236, 75.635
873.506, 148.958
874.775, 52.208
876.044, 235.823
877.313, 39.545
878.581, 62.953
879.849, 355.509
881.118, 19.058
882.386, 132.622
883.653, 175.616
884.921, 148.938
886.188, 161.481
887.455, 174.552
888.722, 157.881
889.989, 111.125
891.255, 134.523
892.522, 157.822
893.788, 91.271
895.054, 84.547
896.319, 86.148
897.585, 41.430
898.850, 124.686
900.115, 137.745
901.380, 231.231
902.645, 124.758
903.909, 167.928
905.174, 211.440
906.438, 124.944
907.701, 157.884
908.965, 191.320
910.229, 204.419
911.492, 157.780
912.755, 280.989
914.018, 203.882
915.280, 147.320
916.543, 230.354
917.805, 153.470
919.067, 286.766
920.329, 198.326
921.590, 281.122
922.852, 193.414
924.113, 165.009
925.374, 267.920
926.635, 170.922
927.895, 172.786
929.156, 225.656
930.416, 158.441
931.676, 260.994
932.936, 219.873
934.195, 320.903
935.454, 119.963
936.714, 132.993
937.973, 273.502
939.231, 166.120
940.490, 239.068
941.748, 149.294
943.006, 172.312
944.264, 215.094
945.522, 231.885
946.780, 264.567
948.037, 273.965
949.294, 296.847
950.551, 199.903
951.808, 371.400
953.064, 240.068
954.320, 327.173
955.577, 163.452
956.832, 286.085
958.088, 215.336
959.344, 337.915
960.599, 330.926
961.854, 323.859
963.109, 236.635
964.364, 229.188
965.618, 161.714
966.872, 181.878
968.127, 305.298
969.380, 48.310
970.634, 321.189
971.888, 208.623
973.141, 311.532
974.394, 334.121
975.647, 306.641
976.900, 399.216
978.152, 332.330
979.404, 385.354
980.656, 488.822
981.908, 541.354
983.160, 433.815
984.411, 688.707
985.663, 581.478
986.914, 644.939
988.165, 708.397
989.415, 691.488
990.666, 814.672
991.916, 857.969
993.166, 977.773
994.416, 1095.863
995.665, 1299.172
996.915, 1551.896
998.164, 1825.101
999.413, 2128.119
1000.662, 2824.827
1001.911, 3468.282
1003.159, 4491.477
1004.407, 5494.509
1005.655, 7458.462
1006.903, 9972.160
1008.151, 13386.246
1009.398, 16749.574
1010.646, 18342.891
1011.893, 17096.752
1013.139, 15089.980
1014.386, 11483.955
1015.633, 8647.604
1016.879, 6424.035
1018.125, 4907.357
1019.371, 3910.986
1020.616, 3036.556
1021.862, 2579.747
1023.107, 2292.725
1024.352, 2010.588
1025.597, 2053.326
1026.842, 1601.025
1028.086, 1644.198
1029.330, 1477.670
1030.574, 1381.513
1031.818, 1134.456
1033.062, 1148.502
1034.305, 862.830
1035.548, 876.682
1036.791, 700.618
1038.034, 874.205
1039.277, 717.573
1040.519, 871.027
1041.762, 803.967
1043.004, 677.394
1044.246, 660.953
1045.487, 554.103
1046.729, 577.587
1047.970, 620.164
1049.211, 393.766
1050.452, 616.864
1051.692, 559.910
1052.933, 463.573
1054.173, 517.737
1055.413, 431.048
1056.653, 554.525
1057.893, 387.742
1059.132, 470.658
1060.371, 364.276
1061.610, 427.342
1062.849, 300.481
1064.088, 423.695
1065.326, 436.524
1066.565, 249.848
1067.803, 312.659
1069.041, 395.964
1070.278, 428.852
1071.516, 392.027
1072.753, 295.447
1073.990, 338.156
1075.227, 310.855
1076.464, 313.841
1077.700, 396.476
1078.936, 399.734
1080.173, 482.688
1081.408, 635.366
1082.644, 898.552
1083.880, 2121.257
1085.115, 2694.209
1086.350, 2147.277
1087.585, 1530.433
1088.820, 833.102
1090.054, 536.283
1091.288, 448.934
1092.522, 392.152
1093.756, 274.903
1094.990, 267.631
1096.224, 130.895
1097.457, 393.915
1098.690, 56.552
1099.923, 239.470
1101.156, 252.514
1102.388, 5.063
1103.621, 287.841
1104.853, 250.595
1106.085, 203.719
1107.316, 206.260
1108.548, 218.840
1109.779, 121.412
1111.010, 153.891
1112.241, 217.071
1113.472, 169.910
1114.703, 142.328
1115.933, 85.245
1117.163, 148.970
1118.393, 231.397
1119.623, 244.199
1120.853, 246.542
1122.082, 229.099
1123.311, 261.771
1124.540, 244.046
1125.769, 116.953
1126.997, 189.852
1128.226, 22.056
1129.454, 280.315
1130.682, 192.470
1131.910, 44.672
1133.138, 188.907
1134.365, 101.145
1135.592, 34.544
1136.819, 157.091
1138.046, 59.625
1139.273, 142.274
1140.499, 44.805
1141.725, 12.680
1142.951, 139.776
1144.177, 157.822
1145.403, 164.617
1146.628, 246.917
1147.854, 220.081
1149.079, 119.983
1150.304, 182.346
1151.528, 594.486
1152.753, 13.524
1153.977, 77.020
1155.201, 5.458
1156.425, 178.087
1157.649, 179.730
1158.872, 55.374
1160.096, 208.092
1161.319, 29.689
1162.542, 117.613
1163.764, 37.881
1164.987, 173.184
1166.209, 125.119
1167.431, 23.806
1168.653, 227.907
1169.875, 220.031
1171.097, 58.955
1172.318, 252.469
1173.539, 55.734
1174.760, 135.375
1175.981, 86.344
1177.202, 67.671
1178.422, 168.438
1179.642, 30.337
1180.862, 1.853
1182.082, 62.644
1183.302, 44.099
1184.521, 124.979
1185.740, 175.884
1186.959, 136.604
1188.178, 297.865
1189.397, 159.532
1190.615, 89.950
1191.834, 181.447
1193.052, 103.026
1194.269, 273.269
1195.487, 117.410
1196.705, 238.598
1197.922, 248.708
1199.139, 99.742
1200.356, 19.736
1201.573, 179.414
1202.789, 142.006
1204.006, 201.818
1205.222, 272.227
1206.438, 102.217
1207.653, 231.732
1208.869, 211.316
1210.084, 190.513
1211.299, 279.681
1212.514, 159.961
1213.729, 279.445
1214.944, 159.255
1216.158, 260.492
1217.372, 189.526
1218.586, 129.219
1219.800, 298.117
1221.014, 297.243
1222.227, 227.042
1223.440, 356.313
1224.654, 174.579
1225.866, 263.806
1227.079, 373.659
1228.292, 217.932
1229.504, 389.406
1230.716, 278.314
1231.928, 247.730
1233.139, 226.281
1234.351, 344.862
1235.562, 214.326
1236.773, 432.717
1237.984, 201.220
1239.195, 309.583
1240.406, 317.892
1241.616, 186.124
1242.826, 244.400
1244.036, 332.514
1245.246, 260.799
1246.456, 228.822
1247.665, 387.031
1248.874, 294.334
1250.083, 302.219
1251.292, 210.846
1252.501, 358.795
1253.709, 336.521
1254.917, 334.447
1256.125, 481.807
1257.333, 179.203
1258.541, 257.164
1259.748, 514.486
1260.956, 232.000
1262.163, 79.258
1263.370, 316.883
1264.576, 244.342
1265.783, 362.268
1266.989, 299.215
1268.195, 266.471
1269.401, 443.668
1270.607, 200.449
1271.813, 198.057
1273.018, 454.727
1274.223, 38.645
1275.428, 558.408
1276.633, 184.844
1277.838, 69.432
1279.042, 315.973
1280.246, 81.904
1281.450, 227.396
1282.654, 223.730
1283.858, 189.213
1285.061, 220.461
1286.265, 215.764
1287.468, 220.271
1288.671, 226.322
1289.873, 182.400
1291.076, 207.846
1292.278, 83.613
1293.480, 84.754
1294.682, 130.055
1295.884, 175.139
1297.086, 69.770
1298.287, 24.332
1299.488, 61.375
1300.689, 72.455
1301.890, 246.973
1303.091, 18.572
1304.291, 55.258
1305.491, 229.650
1306.691, 56.775
1307.891, 2.953
1309.091, 318.010
1310.290, 111.895
1311.490, 295.488
1312.689, 127.033
1313.888, 70.912
1315.086, 274.668
1316.285, 153.693
1317.483, 87.418
1318.681, 196.443
1319.879, 219.521
1321.077, 122.227
1322.275, 244.773
1323.472, 47.662
1324.669, 79.834
1325.866, 201.646
1327.063, 73.863
1328.260, 155.920
1329.456, 138.250
1330.653, 170.721
1331.849, 72.953
1333.045, 35.695
1334.240, 207.871
1335.436, 39.686
1336.631, 31.803
1337.826, 213.518
1339.021, 24.123
1340.216, 47.498
1341.411, 209.559
1342.605, 51.605
1343.799, 212.969
1344.993, 273.773
1346.187, 4.625
1347.381, 216.754
1348.574, 88.350
1349.767, 150.207
1350.961, 252.359
1352.153, 224.012
1353.346, 345.578
1354.539, 298.848
1355.731, 67.926
1356.923, 203.152
1358.115, 118.195
1359.307, 12.703
1360.498, 288.311
1361.690, 123.576
1362.881, 308.094
1364.072, 242.857
1365.263, 97.752
1366.453, 191.918
1367.644, 103.654
1368.834, 119.373
1370.024, 75.213
1371.214, 41.211
1372.404, 3.031
1373.593, 227.104
1374.783, 111.189
1375.972, 295.002
1377.161, 279.266
1378.349, 92.752
1379.538, 376.543
1380.726, 268.498
1381.915, 291.844
1383.103, 295.576
1384.290, 399.061
1385.478, 261.266
1386.665, 517.285
1387.853, 149.990
1389.040, 371.398
1390.227, 242.375
1391.413, 294.100
1392.600, 475.748
1393.786, 117.371
1394.972, 258.779
1396.158, 278.197
1397.344, 219.080
1398.530, 278.172
1399.715, 508.787
1400.900, 124.385
1402.085, 403.949
1403.270, 150.959
1404.455, 141.609
1405.639, 102.244
1406.824, 151.984
1408.008, 61.180
1409.192, 251.771
1410.375, 161.986
1411.559, 159.662
1412.742, 348.822
1413.925, 38.354
1415.108, 347.146
1416.291, 85.336
1417.474, 111.320
1418.656, 404.438
1419.839, 92.574
1421.021, 170.742
1422.202, 206.076
1423.384, 294.752
1424.566, 134.348
1425.747, 324.922
1426.928, 56.266
1428.109, 222.375
1429.290, 298.482
1430.470, 157.537
1431.651, 405.377
1432.831, 213.783
1434.011, 107.439
1435.191, 467.195
1436.370, 162.881
1437.550, 140.703
1438.729, 516.164
1439.908, 343.344
1441.087, 430.674
1442.266, 377.479
1443.444, 332.951
1444.623, 499.168
1445.801, 283.631
1446.979, 469.576
1448.157, 555.312
1449.334, 160.379
1450.512, 375.924
1451.689, 579.348
1452.866, 541.607
1454.043, 656.615
1455.220, 659.051
1456.396, 233.148
1457.573, 564.230
1458.749, 467.469
1459.925, 301.348
1461.100, 584.803
1462.276, 237.162
1463.451, 450.670
1464.627, 392.732
1465.802, 245.375
1466.977, 500.271
1468.151, 454.611
1469.326, 269.148
1470.500, 603.488
1471.674, 307.701
1472.848, 371.770
1474.022, 585.688
1475.195, 169.615
1476.369, 493.484
1477.542, 407.512
1478.715, 191.664
1479.888, 476.613
1481.061, 302.596
1482.233, 209.004
1483.405, 455.680
1484.577, 392.725
1485.749, 160.307
1486.921, 468.639
1488.093, 87.977
1489.264, 118.436
1490.435, 500.086
1491.606, 6.678
1492.777, 168.619
1493.948, 426.508
1495.118, 15.426
1496.288, 0.000
##END=



