##NAMES=Hedenbergite
##RRUFFID=R050030
##IDEAL CHEMISTRY=CaFe^2+^Si_2_O_6_
##LOCALITY=Heroult, Ontario, Canada
##OWNER=RRUFF
##SOURCE=University of Arizona Mineral Museum
##DESCRIPTION=Green fragments
##STATUS=The identification of this mineral has been confirmed by X-ray diffraction and chemical analysis
##URL=rruff.info/R050030
##MEASURED CHEMISTRY=(Ca_.993_Na_.007_)(Fe_.860_Mn_.111_Mg_.029_)(Si_.993_Al_.007_)_2_O_6_
##PIN_ID=M00481
##ORIENTATION=Laser parallel to (-1 0 -1). Fiducial mark perpendicular to laser is parallel to b [0 1 0]
49.184, 0.000
50.590, 70.825
51.996, 95.272
53.401, 289.013
54.807, 358.134
56.212, 473.144
57.617, 472.899
59.021, 483.554
60.426, 534.128
61.830, 516.604
63.234, 548.174
64.637, 430.423
66.041, 282.133
67.444, 235.947
68.847, 115.933
70.250, 13.053
71.652, 26.093
73.054, 19.109
74.456, 14.871
75.858, 24.195
77.260, 7.761
78.661, 76.143
80.062, 89.747
81.463, 55.138
82.863, 253.295
84.264, 418.205
85.664, 383.864
87.064, 358.322
88.463, 516.250
89.863, 722.059
91.262, 963.056
92.661, 1047.954
94.059, 1247.281
95.458, 1181.914
96.856, 1112.731
98.254, 1154.296
99.652, 1154.469
101.049, 1074.613
102.446, 1026.438
103.843, 931.960
105.240, 822.549
106.637, 759.932
108.033, 640.938
109.429, 509.929
110.825, 953.723
112.220, 1077.205
113.616, 876.391
115.011, 561.297
116.406, 552.937
117.800, 472.326
119.195, 478.476
120.589, 594.401
121.983, 715.108
123.377, 776.609
124.770, 693.998
126.163, 575.620
127.556, 510.133
128.949, 358.202
130.342, 334.782
131.734, 315.911
133.126, 229.295
134.518, 220.027
135.909, 252.343
137.301, 264.948
138.692, 302.590
140.083, 336.206
141.473, 387.842
142.864, 489.891
144.254, 609.245
145.644, 586.095
147.034, 555.604
148.423, 478.646
149.812, 535.484
151.201, 628.968
152.590, 694.161
153.979, 766.048
155.367, 752.019
156.755, 648.445
158.143, 607.101
159.530, 516.213
160.918, 485.996
162.305, 534.786
163.692, 516.582
165.078, 489.382
166.465, 463.189
167.851, 448.012
169.237, 457.879
170.623, 544.785
172.008, 703.739
173.393, 890.705
174.778, 1049.639
176.163, 1177.916
177.548, 1369.340
178.932, 1436.115
180.316, 1539.861
181.700, 1707.586
183.083, 1918.289
184.467, 2393.967
185.850, 2746.613
187.233, 3174.226
188.616, 3341.804
189.998, 2971.346
191.380, 2417.853
192.762, 1933.322
194.144, 1363.758
195.525, 891.162
196.907, 561.537
198.288, 370.881
199.669, 258.194
201.049, 90.477
202.429, 48.731
203.810, 30.956
205.189, 7.798
206.569, 13.210
207.949, 22.576
209.328, 17.874
210.707, 21.080
212.085, 27.852
213.464, 6.903
214.842, 38.119
216.220, 0.829
217.598, 27.783
218.976, 27.272
220.353, 21.690
221.730, 26.252
223.107, 120.482
224.483, 157.541
225.860, 321.970
227.236, 496.586
228.612, 645.405
229.988, 764.578
231.363, 762.188
232.738, 708.038
234.113, 514.683
235.488, 393.441
236.863, 288.603
238.237, 213.333
239.611, 125.375
240.985, 39.350
242.359, 16.767
243.732, 30.552
245.105, 25.687
246.478, 23.650
247.851, 12.946
249.223, 28.909
250.595, 17.648
251.967, 13.860
253.339, 38.412
254.711, 45.267
256.082, 51.401
257.453, 57.759
258.824, 126.697
260.195, 75.517
261.565, 106.775
262.935, 168.536
264.305, 253.722
265.675, 289.728
267.044, 303.625
268.414, 317.355
269.783, 437.633
271.151, 448.876
272.520, 594.096
273.888, 624.281
275.256, 596.414
276.624, 719.512
277.992, 764.576
279.359, 753.648
280.726, 870.789
282.093, 948.304
283.460, 1006.831
284.827, 1144.394
286.193, 1286.597
287.559, 1441.951
288.925, 1651.432
290.290, 1887.797
291.656, 2105.492
293.021, 2263.588
294.386, 2535.994
295.750, 2773.154
297.115, 3066.773
298.479, 3430.643
299.843, 3744.042
301.207, 4039.481
302.570, 4308.802
303.933, 4343.270
305.296, 4338.918
306.659, 4099.777
308.022, 3698.400
309.384, 3258.363
310.746, 2863.189
312.108, 2443.111
313.470, 2106.697
314.831, 1880.404
316.193, 1655.009
317.554, 1518.340
318.914, 1497.486
320.275, 1420.635
321.635, 1508.715
322.995, 1487.771
324.355, 1597.669
325.715, 1643.434
327.074, 1780.397
328.434, 1924.279
329.792, 2058.041
331.151, 2280.686
332.510, 2505.261
333.868, 2810.870
335.226, 3035.768
336.584, 3186.646
337.941, 3285.507
339.299, 3139.350
340.656, 2880.176
342.013, 2465.984
343.370, 2198.775
344.726, 1855.550
346.082, 1761.307
347.438, 1581.048
348.794, 1411.772
350.150, 1389.478
351.505, 1447.169
352.860, 1450.842
354.215, 1628.501
355.570, 1688.141
356.924, 1796.766
358.278, 2000.376
359.632, 2271.970
360.986, 2726.547
362.339, 3126.637
363.693, 3812.249
365.046, 4569.959
366.399, 5510.319
367.751, 6720.534
369.104, 7902.480
370.456, 8894.489
371.808, 9586.557
373.159, 9588.620
374.511, 9070.719
375.862, 8230.938
377.213, 6852.491
378.564, 5808.108
379.914, 4749.964
381.265, 3780.017
382.615, 3100.135
383.965, 2458.393
385.315, 1970.273
386.664, 1658.957
388.013, 1403.758
389.362, 1175.213
390.711, 884.213
392.060, 691.186
393.408, 711.132
394.756, 521.054
396.104, 478.955
397.451, 381.836
398.799, 389.460
400.146, 236.665
401.493, 252.552
402.840, 176.100
404.186, 189.059
405.533, 176.860
406.879, 75.653
408.225, 49.946
409.570, 47.352
410.916, 23.322
412.261, 48.776
413.606, 18.798
414.951, 33.014
416.295, 31.793
417.639, 37.056
418.983, 39.181
420.327, 29.944
421.671, 28.604
423.014, 6.121
424.357, 32.724
425.700, 5.861
427.043, 37.264
428.386, 53.433
429.728, 83.691
431.070, 199.615
432.412, 219.442
433.753, 221.770
435.095, 354.298
436.436, 363.894
437.777, 310.556
439.118, 338.140
440.458, 182.595
441.798, 160.139
443.138, 62.371
444.478, 49.742
445.818, 30.984
447.157, 10.707
448.496, 20.078
449.835, 26.617
451.174, 23.269
452.513, 18.434
453.851, 58.344
455.189, 22.936
456.527, 25.744
457.864, 72.402
459.202, 101.041
460.539, 140.666
461.876, 141.278
463.212, 183.878
464.549, 220.466
465.885, 160.043
467.221, 157.607
468.557, 74.158
469.893, 58.691
471.228, 80.204
472.563, 35.699
473.898, 18.172
475.233, 27.631
476.567, 69.071
477.902, 123.499
479.236, 158.920
480.570, 147.327
481.903, 202.736
483.237, 295.427
484.570, 384.479
485.903, 553.926
487.235, 694.310
488.568, 886.700
489.900, 1156.086
491.232, 1306.470
492.564, 1514.850
493.896, 1536.229
495.227, 1329.609
496.558, 1161.988
497.889, 945.363
499.220, 782.734
500.551, 560.106
501.881, 507.475
503.211, 406.829
504.541, 349.197
505.870, 347.550
507.200, 282.900
508.529, 312.247
509.858, 389.604
511.187, 335.958
512.515, 378.310
513.844, 491.660
515.172, 514.007
516.500, 658.352
517.827, 729.695
519.155, 861.039
520.482, 923.381
521.809, 906.719
523.136, 689.061
524.462, 639.404
525.789, 583.752
527.115, 409.111
528.441, 304.477
529.766, 284.866
531.092, 290.280
532.417, 193.717
533.742, 184.169
535.067, 205.639
536.391, 159.132
537.716, 176.643
539.040, 275.180
540.364, 271.733
541.688, 434.302
543.011, 424.895
544.334, 668.489
545.657, 1045.087
546.980, 1189.676
548.303, 1740.255
549.625, 1959.821
550.947, 2048.373
552.269, 1977.908
553.591, 1680.431
554.913, 1375.936
556.234, 994.429
557.555, 758.905
558.876, 603.367
560.197, 394.818
561.517, 357.257
562.837, 216.567
564.157, 215.930
565.477, 105.242
566.797, 69.148
568.116, 74.959
569.435, 137.770
570.754, 7.487
572.073, 49.321
573.391, 20.026
574.709, 40.795
576.027, 0.320
577.345, 0.957
578.663, 1.283
579.980, 2.436
581.297, 10.515
582.614, 18.702
583.931, 47.527
585.248, 13.477
586.564, 14.670
587.880, 17.872
589.196, 36.809
590.511, 45.117
591.827, 69.474
593.142, 24.894
594.457, 2.110
595.772, 15.030
597.086, 14.198
598.401, 5.770
599.715, 20.687
601.029, 10.062
602.343, 6.105
603.656, 13.992
604.969, 13.673
606.282, 2.094
607.595, 44.654
608.908, 8.595
610.220, 50.590
611.532, 118.174
612.844, 87.223
614.156, 72.227
615.468, 143.128
616.779, 72.217
618.090, 72.421
619.401, 220.785
620.712, 146.145
622.022, 252.635
623.332, 204.237
624.642, 211.720
625.952, 302.296
627.262, 319.642
628.571, 411.830
629.880, 453.997
631.189, 546.038
632.498, 558.856
633.807, 616.921
635.115, 758.431
636.423, 824.845
637.731, 1021.611
639.039, 1110.551
640.346, 1362.342
641.653, 1362.892
642.960, 1702.867
644.267, 1901.688
645.574, 2325.574
646.880, 2810.614
648.186, 3533.112
649.492, 4333.820
650.798, 5414.792
652.103, 6974.216
653.409, 8453.599
654.714, 10652.496
656.019, 12630.951
657.323, 13971.036
658.628, 14679.512
659.932, 14025.829
661.236, 12118.380
662.540, 10724.912
663.843, 8633.394
665.147, 6952.218
666.450, 5714.201
667.753, 4530.697
669.056, 3780.831
670.358, 3020.564
671.660, 2492.357
672.963, 2154.422
674.264, 1911.318
675.566, 1517.854
676.868, 1383.892
678.169, 1209.544
679.470, 1072.215
680.771, 929.811
682.071, 816.665
683.372, 729.148
684.672, 627.211
685.972, 569.996
687.271, 507.950
688.571, 472.710
689.870, 443.482
691.169, 458.237
692.468, 485.974
693.767, 443.694
695.065, 411.396
696.364, 473.081
697.662, 481.749
698.960, 471.398
700.257, 511.030
701.555, 483.645
702.852, 429.242
704.149, 404.823
705.446, 352.385
706.742, 306.930
708.038, 225.459
709.335, 259.970
710.631, 223.464
711.926, 284.942
713.222, 157.403
714.517, 173.848
715.812, 172.277
717.107, 145.689
718.402, 193.085
719.696, 162.465
720.990, 206.830
722.284, 128.171
723.578, 202.349
724.872, 168.540
726.165, 121.849
727.458, 178.574
728.751, 181.623
730.044, 164.539
731.336, 203.531
732.629, 140.979
733.921, 197.094
735.213, 150.743
736.504, 128.751
737.796, 150.737
739.087, 148.520
740.378, 162.974
741.669, 230.428
742.960, 217.236
744.250, 257.981
745.540, 277.089
746.830, 300.668
748.120, 296.713
749.410, 306.526
750.699, 338.926
751.988, 361.000
753.277, 400.509
754.566, 419.265
755.854, 448.900
757.143, 457.813
758.431, 437.555
759.719, 337.391
761.006, 378.128
762.294, 359.788
763.581, 277.771
764.868, 285.585
766.155, 309.604
767.442, 236.702
768.728, 197.793
770.014, 226.887
771.300, 161.976
772.586, 119.103
773.872, 152.177
775.157, 87.318
776.442, 142.391
777.727, 56.443
779.012, 71.565
780.297, 45.600
781.581, 24.626
782.865, 36.743
784.149, 61.791
785.433, 46.652
786.716, 2.108
787.999, 30.090
789.282, 4.935
790.565, 4.922
791.848, 17.950
793.130, 39.411
794.413, 11.391
795.695, 10.801
796.977, 8.420
798.258, 14.787
799.540, 52.409
800.821, 23.257
802.102, 7.865
803.382, 14.098
804.663, 23.234
805.943, 28.583
807.224, 27.846
808.504, 17.863
809.783, 1.418
811.063, 38.707
812.342, 1.029
813.621, 39.387
814.900, 77.690
816.179, 13.158
817.457, 0.456
818.736, 14.848
820.014, 68.261
821.292, 0.276
822.569, 26.804
823.847, 13.347
825.124, 15.893
826.401, 25.443
827.678, 20.011
828.954, 37.587
830.231, 31.843
831.507, 10.812
832.783, 41.438
834.059, 8.094
835.334, 19.603
836.610, 38.411
837.885, 27.097
839.160, 3.385
840.435, 15.535
841.709, 9.698
842.983, 74.128
844.258, 77.971
845.532, 173.814
846.805, 165.664
848.079, 229.524
849.352, 299.401
850.625, 394.319
851.898, 390.124
853.171, 370.185
854.443, 357.134
855.715, 286.095
856.988, 203.064
858.259, 180.054
859.531, 127.058
860.803, 148.072
862.074, 85.107
863.345, 133.149
864.616, 183.212
865.886, 95.283
867.157, 171.372
868.427, 177.471
869.697, 86.581
870.967, 151.720
872.236, 74.875
873.506, 96.036
874.775, 115.232
876.044, 105.439
877.313, 113.658
878.581, 133.363
879.849, 230.154
881.118, 169.434
882.386, 184.740
883.653, 192.068
884.921, 149.408
886.188, 268.766
887.455, 282.147
888.722, 316.543
889.989, 357.583
891.255, 282.396
892.522, 369.855
893.788, 361.349
895.054, 318.870
896.319, 373.418
897.585, 371.991
898.850, 418.597
900.115, 497.239
901.380, 482.919
902.645, 417.625
903.909, 560.345
905.174, 489.099
906.438, 483.867
907.701, 539.655
908.965, 478.476
910.229, 440.315
911.492, 378.173
912.755, 457.049
914.018, 289.945
915.280, 299.859
916.543, 254.784
917.805, 96.727
919.067, 246.691
920.329, 200.673
921.590, 93.670
922.852, 71.682
924.113, 26.621
925.374, 128.741
926.635, 19.788
927.895, 33.848
929.156, 130.924
930.416, 17.893
931.676, 48.938
932.936, 47.885
934.195, 12.712
935.454, 27.640
936.714, 3.316
937.973, 54.667
939.231, 38.812
940.490, 98.751
941.748, 65.426
943.006, 51.431
944.264, 121.231
945.522, 143.766
946.780, 207.607
948.037, 113.626
949.294, 140.229
950.551, 168.979
951.808, 246.662
953.064, 241.183
954.320, 200.305
955.577, 245.154
956.832, 247.739
958.088, 241.871
959.344, 345.044
960.599, 286.713
961.854, 341.870
963.109, 312.344
964.364, 371.470
965.618, 343.765
966.872, 335.772
968.127, 421.885
969.380, 390.963
970.634, 457.695
971.888, 457.269
973.141, 473.330
974.394, 541.751
975.647, 572.571
976.900, 565.397
978.152, 644.911
979.404, 708.567
980.656, 750.799
981.908, 916.621
983.160, 842.419
984.411, 1115.636
985.663, 1050.101
986.914, 1315.634
988.165, 1333.163
989.415, 1539.291
990.666, 1756.862
991.916, 1999.776
993.166, 2240.377
994.416, 2628.912
995.665, 2956.354
996.915, 3574.883
998.164, 4261.510
999.413, 5041.007
1000.662, 6226.944
1001.911, 7734.720
1003.159, 9773.890
1004.407, 12451.900
1005.655, 16540.570
1006.903, 22248.406
1008.151, 29379.133
1009.398, 36688.254
1010.646, 41736.434
1011.893, 40376.949
1013.139, 36004.547
1014.386, 28505.320
1015.633, 21902.826
1016.879, 16832.795
1018.125, 13041.110
1019.371, 10569.188
1020.616, 8771.767
1021.862, 7661.119
1023.107, 6928.225
1024.352, 6412.083
1025.597, 6060.503
1026.842, 5738.643
1028.086, 5289.890
1029.330, 4947.663
1030.574, 4548.854
1031.818, 4090.353
1033.062, 3604.430
1034.305, 3049.787
1035.548, 2728.760
1036.791, 2359.053
1038.034, 2109.790
1039.277, 1926.038
1040.519, 1804.241
1041.762, 1595.108
1043.004, 1490.675
1044.246, 1328.176
1045.487, 1144.965
1046.729, 1164.942
1047.970, 1078.908
1049.211, 996.361
1050.452, 901.281
1051.692, 839.662
1052.933, 789.922
1054.173, 766.465
1055.413, 667.977
1056.653, 700.582
1057.893, 587.044
1059.132, 593.439
1060.371, 600.713
1061.610, 545.298
1062.849, 522.875
1064.088, 445.037
1065.326, 506.806
1066.565, 460.336
1067.803, 363.718
1069.041, 497.153
1070.278, 436.898
1071.516, 426.137
1072.753, 447.766
1073.990, 378.010
1075.227, 368.857
1076.464, 330.098
1077.700, 293.494
1078.936, 397.741
1080.173, 377.438
1081.408, 353.020
1082.644, 302.324
1083.880, 343.559
1085.115, 346.901
1086.350, 325.569
1087.585, 336.139
1088.820, 252.273
1090.054, 318.198
1091.288, 377.027
1092.522, 325.217
1093.756, 211.250
1094.990, 267.259
1096.224, 209.197
1097.457, 241.230
1098.690, 186.278
1099.923, 216.287
1101.156, 233.308
1102.388, 153.020
1103.621, 247.286
1104.853, 219.808
1106.085, 261.389
1107.316, 234.745
1108.548, 241.582
1109.779, 162.259
1111.010, 241.807
1112.241, 169.081
1113.472, 166.285
1114.703, 204.090
1115.933, 159.148
1117.163, 202.588
1118.393, 237.648
1119.623, 193.030
1120.853, 251.040
1122.082, 267.169
1123.311, 301.497
1124.540, 169.738
1125.769, 46.146
1126.997, 200.765
1128.226, 32.449
1129.454, 119.376
1130.682, 56.749
1131.910, 26.138
1133.138, 95.803
1134.365, 60.589
1135.592, 48.140
1136.819, 84.119
1138.046, 19.418
1139.273, 56.069
1140.499, 42.975
1141.725, 33.367
1142.951, 98.205
1144.177, 18.369
1145.403, 15.018
1146.628, 29.058
1147.854, 116.376
1149.079, 13.772
1150.304, 20.013
1151.528, 8.372
1152.753, 8.439
1153.977, 24.292
1155.201, 39.958
1156.425, 12.505
1157.649, 19.277
1158.872, 32.625
1160.096, 60.541
1161.319, 33.376
1162.542, 80.328
1163.764, 16.096
1164.987, 34.519
1166.209, 53.028
1167.431, 52.736
1168.653, 0.928
1169.875, 134.635
1171.097, 66.247
1172.318, 49.085
1173.539, 71.785
1174.760, 27.311
1175.981, 98.375
1177.202, 23.431
1178.422, 27.007
1179.642, 2.016
1180.862, 81.225
1182.082, 52.953
1183.302, 92.736
1184.521, 70.089
1185.740, 99.801
1186.959, 110.258
1188.178, 78.182
1189.397, 98.210
1190.615, 59.320
1191.834, 97.423
1193.052, 93.309
1194.269, 94.889
1195.487, 78.933
1196.705, 162.921
1197.922, 138.474
1199.139, 146.665
1200.356, 14.361
1201.573, 196.195
1202.789, 195.306
1204.006, 63.066
1205.222, 156.162
1206.438, 120.086
1207.653, 112.525
1208.869, 214.949
1210.084, 135.772
1211.299, 206.904
1212.514, 124.316
1213.729, 95.239
1214.944, 133.137
1216.158, 166.045
1217.372, 146.107
1218.586, 229.068
1219.800, 148.712
1221.014, 223.450
1222.227, 197.783
1223.440, 155.182
1224.654, 165.282
1225.866, 186.093
1227.079, 255.110
1228.292, 278.592
1229.504, 217.010
1230.716, 216.638
1231.928, 331.395
1233.139, 165.485
1234.351, 305.164
1235.562, 197.019
1236.773, 253.350
1237.984, 230.883
1239.195, 147.252
1240.406, 339.148
1241.616, 239.301
1242.826, 144.972
1244.036, 306.053
1245.246, 380.664
1246.456, 364.300
1247.665, 243.780
1248.874, 278.421
1250.083, 256.811
1251.292, 195.952
1252.501, 205.634
1253.709, 187.921
1254.917, 183.423
1256.125, 248.658
1257.333, 203.702
1258.541, 207.509
1259.748, 230.030
1260.956, 310.196
1262.163, 150.408
1263.370, 306.919
1264.576, 197.067
1265.783, 216.957
1266.989, 209.150
1268.195, 257.516
1269.401, 203.258
1270.607, 250.333
1271.813, 184.861
1273.018, 231.613
1274.223, 216.536
1275.428, 252.868
1276.633, 251.994
1277.838, 229.146
1279.042, 221.210
1280.246, 196.488
1281.450, 192.146
1282.654, 143.216
1283.858, 179.492
1285.061, 162.476
1286.265, 133.420
1287.468, 99.706
1288.671, 186.890
1289.873, 216.324
1291.076, 151.407
1292.278, 124.335
1293.480, 133.344
1294.682, 129.740
1295.884, 123.564
1297.086, 128.617
1298.287, 81.551
1299.488, 108.267
1300.689, 149.532
1301.890, 53.102
1303.091, 160.368
1304.291, 42.189
1305.491, 118.083
1306.691, 49.445
1307.891, 73.445
1309.091, 215.287
1310.290, 99.630
1311.490, 106.474
1312.689, 148.765
1313.888, 68.020
1315.086, 134.673
1316.285, 155.536
1317.483, 60.044
1318.681, 171.969
1319.879, 107.828
1321.077, 70.117
1322.275, 111.980
1323.472, 71.657
1324.669, 88.700
1325.866, 78.782
1327.063, 109.885
1328.260, 126.482
1329.456, 127.786
1330.653, 176.257
1331.849, 93.640
1333.045, 142.413
1334.240, 150.277
1335.436, 116.681
1336.631, 147.196
1337.826, 152.294
1339.021, 215.286
1340.216, 170.359
1341.411, 133.507
1342.605, 128.071
1343.799, 208.149
1344.993, 166.595
1346.187, 205.657
1347.381, 172.083
1348.574, 159.874
1349.767, 244.988
1350.961, 237.945
1352.153, 195.482
1353.346, 180.182
1354.539, 195.660
1355.731, 141.685
1356.923, 257.029
1358.115, 141.396
1359.307, 240.112
1360.498, 180.603
1361.690, 214.396
1362.881, 205.414
1364.072, 300.789
1365.263, 198.091
1366.453, 266.089
1367.644, 257.009
1368.834, 213.198
1370.024, 182.335
1371.214, 195.671
1372.404, 256.585
1373.593, 188.999
1374.783, 146.549
1375.972, 186.950
1377.161, 77.468
1378.349, 111.733
1379.538, 45.375
1380.726, 86.692
1381.915, 149.304
1383.103, 52.668
1384.290, 228.307
1385.478, 99.805
1386.665, 237.442
1387.853, 109.169
1389.040, 100.766
1390.227, 134.379
1391.413, 77.775
1392.600, 149.061
1393.786, 207.108
1394.972, 73.414
1396.158, 163.872
1397.344, 184.409
1398.530, 79.778
1399.715, 211.441
1400.900, 52.273
1402.085, 80.450
1403.270, 174.511
1404.455, 139.590
1405.639, 142.467
1406.824, 160.934
1408.008, 61.451
1409.192, 140.794
1410.375, 92.407
1411.559, 60.055
1412.742, 129.848
1413.925, 118.373
1415.108, 73.645
1416.291, 99.858
1417.474, 72.508
1418.656, 121.677
1419.839, 70.995
1421.021, 64.908
1422.202, 70.371
1423.384, 104.728
1424.566, 109.276
1425.747, 61.175
1426.928, 117.321
1428.109, 63.084
1429.290, 58.749
1430.470, 128.247
1431.651, 150.505
1432.831, 55.199
1434.011, 125.754
1435.191, 90.054
1436.370, 113.317
1437.550, 236.608
1438.729, 114.889
1439.908, 62.210
1441.087, 160.323
1442.266, 118.439
1443.444, 88.186
1444.623, 165.684
1445.801, 65.038
1446.979, 69.047
1448.157, 156.809
1449.334, 94.546
1450.512, 219.381
1451.689, 118.670
1452.866, 144.281
1454.043, 135.088
1455.220, 56.631
1456.396, 107.543
1457.573, 70.337
1458.749, 20.844
1459.925, 16.724
1461.100, 19.011
1462.276, 20.026
1463.451, 50.210
1464.627, 13.798
1465.802, 14.636
1466.977, 13.815
1468.151, 91.378
1469.326, 38.194
1470.500, 37.092
1471.674, 106.212
1472.848, 25.253
1474.022, 148.858
1475.195, 85.959
1476.369, 34.759
1477.542, 41.210
1478.715, 92.932
1479.888, 72.766
1481.061, 120.793
1482.233, 153.251
1483.405, 44.501
1484.577, 187.234
1485.749, 82.190
1486.921, 111.101
1488.093, 265.401
1489.264, 56.730
1490.435, 178.116
1491.606, 143.323
1492.777, 86.883
1493.948, 247.919
1495.118, 147.779
1496.288, 104.627
