##NAMES=Hedenbergite
##RRUFFID=R060040
##IDEAL CHEMISTRY=CaFe^2+^Si_2_O_6_
##LOCALITY=Rio Marina, Elba, Italy
##OWNER=RRUFF
##SOURCE=University of Arizona Mineral Museum
##DESCRIPTION=Radial aggregate of green thin bladed crystals
##STATUS=The identification of this mineral has been confirmed by X-ray diffraction and chemical analysis
##URL=rruff.info/R060040
##MEASURED CHEMISTRY=Ca_1.00_(Fe^2+^_0.89_Mg_0.09_Mn_0.02_)_Î£=1_Si_2.00_O_6_
##PIN_ID=M01289
##ORIENTATION=Laser parallel to a* (1 0 0). Fiducial mark perpendicular to laser is parallel to b [0 1 0]
262.4900, 0.0000000E+00
263.7050, 1.161133
264.9210, 98.66846
266.1360, 1.717285
267.3520, 81.73633
268.5670, 81.65430
269.7820, 109.5928
270.9960, 99.36572
272.2110, 4.592773
273.4250, 58.30811
274.6400, 3.195801
275.8540, 45.67285
277.0680, 77.71729
278.2810, 112.7642
279.4950, 196.6572
280.7090, 229.2637
281.9220, 276.4834
283.1350, 204.2969
284.3480, 408.7607
285.5610, 468.8271
286.7730, 522.4009
287.9860, 583.4106
289.1980, 620.8101
290.4100, 722.5439
291.6220, 750.5488
292.8340, 821.7676
294.0460, 980.1562
295.2570, 987.6797
296.4690, 1318.305
297.6800, 1299.009
298.8910, 1470.771
300.1020, 1684.596
301.3120, 1953.703
302.5230, 2190.109
303.7330, 2438.405
304.9440, 2621.355
306.1540, 2860.611
307.3630, 3118.983
308.5730, 2963.250
309.7830, 2918.480
310.9920, 2583.716
312.2010, 2413.859
313.4100, 1806.190
314.6190, 1691.472
315.8280, 1418.853
317.0370, 1274.125
318.2450, 1107.246
319.4530, 983.2100
320.6610, 891.0244
321.8690, 763.6943
323.0770, 887.2275
324.2850, 930.6299
325.4920, 862.9062
326.6990, 800.0625
327.9060, 872.1035
329.1130, 986.0322
330.3200, 964.8535
331.5270, 1184.570
332.7330, 1303.187
333.9390, 1426.708
335.1450, 1373.188
336.3510, 1591.026
337.5570, 1680.479
338.7630, 1899.652
339.9680, 2095.266
341.1740, 2054.745
342.3790, 1999.461
343.5840, 1968.093
344.7890, 1862.223
345.9930, 1729.240
347.1980, 1401.605
348.4020, 1299.902
349.6060, 1437.273
350.8100, 1304.296
352.0140, 1241.252
353.2180, 1187.188
354.4210, 1292.382
355.6250, 1334.524
356.8280, 1443.763
358.0310, 1536.822
359.2340, 1793.157
360.4360, 1962.286
361.6390, 2257.647
362.8410, 2658.215
364.0430, 3117.928
365.2450, 3491.948
366.4470, 4068.601
367.6490, 4669.954
368.8510, 5391.584
370.0520, 6429.454
371.2530, 7346.495
372.4540, 8389.291
373.6550, 9299.639
374.8560, 9982.967
376.0560, 10260.40
377.2570, 9901.691
378.4570, 9231.959
379.6570, 8277.205
380.8570, 7057.424
382.0570, 5827.619
383.2560, 4784.787
384.4560, 4046.932
385.6550, 3296.047
386.8540, 2629.137
388.0530, 2120.199
389.2520, 1737.230
390.4510, 1366.235
391.6490, 1139.212
392.8470, 1024.161
394.0450, 865.0830
395.2430, 740.9775
396.4410, 606.8447
397.6390, 472.6855
398.8360, 384.5010
400.0340, 412.2891
401.2310, 374.0527
402.4280, 297.7920
403.6250, 349.5059
404.8210, 277.1973
406.0180, 105.8643
407.2140, 265.7783
408.4100, 203.1133
409.6060, 52.51660
410.8020, 92.01270
411.9980, 114.6680
413.1930, 36.58496
414.3890, 11.22559
415.5840, 158.0977
416.7790, 1.987305
417.9740, 10.95215
419.1680, 2.927734
420.3630, 1.951172
421.5570, 73.00781
422.7510, 47.97363
423.9450, 50.94141
425.1390, 30.67383
426.3330, 111.6553
427.5270, 93.66895
428.7200, 44.28809
429.9130, 1.757813
431.1060, 26.81543
432.2990, 58.89258
433.4920, 145.3691
434.6840, 13.25293
435.8770, 49.58105
437.0690, 23.03027
438.2610, 48.15234
439.4530, 116.9453
440.6450, 4.417969
441.8360, 48.33398
443.0280, 72.66699
444.2190, 34.86719
445.4100, 75.88184
446.6010, 94.98242
447.7920, 172.9238
448.9820, 48.38770
450.1730, 35.45410
451.3630, 32.12500
452.5530, 22.60840
453.7430, 59.38672
454.9330, 173.2852
456.1230, 82.37109
457.3120, 50.53320
458.5010, 21.43457
459.6910, 39.99707
460.8800, 3.363281
462.0680, 63.18945
463.2570, 51.40918
464.4460, 37.95215
465.6340, 50.36914
466.8220, 14.99512
468.0100, 102.3535
469.1980, 95.56055
470.3860, 23.56543
471.5730, 49.29785
472.7600, 121.7168
473.9480, 28.29688
475.1350, 57.23633
476.3210, 109.4746
477.5080, 128.2822
478.6950, 151.0645
479.8810, 167.3857
481.0670, 157.4170
482.2530, 229.3271
483.4390, 206.9717
484.6250, 288.5801
485.8100, 237.1133
486.9960, 183.5850
488.1810, 346.9238
489.3660, 290.1885
490.5510, 469.4014
491.7360, 356.5586
492.9200, 319.6602
494.1050, 485.7197
495.2890, 385.7520
496.4730, 423.7598
497.6570, 502.7441
498.8400, 389.7080
500.0240, 542.6172
501.2070, 467.4961
502.3910, 524.3545
503.5740, 423.1904
504.7570, 494.9951
505.9400, 434.7285
507.1220, 522.4355
508.3050, 585.1104
509.4870, 498.7637
510.6690, 578.3594
511.8510, 757.9346
513.0330, 687.4863
514.2140, 838.0166
515.3960, 832.5283
516.5770, 904.0225
517.7580, 1176.500
518.9390, 1058.969
520.1200, 1372.420
521.3010, 1365.854
522.4810, 1341.271
523.6610, 1172.672
524.8420, 1238.066
526.0220, 1043.450
527.2010, 850.8291
528.3810, 796.1992
529.5610, 673.5537
530.7400, 550.8906
531.9190, 571.2119
533.0980, 452.5449
534.2770, 421.8594
535.4560, 291.1807
536.6340, 368.5117
537.8120, 416.8320
538.9910, 378.1348
540.1690, 424.4287
541.3460, 346.7061
542.5240, 373.9795
543.7020, 399.2344
544.8790, 405.4746
546.0560, 456.6963
547.2330, 498.9043
548.4100, 624.0703
549.5870, 701.2402
550.7630, 574.3955
551.9400, 774.2861
553.1160, 616.3184
554.2920, 585.4219
555.4680, 561.3164
556.6440, 573.8750
557.8190, 458.9150
558.9950, 371.1045
560.1700, 392.5703
561.3450, 401.7363
562.5200, 261.8203
563.6950, 417.1514
564.8690, 381.0039
566.0440, 146.6396
567.2180, 202.4922
568.3920, 226.2139
569.5660, 359.0127
570.7400, 215.5000
571.9130, 357.9678
573.0870, 309.8135
574.2600, 94.92285
575.4330, 189.6816
576.6060, 111.7354
577.7790, 36.94531
578.9520, 87.87793
580.1240, 197.3057
581.2960, 30.99609
582.4690, 138.2842
583.6410, 45.58594
584.8120, 62.09277
585.9840, 100.9756
587.1560, 75.08301
588.3270, 107.2393
589.4980, 5.363281
590.6690, 108.0674
591.8400, 140.7559
593.0110, 15.40820
594.1810, 98.98047
595.3510, 62.76953
596.5220, 48.99902
597.6920, 24.85156
598.8610, 47.47266
600.0310, 110.4668
601.2010, 8.165039
602.3700, 118.8320
603.5390, 63.61230
604.7080, 63.78125
605.8770, 91.28125
607.0460, 34.50977
608.2140, 87.71094
609.3830, 116.1797
610.5510, 166.5938
611.7190, 116.9600
612.8870, 129.0000
614.0550, 16.45117
615.2220, 131.8701
616.3900, 52.86133
617.5570, 163.1826
618.7240, 215.5615
619.8910, 26.01270
621.0580, 75.50488
622.2240, 90.93164
623.3910, 263.5264
624.5570, 147.1035
625.7230, 185.6621
626.8890, 139.2031
628.0550, 239.6318
629.2200, 269.1387
630.3860, 255.6562
631.5510, 287.1436
632.7160, 311.7559
633.8810, 436.1963
635.0460, 360.6211
636.2100, 443.0293
637.3750, 523.4229
638.5390, 620.8203
639.7030, 506.1816
640.8670, 620.5293
642.0310, 667.9150
643.1950, 693.4609
644.3580, 1013.763
645.5210, 961.0488
646.6850, 1167.393
647.8480, 1559.988
649.0100, 1928.229
650.1730, 2183.211
651.3350, 2722.910
652.4980, 3181.127
653.6600, 3724.387
654.8220, 4558.556
655.9840, 5521.965
657.1450, 6498.108
658.3070, 7315.227
659.4680, 8280.453
660.6300, 8822.732
661.7910, 8564.055
662.9510, 7961.361
664.1120, 6982.328
665.2730, 5954.516
666.4330, 4914.179
667.5930, 4094.251
668.7530, 3302.251
669.9130, 2643.541
671.0730, 2161.719
672.2320, 1886.051
673.3920, 1727.011
674.5510, 1549.231
675.7100, 1210.498
676.8690, 1016.474
678.0280, 1085.376
679.1860, 756.9434
680.3450, 852.8154
681.5030, 839.3555
682.6610, 705.1973
683.8190, 612.0244
684.9770, 400.8359
686.1340, 599.6318
687.2920, 541.4121
688.4490, 506.2812
689.6060, 394.1240
690.7630, 366.9863
691.9200, 390.9482
693.0760, 356.8428
694.2330, 269.6436
695.3890, 512.3379
696.5450, 308.1230
697.7010, 309.7910
698.8570, 305.4473
700.0130, 277.7568
701.1680, 380.0781
702.3230, 248.2080
703.4780, 286.8428
704.6330, 254.8086
705.7880, 320.2041
706.9430, 265.0527
708.0970, 270.7129
709.2520, 225.3906
710.4060, 262.0557
711.5600, 283.7129
712.7140, 65.36914
713.8670, 331.6611
715.0210, 320.3086
716.1740, 233.6475
717.3270, 114.5762
718.4800, 101.8438
719.6330, 98.46973
720.7860, 156.3887
721.9380, 203.8359
723.0910, 22.83398
724.2430, 168.9346
725.3950, 165.1885
726.5470, 257.3232
727.6980, 131.5820
728.8500, 181.0527
730.0010, 157.3291
731.1530, 116.7354
732.3040, 80.28711
733.4550, 195.5020
734.6050, 207.5566
735.7560, 105.3838
736.9060, 101.0918
738.0560, 243.0205
739.2060, 154.2441
740.3560, 297.6240
741.5060, 200.8818
742.6560, 57.94727
743.8050, 226.0293
744.9540, 170.1992
746.1030, 82.12109
747.2520, 237.2754
748.4010, 223.5410
749.5500, 341.9756
750.6980, 223.2412
751.8460, 118.5938
752.9950, 339.3457
754.1420, 393.7070
755.2900, 257.7334
756.4380, 121.1572
757.5850, 170.5752
758.7330, 146.4199
759.8800, 196.5205
761.0270, 220.6797
762.1730, 223.0693
763.3200, 112.4502
764.4670, 149.8242
765.6130, 136.1641
766.7590, 156.5225
767.9050, 87.87500
769.0510, 91.21973
770.1960, 56.55664
771.3420, 200.8848
772.4870, 166.2070
773.6320, 128.5225
774.7770, 97.83105
775.9220, 86.13281
777.0670, 134.4277
778.2110, 95.71582
779.3560, 75.99805
780.5000, 33.27246
781.6440, 108.5391
782.7880, 102.7988
783.9320, 69.05176
785.0750, 5.298828
786.2180, 86.53613
787.3620, 3.232422
788.5050, 15.01562
789.6480, 79.18164
790.7900, 65.37305
791.9330, 139.5586
793.0750, 21.97949
794.2170, 149.1504
795.3590, 23.68457
796.5010, 53.45703
797.6430, 37.59375
798.7850, 22.72266
799.9260, 22.84277
801.0670, 23.04297
802.2080, 26.95215
803.3490, 34.88477
804.4900, 25.84668
805.6310, 103.1680
806.7710, 10.02344
807.9110, 33.02539
809.0510, 92.98047
810.1910, 144.9551
811.3310, 75.93457
812.4710, 93.05566
813.6100, 9.235352
814.7490, 140.5693
815.8880, 19.62988
817.0270, 99.14941
818.1660, 36.07422
819.3050, 139.6738
820.4430, 103.4160
821.5820, 161.1553
822.7200, 224.8906
823.8580, 88.62109
824.9950, 42.34766
826.1330, 44.07031
827.2710, 13.21191
828.4080, 7.490234
829.5450, 19.18848
830.6820, 36.87988
831.8190, 80.56738
832.9560, 36.25098
834.0920, 119.9297
835.2280, 125.6064
836.3650, 39.72070
837.5010, 104.0742
838.6360, 4.488281
839.7720, 184.0869
840.9080, 67.33984
842.0430, 65.19336
843.1780, 3.723633
844.3130, 247.2490
845.4480, 115.7715
846.5830, 142.2900
847.7170, 212.8057
848.8520, 286.3193
849.9860, 252.5010
851.1200, 271.0107
852.2540, 303.5156
853.3870, 370.0195
854.5210, 331.4121
855.6540, 373.7520
856.7880, 424.0771
857.9210, 340.5898
859.0540, 231.1035
860.1860, 254.1094
861.3190, 324.6377
862.4510, 164.1650
863.5840, 111.6953
864.7160, 189.2227
865.8480, 152.7578
866.9790, 230.2920
868.1110, 219.7842
869.2420, 173.1289
870.3740, 122.6631
871.5050, 197.8975
872.6360, 143.8789
873.7660, 123.9072
874.8970, 138.8018
876.0280, 148.1240
877.1580, 254.2832
878.2880, 271.7041
879.4180, 274.6348
880.5480, 264.3359
881.6770, 200.1367
882.8070, 205.4951
883.9360, 183.0732
885.0650, 159.5098
886.1940, 174.7646
887.3230, 359.1455
888.4520, 183.8467
889.5800, 166.5703
890.7090, 245.3203
891.8370, 268.0713
892.9650, 316.8613
894.0930, 252.6562
895.2200, 232.4521
896.3480, 319.2500
897.4750, 137.0654
898.6020, 330.8857
899.7290, 315.7031
900.8560, 301.5195
901.9830, 230.3350
903.1090, 183.1543
904.2360, 60.94336
905.3620, 239.7480
906.4880, 301.4102
907.6140, 216.2266
908.7400, 287.0430
909.8650, 223.8594
910.9900, 223.6738
912.1160, 200.4697
913.2410, 193.2842
914.3660, 60.10840
915.4900, 31.87891
916.6150, 165.4727
917.7390, 210.2969
918.8640, 359.1201
919.9880, 249.8730
921.1120, 49.36035
922.2350, 215.1865
923.3590, 266.2578
924.4820, 110.5977
925.6060, 92.40430
926.7290, 12.15625
927.8520, 9.016602
928.9740, 125.5635
930.0970, 186.3965
931.2190, 155.2383
932.3420, 114.9570
933.4640, 145.6143
934.5860, 122.2109
935.7080, 31.81250
936.8290, 119.7393
937.9510, 211.4316
939.0720, 49.63477
940.1930, 181.4160
941.3140, 80.74512
942.4350, 53.77539
943.5560, 143.3945
944.6760, 73.84668
945.7960, 11.34180
946.9170, 22.19629
948.0370, 26.67480
949.1560, 123.4307
950.2760, 228.2480
951.3960, 35.38672
952.5150, 85.21094
953.6340, 165.3525
954.7530, 157.1826
955.8720, 125.0146
956.9910, 201.8496
958.1090, 224.6875
959.2280, 294.5293
960.3460, 157.2715
961.4640, 238.0273
962.5820, 122.7520
963.6990, 225.3682
964.8170, 236.0400
965.9340, 190.7920
967.0510, 240.6631
968.1690, 318.4346
969.2850, 394.3125
970.4020, 227.1953
971.5190, 238.4170
972.6350, 320.6191
973.7510, 159.0068
974.8670, 280.9043
975.9830, 446.4785
977.0990, 422.3848
978.2150, 382.0869
979.3300, 411.0010
980.4450, 423.9199
981.5600, 468.8428
982.6750, 460.7705
983.7900, 652.7012
984.9050, 555.6387
986.0190, 639.5801
987.1340, 732.5254
988.2480, 865.4756
989.3620, 850.4307
990.4750, 998.3896
991.5890, 1263.355
992.7020, 1396.324
993.8160, 1516.297
994.9290, 1703.277
996.0420, 1937.260
997.1550, 2186.426
998.2670, 2674.416
999.3800, 2958.412
1000.492, 3632.413
1001.604, 4327.434
1002.716, 5379.459
1003.828, 7769.490
1004.940, 9320.525
1006.051, 10705.56
1007.163, 13415.61
1008.274, 16833.65
1009.385, 21050.27
1010.496, 24901.33
1011.606, 28062.39
1012.717, 28939.46
1013.827, 26625.54
1014.937, 22924.63
1016.047, 18745.03
1017.157, 14882.86
1018.267, 11336.96
1019.377, 9261.059
1020.486, 7468.305
1021.595, 6345.107
1022.704, 5389.721
1023.813, 4592.443
1024.922, 4265.595
1026.030, 4080.952
1027.139, 3833.484
1028.247, 3639.599
1029.355, 3325.715
1030.463, 3356.087
1031.571, 2903.889
1032.678, 2861.007
1033.786, 2682.127
1034.893, 2209.248
1036.000, 2149.030
1037.107, 1740.152
1038.214, 1802.354
1039.321, 1513.544
1040.427, 1433.684
1041.533, 1315.825
1042.639, 1152.985
1043.745, 1120.140
1044.851, 819.2949
1045.957, 972.4512
1047.062, 836.9355
1048.168, 737.0928
1049.273, 624.2490
1050.378, 806.4062
1051.482, 527.5645
1052.587, 649.2070
1053.692, 662.3652
1054.796, 498.5254
1055.900, 515.6855
1057.004, 458.8506
1058.108, 524.0215
1059.212, 574.2852
1060.315, 425.4561
1061.418, 429.0264
1062.522, 385.1992
1063.625, 566.3711
1064.728, 378.5508
1065.830, 316.7324
1066.933, 452.9150
1068.035, 421.0977
1069.137, 285.2812
1070.239, 441.4727
1071.341, 348.6748
1072.443, 290.8877
1073.545, 342.1104
1074.646, 439.4854
1075.747, 311.7090
1076.848, 188.9336
1077.949, 385.1836
1079.050, 347.2559
1080.150, 486.5400
1081.251, 243.8516
1082.351, 392.1680
1083.451, 326.4844
1084.551, 219.8184
1085.651, 237.1406
1086.750, 499.4766
1087.850, 223.8115
1088.949, 321.1475
1090.048, 478.4814
1091.147, 192.8145
1092.246, 344.1475
1093.345, 264.4805
1094.443, 249.8145
1095.541, 176.1523
1096.639, 127.5479
1097.737, 241.8877
1098.835, 273.0303
1099.933, 228.3691
1101.030, 236.7061
1102.128, 242.2002
1103.225, 328.5352
1104.322, 290.8818
1105.419, 421.2568
1106.515, 165.6328
1107.612, 364.2334
1108.708, 237.6260
1109.804, 195.0186
1110.900, 207.4102
1111.996, 284.8008
1113.092, 208.1895
1114.187, 249.5781
1115.283, 212.9648
1116.378, 217.3506
1117.473, 405.7334
1118.568, 129.1162
1119.662, 142.4971
1120.757, 192.8770
1121.851, 266.2549
1122.946, 132.6318
1124.040, 258.0059
1125.134, 178.3789
1126.227, 192.7510
1127.321, 232.1211
1128.414, 1.489258
1129.508, 289.8506
1130.601, 192.2129
1131.693, 70.57227
1132.786, 122.9678
1133.879, 65.32227
1134.971, 164.6758
1136.064, 223.0264
1137.156, 113.3750
1138.248, 105.7217
1139.339, 245.0664
1140.431, 18.59277
1141.522, 273.7314
1142.614, 41.05273
1143.705, 33.37207
1144.796, 162.8330
1145.887, 97.14648
1146.977, 154.7119
1148.068, 17.79199
1149.158, 60.02930
1150.248, 81.94727
1151.338, 119.4375
1152.428, 32.53711
1153.518, 61.21191
1154.607, 94.69043
1155.696, 32.65137
1156.785, 136.4492
1157.874, 11.74414
1158.963, 182.3857
1160.052, 94.28223
1161.141, 56.82422
1162.229, 0.3359380
1163.317, 228.1787
1164.405, 163.0186
1165.493, 51.85449
1166.581, 0.6894530
1167.668, 95.51270
1168.756, 24.33398
1169.843, 35.04980
1170.930, 102.8623
1172.017, 209.6729
1173.103, 48.59570
1174.190, 99.39844
1175.276, 80.20312
1176.363, 148.0039
1177.449, 22.19824
1178.535, 102.5762
1179.620, 81.34570
1180.706, 139.1133
1181.791, 67.87500
1182.877, 7.634766
1183.962, 118.3867
1185.047, 135.1387
1186.131, 133.8877
1187.216, 174.6318
1188.300, 138.3750
1189.385, 28.11426
1190.469, 148.8496
1191.553, 11.41797
1192.637, 178.2969
1193.720, 164.0098
1194.804, 146.7188
1195.887, 192.4248
1196.970, 287.1270
1198.053, 51.82812
1199.136, 130.5254
1200.219, 176.2305
1201.301, 191.9336
1202.383, 131.6338
1203.465, 295.3311
1204.547, 217.0244
1205.629, 138.7324
1206.711, 66.43555
1207.792, 135.1367
1208.874, 150.8340
1209.955, 232.8076
1211.036, 205.5000
1212.117, 118.1875
1213.198, 239.8721
1214.278, 49.55176
1215.359, 173.2285
1216.439, 223.9014
1217.519, 60.56934
1218.599, 89.23535
1219.678, 111.8975
1220.758, 140.5547
1221.837, 304.2090
1222.917, 241.8604
1223.996, 309.5068
1225.075, 219.1504
1226.153, 37.79004
1227.232, 224.4248
1228.310, 13.94336
1229.389, 96.66699
1230.467, 179.2764
1231.545, 15.88086
1232.622, 232.4795
1233.700, 129.0752
1234.777, 141.6670
1235.855, 89.25488
1236.932, 12.84082
1238.009, 231.4180
1239.086, 77.99219
1240.162, 96.56348
1241.239, 282.1318
1242.315, 235.6943
1243.391, 53.25391
1244.467, 91.81055
1245.543, 199.3633
1246.619, 96.91309
1247.694, 190.4590
1248.769, 179.0010
1249.844, 147.5400
1250.919, 167.0762
1251.994, 151.6084
1253.069, 146.1367
1254.144, 179.6631
1255.218, 58.18457
1256.292, 304.7041
1257.366, 176.2197
1258.440, 205.5547
1259.514, 228.0635
1260.587, 239.5693
1261.661, 51.92578
1262.734, 150.5381
1263.807, 199.0000
1264.880, 194.4590
1265.952, 307.9150
1267.025, 134.3672
1268.097, 156.8174
1269.170, 99.26465
1270.242, 199.1338
1271.314, 93.57520
1272.385, 234.0146
1273.457, 55.55566
1274.528, 118.8418
1275.600, 95.23633
1276.671, 151.3145
1277.742, 216.9746
1278.812, 331.3633
1279.883, 277.7500
1280.954, 123.0176
1282.024, 176.7051
1283.094, 270.5850
1284.164, 140.3555
1285.234, 72.69922
1286.303, 71.83887
1287.373, 145.8037
1288.442, 80.18848
1289.511, 96.57422
1290.580, 11.29492
1291.649, 73.40723
1292.718, 48.79395
1293.786, 96.18066
1294.855, 97.56836
1295.923, 54.29688
1296.991, 66.68750
1298.059, 75.99902
1299.126, 43.31055
1300.194, 112.6729
1301.261, 63.96289
1302.328, 148.3691
1303.395, 157.7178
1304.462, 39.06055
1305.529, 73.40820
1306.596, 41.42871
1307.662, 88.78125
1308.728, 304.1367
1309.794, 270.4951
1310.860, 67.89453
1311.926, 166.8799
1312.991, 76.92676
1314.057, 61.33594
1315.122, 169.7480
1316.187, 130.1660
1317.252, 135.5879
1318.317, 340.9209
1319.381, 185.3486
1320.446, 23.13965
1321.510, 188.5703
1322.574, 300.0029
1323.638, 157.4365
1324.702, 73.87109
1325.766, 185.3057
1326.829, 131.7383
1327.892, 388.9873
1328.956, 151.4238
1330.019, 74.86133
1331.081, 133.3008
1332.144, 206.7422
1333.206, 278.1758
1334.269, 397.6104
1335.331, 127.0479
1336.393, 282.4863
1337.455, 54.07129
1338.516, 357.3623
1339.578, 158.7979
1340.639, 301.2363
1341.701, 242.6777
1342.762, 296.1113
1343.822, 214.5576
1344.883, 96.00684
1345.944, 118.4590
1347.004, 141.9141
1348.064, 266.3721
1349.124, 72.83398
1350.184, 141.2988
1351.244, 220.7666
1352.304, 144.2383
1353.363, 29.71289
1354.422, 107.1348
1355.481, 168.6172
1356.540, 151.2988
1357.599, 203.8613
1358.657, 245.3555
1359.716, 118.6963
1360.774, 195.2012
1361.832, 17.70898
1362.890, 216.2217
1363.948, 224.7393
1365.006, 44.03711
1366.063, 231.5654
1367.120, 37.09961
1368.178, 234.6240
1369.234, 143.1553
1370.291, 201.6914
1371.348, 90.23438
1372.404, 78.78223
1373.461, 206.3359
1374.517, 77.89551
1375.573, 275.4619
1376.629, 212.0352
1377.684, 286.6133
1378.740, 229.1904
1379.795, 136.7754
1380.850, 215.3672
1381.905, 166.9648
1382.960, 226.5684
1384.015, 269.1738
1385.070, 291.7852
1386.124, 249.4043
1387.178, 130.0312
1388.232, 31.66211
1389.286, 296.2656
1390.340, 58.91211
1391.393, 158.5410
1392.447, 284.1777
1393.500, 159.8223
1394.553, 131.4727
1395.606, 55.13086
1396.659, 134.7988
1397.711, 40.48047
1398.764, 177.1719
1399.816, 245.8711
1400.868, 64.43750
1401.920, 168.1543
1402.972, 126.8809
1404.023, 109.6621
1405.075, 206.4590
1406.126, 258.2656
1407.177, 56.91797
1408.228, 202.9336
1409.279, 3.808594
1410.330, 166.8574
1411.380, 36.80273
1412.431, 148.7598
1413.481, 130.7656
1414.531, 102.7930
1415.580, 11.82812
1416.630, 203.8789
1417.680, 90.65234
1418.729, 127.7500
