##NAMES=Hedenbergite
##RRUFFID=R050030
##IDEAL CHEMISTRY=CaFe^2+^Si_2_O_6_
##LOCALITY=Heroult, Ontario, Canada
##OWNER=RRUFF
##SOURCE=University of Arizona Mineral Museum
##DESCRIPTION=Green fragments
##STATUS=The identification of this mineral has been confirmed by X-ray diffraction and chemical analysis
##URL=rruff.info/R050030
##MEASURED CHEMISTRY=(Ca_.993_Na_.007_)(Fe_.860_Mn_.111_Mg_.029_)(Si_.993_Al_.007_)_2_O_6_
##PIN_ID=M00478
##ORIENTATION=Laser parallel to c* (0 0 1). Fiducial mark perpendicular to laser is parallel to a [1 0 0]
110.777, 0.000
112.168, 20.391
113.559, 2.274
114.949, 38.656
116.339, 140.614
117.729, 243.158
119.119, 298.419
120.508, 307.813
121.897, 337.911
123.286, 569.398
124.675, 520.082
126.063, 486.828
127.452, 419.468
128.840, 241.867
130.228, 170.914
131.615, 101.522
133.003, 107.620
134.390, 13.151
135.777, 83.093
137.164, 95.500
138.550, 94.633
139.937, 184.042
141.323, 169.708
142.709, 249.588
144.094, 234.668
145.480, 307.916
146.865, 309.321
148.250, 393.870
149.635, 403.555
151.019, 383.367
152.403, 408.299
153.788, 382.340
155.171, 403.479
156.555, 376.715
157.939, 352.760
159.322, 335.543
160.705, 290.786
162.088, 268.368
163.470, 240.381
164.853, 198.848
166.235, 364.588
167.617, 270.431
168.998, 333.333
170.380, 314.312
171.761, 331.401
173.142, 478.541
174.523, 582.745
175.904, 718.004
177.284, 836.328
178.664, 988.712
180.044, 1080.289
181.424, 976.777
182.803, 841.313
184.183, 618.894
185.562, 576.518
186.940, 522.181
188.319, 512.882
189.698, 457.903
191.076, 432.389
192.454, 373.193
193.831, 320.014
195.209, 276.813
196.586, 220.604
197.963, 156.397
199.340, 218.216
200.717, 163.088
202.093, 163.111
203.470, 117.263
204.846, 207.600
206.221, 139.071
207.597, 230.627
208.972, 219.229
210.347, 16.035
211.722, 12.809
213.097, 19.312
214.472, 24.381
215.846, 23.564
217.220, 84.495
218.594, 53.440
219.967, 86.370
221.341, 30.293
222.714, 214.210
224.087, 80.123
225.460, 34.417
226.832, 110.893
228.204, 193.120
229.577, 215.659
230.948, 0.287
232.320, 91.702
233.692, 60.281
235.063, 23.791
236.434, 159.101
237.805, 22.179
239.175, 110.393
240.545, 94.729
241.916, 123.589
243.286, 50.444
244.655, 73.293
246.025, 33.131
247.394, 5.060
248.763, 98.746
250.132, 13.547
251.501, 101.337
252.869, 58.125
254.237, 146.908
255.605, 107.687
256.973, 193.459
258.340, 191.226
259.708, 228.989
261.075, 286.748
262.442, 326.501
263.808, 384.250
265.175, 428.998
266.541, 670.743
267.907, 647.485
269.273, 759.225
270.639, 905.037
272.004, 813.783
273.369, 985.529
274.734, 899.271
276.099, 972.547
277.463, 1007.954
278.828, 1002.441
280.192, 1062.154
281.556, 1039.979
282.919, 1227.995
284.283, 1286.159
285.646, 1478.322
287.009, 1557.440
288.372, 1814.364
289.734, 2109.401
291.097, 2180.817
292.459, 2464.831
293.821, 2852.455
295.183, 3022.293
296.544, 3369.511
297.905, 3466.377
299.266, 3612.975
300.627, 3730.350
301.988, 3715.083
303.348, 3832.781
304.709, 3611.754
306.069, 3415.332
307.428, 3157.518
308.788, 2656.734
310.147, 2278.801
311.507, 1973.718
312.865, 1653.369
314.224, 1472.545
315.583, 1326.510
316.941, 1226.310
318.299, 1225.333
319.657, 1305.073
321.015, 1406.967
322.372, 1454.678
323.729, 1638.394
325.086, 1825.113
326.443, 2172.833
327.800, 2373.551
329.156, 2845.241
330.512, 3162.935
331.868, 3625.634
333.224, 4062.327
334.579, 4685.023
335.935, 5107.725
337.290, 5587.427
338.645, 5557.128
339.999, 5300.831
341.354, 4661.535
342.708, 3948.241
344.062, 3423.948
345.416, 2733.656
346.769, 2328.364
348.123, 1973.074
349.476, 1650.784
350.829, 1566.494
352.182, 1513.204
353.534, 1514.913
354.887, 1433.621
356.239, 1600.329
357.591, 1687.037
358.942, 1930.743
360.294, 2173.448
361.645, 2540.152
362.996, 2991.855
364.347, 3661.558
365.698, 4421.257
367.048, 5322.954
368.398, 6312.648
369.748, 7308.335
371.098, 8291.021
372.448, 8992.701
373.797, 9337.155
375.146, 8840.823
376.495, 8020.195
377.844, 7139.444
379.192, 5713.090
380.540, 4713.205
381.889, 3623.839
383.236, 2895.466
384.584, 2429.084
385.932, 1842.697
387.279, 1491.302
388.626, 1220.202
389.973, 1062.792
391.319, 810.377
392.666, 804.956
394.012, 595.517
395.358, 436.081
396.704, 463.639
398.049, 391.190
399.394, 410.735
400.740, 241.887
402.084, 269.416
403.429, 160.939
404.774, 200.457
406.118, 263.983
407.462, 199.501
408.806, 129.012
410.150, 148.456
411.493, 129.950
412.836, 121.439
414.179, 109.920
415.522, 93.335
416.865, 90.667
418.207, 86.891
419.549, 86.460
420.891, 95.954
422.233, 105.524
423.575, 124.003
424.916, 119.207
426.257, 45.296
427.598, 155.752
428.939, 124.330
430.279, 232.495
431.619, 106.939
432.959, 142.424
434.299, 212.851
435.639, 374.328
436.978, 268.092
438.318, 276.708
439.657, 155.115
440.996, 220.519
442.334, 189.918
443.673, 56.313
445.011, 41.701
446.349, 60.083
447.687, 7.544
449.024, 15.804
450.361, 3.861
451.699, 72.550
453.036, 33.299
454.372, 58.089
455.709, 3.108
457.045, 113.719
458.381, 43.622
459.717, 70.573
461.053, 16.414
462.388, 55.612
463.724, 61.307
465.059, 5.489
466.394, 19.820
467.728, 60.931
469.063, 45.099
470.397, 58.289
471.731, 42.465
473.065, 123.208
474.398, 59.043
475.732, 42.649
477.065, 4.672
478.398, 40.995
479.731, 94.646
481.063, 60.295
482.396, 131.005
483.728, 153.567
485.060, 218.202
486.391, 217.825
487.723, 260.439
489.054, 263.041
490.385, 407.635
491.716, 442.219
493.047, 465.792
494.377, 456.355
495.708, 441.906
497.038, 436.474
498.368, 195.030
499.697, 269.576
501.027, 186.143
502.356, 240.700
503.685, 231.244
505.014, 232.793
506.342, 137.329
507.671, 191.854
508.999, 220.367
510.327, 359.868
511.655, 324.356
512.982, 424.833
514.310, 525.297
515.637, 592.748
516.964, 791.186
518.291, 819.611
519.617, 1017.024
520.944, 1115.425
522.270, 918.814
523.596, 944.190
524.921, 860.554
526.247, 667.904
527.572, 614.240
528.897, 414.563
530.222, 551.872
531.547, 403.167
532.871, 369.450
534.196, 335.720
535.520, 277.975
536.844, 414.219
538.167, 382.451
539.491, 505.669
540.814, 529.884
542.137, 676.085
543.460, 896.272
544.783, 1094.450
546.105, 1363.609
547.427, 1654.755
548.749, 1930.933
550.071, 2317.356
551.393, 2649.463
552.714, 2645.555
554.035, 2290.869
555.356, 1870.367
556.677, 1530.417
557.998, 1215.424
559.318, 959.681
560.638, 647.689
561.958, 500.933
563.278, 272.461
564.597, 347.025
565.917, 309.976
567.236, 192.912
568.555, 385.833
569.874, 146.740
571.192, 152.986
572.511, 270.069
573.829, 90.931
575.147, 116.785
576.464, 275.614
577.782, 92.428
579.099, 173.459
580.416, 137.532
581.733, 157.448
583.050, 149.577
584.366, 81.309
585.683, 202.070
586.999, 33.961
588.315, 52.244
589.630, 192.037
590.946, 148.833
592.261, 298.450
593.576, 147.332
594.891, 78.917
596.206, 111.805
597.520, 186.590
598.834, 168.122
600.148, 210.784
601.462, 230.312
602.776, 207.698
604.089, 175.094
605.402, 207.453
606.715, 194.903
608.028, 199.345
609.341, 226.460
610.653, 209.989
611.965, 233.729
613.277, 255.019
614.589, 295.922
615.901, 255.753
617.212, 356.659
618.523, 349.865
619.834, 356.274
621.145, 411.340
622.456, 465.480
623.766, 350.458
625.076, 518.021
626.386, 463.979
627.696, 616.062
629.006, 527.989
630.315, 753.351
631.624, 681.198
632.933, 759.180
634.242, 938.191
635.551, 907.161
636.859, 1110.919
638.167, 1057.643
639.475, 1548.703
640.783, 1493.911
642.090, 1852.248
643.398, 2126.271
644.705, 2556.582
646.012, 3068.576
647.318, 3704.288
648.625, 4679.599
649.931, 5869.719
651.237, 7322.015
652.543, 8953.937
653.849, 10891.343
655.155, 12968.512
656.460, 14421.578
657.765, 14587.654
659.070, 14680.375
660.375, 13285.358
661.679, 11686.707
662.984, 9276.507
664.288, 7158.505
665.592, 5742.542
666.895, 4602.477
668.199, 3619.342
669.502, 3005.098
670.805, 2316.811
672.108, 2134.507
673.411, 1674.220
674.713, 1458.960
676.016, 1363.866
677.318, 1061.751
678.620, 999.635
679.921, 786.266
681.223, 733.976
682.524, 697.553
683.825, 504.115
685.126, 598.664
686.427, 556.198
687.727, 496.719
689.028, 401.225
690.328, 324.716
691.628, 223.897
692.927, 309.995
694.227, 350.699
695.526, 348.457
696.825, 174.668
698.124, 222.365
699.423, 181.281
700.721, 136.549
702.020, 215.380
703.318, 148.859
704.616, 126.198
705.913, 63.524
707.211, 145.833
708.508, 182.129
709.805, 78.412
711.102, 35.680
712.399, 198.931
713.695, 94.168
714.992, 123.246
716.288, 475.603
717.584, 72.800
718.879, 24.982
720.175, 31.852
721.470, 223.269
722.765, 146.377
724.060, 134.473
725.355, 180.555
726.649, 44.628
727.944, 79.684
729.238, 202.727
730.532, 72.471
731.825, 155.354
733.119, 142.309
734.412, 76.995
735.705, 55.883
736.998, 88.663
738.291, 33.516
739.584, 149.317
740.876, 94.822
742.168, 76.637
743.460, 21.692
744.752, 86.359
746.043, 81.114
747.334, 205.806
748.626, 51.536
749.916, 135.196
751.207, 40.550
752.498, 60.035
753.788, 203.718
755.078, 80.390
756.368, 108.051
757.658, 152.700
758.947, 91.342
760.237, 154.973
761.526, 134.594
762.815, 137.214
764.104, 47.829
765.392, 45.440
766.680, 97.067
767.969, 133.301
769.257, 149.267
770.544, 8.170
771.832, 112.410
773.119, 101.001
774.406, 4.392
775.693, 110.201
776.980, 133.192
778.267, 69.328
779.553, 23.845
780.839, 22.363
782.125, 94.105
783.411, 56.382
784.697, 1.882
785.982, 50.630
787.267, 12.816
788.552, 55.275
789.837, 56.273
791.122, 149.144
792.406, 20.446
793.690, 51.941
794.974, 28.681
796.258, 31.330
797.542, 131.990
798.825, 21.304
800.108, 106.607
801.391, 7.097
802.674, 9.184
803.957, 43.454
805.239, 11.715
806.522, 150.966
807.804, 101.790
809.085, 22.390
810.367, 42.561
811.649, 125.276
812.930, 40.811
814.211, 48.890
815.492, 57.039
816.772, 100.993
818.053, 33.019
819.333, 19.037
820.613, 39.048
821.893, 51.050
823.173, 73.045
824.452, 90.033
825.732, 118.017
827.011, 69.993
828.290, 58.964
829.568, 14.930
830.847, 15.889
832.125, 11.722
833.403, 67.787
834.681, 44.728
835.959, 118.663
837.236, 183.628
838.514, 208.591
839.791, 273.549
841.068, 223.546
842.345, 304.539
843.621, 403.529
844.898, 505.519
846.174, 628.506
847.450, 930.503
848.726, 1007.497
850.001, 1126.493
851.277, 1178.489
852.552, 1044.482
853.827, 921.474
855.102, 607.483
856.376, 521.505
857.651, 568.523
858.925, 595.501
860.199, 351.214
861.473, 182.248
862.746, 380.279
864.020, 316.073
865.293, 127.671
866.566, 437.699
867.839, 287.562
869.112, 264.546
870.384, 267.569
871.656, 249.368
872.928, 247.863
874.200, 266.307
875.472, 288.360
876.744, 332.435
878.015, 324.507
879.286, 245.587
880.557, 338.313
881.828, 331.187
883.098, 377.275
884.369, 401.355
885.639, 419.446
886.909, 449.535
888.178, 419.391
889.448, 473.188
890.717, 561.125
891.987, 558.840
893.256, 527.934
894.524, 731.911
895.793, 703.815
897.061, 687.307
898.330, 804.267
899.598, 754.211
900.865, 911.317
902.133, 1035.144
903.401, 961.252
904.668, 1100.043
905.935, 1152.919
907.202, 908.034
908.468, 1095.000
909.735, 1091.085
911.001, 974.197
912.267, 854.216
913.533, 899.327
914.799, 847.438
916.064, 677.550
917.330, 766.398
918.595, 535.240
919.860, 543.299
921.124, 566.232
922.389, 544.360
923.653, 379.202
924.918, 354.339
926.182, 397.454
927.445, 416.603
928.709, 417.742
929.972, 417.444
931.236, 307.857
932.499, 350.670
933.761, 337.480
935.024, 187.135
936.286, 143.093
937.549, 395.764
938.811, 201.215
940.073, 334.005
941.334, 317.975
942.596, 264.146
943.857, 367.304
945.118, 302.773
946.379, 247.747
947.640, 324.751
948.900, 413.613
950.161, 400.774
951.421, 372.632
952.681, 406.795
953.940, 492.223
955.200, 453.039
956.459, 377.003
957.719, 556.836
958.978, 537.000
960.236, 583.676
961.495, 661.575
962.753, 698.562
964.012, 622.845
965.270, 681.454
966.527, 689.322
967.785, 682.574
969.043, 716.781
970.300, 692.781
971.557, 643.729
972.814, 650.763
974.071, 684.271
975.327, 714.037
976.583, 807.251
977.840, 876.467
979.095, 960.655
980.351, 875.957
981.607, 1005.239
982.862, 1017.661
984.117, 1106.851
985.372, 1426.183
986.627, 1192.309
987.882, 1475.771
989.136, 1666.602
990.390, 1596.967
991.644, 2352.511
992.898, 2136.861
994.152, 2355.572
995.405, 2543.683
996.659, 3101.454
997.912, 3514.994
999.165, 4063.702
1000.417, 4968.299
1001.670, 5929.330
1002.922, 7682.037
1004.174, 9377.841
1005.426, 12573.062
1006.678, 16717.184
1007.930, 22866.525
1009.181, 31146.967
1010.432, 39987.219
1011.683, 47419.305
1012.934, 48722.070
1014.185, 43757.945
1015.435, 35251.863
1016.685, 26665.600
1017.935, 20005.234
1019.185, 15549.210
1020.435, 12281.601
1021.684, 10073.965
1022.934, 8890.406
1024.183, 8176.834
1025.432, 7619.359
1026.680, 7579.946
1027.929, 7245.711
1029.177, 7069.078
1030.425, 6681.721
1031.673, 6214.443
1032.921, 5279.535
1034.169, 4647.154
1035.416, 4066.226
1036.663, 3650.615
1037.911, 3083.339
1039.157, 2535.821
1040.404, 2409.666
1041.650, 2177.372
1042.897, 2095.650
1044.143, 1873.336
1045.389, 1647.165
1046.634, 1516.728
1047.880, 1320.223
1049.125, 1238.019
1050.371, 1113.932
1051.615, 1320.634
1052.860, 934.249
1054.105, 1172.211
1055.349, 955.945
1056.593, 849.394
1057.837, 767.813
1059.081, 865.002
1060.325, 786.404
1061.568, 745.664
1062.812, 679.043
1064.055, 673.430
1065.298, 698.099
1066.540, 625.430
1067.783, 554.826
1069.025, 421.090
1070.267, 720.192
1071.509, 405.672
1072.751, 513.813
1073.993, 536.397
1075.234, 432.009
1076.475, 541.904
1077.716, 530.179
1078.957, 418.143
1080.198, 345.523
1081.438, 375.814
1082.679, 328.804
1083.919, 445.129
1085.159, 372.434
1086.398, 418.646
1087.638, 320.314
1088.877, 312.565
1090.116, 329.821
1091.355, 269.488
1092.594, 352.914
1093.833, 251.512
1095.071, 292.061
1096.309, 263.438
1097.547, 373.588
1098.785, 194.688
1100.023, 231.625
1101.260, 298.089
1102.498, 280.999
1103.735, 173.894
1104.972, 311.322
1106.208, 189.347
1107.445, 269.292
1108.681, 171.752
1109.918, 337.865
1111.154, 134.920
1112.389, 223.138
1113.625, 193.023
1114.860, 152.827
1116.096, 136.690
1117.331, 162.983
1118.566, 130.187
1119.800, 199.614
1121.035, 226.343
1122.269, 157.312
1123.503, 313.237
1124.737, 257.492
1125.971, 170.185
1127.205, 210.483
1128.438, 96.581
1129.671, 59.541
1130.904, 29.773
1132.137, 83.849
1133.370, 107.553
1134.602, 137.116
1135.834, 131.147
1137.066, 1.688
1138.298, 111.258
1139.530, 162.842
1140.762, 123.028
1141.993, 38.675
1143.224, 6.353
1144.455, 28.565
1145.686, 47.484
1146.917, 52.308
1148.147, 14.160
1149.377, 0.782
1150.607, 55.056
1151.837, 33.245
1153.067, 86.443
1154.296, 36.615
1155.526, 145.376
1156.755, 8.863
1157.984, 210.550
1159.213, 65.396
1160.441, 50.074
1161.670, 28.863
1162.898, 17.241
1164.126, 61.151
1165.354, 83.646
1166.581, 12.625
1167.809, 142.058
1169.036, 83.096
1170.263, 129.485
1171.490, 135.036
1172.717, 36.698
1173.943, 68.035
1175.170, 62.101
1176.396, 16.310
1177.622, 90.091
1178.848, 70.425
1180.073, 25.669
1181.299, 100.504
1182.524, 17.832
1183.749, 159.970
1184.974, 79.276
1186.199, 151.303
1187.423, 73.040
1188.648, 2.920
1189.872, 224.622
1191.096, 70.813
1192.320, 116.560
1193.543, 138.734
1194.767, 156.885
1195.990, 83.754
1197.213, 54.602
1198.436, 103.393
1199.659, 122.988
1200.881, 47.621
1202.104, 91.053
1203.326, 158.381
1204.548, 162.800
1205.770, 219.911
1206.991, 163.295
1208.213, 195.494
1209.434, 164.661
1210.655, 161.154
1211.876, 90.976
1213.096, 170.041
1214.317, 152.536
1215.537, 182.538
1216.757, 31.473
1217.977, 135.597
1219.197, 0.517
1220.417, 107.356
1221.636, 98.495
1222.855, 48.264
1224.074, 175.029
1225.293, 3.763
1226.512, 153.414
1227.731, 255.273
1228.949, 187.245
1230.167, 159.795
1231.385, 168.493
1232.603, 187.977
1233.820, 76.426
1235.038, 22.858
1236.255, 173.223
1237.472, 73.974
1238.689, 131.336
1239.906, 86.589
1241.122, 96.809
1242.338, 134.995
1243.555, 188.150
1244.771, 199.278
1245.986, 239.764
1247.202, 105.430
1248.417, 234.815
1249.633, 241.784
1250.848, 104.869
1252.063, 197.768
1253.277, 213.633
1254.492, 2.472
1255.706, 172.317
1256.920, 183.069
1258.134, 139.785
1259.348, 40.533
1260.562, 254.088
1261.775, 220.677
1262.988, 21.244
1264.201, 134.916
1265.414, 82.361
1266.627, 282.864
1267.839, 178.218
1269.052, 184.535
1270.264, 100.877
1271.476, 231.119
1272.688, 85.708
1273.899, 125.242
1275.111, 153.199
1276.322, 86.961
1277.533, 114.771
1278.744, 198.546
1279.955, 45.724
1281.165, 180.616
1282.376, 128.232
1283.586, 184.443
1284.796, 100.082
1286.006, 23.553
1287.215, 119.970
1288.425, 57.082
1289.634, 6.753
1290.843, 52.726
1292.052, 26.107
1293.261, 103.854
1294.469, 130.972
1295.678, 45.541
1296.886, 161.399
1298.094, 125.129
1299.302, 30.399
1300.509, 163.735
1301.717, 212.815
1302.924, 59.759
1304.131, 24.146
1305.338, 38.080
1306.545, 162.580
1307.752, 41.956
1308.958, 118.230
1310.164, 272.666
1311.370, 87.155
1312.576, 210.269
1313.782, 103.931
1314.987, 142.585
1316.193, 7.118
1317.398, 238.632
1318.603, 30.974
1319.807, 214.321
1321.012, 80.400
1322.216, 112.839
1323.421, 120.966
1324.625, 41.027
1325.829, 136.573
1327.032, 91.608
1328.236, 128.178
1329.439, 80.387
1330.642, 62.778
1331.845, 58.719
1333.048, 157.946
1334.251, 236.711
1335.453, 20.129
1336.656, 162.420
1337.858, 55.131
1339.060, 53.903
1340.261, 108.722
1341.463, 105.205
1342.664, 109.869
1343.866, 148.050
1345.067, 130.613
1346.267, 169.798
1347.468, 246.177
1348.669, 155.812
1349.869, 271.439
1351.069, 197.270
1352.269, 224.925
1353.469, 314.619
1354.668, 165.163
1355.868, 227.673
1357.067, 312.866
1358.266, 72.596
1359.465, 294.009
1360.664, 237.474
1361.862, 148.130
1363.061, 175.423
1364.259, 215.029
1365.457, 101.179
1366.655, 335.277
1367.852, 172.264
1369.050, 171.786
1370.247, 213.477
1371.444, 120.803
1372.641, 86.100
1373.838, 185.188
1375.035, 134.111
1376.231, 259.847
1377.427, 266.692
1378.623, 171.062
1379.819, 318.545
1381.015, 73.820
1382.211, 155.508
1383.406, 186.070
1384.601, 202.621
1385.796, 225.768
1386.991, 229.697
1388.185, 202.031
1389.380, 193.617
1390.574, 180.000
1391.768, 83.670
1392.962, 277.902
1394.156, 130.871
1395.350, 223.730
1396.543, 248.906
1397.736, 149.230
1398.929, 208.344
1400.122, 225.789
1401.315, 300.299
1402.507, 234.117
1403.700, 302.154
1404.892, 354.986
1406.084, 150.549
1407.276, 114.621
1408.467, 287.959
1409.659, 125.223
1410.850, 159.080
1412.041, 234.629
1413.232, 135.498
1414.423, 238.971
1415.614, 50.840
1416.804, 53.807
1417.994, 155.570
1419.184, 348.119
1420.374, 93.402
1421.564, 279.900
1422.753, 54.324
1423.943, 244.361
1425.132, 231.500
1426.321, 179.672
1427.510, 261.689
1428.698, 194.633
1429.887, 256.273
1431.075, 242.088
1432.263, 132.057
1433.451, 140.695
1434.639, 224.582
1435.827, 346.721
1437.014, 99.109
1438.201, 404.666
1439.388, 317.188
1440.575, 124.545
1441.762, 325.209
1442.949, 273.584
1444.135, 255.631
1445.321, 212.383
1446.507, 336.637
1447.693, 174.865
1448.879, 272.951
1450.064, 226.824
1451.250, 347.000
1452.435, 196.119
1453.620, 464.283
1454.805, 276.396
1455.989, 216.447
1457.174, 530.418
1458.358, 224.586
1459.542, 359.238
1460.726, 386.174
1461.910, 386.916
1463.093, 433.762
1464.277, 250.578
1465.460, 302.328
1466.643, 406.752
1467.826, 171.418
1469.009, 481.182
1470.191, 231.084
1471.373, 243.010
1472.556, 272.322
1473.738, 415.246
1474.919, 171.260
1476.101, 425.326
1477.283, 244.748
1478.464, 160.279
1479.645, 145.859
1480.826, 297.203
1482.007, 189.789
1483.187, 288.910
1484.368, 200.014
1485.548, 352.672
1486.728, 226.363
1487.908, 157.107
1489.088, 207.902
1490.268, 121.201
1491.447, 296.670
1492.626, 152.678
1493.805, 91.768
1494.984, 280.951
1496.163, 324.258
1497.341, 229.709
1498.520, 341.371
1499.698, 63.244
1500.876, 222.275
1502.054, 56.559
1503.232, 157.777
1504.409, 137.291
1505.586, 153.012
1506.763, 372.963
1507.940, 187.182
1509.117, 90.008
1510.294, 110.805
1511.470, 158.969
1512.647, 139.725
1513.823, 229.893
1514.999, 211.723
1516.174, 126.162
1517.350, 0.102
1518.526, 167.488
1519.701, 50.924
1520.876, 121.461
1522.051, 49.016
1523.226, 0.000
##END=



