##NAMES=Hemimorphite
##RRUFFID=R040117
##IDEAL CHEMISTRY=Zn^2+^_4_Si_2_O_7_(OH)_2_&#183;H_2_O
##LOCALITY=Durango, Mexico
##OWNER=RRUFF
##SOURCE=University of Arizona Mineral Museum
##DESCRIPTION=Colorless thin tabular crystals in a sheaflike aggregate
##STATUS=The identification of this mineral has been confirmed by X-ray diffraction and chemical analysis
##URL=rruff.info/R040117
##MEASURED CHEMISTRY=Zn_4.05_Si_1.97_O_7_((OH)_0.99_F_0.01_)_2_Â·H_2_O
##PIN_ID=L00228
##ORIENTATION=Laser parallel to c* (0 0 1). Fiducial mark perpendicular to laser is parallel to -a [-1 0 0]
47.964, 0.000
49.365, 0.175
50.765, 55.042
52.166, 65.341
53.566, 50.634
54.966, 97.830
56.365, 86.308
57.765, 125.173
59.164, 159.223
60.563, 165.788
61.962, 133.915
63.360, 96.363
64.758, 47.073
66.157, 29.979
67.554, 11.495
68.952, 14.885
70.349, 50.776
71.747, 45.721
73.144, 6.783
74.540, 237.979
75.937, 549.518
77.333, 832.794
78.729, 1120.075
80.125, 1421.384
81.521, 1717.622
82.916, 1924.444
84.311, 2227.827
85.706, 2291.748
87.101, 2646.187
88.496, 2711.126
89.890, 3120.549
91.284, 3372.428
92.678, 3611.732
94.071, 4128.431
95.465, 4437.492
96.858, 5137.893
98.251, 5639.612
99.644, 6705.637
101.036, 7621.956
102.428, 9138.601
103.820, 10845.578
105.212, 12712.861
106.604, 15470.394
107.995, 17338.174
109.387, 20096.191
110.777, 20674.445
112.168, 20402.930
113.559, 18741.637
114.949, 16020.567
116.339, 13569.726
117.729, 11219.107
119.119, 9758.720
120.508, 8558.559
121.897, 7948.628
123.286, 8078.927
124.675, 8039.451
126.063, 8860.191
127.452, 9571.149
128.840, 11462.321
130.228, 13223.698
131.615, 15515.259
133.003, 17716.906
134.390, 18918.629
135.777, 19860.422
137.164, 18082.262
138.550, 16464.150
139.937, 13806.088
141.323, 11418.056
142.709, 9640.020
144.094, 7961.999
145.480, 7164.061
146.865, 6256.216
148.250, 5998.467
149.635, 5610.815
151.019, 5483.264
152.403, 5665.814
153.788, 5548.467
155.171, 6081.713
156.555, 6206.093
157.939, 7109.221
159.322, 7533.960
160.705, 8407.745
162.088, 9830.971
163.470, 10774.307
164.853, 12677.744
166.235, 14031.289
167.617, 16104.938
168.998, 17188.693
170.380, 17722.549
171.761, 17616.506
173.142, 15930.572
174.523, 14494.736
175.904, 11619.003
177.284, 9713.371
178.664, 7787.837
180.044, 6022.432
181.424, 4967.185
182.803, 3719.116
184.183, 3083.217
185.562, 2373.468
186.940, 1974.861
188.319, 1555.435
189.698, 1189.209
191.076, 1067.158
192.454, 818.266
193.831, 743.514
195.209, 523.886
196.586, 481.343
197.963, 383.885
199.340, 320.523
200.717, 322.281
202.093, 348.166
203.470, 460.130
204.846, 644.165
206.221, 847.296
207.597, 1220.512
208.972, 1523.823
210.347, 2048.223
211.722, 2351.715
213.097, 3025.308
214.472, 3138.767
215.846, 3189.497
217.220, 3306.366
218.594, 2953.118
219.967, 2868.573
221.341, 2568.062
222.714, 2431.401
224.087, 2086.632
225.460, 1936.562
226.832, 1787.465
228.204, 1592.512
229.577, 1444.642
230.948, 1215.500
232.320, 1172.499
233.692, 1115.092
235.063, 895.191
236.434, 860.723
237.805, 728.230
239.175, 633.369
240.545, 564.824
241.916, 575.392
243.286, 543.072
244.655, 477.859
246.025, 449.751
247.394, 333.745
248.763, 425.837
250.132, 291.024
251.501, 325.305
252.869, 261.677
254.237, 162.136
255.605, 214.682
256.973, 94.310
258.340, 74.020
259.708, 13.811
261.075, 38.322
262.442, 48.380
263.808, 57.366
265.175, 4.719
266.541, 15.126
267.907, 5.099
269.273, 92.608
270.639, 48.254
272.004, 73.163
273.369, 13.645
274.734, 202.190
276.099, 167.796
277.463, 196.464
278.828, 231.191
280.192, 187.978
281.556, 323.823
282.919, 256.728
284.283, 319.693
285.646, 448.719
287.009, 438.806
288.372, 597.948
289.734, 570.144
291.097, 815.395
292.459, 756.704
293.821, 946.062
295.183, 1028.481
296.544, 1202.965
297.905, 1421.498
299.266, 1549.080
300.627, 1700.724
301.988, 1869.415
303.348, 2060.158
304.709, 2323.948
306.069, 2363.789
307.428, 2665.675
308.788, 2528.155
310.147, 2635.316
311.507, 2557.599
312.865, 2382.203
314.224, 2330.395
315.583, 2070.965
316.941, 2013.222
318.299, 1861.896
319.657, 1778.195
321.015, 1748.664
322.372, 1636.172
323.729, 1830.617
325.086, 1854.229
326.443, 2147.565
327.800, 2597.870
329.156, 3050.369
330.512, 3590.008
331.868, 4206.293
333.224, 5113.691
334.579, 5348.343
335.935, 5440.170
337.290, 5242.858
338.645, 4694.982
339.999, 4284.221
341.354, 3660.230
342.708, 3252.175
344.062, 2913.167
345.416, 2441.116
346.769, 2329.380
348.123, 2061.466
349.476, 2010.627
350.829, 1808.986
352.182, 1881.107
353.534, 1735.795
354.887, 1640.698
356.239, 1744.902
357.591, 1557.280
358.942, 1712.406
360.294, 1591.970
361.645, 1760.359
362.996, 1772.182
364.347, 1722.228
365.698, 1881.389
367.048, 1823.415
368.398, 2009.053
369.748, 2074.908
371.098, 2078.618
372.448, 2311.994
373.797, 2248.564
375.146, 2553.912
376.495, 2555.539
377.844, 2809.334
379.192, 2900.934
380.540, 3001.048
381.889, 3358.229
383.236, 3417.018
384.584, 3722.347
385.932, 3983.828
387.279, 4208.938
388.626, 4505.542
389.973, 4636.025
391.319, 5218.436
392.666, 5399.095
394.012, 5539.622
395.358, 6020.301
396.704, 6160.831
398.049, 6551.366
399.394, 6581.964
400.740, 6802.559
402.084, 6953.169
403.429, 6773.790
404.774, 6934.423
406.118, 6335.069
407.462, 6065.725
408.806, 5796.391
410.150, 5397.065
411.493, 5237.750
412.836, 4394.443
414.179, 4289.144
415.522, 3721.849
416.865, 3294.562
418.207, 3109.281
419.549, 2581.004
420.891, 2518.733
422.233, 2070.466
423.575, 1894.885
424.916, 1687.179
426.257, 1468.363
427.598, 1400.093
428.939, 1134.727
430.279, 1121.461
431.619, 994.077
432.959, 831.377
434.299, 860.123
435.639, 729.867
436.978, 655.610
438.318, 635.352
439.657, 606.154
440.996, 616.898
442.334, 584.356
443.673, 606.474
445.011, 528.336
446.349, 566.683
447.687, 512.024
449.024, 443.550
450.361, 655.027
451.699, 561.755
453.036, 647.876
454.372, 563.891
455.709, 585.955
457.045, 557.025
458.381, 397.534
459.717, 369.225
461.053, 266.859
462.388, 182.468
463.724, 148.081
465.059, 102.662
466.394, 78.616
467.728, 61.486
469.063, 12.813
470.397, 64.451
471.731, 64.282
473.065, 10.115
474.398, 88.859
475.732, 60.914
477.065, 53.793
478.398, 74.380
479.731, 23.345
481.063, 98.955
482.396, 5.651
483.728, 46.517
485.060, 63.283
486.391, 88.658
487.723, 86.327
489.054, 71.738
490.385, 72.226
491.716, 33.022
493.047, 49.067
494.377, 67.431
495.708, 20.862
497.038, 33.006
498.368, 22.493
499.697, 6.836
501.027, 18.580
502.356, 36.974
503.685, 34.478
505.014, 12.310
506.342, 0.010
507.671, 37.292
508.999, 27.448
510.327, 29.242
511.655, 40.079
512.982, 18.021
514.310, 15.100
515.637, 52.145
516.964, 32.162
518.291, 83.163
519.617, 23.849
520.944, 39.083
522.270, 27.005
523.596, 12.107
524.921, 102.726
526.247, 41.458
527.572, 40.287
528.897, 34.999
530.222, 17.324
531.547, 75.299
532.871, 13.108
534.196, 8.574
535.520, 12.095
536.844, 13.675
538.167, 6.683
539.491, 16.990
540.814, 41.251
542.137, 58.473
543.460, 40.662
544.783, 110.811
546.105, 51.928
547.427, 96.008
548.749, 132.056
550.071, 22.071
551.393, 104.038
552.714, 142.972
554.035, 113.874
555.356, 157.742
556.677, 165.218
557.998, 158.383
559.318, 197.155
560.638, 234.806
561.958, 250.602
563.278, 319.276
564.597, 400.917
565.917, 443.524
567.236, 575.098
568.555, 562.639
569.874, 710.146
571.192, 861.619
572.511, 849.117
573.829, 1024.521
575.147, 1118.893
576.464, 1342.229
577.782, 1456.530
579.099, 1583.797
580.416, 1660.029
581.733, 1550.227
583.050, 1538.391
584.366, 1291.522
585.683, 1178.621
586.999, 1044.684
588.315, 742.713
589.630, 717.706
590.946, 483.669
592.261, 398.598
593.576, 345.492
594.891, 247.350
596.206, 269.170
597.520, 198.956
598.834, 213.704
600.148, 149.416
601.462, 98.088
602.776, 84.717
604.089, 67.299
605.402, 67.991
606.715, 102.470
608.028, 105.906
609.341, 93.342
610.653, 46.688
611.965, 146.975
613.277, 25.223
614.589, 6.404
615.901, 105.510
617.212, 96.571
618.523, 14.585
619.834, 100.528
621.145, 62.425
622.456, 143.267
623.766, 65.068
625.076, 163.815
626.386, 95.522
627.696, 111.635
629.006, 118.067
630.315, 17.383
631.624, 36.363
632.933, 118.748
634.242, 100.754
635.551, 187.074
636.859, 62.978
638.167, 116.250
639.475, 30.341
640.783, 94.474
642.090, 167.568
643.398, 49.492
644.705, 133.580
646.012, 122.883
647.318, 138.906
648.625, 91.908
649.931, 123.228
651.237, 192.439
652.543, 180.297
653.849, 144.975
655.155, 128.656
656.460, 128.027
657.765, 200.278
659.070, 254.583
660.375, 265.115
661.679, 302.594
662.984, 328.649
664.288, 394.477
665.592, 394.470
666.895, 463.744
668.199, 552.641
669.502, 561.932
670.805, 714.115
672.108, 814.597
673.411, 858.766
674.713, 1191.809
676.016, 1316.224
677.318, 1781.207
678.620, 2048.603
679.921, 2411.071
681.223, 2697.299
682.524, 2930.531
683.825, 3209.524
685.126, 3316.103
686.427, 3311.444
687.727, 3378.085
689.028, 2830.864
690.328, 2740.427
691.628, 2161.384
692.927, 2047.848
694.227, 1814.133
695.526, 1500.606
696.825, 1376.559
698.124, 1209.437
699.423, 1030.701
700.721, 1046.420
702.020, 879.981
703.318, 905.908
704.616, 683.337
705.913, 737.883
707.211, 649.498
708.508, 466.859
709.805, 618.349
711.102, 475.684
712.399, 355.168
713.695, 527.647
714.992, 328.070
716.288, 460.500
717.584, 403.905
718.879, 352.287
720.175, 342.645
721.470, 267.979
722.765, 372.290
724.060, 265.578
725.355, 287.842
726.649, 294.083
727.944, 113.303
729.238, 244.498
730.532, 207.672
731.825, 283.823
733.119, 213.951
734.412, 163.058
735.705, 207.143
736.998, 207.208
738.291, 119.250
739.584, 167.271
740.876, 224.271
742.168, 194.250
743.460, 236.208
744.752, 175.147
746.043, 236.065
747.334, 114.962
748.626, 147.841
749.916, 195.699
751.207, 150.537
752.498, 163.356
753.788, 226.091
755.078, 194.864
756.368, 142.344
757.658, 180.255
758.947, 161.841
760.237, 59.922
761.526, 123.983
762.815, 164.836
764.104, 82.717
765.392, 142.320
766.680, 89.508
767.969, 194.777
769.257, 120.973
770.544, 153.137
771.832, 259.838
773.119, 166.332
774.406, 145.858
775.693, 146.384
776.980, 172.880
778.267, 166.954
779.553, 147.487
780.839, 199.648
782.125, 232.953
783.411, 179.566
784.697, 188.331
785.982, 137.056
787.267, 81.662
788.552, 130.529
789.837, 65.178
791.122, 100.491
792.406, 72.456
793.690, 185.419
794.974, 16.421
796.258, 49.167
797.542, 45.469
798.825, 30.667
800.108, 12.533
801.391, 43.734
802.674, 2.044
803.957, 7.127
805.239, 4.420
806.522, 66.986
807.804, 71.565
809.085, 80.985
810.367, 34.352
811.649, 39.700
812.930, 15.749
814.211, 43.792
815.492, 73.343
816.772, 72.111
818.053, 25.401
819.333, 13.085
820.613, 67.417
821.893, 52.071
823.173, 74.424
824.452, 47.066
825.732, 101.419
827.011, 16.905
828.290, 57.613
829.568, 60.161
830.847, 5.742
832.125, 81.313
833.403, 49.073
834.681, 25.460
835.959, 41.143
837.236, 17.234
838.514, 39.628
839.791, 35.024
841.068, 28.580
842.345, 85.818
843.621, 72.215
844.898, 7.375
846.174, 120.046
847.450, 89.480
848.726, 120.930
850.001, 126.389
851.277, 45.856
852.552, 130.327
853.827, 135.799
855.102, 127.276
856.376, 267.753
857.651, 181.233
858.925, 224.715
860.199, 239.198
861.473, 191.690
862.746, 230.185
864.020, 248.680
865.293, 169.176
866.566, 356.674
867.839, 260.173
869.112, 295.674
870.384, 276.177
871.656, 223.681
872.928, 276.188
874.200, 271.236
875.472, 285.208
876.744, 342.722
878.015, 378.238
879.286, 443.757
880.557, 432.280
881.828, 454.748
883.098, 427.276
884.369, 491.810
885.639, 549.347
886.909, 642.888
888.178, 580.433
889.448, 665.982
890.717, 646.536
891.987, 718.094
893.256, 781.658
894.524, 723.226
895.793, 906.800
897.061, 796.380
898.330, 954.964
899.598, 1088.554
900.865, 1040.149
902.133, 1243.751
903.401, 1301.359
904.668, 1360.972
905.935, 1508.592
907.202, 1544.219
908.468, 1900.853
909.735, 1834.493
911.001, 2095.145
912.267, 2433.809
913.533, 2448.325
914.799, 3059.018
916.064, 3331.720
917.330, 3894.390
918.595, 4807.115
919.860, 5509.860
921.124, 7082.614
922.389, 8785.388
923.653, 10688.191
924.918, 14871.005
926.182, 17803.832
927.445, 24336.689
928.709, 30459.549
929.972, 34072.438
931.236, 34344.621
932.499, 34658.234
933.761, 29641.158
935.024, 24524.096
936.286, 18367.037
937.549, 14550.092
938.811, 11363.076
940.073, 8656.082
941.334, 7289.096
942.596, 5682.125
943.857, 4907.796
945.118, 4310.849
946.379, 3263.913
947.640, 3136.905
948.900, 2620.092
950.161, 2247.238
951.421, 2208.462
952.681, 1783.092
953.940, 1705.791
955.200, 1494.818
956.459, 1291.454
957.719, 1392.528
958.978, 1138.707
960.236, 1137.895
961.495, 1129.223
962.753, 1046.429
964.012, 996.645
965.270, 965.583
966.527, 1057.529
967.785, 880.771
969.043, 911.843
970.300, 1014.104
971.557, 857.739
972.814, 1002.018
974.071, 962.473
975.327, 909.770
976.583, 1086.604
977.840, 893.919
979.095, 977.258
980.351, 1001.543
981.607, 850.701
982.862, 950.854
984.117, 812.760
985.372, 699.158
986.627, 874.566
987.882, 669.083
989.136, 777.541
990.390, 717.011
991.644, 634.507
992.898, 639.840
994.152, 637.370
995.405, 624.912
996.659, 724.273
997.912, 620.836
999.165, 802.427
1000.417, 657.029
1001.670, 690.643
1002.922, 728.280
1004.174, 603.926
1005.426, 571.596
1006.678, 558.278
1007.930, 423.973
1009.181, 528.679
1010.432, 468.424
1011.683, 443.152
1012.934, 419.890
1014.185, 366.641
1015.435, 361.402
1016.685, 388.175
1017.935, 268.970
1019.185, 251.775
1020.435, 263.614
1021.684, 193.470
1022.934, 248.348
1024.183, 230.234
1025.432, 179.131
1026.680, 329.040
1027.929, 196.957
1029.177, 248.900
1030.425, 272.854
1031.673, 202.817
1032.921, 234.832
1034.169, 116.857
1035.416, 186.894
1036.663, 96.939
1037.911, 108.993
1039.157, 234.069
1040.404, 123.162
1041.650, 187.265
1042.897, 296.387
1044.143, 67.518
1045.389, 159.657
1046.634, 124.809
1047.880, 134.968
1049.125, 174.142
1050.371, 109.323
1051.615, 212.511
1052.860, 161.716
1054.105, 46.929
1055.349, 183.149
1056.593, 98.377
1057.837, 77.615
1059.081, 239.859
1060.325, 4.116
1061.568, 128.379
1062.812, 108.651
1064.055, 109.931
1065.298, 91.217
1066.540, 52.511
1067.783, 84.812
1069.025, 143.118
1070.267, 72.432
1071.509, 153.751
1072.751, 96.075
1073.993, 49.502
1075.234, 84.839
1076.475, 85.182
1077.716, 40.532
1078.957, 148.887
1080.198, 39.249
1081.438, 114.616
1082.679, 14.989
1083.919, 87.438
1085.159, 121.820
1086.398, 6.792
1087.638, 74.600
1088.877, 38.995
1090.116, 60.394
1091.355, 145.796
1092.594, 74.798
1093.833, 74.664
1095.071, 47.055
1096.309, 99.448
1097.547, 6.154
1098.785, 2.755
1100.023, 98.647
1101.260, 51.938
1102.498, 71.533
1103.735, 151.851
1104.972, 24.762
1106.208, 6.703
1107.445, 125.249
1108.681, 63.684
1109.918, 51.195
1111.154, 72.612
1112.389, 72.032
1113.625, 23.547
1114.860, 90.042
1116.096, 119.480
1117.331, 122.163
1118.566, 5.590
1119.800, 155.108
1121.035, 179.532
1122.269, 327.955
1123.503, 343.745
1124.737, 233.182
1125.971, 35.738
1127.205, 152.759
1128.438, 104.345
1129.671, 204.809
1130.904, 7.973
1132.137, 84.565
1133.370, 205.682
1134.602, 93.532
1135.834, 128.519
1137.066, 231.710
1138.298, 87.516
1139.530, 162.065
1140.762, 120.769
1141.993, 75.307
1143.224, 70.469
1144.455, 156.115
1145.686, 66.917
1146.917, 172.577
1148.147, 98.688
1149.377, 21.500
1150.607, 156.259
1151.837, 87.728
1153.067, 173.562
1154.296, 78.817
1155.526, 119.086
1156.755, 59.085
1157.984, 15.978
1159.213, 35.760
1160.441, 77.635
1161.670, 59.696
1162.898, 64.884
1164.126, 79.553
1165.354, 45.257
1166.581, 66.801
1167.809, 59.248
1169.036, 87.892
1170.263, 102.764
1171.490, 130.305
1172.717, 152.083
1173.943, 108.098
1175.170, 133.614
1176.396, 143.972
1177.622, 145.735
1178.848, 184.335
1180.073, 198.921
1181.299, 212.684
1182.524, 206.628
1183.749, 176.125
1184.974, 154.591
1186.199, 257.021
1187.423, 196.215
1188.648, 347.051
1189.872, 265.906
1191.096, 219.286
1192.320, 229.704
1193.543, 159.946
1194.767, 202.326
1195.990, 293.919
1197.213, 218.089
1198.436, 285.247
1199.659, 195.608
1200.881, 281.744
1202.104, 297.994
1203.326, 190.376
1204.548, 266.025
1205.770, 428.110
1206.991, 510.397
1208.213, 274.457
1209.434, 454.028
1210.655, 213.179
1211.876, 300.198
1213.096, 274.633
1214.317, 292.627
1215.537, 263.607
1216.757, 164.757
1217.977, 260.710
1219.197, 320.649
1220.417, 92.930
1221.636, 342.841
1222.855, 239.738
1224.074, 233.223
1225.293, 314.095
1226.512, 200.500
1227.731, 272.531
1228.949, 355.363
1230.167, 107.463
1231.385, 288.264
1232.603, 164.353
1233.820, 260.033
1235.038, 248.803
1236.255, 170.565
1237.472, 174.318
1238.689, 240.064
1239.906, 112.168
1241.122, 201.897
1242.338, 171.619
1243.555, 186.339
1244.771, 147.950
1245.986, 151.954
1247.202, 169.547
1248.417, 145.640
1249.633, 178.748
1250.848, 177.404
1252.063, 116.485
1253.277, 99.179
1254.492, 127.250
1255.706, 110.377
1256.920, 215.951
1258.134, 171.532
1259.348, 247.120
1260.562, 122.190
1261.775, 107.926
1262.988, 71.729
1264.201, 138.125
1265.414, 117.660
1266.627, 142.290
1267.839, 186.601
1269.052, 59.895
1270.264, 207.294
1271.476, 120.549
1272.688, 28.229
1273.899, 115.406
1275.111, 229.520
1276.322, 2.610
1277.533, 122.864
1278.744, 36.888
1279.955, 66.875
1281.165, 57.210
1282.376, 3.652
1283.586, 80.464
1284.796, 33.762
1286.006, 104.971
1287.215, 17.328
1288.425, 37.343
1289.634, 118.977
1290.843, 81.588
1292.052, 34.824
1293.261, 41.719
1294.469, 78.234
1295.678, 20.273
1296.886, 168.185
1298.094, 21.379
1299.302, 33.113
1300.509, 32.489
1301.717, 50.838
1302.924, 63.265
1304.131, 78.422
1305.338, 64.690
1306.545, 45.936
1307.752, 36.157
1308.958, 101.575
1310.164, 19.254
1311.370, 128.879
1312.576, 63.015
1313.782, 7.042
1314.987, 14.935
1316.193, 123.050
1317.398, 71.009
1318.603, 45.938
1319.807, 123.838
1321.012, 30.293
1322.216, 69.530
1323.421, 98.325
1324.625, 129.908
1325.829, 66.784
1327.032, 47.450
1328.236, 114.086
1329.439, 118.697
1330.642, 16.714
1331.845, 2.838
1333.048, 52.360
1334.251, 8.144
1335.453, 126.321
1336.656, 114.764
1337.858, 26.184
1339.060, 118.576
1340.261, 13.945
1341.463, 198.288
1342.664, 286.608
1343.866, 2.096
1345.067, 236.169
1346.267, 131.412
1347.468, 96.635
1348.669, 54.834
1349.869, 177.012
1351.069, 19.170
1352.269, 309.305
1353.469, 57.422
1354.668, 132.520
1355.868, 207.602
1357.067, 68.666
1358.266, 246.712
1359.465, 235.744
1360.664, 115.762
1361.862, 379.764
1363.061, 236.852
1364.259, 76.832
1365.457, 300.707
1366.655, 197.668
1367.852, 49.622
1369.050, 291.265
1370.247, 54.471
1371.444, 113.404
1372.641, 204.338
1373.838, 90.079
1375.035, 257.627
1376.231, 84.134
1377.427, 190.644
1378.623, 224.130
1379.819, 162.591
1381.015, 243.975
1382.211, 250.410
1383.406, 159.822
1384.601, 237.215
1385.796, 219.615
1386.991, 159.738
1388.185, 335.914
1389.380, 149.239
1390.574, 114.449
1391.768, 262.294
1392.962, 175.447
1394.156, 198.699
1395.350, 177.523
1396.543, 144.438
1397.736, 228.414
1398.929, 278.386
1400.122, 239.286
1401.315, 142.611
1402.507, 129.200
1403.700, 114.031
1404.892, 277.795
1406.084, 62.881
1407.276, 164.331
1408.467, 101.733
1409.659, 67.875
1410.850, 337.575
1412.041, 157.976
1413.232, 107.959
1414.423, 257.943
1415.614, 164.545
1416.804, 34.980
1417.994, 131.566
1419.184, 181.085
1420.374, 66.032
1421.564, 135.908
1422.753, 90.856
1423.943, 150.218
1425.132, 95.720
1426.321, 112.335
1427.510, 188.432
1428.698, 196.809
1429.887, 144.529
1431.075, 194.745
1432.263, 151.274
1433.451, 130.703
1434.639, 209.823
1435.827, 127.740
1437.014, 116.560
1438.201, 125.688
1439.388, 175.521
1440.575, 274.982
1441.762, 54.075
1442.949, 203.771
1444.135, 262.268
1445.321, 140.415
1446.507, 199.354
1447.693, 328.188
1448.879, 197.533
1450.064, 346.763
1451.250, 15.872
1452.435, 244.861
1453.620, 403.709
1454.805, 201.861
1455.989, 190.451
1457.174, 378.896
1458.358, 137.107
1459.542, 335.394
1460.726, 223.407
1461.910, 211.415
1463.093, 288.784
1464.277, 215.928
1465.460, 214.240
1466.643, 342.123
1467.826, 189.074
1469.009, 127.495
1470.191, 285.343
1471.373, 243.964
1472.556, 302.809
1473.738, 301.791
1474.919, 160.796
1476.101, 169.847
1477.283, 308.901
1478.464, 67.975
1479.645, 247.012
1480.826, 185.673
1482.007, 124.686
1483.187, 153.712
1484.368, 142.720
1485.548, 100.746
