##NAMES=Hemimorphite
##RRUFFID=R040117
##IDEAL CHEMISTRY=Zn^2+^_4_Si_2_O_7_(OH)_2_&#183;H_2_O
##LOCALITY=Durango, Mexico
##OWNER=RRUFF
##SOURCE=University of Arizona Mineral Museum
##DESCRIPTION=Colorless thin tabular crystals in a sheaflike aggregate
##STATUS=The identification of this mineral has been confirmed by X-ray diffraction and chemical analysis
##URL=rruff.info/R040117
##MEASURED CHEMISTRY=Zn_4.05_Si_1.97_O_7_((OH)_0.99_F_0.01_)_2_Â·H_2_O
##PIN_ID=L00159
##ORIENTATION=Laser parallel to -a* (-1 0 0). Fiducial mark perpendicular to laser is parallel to b [0 1 0]
102.428, 0.000
103.820, 18.043
105.212, 212.234
106.604, 762.369
107.995, 933.539
109.387, 1102.109
110.777, 1244.301
112.168, 1491.037
113.559, 1696.969
114.949, 1869.117
116.339, 2113.902
117.729, 2108.516
119.119, 2440.826
120.508, 2709.375
121.897, 3413.111
123.286, 4203.342
124.675, 5431.100
126.063, 6265.453
127.452, 8212.008
128.840, 9660.318
130.228, 11480.094
131.615, 12770.926
133.003, 13702.467
134.390, 13364.480
135.777, 13376.848
137.164, 11760.250
138.550, 10254.410
139.937, 8878.988
141.323, 7124.328
142.709, 5903.357
144.094, 4942.734
145.480, 4060.033
146.865, 3431.602
148.250, 3168.990
149.635, 2853.697
151.019, 2406.816
152.403, 2578.990
153.788, 2471.115
155.171, 2373.391
156.555, 2845.355
157.939, 2886.156
159.322, 3225.705
160.705, 3554.104
162.088, 4011.432
163.470, 4577.766
164.853, 5153.176
166.235, 5429.859
167.617, 5963.037
168.998, 5837.365
170.380, 5720.086
171.761, 5578.816
173.142, 4338.381
174.523, 3331.059
175.904, 2333.424
177.284, 1533.996
178.664, 951.762
180.044, 304.838
181.424, 201.941
182.803, 116.439
184.183, 159.176
185.562, 154.357
186.940, 30.309
188.319, 41.156
189.698, 24.781
191.076, 69.242
192.454, 43.473
193.831, 152.080
195.209, 242.576
196.586, 117.430
197.963, 483.139
199.340, 149.941
200.717, 188.184
202.093, 352.375
203.470, 357.602
204.846, 508.912
206.221, 442.750
207.597, 744.154
208.972, 699.838
210.347, 834.215
211.722, 949.791
213.097, 993.939
214.472, 868.152
215.846, 752.428
217.220, 926.758
218.594, 601.133
219.967, 635.551
221.341, 580.004
222.714, 414.520
224.087, 529.076
225.460, 283.631
226.832, 298.086
228.204, 152.441
229.577, 306.723
230.948, 430.902
232.320, 154.957
233.692, 198.949
235.063, 152.879
236.434, 16.758
237.805, 210.564
239.175, 4.299
240.545, 58.029
241.916, 151.678
243.286, 35.252
244.655, 108.752
246.025, 162.174
247.394, 15.504
248.763, 98.727
250.132, 171.846
251.501, 154.855
252.869, 117.713
254.237, 40.400
255.605, 27.053
256.973, 51.238
258.340, 112.361
259.708, 160.203
261.075, 268.168
262.442, 446.359
263.808, 504.877
265.175, 603.900
266.541, 693.658
267.907, 592.248
269.273, 538.443
270.639, 152.764
272.004, 94.102
273.369, 121.873
274.734, 350.314
276.099, 609.316
277.463, 708.717
278.828, 1378.416
280.192, 1188.361
281.556, 1498.471
282.919, 1728.738
284.283, 1539.082
285.646, 1359.475
287.009, 1199.889
288.372, 810.293
289.734, 830.650
291.097, 800.928
292.459, 421.115
293.821, 431.213
295.183, 401.203
296.544, 111.104
297.905, 210.863
299.266, 310.496
300.627, 160.008
301.988, 129.377
303.348, 21.412
304.709, 3.309
306.069, 166.441
307.428, 75.051
308.788, 43.324
310.147, 111.264
311.507, 48.904
312.865, 116.119
314.224, 134.467
315.583, 221.410
316.941, 296.545
318.299, 452.984
319.657, 749.246
321.015, 885.467
322.372, 1141.395
323.729, 1647.160
325.086, 2393.391
326.443, 3268.994
327.800, 4074.477
329.156, 4710.299
330.512, 5316.465
331.868, 5141.719
333.224, 4886.521
334.579, 4172.002
335.935, 3467.379
337.290, 2972.652
338.645, 2430.631
339.999, 2003.682
341.354, 1641.457
342.708, 1395.887
344.062, 1201.082
345.416, 1175.262
346.769, 1077.092
348.123, 994.824
349.476, 896.229
350.829, 944.916
352.182, 995.635
353.534, 852.926
354.887, 1030.363
356.239, 920.594
357.591, 980.207
358.942, 1130.768
360.294, 1151.611
361.645, 941.980
362.996, 1212.016
364.347, 1032.955
365.698, 1202.486
367.048, 1114.500
368.398, 1164.178
369.748, 1343.730
371.098, 1124.080
372.448, 1183.447
373.797, 1243.139
375.146, 1319.318
376.495, 1447.707
377.844, 1437.328
379.192, 1656.076
380.540, 1545.945
381.889, 1784.295
383.236, 1813.770
384.584, 1883.842
385.932, 2222.434
387.279, 2380.865
388.626, 2518.973
389.973, 2706.381
391.319, 2833.428
392.666, 2920.703
394.012, 3027.906
395.358, 3434.699
396.704, 3411.588
398.049, 3708.195
399.394, 3720.943
400.740, 3867.619
402.084, 3759.338
403.429, 3913.766
404.774, 3891.498
406.118, 4043.021
407.462, 3909.301
408.806, 3735.262
410.150, 3766.879
411.493, 3492.412
412.836, 3418.457
414.179, 3354.170
415.522, 3329.543
416.865, 3066.271
418.207, 2771.105
419.549, 2607.809
420.891, 2370.809
422.233, 2330.902
423.575, 2123.605
424.916, 2017.496
426.257, 1944.047
427.598, 1845.430
428.939, 1901.910
430.279, 1934.375
431.619, 1900.299
432.959, 2070.746
434.299, 2085.629
435.639, 2529.469
436.978, 2813.260
438.318, 3022.262
439.657, 3677.984
440.996, 4277.438
442.334, 4833.852
443.673, 5649.520
445.011, 6354.488
446.349, 7209.865
447.687, 8445.734
449.024, 8920.873
450.361, 9876.305
451.699, 10550.664
453.036, 10455.514
454.372, 10471.980
455.709, 9576.209
457.045, 7765.670
458.381, 6924.361
459.717, 6046.291
461.053, 4800.363
462.388, 4090.465
463.724, 3328.928
465.059, 2679.672
466.394, 2331.879
467.728, 1841.033
469.063, 1425.844
470.397, 1509.621
471.731, 1305.340
473.065, 1108.836
474.398, 795.025
475.732, 681.174
477.065, 810.346
478.398, 741.109
479.731, 622.748
481.063, 475.715
482.396, 527.904
483.728, 720.211
485.060, 352.244
486.391, 464.816
487.723, 456.701
489.054, 338.539
490.385, 220.297
491.716, 401.965
493.047, 473.555
494.377, 265.066
495.708, 236.498
497.038, 217.844
498.368, 339.107
499.697, 70.293
501.027, 1.383
502.356, 262.369
503.685, 103.277
505.014, 174.100
506.342, 104.840
507.671, 145.508
508.999, 276.125
510.327, 86.676
511.655, 187.168
512.982, 347.615
514.310, 61.982
515.637, 278.307
516.964, 288.537
518.291, 238.820
519.617, 159.037
520.944, 249.188
522.270, 309.279
523.596, 109.307
524.921, 369.268
526.247, 9.176
527.572, 239.002
528.897, 218.768
530.222, 68.541
531.547, 178.256
532.871, 107.910
534.196, 82.498
535.520, 346.973
536.844, 86.387
538.167, 225.738
539.491, 45.031
540.814, 284.258
542.137, 63.428
543.460, 12.535
544.783, 171.570
546.105, 190.547
547.427, 249.467
548.749, 408.332
550.071, 587.148
551.393, 595.916
552.714, 634.637
554.035, 763.307
555.356, 721.930
556.677, 960.506
557.998, 859.039
559.318, 557.543
560.638, 776.455
561.958, 524.891
563.278, 383.475
564.597, 771.832
565.917, 210.201
567.236, 378.480
568.555, 436.721
569.874, 245.010
571.192, 283.184
572.511, 325.342
573.829, 293.424
575.147, 329.275
576.464, 147.457
577.782, 335.453
579.099, 273.830
580.416, 221.832
581.733, 340.441
583.050, 408.949
584.366, 37.137
585.683, 326.012
586.999, 134.445
588.315, 220.578
589.630, 169.523
590.946, 58.691
592.261, 2.436
593.576, 276.391
594.891, 174.822
596.206, 203.818
597.520, 178.934
598.834, 52.523
600.148, 15.938
601.462, 155.197
602.776, 263.223
604.089, 141.570
605.402, 29.748
606.715, 147.869
608.028, 55.945
609.341, 283.973
610.653, 141.959
611.965, 30.102
613.277, 147.771
614.589, 84.396
615.901, 273.346
617.212, 111.070
618.523, 11.238
619.834, 116.404
621.145, 204.023
622.456, 161.625
623.766, 109.242
625.076, 126.869
626.386, 264.477
627.696, 72.082
629.006, 329.689
630.315, 77.295
631.624, 104.904
632.933, 222.504
634.242, 90.566
635.551, 38.135
636.859, 231.068
638.167, 128.580
639.475, 366.178
640.783, 244.055
642.090, 371.916
643.398, 138.666
644.705, 449.512
646.012, 675.025
647.318, 371.637
648.625, 588.062
649.931, 654.889
651.237, 781.992
652.543, 708.631
653.849, 954.693
655.155, 1190.707
656.460, 1007.557
657.765, 1412.117
659.070, 1535.898
660.375, 1542.766
661.679, 2327.764
662.984, 2693.373
664.288, 3088.389
665.592, 4023.736
666.895, 4619.854
668.199, 5674.633
669.502, 6954.045
670.805, 8930.328
672.108, 9842.102
673.411, 10998.059
674.713, 12259.238
676.016, 12094.998
677.318, 11490.387
678.620, 10666.844
679.921, 9162.898
681.223, 8067.844
682.524, 6505.027
683.825, 5868.545
685.126, 4874.277
686.427, 3665.670
687.727, 3742.713
689.028, 2748.059
690.328, 2582.943
691.628, 2061.250
692.927, 1727.498
694.227, 1702.188
695.526, 1217.662
696.825, 1131.926
698.124, 1287.619
699.423, 902.102
700.721, 1035.898
702.020, 771.088
703.318, 876.346
704.616, 731.840
705.913, 557.941
707.211, 564.025
708.508, 450.090
709.805, 506.131
711.102, 412.154
712.399, 378.156
713.695, 724.141
714.992, 300.102
716.288, 126.047
717.584, 381.969
718.879, 187.871
720.175, 333.752
721.470, 219.613
722.765, 264.812
724.060, 250.637
725.355, 206.443
726.649, 411.764
727.944, 42.762
729.238, 392.834
730.532, 228.289
731.825, 106.115
733.119, 328.619
734.412, 124.133
735.705, 439.379
736.998, 74.400
738.291, 109.908
739.584, 385.402
740.876, 69.480
742.168, 254.893
743.460, 100.508
744.752, 154.350
746.043, 128.977
747.334, 293.080
748.626, 456.557
749.916, 291.586
751.207, 244.799
752.498, 90.504
753.788, 213.994
755.078, 334.656
756.368, 68.238
757.658, 132.457
758.947, 137.258
760.237, 411.539
761.526, 305.211
762.815, 299.502
764.104, 303.383
765.392, 268.225
766.680, 212.465
767.969, 243.617
769.257, 288.838
770.544, 297.572
771.832, 422.330
773.119, 496.836
774.406, 169.500
775.693, 553.584
776.980, 258.033
778.267, 242.299
779.553, 186.338
780.839, 270.445
782.125, 205.926
783.411, 178.992
784.697, 173.773
785.982, 277.656
787.267, 321.643
788.552, 16.121
789.837, 220.041
791.122, 246.262
792.406, 208.047
793.690, 61.922
794.974, 16.477
796.258, 10.855
797.542, 175.418
798.825, 60.652
800.108, 136.141
801.391, 128.289
802.674, 32.719
803.957, 157.141
805.239, 181.555
806.522, 5.965
807.804, 180.367
809.085, 94.770
810.367, 9.168
811.649, 223.555
812.930, 12.055
814.211, 7.660
815.492, 116.723
816.772, 151.105
818.053, 205.488
819.333, 419.875
820.613, 74.254
821.893, 258.609
823.173, 67.043
824.452, 157.211
825.732, 48.543
827.011, 285.711
828.290, 250.039
829.568, 374.133
830.847, 258.215
832.125, 7.711
833.403, 66.355
834.681, 160.410
835.959, 15.535
837.236, 178.512
838.514, 52.559
839.791, 263.398
841.068, 49.430
842.345, 164.531
843.621, 378.484
844.898, 242.438
846.174, 6.414
847.450, 460.387
848.726, 254.363
850.001, 238.332
851.277, 162.297
852.552, 256.262
853.827, 440.230
855.102, 364.199
856.376, 838.168
857.651, 572.133
858.925, 696.098
860.199, 1000.055
861.473, 714.008
862.746, 887.957
864.020, 801.906
865.293, 385.848
866.566, 749.785
867.839, 393.719
869.112, 467.648
870.384, 651.125
871.656, 215.047
872.928, 638.789
874.200, 372.707
875.472, 366.586
876.744, 150.504
878.015, 204.168
879.286, 178.254
880.557, 362.168
881.828, 392.047
883.098, 505.961
884.369, 369.871
885.639, 415.801
886.909, 869.715
888.178, 563.242
889.448, 517.156
890.717, 880.496
891.987, 853.988
893.256, 807.910
894.524, 771.250
895.793, 695.180
897.061, 1051.578
898.330, 1265.305
899.598, 1238.938
900.865, 872.887
902.133, 1576.855
903.401, 1530.836
904.668, 1434.867
905.935, 1782.391
907.202, 1756.445
908.468, 1910.535
909.735, 2344.176
911.001, 2278.184
912.267, 2922.230
913.533, 3036.422
914.799, 3740.621
916.064, 4464.840
917.330, 4459.074
918.595, 6463.316
919.860, 7177.586
921.124, 8621.879
922.389, 10786.191
923.653, 12770.551
924.918, 15614.922
926.182, 18439.316
927.445, 19843.742
928.709, 22458.188
929.972, 23632.656
931.236, 25607.148
932.499, 24461.664
933.761, 22226.211
935.024, 19290.777
936.286, 14935.379
937.549, 12190.008
938.811, 9504.672
940.073, 7839.367
941.334, 6414.422
942.596, 5449.188
943.857, 4218.605
945.118, 3693.449
946.379, 3198.082
947.640, 2819.969
948.900, 2744.492
950.161, 2059.512
951.421, 2200.930
952.681, 1737.676
953.940, 1552.859
955.200, 1637.770
956.459, 1463.035
957.719, 1608.371
958.978, 1253.336
960.236, 1008.359
961.495, 1413.473
962.753, 1348.117
964.012, 983.141
965.270, 1277.133
966.527, 781.293
967.785, 1366.238
969.043, 1201.203
970.300, 1406.246
971.557, 1140.762
972.814, 1351.516
974.071, 1593.383
975.327, 802.211
976.583, 1736.633
977.840, 1290.277
979.095, 1133.684
980.351, 1788.016
981.607, 1232.609
982.862, 1186.867
984.117, 1630.867
985.372, 815.133
986.627, 1569.406
987.882, 1243.688
989.136, 1017.973
990.390, 1392.262
991.644, 926.555
992.898, 1120.855
994.152, 865.164
995.405, 1009.477
996.659, 993.809
997.912, 1038.141
999.165, 822.488
1000.417, 1086.840
1001.670, 821.227
1002.922, 985.645
1004.174, 540.164
1005.426, 794.699
1006.678, 639.254
1007.930, 603.832
1009.181, 588.465
1010.432, 576.137
1011.683, 377.887
1012.934, 622.617
1014.185, 597.449
1015.435, 552.297
1016.685, 837.168
1017.935, 742.047
1019.185, 626.945
1020.435, 1011.855
1021.684, 216.777
1022.934, 821.711
1024.183, 666.656
1025.432, 691.609
1026.680, 616.574
1027.929, 511.539
1029.177, 636.516
1030.425, 616.113
1031.673, 426.461
1032.921, 771.660
1034.169, 656.809
1035.416, 771.914
1036.663, 587.137
1037.911, 576.102
1039.157, 847.703
1040.404, 542.980
1041.650, 598.262
1042.897, 783.551
1044.143, 788.859
1045.389, 604.172
1046.634, 889.539
1047.880, 395.152
1049.125, 790.961
1050.371, 466.840
1051.615, 533.145
1052.860, 1009.539
1054.105, 616.008
1055.349, 692.547
1056.593, 619.172
1057.837, 435.883
1059.081, 472.680
1060.325, 519.574
1061.568, 566.570
1062.812, 753.668
1064.055, 626.812
1065.298, 528.172
1066.540, 515.586
1067.783, 253.109
1069.025, 360.754
1070.267, 288.520
1071.509, 456.422
1072.751, 624.465
1073.993, 392.660
1075.234, 471.016
1076.475, 479.551
1077.716, 778.258
1078.957, 487.168
1080.198, 326.281
1081.438, 585.625
1082.679, 655.211
1083.919, 255.059
1085.159, 735.176
1086.398, 635.555
1087.638, 346.203
1088.877, 477.133
1090.116, 21.633
1091.355, 549.930
1092.594, 461.840
1093.833, 214.121
1095.071, 476.809
1096.309, 110.066
1097.547, 313.531
1098.785, 257.645
1100.023, 282.312
1101.260, 157.586
1102.498, 363.512
1103.735, 290.148
1104.972, 239.336
1106.208, 156.844
1107.445, 365.148
1108.681, 20.371
1109.918, 6.566
1111.154, 449.395
1112.389, 457.367
1113.625, 216.730
1114.860, 315.891
1116.096, 16.688
1117.331, 184.059
1118.566, 0.000
##END=



