##NAMES=Heulandite-Ca
##RRUFFID=R050017
##IDEAL CHEMISTRY=(Ca,Na,K)_5_(Si_27_Al_9_)O_72_&#183;26H_2_O
##LOCALITY=Poona, Maharashtra State, India
##OWNER=RRUFF
##SOURCE=Eugene Schlepp
##DESCRIPTION=Single crystals
##STATUS=The identification of this mineral has been confirmed by X-ray diffraction and chemical analysis
##URL=rruff.info/R050017
##MEASURED CHEMISTRY=(Ca_.70_Na_.22_K_.02_[box]_0.06_)_5_(Si_0.77_Al_0.23_)_36_O_72_Â·24H_2_O
##PIN_ID=L00175
##ORIENTATION=Laser parallel to -b* (0 -1 0). Fiducial mark perpendicular to laser is parallel to c [0 0 1]
91.527, 0.000
92.926, 161.801
94.324, 11.993
95.723, 17.170
97.121, 166.019
98.519, 186.960
99.917, 458.635
101.314, 846.644
102.712, 1257.809
104.109, 1599.503
105.505, 1899.691
106.902, 2356.938
108.298, 2690.488
109.694, 3090.142
111.090, 3494.965
112.486, 3883.902
113.881, 4226.148
115.277, 4701.086
116.672, 5298.251
118.066, 5597.358
119.461, 6066.227
120.855, 6501.323
122.249, 6775.959
123.643, 7083.607
125.036, 7315.486
126.430, 7620.974
127.823, 7918.135
129.216, 8115.107
130.608, 8511.820
132.001, 8768.273
133.393, 8974.489
134.785, 9270.456
136.176, 9606.194
137.568, 9591.724
138.959, 9857.065
140.350, 10162.243
141.741, 10197.377
143.131, 10332.776
144.521, 10259.347
145.911, 10397.228
147.301, 10026.883
148.691, 10027.970
150.080, 9799.446
151.469, 9460.437
152.858, 9330.910
154.247, 9154.344
155.635, 8574.317
157.024, 8619.394
158.411, 8036.261
159.799, 7783.305
161.187, 7285.074
162.574, 7118.785
163.961, 6684.512
165.348, 6427.713
166.734, 6150.771
168.121, 5643.686
169.507, 5546.451
170.893, 5149.079
172.278, 4881.576
173.664, 4463.945
175.049, 4126.176
176.434, 3748.223
177.819, 3470.151
179.203, 3114.005
180.587, 2923.906
181.971, 2525.789
183.355, 2237.700
184.739, 2099.647
186.122, 1941.638
187.505, 1763.675
188.888, 1615.349
190.271, 1378.355
191.653, 1285.197
193.035, 1100.313
194.417, 916.682
195.799, 871.669
197.180, 814.344
198.562, 758.685
199.943, 639.010
201.324, 625.237
202.704, 562.653
204.084, 419.311
205.465, 481.712
206.844, 449.045
208.224, 371.562
209.603, 201.463
210.983, 190.817
212.362, 59.681
213.740, 88.567
215.119, 37.474
216.497, 153.603
217.875, 74.661
219.253, 75.707
220.631, 156.740
222.008, 157.764
223.385, 118.779
224.762, 89.789
226.139, 80.795
227.515, 201.801
228.891, 92.805
230.267, 163.824
231.643, 104.858
233.018, 35.908
234.394, 16.966
235.769, 102.061
237.144, 201.108
238.518, 300.095
239.893, 318.962
241.267, 607.716
242.641, 616.335
244.014, 734.779
245.388, 983.122
246.761, 1021.434
248.134, 1199.758
249.507, 1278.113
250.879, 1436.477
252.252, 1384.829
253.624, 1553.166
254.996, 1371.477
256.367, 1489.761
257.739, 1516.544
259.110, 1383.545
260.481, 1370.548
261.852, 1349.319
263.222, 1339.014
264.592, 1272.024
265.962, 1160.029
267.332, 1111.168
268.702, 1012.635
270.071, 894.377
271.440, 826.354
272.809, 838.527
274.178, 610.868
275.546, 593.345
276.915, 615.933
278.283, 508.609
279.650, 481.359
281.018, 364.170
282.385, 337.028
283.752, 209.926
285.119, 152.851
286.486, 225.794
287.852, 90.748
289.218, 140.695
290.584, 7.616
291.950, 91.480
293.316, 44.291
294.681, 35.043
296.046, 51.267
297.411, 109.658
298.775, 15.146
300.140, 82.707
301.504, 74.943
302.868, 4.902
304.231, 96.903
305.595, 124.804
306.958, 131.805
308.321, 141.914
309.684, 179.138
311.047, 141.493
312.409, 34.979
313.771, 208.573
315.133, 69.326
316.495, 100.198
317.856, 79.197
319.217, 3.424
320.578, 9.853
321.939, 155.411
323.299, 111.468
324.660, 214.273
326.020, 235.856
327.380, 234.294
328.739, 381.669
330.099, 435.002
331.458, 464.294
332.817, 503.545
334.176, 557.757
335.534, 571.927
336.892, 623.729
338.251, 651.184
339.608, 699.209
340.966, 718.229
342.323, 737.211
343.681, 786.159
345.037, 765.073
346.394, 753.949
347.751, 812.790
349.107, 841.594
350.463, 830.361
351.819, 929.095
353.174, 957.790
354.530, 986.446
355.885, 1077.179
357.240, 1183.592
358.594, 1252.057
359.949, 1310.371
361.303, 1448.939
362.657, 1337.646
364.011, 1725.493
365.365, 1603.230
366.718, 1900.900
368.071, 2028.336
369.424, 2166.148
370.777, 2353.732
372.129, 2462.511
373.481, 2639.725
374.833, 2737.551
376.185, 2954.862
377.537, 3142.825
378.888, 3337.406
380.239, 3628.547
381.590, 3796.555
382.941, 4032.331
384.291, 4353.978
385.642, 4525.521
386.992, 4838.355
388.341, 5071.981
389.691, 5395.078
391.040, 5747.034
392.389, 6149.743
393.738, 6590.246
395.087, 7094.882
396.435, 7719.938
397.784, 8286.653
399.132, 8974.933
400.479, 9661.999
401.827, 10213.049
403.174, 10800.520
404.521, 11081.940
405.868, 11789.222
407.215, 11996.148
408.561, 12313.606
409.908, 12250.737
411.254, 11857.645
412.599, 11684.234
413.945, 11170.312
415.290, 10566.925
416.636, 10003.006
417.980, 9319.150
419.325, 8775.420
420.670, 7981.219
422.014, 7347.400
423.358, 6793.148
424.702, 6159.075
426.045, 5664.752
427.389, 4940.390
428.732, 4615.983
430.075, 4121.532
431.417, 3657.036
432.760, 3352.489
434.102, 2937.891
435.444, 2773.239
436.786, 2458.534
438.127, 2103.775
439.469, 2018.961
440.810, 1814.090
442.151, 1739.161
443.492, 1604.178
444.832, 1549.135
446.172, 1554.033
447.512, 1418.875
448.852, 1343.656
450.192, 1248.103
451.531, 1412.669
452.870, 1384.539
454.209, 1328.676
455.548, 1341.749
456.887, 1364.331
458.225, 1471.685
459.563, 1595.171
460.901, 1874.393
462.238, 2009.176
463.576, 2184.253
464.913, 2644.149
466.250, 2717.467
467.587, 3138.844
468.923, 3399.596
470.259, 4119.531
471.596, 4296.951
472.931, 4526.559
474.267, 5142.679
475.603, 5377.736
476.938, 6131.367
478.273, 7062.897
479.608, 7815.589
480.942, 8852.881
482.276, 9299.629
483.611, 10162.089
484.944, 10653.684
486.278, 10396.526
487.612, 10279.401
488.945, 9932.209
490.278, 9215.345
491.611, 8218.437
492.943, 7481.484
494.276, 6444.740
495.608, 5417.703
496.940, 4751.007
498.271, 3824.305
499.603, 3347.592
500.934, 2880.493
502.265, 2453.967
503.596, 2082.618
504.927, 1752.690
506.257, 1423.789
507.587, 1247.213
508.917, 982.468
510.247, 868.040
511.577, 723.585
512.906, 701.920
514.235, 460.445
515.564, 412.447
516.892, 420.691
518.221, 318.296
519.549, 317.634
520.877, 208.574
522.205, 143.393
523.533, 298.266
524.860, 273.675
526.187, 247.214
527.514, 260.579
528.841, 127.894
530.167, 155.517
531.493, 121.646
532.820, 46.067
534.145, 91.624
535.471, 128.893
536.796, 67.401
538.122, 87.071
539.447, 16.122
540.771, 47.465
542.096, 14.583
543.420, 31.457
544.744, 32.471
546.068, 15.697
547.392, 1.018
548.715, 50.610
550.039, 2.341
551.362, 89.890
552.684, 123.002
554.007, 40.254
555.329, 111.171
556.652, 36.281
557.973, 2.547
559.295, 112.488
560.617, 43.855
561.938, 45.244
563.259, 51.503
564.580, 58.976
565.901, 102.688
567.221, 31.999
568.541, 62.876
569.861, 84.865
571.181, 150.697
572.501, 263.455
573.820, 128.339
575.139, 246.071
576.458, 222.599
577.777, 184.399
579.095, 348.684
580.414, 191.431
581.732, 392.640
583.049, 236.949
584.367, 335.808
585.685, 362.003
587.002, 387.562
588.319, 441.272
589.636, 448.836
590.952, 551.067
592.268, 546.071
593.585, 684.969
594.900, 603.992
596.216, 681.813
597.532, 920.598
598.847, 997.366
600.162, 1009.091
601.477, 1203.779
602.792, 1279.449
604.106, 1499.082
605.420, 1598.678
606.734, 1638.236
608.048, 1947.768
609.361, 1907.265
610.675, 2216.726
611.988, 2316.166
613.301, 2225.573
614.614, 2364.957
615.926, 2304.315
617.238, 2293.671
618.550, 2113.040
619.862, 1942.397
621.174, 1971.763
622.485, 1771.146
623.797, 1530.513
625.108, 1679.899
626.418, 1349.306
627.729, 1258.735
629.039, 1162.195
630.349, 1120.691
631.659, 962.215
632.969, 802.756
634.279, 770.342
635.588, 640.957
636.897, 582.591
638.206, 529.239
639.515, 412.883
640.823, 381.525
642.131, 330.138
643.439, 376.729
644.747, 330.991
646.055, 304.824
647.362, 299.329
648.669, 318.801
649.976, 304.239
651.283, 191.645
652.589, 259.014
653.896, 159.350
655.202, 150.650
656.508, 141.916
657.814, 224.145
659.119, 76.343
660.424, 95.504
661.729, 21.626
663.034, 213.719
664.339, 46.776
665.643, 76.795
666.947, 15.775
668.251, 13.713
669.555, 33.609
670.859, 5.466
672.162, 84.279
673.465, 45.945
674.768, 68.238
676.071, 6.392
677.373, 56.978
678.676, 9.896
679.978, 49.910
681.280, 36.607
682.581, 109.638
683.883, 66.114
685.184, 98.949
686.485, 58.587
687.786, 35.420
689.087, 84.959
690.387, 39.943
691.687, 46.023
692.987, 51.686
694.287, 6.590
695.586, 89.766
696.886, 24.869
698.185, 83.893
699.484, 15.905
700.783, 37.685
702.081, 77.141
703.379, 89.133
704.677, 91.624
705.975, 60.274
707.273, 102.005
708.570, 3.325
709.868, 49.747
711.165, 32.367
712.462, 177.836
713.758, 130.414
715.055, 192.852
716.351, 10.667
717.647, 120.707
718.943, 71.760
720.238, 0.178
721.533, 164.291
722.829, 13.925
724.124, 104.958
725.418, 66.396
726.713, 93.101
728.007, 99.818
729.301, 60.303
730.595, 85.857
731.889, 124.751
733.182, 52.477
734.476, 170.922
735.769, 55.849
737.061, 180.995
738.354, 147.085
739.647, 10.008
740.939, 165.561
742.231, 88.503
743.523, 48.859
744.814, 74.899
746.106, 144.673
747.397, 189.332
748.688, 205.409
749.978, 166.568
751.269, 231.377
752.559, 239.896
753.849, 206.164
755.139, 340.630
756.429, 213.531
757.719, 298.910
759.008, 227.398
760.297, 297.917
761.586, 376.246
762.875, 274.492
764.163, 431.767
765.451, 426.297
766.739, 455.815
768.027, 476.278
769.315, 552.344
770.602, 631.926
771.890, 546.038
773.177, 686.293
774.463, 709.639
775.750, 706.668
777.036, 950.324
778.323, 849.300
779.609, 953.272
780.894, 1009.294
782.180, 1105.305
783.465, 1201.772
784.750, 1265.728
786.035, 1333.414
787.320, 1372.781
788.605, 1398.529
789.889, 1358.444
791.173, 1554.266
792.457, 1329.926
793.741, 1485.887
795.024, 1381.734
796.307, 1377.519
797.591, 1253.434
798.873, 1289.157
800.156, 1366.783
801.439, 1162.232
802.721, 1207.738
804.003, 1123.128
805.285, 988.488
806.566, 1243.569
807.848, 1028.871
809.129, 1453.986
810.410, 1079.115
811.691, 1098.285
812.971, 1096.597
814.252, 904.377
815.532, 878.860
816.812, 865.614
818.092, 625.631
819.371, 884.827
820.651, 751.122
821.930, 903.025
823.209, 684.887
824.488, 650.888
825.766, 650.627
827.045, 531.818
828.323, 554.699
829.601, 491.236
830.878, 312.882
832.156, 404.858
833.433, 231.887
834.710, 163.788
835.987, 214.087
837.264, 140.191
838.540, 245.584
839.817, 131.596
841.093, 64.418
842.369, 158.663
843.644, 93.552
844.920, 170.234
846.195, 132.924
847.470, 142.695
848.745, 152.167
850.020, 41.881
851.294, 108.311
852.568, 61.212
853.842, 18.189
855.116, 175.501
856.390, 40.368
857.663, 138.282
858.936, 95.201
860.209, 120.973
861.482, 171.912
862.755, 89.249
864.027, 174.935
865.299, 22.890
866.571, 22.104
867.843, 176.104
869.115, 95.359
870.386, 27.834
871.657, 196.781
872.928, 55.513
874.199, 153.934
875.470, 19.943
876.740, 91.508
878.010, 58.327
879.280, 31.970
880.550, 88.706
881.820, 11.452
883.089, 91.012
884.358, 120.662
885.627, 17.542
886.896, 32.090
888.164, 33.192
889.433, 43.829
890.701, 80.997
891.969, 22.337
893.236, 125.288
894.504, 92.290
895.771, 123.474
897.038, 51.476
898.305, 106.515
899.572, 125.830
900.838, 18.316
902.105, 6.850
903.371, 67.200
904.637, 132.695
905.902, 47.828
907.168, 196.595
908.433, 15.005
909.698, 51.605
910.963, 98.732
912.228, 84.054
913.492, 136.355
914.757, 20.358
916.021, 131.895
917.285, 51.130
918.548, 46.349
919.812, 52.548
921.075, 3.271
922.338, 8.887
923.601, 206.023
924.864, 72.146
926.126, 43.253
927.388, 112.343
928.650, 34.584
929.912, 143.453
931.174, 7.526
932.435, 82.471
933.697, 77.452
934.958, 0.419
936.218, 124.364
937.479, 162.296
938.739, 51.786
940.000, 108.087
941.260, 62.054
942.520, 66.756
943.779, 113.556
945.039, 17.341
946.298, 36.112
947.557, 42.869
948.816, 3.610
950.074, 41.335
951.333, 31.954
952.591, 179.725
953.849, 68.394
955.107, 145.048
956.365, 147.694
957.622, 100.328
958.879, 182.952
960.136, 29.565
961.393, 10.168
962.650, 190.759
963.906, 13.659
965.162, 175.902
966.418, 128.457
967.674, 44.995
968.930, 53.522
970.185, 156.031
971.441, 98.532
972.696, 101.027
973.950, 103.519
975.205, 106.006
976.459, 98.487
977.714, 140.965
978.968, 143.437
980.222, 45.918
981.475, 308.414
982.729, 120.907
983.982, 113.396
985.235, 195.883
986.488, 98.301
987.740, 200.796
988.993, 213.137
990.245, 185.644
991.497, 297.981
992.749, 210.039
994.000, 222.512
995.252, 364.709
996.503, 217.221
997.754, 349.597
999.005, 322.015
1000.256, 294.492
1001.506, 453.225
1002.756, 335.531
1004.006, 407.642
1005.256, 477.913
1006.506, 470.432
1007.755, 422.462
1009.005, 384.900
1010.254, 317.166
1011.502, 559.539
1012.751, 412.055
1014.000, 564.297
1015.248, 476.812
1016.496, 538.793
1017.744, 540.771
1018.991, 513.284
1020.239, 565.567
1021.486, 657.570
1022.733, 610.076
1023.980, 672.199
1025.227, 644.707
1026.473, 654.979
1027.719, 697.259
1028.965, 679.401
1030.211, 641.435
1031.457, 773.708
1032.702, 605.658
1033.948, 807.945
1035.193, 630.358
1036.438, 670.813
1037.682, 670.370
1038.927, 609.863
1040.171, 798.695
1041.415, 720.963
1042.659, 701.159
1043.903, 804.902
1045.146, 687.229
1046.390, 681.108
1047.633, 823.275
1048.876, 675.679
1050.118, 848.168
1051.361, 770.211
1052.603, 672.145
1053.845, 924.400
1055.087, 766.919
1056.329, 705.662
1057.571, 778.179
1058.812, 620.233
1060.053, 858.783
1061.294, 681.202
1062.535, 703.563
1063.775, 866.087
1065.016, 696.668
1066.256, 789.193
1067.496, 701.436
1068.736, 813.660
1069.975, 785.916
1071.214, 677.539
1072.454, 809.622
1073.693, 892.149
1074.931, 794.736
1076.170, 806.980
1077.408, 949.514
1078.647, 969.395
1079.885, 1011.934
1081.122, 953.449
1082.360, 975.892
1083.597, 1078.320
1084.835, 1090.267
1086.072, 1202.822
1087.308, 1215.382
1088.545, 1324.355
1089.781, 1346.924
1091.018, 1285.301
1092.254, 1468.722
1093.490, 1291.305
1094.725, 1343.562
1095.961, 1545.907
1097.196, 1358.293
1098.431, 1470.522
1099.666, 1612.921
1100.900, 1513.402
1102.135, 1606.027
1103.369, 1478.573
1104.603, 1631.602
1105.837, 1554.246
1107.071, 1656.900
1108.304, 1669.560
1109.538, 1842.002
1110.771, 1614.372
1112.004, 1827.055
1113.236, 1598.749
1114.469, 1551.445
1115.701, 1674.150
1116.933, 1624.170
1118.165, 1716.796
1119.397, 1609.524
1120.629, 1572.260
1121.860, 1705.006
1123.091, 1667.759
1124.322, 1860.521
1125.553, 1893.293
1126.783, 1626.072
1128.014, 1678.862
1129.244, 1451.573
1130.474, 1664.380
1131.704, 1627.195
1132.933, 1510.020
1134.163, 1612.854
1135.392, 1546.314
1136.621, 1639.167
1137.850, 1652.029
1139.079, 1444.901
1140.307, 1637.785
1141.535, 1490.679
1142.763, 1383.584
1143.991, 1499.244
1145.219, 1372.313
1146.446, 1425.249
1147.674, 1522.745
1148.901, 1565.701
1150.128, 1512.106
1151.354, 1505.848
1152.581, 1354.827
1153.807, 1367.917
1155.033, 1292.172
1156.259, 1205.217
1157.485, 1259.672
1158.710, 1172.742
1159.936, 1115.826
1161.161, 1338.922
1162.386, 1022.025
1163.611, 1315.315
1164.835, 1108.447
1166.060, 1061.594
1167.284, 1014.934
1168.508, 988.107
1169.732, 991.297
1170.955, 935.166
1172.179, 968.384
1173.402, 991.617
1174.625, 855.293
1175.848, 858.564
1177.070, 911.931
1178.293, 805.225
1179.515, 788.535
1180.737, 931.863
1181.959, 705.156
1183.181, 778.383
1184.402, 794.140
1185.624, 757.408
1186.845, 775.093
1188.066, 933.934
1189.286, 657.203
1190.507, 730.490
1191.727, 513.894
1192.947, 657.226
1194.167, 450.808
1195.387, 544.167
1196.607, 607.517
1197.826, 371.162
1199.045, 314.508
1200.264, 487.854
1201.483, 221.106
1202.702, 454.354
1203.920, 287.615
1205.138, 410.861
1206.356, 304.088
1207.574, 218.446
1208.792, 281.642
1210.009, 244.821
1211.227, 267.990
1212.444, 271.153
1213.661, 174.144
1214.877, 107.150
1216.094, 279.977
1217.310, 22.635
1218.526, 165.970
1219.742, 219.319
1220.958, 17.314
1222.173, 126.090
1223.389, 219.520
1224.604, 32.971
1225.819, 166.438
1227.034, 79.957
1228.248, 3.526
1229.463, 227.110
1230.677, 130.718
1231.891, 164.348
1233.105, 138.020
1234.318, 61.708
1235.532, 315.414
1236.745, 9.140
1237.958, 37.110
1239.171, 116.669
1240.384, 10.483
1241.596, 164.335
1242.809, 138.207
1244.021, 32.101
1245.233, 166.015
1246.444, 0.048
1247.656, 43.912
1248.867, 177.894
1250.079, 18.110
1251.290, 125.908
1252.500, 179.949
1253.711, 43.998
1254.921, 38.052
1256.132, 92.076
1257.342, 36.120
1258.552, 210.185
1259.761, 144.254
1260.971, 28.327
1262.180, 122.420
1263.389, 26.534
1264.598, 240.667
1265.807, 34.818
1267.015, 178.986
1268.223, 143.171
1269.432, 57.369
1270.640, 91.587
1271.847, 155.824
1273.055, 120.082
1274.262, 264.329
1275.470, 108.599
1276.677, 52.890
1277.883, 177.203
1279.090, 231.536
1280.296, 14.110
1281.503, 120.267
1282.709, 264.670
1283.915, 89.102
1285.120, 113.557
1286.326, 58.035
1287.531, 242.551
1288.736, 42.894
1289.941, 11.714
1291.146, 76.362
1292.350, 69.424
1293.555, 85.293
1294.759, 50.050
1295.963, 24.844
1297.167, 89.673
1298.370, 44.540
1299.574, 10.555
1300.777, 152.077
1301.980, 12.992
1303.183, 81.973
1304.386, 66.950
1305.588, 81.982
1306.790, 106.031
1307.993, 31.112
1309.195, 186.229
1310.396, 271.383
1311.598, 36.576
1312.799, 171.812
1314.000, 247.088
1315.201, 12.407
1316.402, 247.771
1317.603, 143.182
1318.803, 28.639
1320.003, 354.146
1321.203, 77.498
1322.403, 143.043
1323.603, 348.639
1324.802, 124.286
1326.002, 468.288
1327.201, 264.559
1328.400, 20.805
1329.599, 353.281
1330.797, 101.901
1331.995, 219.474
1333.194, 283.486
1334.392, 187.400
1335.589, 70.230
1336.787, 162.760
1337.985, 46.071
1339.182, 244.812
1340.379, 194.429
1341.576, 35.762
1342.772, 187.243
1343.969, 108.505
1345.165, 258.772
1346.361, 159.381
1347.557, 70.175
1348.753, 209.489
1349.949, 316.300
1351.144, 4.806
1352.339, 318.667
1353.534, 196.756
1354.729, 75.557
1355.924, 284.134
1357.118, 174.828
1358.312, 9.759
1359.506, 268.220
1360.700, 0.000
##END=



