##NAMES=Heulandite-Ca
##RRUFFID=R060465
##IDEAL CHEMISTRY=(Ca,Na,K)_5_(Si_27_Al_9_)O_72_&#183;26H_2_O
##LOCALITY=Garrawilla, near Gunnadah, New South Wales, Australia
##OWNER=RRUFF
##SOURCE=Michael Scott
##DESCRIPTION=Orange fan of platy crystals
##STATUS=The identification of this mineral has been confirmed by X-ray diffraction and chemical analysis
##URL=rruff.info/R060465
##MEASURED CHEMISTRY=(Ca_0.66_Na_0.24_K_0.10_)_5_(Si_0.77_Al_0.23_)_36_O_72_Â·24H_2_O
##PIN_ID=M01254
##ORIENTATION=Laser parallel to c* (0 0 1). Fiducial mark perpendicular to laser is parallel to a [1 0 0]
216.9930, 0.0000000E+00
218.2150, 0.5058590
219.4380, 97.75195
220.6600, 145.6602
221.8820, 72.56250
223.1040, 176.5801
224.3260, 109.9023
225.5470, 98.11328
226.7680, 266.3691
227.9900, 127.5371
229.2110, 146.3242
230.4310, 1.503906
231.6520, 53.08594
232.8720, 184.4375
234.0930, 244.0430
235.3130, 111.8164
236.5330, 392.9434
237.7530, 589.9375
238.9720, 632.5215
240.1920, 907.6621
241.4110, 1001.324
242.6300, 1108.492
243.8490, 1342.158
245.0680, 1699.312
246.2860, 1743.943
247.5040, 1900.605
248.7230, 1904.574
249.9410, 1964.543
251.1590, 1965.318
252.3760, 1886.205
253.5940, 1811.680
254.8110, 1820.359
256.0280, 1627.537
257.2450, 1627.045
258.4620, 1526.084
259.6790, 1550.311
260.8950, 1466.783
262.1120, 1276.496
263.3280, 1094.436
264.5440, 814.6035
265.7600, 833.0098
266.9750, 928.6836
268.1910, 507.6387
269.4060, 645.8887
270.6210, 196.4355
271.8360, 472.2734
273.0510, 330.3887
274.2650, 292.7598
275.4800, 344.3691
276.6940, 261.2012
277.9080, 245.2441
279.1220, 354.4824
280.3360, 72.90430
281.5490, 235.4961
282.7630, 82.25000
283.9760, 25.84570
285.1890, 128.1992
286.4020, 18.37500
287.6150, 3.318359
288.8270, 2.101563
290.0400, 63.38477
291.2520, 37.45312
292.4640, 43.62305
293.6760, 27.82617
294.8870, 12.28516
296.0990, 34.73047
297.3100, 4.187500
298.5210, 129.3613
299.7320, 5.4687999E-02
300.9430, 90.56836
302.1540, 318.2344
303.3640, 163.9473
304.5750, 89.70898
305.7850, 191.5312
306.9950, 384.4277
308.2050, 389.4102
309.4140, 184.5234
310.6240, 367.7148
311.8330, 357.1816
313.0420, 263.9980
314.2510, 391.2500
315.4600, 514.8965
316.6680, 589.8125
317.8770, 633.1523
319.0850, 595.8164
320.2930, 540.7949
321.5010, 639.0625
322.7090, 753.5117
323.9160, 762.0645
325.1240, 962.7559
326.3310, 997.5312
327.5380, 1134.275
328.7450, 1069.988
329.9520, 1090.672
331.1580, 1332.326
332.3650, 1484.951
333.5710, 1691.559
334.7770, 1776.141
335.9830, 1958.299
337.1880, 2221.236
338.3940, 2271.750
339.5990, 2354.238
340.8040, 2525.707
342.0090, 2754.152
343.2140, 3031.574
344.4190, 3283.975
345.6230, 3485.352
346.8280, 3749.076
348.0320, 3707.037
349.2360, 4204.344
350.4400, 4522.627
351.6430, 4712.887
352.8470, 4562.121
354.0500, 5313.330
355.2530, 5574.514
356.4560, 6189.672
357.6590, 6330.803
358.8620, 6760.908
360.0640, 7051.988
361.2660, 7565.043
362.4680, 7685.986
363.6700, 8516.791
364.8720, 8738.270
366.0740, 9295.777
367.2750, 9821.322
368.4760, 10225.95
369.6770, 10704.34
370.8780, 11335.87
372.0790, 11958.52
373.2800, 12671.30
374.4800, 13328.18
375.6800, 13674.67
376.8800, 14392.42
378.0800, 15140.60
379.2800, 16204.86
380.4790, 16880.21
381.6790, 17760.63
382.8780, 18578.12
384.0770, 19608.14
385.2760, 20706.74
386.4750, 21894.03
387.6730, 23170.79
388.8720, 24538.61
390.0700, 25957.48
391.2680, 27407.12
392.4660, 29465.10
393.6630, 30893.92
394.8610, 32245.81
396.0580, 34180.00
397.2550, 35015.79
398.4520, 36713.81
399.6490, 37820.69
400.8460, 38390.09
402.0420, 39167.15
403.2390, 39622.39
404.4350, 39456.07
405.6310, 39257.89
406.8270, 38368.59
408.0220, 37660.09
409.2180, 36312.31
410.4130, 35004.13
411.6080, 33189.54
412.8030, 31766.20
413.9980, 29932.59
415.1920, 28505.71
416.3870, 27094.78
417.5810, 25549.78
418.7750, 23489.15
419.9690, 22094.94
421.1630, 20619.10
422.3570, 19346.23
423.5500, 17722.74
424.7430, 16756.57
425.9360, 15568.02
427.1290, 14077.64
428.3220, 13029.56
429.5150, 12273.73
430.7070, 10777.40
431.8990, 10253.68
433.0910, 9316.312
434.2830, 8533.336
435.4750, 7664.016
436.6670, 7412.945
437.8580, 6980.332
439.0490, 6416.004
440.2400, 6056.152
441.4310, 5759.699
442.6220, 5559.283
443.8130, 5414.607
445.0030, 5312.051
446.1930, 5325.973
447.3830, 5358.531
448.5730, 5428.080
449.7630, 5720.621
450.9520, 5988.160
452.1420, 6118.684
453.3310, 6628.197
454.5200, 6993.699
455.7090, 7505.188
456.8980, 8368.664
458.0860, 9200.127
459.2740, 9989.568
460.4630, 10952.99
461.6510, 11627.39
462.8380, 12623.77
464.0260, 13320.12
465.2140, 13821.45
466.4010, 14195.76
467.5880, 14778.03
468.7750, 15003.28
469.9620, 14984.50
471.1490, 15295.69
472.3350, 15654.86
473.5220, 16283.99
474.7080, 16761.10
475.8940, 17427.18
477.0800, 18238.23
478.2650, 19394.25
479.4510, 20444.24
480.6360, 21636.21
481.8210, 22599.14
483.0060, 23205.05
484.1910, 23384.93
485.3760, 23139.77
486.5600, 22685.59
487.7440, 21550.38
488.9290, 20159.14
490.1130, 18937.88
491.2960, 16952.58
492.4800, 15412.25
493.6630, 13303.89
494.8470, 11759.51
496.0300, 10219.10
497.2130, 8819.652
498.3960, 7415.182
499.5780, 6494.680
500.7610, 5660.148
501.9430, 4827.588
503.1250, 4316.996
504.3070, 3557.375
505.4890, 3370.734
506.6710, 2670.082
507.8520, 2519.410
509.0330, 2044.721
510.2140, 1982.014
511.3950, 1489.287
512.5760, 1460.543
513.7570, 1271.781
514.9370, 1061.998
516.1170, 1364.197
517.2980, 953.3730
518.4780, 1050.131
519.6570, 591.2812
520.8370, 761.8691
522.0160, 725.0625
523.1960, 712.2109
524.3750, 613.9062
525.5540, 606.2695
526.7320, 425.2676
527.9110, 531.6426
529.0890, 473.9277
530.2680, 403.5254
531.4460, 445.8887
532.6240, 222.5469
533.8010, 445.0469
534.9790, 205.8809
536.1560, 204.1426
537.3340, 144.0078
538.5110, 77.69336
539.6880, 203.9707
540.8650, 4.916016
542.0410, 136.1621
543.2180, 224.3242
544.3940, 62.87695
545.5700, 44.35938
546.7460, 188.6914
547.9220, 153.4824
549.0970, 62.46875
550.2730, 207.4941
551.4480, 311.7852
552.6230, 49.32227
553.7980, 195.9668
554.9730, 47.54297
556.1470, 26.48242
557.3210, 216.3262
558.4960, 278.5605
559.6700, 20.05273
560.8440, 274.0430
562.0170, 56.81055
563.1910, 119.6914
564.3640, 141.7207
565.5380, 66.91016
566.7110, 92.62305
567.8840, 82.03516
569.0560, 6.000000
570.2290, 72.47852
571.4010, 79.97656
572.5740, 138.7793
573.7460, 38.40234
574.9180, 330.4199
576.0890, 314.4023
577.2610, 224.7695
578.4320, 423.6680
579.6040, 408.0312
580.7750, 605.8594
581.9450, 541.6562
583.1160, 691.4160
584.2870, 834.3535
585.4570, 892.8770
586.6270, 1120.887
587.7980, 1328.910
588.9670, 1400.148
590.1370, 1695.039
591.3070, 1844.539
592.4760, 1977.762
593.6450, 2223.184
594.8140, 2513.578
595.9830, 2683.082
597.1520, 3228.059
598.3210, 3395.361
599.4890, 3786.172
600.6570, 4250.504
601.8250, 4499.736
602.9930, 4832.939
604.1610, 5443.621
605.3290, 5661.303
606.4960, 5889.594
607.6630, 6306.848
608.8300, 6405.449
609.9970, 6683.881
611.1640, 6530.379
612.3300, 6660.559
613.4970, 6640.758
614.6630, 6381.441
615.8290, 6222.477
616.9950, 5940.502
618.1610, 5492.510
619.3260, 5396.547
620.4920, 4904.561
621.6570, 4607.533
622.8220, 4362.523
623.9870, 3975.682
625.1520, 3686.461
626.3160, 3385.379
627.4810, 3075.252
628.6450, 2861.102
629.8090, 2513.912
630.9730, 2355.719
632.1370, 2157.520
633.3000, 1947.279
634.4640, 1700.002
635.6270, 1658.719
636.7900, 1655.393
637.9530, 1560.039
639.1160, 1222.643
640.2780, 1272.207
641.4410, 986.7285
642.6030, 1035.207
643.7650, 1063.646
644.9270, 1019.041
646.0890, 964.3906
647.2500, 909.6973
648.4120, 842.7129
649.5730, 756.2441
650.7340, 702.4512
651.8950, 555.6172
653.0560, 486.7363
654.2160, 685.8125
655.3770, 594.8438
656.5370, 543.8320
657.6970, 325.7715
658.8570, 570.6582
660.0170, 359.5176
661.1760, 447.3262
662.3360, 453.1133
663.4950, 316.8555
664.6540, 437.5410
665.8130, 184.1797
666.9720, 374.7598
668.1310, 390.2930
669.2890, 308.7754
670.4470, 281.2051
671.6050, 357.5820
672.7630, 310.2129
673.9210, 461.4863
675.0790, 350.9238
676.2360, 437.2910
677.3930, 526.3457
678.5510, 317.8027
679.7080, 346.9844
680.8640, 333.2852
682.0210, 304.0996
683.1770, 439.1074
684.3340, 375.9648
685.4900, 369.3848
686.6460, 422.6523
687.8020, 656.0508
688.9570, 399.6055
690.1130, 594.4375
691.2680, 405.6406
692.4230, 390.2402
693.5780, 314.5645
694.7330, 443.1328
695.8880, 317.9551
697.0420, 355.7930
698.1960, 70.66797
699.3510, 220.1465
700.5040, 308.1836
701.6580, 515.1387
702.8120, 491.0957
703.9650, 342.3027
705.1190, 165.5117
706.2720, 197.9629
707.4250, 149.3398
708.5780, 233.1836
709.7300, 212.0625
710.8830, 262.2637
712.0350, 214.1914
713.1870, 381.2852
714.3390, 258.2324
715.4910, 133.8203
716.6430, 236.7246
717.7940, 114.5938
718.9460, 240.8652
720.0970, 265.8594
721.2480, 277.8516
722.3990, 218.1465
723.5500, 261.1367
724.7000, 144.1484
725.8500, 131.2676
727.0010, 70.58594
728.1510, 143.9492
729.3010, 49.74219
730.4500, 365.4375
731.6000, 417.4961
732.7490, 227.3184
733.8980, 191.5117
735.0470, 68.51562
736.1960, 245.3691
737.3450, 103.4004
738.4940, 214.6328
739.6420, 234.9609
740.7900, 430.3340
741.9380, 145.4043
743.0860, 172.0664
744.2340, 331.9824
745.3810, 381.8574
746.5290, 195.4531
747.6760, 225.9492
748.8230, 199.4707
749.9700, 278.9277
751.1170, 264.3594
752.2630, 138.5918
753.4100, 301.2246
754.5560, 366.9434
755.7020, 575.1816
756.8480, 514.9922
757.9940, 781.0371
759.1390, 784.4961
760.2850, 743.7168
761.4300, 539.2852
762.5750, 639.5781
763.7200, 657.5312
764.8650, 723.7539
766.0100, 782.7734
767.1540, 803.7344
768.2980, 810.8828
769.4420, 870.6152
770.5860, 847.4316
771.7300, 859.4961
772.8740, 897.2285
774.0170, 899.5645
775.1610, 971.1328
776.3040, 926.8633
777.4470, 1002.252
778.5900, 988.6445
779.7320, 909.8281
780.8750, 916.0625
782.0170, 873.0859
783.1590, 1065.812
784.3010, 888.4980
785.4430, 945.0742
786.5850, 1103.785
787.7260, 814.8398
788.8680, 771.8203
790.0090, 853.3027
791.1500, 830.2480
792.2910, 817.5352
793.4310, 743.9434
794.5720, 908.8750
795.7120, 729.2773
796.8520, 910.9941
797.9920, 789.3730
799.1320, 975.9609
800.2720, 907.7891
801.4120, 770.8105
802.5510, 966.3828
803.6900, 756.9395
804.8290, 838.4629
805.9680, 890.0020
807.1070, 845.2891
808.2450, 983.8945
809.3840, 989.2871
810.5220, 980.3477
811.6600, 1100.576
812.7980, 1096.637
813.9360, 888.8535
815.0730, 1182.508
816.2110, 1384.979
817.3480, 1232.535
818.4850, 1386.023
819.6220, 1309.352
820.7590, 1295.732
821.8960, 1475.508
823.0320, 1382.189
824.1680, 1212.275
825.3040, 1192.248
826.4400, 985.0469
827.5760, 778.0195
828.7120, 836.0527
829.8470, 661.0801
830.9830, 482.8867
832.1180, 614.9414
833.2530, 400.7891
834.3880, 525.8672
835.5220, 518.9238
836.6570, 373.9082
837.7910, 243.0703
838.9250, 244.2266
840.0590, 331.3906
841.1930, 238.5781
842.3270, 308.3242
843.4600, 183.2480
844.5940, 196.9375
845.7270, 197.9629
846.8600, 232.9316
847.9930, 133.0195
849.1250, 245.0254
850.2580, 153.0977
851.3900, 215.1230
852.5230, 278.6855
853.6550, 30.63086
854.7870, 117.0254
855.9180, 24.87109
857.0500, 211.6641
858.1810, 131.4141
859.3130, 195.0566
860.4440, 182.2715
861.5750, 146.9609
862.7050, 90.10742
863.8360, 68.95508
864.9660, 6.4452998E-02
866.0970, 209.7109
867.2270, 114.0723
868.3570, 162.3867
869.4870, 64.64453
870.6160, 100.7090
871.7460, 83.78516
872.8750, 75.27734
874.0040, 27.24805
875.1330, 29.40234
876.2620, 62.55859
877.3910, 185.7949
878.5190, 275.6543
879.6470, 216.8086
880.7760, 49.53516
881.9040, 6.296875
883.0310, 113.4258
884.1590, 396.2305
885.2870, 84.10742
886.4140, 95.75586
887.5410, 132.5176
888.6680, 60.29297
889.7950, 78.56445
890.9220, 55.93750
892.0480, 225.4023
893.1750, 39.04297
894.3010, 28.23438
895.4270, 171.5352
896.5530, 130.4512
897.6790, 28.50391
898.8040, 4.412109
899.9300, 247.2676
901.0550, 46.91406
902.1800, 79.82422
903.3050, 117.4785
904.4300, 109.9004
905.5540, 43.56836
906.6790, 9.992188
907.8030, 102.6328
908.9270, 23.63672
910.0510, 23.13672
911.1750, 13.02539
912.2990, 69.14453
913.4220, 56.22266
914.5450, 92.25977
915.6690, 68.26172
916.7920, 105.2227
917.9140, 163.1465
919.0370, 160.0352
920.1600, 95.10938
921.2820, 128.6465
922.4040, 33.36719
923.5260, 38.05469
924.6480, 143.6992
925.7700, 20.31055
926.8910, 164.8848
928.0130, 122.4277
929.1340, 273.9355
930.2550, 193.4141
931.3760, 48.13477
932.4970, 206.2480
933.6170, 82.39453
934.7380, 165.8789
935.8580, 293.1230
936.9780, 186.3418
938.0980, 161.5312
939.2180, 108.6973
940.3370, 106.8340
941.4570, 72.94141
942.5760, 197.0176
943.6950, 70.07422
944.8140, 90.09961
945.9330, 210.0957
947.0520, 106.0273
948.1700, 143.0117
949.2890, 59.92969
950.4070, 179.8164
951.5250, 215.6836
952.6430, 180.5234
953.7600, 198.3438
954.8780, 44.14062
955.9950, 115.9102
957.1120, 132.6523
958.2290, 56.62695
959.3460, 252.0371
960.4630, 356.6758
961.5800, 329.2930
962.6960, 414.8848
963.8120, 247.4512
964.9280, 205.9941
966.0440, 533.5156
967.1600, 237.0098
968.2760, 566.4805
969.3910, 278.9277
970.5060, 61.35352
971.6210, 205.7578
972.7360, 228.8047
973.8510, 373.8359
974.9660, 517.1660
976.0800, 179.1484
977.1950, 458.4004
978.3090, 327.1094
979.4230, 403.8730
980.5370, 418.6211
981.6500, 665.4961
982.7640, 358.9297
983.8770, 466.8281
984.9900, 629.3730
986.1030, 446.1738
987.2160, 517.2227
988.3290, 576.0840
989.4420, 663.4199
990.5540, 703.5527
991.6660, 751.7617
992.7780, 755.3379
993.8900, 867.9785
995.0020, 816.5488
996.1140, 965.9727
997.2250, 904.1543
998.3360, 744.2305
999.4470, 713.8262
1000.558, 1012.461
1001.669, 904.6816
1002.780, 1060.084
1003.890, 1047.064
1005.001, 936.1797
1006.111, 1017.391
1007.221, 860.3711
1008.331, 1072.098
1009.440, 1075.676
1010.550, 1113.160
1011.659, 1069.900
1012.768, 1223.998
1013.877, 950.7871
1014.986, 1180.568
1016.095, 1119.578
1017.204, 1240.637
1018.312, 1108.469
1019.420, 1321.617
1020.528, 1239.600
1021.636, 1216.734
1022.744, 1257.420
1023.852, 1253.012
1024.959, 1131.041
1026.066, 1379.467
1027.173, 1359.605
1028.280, 1153.287
1029.387, 1133.158
1030.494, 1356.688
1031.600, 1234.492
1032.707, 1451.607
1033.813, 1162.418
1034.919, 1357.389
1036.025, 1432.508
1037.130, 1079.115
1038.236, 1481.234
1039.341, 1275.223
1040.446, 1557.922
1041.552, 1395.617
1042.656, 1350.531
1043.761, 1325.305
1044.866, 1221.529
1045.970, 1005.316
1047.074, 1232.424
1048.179, 1240.695
1049.282, 1558.879
1050.386, 1213.230
1051.490, 1313.832
1052.593, 1423.434
1053.697, 1163.104
1054.800, 1378.598
1055.903, 1298.709
1057.006, 1157.854
1058.108, 1272.453
1059.211, 991.5527
1060.313, 1459.268
1061.415, 1120.820
1062.517, 1359.809
1063.619, 1288.691
1064.721, 1242.820
1065.823, 1240.785
1066.924, 1207.873
1068.025, 1275.701
1069.126, 1209.727
1070.227, 1313.674
1071.328, 1228.533
1072.429, 1481.191
1073.529, 1630.855
1074.629, 1679.400
1075.729, 1591.473
1076.829, 1595.035
1077.929, 1697.703
1079.029, 1865.801
1080.128, 1868.832
1081.228, 1919.516
1082.327, 1954.131
1083.426, 2142.264
1084.525, 2176.406
1085.623, 2184.559
1086.722, 2224.719
1087.820, 2217.365
1088.919, 2268.328
1090.017, 2603.383
1091.115, 2519.354
1092.212, 2627.564
1093.310, 2654.789
1094.407, 2560.020
1095.505, 2625.264
1096.602, 2576.539
1097.699, 2649.855
1098.795, 2738.080
1099.892, 2855.369
1100.989, 2877.668
1102.085, 3048.980
1103.181, 2949.434
1104.277, 2860.768
1105.373, 3077.117
1106.469, 2828.479
1107.564, 3120.277
1108.660, 2943.666
1109.755, 3076.066
1110.850, 3038.111
1111.945, 3239.539
1113.040, 3053.100
1114.134, 2943.557
1115.229, 3192.582
1116.323, 3265.906
1117.417, 2993.330
1118.511, 3067.881
1119.605, 3254.408
1120.698, 3215.336
1121.792, 3490.225
1122.885, 3107.209
1123.978, 3018.805
1125.071, 3107.414
1126.164, 3270.037
1127.257, 3094.328
1128.349, 3054.316
1129.442, 2926.033
1130.534, 2850.762
1131.626, 2850.012
1132.718, 2792.314
1133.810, 2924.121
1134.901, 3005.941
1135.993, 3180.779
1137.084, 3115.416
1138.175, 2905.535
1139.266, 3047.451
1140.357, 2862.400
1141.448, 2956.383
1142.538, 3087.365
1143.628, 3132.480
1144.719, 2975.693
1145.809, 3229.988
1146.898, 3016.311
1147.988, 3058.660
1149.078, 2722.025
1150.167, 2929.402
1151.256, 3097.467
1152.345, 3039.697
1153.434, 2826.156
1154.523, 2901.738
1155.612, 2883.121
1156.700, 2986.879
1157.788, 3048.547
1158.877, 3030.248
1159.964, 2764.967
1161.052, 3114.061
1162.140, 2758.359
1163.227, 2750.494
1164.315, 2876.934
1165.402, 2680.822
1166.489, 2849.746
1167.576, 2798.688
1168.663, 2719.680
1169.749, 2543.719
1170.836, 2536.777
1171.922, 2509.850
1173.008, 2500.969
1174.094, 2594.254
1175.180, 2411.414
1176.265, 2136.615
1177.351, 2181.828
1178.436, 2140.051
1179.521, 1999.291
1180.606, 2075.543
1181.691, 2034.809
1182.776, 1894.082
1183.860, 1977.367
1184.944, 1654.695
1186.029, 1745.031
1187.113, 1538.383
1188.197, 1615.746
1189.280, 1280.125
1190.364, 1574.512
1191.447, 1380.910
1192.531, 1055.316
1193.614, 1103.734
1194.697, 1342.160
1195.779, 1292.613
1196.862, 1175.078
1197.945, 872.5742
1199.027, 914.0820
1200.109, 745.5508
1201.191, 647.2344
1202.273, 639.6602
1203.355, 521.2031
1204.436, 606.7578
1205.518, 626.3203
1206.599, 665.8945
1207.680, 683.1680
1208.761, 668.9609
1209.842, 666.6719
1210.922, 556.2812
1212.003, 492.8984
1213.083, 288.5234
1214.163, 213.1641
1215.243, 212.8047
1216.323, 398.4531
1217.402, 352.1094
1218.482, 259.7734
1219.561, 227.4531
1220.641, 189.1328
1221.720, 18.89844
1222.798, 108.6094
1223.877, 108.3242
1224.956, 289.0469
1226.034, 1.773438
1227.112, 136.5078
1228.191, 236.2461
1229.269, 134.9883
1230.346, 450.7383
1231.424, 167.4961
1232.501, 19.73828
1233.579, 239.0273
1234.656, 116.7969
1235.733, 350.5742
1236.810, 97.64453
1237.886, 62.10156
1238.963, 113.8477
1240.039, 98.39844
1241.116, 231.3164
1242.192, 3.960938
1243.268, 58.76172
1244.343, 76.44922
1245.419, 224.6250
1246.494, 81.03906
1247.570, 1.574219
1248.645, 24.13281
1249.720, 11.30859
1250.795, 116.5430
1251.869, 132.8516
1252.944, 217.5938
1254.018, 50.03906
1255.093, 58.48828
1256.167, 83.16797
1257.240, 41.76953
1258.314, 142.3555
1259.388, 54.74609
1260.461, 31.67188
1261.535, 104.0625
1262.608, 62.33984
1263.681, 85.73438
1264.753, 152.1289
1265.826, 205.7188
1266.899, 232.1172
1267.971, 93.51172
1269.043, 114.9102
1270.115, 169.3086
1271.187, 6.046875
1272.259, 44.33984
1273.330, 115.9805
1274.402, 105.3594
1275.473, 88.05859
1276.544, 166.4297
1277.615, 69.80859
1278.686, 302.1875
1279.756, 12.38672
1280.827, 2.980469
1281.897, 182.0391
1282.967, 129.2070
1284.037, 4.109375
1285.107, 33.63281
1286.177, 72.01562
1287.247, 286.2461
1288.316, 153.4766
1289.385, 176.3047
1290.454, 146.1875
1291.523, 31.17188
1292.592, 19.18750
1293.661, 161.7617
1294.729, 109.7109
1295.797, 292.6094
1296.866, 275.5469
1297.934, 226.4766
1299.001, 229.7617
1300.069, 97.67969
1301.137, 246.5859
1302.204, 46.48828
1303.271, 325.3828
1304.338, 220.0156
1305.405, 419.8906
1306.472, 412.7617
1307.539, 549.6250
1308.605, 439.4727
1309.671, 319.3203
1310.737, 201.1523
1311.803, 257.6953
1312.869, 492.7930
1313.935, 379.6016
1315.000, 582.4023
1316.066, 588.1953
1317.131, 559.9844
1318.196, 448.7656
1319.261, 530.5391
1320.326, 480.3086
1321.390, 493.0664
1322.455, 495.1992
1323.519, 373.5664
1324.583, 520.3047
1325.647, 394.0352
1326.711, 501.7578
1327.775, 548.4688
1328.838, 497.1797
1329.902, 379.8750
1330.965, 328.5664
1332.028, 428.2461
1333.091, 374.9180
1334.153, 559.5820
1335.216, 381.2305
1336.279, 351.8750
1337.341, 552.5078
1338.403, 547.1328
1339.465, 406.7422
1340.527, 408.3477
1341.588, 580.9414
1342.650, 318.5312
1343.711, 359.1055
1344.772, 450.6680
1345.834, 288.2227
1346.894, 228.7656
1347.955, 274.3008
1349.016, 123.7617
1350.076, 343.2148
1351.136, 376.6328
1352.197, 150.0312
1353.257, 565.4180
1354.316, 416.7695
1355.376, 431.1367
1356.436, 169.4609
1357.495, 216.7734
1358.554, 211.0586
1359.613, 231.4375
1360.672, 287.2500
1361.731, 357.5352
1362.789, 253.7656
1363.848, 291.9844
1364.906, 413.7812
1365.964, 222.9727
1367.022, 327.4414
1368.080, 261.9766
1369.138, 352.1367
1370.195, 288.3008
1371.253, 132.4414
1372.310, 115.9805
1373.367, 186.2148
1374.424, 117.3945
1375.480, 304.3711
1376.537, 140.5820
