##NAMES=Heulandite-Ca
##RRUFFID=R060465
##IDEAL CHEMISTRY=(Ca,Na,K)_5_(Si_27_Al_9_)O_72_&#183;26H_2_O
##LOCALITY=Garrawilla, near Gunnadah, New South Wales, Australia
##OWNER=RRUFF
##SOURCE=Michael Scott
##DESCRIPTION=Orange fan of platy crystals
##STATUS=The identification of this mineral has been confirmed by X-ray diffraction and chemical analysis
##URL=rruff.info/R060465
##MEASURED CHEMISTRY=(Ca_0.66_Na_0.24_K_0.10_)_5_(Si_0.77_Al_0.23_)_36_O_72_Â·24H_2_O
##PIN_ID=M01120
##ORIENTATION=Laser parallel to (1 0 1). Fiducial mark perpendicular to laser is parallel to b [0 1 0]
212.1010, 0.0000000E+00
213.3240, 106.6543
214.5470, 167.0596
215.7700, 59.84766
216.9930, 71.11133
218.2150, 90.02930
219.4380, 140.9873
220.6600, 17.13184
221.8820, 72.31836
223.1040, 108.6650
224.3260, 267.2197
225.5470, 162.2764
226.7680, 192.4951
227.9900, 105.6641
229.2110, 85.68359
230.4310, 109.4600
231.6520, 10.10742
232.8720, 127.1240
234.0930, 0.6982420
235.3130, 25.93262
236.5330, 49.91406
237.7530, 75.28906
238.9720, 72.37598
240.1920, 181.0498
241.4110, 298.5234
242.6300, 236.0010
243.8490, 420.4385
245.0680, 451.7910
246.2860, 540.0195
247.5040, 584.0820
248.7230, 724.9385
249.9410, 696.5342
251.1590, 758.8125
252.3760, 866.7139
253.5940, 865.1973
254.8110, 782.2148
256.0280, 730.7324
257.2450, 731.7236
258.4620, 782.1738
259.6790, 792.6504
260.8950, 747.8271
262.1120, 839.3271
263.3280, 660.7090
264.5440, 561.6123
265.7600, 564.0312
266.9750, 504.9561
268.1910, 413.3672
269.4060, 504.2383
270.6210, 437.5479
271.8360, 505.2725
273.0510, 492.3945
274.2650, 419.8936
275.4800, 562.7549
276.6940, 560.9609
277.9080, 631.4980
279.1220, 603.3516
280.3360, 671.5078
281.5490, 581.9570
282.7630, 725.6855
283.9760, 699.6816
285.1890, 665.8896
286.4020, 841.1621
287.6150, 866.4912
288.8270, 1036.869
290.0400, 988.2764
291.2520, 1165.724
292.4640, 1011.229
293.6760, 1155.801
294.8870, 983.4434
296.0990, 1212.048
297.3100, 1202.727
298.5210, 1142.486
299.7320, 1246.346
300.9430, 1211.845
302.1540, 1263.432
303.3640, 1283.696
304.5750, 1326.145
305.7850, 1465.007
306.9950, 1391.269
308.2050, 1484.941
309.4140, 1687.140
310.6240, 1756.886
311.8330, 1979.158
313.0420, 2204.965
314.2510, 2207.223
315.4600, 2481.870
316.6680, 2545.838
317.8770, 2978.076
319.0850, 3104.523
320.2930, 3383.193
321.5010, 3518.011
322.7090, 3704.896
323.9160, 3826.833
325.1240, 3965.912
326.3310, 4242.830
327.5380, 4244.892
328.7450, 4528.995
329.9520, 4738.143
331.1580, 4582.332
332.3650, 4730.566
333.5710, 4888.842
334.7770, 4882.164
335.9830, 5023.525
337.1880, 5146.931
338.3940, 5127.376
339.5990, 5114.861
340.8040, 5409.388
342.0090, 5430.951
343.2140, 5447.555
344.4190, 5873.192
345.6230, 5900.868
346.8280, 6174.578
348.0320, 6381.322
349.2360, 6499.100
350.4400, 7001.910
351.6430, 7199.752
352.8470, 7470.624
354.0500, 7816.525
355.2530, 8289.455
356.4560, 8704.415
357.6590, 9057.901
358.8620, 9405.328
360.0640, 9845.923
361.2660, 10261.96
362.4680, 10756.03
363.6700, 11209.08
364.8720, 11772.26
366.0740, 12507.97
367.2750, 12660.30
368.4760, 13536.82
369.6770, 13932.03
370.8780, 14461.38
372.0790, 15065.95
373.2800, 15715.74
374.4800, 16418.48
375.6800, 17083.94
376.8800, 18030.08
378.0800, 18845.22
379.2800, 19868.82
380.4790, 20631.95
381.6790, 21854.57
382.8780, 23104.81
384.0770, 24027.37
385.2760, 25287.91
386.4750, 26636.60
387.6730, 28220.42
388.8720, 29601.37
390.0700, 31258.48
391.2680, 32839.75
392.4660, 34370.52
393.6630, 35960.14
394.8610, 37803.11
396.0580, 39583.10
397.2550, 40956.97
398.4520, 42542.04
399.6490, 43181.77
400.8460, 44096.05
402.0420, 44770.47
403.2390, 44624.39
404.4350, 44817.79
405.6310, 44521.79
406.8270, 43418.93
408.0220, 42422.02
409.2180, 41190.82
410.4130, 39711.33
411.6080, 38336.94
412.8030, 36550.27
413.9980, 34583.80
415.1920, 33059.08
416.3870, 30901.48
417.5810, 29159.61
418.7750, 27520.97
419.9690, 25494.27
421.1630, 23995.43
422.3570, 22379.58
423.5500, 20716.95
424.7430, 19203.83
425.9360, 17736.43
427.1290, 16320.12
428.3220, 14832.77
429.5150, 13753.88
430.7070, 12527.80
431.8990, 11318.75
433.0910, 10449.01
434.2830, 9558.639
435.4750, 8812.441
436.6670, 8235.998
437.8580, 7681.724
439.0490, 7203.482
440.2400, 6905.272
441.4310, 6632.092
442.6220, 6342.943
443.8130, 6312.824
445.0030, 6206.734
446.1930, 6173.672
447.3830, 6393.636
448.5730, 6601.627
449.7630, 6783.644
450.9520, 7291.682
452.1420, 7608.741
453.3310, 8064.819
454.5200, 8807.908
455.7090, 9574.013
456.8980, 10189.13
458.0860, 10964.25
459.2740, 11745.38
460.4630, 12804.52
461.6510, 13834.66
462.8380, 14570.80
464.0260, 15404.94
465.2140, 16330.08
466.4010, 16436.22
467.5880, 17154.36
468.7750, 17925.50
469.9620, 18571.64
471.1490, 19043.77
472.3350, 19434.90
473.5220, 20510.03
474.7080, 21434.16
475.8940, 22803.29
477.0800, 24068.40
478.2650, 25131.53
479.4510, 26162.64
480.6360, 27121.74
481.8210, 27813.85
483.0060, 28276.95
484.1910, 27854.04
485.3760, 27805.13
486.5600, 26674.21
487.7440, 25546.29
488.9290, 23404.35
490.1130, 21362.41
491.2960, 19367.47
492.4800, 17144.52
493.6630, 15113.55
494.8470, 13278.58
496.0300, 11446.61
497.2130, 9909.616
498.3960, 8525.752
499.5780, 7264.614
500.7610, 6240.622
501.9430, 5353.643
503.1250, 4557.677
504.3070, 3932.725
505.4890, 3445.789
506.6710, 3015.866
507.8520, 2612.957
509.0330, 2270.068
510.2140, 2074.192
511.3950, 1772.331
512.5760, 1602.482
513.7570, 1364.646
514.9370, 1342.819
516.1170, 1233.001
517.2980, 1068.192
518.4780, 960.3887
519.6570, 827.5972
520.8370, 720.9634
522.0160, 628.1855
523.1960, 554.0625
524.3750, 464.3267
525.5540, 377.6924
526.7320, 314.9819
527.9110, 250.4473
529.0890, 204.8921
530.2680, 218.4492
531.4460, 112.0254
532.6240, 108.6406
533.8010, 25.20557
534.9790, 19.19824
536.1560, 40.31738
537.3340, 33.39062
538.5110, 203.0381
539.6880, 107.0220
540.8650, 130.1118
542.0410, 151.3052
543.2180, 86.19678
544.3940, 234.5732
545.5700, 207.0176
546.7460, 213.7197
547.9220, 260.5762
549.0970, 209.3071
550.2730, 249.5112
551.4480, 210.8628
552.6230, 273.3857
553.7980, 203.0933
554.9730, 187.9551
556.1470, 197.9644
557.3210, 118.1030
558.4960, 191.3491
559.6700, 113.7280
560.8440, 47.21973
562.0170, 122.7905
563.1910, 41.47754
564.3640, 59.24170
565.5380, 18.09131
566.7110, 76.00635
567.8840, 44.00049
569.0560, 5.938965
570.2290, 15.82275
571.4010, 152.6821
572.5740, 155.5273
573.7460, 95.35352
574.9180, 299.1709
576.0890, 286.9678
577.2610, 292.7476
578.4320, 385.5083
579.6040, 474.2783
580.7750, 400.0249
581.9450, 550.7593
583.1160, 733.4697
584.2870, 720.1577
585.4570, 888.8193
586.6270, 860.4644
587.7980, 982.0947
588.9670, 1144.710
590.1370, 1286.301
591.3070, 1461.893
592.4760, 1646.836
593.6450, 1863.957
594.8140, 2075.553
595.9830, 2280.039
597.1520, 2573.530
598.3210, 2793.158
599.4890, 3223.809
600.6570, 3536.583
601.8250, 3974.988
602.9930, 4150.376
604.1610, 4522.749
605.3290, 4644.094
606.4960, 5032.429
607.6630, 5346.752
608.8300, 5500.069
609.9970, 5629.378
611.1640, 5717.657
612.3300, 5617.934
613.4970, 5629.193
614.6630, 5401.464
615.8290, 5247.711
616.9950, 4903.953
618.1610, 4656.177
619.3260, 4286.375
620.4920, 4036.550
621.6570, 3759.694
622.8220, 3384.820
623.9870, 3115.934
625.1520, 2765.045
626.3160, 2610.128
627.4810, 2357.197
628.6450, 2096.230
629.8090, 1986.241
630.9730, 1768.215
632.1370, 1563.168
633.3000, 1466.085
634.4640, 1398.965
635.6270, 1275.828
636.7900, 1154.653
637.9530, 1096.442
639.1160, 972.2139
640.2780, 945.9487
641.4410, 860.6426
642.6030, 867.3081
643.7650, 798.9482
644.9270, 753.5591
646.0890, 821.1289
647.2500, 750.6577
648.4120, 666.1436
649.5730, 583.5874
650.7340, 596.9893
651.8950, 466.3481
653.0560, 547.6650
654.2160, 510.9390
655.3770, 427.1685
656.5370, 455.3545
657.6970, 411.4966
658.8570, 463.5928
660.0170, 375.6426
661.1760, 356.6465
662.3360, 315.6021
663.4950, 444.5083
664.6540, 386.3672
665.8130, 408.1758
666.9720, 366.9360
668.1310, 372.6450
669.2890, 346.3032
670.4470, 341.9912
671.6050, 332.5376
672.7630, 343.9648
673.9210, 335.1421
675.0790, 345.7134
676.2360, 397.2881
677.3930, 370.2534
678.5510, 406.3911
679.7080, 404.3799
680.8640, 398.7461
682.0210, 288.7778
683.1770, 379.6914
684.3340, 343.3779
685.4900, 461.2529
686.6460, 369.8037
687.8020, 255.1743
688.9570, 360.9365
690.1130, 341.0762
691.2680, 417.6475
692.4230, 355.2407
693.5780, 417.8589
694.7330, 367.8213
695.8880, 289.2324
697.0420, 299.0356
698.1960, 276.3433
699.3510, 266.3242
700.5040, 369.3608
701.6580, 255.0669
702.8120, 219.3257
703.9650, 329.6309
705.1190, 313.4180
706.2720, 367.2847
707.4250, 378.2202
708.5780, 263.0752
709.7300, 296.5308
710.8830, 246.2588
712.0350, 309.9893
713.1870, 334.4702
714.3390, 255.6665
715.4910, 293.5698
716.6430, 289.0654
717.7940, 312.1587
718.9460, 302.9624
720.0970, 325.1553
721.2480, 303.3599
722.3990, 310.3550
723.5500, 270.3652
724.7000, 284.3965
725.8500, 292.4170
727.0010, 226.1123
728.1510, 259.7915
729.3010, 212.9185
730.4500, 248.4766
731.6000, 232.6787
732.7490, 204.3115
733.8980, 273.5737
735.0470, 230.4932
736.1960, 196.1045
737.3450, 187.8042
738.4940, 156.0415
739.6420, 282.3857
740.7900, 266.3311
741.9380, 287.0664
743.0860, 292.3530
744.2340, 302.9072
745.3810, 330.1611
746.5290, 320.9600
747.6760, 329.6230
748.8230, 297.3608
749.9700, 495.6533
751.1170, 480.2480
752.2630, 574.3164
753.4100, 531.6787
754.5560, 577.2651
755.7020, 527.6094
756.8480, 534.0742
757.9940, 714.9580
759.1390, 603.1904
760.2850, 734.7227
761.4300, 753.8008
762.5750, 769.6182
763.7200, 748.0234
764.8650, 793.2422
766.0100, 859.1172
767.1540, 853.3169
768.2980, 791.9082
769.4420, 947.8623
770.5860, 1064.145
771.7300, 1098.705
772.8740, 983.2495
774.0170, 1093.583
775.1610, 978.9233
776.3040, 1109.898
777.4470, 1033.035
778.5900, 1063.799
779.7320, 1158.654
780.8750, 1123.483
782.0170, 1026.471
783.1590, 1205.985
784.3010, 1043.458
785.4430, 998.8394
786.5850, 1006.238
787.7260, 987.5757
788.8680, 942.0884
790.0090, 884.2529
791.1500, 835.6099
792.2910, 739.6548
793.4310, 643.8770
794.5720, 629.8164
795.7120, 666.5942
796.8520, 643.3584
797.9920, 580.8267
799.1320, 535.5850
800.2720, 475.9204
801.4120, 444.3179
802.5510, 516.4951
803.6900, 440.6104
804.8290, 353.4907
805.9680, 452.3857
807.1070, 303.0620
808.2450, 306.6611
809.3840, 423.1616
810.5220, 274.6523
811.6600, 385.0488
812.7980, 320.4512
813.9360, 363.0137
815.0730, 352.4355
816.2110, 344.0669
817.3480, 357.7017
818.4850, 268.3296
819.6220, 275.5400
820.7590, 215.1338
821.8960, 363.6523
823.0320, 244.2964
824.1680, 264.9561
825.3040, 187.3398
826.4400, 177.0430
827.5760, 142.7710
828.7120, 15.51221
829.8470, 186.2729
830.9830, 69.04834
832.1180, 58.17090
833.2530, 16.57227
834.3880, 37.70410
835.5220, 108.9912
836.6570, 112.6772
837.7910, 35.33545
838.9250, 97.98193
840.0590, 54.59961
841.1930, 55.19092
842.3270, 38.25391
843.4600, 24.75488
844.5940, 77.68652
845.7270, 71.91211
846.8600, 9.606934
847.9930, 5.620117
849.1250, 43.22217
850.2580, 33.84277
851.3900, 6.846680
852.5230, 14.78076
853.6550, 93.35010
854.7870, 56.39746
855.9180, 16.91357
857.0500, 50.69482
858.1810, 27.24512
859.3130, 79.73486
860.4440, 1.830566
861.5750, 18.46777
862.7050, 14.18604
863.8360, 30.01807
864.9660, 111.1636
866.0970, 14.77246
867.2270, 71.24219
868.3570, 33.79736
869.4870, 2.985840
870.6160, 72.20801
871.7460, 20.51660
872.8750, 7.059082
874.0040, 16.71484
875.1330, 3.588379
876.2620, 30.18262
877.3910, 27.93408
878.5190, 11.38232
879.6470, 51.43555
880.7760, 47.34521
881.9040, 81.34521
883.0310, 64.45215
884.1590, 25.34277
885.2870, 92.91602
886.4140, 35.28711
887.5410, 139.7397
888.6680, 18.32715
889.7950, 86.98682
890.9220, 36.75293
892.0480, 8.222656
893.1750, 32.28027
894.3010, 19.50342
895.4270, 45.53516
896.5530, 71.65576
897.6790, 100.8721
898.8040, 16.19824
899.9300, 62.59033
901.0550, 14.92920
902.1800, 33.60010
903.3050, 41.79736
904.4300, 48.85205
905.5540, 86.41943
906.6790, 11.64648
907.8030, 63.17480
908.9270, 29.91943
910.0510, 12.96729
911.1750, 75.03027
912.2990, 31.88281
913.4220, 105.7510
914.5450, 30.42285
915.6690, 47.65967
916.7920, 35.96777
917.9140, 104.6592
919.0370, 99.24658
920.1600, 105.7930
921.2820, 86.29980
922.4040, 85.76660
923.5260, 84.19385
924.6480, 40.58105
925.7700, 34.92871
926.8910, 94.23584
928.0130, 36.50488
929.1340, 88.73486
930.2550, 111.9268
931.3760, 100.0825
932.4970, 59.20312
933.6170, 88.28662
934.7380, 64.33496
935.8580, 126.3491
936.9780, 139.3296
938.0980, 159.2778
939.2180, 184.1943
940.3370, 143.0806
941.4570, 175.9365
942.5760, 220.7036
943.6950, 163.4614
944.8140, 203.2310
945.9330, 272.8047
947.0520, 283.5176
948.1700, 280.2031
949.2890, 258.8599
950.4070, 295.4888
951.5250, 276.0889
952.6430, 348.6606
953.7600, 274.0391
954.8780, 290.4248
955.9950, 366.5337
957.1120, 268.9941
958.2290, 441.1758
959.3460, 418.4180
960.4630, 384.3120
961.5800, 598.1372
962.6960, 430.7930
963.8120, 559.3452
964.9280, 531.1309
966.0440, 565.3784
967.1600, 679.4058
968.2760, 628.9146
969.3910, 624.1875
970.5060, 721.5259
971.6210, 653.8638
972.7360, 739.6621
973.8510, 761.8882
974.9660, 712.8315
976.0800, 735.7559
977.1950, 748.8691
978.3090, 785.8140
979.4230, 833.8604
980.5370, 773.8052
981.6500, 893.6631
982.7640, 819.4688
983.8770, 886.1958
984.9900, 865.8301
986.1030, 813.7031
987.2160, 971.9346
988.3290, 994.5322
989.4420, 900.3716
990.5540, 1067.782
991.6660, 1059.582
992.7780, 1093.118
993.8900, 1108.092
995.0020, 1073.486
996.1140, 1131.851
997.2250, 1025.497
998.3360, 1145.112
999.4470, 1160.221
1000.558, 1103.840
1001.669, 1221.762
1002.780, 1355.211
1003.890, 1232.989
1005.001, 1267.051
1006.111, 1240.380
1007.221, 1298.562
1008.331, 1262.148
1009.440, 1325.571
1010.550, 1336.337
1011.659, 1321.258
1012.768, 1397.571
1013.877, 1427.047
1014.986, 1411.797
1016.095, 1515.439
1017.204, 1469.167
1018.312, 1455.767
1019.420, 1484.757
1020.528, 1495.392
1021.636, 1513.499
1022.744, 1508.257
1023.852, 1542.821
1024.959, 1468.411
1026.066, 1574.909
1027.173, 1576.935
1028.280, 1517.560
1029.387, 1433.833
1030.494, 1482.509
1031.600, 1540.396
1032.707, 1499.641
1033.813, 1581.023
1034.919, 1539.697
1036.025, 1590.997
1037.130, 1512.855
1038.236, 1507.300
1039.341, 1429.367
1040.446, 1368.106
1041.552, 1466.812
1042.656, 1657.682
1043.761, 1666.494
1044.866, 1601.625
1045.970, 1560.545
1047.074, 1569.790
1048.179, 1541.896
1049.282, 1522.980
1050.386, 1549.860
1051.490, 1519.167
1052.593, 1529.467
1053.697, 1454.813
1054.800, 1478.783
1055.903, 1487.180
1057.006, 1518.704
1058.108, 1536.850
1059.211, 1608.992
1060.313, 1628.401
1061.415, 1664.589
1062.517, 1639.015
1063.619, 1765.559
1064.721, 1646.073
1065.823, 1660.438
1066.924, 1749.564
1068.025, 1731.746
1069.126, 1877.079
1070.227, 1853.863
1071.328, 1825.753
1072.429, 1924.656
1073.529, 1989.522
1074.629, 2001.450
1075.729, 2052.389
1076.829, 2121.341
1077.929, 2027.306
1079.029, 2366.283
1080.128, 2425.274
1081.228, 2404.278
1082.327, 2621.295
1083.426, 2639.326
1084.525, 2742.370
1085.623, 2691.428
1086.722, 2931.500
1087.820, 3042.587
1088.919, 3082.689
1090.017, 3068.807
1091.115, 3143.939
1092.212, 3214.088
1093.310, 3354.253
1094.407, 3311.436
1095.505, 3412.636
1096.602, 3673.861
1097.699, 3589.850
1098.795, 3641.112
1099.892, 3778.421
1100.989, 3806.006
1102.085, 3913.374
1103.181, 3943.666
1104.277, 3995.074
1105.373, 4088.528
1106.469, 4117.388
1107.564, 4207.448
1108.660, 4234.456
1109.755, 4286.317
1110.850, 4372.987
1111.945, 4383.576
1113.040, 4593.178
1114.134, 4563.689
1115.229, 4777.047
1116.323, 4939.706
1117.417, 4913.791
1118.511, 5087.175
1119.605, 5207.351
1120.698, 5408.998
1121.792, 5531.292
1122.885, 5460.066
1123.978, 5499.153
1125.071, 5266.141
1126.164, 5409.552
1127.257, 5233.557
1128.349, 5225.988
1129.442, 5186.605
1130.534, 5126.708
1131.626, 5144.408
1132.718, 5171.894
1133.810, 5164.382
1134.901, 5225.133
1135.993, 5235.366
1137.084, 5089.979
1138.175, 5270.292
1139.266, 5135.640
1140.357, 5218.020
1141.448, 5160.689
1142.538, 5121.142
1143.628, 5139.644
1144.719, 5168.177
1145.809, 5054.768
1146.898, 5159.018
1147.988, 5016.232
1149.078, 4954.165
1150.167, 5047.908
1151.256, 4920.700
1152.345, 4744.542
1153.434, 4786.450
1154.523, 4764.423
1155.612, 4770.445
1156.700, 4644.504
1157.788, 4636.590
1158.877, 4546.707
1159.964, 4449.844
1161.052, 4398.017
1162.140, 4223.248
1163.227, 4166.530
1164.315, 4134.844
1165.402, 4041.198
1166.489, 4032.573
1167.576, 3984.979
1168.663, 3903.403
1169.749, 3720.876
1170.836, 3762.369
1171.922, 3627.882
1173.008, 3449.439
1174.094, 3396.016
1175.180, 3266.611
1176.265, 3120.246
1177.351, 3104.898
1178.436, 3072.568
1179.521, 3228.263
1180.606, 2998.737
1181.691, 3070.745
1182.776, 2608.515
1183.860, 2624.299
1184.944, 2427.099
1186.029, 2335.914
1187.113, 2222.746
1188.197, 2114.591
1189.280, 2084.454
1190.364, 1895.332
1191.447, 1744.224
1192.531, 1836.131
1193.614, 1642.055
1194.697, 1429.992
1195.779, 1586.943
1196.862, 1316.908
1197.945, 1232.887
1199.027, 1271.879
1200.109, 1074.884
1201.191, 998.9009
1202.273, 984.9297
1203.355, 826.9702
1204.436, 858.0239
1205.518, 779.0898
1206.599, 706.1660
1207.680, 657.2539
1208.761, 522.3525
1209.842, 464.4629
1210.922, 432.5850
1212.003, 358.9429
1213.083, 392.8623
1214.163, 304.0166
1215.243, 305.1821
1216.323, 336.3584
1217.402, 264.5439
1218.482, 282.7407
1219.561, 241.8569
1220.641, 262.1641
1221.720, 149.3896
1222.798, 132.6250
1223.877, 52.87012
1224.956, 91.12354
1226.034, 65.38721
1227.112, 27.34033
1228.191, 42.93213
1229.269, 4.643555
1230.346, 10.81006
1231.424, 55.79395
1232.501, 50.90674
1233.579, 46.38232
1234.656, 1.684082
1235.733, 52.99023
1236.810, 8.303711
1237.886, 94.37695
1238.963, 34.08887
1240.039, 1.807129
1241.116, 19.47949
1242.192, 98.22900
1243.268, 41.97852
1244.343, 15.74072
1245.419, 110.5078
1246.494, 29.29199
1247.570, 53.11621
1248.645, 98.72266
1249.720, 54.61230
1250.795, 81.52490
1251.869, 71.27393
1252.944, 1.262695
1254.018, 55.45361
1255.093, 110.2178
1256.167, 70.21680
1257.240, 59.13135
1258.314, 43.97607
1259.388, 14.87939
1260.461, 45.73584
1261.535, 12.40576
1262.608, 54.48047
1263.681, 57.66260
1264.753, 48.35645
1265.826, 52.74756
1266.899, 14.97705
1267.971, 52.50830
1269.043, 33.56250
1270.115, 5.983398
1271.187, 86.03906
1272.259, 79.19336
1273.330, 37.92090
1274.402, 31.11377
1275.473, 13.66992
1276.544, 6.391602
1277.615, 14.74463
1278.686, 88.31543
1279.756, 59.05225
1280.827, 49.25000
1281.897, 45.41016
1282.967, 88.71777
1284.037, 203.7026
1285.107, 169.5991
1286.177, 219.6914
1287.247, 218.8613
1288.316, 227.2891
1289.385, 255.1577
1290.454, 276.0767
1291.523, 244.5269
1292.592, 307.9927
1293.661, 268.4756
1294.729, 338.2515
1295.797, 343.8179
1296.866, 357.0762
1297.934, 382.7324
1299.001, 376.8623
1300.069, 351.7808
1301.137, 308.8540
1302.204, 335.8066
1303.271, 387.6025
1304.338, 367.1880
1305.405, 483.7920
1306.472, 574.4268
1307.539, 436.0508
1308.605, 439.6016
1309.671, 538.0532
1310.737, 365.4546
1311.803, 512.9248
1312.869, 589.3457
1313.935, 580.8652
1315.000, 575.2197
1316.066, 562.8330
1317.131, 569.9160
1318.196, 571.4067
1319.261, 608.9375
1320.326, 601.3608
1321.390, 673.1938
1322.455, 722.4878
1323.519, 609.7729
1324.583, 588.0483
1325.647, 683.3135
1326.711, 609.5684
1327.775, 596.8140
1328.838, 669.0640
1329.902, 626.2881
1330.965, 608.7017
1332.028, 517.1621
1333.091, 686.4717
1334.153, 565.6499
1335.216, 586.8164
1336.279, 496.1011
1337.341, 512.4102
1338.403, 488.7764
1339.465, 464.0713
1340.527, 561.3110
1341.588, 430.6626
1342.650, 478.7417
1343.711, 462.9453
1344.772, 398.9980
1345.834, 439.4966
1346.894, 487.5205
1347.955, 424.5938
1349.016, 390.5835
1350.076, 472.7505
1351.136, 379.8379
1352.197, 467.8774
1353.257, 371.9927
1354.316, 359.9790
1355.376, 344.3408
1356.436, 308.1807
1357.495, 353.9629
1358.554, 303.8252
1359.613, 230.5928
1360.672, 275.6284
1361.731, 303.8413
1362.789, 258.4263
1363.848, 330.0806
1364.906, 196.8965
1365.964, 223.7881
1367.022, 214.5137
1368.080, 185.3857
1369.138, 187.0039
1370.195, 172.5918
1371.253, 196.1270
1372.310, 202.8237
1373.367, 140.3774
