##NAMES=Heulandite-Ca
##RRUFFID=R040021
##IDEAL CHEMISTRY=(Ca,Na,K)_5_(Si_27_Al_9_)O_72_&#183;26H_2_O
##LOCALITY=Prospect Park, Patterson, Passaic County, New Jersey, USA
##OWNER=RRUFF
##SOURCE=University of Arizona Mineral Museum
##DESCRIPTION=Group of colorless lamellar crystals
##STATUS=The identification of this mineral has been confirmed by X-ray diffraction and chemical analysis
##URL=rruff.info/R040021
##MEASURED CHEMISTRY=Na_0.25_(Na_0.55_K_0.45_)_Σ=1_(Ca_2.42_Na_0.85_Sr_0.73_)_Σ=4.00_(Si_27.60_Al_8.40_)_Σ=36_O_72_·24H_2_O ; H_2_O estimated by difference
##PIN_ID=l00406
##ORIENTATION=Laser parallel to -b* (0 -1 0). Fiducial mark perpendicular to laser is parallel to c [0 0 1]
91.981, 0.000
93.375, 31.176
94.768, 182.617
96.161, 401.951
97.554, 498.365
98.947, 901.150
100.340, 903.738
101.732, 1313.281
103.124, 1434.609
104.516, 1847.842
105.908, 2207.533
107.300, 2125.645
108.691, 2732.562
110.082, 2874.521
111.473, 3282.230
112.864, 4053.922
114.254, 4904.244
115.644, 6960.168
117.034, 8415.113
118.424, 7861.832
119.813, 8302.125
121.203, 8110.141
122.592, 7998.488
123.981, 8670.988
125.369, 9092.152
126.758, 10081.875
128.146, 10635.887
129.534, 12381.043
130.922, 12822.234
132.309, 14146.395
133.696, 14893.463
135.083, 16868.439
136.470, 17213.369
137.857, 19162.314
139.243, 19744.471
140.630, 20896.145
142.016, 21118.469
143.401, 21610.912
144.787, 21677.766
146.172, 21594.295
147.557, 20738.408
148.942, 19833.006
150.327, 19204.482
151.711, 17939.309
153.096, 17193.334
154.480, 15823.137
155.863, 14497.164
157.247, 13540.340
158.630, 12385.340
160.013, 11646.328
161.396, 10513.639
162.779, 9633.340
164.161, 8593.498
165.544, 7888.178
166.926, 7046.439
168.308, 6206.346
169.689, 5383.961
171.070, 5064.336
172.452, 4399.531
173.833, 3845.586
175.213, 3267.635
176.594, 2765.938
177.974, 2328.914
179.354, 1854.451
180.734, 1457.598
182.114, 1114.895
183.493, 706.346
184.872, 490.717
186.251, 172.650
187.630, 138.055
189.008, 216.740
190.387, 286.047
191.765, 337.836
193.143, 238.490
194.520, 227.777
195.898, 124.021
197.275, 142.529
198.652, 40.955
200.029, 78.750
201.405, 158.947
202.782, 125.199
204.158, 247.273
205.534, 346.848
206.909, 148.373
208.285, 189.148
209.660, 403.943
211.035, 49.857
212.410, 314.898
213.784, 193.502
215.159, 316.760
216.533, 443.209
217.907, 336.559
219.281, 398.805
220.654, 638.941
222.027, 801.965
223.400, 914.816
224.773, 1040.369
226.146, 1198.557
227.518, 1504.340
228.891, 1622.725
230.263, 1851.795
231.634, 2304.549
233.006, 2559.973
234.377, 2839.066
235.748, 3349.824
237.119, 3522.287
238.490, 4288.477
239.860, 4358.426
241.231, 4844.164
242.601, 5051.711
243.970, 5233.080
245.340, 5750.281
246.709, 5547.328
248.079, 6051.223
249.448, 5802.967
250.816, 6524.551
252.185, 6081.975
253.553, 5747.188
254.921, 5712.219
256.289, 5425.059
257.657, 5444.635
259.024, 5174.361
260.391, 4927.598
261.758, 4712.445
263.125, 4459.457
264.492, 4250.328
265.858, 3854.840
267.224, 3624.707
268.590, 3303.703
269.956, 3041.754
271.321, 2632.506
272.687, 2313.346
274.052, 1879.213
275.416, 1614.545
276.781, 1375.837
278.146, 1066.526
279.510, 927.088
280.874, 648.505
282.237, 596.742
283.601, 357.164
284.964, 65.539
286.327, 26.206
287.690, 192.264
289.053, 357.773
290.416, 218.780
291.778, 451.250
293.140, 348.242
294.502, 542.729
295.863, 481.758
297.225, 500.312
298.586, 463.393
299.947, 429.988
301.308, 498.088
302.668, 243.706
304.029, 329.773
305.389, 239.417
306.749, 356.793
308.108, 45.959
309.468, 141.884
310.827, 72.510
312.186, 53.771
313.545, 153.382
314.903, 191.951
316.262, 173.938
317.620, 441.396
318.978, 455.403
320.336, 693.970
321.693, 670.159
323.051, 923.001
324.408, 899.528
325.765, 1254.745
327.121, 1249.666
328.478, 1392.299
329.834, 1399.651
331.190, 1733.728
332.546, 1640.541
333.902, 1921.093
335.257, 1925.393
336.612, 2162.445
337.967, 2214.258
339.322, 2387.840
340.677, 2442.191
342.031, 2636.313
343.385, 2682.211
344.739, 2945.905
346.093, 3115.432
347.446, 3478.770
348.799, 3647.942
350.153, 4073.896
351.505, 4173.736
352.858, 4581.226
354.210, 4971.316
355.563, 5086.124
356.915, 5769.708
358.267, 6050.350
359.618, 6353.689
360.969, 6954.388
362.321, 7545.202
363.672, 8018.354
365.022, 8851.163
366.373, 9337.163
367.723, 10437.337
369.073, 11252.193
370.423, 11959.942
371.773, 12450.833
373.122, 12706.785
374.471, 13627.010
375.821, 13597.922
377.169, 15004.722
378.518, 15219.101
379.866, 16230.006
381.215, 17696.740
382.563, 18551.240
383.910, 19459.457
385.258, 20793.961
386.605, 22381.252
387.952, 22919.062
389.299, 24940.225
390.646, 25538.258
391.992, 26977.455
393.339, 28673.576
394.685, 29860.010
396.031, 31754.680
397.376, 32125.697
398.722, 33533.867
400.067, 33637.633
401.412, 33992.938
402.757, 34487.199
404.101, 33635.188
405.446, 32151.344
406.790, 31466.355
408.134, 30109.613
409.478, 28953.389
410.821, 27360.256
412.165, 25166.779
413.508, 24350.990
414.851, 22650.352
416.193, 20773.137
417.536, 19572.475
418.878, 18026.873
420.220, 16364.168
421.562, 14883.489
422.904, 13788.836
424.245, 12701.239
425.586, 11472.441
426.927, 10637.439
428.268, 9268.228
429.609, 8376.802
430.949, 7680.164
432.289, 7112.309
433.629, 6416.240
434.969, 5884.951
436.309, 5477.445
437.648, 4958.181
438.987, 4677.271
440.326, 4242.232
441.665, 4038.317
443.003, 3953.525
444.342, 3684.950
445.680, 3625.177
447.018, 3542.311
448.355, 3249.348
449.693, 3330.400
451.030, 3331.513
452.367, 3596.805
453.704, 3431.971
455.041, 3713.076
456.377, 3803.461
457.713, 4285.168
459.049, 4471.221
460.385, 4935.105
461.721, 5415.617
463.056, 5643.396
464.391, 6086.688
465.726, 6756.141
467.061, 7210.836
468.395, 7602.761
469.730, 8706.810
471.064, 9357.473
472.398, 10766.133
473.731, 11797.627
475.065, 13709.074
476.398, 15633.704
477.731, 17894.348
479.064, 19643.246
480.397, 21622.176
481.729, 23311.422
483.062, 23828.146
484.394, 24001.078
485.725, 23256.619
487.057, 22156.156
488.389, 20602.498
489.720, 18524.275
491.051, 16452.916
492.382, 14526.794
493.712, 12603.123
495.043, 10675.465
496.373, 9116.712
497.703, 7711.721
499.032, 6709.359
500.362, 5614.818
501.691, 4812.992
503.020, 3905.031
504.349, 3574.651
505.678, 3007.615
507.007, 2776.348
508.335, 2462.345
509.663, 1993.613
510.991, 2028.959
512.319, 1597.609
513.646, 1573.248
514.973, 1391.612
516.300, 1313.026
517.627, 1276.086
518.954, 1152.374
520.280, 1110.838
521.607, 1011.123
522.933, 969.316
524.259, 917.501
525.584, 803.887
526.910, 947.170
528.235, 854.442
529.560, 941.186
530.885, 775.711
532.209, 725.239
533.534, 967.386
534.858, 679.926
536.182, 806.652
537.506, 712.039
538.829, 787.143
540.152, 562.296
541.476, 692.824
542.799, 541.798
544.121, 588.515
545.444, 466.127
546.766, 421.086
548.088, 394.355
549.410, 383.524
550.732, 308.984
552.053, 287.811
553.375, 174.678
554.696, 108.549
556.017, 46.294
557.337, 9.821
558.658, 34.181
559.978, 13.195
561.298, 52.005
562.618, 64.098
563.938, 23.086
565.257, 178.965
566.576, 38.251
567.895, 640.407
569.214, 890.984
570.533, 387.488
571.851, 185.906
573.170, 354.230
574.488, 216.468
575.805, 285.615
577.123, 234.676
578.440, 454.649
579.758, 639.541
581.075, 581.373
582.391, 963.133
583.708, 1016.823
585.024, 1205.448
586.341, 1333.009
587.657, 1473.283
588.972, 1879.937
590.288, 1814.305
591.603, 2040.608
592.918, 2276.853
594.233, 2697.036
595.548, 3002.160
596.863, 3194.228
598.177, 3605.240
599.491, 4020.206
600.805, 4217.130
602.119, 4515.019
603.432, 4821.877
604.746, 5066.715
606.059, 5158.628
607.372, 4992.587
608.685, 5169.670
609.997, 4868.934
611.309, 4750.306
612.621, 4576.858
613.933, 4550.600
615.245, 4393.582
616.557, 4205.771
617.868, 3952.203
619.179, 3878.854
620.490, 3468.710
621.801, 3583.781
623.111, 3353.006
624.421, 3360.396
625.731, 2868.970
627.041, 2886.752
628.351, 2350.619
629.660, 1950.619
630.970, 1835.728
632.279, 1466.957
633.588, 1198.241
634.896, 1077.569
636.205, 954.948
637.513, 913.300
638.821, 906.710
640.129, 928.100
641.437, 872.483
642.744, 832.854
644.051, 972.215
645.358, 959.554
646.665, 859.869
647.972, 802.164
649.278, 739.436
650.584, 562.682
651.890, 524.940
653.196, 493.088
654.502, 405.246
655.807, 223.369
657.113, 234.451
658.418, 271.491
659.722, 33.493
661.027, 96.553
662.331, 237.684
663.636, 155.971
664.940, 273.371
666.244, 151.948
667.547, 218.635
668.851, 67.467
670.154, 226.371
671.457, 175.424
672.760, 67.599
674.062, 60.846
675.365, 85.158
676.667, 139.550
677.969, 143.044
679.271, 110.800
680.572, 112.130
681.874, 20.886
683.175, 26.911
684.476, 9.862
685.777, 112.229
687.077, 40.053
688.378, 125.937
689.678, 194.705
690.978, 88.479
692.278, 74.964
693.577, 324.071
694.877, 131.707
696.176, 337.647
697.475, 226.646
698.774, 338.186
700.072, 376.092
701.371, 377.194
702.669, 269.786
703.967, 450.187
705.265, 619.479
706.562, 529.730
707.860, 343.673
709.157, 572.529
710.454, 372.918
711.751, 590.913
713.047, 479.413
714.344, 607.607
715.640, 316.060
716.936, 459.819
718.232, 613.472
719.527, 609.321
720.823, 687.806
722.118, 659.723
723.413, 498.800
724.708, 570.214
726.002, 711.453
727.297, 443.418
728.591, 604.082
729.885, 761.750
731.179, 590.774
732.472, 503.347
733.766, 613.891
735.059, 473.720
736.352, 614.164
737.645, 558.931
738.937, 737.166
740.230, 549.536
741.522, 612.735
742.814, 594.150
744.106, 755.660
745.397, 690.598
746.689, 748.559
747.980, 844.992
749.271, 895.059
750.562, 1081.381
751.853, 864.925
753.143, 1177.587
754.433, 1131.334
755.723, 1156.920
757.013, 1515.482
758.303, 1419.177
759.592, 1787.328
760.881, 1778.251
762.170, 2053.177
763.459, 2233.879
764.748, 2238.803
766.036, 2711.432
767.325, 2769.770
768.613, 3223.029
769.901, 3436.259
771.188, 3497.886
772.476, 4001.005
773.763, 3902.839
775.050, 4396.889
776.337, 4364.246
777.624, 4596.463
778.910, 4763.779
780.196, 4899.717
781.482, 4704.890
782.768, 4718.942
784.054, 4615.559
785.339, 4495.908
786.625, 4267.473
787.910, 4224.748
789.195, 3882.339
790.479, 3687.304
791.764, 3697.225
793.048, 3461.001
794.332, 3274.141
795.616, 3175.806
796.900, 3048.348
798.183, 2768.008
799.467, 2852.252
800.750, 2623.300
802.033, 2683.848
803.316, 2843.120
804.598, 2724.162
805.880, 2763.207
807.163, 2825.416
808.445, 3017.285
809.726, 3195.818
811.008, 3496.737
812.289, 3374.412
813.570, 3665.108
814.851, 3782.635
816.132, 3626.444
817.413, 3575.732
818.693, 3642.094
819.973, 3369.036
821.253, 3030.553
822.533, 2939.841
823.813, 2570.681
825.092, 2238.402
826.371, 2049.283
827.650, 1813.017
828.929, 1668.001
830.208, 1527.866
831.486, 1274.830
832.764, 1161.559
834.042, 1057.064
835.320, 1000.477
836.598, 1010.582
837.875, 824.694
839.152, 913.719
840.429, 867.167
841.706, 682.745
842.983, 669.225
844.259, 773.980
845.536, 754.276
846.812, 776.285
848.088, 762.454
849.363, 729.987
850.639, 715.280
851.914, 647.101
853.189, 684.377
854.464, 783.803
855.739, 914.224
857.013, 880.189
858.288, 919.729
859.562, 1070.255
860.836, 1046.765
862.110, 876.014
863.383, 940.495
864.656, 534.857
865.930, 640.316
867.203, 464.767
868.475, 467.211
869.748, 281.344
871.020, 288.776
872.292, 251.200
873.564, 262.612
874.836, 158.018
876.108, 293.405
877.379, 298.794
878.650, 251.159
879.922, 123.500
881.192, 234.820
882.463, 165.125
883.733, 183.410
885.004, 123.677
886.274, 81.924
887.544, 236.149
888.813, 19.646
890.083, 143.509
891.352, 206.639
892.621, 169.742
893.890, 206.818
895.159, 150.868
896.427, 123.891
897.695, 259.884
898.964, 246.854
900.232, 129.798
901.499, 213.715
902.767, 148.605
904.034, 91.468
905.301, 59.302
906.568, 35.545
907.835, 69.876
909.102, 71.616
910.368, 36.326
911.634, 162.008
912.900, 39.312
914.166, 208.305
915.432, 86.102
916.697, 121.594
917.962, 28.813
919.227, 11.811
920.492, 143.482
921.757, 143.271
923.021, 53.174
924.285, 174.144
925.550, 122.241
926.813, 78.413
928.077, 50.653
929.341, 65.959
930.604, 16.308
931.867, 158.679
933.130, 147.166
934.393, 74.230
935.655, 59.386
936.918, 21.070
938.180, 92.805
939.442, 21.626
940.703, 8.504
941.965, 37.597
943.226, 38.022
944.488, 62.441
945.749, 14.713
947.009, 68.692
948.270, 87.646
949.530, 49.576
950.791, 138.478
952.051, 175.357
953.311, 45.217
954.570, 101.051
955.830, 145.859
957.089, 134.648
958.348, 85.415
959.607, 146.157
960.866, 130.879
962.124, 87.583
963.383, 149.271
964.641, 172.945
965.899, 225.605
967.156, 200.258
968.414, 230.919
969.671, 269.625
970.928, 253.356
972.185, 352.143
973.442, 271.951
974.699, 335.340
975.955, 404.652
977.211, 372.548
978.468, 491.472
979.723, 464.399
980.979, 481.330
982.234, 748.268
983.490, 474.226
984.745, 901.205
986.000, 869.197
987.254, 806.205
988.509, 1003.204
989.763, 1026.200
991.017, 1089.189
992.271, 1102.169
993.525, 1230.910
994.779, 1000.372
996.032, 1412.579
997.285, 1668.744
998.538, 1777.271
999.791, 1295.923
1001.044, 1576.255
1002.296, 1551.262
1003.548, 1513.747
1004.800, 1901.190
1006.052, 1505.517
1007.304, 1844.510
1008.555, 1882.381
1009.807, 1990.237
1011.058, 2000.078
1012.309, 1983.905
1013.559, 2049.719
1014.810, 2032.516
1016.060, 2267.301
1017.310, 2326.071
1018.560, 2133.826
1019.810, 2512.567
1021.060, 2746.296
1022.309, 2578.009
1023.558, 2781.641
1024.807, 2904.308
1026.056, 2631.525
1027.305, 2553.182
1028.553, 2711.824
1029.801, 2615.396
1031.049, 2427.422
1032.297, 2526.902
1033.545, 2607.078
1034.793, 2572.318
1036.040, 2612.139
1037.287, 2617.094
1038.534, 2499.522
1039.781, 2714.105
1041.027, 2496.131
1042.274, 2579.409
1043.520, 2579.521
1044.766, 2493.796
1046.012, 2537.837
1047.257, 2464.804
1048.503, 2673.315
1049.748, 2547.773
1050.993, 2767.731
1052.238, 2600.043
1053.483, 2509.073
1054.727, 2567.866
1055.971, 2649.521
1057.216, 2479.077
1058.459, 2625.775
1059.703, 2571.473
1060.947, 2606.344
1062.190, 2648.965
1063.433, 2542.414
1064.676, 2660.975
1065.919, 2545.572
1067.162, 2845.615
1068.404, 2559.241
1069.646, 2756.335
1070.888, 2862.139
1072.130, 2813.121
1073.372, 3021.004
1074.613, 3071.587
1075.855, 3047.953
1077.096, 3233.451
1078.337, 3489.513
1079.578, 3616.062
1080.818, 3828.381
1082.059, 3907.160
1083.299, 3958.724
1084.539, 4028.883
1085.779, 4004.442
1087.018, 4155.714
1088.258, 4228.969
1089.497, 4148.700
1090.736, 4159.612
1091.975, 4407.110
1093.213, 4325.611
1094.452, 4560.416
1095.690, 4359.617
1096.928, 4565.621
1098.166, 4514.336
1099.404, 4613.891
1100.642, 4609.820
1101.879, 4704.307
1103.116, 4564.848
1104.353, 4750.621
1105.590, 4550.740
1106.827, 4792.655
1108.063, 4557.441
1109.299, 4604.656
1110.536, 4656.142
1111.771, 4383.432
1113.007, 4524.783
1114.243, 4429.488
1115.478, 4252.172
1116.713, 4278.756
1117.948, 4229.066
1119.183, 4442.696
1120.418, 4290.896
1121.652, 4638.091
1122.886, 4765.278
1124.120, 4726.567
1125.354, 4309.744
1126.588, 4222.910
1127.821, 3929.065
1129.055, 4076.214
1130.288, 4133.354
1131.521, 3844.515
1132.753, 3804.631
1133.986, 3904.735
1135.218, 3902.938
1136.450, 3478.110
1137.682, 3639.410
1138.914, 3430.465
1140.146, 3530.015
1141.377, 3315.369
1142.609, 3382.845
1143.840, 3458.500
1145.071, 3383.715
1146.301, 3308.302
1147.532, 3139.312
1148.762, 3079.322
1149.992, 3028.332
1151.222, 3064.452
1152.452, 2964.537
1153.682, 2755.547
1154.911, 2969.559
1156.140, 2731.662
1157.369, 2631.674
1158.598, 2694.729
1159.827, 2565.891
1161.055, 2469.906
1162.284, 2401.922
1163.512, 2402.075
1164.740, 2292.095
1165.967, 2095.114
1167.195, 2180.137
1168.422, 2063.160
1169.650, 2084.186
1170.877, 1824.211
1172.103, 1870.237
1173.330, 1850.266
1174.557, 1784.296
1175.783, 1803.326
1177.009, 1501.324
1178.235, 1581.320
1179.461, 1414.312
1180.686, 1232.304
1181.912, 1284.293
1183.137, 1314.235
1184.362, 962.808
1185.587, 1039.650
1186.811, 884.650
1188.036, 917.965
1189.260, 836.063
1190.484, 691.207
1191.708, 773.832
1192.932, 597.026
1194.155, 611.220
1195.378, 423.033
1196.602, 534.840
1197.825, 325.646
1199.047, 446.473
1200.270, 456.837
1201.492, 503.583
1202.715, 456.416
1203.937, 486.280
1205.159, 239.868
1206.380, 273.396
1207.602, 40.585
1208.823, 97.043
1210.044, 77.877
1211.265, 45.376
1212.486, 84.414
1213.707, 14.544
1214.927, 87.860
1216.147, 40.394
1217.367, 148.622
1218.587, 88.872
1219.807, 10.753
1221.027, 8.084
1222.246, 118.688
1223.465, 44.736
1224.684, 5.229
1225.903, 112.098
1227.121, 110.127
1228.340, 14.037
1229.558, 206.998
1230.776, 55.967
1231.994, 17.048
1233.212, 161.082
1234.429, 86.137
1235.646, 32.205
1236.864, 196.274
1238.081, 174.348
1239.297, 168.397
1240.514, 100.396
1241.730, 162.197
1242.947, 60.997
1244.163, 163.744
1245.378, 189.432
1246.594, 295.048
1247.810, 56.610
1249.025, 226.140
1250.240, 172.622
1251.455, 118.075
1252.670, 162.770
1253.885, 139.035
1255.099, 97.354
1256.313, 18.836
1257.527, 22.198
1258.741, 70.080
1259.955, 10.139
1261.168, 50.172
1262.382, 68.133
1263.595, 236.572
1264.808, 37.846
1266.021, 182.646
1267.233, 233.334
1268.446, 166.035
1269.658, 140.701
1270.870, 369.312
1272.082, 373.859
1273.294, 430.428
1274.505, 335.059
1275.716, 414.404
1276.928, 160.648
1278.139, 412.775
1279.349, 275.764
1280.560, 143.863
1281.770, 147.736
1282.981, 114.523
1284.191, 218.109
1285.401, 48.533
1286.610, 91.736
1287.820, 58.730
1289.029, 38.539
1290.239, 124.182
1291.448, 36.904
1292.656, 229.635
1293.865, 241.371
1295.073, 262.117
1296.282, 154.869
1297.490, 164.627
1298.698, 201.395
1299.906, 301.168
1301.113, 165.951
1302.320, 195.744
1303.528, 181.543
1304.735, 157.354
1305.942, 281.174
1307.148, 327.004
1308.355, 165.844
1309.561, 438.689
1310.767, 530.541
1311.973, 325.396
1313.179, 433.207
1314.384, 528.895
1315.590, 480.594
1316.795, 479.270
1318.000, 367.912
1319.205, 546.520
1320.410, 530.693
1321.614, 309.783
1322.819, 482.652
1324.023, 486.793
1325.227, 394.738
1326.431, 313.205
1327.634, 303.273
1328.838, 68.371
1330.041, 200.121
1331.244, 156.725
1332.447, 5.814
1333.650, 128.314
1334.852, 118.447
1336.055, 29.752
1337.257, 22.268
1338.459, 149.064
1339.661, 213.691
1340.862, 353.809
1342.064, 336.301
1343.265, 13.086
1344.466, 78.271
1345.667, 10.590
1346.868, 16.258
1348.068, 2.748
1349.269, 12.000
1350.469, 65.648
1351.669, 118.109
1352.869, 86.779
1354.069, 41.473
1355.268, 74.137
1356.468, 157.697
1357.667, 164.883
1358.866, 3.740
1360.065, 83.066
1361.263, 26.912
1362.462, 126.592
1363.660, 318.223
1364.858, 164.398
1366.056, 121.906
1367.254, 247.146
1368.451, 263.090
1369.649, 93.379
1370.846, 328.268
1372.043, 203.387
1373.240, 227.416
1374.436, 346.355
1375.633, 291.203
1376.829, 267.049
1378.025, 239.920
1379.221, 252.926
1380.417, 337.980
1381.613, 315.016
1382.808, 403.424
1384.003, 449.410
1385.199, 476.732
1386.393, 478.953
1387.588, 434.488
1388.783, 368.045
1389.977, 454.736
1391.171, 266.047
1392.365, 344.287
1393.559, 392.656
1394.753, 245.648
1395.946, 90.986
1397.140, 231.826
1398.333, 129.666
1399.526, 78.078
1400.719, 209.625
1401.911, 149.988
1403.104, 186.057
1404.296, 4.531
1405.488, 178.023
1406.680, 26.607
1407.872, 33.533
1409.063, 154.977
1410.255, 1.756
1411.446, 263.965
1412.637, 4.527
1413.828, 95.246
1415.018, 291.910
1416.209, 74.285
1417.399, 44.021
1418.589, 275.963
1419.779, 77.430
1420.969, 92.119
1422.159, 58.328
1423.348, 4.535
1424.537, 13.859
1425.726, 2.197
1426.915, 14.045
1428.104, 5.494
1429.293, 24.225
1430.481, 0.000
##END=



