##NAMES=Heulandite-Ca
##RRUFFID=R040021
##IDEAL CHEMISTRY=(Ca,Na,K)_5_(Si_27_Al_9_)O_72_&#183;26H_2_O
##LOCALITY=Prospect Park, Patterson, Passaic County, New Jersey, USA
##OWNER=RRUFF
##SOURCE=University of Arizona Mineral Museum
##DESCRIPTION=Group of colorless lamellar crystals
##STATUS=The identification of this mineral has been confirmed by X-ray diffraction and chemical analysis
##URL=rruff.info/R040021
##MEASURED CHEMISTRY=Na_0.25_(Na_0.55_K_0.45_)_Σ=1_(Ca_2.42_Na_0.85_Sr_0.73_)_Σ=4.00_(Si_27.60_Al_8.40_)_Σ=36_O_72_·24H_2_O ; H_2_O estimated by difference
##PIN_ID=m00223
##ORIENTATION=Laser parallel to -c [0 0 -1]. Fiducial mark perpendicular to laser is parallel to b* (0 1 0)
94.768, 0.000
96.161, 82.016
97.554, 835.375
98.947, 1767.586
100.340, 2592.266
101.732, 3446.590
103.124, 4196.234
104.516, 5135.965
105.908, 6119.379
107.300, 6737.277
108.691, 6863.500
110.082, 7866.586
111.473, 7756.328
112.864, 8035.957
114.254, 8280.281
115.644, 8739.195
117.034, 8708.168
118.424, 8273.039
119.813, 7273.676
121.203, 7386.867
122.592, 6580.629
123.981, 6063.492
125.369, 5990.613
126.758, 5234.691
128.146, 5424.504
129.534, 4867.574
130.922, 5663.371
132.309, 5447.170
133.696, 5850.650
135.083, 5646.002
136.470, 6695.254
137.857, 6510.135
139.243, 7309.146
140.630, 7295.152
142.016, 7584.084
143.401, 7299.918
144.787, 7587.051
146.172, 7360.014
147.557, 7313.545
148.942, 6933.930
150.327, 6407.184
151.711, 6151.076
153.096, 5735.027
154.480, 5778.617
155.863, 5331.014
157.247, 5264.457
158.630, 5239.061
160.013, 4977.252
161.396, 4791.969
162.779, 4641.586
164.161, 4277.729
165.544, 3940.262
166.926, 3707.186
168.308, 2982.779
169.689, 2353.941
171.070, 1927.988
172.452, 1837.760
173.833, 1530.543
175.213, 1160.898
176.594, 1090.574
177.974, 681.852
179.354, 818.312
180.734, 675.902
182.114, 687.137
183.493, 639.557
184.872, 895.020
186.251, 955.252
187.630, 1130.609
189.008, 1137.004
190.387, 1328.342
191.765, 1518.535
193.143, 1477.504
194.520, 1717.889
195.898, 1427.113
197.275, 1722.562
198.652, 1523.602
200.029, 1581.635
201.405, 1248.820
202.782, 981.961
204.158, 708.783
205.534, 519.045
206.909, 770.301
208.285, 237.646
209.660, 90.221
211.035, 45.092
212.410, 479.920
213.784, 332.258
215.159, 651.947
216.533, 659.047
217.907, 587.598
219.281, 874.666
220.654, 764.293
222.027, 914.479
223.400, 728.164
224.773, 872.291
226.146, 843.805
227.518, 794.664
228.891, 757.863
230.263, 916.375
231.634, 649.215
233.006, 454.457
234.377, 631.160
235.748, 238.531
237.119, 29.930
238.490, 103.084
239.860, 487.354
241.231, 454.139
242.601, 769.387
243.970, 927.268
245.340, 1210.836
246.709, 1301.225
248.079, 1336.629
249.448, 1725.514
250.816, 1632.203
252.185, 1864.852
253.553, 1775.443
254.921, 1653.988
256.289, 1899.477
257.657, 1732.898
259.024, 1830.270
260.391, 1796.312
261.758, 1928.590
263.125, 1943.270
264.492, 2081.033
265.858, 2227.104
267.224, 2126.980
268.590, 2331.299
269.956, 2092.797
271.321, 2593.252
272.687, 2546.506
274.052, 2821.439
275.416, 2685.961
276.781, 3130.971
278.146, 3034.367
279.510, 2888.070
280.874, 3040.016
282.237, 3141.137
283.601, 3305.414
284.964, 3283.348
286.327, 2948.445
287.690, 3206.221
289.053, 2974.154
290.416, 2887.164
291.778, 3054.145
293.140, 2803.004
294.502, 3058.688
295.863, 2797.188
297.225, 2973.527
298.586, 2865.684
299.947, 2777.645
301.308, 2923.344
302.668, 2548.826
304.029, 2484.129
305.389, 2627.402
306.749, 2445.762
308.108, 2336.293
309.468, 2325.051
310.827, 2276.072
312.186, 2308.377
313.545, 2195.932
314.903, 2353.633
316.262, 2378.441
317.620, 2310.066
318.978, 2501.869
320.336, 2673.578
321.693, 2701.172
323.051, 2742.596
324.408, 2991.982
325.765, 2858.395
327.121, 3243.879
328.478, 3205.869
329.834, 3369.557
331.190, 3533.469
332.546, 3899.023
333.902, 3635.955
335.257, 4215.965
336.612, 3875.479
337.967, 4078.611
339.322, 4277.340
340.677, 4399.447
342.031, 4709.395
343.385, 4707.062
344.739, 4958.945
346.093, 5114.965
347.446, 5548.371
348.799, 5476.588
350.153, 5723.250
351.505, 6199.303
352.858, 6366.326
354.210, 6734.805
355.563, 7139.410
356.915, 7410.088
358.267, 7916.883
359.618, 8489.498
360.969, 8564.809
362.321, 9274.541
363.672, 9677.203
365.022, 10322.457
366.373, 10678.273
367.723, 11145.586
369.073, 11753.379
370.423, 12063.715
371.773, 12730.082
373.122, 12767.129
374.471, 13354.043
375.821, 14109.961
377.169, 14387.660
378.518, 15467.727
379.866, 15262.844
381.215, 16141.072
382.563, 16915.777
383.910, 17634.316
385.258, 18009.980
386.605, 19007.406
387.952, 20529.645
389.299, 20935.215
390.646, 22682.445
391.992, 23368.775
393.339, 24527.994
394.685, 26346.701
396.031, 27498.473
397.376, 29143.582
398.722, 29511.906
400.067, 30769.410
401.412, 30907.135
402.757, 31157.408
404.101, 31763.562
405.446, 30800.352
406.790, 29645.098
408.134, 29001.039
409.478, 27892.549
410.821, 26735.613
412.165, 25161.854
413.508, 23514.379
414.851, 22470.545
416.193, 21002.973
417.536, 19122.178
418.878, 18126.695
420.220, 16749.918
421.562, 15482.174
422.904, 14457.391
424.245, 13285.209
425.586, 12504.984
426.927, 11097.109
428.268, 10473.949
429.609, 9165.996
430.949, 8286.525
432.289, 7792.672
433.629, 7443.480
434.969, 6558.762
436.309, 6285.988
437.648, 5562.920
438.987, 5507.566
440.326, 5099.922
441.665, 4831.992
443.003, 4453.781
444.342, 4591.291
445.680, 4532.523
447.018, 4410.484
448.355, 4548.172
449.693, 4334.594
451.030, 4573.752
452.367, 4816.652
453.704, 5638.295
455.041, 5624.244
456.377, 6336.389
457.713, 6662.686
459.049, 7522.352
460.385, 8220.340
461.721, 9369.674
463.056, 10160.336
464.391, 10721.162
465.726, 11136.449
467.061, 12083.080
468.395, 12230.699
469.730, 12777.609
471.064, 13676.230
472.398, 13736.408
473.731, 15183.484
475.065, 15359.861
476.398, 16768.674
477.731, 18018.365
479.064, 18954.561
480.397, 19388.361
481.729, 19860.699
483.062, 19398.984
484.394, 18570.287
485.725, 17736.506
487.057, 16110.033
488.389, 14674.637
489.720, 13140.125
491.051, 11506.504
492.382, 10125.783
493.712, 8823.959
495.043, 7782.539
496.373, 6466.527
497.703, 5468.992
499.032, 4728.812
500.362, 4396.289
501.691, 3529.170
503.020, 3192.801
504.349, 2542.174
505.678, 2308.852
507.007, 2068.225
508.335, 1750.322
509.663, 1531.391
510.991, 1326.271
512.319, 1260.486
513.646, 1062.152
514.973, 944.461
516.300, 846.848
517.627, 1016.027
518.954, 964.871
520.280, 571.701
521.607, 703.234
522.933, 486.055
524.259, 436.496
525.584, 222.438
526.910, 168.717
528.235, 361.566
529.560, 219.285
530.885, 300.262
532.209, 25.371
533.534, 85.023
534.858, 100.197
536.182, 173.516
537.506, 64.330
538.829, 143.963
540.152, 1.754
541.476, 36.812
542.799, 26.885
544.121, 159.027
545.444, 20.863
546.766, 146.938
548.088, 297.432
549.410, 197.537
550.732, 260.213
552.053, 196.338
553.375, 160.352
554.696, 175.855
556.017, 117.322
557.337, 163.551
558.658, 99.523
559.978, 110.967
561.298, 210.908
562.618, 108.070
563.938, 211.881
565.257, 18.000
566.576, 36.641
567.895, 93.078
569.214, 109.771
570.533, 209.529
571.851, 277.021
573.170, 348.836
574.488, 425.289
575.805, 347.088
577.123, 266.438
578.440, 164.193
579.758, 480.629
581.075, 732.918
582.391, 452.096
583.708, 731.486
585.024, 699.141
586.341, 840.230
587.657, 1116.430
588.972, 1342.840
590.288, 1529.592
591.603, 1442.461
592.918, 1502.643
594.233, 1882.381
595.548, 2152.848
596.863, 2450.236
598.177, 2754.064
599.491, 2834.830
600.805, 3277.010
602.119, 3427.109
603.432, 3591.143
604.746, 4183.111
606.059, 4423.004
607.372, 4395.840
608.685, 4395.605
609.997, 4738.305
611.309, 4442.943
612.621, 4541.508
613.933, 4146.029
615.245, 4224.482
616.557, 4000.881
617.868, 3937.213
619.179, 3592.477
620.490, 3304.676
621.801, 2781.805
623.111, 2904.879
624.421, 2608.895
625.731, 2731.854
627.041, 2202.764
628.351, 2304.623
629.660, 1686.428
630.970, 1619.186
632.279, 1749.893
633.588, 1340.551
634.896, 1279.160
636.205, 1039.719
637.513, 1351.229
638.821, 858.688
640.129, 1057.094
641.437, 1201.443
642.744, 1079.736
644.051, 916.971
645.358, 940.146
646.665, 954.262
647.972, 911.314
649.278, 892.307
650.584, 800.234
651.890, 542.102
653.196, 708.312
654.502, 523.955
655.807, 957.320
657.113, 479.934
658.418, 603.477
659.722, 817.959
661.027, 455.381
662.331, 367.732
663.636, 425.014
664.940, 477.223
666.244, 228.367
667.547, 494.434
668.851, 156.434
670.154, 268.354
671.457, 332.914
672.760, 52.215
674.062, 317.779
675.365, 136.016
676.667, 118.000
677.969, 162.609
679.271, 309.496
680.572, 134.357
681.874, 230.609
683.175, 364.121
684.476, 206.984
685.777, 222.836
687.077, 146.107
688.378, 104.799
689.678, 224.264
690.978, 73.465
692.278, 82.580
693.577, 288.016
694.877, 318.898
696.176, 11.152
697.475, 306.549
698.774, 4.938
700.072, 178.098
701.371, 197.727
702.669, 60.354
703.967, 129.709
705.265, 104.445
706.562, 259.807
707.860, 133.498
709.157, 42.545
710.454, 280.875
711.751, 31.994
713.047, 254.975
714.344, 23.723
715.640, 281.258
716.936, 50.975
718.232, 125.586
719.527, 333.039
720.823, 85.438
722.118, 131.842
723.413, 197.986
724.708, 48.547
726.002, 285.439
727.297, 325.738
728.591, 39.592
729.885, 250.441
731.179, 427.344
732.472, 281.635
733.766, 164.213
735.059, 225.445
736.352, 237.332
737.645, 249.799
738.937, 421.039
740.230, 336.471
741.522, 210.123
742.814, 409.148
744.106, 352.779
745.397, 523.084
746.689, 448.645
747.980, 360.980
749.271, 446.029
750.562, 516.410
751.853, 675.943
753.143, 535.336
754.433, 732.643
755.723, 864.781
757.013, 687.355
758.303, 948.174
759.592, 800.527
760.881, 1099.744
762.170, 1021.863
763.459, 1230.348
764.748, 1298.068
766.036, 1219.881
767.325, 1502.680
768.613, 1312.975
769.901, 1549.799
771.188, 1613.104
772.476, 1464.646
773.763, 1781.143
775.050, 1434.096
776.337, 1698.094
777.624, 1499.994
778.910, 1777.334
780.196, 1484.451
781.482, 1740.328
782.768, 1388.387
784.054, 1521.918
785.339, 1362.600
786.625, 1369.740
787.910, 1241.873
789.195, 1187.471
790.479, 1010.523
791.764, 1055.240
793.048, 1146.592
794.332, 1049.523
795.616, 1035.385
796.900, 981.172
798.183, 1194.887
799.467, 793.523
800.750, 1065.090
802.033, 800.580
803.316, 803.998
804.598, 1093.344
805.880, 614.615
807.163, 1018.309
808.445, 1067.436
809.726, 940.930
811.008, 854.910
812.289, 987.094
813.570, 850.734
814.851, 1022.498
816.132, 944.396
817.413, 837.865
818.693, 683.510
819.973, 678.785
821.253, 564.016
822.533, 569.771
823.813, 625.051
825.092, 426.736
826.371, 360.633
827.650, 436.887
828.929, 453.016
830.208, 498.916
831.486, 346.682
832.764, 400.701
834.042, 627.043
835.320, 374.252
836.598, 345.756
837.875, 308.299
839.152, 46.141
840.429, 5.016
841.706, 209.422
842.983, 11.631
844.259, 48.727
845.536, 111.201
846.812, 2.111
848.088, 38.566
849.363, 35.336
850.639, 48.076
851.914, 289.639
853.189, 74.617
854.464, 10.754
855.739, 220.184
857.013, 399.512
858.288, 387.871
859.562, 123.059
860.836, 287.393
862.110, 213.277
863.383, 81.787
864.656, 182.711
865.930, 85.797
867.203, 49.559
868.475, 22.635
869.748, 131.117
871.020, 30.930
872.292, 27.924
873.564, 50.400
874.836, 114.752
876.108, 25.037
877.379, 205.115
878.650, 73.014
879.922, 0.906
881.192, 61.715
882.463, 30.180
883.733, 76.912
885.004, 68.662
886.274, 27.947
887.544, 83.797
888.813, 66.500
890.083, 50.197
891.352, 50.938
892.621, 134.949
893.890, 32.436
895.159, 41.654
896.427, 122.998
897.695, 50.721
898.964, 100.062
900.232, 72.400
901.499, 180.664
902.767, 59.955
904.034, 24.541
905.301, 98.016
906.568, 38.322
907.835, 58.607
909.102, 172.844
910.368, 24.967
911.634, 36.846
912.900, 198.201
914.166, 72.795
915.432, 94.117
916.697, 15.016
917.962, 37.211
919.227, 197.525
920.492, 102.781
921.757, 150.816
923.021, 54.631
924.285, 177.846
925.550, 168.283
926.813, 39.678
928.077, 247.031
929.341, 11.350
930.604, 125.621
931.867, 158.852
933.130, 26.936
934.393, 132.219
935.655, 241.336
936.918, 8.580
938.180, 427.465
939.442, 135.477
940.703, 197.453
941.965, 155.396
943.226, 74.305
944.488, 142.178
945.749, 290.012
947.009, 506.812
948.270, 380.584
949.530, 264.328
950.791, 450.041
952.051, 412.725
953.311, 645.375
954.570, 707.008
955.830, 416.609
957.089, 510.191
958.348, 370.750
959.607, 402.281
960.866, 518.789
962.124, 678.273
963.383, 627.773
964.641, 982.248
965.899, 1109.701
967.156, 1188.162
968.414, 1154.600
969.671, 759.018
970.928, 805.418
972.185, 655.795
973.442, 927.156
974.699, 850.498
975.955, 1020.824
977.211, 1042.123
978.468, 974.139
979.723, 1120.426
980.979, 1126.697
982.234, 1153.957
983.490, 1240.090
984.745, 1212.045
986.000, 1347.266
987.254, 1534.312
988.509, 1581.230
989.763, 1805.986
991.017, 1545.537
992.271, 1725.023
993.525, 1740.381
994.779, 1964.764
996.032, 2156.762
997.285, 2018.707
998.538, 2072.613
999.791, 1978.348
1001.044, 2130.703
1002.296, 2314.707
1003.548, 2426.551
1004.800, 2344.768
1006.052, 2366.637
1007.304, 2501.227
1008.555, 2367.439
1009.807, 2489.686
1011.058, 2636.947
1012.309, 2454.898
1013.559, 2516.592
1014.810, 2566.916
1016.060, 2495.504
1017.310, 2692.666
1018.560, 2439.758
1019.810, 2534.689
1021.060, 2570.135
1022.309, 2769.650
1023.558, 2493.725
1024.807, 2723.188
1026.056, 2499.885
1027.305, 2575.768
1028.553, 2520.916
1029.801, 2475.096
1031.049, 2621.461
1032.297, 2501.375
1033.545, 2559.531
1034.793, 2682.885
1036.040, 2514.455
1037.287, 2452.389
1038.534, 2503.203
1039.781, 2597.617
1041.027, 2685.432
1042.274, 2629.699
1043.520, 2638.049
1044.766, 2463.420
1046.012, 2437.875
1047.257, 2246.650
1048.503, 2288.719
1049.748, 2713.445
1050.993, 2250.320
1052.238, 2551.408
1053.483, 2461.082
1054.727, 2192.525
1055.971, 2157.027
1057.216, 2161.852
1058.459, 2151.125
1059.703, 2263.199
1060.947, 2367.951
1062.190, 2347.086
1063.433, 2347.271
1064.676, 2277.475
1065.919, 2402.236
1067.162, 2344.680
1068.404, 2618.395
1069.646, 2301.598
1070.888, 2328.527
1072.130, 2786.697
1073.372, 2707.156
1074.613, 2824.293
1075.855, 3112.625
1077.096, 2984.193
1078.337, 2893.641
1079.578, 3441.105
1080.818, 3292.545
1082.059, 3557.834
1083.299, 3351.213
1084.539, 3722.430
1085.779, 3396.867
1087.018, 3648.520
1088.258, 3680.008
1089.497, 3732.537
1090.736, 3938.371
1091.975, 3853.775
1093.213, 3809.801
1094.452, 3970.877
1095.690, 4117.289
1096.928, 4108.436
1098.166, 4115.193
1099.404, 4071.082
1100.642, 4202.977
1101.879, 3975.359
1103.116, 4339.883
1104.353, 3914.252
1105.590, 4265.324
1106.827, 4093.467
1108.063, 4304.629
1109.299, 4101.793
1110.536, 4292.348
1111.771, 4053.523
1113.007, 4132.525
1114.243, 4156.141
1115.478, 4439.938
1116.713, 4269.582
1117.948, 4206.764
1119.183, 4301.891
1120.418, 4097.572
1121.652, 4597.480
1122.886, 4755.654
1124.120, 4938.586
1125.354, 4511.035
1126.588, 4150.527
1127.821, 4295.535
1129.055, 3963.604
1130.288, 4207.936
1131.521, 4279.850
1132.753, 4190.297
1133.986, 3988.180
1135.218, 3891.984
1136.450, 4246.615
1137.682, 3910.971
1138.914, 4210.883
1140.146, 4075.168
1141.377, 3892.520
1142.609, 3782.652
1143.840, 3647.078
1145.071, 3814.285
1146.301, 3933.994
1147.532, 3729.125
1148.762, 3650.383
1149.992, 3597.168
1151.222, 3522.258
1152.452, 3515.830
1153.682, 3662.842
1154.911, 3104.920
1156.140, 3485.080
1157.369, 3058.859
1158.598, 2932.672
1159.827, 3093.004
1161.055, 3218.826
1162.284, 2868.834
1163.512, 3058.699
1164.740, 2768.551
1165.967, 2729.363
1167.195, 2345.219
1168.422, 2641.934
1169.650, 2542.051
1170.877, 2521.482
1172.103, 2204.941
1173.330, 1970.576
1174.557, 2123.174
1175.783, 2046.771
1177.009, 2047.783
1178.235, 1977.768
1179.461, 1995.834
1180.686, 1764.240
1181.912, 1596.805
1183.137, 1536.426
1184.362, 1510.244
1185.587, 1218.752
1186.811, 1254.965
1188.036, 1339.420
1189.260, 1110.680
1190.484, 1297.467
1191.708, 1077.576
1192.932, 1030.023
1194.155, 961.746
1195.378, 827.537
1196.602, 804.473
1197.825, 828.721
1199.047, 607.637
1200.270, 742.744
1201.492, 632.357
1202.715, 837.004
1203.937, 451.590
1205.159, 655.441
1206.380, 481.109
1207.602, 532.010
1208.823, 530.732
1210.044, 463.533
1211.265, 498.477
1212.486, 345.678
1213.707, 346.455
1214.927, 145.174
1216.147, 415.570
1217.367, 185.492
1218.587, 224.035
1219.807, 317.156
1221.027, 296.025
1222.246, 214.521
1223.465, 32.229
1224.684, 276.992
1225.903, 414.865
1227.121, 160.057
1228.340, 79.070
1229.558, 252.707
1230.776, 231.346
1231.994, 48.945
1233.212, 12.598
1234.429, 41.039
1235.646, 174.793
1236.864, 167.727
1238.081, 232.055
1239.297, 245.635
1240.514, 321.117
1241.730, 316.949
1242.947, 135.873
1244.163, 224.799
1245.378, 197.484
1246.594, 197.582
1247.810, 408.178
1249.025, 24.473
1250.240, 346.820
1251.455, 33.014
1252.670, 141.096
1253.885, 137.109
1255.099, 136.014
1256.313, 43.820
1257.527, 141.355
1258.741, 175.887
1259.955, 268.514
1261.168, 116.871
1262.382, 261.156
1263.595, 130.994
1264.808, 143.773
1266.021, 250.049
1267.233, 193.623
1268.446, 130.355
1269.658, 185.781
1270.870, 72.992
1272.082, 61.693
1273.294, 175.887
1274.505, 159.002
1275.716, 101.107
1276.928, 198.045
1278.139, 71.180
1279.349, 201.941
1280.560, 22.600
1281.770, 260.828
1282.981, 85.303
1284.191, 70.328
1285.401, 97.914
1286.610, 85.754
1287.820, 135.971
1289.029, 78.178
1290.239, 120.930
1291.448, 237.766
1292.656, 137.416
1293.865, 103.973
1295.073, 44.418
1296.282, 143.758
1297.490, 10.006
1298.698, 32.102
1299.906, 145.094
1301.113, 120.857
1302.320, 206.514
1303.528, 44.980
1304.735, 89.334
1305.942, 170.459
1307.148, 131.559
1308.355, 166.469
1309.561, 201.787
1310.767, 174.771
1311.973, 42.207
1313.179, 187.520
1314.384, 125.293
1315.590, 245.725
1316.795, 67.621
1318.000, 188.400
1319.205, 51.934
1320.410, 194.600
1321.614, 36.029
1322.819, 46.645
1324.023, 51.723
1325.227, 31.150
1326.431, 189.234
1327.634, 56.395
1328.838, 180.162
1330.041, 95.453
1331.244, 90.045
1332.447, 209.459
1333.650, 102.305
1334.852, 77.154
1336.055, 17.172
1337.257, 87.730
1338.459, 29.561
1339.661, 134.664
1340.862, 153.049
1342.064, 54.709
1343.265, 34.316
1344.466, 141.863
1345.667, 222.852
1346.868, 216.768
1348.068, 238.135
1349.269, 186.031
1350.469, 219.266
1351.669, 394.918
1352.869, 197.557
1354.069, 498.619
1355.268, 349.633
1356.468, 151.430
1357.667, 429.871
1358.866, 444.637
1360.065, 285.156
1361.263, 397.055
1362.462, 250.762
1363.660, 344.602
1364.858, 406.738
1366.056, 230.184
1367.254, 415.857
1368.451, 379.713
1369.649, 349.041
1370.846, 271.215
1372.043, 343.512
1373.240, 356.451
1374.436, 387.447
1375.633, 392.805
1376.829, 420.279
1378.025, 351.180
1379.221, 327.971
1380.417, 264.049
1381.613, 402.076
1382.808, 335.994
1384.003, 354.107
1385.199, 592.053
1386.393, 463.455
1387.588, 455.146
1388.783, 783.975
1389.977, 354.922
1391.171, 467.158
1392.365, 471.037
1393.559, 469.240
1394.753, 638.754
1395.946, 574.055
1397.140, 610.611
1398.333, 486.277
1399.526, 526.818
1400.719, 413.420
1401.911, 204.232
1403.104, 336.490
1404.296, 256.281
1405.488, 133.768
1406.680, 348.203
1407.872, 103.162
1409.063, 167.607
1410.255, 405.576
1411.446, 74.619
1412.637, 472.018
1413.828, 64.693
1415.018, 202.721
1416.209, 619.910
1417.399, 991.396
1418.589, 22.713
1419.779, 443.174
1420.969, 226.566
1422.159, 300.395
1423.348, 21.348
1424.537, 96.461
1425.726, 312.723
1426.915, 299.328
1428.104, 298.891
1429.293, 101.109
1430.481, 44.578
1431.669, 187.910
1432.857, 334.766
1434.045, 531.941
1435.233, 534.207
1436.420, 537.902
1437.608, 555.730
1438.795, 265.004
1439.982, 289.832
1441.169, 401.887
1442.355, 449.254
1443.542, 502.445
1444.728, 645.211
1445.914, 633.340
1447.100, 529.723
1448.286, 658.082
1449.472, 537.699
1450.657, 482.082
1451.842, 786.312
1453.027, 593.230
1454.212, 563.242
1455.397, 838.480
1456.581, 426.969
1457.766, 689.801
1458.950, 609.211
1460.134, 399.715
1461.318, 749.914
1462.501, 310.754
1463.685, 424.781
1464.868, 744.762
1466.051, 53.484
1467.234, 568.133
1468.417, 6.691
1469.600, 62.582
1470.782, 157.020
1471.965, 0.000
##END=



