##NAMES=Heulandite-Ca
##RRUFFID=R040021
##IDEAL CHEMISTRY=(Ca,Na,K)_5_(Si_27_Al_9_)O_72_&#183;26H_2_O
##LOCALITY=Prospect Park, Patterson, Passaic County, New Jersey, USA
##OWNER=RRUFF
##SOURCE=University of Arizona Mineral Museum
##DESCRIPTION=Group of colorless lamellar crystals
##STATUS=The identification of this mineral has been confirmed by X-ray diffraction and chemical analysis
##URL=rruff.info/R040021
##MEASURED CHEMISTRY=Na_0.25_(Na_0.55_K_0.45_)_Σ=1_(Ca_2.42_Na_0.85_Sr_0.73_)_Σ=4.00_(Si_27.60_Al_8.40_)_Σ=36_O_72_·24H_2_O ; H_2_O estimated by difference
##PIN_ID=m00378
##ORIENTATION=Laser parallel to a [1 0 0]. Fiducial mark perpendicular to laser is parallel to b* (0 1 0)
93.375, 0.000
94.768, 16.934
96.161, 38.738
97.554, 441.838
98.947, 688.385
100.340, 989.203
101.732, 1360.926
103.124, 1648.324
104.516, 1934.426
105.908, 2469.473
107.300, 3073.918
108.691, 3149.490
110.082, 3682.965
111.473, 3849.275
112.864, 4182.898
114.254, 4910.402
115.644, 5638.746
117.034, 5996.766
118.424, 6235.781
119.813, 6115.035
121.203, 6396.082
122.592, 6205.000
123.981, 6137.609
125.369, 6197.168
126.758, 5937.619
128.146, 5901.102
129.534, 5388.969
130.922, 5558.570
132.309, 5003.344
133.696, 4922.551
135.083, 4530.855
136.470, 4866.750
137.857, 4731.137
139.243, 4985.641
140.630, 4825.297
142.016, 5007.002
143.401, 4815.930
144.787, 5187.625
146.172, 5250.033
147.557, 5302.451
148.942, 5286.861
150.327, 5249.428
151.711, 5317.232
153.096, 5466.432
154.480, 5590.455
155.863, 5329.424
157.247, 5456.262
158.630, 5317.852
160.013, 4998.910
161.396, 4827.328
162.779, 4603.721
164.161, 4420.670
165.544, 3908.068
166.926, 3696.371
168.308, 3239.311
169.689, 2982.322
171.070, 2647.090
172.452, 2453.896
173.833, 2141.037
175.213, 1759.186
176.594, 1669.469
177.974, 1272.352
179.354, 1413.926
180.734, 1135.205
182.114, 963.174
183.493, 875.805
184.872, 760.066
186.251, 497.914
187.630, 695.305
189.008, 384.195
190.387, 523.547
191.765, 392.316
193.143, 265.459
194.520, 318.928
195.898, 164.686
197.275, 262.689
198.652, 189.910
200.029, 266.318
201.405, 98.885
202.782, 68.578
204.158, 35.627
205.534, 9.230
206.909, 136.104
208.285, 303.053
209.660, 229.287
211.035, 176.637
212.410, 373.115
213.784, 327.723
215.159, 381.467
216.533, 457.334
217.907, 370.324
219.281, 268.436
220.654, 426.678
222.027, 495.068
223.400, 351.637
224.773, 345.393
226.146, 314.355
227.518, 273.551
228.891, 367.990
230.263, 166.680
231.634, 79.723
233.006, 7.141
234.377, 90.158
235.748, 124.176
237.119, 89.766
238.490, 137.572
239.860, 460.801
241.231, 388.424
242.601, 563.615
243.970, 675.338
245.340, 701.605
246.709, 867.719
248.079, 1037.846
249.448, 1067.748
250.816, 1499.350
252.185, 1235.791
253.553, 1601.426
254.921, 1810.092
256.289, 1718.793
257.657, 1921.521
259.024, 1669.414
260.391, 1471.422
261.758, 1607.166
263.125, 1413.998
264.492, 1576.537
265.858, 1646.529
267.224, 1552.793
268.590, 1578.195
269.956, 1333.623
271.321, 1602.006
272.687, 1706.281
274.052, 1527.393
275.416, 1354.287
276.781, 1674.908
278.146, 1693.227
279.510, 1494.215
280.874, 1757.871
282.237, 1714.180
283.601, 1949.133
284.964, 1660.715
286.327, 1745.916
287.690, 1865.705
289.053, 2125.035
290.416, 1943.852
291.778, 2203.121
293.140, 2054.832
294.502, 2225.994
295.863, 2090.641
297.225, 2122.809
298.586, 2412.523
299.947, 2325.820
301.308, 2564.719
302.668, 2422.215
304.029, 2484.303
305.389, 2541.967
306.749, 2518.197
308.108, 2609.979
309.468, 2955.293
310.827, 2908.164
312.186, 2964.572
313.545, 2964.365
314.903, 3382.648
316.262, 3510.961
317.620, 3627.336
318.978, 3747.701
320.336, 4010.025
321.693, 4176.439
323.051, 4329.887
324.408, 4605.527
325.765, 4568.404
327.121, 4748.801
328.478, 5093.824
329.834, 5007.660
331.190, 5254.381
332.546, 5550.035
333.902, 5506.648
335.257, 5974.242
336.612, 5909.828
337.967, 5993.406
339.322, 6230.986
340.677, 6237.562
342.031, 6522.922
343.385, 6814.480
344.739, 6834.305
346.093, 7019.422
347.446, 7032.184
348.799, 7253.461
350.153, 7487.676
351.505, 7728.977
352.858, 8105.459
354.210, 8399.223
355.563, 8819.848
356.915, 9238.795
358.267, 9338.523
359.618, 10074.441
360.969, 10221.383
362.321, 10897.984
363.672, 11379.000
365.022, 11708.820
366.373, 12359.309
367.723, 12534.709
369.073, 13402.961
370.423, 13835.352
371.773, 14245.359
373.122, 14474.398
374.471, 15049.967
375.821, 15945.566
377.169, 15948.137
378.518, 16960.516
379.866, 16884.941
381.215, 17456.328
382.563, 18430.398
383.910, 18911.152
385.258, 19647.131
386.605, 20645.566
387.952, 21876.664
389.299, 22506.324
390.646, 24298.764
391.992, 25227.236
393.339, 26811.141
394.685, 28740.803
396.031, 30444.949
397.376, 32506.695
398.722, 33618.922
400.067, 35316.395
401.412, 36134.086
402.757, 36852.457
404.101, 37185.117
405.446, 37641.289
406.790, 36827.164
408.134, 35948.680
409.478, 35180.262
410.821, 33274.121
412.165, 31675.006
413.508, 29164.664
414.851, 27959.230
416.193, 25856.795
417.536, 23498.926
418.878, 21930.590
420.220, 20175.379
421.562, 18695.662
422.904, 16437.859
424.245, 15288.969
425.586, 14341.980
426.927, 12624.889
428.268, 11932.695
429.609, 10240.395
430.949, 9341.992
432.289, 8552.477
433.629, 7881.863
434.969, 7070.137
436.309, 6704.309
437.648, 5988.373
438.987, 5943.332
440.326, 5461.188
441.665, 5075.945
443.003, 4873.598
444.342, 4722.812
445.680, 4756.609
447.018, 4665.975
448.355, 4761.238
449.693, 4711.412
451.030, 4876.492
452.367, 5219.486
453.704, 5736.391
455.041, 5689.213
456.377, 6412.951
457.713, 7080.609
459.049, 7655.189
460.385, 8557.691
461.721, 9302.119
463.056, 10474.473
464.391, 10830.760
465.726, 11746.973
467.061, 12755.117
468.395, 13173.197
469.730, 13960.213
471.064, 14712.166
472.398, 15393.061
473.731, 16876.895
475.065, 17530.674
476.398, 18869.396
477.731, 20430.072
479.064, 21727.699
480.397, 22496.289
481.729, 23287.838
483.062, 23433.354
484.394, 22713.842
485.725, 21943.307
487.057, 20398.744
488.389, 18871.172
489.720, 17125.574
491.051, 15109.961
492.382, 13137.332
493.712, 11676.688
495.043, 10104.020
496.373, 8488.336
497.703, 7316.639
499.032, 6336.924
500.362, 5591.938
501.691, 4561.252
503.020, 4161.492
504.349, 3476.854
505.678, 2944.498
507.007, 2772.238
508.335, 2223.668
509.663, 2018.508
510.991, 1833.773
512.319, 1674.990
513.646, 1598.881
514.973, 1381.727
516.300, 997.967
517.627, 1145.387
518.954, 1053.660
520.280, 576.592
521.607, 912.076
522.933, 681.260
524.259, 712.881
525.584, 462.213
526.910, 569.371
528.235, 406.574
529.560, 359.703
530.885, 316.979
532.209, 225.006
533.534, 175.480
534.858, 94.695
536.182, 69.943
537.506, 23.664
538.829, 17.107
540.152, 2.285
541.476, 175.881
542.799, 17.184
544.121, 270.797
545.444, 117.748
546.766, 137.205
548.088, 385.113
549.410, 42.582
550.732, 82.219
552.053, 481.824
553.375, 300.252
554.696, 159.264
556.017, 138.973
557.337, 185.547
558.658, 125.938
559.978, 88.656
561.298, 224.436
562.618, 35.941
563.938, 177.854
565.257, 131.516
566.576, 91.389
567.895, 319.727
569.214, 120.979
570.533, 143.662
571.851, 33.320
573.170, 55.957
574.488, 290.576
575.805, 152.172
577.123, 265.199
578.440, 230.467
579.758, 370.434
581.075, 432.998
582.391, 342.445
583.708, 553.939
585.024, 658.412
586.341, 591.896
587.657, 741.324
588.972, 822.055
590.288, 910.037
591.603, 1110.803
592.918, 1217.311
594.233, 1454.701
595.548, 1732.072
596.863, 2090.422
598.177, 2305.375
599.491, 2431.135
600.805, 2757.430
602.119, 2924.703
603.432, 3039.959
604.746, 3475.197
606.059, 3704.416
607.372, 3787.621
608.685, 3802.809
609.997, 3833.836
611.309, 3845.152
612.621, 3763.309
613.933, 3664.451
615.245, 3685.578
616.557, 3470.688
617.868, 3207.781
619.179, 2966.859
620.490, 2892.922
621.801, 2499.971
623.111, 2699.000
624.421, 2254.016
625.731, 2185.016
627.041, 1568.008
628.351, 2004.986
629.660, 1489.949
630.970, 1228.898
632.279, 1371.830
633.588, 1150.746
634.896, 941.648
636.205, 888.535
637.513, 878.408
638.821, 706.266
640.129, 782.109
641.437, 782.938
642.744, 826.750
644.051, 759.627
645.358, 627.018
646.665, 555.783
647.972, 609.535
649.278, 444.289
650.584, 484.010
651.890, 319.713
653.196, 629.471
654.502, 430.584
655.807, 448.537
657.113, 104.830
658.418, 266.447
659.722, 376.568
661.027, 247.971
662.331, 176.537
663.636, 164.297
664.940, 257.611
666.244, 157.746
667.547, 296.684
668.851, 72.098
670.154, 149.533
671.457, 162.824
672.760, 77.977
674.062, 276.906
675.365, 85.730
676.667, 172.828
677.969, 43.619
679.271, 144.514
680.572, 53.008
681.874, 137.541
683.175, 187.436
684.476, 191.857
685.777, 221.289
687.077, 200.615
688.378, 118.740
689.678, 278.801
690.978, 175.322
692.278, 409.080
693.577, 579.252
694.877, 551.594
696.176, 51.830
697.475, 520.146
698.774, 3.383
700.072, 395.553
701.371, 353.600
702.669, 215.879
703.967, 90.889
705.265, 22.287
706.562, 299.053
707.860, 105.711
709.157, 11.158
710.454, 368.025
711.751, 81.268
713.047, 543.402
714.344, 202.062
715.640, 341.609
716.936, 35.635
718.232, 160.346
719.527, 276.777
720.823, 150.879
722.118, 246.121
723.413, 271.393
724.708, 236.635
726.002, 229.773
727.297, 400.418
728.591, 323.578
729.885, 223.354
731.179, 278.283
732.472, 111.826
733.766, 51.379
735.059, 116.902
736.352, 322.658
737.645, 280.289
738.937, 301.932
740.230, 480.514
741.522, 219.061
742.814, 243.738
744.106, 209.016
745.397, 322.436
746.689, 195.156
747.980, 211.760
749.271, 387.307
750.562, 362.689
751.853, 394.975
753.143, 216.631
754.433, 409.850
755.723, 371.035
757.013, 288.188
758.303, 673.598
759.592, 469.707
760.881, 477.762
762.170, 461.297
763.459, 509.285
764.748, 625.314
766.036, 358.355
767.325, 897.242
768.613, 590.568
769.901, 773.391
771.188, 851.381
772.476, 711.137
773.763, 1062.859
775.050, 603.699
776.337, 878.553
777.624, 942.172
778.910, 822.760
780.196, 729.314
781.482, 836.721
782.768, 679.209
784.054, 678.664
785.339, 470.084
786.625, 621.473
787.910, 460.826
789.195, 756.146
790.479, 422.438
791.764, 400.691
793.048, 500.912
794.332, 358.100
795.616, 356.256
796.900, 429.377
798.183, 397.469
799.467, 57.523
800.750, 245.541
802.033, 233.525
803.316, 215.477
804.598, 443.395
805.880, 287.021
807.163, 202.133
808.445, 112.953
809.726, 146.732
811.008, 60.480
812.289, 257.447
813.570, 91.059
814.851, 30.697
816.132, 236.158
817.413, 84.711
818.693, 157.750
819.973, 321.428
821.253, 19.152
822.533, 16.586
823.813, 257.672
825.092, 1.225
826.371, 47.219
827.650, 70.891
828.929, 75.199
830.208, 27.797
831.486, 83.123
832.764, 190.127
834.042, 57.152
835.320, 58.658
836.598, 28.100
837.875, 130.027
839.152, 118.682
840.429, 61.053
841.706, 104.775
842.983, 0.773
844.259, 94.699
845.536, 277.826
846.812, 50.006
848.088, 119.902
849.363, 48.107
850.639, 144.404
851.914, 39.369
853.189, 56.859
854.464, 99.061
855.739, 261.025
857.013, 407.574
858.288, 349.984
859.562, 33.105
860.836, 68.146
862.110, 205.432
863.383, 141.604
864.656, 209.299
865.930, 9.373
867.203, 120.307
868.475, 71.990
869.748, 85.961
871.020, 58.049
872.292, 56.557
873.564, 32.520
874.836, 68.852
876.108, 70.111
877.379, 50.947
878.650, 5.975
879.922, 11.967
881.192, 33.113
882.463, 43.236
883.733, 69.594
885.004, 16.400
886.274, 26.273
887.544, 82.752
888.813, 124.037
890.083, 93.262
891.352, 26.637
892.621, 284.947
893.890, 142.512
895.159, 99.027
896.427, 4.449
897.695, 112.027
898.964, 52.234
900.232, 51.412
901.499, 83.801
902.767, 114.094
904.034, 219.367
905.301, 30.623
906.568, 138.781
907.835, 194.996
909.102, 335.191
910.368, 52.371
911.634, 115.529
912.900, 137.674
914.166, 1.797
915.432, 243.900
916.697, 97.986
917.962, 91.945
919.227, 392.061
920.492, 3.047
921.757, 212.016
923.021, 60.969
924.285, 157.904
925.550, 183.822
926.813, 68.725
928.077, 56.646
929.341, 183.553
930.604, 295.443
931.867, 275.318
933.130, 41.795
934.393, 121.059
935.655, 420.898
936.918, 148.729
938.180, 402.547
939.442, 232.352
940.703, 133.146
941.965, 307.930
943.226, 297.699
944.488, 302.949
945.749, 185.205
947.009, 343.939
948.270, 159.674
949.530, 223.396
950.791, 394.107
952.051, 245.123
953.311, 282.814
954.570, 85.492
955.830, 406.141
957.089, 368.803
958.348, 313.451
959.607, 378.043
960.866, 399.256
962.124, 315.609
963.383, 327.629
964.641, 313.297
965.899, 396.438
967.156, 518.273
968.414, 526.920
969.671, 403.344
970.928, 634.191
972.185, 408.836
973.442, 505.391
974.699, 445.074
975.955, 656.707
977.211, 661.502
978.468, 420.410
979.723, 687.514
980.979, 780.701
982.234, 609.584
983.490, 1047.750
984.745, 387.789
986.000, 779.199
987.254, 760.543
988.509, 689.494
989.763, 895.896
991.017, 645.256
992.271, 827.568
993.525, 840.891
994.779, 977.877
996.032, 1082.197
997.285, 1079.967
998.538, 1103.229
999.791, 843.158
1001.044, 1273.396
1002.296, 923.057
1003.548, 1334.283
1004.800, 1083.436
1006.052, 840.959
1007.304, 1395.814
1008.555, 1115.670
1009.807, 1402.551
1011.058, 1198.863
1012.309, 1145.332
1013.559, 1400.277
1014.810, 1167.547
1016.060, 1136.539
1017.310, 1440.877
1018.560, 1376.713
1019.810, 1133.354
1021.060, 1239.059
1022.309, 1701.896
1023.558, 1464.539
1024.807, 1493.094
1026.056, 1151.371
1027.305, 1560.100
1028.553, 1392.494
1029.801, 1827.438
1031.049, 1572.963
1032.297, 1501.496
1033.545, 1397.475
1034.793, 1410.648
1036.040, 1483.846
1037.287, 1496.900
1038.534, 1584.818
1039.781, 1504.918
1041.027, 1685.109
1042.274, 1439.309
1043.520, 1581.537
1044.766, 1660.768
1046.012, 1435.852
1047.257, 1557.307
1048.503, 1577.588
1049.748, 1854.549
1050.993, 1449.592
1052.238, 1755.666
1053.483, 1652.877
1054.727, 1500.154
1055.971, 1531.041
1057.216, 1483.770
1058.459, 1690.627
1059.703, 1524.932
1060.947, 1595.947
1062.190, 1634.418
1063.433, 1616.734
1064.676, 1693.539
1065.919, 1590.865
1067.162, 1465.115
1068.404, 1919.326
1069.646, 1609.658
1070.888, 1772.615
1072.130, 2061.955
1073.372, 1890.092
1074.613, 2067.473
1075.855, 2217.133
1077.096, 2353.783
1078.337, 2456.771
1079.578, 2691.383
1080.818, 2573.941
1082.059, 2733.225
1083.299, 2701.693
1084.539, 3000.051
1085.779, 2835.139
1087.018, 2969.309
1088.258, 3251.666
1089.497, 3201.484
1090.736, 3257.662
1091.975, 3491.018
1093.213, 3390.855
1094.452, 3601.207
1095.690, 3728.576
1096.928, 3611.684
1098.166, 3794.484
1099.404, 3828.170
1100.642, 3992.104
1101.879, 3917.441
1103.116, 3954.963
1104.353, 4091.297
1105.590, 4100.070
1106.827, 3977.432
1108.063, 4165.016
1109.299, 3855.080
1110.536, 4031.094
1111.771, 4022.566
1113.007, 3985.406
1114.243, 4191.330
1115.478, 4039.566
1116.713, 3984.855
1117.948, 4235.990
1119.183, 4319.094
1120.418, 3900.027
1121.652, 4232.465
1122.886, 4149.590
1124.120, 4239.090
1125.354, 4283.998
1126.588, 3916.096
1127.821, 4227.371
1129.055, 3962.828
1130.288, 4096.314
1131.521, 4121.357
1132.753, 3982.135
1133.986, 3948.389
1135.218, 3919.387
1136.450, 4242.188
1137.682, 3843.441
1138.914, 4028.549
1140.146, 3832.801
1141.377, 3892.453
1142.609, 3638.434
1143.840, 3516.176
1145.071, 3756.182
1146.301, 3655.715
1147.532, 3808.963
1148.762, 3539.719
1149.992, 3473.877
1151.222, 3329.979
1152.452, 3191.793
1153.682, 3469.777
1154.911, 3024.613
1156.140, 3236.777
1157.369, 3026.115
1158.598, 2867.674
1159.827, 3082.576
1161.055, 2951.168
1162.284, 2841.205
1163.512, 2738.877
1164.740, 2741.303
1165.967, 2708.242
1167.195, 2616.027
1168.422, 2553.957
1169.650, 2458.088
1170.877, 2333.111
1172.103, 2254.619
1173.330, 2083.521
1174.557, 1990.717
1175.783, 2065.273
1177.009, 1986.627
1178.235, 1623.436
1179.461, 1805.217
1180.686, 1584.768
1181.912, 1620.096
1183.137, 1400.193
1184.362, 1561.695
1185.587, 1625.525
1186.811, 1602.570
1188.036, 1236.496
1189.260, 1323.119
1190.484, 1222.295
1191.708, 1114.549
1192.932, 1156.955
1194.155, 816.234
1195.378, 833.551
1196.602, 815.695
1197.825, 865.939
1199.047, 593.232
1200.270, 833.363
1201.492, 497.508
1202.715, 858.289
1203.937, 325.922
1205.159, 779.367
1206.380, 580.812
1207.602, 587.201
1208.823, 150.188
1210.044, 400.750
1211.265, 429.996
1212.486, 545.705
1213.707, 344.018
1214.927, 280.193
1216.147, 389.377
1217.367, 186.543
1218.587, 385.994
1219.807, 215.242
1221.027, 208.164
1222.246, 143.447
1223.465, 123.732
1224.684, 200.035
1225.903, 308.781
1227.121, 179.035
1228.340, 95.428
1229.558, 237.982
1230.776, 325.326
1231.994, 60.627
1233.212, 42.850
1234.429, 284.248
1235.646, 131.961
1236.864, 46.986
1238.081, 315.953
1239.297, 131.869
1240.514, 264.623
1241.730, 246.521
1242.947, 33.945
1244.163, 145.828
1245.378, 173.201
1246.594, 115.885
1247.810, 291.117
1249.025, 217.104
1250.240, 274.395
1251.455, 157.395
1252.670, 34.668
1253.885, 50.484
1255.099, 89.271
1256.313, 7.043
1257.527, 110.316
1258.741, 144.168
1259.955, 123.578
1261.168, 55.896
1262.382, 288.734
1263.595, 73.906
1264.808, 88.877
1266.021, 32.111
1267.233, 258.793
1268.446, 94.615
1269.658, 245.354
1270.870, 156.012
1272.082, 105.707
1273.294, 73.137
1274.505, 51.566
1275.716, 260.373
1276.928, 126.684
1278.139, 6.479
1279.349, 87.506
1280.560, 151.369
1281.770, 202.150
1282.981, 92.756
1284.191, 123.701
1285.401, 7.562
1286.610, 45.705
1287.820, 22.100
1289.029, 31.961
1290.239, 130.834
1291.448, 59.350
1292.656, 54.256
1293.865, 42.271
1295.073, 116.912
1296.282, 135.541
1297.490, 209.332
1298.698, 177.971
1299.906, 218.289
1301.113, 143.691
1302.320, 27.982
1303.528, 24.305
1304.735, 62.549
1305.942, 107.248
1307.148, 65.074
1308.355, 97.066
1309.561, 19.863
1310.767, 240.166
1311.973, 95.125
1313.179, 215.998
1314.384, 7.207
1315.590, 238.508
1316.795, 142.172
1318.000, 273.795
1319.205, 82.375
1320.410, 147.914
1321.614, 184.410
1322.819, 9.135
1324.023, 329.051
1325.227, 76.426
1326.431, 209.770
1327.634, 236.082
1328.838, 61.762
1330.041, 93.441
1331.244, 202.176
1332.447, 462.125
1333.650, 90.299
1334.852, 304.629
1336.055, 221.348
1337.257, 101.553
1338.459, 217.197
1339.661, 211.295
1340.862, 253.955
1342.064, 234.479
1343.265, 227.281
1344.466, 267.686
1345.667, 263.055
1346.868, 155.785
1348.068, 348.520
1349.269, 391.984
1350.469, 97.777
1351.669, 420.363
1352.869, 252.441
1354.069, 352.070
1355.268, 441.805
1356.468, 277.141
1357.667, 370.602
1358.866, 548.527
1360.065, 434.582
1361.263, 560.531
1362.462, 324.438
1363.660, 354.684
1364.858, 550.273
1366.056, 260.992
1367.254, 510.945
1368.451, 457.719
1369.649, 466.934
1370.846, 222.258
1372.043, 637.832
1373.240, 401.625
1374.436, 466.219
1375.633, 486.316
1376.829, 372.555
1378.025, 266.859
1379.221, 176.574
1380.417, 375.258
1381.613, 416.875
1382.808, 446.043
1384.003, 302.230
1385.199, 235.555
1386.393, 515.832
1387.588, 172.773
1388.783, 434.688
1389.977, 155.637
1391.171, 293.777
1392.365, 76.398
1393.559, 177.000
1394.753, 375.863
1395.946, 139.941
1397.140, 285.055
1398.333, 378.824
1399.526, 451.254
1400.719, 173.203
1401.911, 400.844
1403.104, 207.613
1404.296, 288.176
1405.488, 57.781
1406.680, 278.359
1407.872, 22.555
1409.063, 165.473
1410.255, 445.984
1411.446, 212.992
1412.637, 328.043
1413.828, 13.484
1415.018, 97.984
1416.209, 165.633
1417.399, 118.340
1418.589, 27.211
1419.779, 100.961
1420.969, 7.711
1422.159, 187.672
1423.348, 126.559
1424.537, 212.883
1425.726, 94.098
1426.915, 163.516
1428.104, 124.297
1429.293, 92.844
1430.481, 1.922
1431.669, 42.656
1432.857, 1.309
1434.045, 27.074
1435.233, 12.598
1436.420, 0.000
##END=



