##NAMES=Heulandite-Ca
##RRUFFID=R060465
##IDEAL CHEMISTRY=(Ca,Na,K)_5_(Si_27_Al_9_)O_72_&#183;26H_2_O
##LOCALITY=Garrawilla, near Gunnadah, New South Wales, Australia
##OWNER=RRUFF
##SOURCE=Michael Scott
##DESCRIPTION=Orange fan of platy crystals
##STATUS=The identification of this mineral has been confirmed by X-ray diffraction and chemical analysis
##URL=rruff.info/R060465
##MEASURED CHEMISTRY=(Ca_0.66_Na_0.24_K_0.10_)_5_(Si_0.77_Al_0.23_)_36_O_72_Â·24H_2_O
##PIN_ID=M01887
##ORIENTATION=Laser parallel to b* (0 1 0). Fiducial mark perpendicular to laser is parallel to -c [0 0 -1]
83.24300, 0.0000000E+00
84.48300, 165.3413
85.72200, 9.392822
86.96100, 78.15698
88.20000, 1.532715
89.43900, 220.8086
90.67800, 593.4502
91.91600, 1066.131
93.15500, 1674.551
94.39300, 2428.073
95.63100, 3161.308
96.86900, 3938.809
98.10600, 4708.941
99.34400, 5379.615
100.5810, 6296.054
101.8190, 6971.733
103.0560, 7600.323
104.2930, 8439.648
105.5290, 9104.692
106.7660, 9916.584
108.0020, 10538.07
109.2390, 11255.08
110.4750, 11752.77
111.7110, 11976.40
112.9460, 12535.68
114.1820, 13022.16
115.4170, 13384.39
116.6530, 13918.96
117.8880, 14014.52
119.1230, 14402.77
120.3580, 14544.44
121.5920, 14890.19
122.8270, 15220.71
124.0610, 15469.77
125.2950, 15619.17
126.5290, 15644.77
127.7630, 16040.43
128.9970, 16253.04
130.2300, 16146.51
131.4640, 16460.75
132.6970, 16551.70
133.9300, 16872.39
135.1630, 17076.69
136.3950, 17098.95
137.6280, 17484.27
138.8600, 17777.57
140.0920, 17616.44
141.3240, 17782.37
142.5560, 17523.76
143.7880, 17333.07
145.0190, 16794.10
146.2510, 16561.82
147.4820, 16069.26
148.7130, 15566.40
149.9440, 14959.22
151.1750, 14755.72
152.4050, 14345.90
153.6360, 13665.75
154.8660, 13032.24
156.0960, 12636.38
157.3260, 12095.90
158.5560, 11632.85
159.7850, 11259.51
161.0150, 10947.09
162.2440, 10573.71
163.4730, 10144.47
164.7020, 9780.796
165.9310, 9454.708
167.1590, 8987.297
168.3880, 8553.259
169.6160, 8181.963
170.8440, 7962.422
172.0720, 7528.674
173.3000, 7065.396
174.5280, 6757.602
175.7550, 6285.296
176.9820, 6023.486
178.2100, 5593.178
179.4370, 5071.373
180.6630, 4710.072
181.8900, 4596.280
183.1170, 4023.402
184.3430, 3919.716
185.5690, 3896.472
186.7950, 3600.472
188.0210, 3366.359
189.2470, 3260.026
190.4720, 2947.608
191.6970, 2772.202
192.9230, 2844.279
194.1480, 2646.276
195.3730, 2517.790
196.5970, 2347.711
197.8220, 2280.051
199.0460, 2380.477
200.2700, 2249.603
201.4940, 2306.230
202.7180, 1971.074
203.9420, 1645.440
205.1660, 1408.260
206.3890, 1100.525
207.6120, 1138.232
208.8350, 1004.369
210.0580, 990.9238
211.2810, 895.8828
212.5040, 784.2354
213.7260, 838.9688
214.9480, 772.0723
216.1700, 737.5371
217.3920, 758.3584
218.6140, 695.1318
219.8360, 714.0527
221.0570, 642.9170
222.2790, 631.1182
223.5000, 647.6543
224.7210, 607.5195
225.9410, 707.7100
227.1620, 847.2217
228.3820, 745.0518
229.6030, 815.1924
230.8230, 896.5654
232.0430, 1035.149
233.2630, 1053.353
234.4820, 1338.520
235.7020, 1282.683
236.9210, 1530.987
238.1400, 1722.162
239.3590, 1742.006
240.5780, 1938.362
241.7970, 2140.114
243.0150, 2257.122
244.2340, 2506.339
245.4520, 2647.632
246.6700, 2838.948
247.8880, 2984.237
249.1060, 3059.544
250.3230, 3123.359
251.5400, 3125.455
252.7580, 3093.180
253.9750, 3001.660
255.1920, 2939.620
256.4080, 2815.282
257.6250, 2724.279
258.8410, 2551.318
260.0580, 2401.276
261.2740, 2291.396
262.4900, 2066.179
263.7050, 1889.484
264.9210, 1802.264
266.1360, 1662.498
267.3520, 1477.174
268.5670, 1379.621
269.7820, 1132.794
270.9960, 1121.725
272.2110, 874.0615
273.4250, 724.7695
274.6400, 553.8477
275.8540, 484.2793
277.0680, 387.0527
278.2810, 336.1543
279.4950, 96.59375
280.7090, 172.3506
281.9220, 41.59277
283.1350, 50.74023
284.3480, 108.6641
285.5610, 236.8369
286.7730, 340.8096
287.9860, 253.6064
289.1980, 222.2236
290.4100, 393.6611
291.6220, 273.9492
292.8340, 429.0732
294.0460, 295.0635
295.2570, 361.8994
296.4690, 391.5967
297.6800, 331.1650
298.8910, 376.5967
300.1020, 360.9043
301.3120, 417.0869
302.5230, 472.1582
303.7330, 332.1318
304.9440, 286.9805
306.1540, 354.6934
307.3630, 254.2852
308.5730, 290.7373
309.7830, 180.0566
310.9920, 336.2275
312.2010, 93.27832
313.4100, 254.1689
314.6190, 113.9297
315.8280, 153.5391
317.0370, 16.99512
318.2450, 37.30371
319.4530, 35.44629
320.6610, 66.56543
321.8690, 148.7422
323.0770, 236.0859
324.2850, 210.5938
325.4920, 445.2646
326.6990, 394.0938
327.9060, 454.0801
329.1130, 336.2109
330.3200, 422.4727
331.5270, 504.7607
332.7330, 511.0967
333.9390, 710.4336
335.1450, 622.7559
336.3510, 647.0547
337.5570, 674.3389
338.7630, 804.5898
339.9680, 782.7998
341.1740, 888.0049
342.3790, 807.2246
343.5840, 952.4619
344.7890, 1172.750
345.9930, 1071.104
347.1980, 1243.569
348.4020, 1325.150
349.6060, 1407.870
350.8100, 1490.726
352.0140, 1625.185
353.2180, 1782.837
354.4210, 1951.088
355.6250, 2014.468
356.8280, 2262.974
358.0310, 2404.604
359.2340, 2489.356
360.4360, 2862.230
361.6390, 2913.223
362.8410, 3271.332
364.0430, 3560.559
365.2450, 3786.898
366.4470, 3935.352
367.6490, 4291.914
368.8510, 4518.588
370.0520, 4842.367
371.2530, 5126.254
372.4540, 5538.244
373.6550, 5790.338
374.8560, 6157.533
376.0560, 6374.455
377.2570, 6913.145
378.4570, 7215.317
379.6570, 7638.462
380.8570, 8304.086
382.0570, 8705.945
383.2560, 9420.781
384.4560, 10015.29
385.6550, 10683.76
386.8540, 11757.61
388.0530, 12393.00
389.2520, 13428.71
390.4510, 14570.89
391.6490, 15524.42
392.8470, 16565.26
394.0450, 17743.38
395.2430, 18637.82
396.4410, 20016.45
397.6390, 21090.08
398.8360, 22319.52
400.0340, 22720.28
401.2310, 23410.94
402.4280, 24300.65
403.6250, 23996.19
404.8210, 23895.01
406.0180, 23454.85
407.2140, 23032.93
408.4100, 22503.46
409.6060, 21433.63
410.8020, 20507.54
411.9980, 19561.90
413.1930, 18476.76
414.3890, 17532.51
415.5840, 16180.37
416.7790, 15298.73
417.9740, 14077.20
419.1680, 13043.87
420.3630, 12160.14
421.5570, 11331.35
422.7510, 10327.91
423.9450, 9392.633
425.1390, 8684.327
426.3330, 7780.099
427.5270, 7099.182
428.7200, 6493.277
429.9130, 5941.064
431.1060, 5470.146
432.2990, 4980.299
433.4920, 4521.215
434.6840, 4152.740
435.8770, 3663.683
437.0690, 3323.464
438.2610, 3082.438
439.4530, 2857.774
440.6450, 2775.734
441.8360, 2594.068
443.0280, 2533.401
444.2190, 2329.267
445.4100, 2150.657
446.6010, 2238.614
447.7920, 2176.305
448.9820, 2381.759
450.1730, 2405.254
451.3630, 2534.779
452.5530, 2801.705
453.7430, 3012.854
454.9330, 3421.633
456.1230, 3687.875
457.3120, 4189.853
458.5010, 4641.150
459.6910, 4981.877
460.8800, 5705.680
462.0680, 6207.608
463.2570, 6730.538
464.4460, 7147.381
465.6340, 7970.393
466.8220, 8505.423
468.0100, 9066.473
469.1980, 9629.538
470.3860, 10089.62
471.5730, 11071.71
472.7600, 11719.83
473.9480, 12513.95
475.1350, 13765.08
476.3210, 14897.23
477.5080, 15780.39
478.6950, 17170.55
479.8810, 18199.74
481.0670, 18954.93
482.2530, 19450.13
483.4390, 19509.34
484.6250, 18986.55
485.8100, 18180.78
486.9960, 17105.02
488.1810, 15669.27
489.3660, 14214.52
490.5510, 12615.78
491.7360, 11137.04
492.9200, 9545.314
494.1050, 8272.586
495.2890, 6862.863
496.4730, 5905.143
497.6570, 5066.424
498.8400, 4247.703
500.0240, 3389.982
501.2070, 2788.260
502.3910, 2364.533
503.5740, 2037.805
504.7570, 1762.071
505.9400, 1406.332
507.1220, 1144.587
508.3050, 982.8350
509.4870, 891.0732
510.6690, 698.3037
511.8510, 666.5244
513.0330, 583.7354
514.2140, 469.9336
515.3960, 514.1201
516.5770, 343.2939
517.7580, 148.4541
518.9390, 320.5732
520.1200, 287.6738
521.3010, 227.7520
522.4810, 125.7998
523.6610, 37.79395
524.8420, 69.70703
526.0220, 33.10059
527.2010, 36.80762
528.3810, 88.22168
529.5610, 129.6084
530.7400, 74.17383
531.9190, 16.23535
533.0980, 86.68359
534.2770, 88.56641
535.4560, 141.2871
536.6340, 177.5352
537.8120, 177.6787
538.9910, 140.6904
540.1690, 151.6289
541.3460, 137.5010
542.5240, 47.22363
543.7020, 11.73145
544.8790, 108.9434
546.0560, 74.76172
547.2330, 9.791992
548.4100, 77.16406
549.5870, 67.22168
550.7630, 53.90332
551.9400, 64.15039
553.1160, 83.72363
554.2920, 6.197266
555.4680, 29.42725
556.6440, 6.271484
557.8190, 138.1772
558.9950, 71.33789
560.1700, 133.7827
561.3450, 153.8442
562.5200, 202.4707
563.6950, 78.38721
564.8690, 146.2734
566.0440, 240.6631
567.2180, 242.9292
568.3920, 368.2129
569.5660, 396.4541
570.7400, 425.8682
571.9130, 378.4863
573.0870, 481.5322
574.2600, 437.5088
575.4330, 489.6743
576.6060, 568.7070
577.7790, 609.3906
578.9520, 672.1709
580.1240, 726.1543
581.2960, 835.4990
582.4690, 770.6763
583.6410, 986.0415
584.8120, 1019.378
585.9840, 1203.417
587.1560, 1272.104
588.3270, 1260.827
589.4980, 1631.479
590.6690, 1641.051
591.8400, 1724.330
593.0110, 1907.928
594.1810, 2110.950
595.3510, 2295.049
596.5220, 2607.064
597.6920, 2771.303
598.8610, 3002.038
600.0310, 3295.859
601.2010, 3451.125
602.3700, 3818.179
603.5390, 4237.811
604.7080, 4438.394
605.8770, 4653.971
607.0460, 4730.645
608.2140, 4881.122
609.3830, 5050.274
610.5510, 5278.175
611.7190, 5314.432
612.8870, 5364.794
614.0550, 5359.903
615.2220, 5303.794
616.3900, 5224.063
617.5570, 5124.973
618.7240, 4980.781
619.8910, 4869.513
621.0580, 4767.169
622.2240, 4613.749
623.3910, 4506.250
624.5570, 4433.677
625.7230, 4168.025
626.8890, 4082.296
628.0550, 3617.490
629.2200, 3243.605
630.3860, 3012.642
631.5510, 2664.600
632.7160, 2480.745
633.8810, 2236.279
635.0460, 2178.000
636.2100, 2014.642
637.3750, 1959.203
638.5390, 1842.684
639.7030, 1969.085
640.8670, 1923.406
642.0310, 2038.646
643.1950, 1921.805
644.3580, 1972.882
645.5210, 1983.879
646.6850, 1974.796
647.8480, 2014.632
649.0100, 1944.567
650.1730, 1819.097
651.3350, 1788.707
652.4980, 1685.243
653.6600, 1554.700
654.8220, 1469.075
655.9840, 1290.368
657.1450, 1151.579
658.3070, 1082.229
659.4680, 929.2725
660.6300, 825.9893
661.7910, 663.8789
662.9510, 677.4092
664.1120, 723.8174
665.2730, 498.3569
666.4330, 537.3174
667.5930, 514.4180
668.7530, 386.2129
669.9130, 498.5669
671.0730, 396.6797
672.2320, 383.3779
673.3920, 394.7900
674.5510, 284.9399
675.7100, 291.8413
676.8690, 255.4761
678.0280, 222.9561
679.1860, 191.4570
680.3450, 161.1724
681.5030, 77.59229
682.6610, 99.14746
683.8190, 182.6406
684.9770, 164.3218
686.1340, 78.72705
687.2920, 16.86865
688.4490, 79.27832
689.6060, 7.972656
690.7630, 19.02197
691.9200, 3.679199
693.0760, 75.84912
694.2330, 7.552246
695.3890, 65.16113
696.5450, 29.90088
697.7010, 57.86377
698.8570, 89.49561
700.0130, 43.92627
701.1680, 61.75488
702.3230, 37.66113
703.4780, 88.23047
704.6330, 49.62793
705.7880, 51.06836
706.9430, 44.47510
708.0970, 60.49512
709.2520, 39.65234
710.4060, 9.818848
711.5600, 112.6260
712.7140, 116.6387
713.8670, 38.57422
715.0210, 110.4219
716.1740, 8.192383
717.3270, 3.869629
718.4800, 112.4541
719.6330, 162.9600
720.7860, 176.3936
721.9380, 21.75635
723.0910, 83.02930
724.2430, 106.2202
725.3950, 230.3330
726.5470, 228.3574
727.6980, 236.3540
728.8500, 244.2642
730.0010, 279.1069
731.1530, 238.8853
732.3040, 186.5967
733.4550, 315.2368
734.6050, 291.8154
735.7560, 156.3301
736.9060, 208.7715
738.0560, 193.1426
739.2060, 144.4443
740.3560, 155.6719
741.5060, 196.8262
742.6560, 195.9111
743.8050, 187.9268
744.9540, 286.8726
746.1030, 337.7559
747.2520, 262.5786
748.4010, 325.3369
749.5500, 308.3662
750.6980, 277.6743
751.8460, 331.2510
752.9950, 277.7695
754.1420, 336.2261
755.2900, 302.6235
756.4380, 409.9619
757.5850, 335.2422
758.7330, 373.4644
759.8800, 458.6284
761.0270, 371.7358
762.1730, 479.7861
763.3200, 615.7783
764.4670, 646.7148
765.6130, 612.5947
766.7590, 523.4194
767.9050, 640.1875
769.0510, 749.9004
770.1960, 769.5581
771.3420, 874.1606
772.4870, 810.7095
773.6320, 906.2031
774.7770, 923.6431
775.9220, 1022.030
777.0670, 1054.363
778.2110, 1097.049
779.3560, 1075.871
780.5000, 1193.046
781.6440, 1255.169
782.7880, 1347.241
783.9320, 1313.775
785.0750, 1385.744
786.2180, 1428.185
787.3620, 1485.940
788.5050, 1480.952
789.6480, 1482.525
790.7900, 1427.793
791.9330, 1432.936
793.0750, 1526.555
794.2170, 1452.124
795.3590, 1369.646
796.5010, 1477.131
797.6430, 1375.747
798.7850, 1363.548
799.9260, 1215.049
801.0670, 1381.701
802.2080, 1233.310
803.3490, 1237.514
804.4900, 1239.718
805.6310, 1026.911
806.7710, 1086.064
807.9110, 941.6045
809.0510, 1093.429
810.1910, 1074.465
811.3310, 1081.806
812.4710, 943.9014
813.6100, 1101.926
814.7490, 1010.396
815.8880, 1043.261
817.0270, 949.7397
818.1660, 1029.853
819.3050, 992.8052
820.4430, 994.4082
821.5820, 1023.607
822.7200, 871.7227
823.8580, 748.8413
824.9950, 817.3882
826.1330, 735.4517
827.2710, 671.1084
828.4080, 659.0854
829.5450, 651.6255
830.6820, 627.6792
831.8190, 584.9180
832.9560, 621.9624
834.0920, 570.5601
835.2280, 563.0000
836.3650, 583.5386
837.5010, 615.9409
838.6360, 643.5420
839.7720, 689.5146
840.9080, 702.2861
842.0430, 679.2480
843.1780, 754.4487
844.3130, 763.0200
845.4480, 800.4238
846.5830, 895.1104
847.7170, 827.9028
848.8520, 826.4375
849.9860, 806.8418
851.1200, 1058.000
852.2540, 1016.264
853.3870, 1098.830
854.5210, 1108.277
855.6540, 1088.479
856.7880, 1326.289
857.9210, 1414.240
859.0540, 1549.968
860.1860, 1520.698
861.3190, 1503.694
862.4510, 1407.026
863.5840, 1311.311
864.7160, 1306.636
865.8480, 1091.999
866.9790, 1015.627
868.1110, 908.8926
869.2420, 758.6948
870.3740, 704.4541
871.5050, 681.0884
872.6360, 702.5181
873.7660, 704.4106
874.8970, 666.1504
876.0280, 673.9580
877.1580, 521.7515
878.2880, 626.4600
879.4180, 547.1416
880.5480, 469.7378
881.6770, 540.1436
882.8070, 393.6538
883.9360, 398.8218
885.0650, 352.2900
886.1940, 484.7383
887.3230, 476.9863
888.4520, 421.3950
889.5800, 510.6157
890.7090, 411.9854
891.8370, 390.3096
892.9650, 344.6421
894.0930, 458.9561
895.2200, 483.2520
896.3480, 448.1494
897.4750, 431.7910
898.6020, 378.0347
899.7290, 389.2612
900.8560, 353.4707
901.9830, 379.6636
903.1090, 474.8408
904.2360, 441.0020
905.3620, 321.1475
906.4880, 461.2769
907.6140, 391.3916
908.7400, 335.4917
909.8650, 418.5767
910.9900, 240.6475
912.1160, 303.7041
913.2410, 328.7471
914.3660, 172.7754
915.4900, 189.7915
916.6150, 163.7935
917.7390, 125.7832
918.8640, 32.76025
919.9880, 170.7207
921.1120, 71.33154
922.2350, 100.5654
923.3590, 68.44971
924.4820, 27.67920
925.6060, 20.16357
926.7290, 27.99121
927.8520, 117.8037
928.9740, 115.6060
930.0970, 162.3975
931.2190, 119.1797
932.3420, 59.95166
933.4640, 27.71240
934.5860, 63.46045
935.7080, 34.19824
936.8290, 35.92383
937.9510, 21.36230
939.0720, 37.66846
940.1930, 29.99609
941.3140, 89.34912
942.4350, 59.74414
943.5560, 6.179199
944.6760, 51.37500
945.7960, 47.92480
946.9170, 35.47070
948.0370, 27.98291
949.1560, 3.560547
950.2760, 46.10498
951.3960, 83.65186
952.5150, 62.79639
953.6340, 128.7261
954.7530, 88.25879
955.8720, 64.80615
956.9910, 158.3550
958.1090, 40.06396
959.2280, 136.5229
960.3460, 102.4468
961.4640, 109.1733
962.5820, 157.4785
963.6990, 103.1763
964.8170, 120.8965
965.9340, 34.33447
967.0510, 1.572754
968.1690, 86.78711
969.2850, 33.97461
970.4020, 41.25928
971.5190, 50.51562
972.6350, 175.7954
973.7510, 124.1660
974.8670, 37.59863
975.9830, 156.0513
977.0990, 122.5840
978.2150, 9.820801
979.3300, 64.76660
980.4450, 1.628418
981.5600, 33.97656
982.6750, 15.59277
983.7900, 45.78027
984.9050, 110.1543
986.0190, 202.5347
987.1340, 124.9175
988.2480, 252.3091
989.3620, 138.7104
990.4750, 165.1152
991.5890, 220.5190
992.7020, 250.9214
993.8160, 329.3335
994.9290, 347.7495
996.0420, 504.1694
997.1550, 728.5869
998.2670, 825.0020
999.3800, 1153.416
1000.492, 1484.828
1001.604, 1752.236
1002.716, 1762.642
1003.828, 1678.049
1004.940, 1240.452
1006.051, 903.8516
1007.163, 661.2539
1008.274, 598.6558
1009.385, 559.0586
1010.496, 524.4648
1011.606, 510.8740
1012.717, 539.2842
1013.827, 620.6958
1014.937, 616.1094
1016.047, 689.5210
1017.157, 739.9307
1018.267, 784.3403
1019.377, 901.7476
1020.486, 931.1533
1021.595, 1101.559
1022.704, 1039.963
1023.813, 1107.367
1024.922, 963.7690
1026.030, 924.1704
1027.139, 832.5718
1028.247, 818.0361
1029.355, 756.3730
1030.463, 717.9678
1031.571, 725.1714
1032.678, 683.5713
1033.786, 699.9707
1034.893, 755.3706
1036.000, 686.7705
1037.107, 695.1714
1038.214, 775.5728
1039.321, 629.9751
1040.427, 737.3784
1041.533, 740.7832
1042.639, 699.1885
1043.745, 585.5952
1044.851, 651.0034
1045.957, 694.4136
1047.062, 789.8247
1048.168, 762.2383
1049.273, 784.8916
1050.378, 765.0713
1051.482, 747.4907
1052.587, 674.3989
1053.692, 633.8232
1054.796, 744.9072
1055.900, 752.2715
1057.004, 522.5112
1058.108, 554.1416
1059.212, 673.0303
1060.315, 639.0000
1061.418, 713.4478
1062.522, 660.8999
1063.625, 660.3560
1064.728, 775.8154
1065.830, 701.1025
1066.933, 714.1626
1068.035, 944.4854
1069.137, 847.6323
1070.239, 1025.810
1071.341, 870.8223
1072.443, 1051.042
1073.545, 1058.218
1074.646, 1172.206
1075.747, 1291.057
1076.848, 1364.723
1077.949, 1623.104
1079.050, 1632.484
1080.150, 1866.815
1081.251, 1760.403
1082.351, 2013.599
1083.451, 1831.024
1084.551, 2077.587
1085.651, 2080.416
1086.750, 2032.991
1087.850, 2206.826
1088.949, 2106.417
1090.048, 2091.991
1091.147, 2086.090
1092.246, 2193.379
1093.345, 2194.113
1094.443, 2125.705
1095.541, 2176.788
1096.639, 2163.474
1097.737, 2236.163
1098.835, 2190.698
1099.933, 2228.424
1101.030, 2342.652
1102.128, 2285.245
1103.225, 2318.351
1104.322, 2393.877
1105.419, 2279.541
1106.515, 2377.452
1107.612, 2376.803
1108.708, 2300.727
1109.804, 2419.764
1110.900, 2468.394
1111.996, 2375.087
1113.092, 2521.423
1114.187, 2440.076
1115.283, 2290.692
1116.378, 2410.466
1117.473, 2377.250
1118.568, 2262.043
1119.662, 2188.847
1120.757, 2371.660
1121.851, 2353.483
1122.946, 2357.316
1124.040, 2348.159
1125.134, 2304.013
1126.227, 2337.947
1127.321, 2283.751
1128.414, 2365.636
1129.508, 2274.531
1130.601, 2243.438
1131.693, 2320.356
1132.786, 2372.285
1133.879, 2189.225
1134.971, 2194.177
1136.064, 2280.139
1137.156, 2175.112
1138.248, 2183.099
1139.339, 2091.097
1140.431, 1992.105
1141.522, 2016.128
1142.614, 2017.160
1143.705, 1957.206
1144.796, 2027.264
1145.887, 1933.333
1146.977, 2083.415
1148.068, 1918.509
1149.158, 2051.615
1150.248, 1913.734
1151.338, 1995.866
1152.428, 1979.011
1153.518, 1831.168
1154.607, 1800.338
1155.696, 1764.521
1156.785, 1805.716
1157.874, 1842.932
1158.963, 1875.160
1160.052, 1904.402
1161.141, 1729.659
1162.229, 1811.928
1163.317, 1821.211
1164.405, 1658.507
1165.493, 1713.816
1166.581, 1762.145
1167.668, 1684.486
1168.756, 1706.842
1169.843, 1602.211
1170.930, 1579.594
1172.017, 1577.991
1173.103, 1584.401
1174.190, 1461.826
1175.276, 1464.968
1176.363, 1466.719
1177.449, 1360.186
1178.535, 1317.668
1179.620, 1222.164
1180.706, 1168.674
1181.791, 1225.198
1182.877, 1182.736
1183.962, 1025.292
1185.047, 1039.863
1186.131, 896.4668
1187.216, 968.0869
1188.300, 716.7197
1189.385, 720.3779
1190.469, 754.0527
1191.553, 651.7441
1192.637, 585.4502
1193.720, 475.1719
1194.804, 416.9082
1195.887, 377.6592
1196.970, 324.1787
1198.053, 235.2100
1199.136, 287.0098
1200.219, 293.8262
1201.301, 320.6582
1202.383, 204.5137
1203.465, 212.3945
1204.547, 169.2939
1205.629, 223.2314
1206.711, 159.4043
1207.792, 117.1914
1208.874, 39.19824
1209.955, 50.21973
1211.036, 58.74121
1212.117, 21.70410
1213.198, 73.34082
1214.278, 131.4014
1215.359, 4.478516
1216.439, 37.58594
1217.519, 24.29004
1218.599, 8.835938
1219.678, 141.0215
1220.758, 101.9248
1221.837, 116.8438
1222.917, 85.79688
1223.996, 17.77051
1225.075, 72.73730
1226.153, 42.71973
1227.232, 104.7041
1228.310, 39.28320
1229.389, 36.70410
1230.467, 39.33008
1231.545, 112.7090
1232.622, 35.54785
1233.700, 33.63281
1234.777, 108.7490
1235.855, 102.9287
1236.932, 191.1592
1238.009, 183.4180
1239.086, 79.73535
1240.162, 20.89746
1241.239, 91.47754
1242.315, 95.88770
1243.391, 78.31641
1244.467, 105.7725
1245.543, 171.2520
1246.619, 100.7510
1247.694, 137.2656
1248.769, 208.8008
1249.844, 321.3574
1250.919, 102.9492
1251.994, 172.5586
1253.069, 155.1865
1254.144, 145.8555
1255.218, 238.5430
1256.292, 160.2715
1257.366, 265.0225
1258.440, 280.8193
1259.514, 245.6494
1260.587, 322.4971
1261.661, 282.3613
1262.734, 352.2461
