##NAMES=Heulandite-Ca
##RRUFFID=R040021
##IDEAL CHEMISTRY=(Ca,Na,K)_5_(Si_27_Al_9_)O_72_&#183;26H_2_O
##LOCALITY=Prospect Park, Patterson, Passaic County, New Jersey, USA
##OWNER=RRUFF
##SOURCE=University of Arizona Mineral Museum
##DESCRIPTION=Group of colorless lamellar crystals
##STATUS=The identification of this mineral has been confirmed by X-ray diffraction and chemical analysis
##URL=rruff.info/R040021
##MEASURED CHEMISTRY=Na_0.25_(Na_0.55_K_0.45_)_Σ=1_(Ca_2.42_Na_0.85_Sr_0.73_)_Σ=4.00_(Si_27.60_Al_8.40_)_Σ=36_O_72_·24H_2_O ; H_2_O estimated by difference
##PIN_ID=m00146
##ORIENTATION=Laser parallel to [-1 0 -1]. Fiducial mark perpendicular to laser is parallel to b* (0 1 0)
103.124, 0.000
104.516, 187.938
105.908, 460.719
107.300, 319.312
108.691, 73.930
110.082, 1081.711
111.473, 1921.277
112.864, 2456.617
114.254, 1654.773
115.644, 2633.879
117.034, 2919.977
118.424, 3193.773
119.813, 4472.844
121.203, 3956.668
122.592, 5147.332
123.981, 6081.477
125.369, 6022.047
126.758, 6945.250
128.146, 7298.508
129.534, 8780.090
130.922, 9170.984
132.309, 10384.926
133.696, 10827.086
135.083, 12829.625
136.470, 13120.043
137.857, 14422.055
139.243, 15066.012
140.630, 15797.438
142.016, 15946.602
143.401, 16664.258
144.787, 17068.414
146.172, 17431.945
147.557, 17469.125
148.942, 17563.766
150.327, 17610.008
151.711, 17672.113
153.096, 18100.812
154.480, 17760.562
155.863, 17375.336
157.247, 17558.734
158.630, 16832.047
160.013, 16415.803
161.396, 15878.891
162.779, 15301.615
164.161, 14528.633
165.544, 13983.727
166.926, 13087.826
168.308, 12458.121
169.689, 11311.594
171.070, 10838.328
172.452, 9954.209
173.833, 8944.293
175.213, 8313.158
176.594, 7237.309
177.974, 6907.281
179.354, 6485.127
180.734, 5854.252
182.114, 5370.791
183.493, 5984.033
184.872, 5248.570
186.251, 5236.285
187.630, 4856.879
189.008, 4765.885
190.387, 5084.904
191.765, 4824.783
193.143, 5113.129
194.520, 4811.236
195.898, 4788.441
197.275, 4513.061
198.652, 4490.277
200.029, 4087.822
201.405, 3746.066
202.782, 3079.059
204.158, 2865.076
205.534, 2631.896
206.909, 1883.752
208.285, 1701.312
209.660, 1182.135
211.035, 843.785
212.410, 339.084
213.784, 198.990
215.159, 142.531
216.533, 218.561
217.907, 645.041
219.281, 586.080
220.654, 973.727
222.027, 881.000
223.400, 938.900
224.773, 882.439
226.146, 877.674
227.518, 841.611
228.891, 724.170
230.263, 721.701
231.634, 460.832
233.006, 351.670
234.377, 197.225
235.748, 223.473
237.119, 225.340
238.490, 931.252
239.860, 1062.033
241.231, 1449.297
242.601, 1656.602
243.970, 1848.469
245.340, 2009.594
246.709, 2154.992
248.079, 2465.797
249.448, 2472.674
250.816, 2574.660
252.185, 2576.576
253.553, 2467.492
254.921, 2533.762
256.289, 2297.521
257.657, 2276.834
259.024, 2233.768
260.391, 2246.348
261.758, 2080.570
263.125, 2065.420
264.492, 1831.895
265.858, 1824.988
267.224, 1851.688
268.590, 1443.812
269.956, 1778.746
271.321, 1650.164
272.687, 1634.705
274.052, 1411.084
275.416, 1467.000
276.781, 1650.430
278.146, 1513.158
279.510, 1623.727
280.874, 1644.041
282.237, 1927.033
283.601, 1612.633
284.964, 1653.727
286.327, 2045.232
287.690, 1951.129
289.053, 2018.389
290.416, 2360.012
291.778, 2303.018
293.140, 2474.416
294.502, 2491.207
295.863, 2666.352
297.225, 2725.723
298.586, 2757.158
299.947, 2813.539
301.308, 2832.508
302.668, 2743.119
304.029, 2862.473
305.389, 2932.008
306.749, 2941.766
308.108, 3181.781
309.468, 3070.078
310.827, 3172.688
312.186, 3200.693
313.545, 3402.459
314.903, 3616.496
316.262, 3933.652
317.620, 4126.641
318.978, 4418.066
320.336, 4579.764
321.693, 4846.508
323.051, 5112.846
324.408, 5129.277
325.765, 5718.312
327.121, 5765.676
328.478, 6083.564
329.834, 6879.215
331.190, 6688.973
332.546, 6397.382
333.902, 6928.082
335.257, 6868.605
336.612, 7100.291
337.967, 7189.285
339.322, 7296.674
340.677, 7446.558
342.031, 7551.957
343.385, 7726.926
344.739, 7909.525
346.093, 8146.812
347.446, 8374.182
348.799, 8765.890
350.153, 9138.188
351.505, 9606.563
352.858, 9748.142
354.210, 10230.661
355.563, 10480.695
356.915, 11281.550
358.267, 11594.302
359.618, 12308.893
360.969, 13061.472
362.321, 13589.951
363.672, 14317.090
365.022, 14923.084
366.373, 15759.092
367.723, 16538.885
369.073, 17122.664
370.423, 18068.428
371.773, 18465.580
373.122, 19509.803
374.471, 20350.811
375.821, 20479.381
377.169, 21718.824
378.518, 22033.758
379.866, 22876.678
381.215, 23968.736
382.563, 24589.539
383.910, 25178.277
385.258, 26448.270
386.605, 28138.773
387.952, 28344.279
389.299, 30437.756
390.646, 31612.404
391.992, 33214.707
393.339, 35307.340
394.685, 37193.402
396.031, 39713.566
397.376, 40930.812
398.722, 42908.688
400.067, 44240.195
401.412, 45100.730
402.757, 45436.414
404.101, 45368.488
405.446, 44661.227
406.790, 43729.383
408.134, 42407.926
409.478, 40336.629
410.821, 38008.492
412.165, 35322.398
413.508, 33649.434
414.851, 30695.732
416.193, 28429.027
417.536, 26339.783
418.878, 24112.500
420.220, 22320.203
421.562, 20343.162
422.904, 18614.082
424.245, 16935.410
425.586, 15287.764
426.927, 14137.314
428.268, 12500.948
429.609, 11407.957
430.949, 10515.087
432.289, 9969.522
433.629, 8679.372
434.969, 8288.566
436.309, 7548.379
437.648, 7330.127
438.987, 6699.884
440.326, 6234.964
441.665, 6034.451
443.003, 5957.593
444.342, 5603.595
445.680, 5710.467
447.018, 5700.189
448.355, 5446.709
449.693, 5698.967
451.030, 5833.330
452.367, 6355.584
453.704, 6431.166
455.041, 7145.043
456.377, 7665.576
457.713, 8518.438
459.049, 9257.153
460.385, 10433.613
461.721, 11579.942
463.056, 12457.992
464.391, 13317.321
465.726, 14738.819
467.061, 15562.281
468.395, 16515.479
469.730, 18342.369
471.064, 19154.510
472.398, 21845.793
473.731, 23499.920
475.065, 25685.635
476.398, 28010.973
477.731, 30287.406
479.064, 31396.396
480.397, 32320.373
481.729, 32372.807
483.062, 31400.482
484.394, 29860.783
485.725, 27227.678
487.057, 24850.512
488.389, 22215.195
489.720, 19250.793
491.051, 16768.717
492.382, 14633.442
493.712, 12633.666
495.043, 10558.362
496.373, 8912.220
497.703, 7842.139
499.032, 6811.832
500.362, 5643.168
501.691, 4797.898
503.020, 3931.197
504.349, 3606.954
505.678, 2977.486
507.007, 2746.710
508.335, 2287.864
509.663, 2059.084
510.991, 1872.362
512.319, 1713.783
513.646, 1612.996
514.973, 1296.027
516.300, 1309.236
517.627, 1096.099
518.954, 794.924
520.280, 907.920
521.607, 843.406
522.933, 689.863
524.259, 545.656
525.584, 409.598
526.910, 450.134
528.235, 402.526
529.560, 379.182
530.885, 181.253
532.209, 16.546
533.534, 149.236
534.858, 198.911
536.182, 13.796
537.506, 176.429
538.829, 49.528
540.152, 125.619
541.476, 171.237
542.799, 91.249
544.121, 115.098
545.444, 138.435
546.766, 47.171
548.088, 6.228
549.410, 70.169
550.732, 64.019
552.053, 88.868
553.375, 29.875
554.696, 26.733
556.017, 115.999
557.337, 66.739
558.658, 231.475
559.978, 119.629
561.298, 145.494
562.618, 129.054
563.938, 189.827
565.257, 291.427
566.576, 289.034
567.895, 309.646
569.214, 430.453
570.533, 455.057
571.851, 349.173
573.170, 527.775
574.488, 660.358
575.805, 617.972
577.123, 765.597
578.440, 758.264
579.758, 941.946
581.075, 965.635
582.391, 1290.350
583.708, 1303.060
585.024, 1463.810
586.341, 1721.578
587.657, 1925.352
588.972, 2072.147
590.288, 2263.949
591.603, 2544.990
592.918, 2672.583
594.233, 3173.440
595.548, 3354.314
596.863, 3738.227
598.177, 3965.162
599.491, 4621.113
600.805, 4861.084
602.119, 5318.072
603.432, 5936.080
604.746, 6146.311
606.059, 6601.181
607.372, 6612.260
608.685, 6840.354
609.997, 6732.486
611.309, 6748.622
612.621, 6406.775
613.933, 6376.936
615.245, 5974.102
616.557, 5606.271
617.868, 5084.447
619.179, 4757.627
620.490, 4173.814
621.801, 4006.004
623.111, 3478.203
624.421, 3314.409
625.731, 2735.620
627.041, 2632.839
628.351, 2122.055
629.660, 1818.280
630.970, 1750.505
632.279, 1391.732
633.588, 1246.961
634.896, 908.186
636.205, 1066.399
637.513, 650.602
638.821, 718.787
640.129, 542.950
641.437, 610.089
642.744, 441.196
644.051, 361.268
645.358, 352.298
646.665, 331.286
647.972, 215.233
649.278, 225.205
650.584, 74.989
651.890, 168.794
653.196, 100.552
654.502, 56.259
655.807, 81.916
657.113, 65.839
658.418, 18.049
659.722, 231.479
661.027, 324.149
662.331, 214.999
663.636, 117.985
664.940, 250.072
666.244, 251.312
667.547, 291.705
668.851, 168.271
670.154, 206.959
671.457, 244.786
672.760, 95.770
674.062, 319.850
675.365, 298.654
676.667, 91.888
677.969, 310.945
679.271, 230.245
680.572, 175.283
681.874, 134.991
683.175, 104.213
684.476, 55.087
685.777, 83.985
687.077, 113.514
688.378, 26.604
689.678, 58.435
690.978, 31.700
692.278, 203.119
693.577, 175.396
694.877, 2.129
696.176, 190.746
697.475, 3.820
698.774, 270.274
700.072, 173.608
701.371, 274.997
702.669, 124.180
703.967, 218.338
705.265, 424.421
706.562, 301.995
707.860, 149.801
709.157, 389.242
710.454, 245.249
711.751, 407.085
713.047, 413.350
714.344, 540.922
715.640, 426.478
716.936, 515.889
718.232, 606.955
719.527, 561.672
720.823, 614.232
722.118, 633.231
723.413, 626.003
724.708, 570.036
726.002, 735.697
727.297, 503.167
728.591, 676.632
729.885, 764.093
731.179, 692.642
732.472, 661.348
733.766, 797.625
735.059, 752.993
736.352, 732.270
737.645, 721.313
738.937, 761.412
740.230, 800.568
741.522, 897.620
742.814, 924.288
744.106, 996.374
745.397, 1060.637
746.689, 1016.488
747.980, 1222.170
749.271, 1125.979
750.562, 1446.185
751.853, 1301.979
753.143, 1561.393
754.433, 1592.607
755.723, 1583.420
757.013, 1764.197
758.303, 1744.421
759.592, 1973.979
760.881, 2106.803
762.170, 2249.280
763.459, 2464.903
764.748, 2552.215
766.036, 2915.986
767.325, 2955.346
768.613, 3271.123
769.901, 3329.117
771.188, 3458.283
772.476, 3897.520
773.763, 3811.191
775.050, 4225.971
776.337, 4164.750
777.624, 4296.877
778.910, 4442.341
780.196, 4553.821
781.482, 4391.213
782.768, 4329.992
784.054, 4273.160
785.339, 4207.506
786.625, 3926.154
787.910, 4064.822
789.195, 3756.986
790.479, 3628.691
791.764, 3507.752
793.048, 3196.498
794.332, 3170.874
795.616, 3034.941
796.900, 2911.070
798.183, 2629.396
799.467, 2666.291
800.750, 2460.050
802.033, 2213.625
803.316, 2389.615
804.598, 1935.551
805.880, 2199.757
807.163, 2137.259
808.445, 2123.375
809.726, 2117.207
811.008, 2078.046
812.289, 2012.025
813.570, 1997.734
814.851, 1962.124
816.132, 1952.901
817.413, 1890.846
818.693, 1781.617
819.973, 1667.911
821.253, 1514.522
822.533, 1314.962
823.813, 1209.086
825.092, 967.243
826.371, 866.409
827.650, 704.225
828.929, 657.213
830.208, 632.070
831.486, 409.587
832.764, 346.443
834.042, 327.162
835.320, 311.385
836.598, 273.301
837.875, 210.477
839.152, 156.659
840.429, 266.447
841.706, 179.725
842.983, 172.687
844.259, 166.188
845.536, 55.677
846.812, 87.982
848.088, 44.595
849.363, 18.121
850.639, 84.314
851.914, 54.504
853.189, 43.011
854.464, 140.035
855.739, 208.403
857.013, 156.062
858.288, 101.046
859.562, 267.812
860.836, 198.991
862.110, 28.542
863.383, 205.779
864.656, 48.426
865.930, 112.657
867.203, 1.168
868.475, 66.415
869.748, 47.576
871.020, 10.646
872.292, 36.896
873.564, 3.243
874.836, 1.995
876.108, 12.450
877.379, 0.521
878.650, 19.823
879.922, 33.097
881.192, 76.021
882.463, 23.418
883.733, 143.252
885.004, 82.115
886.274, 167.138
887.544, 52.365
888.813, 15.741
890.083, 99.246
891.352, 67.080
892.621, 146.691
893.890, 20.653
895.159, 20.256
896.427, 42.943
897.695, 149.721
898.964, 32.299
900.232, 33.776
901.499, 47.846
902.767, 94.396
904.034, 18.449
905.301, 2.586
906.568, 232.512
907.835, 90.359
909.102, 84.121
910.368, 14.799
911.634, 83.377
912.900, 20.128
914.166, 149.251
915.432, 89.553
916.697, 54.227
917.962, 111.864
919.227, 9.877
920.492, 79.795
921.757, 56.633
923.021, 152.390
924.285, 109.070
925.550, 52.677
926.813, 165.201
928.077, 138.654
929.341, 63.034
930.604, 160.337
931.867, 129.569
933.130, 123.730
934.393, 242.820
935.655, 122.844
936.918, 291.803
938.180, 192.698
939.442, 160.527
940.703, 253.290
941.965, 334.988
943.226, 222.628
944.488, 270.206
945.749, 332.723
947.009, 298.182
948.270, 372.125
949.530, 377.935
950.791, 449.232
952.051, 480.479
953.311, 492.682
954.570, 585.833
955.830, 492.938
957.089, 648.001
958.348, 597.021
959.607, 609.997
960.866, 701.933
962.124, 627.826
963.383, 811.680
964.641, 745.507
965.899, 917.313
967.156, 977.165
968.414, 995.044
969.671, 1030.926
970.928, 1027.794
972.185, 1146.678
973.442, 1125.577
974.699, 1177.502
975.955, 1353.427
977.211, 1314.361
978.468, 1489.313
979.723, 1382.254
980.979, 1381.229
982.234, 1661.234
983.490, 1368.481
984.745, 1692.561
986.000, 1755.623
987.254, 1619.664
988.509, 1912.585
989.763, 1869.263
991.017, 1943.732
992.271, 1974.674
993.525, 2079.323
994.779, 2125.956
996.032, 2182.597
997.285, 2361.557
998.538, 2285.643
999.791, 2843.481
1001.044, 2596.347
1002.296, 2867.306
1003.548, 2680.030
1004.800, 2654.800
1006.052, 2843.289
1007.304, 2750.041
1008.555, 2828.561
1009.807, 2906.730
1011.058, 2845.713
1012.309, 3079.412
1013.559, 3114.533
1014.810, 3042.235
1016.060, 3314.087
1017.310, 3302.316
1018.560, 3155.979
1019.810, 3384.281
1021.060, 3538.190
1022.309, 3216.483
1023.558, 3502.988
1024.807, 3317.832
1026.056, 3450.597
1027.305, 3319.507
1028.553, 3472.174
1029.801, 3349.654
1031.049, 3345.367
1032.297, 3269.579
1033.545, 3537.467
1034.793, 3292.753
1036.040, 3378.631
1037.287, 3241.484
1038.534, 3352.152
1039.781, 3569.987
1041.027, 3334.988
1042.274, 3557.275
1043.520, 3531.613
1044.766, 3403.389
1046.012, 3290.448
1047.257, 3360.025
1048.503, 3528.328
1049.748, 3217.973
1050.993, 3484.736
1052.238, 3415.277
1053.483, 3666.325
1054.727, 3437.682
1055.971, 3401.317
1057.216, 3726.049
1058.459, 3354.081
1059.703, 3226.047
1060.947, 3402.467
1062.190, 3359.447
1063.433, 3374.062
1064.676, 3354.469
1065.919, 3467.582
1067.162, 3677.384
1068.404, 3724.243
1069.646, 3626.232
1070.888, 3931.292
1072.130, 3892.031
1073.372, 3914.496
1074.613, 4326.795
1075.855, 4327.556
1077.096, 4389.104
1078.337, 4899.549
1079.578, 4996.549
1080.818, 5232.191
1082.059, 5368.629
1083.299, 5695.086
1084.539, 5755.395
1085.779, 6006.797
1087.018, 6171.040
1088.258, 6227.805
1089.497, 6377.432
1090.736, 6596.461
1091.975, 6574.979
1093.213, 6624.230
1094.452, 6956.357
1095.690, 6810.883
1096.928, 6940.150
1098.166, 7089.760
1099.404, 7262.332
1100.642, 7048.012
1101.879, 7237.535
1103.116, 7204.032
1104.353, 7356.031
1105.590, 7229.068
1106.827, 7434.035
1108.063, 7231.008
1109.299, 7369.981
1110.536, 7394.927
1111.771, 7361.611
1113.007, 7508.689
1114.243, 7352.788
1115.478, 7435.918
1116.713, 7327.789
1117.948, 7380.222
1119.183, 7198.264
1120.418, 7436.296
1121.652, 7421.373
1122.886, 7335.572
1124.120, 7424.624
1125.354, 7313.638
1126.588, 7376.769
1127.821, 7128.854
1129.055, 7381.486
1130.288, 7443.293
1131.521, 7238.412
1132.753, 7087.307
1133.986, 7073.512
1135.218, 7200.662
1136.450, 6763.025
1137.682, 7005.203
1138.914, 6535.778
1140.146, 6578.892
1141.377, 6433.979
1142.609, 6311.628
1143.840, 6397.697
1145.071, 6280.867
1146.301, 6067.000
1147.532, 6094.074
1148.762, 5814.157
1149.992, 5659.104
1151.222, 5569.146
1152.452, 5546.092
1153.682, 5178.312
1154.911, 5275.871
1156.140, 5004.266
1157.369, 4920.007
1158.598, 5001.410
1159.827, 4809.477
1161.055, 4735.143
1162.284, 4495.741
1163.512, 4401.111
1164.740, 4226.270
1165.967, 4117.367
1167.195, 4033.185
1168.422, 3905.243
1169.650, 3798.083
1170.877, 3644.098
1172.103, 3432.050
1173.330, 3245.568
1174.557, 3320.187
1175.783, 3250.254
1177.009, 2961.985
1178.235, 2915.615
1179.461, 2732.704
1180.686, 2593.595
1181.912, 2590.271
1183.137, 2451.527
1184.362, 2342.410
1185.587, 2166.804
1186.811, 2152.506
1188.036, 1938.137
1189.260, 1917.458
1190.484, 1866.128
1191.708, 1846.247
1192.932, 1532.612
1194.155, 1468.291
1195.378, 1290.216
1196.602, 1466.070
1197.825, 1100.182
1199.047, 1222.863
1200.270, 1071.751
1201.492, 1073.151
1202.715, 848.112
1203.937, 908.213
1205.159, 779.010
1206.380, 784.230
1207.602, 525.525
1208.823, 592.969
1210.044, 556.978
1211.265, 463.576
1212.486, 548.858
1213.707, 436.925
1214.927, 303.181
1216.147, 308.216
1217.367, 248.433
1218.587, 307.698
1219.807, 227.510
1221.027, 277.279
1222.246, 246.228
1223.465, 209.270
1224.684, 218.977
1225.903, 199.023
1227.121, 106.890
1228.340, 163.857
1229.558, 122.189
1230.776, 42.087
1231.994, 24.122
1233.212, 116.781
1234.429, 136.896
1235.646, 180.373
1236.864, 179.101
1238.081, 111.562
1239.297, 66.930
1240.514, 149.162
1241.730, 118.926
1242.947, 168.341
1244.163, 29.361
1245.378, 112.085
1246.594, 87.177
1247.810, 24.356
1249.025, 133.886
1250.240, 16.158
1251.455, 8.319
1252.670, 26.403
1253.885, 26.335
1255.099, 28.309
1256.313, 35.846
1257.527, 100.604
1258.741, 7.420
1259.955, 70.804
1261.168, 165.900
1262.382, 61.713
1263.595, 168.157
1264.808, 23.964
1266.021, 27.449
1267.233, 19.094
1268.446, 0.489
1269.658, 27.323
1270.870, 36.570
1272.082, 9.776
1273.294, 20.933
1274.505, 130.237
1275.716, 88.333
1276.928, 14.396
1278.139, 69.422
1279.349, 1.387
1280.560, 10.305
1281.770, 25.816
1282.981, 5.999
1284.191, 43.271
1285.401, 24.312
1286.610, 161.174
1287.820, 57.805
1289.029, 95.619
1290.239, 13.483
1291.448, 23.543
1292.656, 38.563
1293.865, 38.539
1295.073, 76.469
1296.282, 54.204
1297.490, 85.152
1298.698, 22.925
1299.906, 1.651
1301.113, 12.688
1302.320, 129.082
1303.528, 10.430
1304.735, 101.105
1305.942, 37.722
1307.148, 44.582
1308.355, 8.163
1309.561, 40.037
1310.767, 30.814
1311.973, 71.271
1313.179, 67.305
1314.384, 125.285
1315.590, 86.212
1316.795, 107.086
1318.000, 21.907
1319.205, 17.670
1320.410, 89.375
1321.614, 4.984
1322.819, 18.408
1324.023, 8.911
1325.227, 149.515
1326.431, 25.889
1327.634, 74.411
1328.838, 20.456
1330.041, 8.351
1331.244, 36.775
1332.447, 90.158
1333.650, 84.176
1334.852, 89.276
1336.055, 47.461
1337.257, 95.282
1338.459, 103.025
1339.661, 35.579
1340.862, 88.871
1342.064, 140.405
1343.265, 10.964
1344.466, 40.274
1345.667, 85.531
1346.868, 191.737
1348.068, 158.564
1349.269, 227.001
1350.469, 123.060
1351.669, 102.069
1352.869, 73.032
1354.069, 165.948
1355.268, 16.819
1356.468, 24.641
1357.667, 145.413
1358.866, 102.144
1360.065, 157.149
1361.263, 111.827
1362.462, 96.919
1363.660, 202.722
1364.858, 17.452
1366.056, 133.027
1367.254, 164.495
1368.451, 211.935
1369.649, 36.124
1370.846, 174.214
1372.043, 135.107
1373.240, 281.979
1374.436, 141.703
1375.633, 161.619
1376.829, 41.235
1378.025, 89.008
1379.221, 222.202
1380.417, 163.214
1381.613, 227.168
1382.808, 248.892
1384.003, 279.421
1385.199, 150.843
1386.393, 232.930
1387.588, 259.399
1388.783, 220.851
1389.977, 317.562
1391.171, 205.292
1392.365, 236.395
1393.559, 226.908
1394.753, 250.620
1395.946, 265.062
1397.140, 298.536
1398.333, 285.394
1399.526, 242.901
1400.719, 234.105
1401.911, 397.516
1403.104, 347.284
1404.296, 245.770
1405.488, 277.486
1406.680, 101.642
1407.872, 221.896
1409.063, 314.318
1410.255, 84.497
1411.446, 376.234
1412.637, 171.302
1413.828, 427.574
1415.018, 278.202
1416.209, 408.588
1417.399, 229.855
1418.589, 368.428
1419.779, 311.111
1420.969, 304.434
1422.159, 432.367
1423.348, 349.650
1424.537, 389.430
1425.726, 289.773
1426.915, 358.352
1428.104, 323.346
1429.293, 280.625
1430.481, 282.094
1431.669, 473.012
1432.857, 253.650
1434.045, 296.680
1435.233, 603.322
1436.420, 484.707
1437.608, 451.975
1438.795, 540.801
1439.982, 628.807
1441.169, 728.715
1442.355, 790.678
1443.542, 676.084
1444.728, 865.248
1445.914, 777.656
1447.100, 896.807
1448.286, 910.871
1449.472, 929.877
1450.657, 969.109
1451.842, 1018.742
1453.027, 1043.637
1454.212, 1106.391
1455.397, 826.742
1456.581, 949.930
1457.766, 1138.250
1458.950, 841.041
1460.134, 1045.117
1461.318, 802.996
1462.501, 843.016
1463.685, 880.289
1464.868, 684.902
1466.051, 867.896
1467.234, 686.840
1468.417, 685.877
1469.600, 652.211
1470.782, 714.232
1471.965, 459.891
1473.147, 660.393
1474.329, 478.299
1475.510, 378.688
1476.692, 394.973
1477.873, 510.188
1479.055, 521.297
1480.236, 526.072
1481.416, 309.578
1482.597, 466.732
1483.778, 413.896
1484.958, 317.082
1486.138, 509.297
1487.318, 557.504
1488.498, 364.721
