##NAMES=Heulandite-Ca
##RRUFFID=R040021
##IDEAL CHEMISTRY=(Ca,Na,K)_5_(Si_27_Al_9_)O_72_&#183;26H_2_O
##LOCALITY=Prospect Park, Patterson, Passaic County, New Jersey, USA
##OWNER=RRUFF
##SOURCE=University of Arizona Mineral Museum
##DESCRIPTION=Group of colorless lamellar crystals
##STATUS=The identification of this mineral has been confirmed by X-ray diffraction and chemical analysis
##URL=rruff.info/R040021
##MEASURED CHEMISTRY=Na_0.25_(Na_0.55_K_0.45_)_Σ=1_(Ca_2.42_Na_0.85_Sr_0.73_)_Σ=4.00_(Si_27.60_Al_8.40_)_Σ=36_O_72_·24H_2_O ; H_2_O estimated by difference
##PIN_ID=l00406
##ORIENTATION=Laser parallel to -b* (0 -1 0). Fiducial mark perpendicular to laser is parallel to c [0 0 1]
93.375, 0.000
94.768, 23.453
96.161, 212.893
97.554, 549.584
98.947, 748.312
100.340, 911.039
101.732, 1327.402
103.124, 1036.459
104.516, 1559.576
105.908, 1724.482
107.300, 1568.078
108.691, 2049.713
110.082, 2047.389
111.473, 1789.549
112.864, 3014.543
114.254, 3880.227
115.644, 4405.863
117.034, 3578.412
118.424, 4522.611
119.813, 4772.824
121.203, 5003.068
122.592, 5828.732
123.981, 6451.266
125.369, 6657.684
126.758, 7347.559
128.146, 7539.365
129.534, 8798.387
130.922, 9082.242
132.309, 9853.457
133.696, 10362.520
135.083, 11764.844
136.470, 12104.133
137.857, 13245.238
139.243, 13731.047
140.630, 14255.848
142.016, 14717.414
143.401, 15227.586
144.787, 15201.754
146.172, 15112.285
147.557, 14594.439
148.942, 14066.438
150.327, 13784.619
151.711, 12818.172
153.096, 12398.838
154.480, 11402.762
155.863, 10714.645
157.247, 10009.439
158.630, 8845.367
160.013, 8341.896
161.396, 7571.533
162.779, 7055.717
164.161, 6059.988
165.544, 5638.367
166.926, 4815.875
168.308, 4293.557
169.689, 3748.443
171.070, 3442.580
172.452, 2827.012
173.833, 2503.783
175.213, 2096.926
176.594, 1676.736
177.974, 1323.535
179.354, 990.688
180.734, 621.121
182.114, 372.834
183.493, 323.455
184.872, 66.506
186.251, 63.395
187.630, 352.107
189.008, 365.953
190.387, 300.379
191.765, 300.291
193.143, 207.744
194.520, 107.713
195.898, 93.066
197.275, 39.514
198.652, 68.107
200.029, 335.207
201.405, 13.383
202.782, 296.453
204.158, 40.992
205.534, 93.289
206.909, 261.117
208.285, 41.678
209.660, 74.799
211.035, 128.594
212.410, 177.674
213.784, 73.566
215.159, 318.758
216.533, 441.783
217.907, 247.645
219.281, 427.334
220.654, 547.809
222.027, 792.012
223.400, 928.701
224.773, 1073.566
226.146, 1301.678
227.518, 1392.166
228.891, 1530.076
230.263, 1785.260
231.634, 2343.766
233.006, 2502.750
234.377, 2638.238
235.748, 3080.258
237.119, 3184.965
238.490, 3640.441
239.860, 3945.705
241.231, 4199.816
242.601, 4354.809
243.970, 4722.703
245.340, 4872.566
246.709, 4635.500
248.079, 5137.434
249.448, 4727.488
250.816, 4855.656
252.185, 4740.881
253.553, 4723.133
254.921, 4568.311
256.289, 4174.389
257.657, 4528.363
259.024, 4113.801
260.391, 3834.219
261.758, 3353.658
263.125, 3199.906
264.492, 3346.625
265.858, 2759.592
267.224, 2631.645
268.590, 2024.658
269.956, 2028.547
271.321, 1760.244
272.687, 1527.680
274.052, 1325.639
275.416, 1283.500
276.781, 898.812
278.146, 532.699
279.510, 559.143
280.874, 411.143
282.237, 561.664
283.601, 626.635
284.964, 48.014
286.327, 169.723
287.690, 138.242
289.053, 172.943
290.416, 15.363
291.778, 236.441
293.140, 79.203
294.502, 378.578
295.863, 153.623
297.225, 225.254
298.586, 141.469
299.947, 75.229
301.308, 100.512
302.668, 26.328
304.029, 129.104
305.389, 45.518
306.749, 200.660
308.108, 248.668
309.468, 342.750
310.827, 368.953
312.186, 332.119
313.545, 601.277
314.903, 705.592
316.262, 631.316
317.620, 1005.377
318.978, 983.975
320.336, 1028.182
321.693, 1190.045
323.051, 1192.936
324.408, 1240.955
325.765, 1335.066
327.121, 1465.982
328.478, 1576.709
329.834, 1747.254
331.190, 1854.619
332.546, 1841.811
333.902, 2211.834
335.257, 2112.691
336.612, 2227.385
337.967, 2426.918
339.322, 2518.301
340.677, 2825.533
342.031, 2867.611
343.385, 3192.678
344.739, 3160.027
346.093, 3418.092
347.446, 3695.559
348.799, 3970.291
350.153, 4386.920
351.505, 4525.203
352.858, 4707.367
354.210, 5188.203
355.563, 5428.148
356.915, 5868.223
358.267, 6182.256
359.618, 6496.189
360.969, 7204.664
362.321, 7592.227
363.672, 8170.188
365.022, 8667.402
366.373, 9129.895
367.723, 9746.043
369.073, 10262.803
370.423, 10879.242
371.773, 11364.039
373.122, 11915.531
374.471, 12895.598
375.821, 13246.182
377.169, 14579.115
378.518, 14827.400
379.866, 15720.582
381.215, 16926.107
382.563, 17842.904
383.910, 18753.850
385.258, 19898.822
386.605, 21494.746
387.952, 22354.430
389.299, 24116.146
390.646, 24598.098
391.992, 25918.785
393.339, 27337.650
394.685, 28777.168
396.031, 30312.336
397.376, 30614.494
398.722, 31954.656
400.067, 32727.227
401.412, 32280.688
402.757, 32954.867
404.101, 31736.441
405.446, 30635.115
406.790, 29868.512
408.134, 28722.320
409.478, 27291.732
410.821, 26169.465
412.165, 23937.402
413.508, 23219.545
414.851, 21396.592
416.193, 19446.342
417.536, 18445.756
418.878, 17122.088
420.220, 15705.553
421.562, 14088.082
422.904, 13185.090
424.245, 11968.998
425.586, 10916.951
426.927, 10231.869
428.268, 8942.559
429.609, 8073.027
430.949, 7569.270
432.289, 7203.285
433.629, 6152.074
434.969, 5903.734
436.309, 5180.277
437.648, 5077.371
438.987, 4614.584
440.326, 4159.438
441.665, 3904.219
443.003, 3872.473
444.342, 3738.697
445.680, 3593.182
447.018, 3583.209
448.355, 3478.160
449.693, 3498.271
451.030, 3644.848
452.367, 3760.580
453.704, 3994.893
455.041, 4266.332
456.377, 4609.676
457.713, 5049.834
459.049, 5513.195
460.385, 6055.523
461.721, 6729.727
463.056, 7089.064
464.391, 7262.793
465.726, 8163.223
467.061, 8384.613
468.395, 8664.234
469.730, 9498.500
471.064, 9839.912
472.398, 11094.488
473.731, 11444.449
475.065, 13084.906
476.398, 14431.102
477.731, 16358.535
479.064, 17856.975
480.397, 19476.189
481.729, 20573.469
483.062, 21179.299
484.394, 21433.010
485.725, 20550.803
487.057, 19711.871
488.389, 18253.363
489.720, 16714.201
491.051, 14735.627
492.382, 13055.387
493.712, 11353.969
495.043, 9483.025
496.373, 8188.957
497.703, 6949.816
499.032, 6042.281
500.362, 5160.016
501.691, 4424.900
503.020, 3751.055
504.349, 3186.908
505.678, 2633.551
507.007, 2374.613
508.335, 1946.307
509.663, 1771.787
510.991, 1721.738
512.319, 1417.020
513.646, 1432.758
514.973, 1208.252
516.300, 1239.193
517.627, 1165.902
518.954, 1066.748
520.280, 895.082
521.607, 902.289
522.933, 773.699
524.259, 873.850
525.584, 650.090
526.910, 693.408
528.235, 749.367
529.560, 841.049
530.885, 669.227
532.209, 561.645
533.534, 685.721
534.858, 659.930
536.182, 607.850
537.506, 445.002
538.829, 495.143
540.152, 354.441
541.476, 494.176
542.799, 191.396
544.121, 279.057
545.444, 155.117
546.766, 88.635
548.088, 278.316
549.410, 47.885
550.732, 216.482
552.053, 58.879
553.375, 151.934
554.696, 164.230
556.017, 4.471
557.337, 88.234
558.658, 80.740
559.978, 304.039
561.298, 19.791
562.618, 277.947
563.938, 138.377
565.257, 8.006
566.576, 367.773
567.895, 39.855
569.214, 1.914
570.533, 35.449
571.851, 43.045
573.170, 35.766
574.488, 77.664
575.805, 125.791
577.123, 113.801
578.440, 293.693
579.758, 464.488
581.075, 296.168
582.391, 741.734
583.708, 674.207
585.024, 931.945
586.341, 1099.232
587.657, 1305.432
588.972, 1601.543
590.288, 1454.570
591.603, 1576.510
592.918, 1967.367
594.233, 2325.145
595.548, 2605.848
596.863, 2950.277
598.177, 3224.549
599.491, 3519.547
600.805, 3802.002
602.119, 4005.406
603.432, 4227.893
604.746, 4425.059
606.059, 4567.338
607.372, 4579.588
608.685, 4684.889
609.997, 4455.271
611.309, 4347.660
612.621, 4190.176
613.933, 4314.725
615.245, 3960.408
616.557, 3915.168
617.868, 3815.020
619.179, 3593.941
620.490, 3445.918
621.801, 3761.957
623.111, 3373.037
624.421, 3479.113
625.731, 3050.217
627.041, 2890.309
628.351, 2405.402
629.660, 2016.500
630.970, 1949.568
632.279, 1452.643
633.588, 1452.730
634.896, 1015.773
636.205, 1270.781
637.513, 884.768
638.821, 922.742
640.129, 1035.668
641.437, 1099.539
642.744, 1153.457
644.051, 1044.148
645.358, 1170.879
646.665, 1174.557
647.972, 988.191
649.278, 944.768
650.584, 730.281
651.890, 994.736
653.196, 816.133
654.502, 662.465
655.807, 247.740
657.113, 392.934
658.418, 325.059
659.722, 220.107
661.027, 47.084
662.331, 55.025
663.636, 169.754
664.940, 59.545
666.244, 20.867
667.547, 134.447
668.851, 53.906
670.154, 97.820
671.457, 36.678
672.760, 138.359
674.062, 160.684
675.365, 105.891
676.667, 2.236
677.969, 185.330
679.271, 132.596
680.572, 144.562
681.874, 28.717
683.175, 16.367
684.476, 4.609
685.777, 140.943
687.077, 26.816
688.378, 192.904
689.678, 257.484
690.978, 220.523
692.278, 270.029
693.577, 435.996
694.877, 175.865
696.176, 352.881
697.475, 225.254
698.774, 323.156
700.072, 429.736
701.371, 305.635
702.669, 165.959
703.967, 629.947
705.265, 626.688
706.562, 530.404
707.860, 307.801
709.157, 612.486
710.454, 379.354
711.751, 600.404
713.047, 392.311
714.344, 520.057
715.640, 423.244
716.936, 443.385
718.232, 678.770
719.527, 640.557
720.823, 475.076
722.118, 598.855
723.413, 519.703
724.708, 470.992
726.002, 794.811
727.297, 467.533
728.591, 541.525
729.885, 733.107
731.179, 558.102
732.472, 485.502
733.766, 460.465
735.059, 421.113
736.352, 703.830
737.645, 607.439
738.937, 637.805
740.230, 328.891
741.522, 560.559
742.814, 508.107
744.106, 769.148
745.397, 651.371
746.689, 707.189
747.980, 829.953
749.271, 804.584
750.562, 941.031
751.853, 845.730
753.143, 1130.283
754.433, 1026.955
755.723, 930.457
757.013, 1349.146
758.303, 1360.695
759.592, 1567.832
760.881, 1518.949
762.170, 1918.215
763.459, 1849.557
764.748, 1896.459
766.036, 2305.740
767.325, 2372.961
768.613, 2730.588
769.901, 2899.879
771.188, 2877.256
772.476, 3463.963
773.763, 3176.588
775.050, 3611.008
776.337, 3786.014
777.624, 3873.260
778.910, 3842.830
780.196, 4003.707
781.482, 3825.188
782.768, 3741.342
784.054, 3756.764
785.339, 3733.217
786.625, 3355.104
787.910, 3458.490
789.195, 3298.846
790.479, 2974.148
791.764, 3075.104
793.048, 2743.416
794.332, 2621.176
795.616, 2751.055
796.900, 2690.246
798.183, 2190.062
799.467, 2324.062
800.750, 2454.127
802.033, 2165.238
803.316, 2332.479
804.598, 1920.787
805.880, 2382.145
807.163, 2359.793
808.445, 2336.938
809.726, 2509.207
811.008, 2562.586
812.289, 2582.316
813.570, 2818.727
814.851, 2877.660
816.132, 2763.836
817.413, 2692.016
818.693, 2691.635
819.973, 2488.479
821.253, 2374.406
822.533, 2233.766
823.813, 2000.762
825.092, 1624.289
826.371, 1445.021
827.650, 1300.279
828.929, 1067.617
830.208, 981.492
831.486, 825.684
832.764, 787.449
834.042, 822.488
835.320, 729.742
836.598, 742.359
837.875, 663.908
839.152, 607.756
840.429, 633.270
841.706, 1029.328
842.983, 570.543
844.259, 775.018
845.536, 554.316
846.812, 470.809
848.088, 406.980
849.363, 336.674
850.639, 385.705
851.914, 479.109
853.189, 477.764
854.464, 596.029
855.739, 908.428
857.013, 841.404
858.288, 936.082
859.562, 1155.742
860.836, 1002.230
862.110, 817.781
863.383, 1037.398
864.656, 781.316
865.930, 504.990
867.203, 520.043
868.475, 533.668
869.748, 287.924
871.020, 255.412
872.292, 269.156
873.564, 269.959
874.836, 237.785
876.108, 87.605
877.379, 294.502
878.650, 278.396
879.922, 213.281
881.192, 63.162
882.463, 148.023
883.733, 83.869
885.004, 27.697
886.274, 114.504
887.544, 123.291
888.813, 33.041
890.083, 122.781
891.352, 142.500
892.621, 135.191
893.890, 179.490
895.159, 197.145
896.427, 68.732
897.695, 254.311
898.964, 100.861
900.232, 103.383
901.499, 124.875
902.767, 158.338
904.034, 87.775
905.301, 112.443
906.568, 73.461
907.835, 104.910
909.102, 49.230
910.368, 72.520
911.634, 160.787
912.900, 156.025
914.166, 110.240
915.432, 55.570
916.697, 117.445
917.962, 75.596
919.227, 236.391
920.492, 8.533
921.757, 109.719
923.021, 94.986
924.285, 84.342
925.550, 83.771
926.813, 98.238
928.077, 75.049
929.341, 80.012
930.604, 15.078
931.867, 92.771
933.130, 15.543
934.393, 65.348
935.655, 122.215
936.918, 95.828
938.180, 98.156
939.442, 189.219
940.703, 80.590
941.965, 80.375
943.226, 86.861
944.488, 111.174
945.749, 170.426
947.009, 128.012
948.270, 41.572
949.530, 0.117
950.791, 59.625
952.051, 32.111
953.311, 28.410
954.570, 202.021
955.830, 173.438
957.089, 148.838
958.348, 66.223
959.607, 173.588
960.866, 120.939
962.124, 147.307
963.383, 305.666
964.641, 209.018
965.899, 291.389
967.156, 257.758
968.414, 447.125
969.671, 387.500
970.928, 227.875
972.185, 381.262
973.442, 454.645
974.699, 574.061
975.955, 536.473
977.211, 316.910
978.468, 631.355
979.723, 726.795
980.979, 541.277
982.234, 1022.785
983.490, 766.293
984.745, 1047.850
986.000, 1109.439
987.254, 957.062
988.509, 1156.689
989.763, 1249.316
991.017, 1359.951
992.271, 1313.582
993.525, 1017.055
994.779, 1559.873
996.032, 1898.873
997.285, 2045.070
998.538, 1421.033
999.791, 1791.588
1001.044, 1763.551
1002.296, 1719.084
1003.548, 2229.537
1004.800, 1717.434
1006.052, 2219.072
1007.304, 2241.924
1008.555, 2418.508
1009.807, 2474.084
1011.058, 2410.656
1012.309, 2495.242
1013.559, 2433.828
1014.810, 2375.400
1016.060, 2835.969
1017.310, 2786.523
1018.560, 2657.074
1019.810, 3001.613
1021.060, 3378.143
1022.309, 3195.547
1023.558, 3504.002
1024.807, 3180.455
1026.056, 3216.768
1027.305, 3205.445
1028.553, 3401.916
1029.801, 3386.373
1031.049, 3272.557
1032.297, 3087.107
1033.545, 3356.004
1034.793, 3136.627
1036.040, 3152.008
1037.287, 3178.748
1038.534, 3308.516
1039.781, 3316.902
1041.027, 3218.680
1042.274, 3308.539
1043.520, 3353.379
1044.766, 3830.436
1046.012, 3213.574
1047.257, 3134.217
1048.503, 3443.650
1049.748, 2967.443
1050.993, 3138.256
1052.238, 3184.162
1053.483, 3077.205
1054.727, 3004.949
1055.971, 3088.797
1057.216, 2917.477
1058.459, 2939.285
1059.703, 2784.855
1060.947, 2815.730
1062.190, 2868.914
1063.433, 2770.955
1064.676, 2818.270
1065.919, 2755.008
1067.162, 3036.881
1068.404, 2709.586
1069.646, 2849.629
1070.888, 3186.969
1072.130, 2965.570
1073.372, 3198.514
1074.613, 3337.912
1075.855, 3389.160
1077.096, 3301.504
1078.337, 3784.436
1079.578, 3628.500
1080.818, 4092.752
1082.059, 4171.010
1083.299, 4279.066
1084.539, 4362.215
1085.779, 4269.732
1087.018, 4415.535
1088.258, 4310.203
1089.497, 4264.475
1090.736, 4408.229
1091.975, 4518.992
1093.213, 4344.045
1094.452, 4710.691
1095.690, 4471.166
1096.928, 4668.373
1098.166, 4807.316
1099.404, 4966.252
1100.642, 4714.949
1101.879, 5017.059
1103.116, 4809.543
1104.353, 4888.844
1105.590, 4786.672
1106.827, 4905.754
1108.063, 4675.887
1109.299, 4906.479
1110.536, 4923.629
1111.771, 4700.891
1113.007, 4754.658
1114.243, 4848.613
1115.478, 4612.512
1116.713, 4585.324
1117.948, 4751.609
1119.183, 4558.889
1120.418, 4734.047
1121.652, 4819.828
1122.886, 4821.041
1124.120, 4484.406
1125.354, 4584.025
1126.588, 4508.805
1127.821, 4426.416
1129.055, 4491.148
1130.288, 4524.363
1131.521, 4446.562
1132.753, 4272.754
1133.986, 4181.973
1135.218, 4505.141
1136.450, 3960.297
1137.682, 4353.295
1138.914, 4111.920
1140.146, 4127.436
1141.377, 4001.260
1142.609, 3955.643
1143.840, 4124.264
1145.071, 4049.799
1146.301, 3992.578
1147.532, 3916.879
1148.762, 3888.160
1149.992, 3673.182
1151.222, 3688.207
1152.452, 3701.383
1153.682, 3350.480
1154.911, 3708.615
1156.140, 3792.445
1157.369, 3750.729
1158.598, 3365.602
1159.827, 3361.375
1161.055, 3060.209
1162.284, 3065.262
1163.512, 2957.316
1164.740, 2938.375
1165.967, 2843.273
1167.195, 2672.500
1168.422, 2582.670
1169.650, 2603.740
1170.877, 2345.816
1172.103, 2359.893
1173.330, 2304.971
1174.557, 2135.053
1175.783, 2138.143
1177.009, 1992.139
1178.235, 1853.312
1179.461, 1800.396
1180.686, 1685.467
1181.912, 1681.537
1183.137, 1433.607
1184.362, 1304.004
1185.587, 1068.012
1186.811, 1028.160
1188.036, 1062.250
1189.260, 1017.824
1190.484, 924.721
1191.708, 1006.789
1192.932, 741.932
1194.155, 610.629
1195.378, 667.691
1196.602, 565.795
1197.825, 405.719
1199.047, 538.686
1200.270, 487.330
1201.492, 619.191
1202.715, 272.037
1203.937, 425.432
1205.159, 328.766
1206.380, 348.232
1207.602, 22.598
1208.823, 134.666
1210.044, 164.105
1211.265, 71.049
1212.486, 332.131
1213.707, 51.039
1214.927, 266.654
1216.147, 107.803
1217.367, 171.365
1218.587, 11.975
1219.807, 65.893
1221.027, 109.236
1222.246, 149.365
1223.465, 36.289
1224.684, 117.836
1225.903, 19.764
1227.121, 133.371
1228.340, 39.557
1229.558, 33.586
1230.776, 3.734
1231.994, 54.182
1233.212, 269.480
1234.429, 126.857
1235.646, 90.766
1236.864, 264.717
1238.081, 211.662
1239.297, 248.600
1240.514, 355.492
1241.730, 140.342
1242.947, 165.023
1244.163, 143.486
1245.378, 381.859
1246.594, 300.180
1247.810, 29.492
1249.025, 274.855
1250.240, 248.145
1251.455, 77.320
1252.670, 239.242
1253.885, 139.111
1255.099, 138.908
1256.313, 115.336
1257.527, 194.363
1258.741, 126.295
1259.955, 89.355
1261.168, 97.438
1262.382, 116.795
1263.595, 244.273
1264.808, 176.473
1266.021, 292.594
1267.233, 286.094
1268.446, 367.064
1269.658, 292.793
1270.870, 332.166
1272.082, 434.605
1273.294, 389.375
1274.505, 379.254
1275.716, 508.803
1276.928, 319.322
1278.139, 447.631
1279.349, 249.713
1280.560, 263.850
1281.770, 295.725
1282.981, 54.488
1284.191, 141.244
1285.401, 163.814
1286.610, 86.996
1287.820, 188.258
1289.029, 127.031
1290.239, 144.281
1291.448, 79.061
1292.656, 196.949
1293.865, 204.844
1295.073, 311.748
1296.282, 316.160
1297.490, 239.568
1298.698, 261.451
1299.906, 255.307
1301.113, 93.170
1302.320, 41.043
1303.528, 88.922
1304.735, 49.184
1305.942, 104.713
1307.148, 304.621
1308.355, 413.539
1309.561, 621.465
1310.767, 371.400
1311.973, 468.346
1313.179, 284.242
1314.384, 596.059
1315.590, 455.748
1316.795, 621.326
1318.000, 571.854
1319.205, 690.363
1320.410, 623.859
1321.614, 408.352
1322.819, 628.102
1324.023, 555.869
1325.227, 630.615
1326.431, 442.469
1327.634, 469.768
1328.838, 261.307
1330.041, 329.125
1331.244, 215.654
1332.447, 20.916
1333.650, 54.574
1334.852, 6.568
1336.055, 72.059
1337.257, 8.373
1338.459, 111.693
1339.661, 20.869
1340.862, 101.281
1342.064, 1.973
1343.265, 48.611
1344.466, 167.182
1345.667, 134.488
1346.868, 121.469
1348.068, 187.109
1349.269, 201.443
1350.469, 171.160
1351.669, 33.363
1352.869, 222.566
1354.069, 182.771
1355.268, 98.000
1356.468, 271.254
1357.667, 338.486
1358.866, 151.824
1360.065, 269.635
1361.263, 81.871
1362.462, 168.648
1363.660, 363.707
1364.858, 107.137
1366.056, 251.598
1367.254, 327.539
1368.451, 320.926
1369.649, 371.258
1370.846, 517.064
1372.043, 348.727
1373.240, 447.277
1374.436, 437.473
1375.633, 364.785
1376.829, 281.980
1378.025, 264.057
1379.221, 582.029
1380.417, 420.945
1381.613, 624.805
1382.808, 679.865
1384.003, 560.205
1385.199, 608.078
1386.393, 388.162
1387.588, 535.541
1388.783, 421.535
1389.977, 451.107
1391.171, 287.838
1392.365, 272.188
1393.559, 268.604
1394.753, 284.408
1395.946, 293.477
1397.140, 280.902
1398.333, 284.275
1399.526, 253.738
1400.719, 235.197
1401.911, 162.256
1403.104, 76.498
1404.296, 31.744
1405.488, 413.150
1406.680, 183.125
1407.872, 295.203
1409.063, 344.871
1410.255, 104.059
1411.446, 261.141
1412.637, 17.686
1413.828, 146.754
1415.018, 279.688
1416.209, 173.369
1417.399, 7.861
1418.589, 261.666
1419.779, 144.537
1420.969, 211.455
1422.159, 22.277
1423.348, 215.254
1424.537, 171.975
1425.726, 141.846
1426.915, 58.588
1428.104, 55.898
1429.293, 65.418
1430.481, 2.406
1431.669, 2.717
1432.857, 0.486
1434.045, 0.000
##END=



