##NAMES=Heulandite-Ca
##RRUFFID=R050097
##IDEAL CHEMISTRY=(Ca,Na,K)_5_(Si_27_Al_9_)O_72_&#183;26H_2_O
##LOCALITY=Rat's Nest Claim, Custer County, Idaho, USA
##OWNER=RRUFF
##SOURCE=John Cornish
##DESCRIPTION=Pale pink coffin-shaped tabular single crystals
##STATUS=The identification of this mineral has been confirmed by X-ray diffraction and chemical analysis
##URL=rruff.info/R050097
##MEASURED CHEMISTRY=(Ca_0.66_Na_0.30_K_0.04_)_5_(Si_0.77_Al_0.23_)_36_O_72_Â·24H_2_O
##PIN_ID=L00100
##ORIENTATION=Laser parallel to a* (1 0 0). Fiducial mark perpendicular to laser is parallel to b [0 1 0]
120.5960, 0.0000000E+00
121.8270, 2.494141
123.0580, 68.39258
124.2880, 313.9434
125.5190, 77.41602
126.7490, 111.6992
127.9790, 10.24023
129.2090, 308.6758
130.4390, 114.7090
131.6680, 289.2637
132.8980, 273.8203
134.1270, 294.0410
135.3560, 373.8398
136.5850, 164.5332
137.8140, 690.9844
139.0430, 645.1758
140.2710, 1015.926
141.5000, 813.0000
142.7280, 1425.551
143.9560, 1663.588
145.1840, 1005.699
146.4120, 936.5977
147.6390, 1137.516
148.8670, 1029.539
150.0940, 875.7344
151.3210, 1293.336
152.5490, 997.5723
153.7750, 1256.104
155.0020, 1067.414
156.2290, 1182.855
157.4550, 900.6992
158.6810, 859.7617
159.9080, 757.3613
161.1340, 968.0566
162.3590, 865.0312
163.5850, 833.1523
164.8110, 727.0703
166.0360, 706.6836
167.2610, 711.8613
168.4860, 604.5449
169.7110, 637.4199
170.9360, 700.2695
172.1610, 656.9492
173.3850, 588.4648
174.6100, 669.4961
175.8340, 593.5449
177.0580, 683.2773
178.2820, 693.2910
179.5050, 503.9062
180.7290, 597.0938
181.9520, 653.3945
183.1760, 487.5234
184.3990, 514.5332
185.6220, 689.9961
186.8450, 402.4453
188.0670, 396.7031
189.2900, 554.0371
190.5120, 515.3438
191.7340, 492.6309
192.9560, 463.3770
194.1780, 366.5742
195.4000, 378.4082
196.6220, 406.2246
197.8430, 319.6504
199.0640, 326.3828
200.2860, 215.4004
201.5070, 395.8184
202.7270, 522.3203
203.9480, 344.0273
205.1690, 44.91992
206.3890, 177.9727
207.6090, 89.16602
208.8290, 60.47461
210.0490, 71.11914
211.2690, 100.6348
212.4890, 80.08789
213.7080, 55.48828
214.9280, 21.84961
216.1470, 7.814453
217.3660, 45.48828
218.5850, 29.85547
219.8030, 236.2363
221.0220, 177.6875
222.2400, 75.21680
223.4590, 168.8301
224.6770, 20.47266
225.8950, 23.68750
227.1120, 54.17969
228.3300, 181.1406
229.5480, 30.82422
230.7650, 88.29102
231.9820, 124.5098
233.1990, 140.2227
234.4160, 178.8438
235.6330, 55.39844
236.8490, 46.82617
238.0660, 123.1230
239.2820, 166.1621
240.4980, 238.8340
241.7140, 445.4668
242.9300, 412.8711
244.1460, 479.9160
245.3610, 559.6680
246.5770, 519.2598
247.7920, 600.6504
249.0070, 673.8652
250.2220, 577.0000
251.4370, 571.0957
252.6510, 434.1426
253.8660, 543.1680
255.0800, 557.7070
256.2940, 797.2832
257.5080, 744.3945
258.7220, 820.6074
259.9360, 965.8105
261.1490, 719.2031
262.3630, 760.7812
263.5760, 562.4609
264.7890, 690.1895
266.0020, 510.0430
267.2150, 643.2227
268.4270, 751.8008
269.6400, 583.5840
270.8520, 739.2852
272.0640, 538.8223
273.2760, 655.1758
274.4880, 737.3301
275.7000, 737.2754
276.9120, 782.7012
278.1230, 839.5703
279.3340, 728.8789
280.5450, 733.9707
281.7560, 596.8105
282.9670, 689.3965
284.1780, 778.7246
285.3880, 692.8066
286.5980, 647.6406
287.8090, 984.2383
289.0190, 798.5996
290.2290, 780.7090
291.4380, 787.5449
292.6480, 683.0781
293.8570, 869.2930
295.0670, 893.2285
296.2760, 940.8594
297.4850, 985.2109
298.6930, 756.2910
299.9020, 925.1191
301.1110, 764.7031
302.3190, 826.0762
303.5270, 954.2344
304.7350, 684.1914
305.9430, 1168.941
307.1510, 1170.496
308.3580, 966.8965
309.5660, 1130.049
310.7730, 891.9590
311.9800, 1439.420
313.1870, 1238.486
314.3940, 1227.906
315.6010, 1302.125
316.8070, 1351.682
318.0130, 1234.434
319.2200, 1478.701
320.4260, 1346.762
321.6310, 1690.215
322.8370, 1756.979
324.0430, 1444.713
325.2480, 1579.504
326.4540, 1493.732
327.6590, 1750.209
328.8640, 1751.943
330.0680, 1910.883
331.2730, 1845.584
332.4780, 1877.760
333.6820, 1875.939
334.8860, 1931.158
336.0900, 1939.244
337.2940, 2028.271
338.4980, 2192.211
339.7010, 2204.430
340.9050, 2362.799
342.1080, 2286.453
343.3110, 2444.430
344.5140, 2405.512
345.7170, 2599.531
346.9200, 2436.277
348.1220, 2525.662
349.3240, 2907.053
350.5270, 2820.088
351.7290, 2916.918
352.9310, 2869.336
354.1320, 3267.162
355.3340, 3247.090
356.5350, 3437.287
357.7370, 3383.896
358.9380, 3696.170
360.1390, 3822.672
361.3400, 4004.143
362.5400, 4015.164
363.7410, 4180.508
364.9410, 4386.016
366.1410, 4375.309
367.3410, 4316.145
368.5410, 4580.219
369.7410, 4720.014
370.9400, 4932.000
372.1400, 5158.607
373.3390, 5286.648
374.5380, 5599.801
375.7370, 5616.611
376.9360, 5770.869
378.1350, 5964.244
379.3330, 6246.053
380.5310, 6531.723
381.7300, 6813.188
382.9280, 7257.908
384.1260, 7473.758
385.3230, 7684.254
386.5210, 8273.906
387.7180, 8706.844
388.9160, 9268.621
390.1130, 9526.492
391.3100, 10134.68
392.5060, 10442.54
393.7030, 10970.21
394.9000, 11501.84
396.0960, 11910.34
397.2920, 12301.93
398.4880, 12885.95
399.6840, 13104.59
400.8800, 13215.37
402.0750, 13282.91
403.2710, 13141.91
404.4660, 13106.72
405.6610, 12980.13
406.8560, 12572.39
408.0510, 12148.28
409.2450, 11797.61
410.4400, 11114.31
411.6340, 10621.66
412.8280, 10085.73
414.0220, 9471.086
415.2160, 8863.277
416.4100, 8525.637
417.6030, 7878.270
418.7970, 7340.855
419.9900, 6632.162
421.1830, 6010.928
422.3760, 5791.680
423.5690, 5211.449
424.7610, 4941.859
425.9540, 4483.652
427.1460, 4165.965
428.3380, 3578.672
429.5300, 3516.965
430.7220, 2941.227
431.9140, 2967.457
433.1050, 2804.826
434.2970, 2499.012
435.4880, 2312.602
436.6790, 2050.004
437.8700, 1994.461
439.0610, 1916.992
440.2510, 2033.729
441.4420, 1893.777
442.6320, 2011.811
443.8220, 1985.818
445.0120, 1941.809
446.2020, 1888.779
447.3910, 1742.738
448.5810, 2110.680
449.7700, 2054.605
450.9600, 2286.521
452.1490, 2289.422
453.3370, 2303.309
454.5260, 2666.188
455.7150, 2870.051
456.9030, 3255.908
458.0910, 3579.762
459.2800, 3751.605
460.4670, 4105.449
461.6550, 4434.289
462.8430, 4605.133
464.0300, 4930.988
465.2180, 5235.848
466.4050, 5335.709
467.5920, 5699.576
468.7790, 6162.453
469.9650, 6602.336
471.1520, 6850.973
472.3380, 6935.117
473.5250, 7326.020
474.7110, 7711.926
475.8970, 7924.844
477.0820, 8352.768
478.2680, 8445.703
479.4540, 8294.641
480.6390, 8575.586
481.8240, 8139.541
483.0090, 7804.502
484.1940, 7896.477
485.3780, 7157.455
486.5630, 6646.449
487.7470, 6095.449
488.9320, 5293.469
490.1160, 5021.494
491.3000, 4172.523
492.4830, 3963.564
493.6670, 3280.635
494.8500, 2762.719
496.0340, 2604.096
497.2170, 2174.227
498.4000, 1880.412
499.5820, 1560.723
500.7650, 1421.025
501.9480, 1202.377
503.1300, 861.7676
504.3120, 792.1895
505.4940, 787.0762
506.6760, 825.5645
507.8580, 829.1602
509.0390, 502.0430
510.2210, 619.7500
511.4020, 390.5293
512.5830, 296.5977
513.7640, 355.6621
514.9450, 473.5312
516.1250, 425.0430
517.3060, 354.0078
518.4860, 145.0234
519.6660, 364.1309
520.8460, 220.4531
522.0260, 85.50195
523.2060, 114.5645
524.3850, 87.84375
525.5650, 226.5371
526.7440, 187.7207
527.9230, 160.8242
529.1020, 66.15625
530.2810, 77.73828
531.4590, 6.324219
532.6380, 134.3828
533.8160, 62.43945
534.9940, 32.50781
536.1720, 15.10938
537.3500, 76.93359
538.5270, 87.21289
539.7050, 133.2793
540.8820, 125.1758
542.0590, 168.3457
543.2360, 148.0000
544.4130, 9.953125
545.5900, 103.2969
546.7660, 42.28125
547.9430, 81.27930
549.1190, 186.0898
550.2950, 16.63672
551.4710, 200.9902
552.6470, 52.33203
553.8220, 73.35352
554.9980, 191.6777
556.1730, 58.54297
557.3480, 172.2109
558.5230, 221.4648
559.6980, 255.1172
560.8730, 127.0391
562.0470, 108.1289
563.2220, 101.2949
564.3960, 87.54297
565.5700, 164.5996
566.7440, 44.73242
567.9170, 204.9473
569.0910, 88.16992
570.2640, 209.2969
571.4380, 190.8008
572.6110, 230.9180
573.7840, 137.0293
574.9570, 282.1797
576.1290, 78.29492
577.3020, 123.9102
578.4740, 122.9980
579.6460, 162.2793
580.8180, 399.2852
581.9900, 211.2812
583.1620, 340.2734
584.3330, 397.2578
585.5040, 522.2402
586.6760, 313.2129
587.8470, 419.9883
589.0180, 406.9512
590.1880, 511.9062
591.3590, 550.6934
592.5290, 749.9863
593.7000, 799.9258
594.8700, 744.3047
596.0400, 803.7402
597.2090, 1091.158
598.3790, 1054.135
599.5490, 1099.105
600.7180, 999.0684
601.8870, 1237.025
603.0560, 1026.975
604.2250, 1576.188
605.3940, 1487.191
606.5620, 1392.123
607.7300, 1555.047
608.8990, 1448.961
610.0670, 1361.871
611.2350, 1329.771
612.4020, 1295.666
613.5700, 1503.551
614.7370, 1131.449
615.9050, 1105.340
617.0720, 1311.232
618.2390, 978.1152
619.4060, 993.9902
620.5720, 1055.867
621.7390, 942.7812
622.9050, 990.8047
624.0710, 689.6992
625.2370, 812.6348
626.4030, 605.5605
627.5690, 590.4824
628.7340, 468.3965
629.9000, 491.3145
631.0650, 472.2344
632.2300, 530.1758
633.3950, 409.1367
634.5600, 466.1035
635.7240, 120.0703
636.8890, 430.0547
638.0530, 309.0273
639.2170, 170.9863
640.3810, 358.9336
641.5450, 393.8691
642.7080, 649.7910
643.8720, 405.6973
645.0350, 81.58984
646.1980, 392.4668
647.3610, 183.3242
648.5240, 134.1699
649.6870, 480.9980
650.8490, 390.8086
652.0120, 126.6055
653.1740, 132.3828
654.3360, 322.1426
655.4980, 11.88281
656.6600, 286.5918
657.8210, 375.2812
658.9830, 171.8242
660.1440, 123.4785
661.3050, 256.1094
662.4660, 214.7480
663.6270, 144.4082
664.7870, 47.74609
665.9480, 172.3066
667.1080, 255.8477
668.2680, 139.3281
669.4280, 423.3730
670.5880, 206.8711
671.7480, 230.6152
672.9070, 217.2246
674.0670, 433.5117
675.2260, 271.9863
676.3850, 126.5879
677.5440, 321.9512
678.7030, 237.5273
679.8610, 137.4941
681.0200, 534.5742
682.1780, 325.8926
683.3360, 227.6602
684.4940, 159.7480
685.6520, 222.0078
686.8090, 57.66406
687.9670, 143.4590
689.1240, 237.3809
690.2810, 100.0879
691.4380, 166.2773
692.5950, 223.0859
693.7520, 60.84180
694.9080, 172.0195
696.0650, 29.62109
697.2210, 195.8281
698.3770, 153.8750
699.5330, 173.6348
700.6880, 209.5469
701.8440, 174.6680
702.9990, 242.2383
704.1550, 145.7656
705.3100, 169.6758
706.4650, 131.7891
707.6190, 158.3164
708.7740, 229.2109
709.9290, 58.97070
711.0830, 372.7090
712.2370, 268.5938
713.3910, 44.87500
714.5450, 147.9688
715.6980, 51.83398
716.8520, 315.7617
718.0050, 78.97461
719.1580, 302.4121
720.3110, 184.9219
721.4640, 254.4102
722.6170, 278.8828
723.7700, 293.3340
724.9220, 189.7656
726.0740, 10.79688
727.2260, 145.5801
728.3780, 245.9375
729.5300, 5.365234
730.6810, 58.75000
731.8330, 264.0371
732.9840, 35.86523
734.1350, 20.10742
735.2860, 50.65430
736.4370, 356.8516
737.5880, 173.0273
738.7380, 272.1777
739.8880, 258.3496
741.0390, 245.6562
742.1890, 5.873047
743.3380, 137.5605
744.4880, 170.4180
745.6380, 205.4375
746.7870, 479.4297
747.9360, 394.4062
749.0850, 160.3555
750.2340, 513.4102
751.3830, 431.3203
752.5310, 410.5430
753.6800, 471.4727
754.8280, 421.1641
755.9760, 401.1328
757.1240, 322.9375
758.2720, 324.7969
759.4190, 411.0664
760.5670, 135.8086
761.7140, 373.5234
762.8610, 233.6797
764.0080, 406.3477
765.1550, 338.3398
766.3020, 449.9648
767.4480, 674.9727
768.5950, 380.4258
769.7410, 659.7227
770.8870, 459.9883
772.0330, 303.4805
773.1780, 389.1641
774.3240, 494.7422
775.4690, 632.1719
776.6140, 403.5781
777.7590, 423.8984
778.9040, 428.2500
780.0490, 400.5781
781.1940, 599.8828
782.3380, 595.1641
783.4820, 712.9727
784.6260, 345.1992
785.7700, 303.3828
786.9140, 281.3359
788.0580, 492.4922
789.2010, 368.6172
790.3450, 323.4570
791.4880, 491.2969
792.6310, 244.3516
793.7730, 223.8164
794.9160, 306.8164
796.0590, 470.7930
797.2010, 210.6680
798.3430, 231.3164
799.4850, 90.22266
800.6270, 114.5156
801.7690, 159.1719
802.9100, 354.3945
804.0520, 351.1172
805.1930, 179.8984
806.3340, 606.4297
807.4750, 399.1680
808.6160, 370.8984
809.7560, 99.60938
810.8970, 99.28906
812.0370, 189.9492
813.1770, 73.59766
814.3170, 45.95312
815.4570, 326.5586
816.5960, 81.83203
817.7360, 224.5117
818.8750, 449.0703
820.0140, 118.6445
821.1530, 193.2344
822.2920, 359.7891
823.4310, 247.3672
824.5690, 348.5703
825.7070, 278.9570
826.8460, 400.5195
827.9840, 94.85547
829.1220, 115.4336
830.2590, 123.4336
831.3970, 5.667969
832.5340, 231.1250
833.6710, 127.8906
834.8080, 159.4453
835.9450, 217.7461
837.0820, 287.0234
838.2190, 52.31641
839.3550, 48.57812
840.4910, 62.18750
841.6270, 291.9844
842.7630, 11.86719
843.8990, 276.1602
845.0350, 111.1523
846.1700, 182.2109
847.3060, 290.8633
848.4410, 97.88281
849.5760, 177.8789
850.7100, 23.80859
851.8450, 145.7422
852.9800, 58.15234
854.1140, 218.0547
855.2480, 132.7070
856.3820, 128.6133
857.5160, 349.5000
858.6500, 321.3672
859.7830, 200.2188
860.9170, 305.0508
862.0500, 107.8594
863.1830, 316.8516
864.3160, 120.6289
865.4480, 86.38672
866.5810, 88.29297
867.7130, 423.6680
868.8460, 29.37500
869.9780, 292.6133
871.1100, 199.2266
872.2410, 319.8672
873.3730, 155.3828
874.5050, 133.8828
875.6360, 85.36328
876.7670, 46.21875
877.8980, 60.28906
879.0290, 26.43750
880.1590, 134.7812
881.2900, 111.1719
882.4200, 237.5547
883.5500, 268.9219
884.6800, 188.2734
885.8100, 49.60938
886.9400, 103.9336
888.0690, 63.76172
889.1990, 116.4883
890.3280, 10.28125
891.4570, 35.92188
892.5860, 166.1055
893.7140, 14.72266
894.8430, 149.5859
895.9710, 166.4492
897.1000, 376.3477
898.2280, 182.6445
899.3560, 77.24219
900.4830, 6.878906
901.6110, 65.96875
902.7380, 41.18750
903.8660, 33.39062
904.9930, 95.63672
906.1200, 112.3984
907.2460, 37.34375
908.3730, 25.77734
909.5000, 109.2422
910.6260, 145.2227
911.7520, 88.67188
912.8780, 138.1133
914.0040, 289.5430
915.1290, 87.96484
916.2550, 184.3789
917.3800, 148.7812
918.5050, 107.1719
919.6300, 228.5586
920.7550, 133.9336
921.8800, 173.3008
923.0040, 206.3945
924.1290, 11.01953
925.2530, 203.3633
926.3770, 151.7031
927.5010, 22.03516
928.6250, 275.3633
929.7480, 93.68750
930.8720, 238.0078
931.9950, 278.3281
933.1180, 117.6367
934.2410, 30.94141
935.3640, 49.16406
936.4860, 372.8008
937.6090, 173.9453
938.7310, 109.2031
939.8530, 275.4648
940.9750, 156.6953
942.0970, 251.9453
943.2180, 79.18750
944.3400, 364.4258
945.4610, 29.32422
946.5820, 347.2188
947.7030, 223.4414
948.8240, 238.1797
949.9450, 166.2695
951.0650, 230.4883
952.1860, 207.3750
953.3060, 385.6016
954.4260, 339.8242
955.5460, 500.8203
956.6650, 417.0391
957.7850, 48.25781
958.9040, 350.4727
960.0230, 330.6797
961.1420, 136.8945
962.2610, 410.1016
963.3800, 147.0195
964.4990, 92.96484
965.6170, 216.2891
966.7350, 165.6719
967.8530, 258.8477
968.9710, 1.875000
970.0890, 381.0547
971.2070, 214.2461
972.3240, 499.4414
973.4410, 307.8203
974.5580, 173.1250
975.6750, 355.3984
976.7920, 162.5977
977.9090, 486.0742
979.0250, 392.2773
980.1410, 348.4219
981.2580, 352.7188
982.3740, 235.0234
983.4890, 483.1719
984.6050, 435.1016
985.7200, 165.6250
986.8360, 553.9727
987.9510, 505.0664
989.0660, 575.4414
990.1810, 329.8750
991.2950, 593.3086
992.4100, 423.7539
993.5240, 332.1992
994.6390, 454.7188
995.7530, 543.2656
996.8660, 347.7930
997.9800, 674.3945
999.0940, 791.0039
1000.207, 487.5312
1001.320, 768.0820
1002.433, 855.7188
1003.546, 662.7969
1004.659, 681.4492
1005.772, 496.7852
1006.884, 379.4648
1007.996, 497.1484
1009.108, 676.8438
1010.220, 712.5117
1011.332, 384.0312
1012.444, 530.6328
1013.555, 464.9570
1014.666, 781.7422
1015.777, 705.5391
1016.888, 658.3438
1017.999, 411.1602
1019.110, 789.9883
1020.220, 608.7070
1021.331, 610.5547
1022.441, 473.0820
1023.551, 699.9531
1024.661, 690.9297
1025.770, 590.6875
1026.880, 771.6133
1027.989, 404.4688
1029.098, 822.9102
1030.207, 596.8711
1031.316, 519.8516
1032.425, 503.3828
1033.533, 677.3867
1034.642, 570.0625
1035.750, 482.0977
1036.858, 799.7344
1037.966, 538.9258
1039.073, 522.2656
1040.181, 882.6211
1041.288, 706.7539
1042.396, 774.6836
1043.503, 815.4414
1044.610, 682.6094
1045.716, 712.7969
1046.823, 742.0039
1047.929, 602.2305
1049.036, 566.4727
1050.142, 758.7344
1051.248, 394.0156
1052.353, 605.3203
1053.459, 900.6406
1054.564, 533.9844
1055.670, 571.3438
1056.775, 549.7227
1057.880, 791.1250
1058.985, 705.5430
1060.089, 848.9844
1061.194, 977.4453
1062.298, 719.9297
1063.402, 970.4258
1064.506, 702.9531
1065.610, 964.7852
1066.713, 867.3516
1067.817, 584.9375
1068.920, 875.1328
1070.023, 791.7656
1071.126, 732.4180
1072.229, 736.0977
1073.332, 908.7930
1074.435, 858.5117
1075.537, 852.6016
1076.639, 899.0156
1077.741, 757.7969
1078.843, 752.6055
1079.945, 740.5273
1081.046, 844.2969
1082.148, 975.1758
1083.249, 1003.082
1084.350, 1294.461
1085.451, 1179.453
1086.551, 1255.465
1087.652, 1300.500
1088.752, 1224.559
1089.853, 1288.641
1090.953, 1194.746
1092.053, 1576.875
1093.152, 1439.027
1094.252, 1251.203
1095.351, 1525.398
1096.451, 1214.473
1097.550, 1290.141
1098.649, 1623.461
1099.748, 1110.820
1100.846, 1602.199
1101.945, 1353.938
1103.043, 1549.410
1104.141, 1413.910
1105.239, 1405.438
1106.337, 1314.988
1107.434, 1520.566
1108.532, 1569.203
1109.629, 1371.859
1110.726, 1317.562
1111.823, 1568.906
1112.920, 1693.422
1114.017, 1648.191
1115.113, 1591.992
1116.210, 1956.812
1117.306, 1492.535
1118.402, 1948.410
1119.498, 2102.312
1120.593, 2169.238
1121.689, 2570.227
1122.784, 2316.195
1123.879, 2398.191
1124.974, 2419.211
1126.069, 1980.555
1127.164, 1912.363
1128.259, 1948.453
1129.353, 1848.906
1130.447, 2020.047
1131.541, 1735.207
1132.635, 1711.395
1133.729, 1876.598
1134.822, 1728.824
1135.916, 1590.082
1137.009, 1580.359
1138.102, 1570.500
1139.195, 1584.230
1140.288, 1630.660
1141.380, 1632.133
1142.473, 1546.633
1143.565, 1434.488
1144.657, 1711.875
1145.749, 1424.438
1146.841, 1459.027
1147.932, 1578.645
1149.024, 1294.281
1150.115, 1611.941
1151.206, 1469.617
1152.297, 1542.324
1153.388, 1179.047
1154.479, 1613.816
1155.569, 1284.609
1156.659, 1163.426
1157.750, 1355.906
1158.839, 1060.770
1159.929, 1010.660
1161.019, 1278.617
1162.108, 1050.602
1163.198, 778.6055
1164.287, 953.6836
1165.376, 1186.785
1166.465, 980.9102
1167.553, 1123.094
1168.642, 856.3242
1169.730, 917.5898
1170.818, 958.9062
1171.906, 912.2734
1172.994, 859.6797
1174.082, 801.1133
1175.170, 951.5977
1176.257, 789.1133
1177.344, 885.6562
1178.431, 905.2188
1179.518, 748.8047
1180.605, 925.4062
1181.691, 578.0352
1182.778, 760.6758
1183.864, 688.3359
1184.950, 469.0156
1186.036, 642.7148
1187.122, 410.4375
1188.207, 344.1758
1189.292, 367.9375
1190.378, 498.7188
1191.463, 241.5234
1192.548, 459.3477
1193.632, 292.1914
1194.717, 416.0586
1195.801, 19.05859
1196.886, 457.8320
1197.970, 179.7461
1199.054, 265.6797
1200.137, 320.6406
1201.221, 401.6211
1202.305, 302.6211
1203.388, 265.6367
1204.471, 265.6719
1205.554, 212.7227
1206.637, 260.7930
1207.719, 153.8789
1208.802, 453.9844
1209.884, 111.1094
1210.966, 175.2539
1212.048, 406.4102
1213.130, 214.5859
1214.212, 75.22266
1215.293, 213.9648
1216.374, 190.1719
1217.456, 85.39062
1218.536, 376.6250
1219.617, 464.8750
1220.698, 416.1484
1221.778, 216.4297
1222.859, 266.7305
1223.939, 146.0508
1225.019, 97.38672
1226.099, 31.26953
1227.178, 192.0859
1228.258, 112.4766
1229.337, 230.8789
1230.417, 341.2969
1231.496, 63.27344
1232.574, 152.1523
1233.653, 331.5898
1234.732, 442.0469
1235.810, 13.51562
1236.888, 295.9961
1237.966, 73.48828
1239.044, 365.0000
1240.122, 492.5195
1241.199, 64.94531
1242.277, 143.4180
1243.354, 439.0547
1244.431, 219.5469
1245.508, 186.0469
1246.585, 46.43750
1247.661, 398.0703
1248.738, 94.59766
1249.814, 230.1289
1250.890, 210.3203
1251.966, 94.39844
1253.042, 163.9258
1254.117, 338.4609
1255.193, 290.9844
1256.268, 79.55469
1257.343, 264.8516
1258.418, 161.7305
1259.493, 205.3828
1260.567, 321.7500
1261.642, 51.13281
1262.716, 316.5234
1263.790, 270.9219
1264.864, 155.3359
1265.938, 352.7578
1267.011, 18.59375
1268.085, 137.8398
1269.158, 95.27734
1270.231, 98.83594
1271.304, 151.2969
1272.377, 1.761719
1273.450, 138.7500
1274.522, 93.67188
1275.594, 97.10938
1276.666, 136.6680
1277.738, 36.11719
1278.810, 64.58203
1279.882, 27.04688
1280.953, 121.5234
1282.025, 80.00781
1283.096, 58.49609
1284.167, 18.99609
1285.238, 424.5000
1286.308, 58.98828
1287.379, 193.4961
1288.449, 453.9922
1289.519, 46.49219
1290.589, 47.00000
1291.659, 216.5117
1292.729, 336.0352
1293.798, 251.0625
1294.868, 219.6016
