##NAMES=Heulandite-Ca
##RRUFFID=R050017
##IDEAL CHEMISTRY=(Ca,Na,K)_5_(Si_27_Al_9_)O_72_&#183;26H_2_O
##LOCALITY=Poona, Maharashtra State, India
##OWNER=RRUFF
##SOURCE=Eugene Schlepp
##DESCRIPTION=Single crystals
##STATUS=The identification of this mineral has been confirmed by X-ray diffraction and chemical analysis
##URL=rruff.info/R050017
##MEASURED CHEMISTRY=(Ca_.70_Na_.22_K_.02_[box]_0.06_)_5_(Si_0.77_Al_0.23_)_36_O_72_Â·24H_2_O
##PIN_ID=L00080
##ORIENTATION=Laser parallel to -a* (-1 0 0). Fiducial mark perpendicular to laser is parallel to b [0 1 0]
219.281, 0.000
220.654, 29.726
222.027, 210.647
223.400, 182.821
224.773, 310.185
226.146, 253.611
227.518, 485.795
228.891, 615.380
230.263, 397.743
231.634, 294.376
233.006, 120.872
234.377, 19.463
235.748, 75.197
237.119, 95.893
238.490, 30.700
239.860, 296.437
241.231, 275.326
242.601, 429.862
243.970, 490.245
245.340, 672.512
246.709, 914.006
248.079, 956.250
249.448, 1256.404
250.816, 1323.866
252.185, 1668.201
253.553, 1663.049
254.921, 1680.115
256.289, 1909.163
257.657, 1869.993
259.024, 1808.446
260.391, 1850.449
261.758, 1853.905
263.125, 1737.655
264.492, 1801.566
265.858, 1820.518
267.224, 1649.434
268.590, 1714.267
269.956, 1592.767
271.321, 1429.434
272.687, 1440.643
274.052, 1381.522
275.416, 1373.698
276.781, 1294.018
278.146, 1320.470
279.510, 1053.294
280.874, 1145.434
282.237, 1058.854
283.601, 1257.543
284.964, 1243.902
286.327, 1110.725
287.690, 1329.212
289.053, 1307.958
290.416, 1349.964
291.778, 1552.221
293.140, 1434.726
294.502, 1633.478
295.863, 1402.468
297.225, 1680.693
298.586, 1696.398
299.947, 1725.291
301.308, 1802.058
302.668, 1782.933
304.029, 1901.246
305.389, 2083.419
306.749, 2159.732
308.108, 2196.742
309.468, 2430.129
310.827, 2499.796
312.186, 2785.970
313.545, 2832.860
314.903, 3090.545
316.262, 3400.072
317.620, 3410.451
318.978, 3823.584
320.336, 4042.624
321.693, 4315.746
323.051, 4497.004
324.408, 4766.427
325.765, 4676.020
327.121, 5254.775
328.478, 5189.705
329.834, 5372.803
331.190, 5720.070
332.546, 5825.502
333.902, 5836.100
335.257, 6125.858
336.612, 6205.780
337.967, 6544.858
339.322, 6719.089
340.677, 6892.468
342.031, 7115.999
343.385, 7342.674
344.739, 7622.486
346.093, 7832.438
347.446, 8097.525
348.799, 8420.747
350.153, 9084.097
351.505, 9583.574
352.858, 9803.165
354.210, 10263.882
355.563, 10697.720
356.915, 11224.673
358.267, 11780.040
359.618, 12576.127
360.969, 13024.926
362.321, 13761.016
363.672, 14515.080
365.022, 15142.645
366.373, 15832.813
367.723, 16432.316
369.073, 17143.354
370.423, 17696.436
371.773, 18434.836
373.122, 18856.299
374.471, 19545.033
375.821, 20465.688
377.169, 20574.016
378.518, 21968.111
379.866, 22296.568
381.215, 23115.623
382.563, 24178.846
383.910, 25201.014
385.258, 26216.682
386.605, 27530.326
387.952, 29120.852
389.299, 30112.070
390.646, 32303.303
391.992, 33726.945
393.339, 35694.809
394.685, 38243.125
396.031, 40226.840
397.376, 43090.656
398.722, 44574.074
400.067, 47111.648
401.412, 48308.234
402.757, 49310.199
404.101, 51059.195
405.446, 51015.352
406.790, 50374.715
408.134, 49737.961
409.478, 48632.656
410.821, 47102.449
412.165, 45320.605
413.508, 42169.934
414.851, 40589.941
416.193, 37614.660
417.536, 34581.609
418.878, 32558.408
420.220, 30061.297
421.562, 27647.314
422.904, 24366.426
424.245, 22733.627
425.586, 20680.922
426.927, 18509.307
428.268, 16889.754
429.609, 14838.277
430.949, 13496.873
432.289, 12248.537
433.629, 11289.254
434.969, 10145.034
436.309, 9406.857
437.648, 8565.737
438.987, 8106.657
440.326, 7652.625
441.665, 7072.631
443.003, 6766.679
444.342, 6748.766
445.680, 6581.889
447.018, 6625.045
448.355, 6834.238
449.693, 6811.461
451.030, 7103.713
452.367, 7625.000
453.704, 8266.310
455.041, 8884.807
456.377, 9778.000
457.713, 10616.390
459.049, 11727.790
460.385, 13113.214
461.721, 14587.647
463.056, 16165.089
464.391, 17200.553
465.726, 18430.006
467.061, 19992.477
468.395, 20585.955
469.730, 21472.445
471.064, 22799.941
472.398, 23605.467
473.731, 25639.992
475.065, 26783.549
476.398, 28898.121
477.731, 30711.711
479.064, 32640.324
480.397, 33618.957
481.729, 34585.613
483.062, 34670.285
484.394, 33327.969
485.725, 31684.686
487.057, 29328.410
488.389, 26905.162
489.720, 24002.910
491.051, 20936.684
492.382, 18244.469
493.712, 15888.266
495.043, 13694.072
496.373, 11441.891
497.703, 9725.721
499.032, 8239.554
500.362, 7196.399
501.691, 5940.246
503.020, 5182.101
504.349, 4212.958
505.678, 3730.817
507.007, 3165.682
508.335, 2786.547
509.663, 2351.654
510.991, 2025.522
512.319, 1810.747
513.646, 1630.870
514.973, 1351.751
516.300, 1016.676
517.627, 1048.606
518.954, 899.900
520.280, 535.873
521.607, 620.873
522.933, 374.994
524.259, 420.093
525.584, 208.335
526.910, 88.557
528.235, 18.879
529.560, 55.711
530.885, 127.298
532.209, 202.468
533.534, 216.839
534.858, 276.145
536.182, 269.391
537.506, 178.631
538.829, 179.818
540.152, 237.244
541.476, 48.903
542.799, 126.533
544.121, 29.742
545.444, 46.895
546.766, 31.517
548.088, 35.041
549.410, 91.302
550.732, 3.660
552.053, 104.932
553.375, 135.170
554.696, 57.448
556.017, 17.400
557.337, 10.493
558.658, 98.172
559.978, 36.726
561.298, 52.896
562.618, 187.235
563.938, 124.356
565.257, 128.436
566.576, 166.630
567.895, 212.678
569.214, 141.566
570.533, 58.954
571.851, 105.438
573.170, 23.760
574.488, 92.607
575.805, 84.947
577.123, 175.274
578.440, 143.657
579.758, 343.979
581.075, 481.288
582.391, 378.596
583.708, 625.870
585.024, 704.128
586.341, 725.371
587.657, 1022.596
588.972, 1208.802
590.288, 1347.976
591.603, 1372.108
592.918, 1435.210
594.233, 1747.283
595.548, 2039.313
596.863, 2294.322
598.177, 2525.303
599.491, 2791.258
600.805, 3150.544
602.119, 3550.053
603.432, 3933.911
604.746, 4408.740
606.059, 4856.521
607.372, 5069.262
608.685, 5174.952
609.997, 5618.592
611.309, 5510.206
612.621, 5832.762
613.933, 5487.268
615.245, 5394.722
616.557, 5288.131
617.868, 5042.484
619.179, 4637.783
620.490, 4323.026
621.801, 3847.217
623.111, 3776.359
624.421, 3278.443
625.731, 3073.471
627.041, 2606.446
628.351, 2706.359
629.660, 2151.216
630.970, 1872.014
632.279, 2008.751
633.588, 1703.429
634.896, 1618.046
636.205, 1367.603
637.513, 1442.098
638.821, 1144.531
640.129, 1223.901
641.437, 1222.208
642.744, 1188.450
644.051, 974.631
645.358, 949.745
646.665, 929.794
647.972, 891.804
649.278, 837.754
650.584, 755.606
651.890, 705.538
653.196, 905.255
654.502, 696.140
655.807, 755.152
657.113, 605.986
658.418, 665.676
659.722, 705.574
661.027, 518.949
662.331, 663.714
663.636, 539.696
664.940, 517.557
666.244, 399.296
667.547, 566.104
668.851, 396.139
670.154, 412.529
671.457, 496.508
672.760, 468.610
674.062, 604.608
675.365, 431.800
676.667, 543.809
677.969, 515.187
679.271, 498.916
680.572, 719.225
681.874, 517.045
683.175, 662.079
684.476, 712.973
685.777, 568.637
687.077, 699.672
688.378, 536.537
689.678, 777.233
690.978, 663.786
692.278, 594.384
693.577, 513.213
694.877, 702.831
696.176, 523.240
697.475, 636.735
698.774, 573.008
700.072, 745.017
701.371, 580.112
702.669, 591.900
703.967, 500.450
705.265, 516.161
706.562, 726.223
707.860, 498.466
709.157, 439.806
710.454, 573.570
711.751, 370.788
713.047, 547.559
714.344, 412.161
715.640, 537.033
716.936, 385.274
718.232, 368.867
719.527, 526.660
720.823, 466.888
722.118, 413.500
723.413, 423.398
724.708, 136.037
726.002, 299.533
727.297, 404.467
728.591, 133.747
729.885, 362.825
731.179, 383.392
732.472, 376.044
733.766, 219.033
735.059, 339.325
736.352, 350.908
737.645, 344.365
738.937, 376.794
740.230, 460.117
741.522, 405.801
742.814, 359.726
744.106, 376.469
745.397, 512.176
746.689, 501.748
747.980, 467.321
749.271, 619.367
750.562, 438.810
751.853, 600.601
753.143, 498.575
754.433, 676.568
755.723, 746.216
757.013, 606.502
758.303, 855.032
759.592, 671.837
760.881, 941.477
762.170, 800.447
763.459, 879.618
764.748, 997.206
766.036, 868.967
767.325, 1178.745
768.613, 1045.009
769.901, 1148.694
771.188, 1247.738
772.476, 1170.237
773.763, 1252.675
775.050, 1270.079
776.337, 1221.652
777.624, 1290.551
778.910, 1293.593
780.196, 1212.693
781.482, 1256.962
782.768, 1100.772
784.054, 1026.488
785.339, 1075.337
786.625, 1028.892
787.910, 951.497
789.195, 991.890
790.479, 763.202
791.764, 820.433
793.048, 696.585
794.332, 637.656
795.616, 591.647
796.900, 456.557
798.183, 448.388
799.467, 372.141
800.750, 443.812
802.033, 323.404
803.316, 320.917
804.598, 413.350
805.880, 98.705
807.163, 338.970
808.445, 270.157
809.726, 223.266
811.008, 248.291
812.289, 265.237
813.570, 198.102
814.851, 305.886
816.132, 194.593
817.413, 126.217
818.693, 135.759
819.973, 147.220
821.253, 116.358
822.533, 4.651
823.813, 37.495
825.092, 64.354
826.371, 6.481
827.650, 26.781
828.929, 43.283
830.208, 32.214
831.486, 11.284
832.764, 57.828
834.042, 1.849
835.320, 46.479
836.598, 38.981
837.875, 24.489
839.152, 0.689
840.429, 35.339
841.706, 23.220
842.983, 5.223
844.259, 39.106
845.536, 13.848
846.812, 34.679
848.088, 42.397
849.363, 66.002
850.639, 31.202
851.914, 16.134
853.189, 79.339
854.464, 31.113
855.739, 46.625
857.013, 109.946
858.288, 9.781
859.562, 54.575
860.836, 7.007
862.110, 1.876
863.383, 100.876
864.656, 46.560
865.930, 45.023
867.203, 22.487
868.475, 5.138
869.748, 24.266
871.020, 29.248
872.292, 39.869
873.564, 17.560
874.836, 24.931
876.108, 2.385
877.379, 25.270
878.650, 9.086
879.922, 29.700
881.192, 39.544
882.463, 96.419
883.733, 5.522
885.004, 29.333
886.274, 121.849
887.544, 17.378
888.813, 26.430
890.083, 54.971
891.352, 11.818
892.621, 33.967
893.890, 57.507
895.159, 19.774
896.427, 10.120
897.695, 6.742
898.964, 78.683
900.232, 22.949
901.499, 31.656
902.767, 45.559
904.034, 59.283
905.301, 50.219
906.568, 52.244
907.835, 4.357
909.102, 30.530
910.368, 63.691
911.634, 40.707
912.900, 62.445
914.166, 18.038
915.432, 130.414
916.697, 8.820
917.962, 3.294
919.227, 159.449
920.492, 18.678
921.757, 134.859
923.021, 17.003
924.285, 134.076
925.550, 126.114
926.813, 57.108
928.077, 104.058
929.341, 24.032
930.604, 162.818
931.867, 94.629
933.130, 32.414
934.393, 119.158
935.655, 180.862
936.918, 65.528
938.180, 260.156
939.442, 78.747
940.703, 139.300
941.965, 242.817
943.226, 188.300
944.488, 248.427
945.749, 111.160
947.009, 250.541
948.270, 220.886
949.530, 178.200
950.791, 251.482
952.051, 290.737
953.311, 263.962
954.570, 303.794
955.830, 286.306
957.089, 334.462
958.348, 299.443
959.607, 359.540
960.866, 312.389
962.124, 308.038
963.383, 409.783
964.641, 475.589
965.899, 400.090
967.156, 474.039
968.414, 542.503
969.671, 637.655
970.928, 608.832
972.185, 515.055
973.442, 773.111
974.699, 628.865
975.955, 748.163
977.211, 753.795
978.468, 779.208
979.723, 912.647
980.979, 866.798
982.234, 866.036
983.490, 987.831
984.745, 827.223
986.000, 959.940
987.254, 1061.052
988.509, 965.871
989.763, 968.752
991.017, 1151.790
992.271, 1089.953
993.525, 1081.823
994.779, 1141.923
996.032, 1073.712
997.285, 1083.967
998.538, 1175.297
999.791, 1127.438
1001.044, 1288.780
1002.296, 1123.997
1003.548, 1357.411
1004.800, 1320.061
1006.052, 1263.814
1007.304, 1337.589
1008.555, 1292.848
1009.807, 1354.763
1011.058, 1403.129
1012.309, 1395.144
1013.559, 1560.186
1014.810, 1365.780
1016.060, 1273.880
1017.310, 1440.043
1018.560, 1484.524
1019.810, 1406.898
1021.060, 1554.901
1022.309, 1651.411
1023.558, 1468.869
1024.807, 1813.902
1026.056, 1577.546
1027.305, 1669.283
1028.553, 1705.993
1029.801, 1885.902
1031.049, 1775.152
1032.297, 1747.970
1033.545, 1629.414
1034.793, 1680.018
1036.040, 1751.593
1037.287, 1752.862
1038.534, 2000.525
1039.781, 1994.825
1041.027, 2111.176
1042.274, 2171.808
1043.520, 2031.813
1044.766, 2188.716
1046.012, 2177.305
1047.257, 2104.003
1048.503, 1971.662
1049.748, 2126.384
1050.993, 2089.033
1052.238, 2314.137
1053.483, 2205.774
1054.727, 2141.994
1055.971, 2237.960
1057.216, 2310.833
1058.459, 2306.981
1059.703, 2259.422
1060.947, 2315.545
1062.190, 2347.349
1063.433, 2245.239
1064.676, 2315.731
1065.919, 2206.957
1067.162, 2170.692
1068.404, 2514.183
1069.646, 2302.590
1070.888, 2275.437
1072.130, 2773.793
1073.372, 3307.721
1074.613, 2762.121
1075.855, 2856.514
1077.096, 2684.643
1078.337, 2846.993
1079.578, 3119.721
1080.818, 3177.234
1082.059, 3274.773
1083.299, 3330.926
1084.539, 3552.468
1085.779, 3617.036
1087.018, 3616.405
1088.258, 3912.998
1089.497, 3906.475
1090.736, 4209.092
1091.975, 4303.724
1093.213, 4384.594
1094.452, 4501.251
1095.690, 4618.192
1096.928, 4660.611
1098.166, 4893.566
1099.404, 4960.282
1100.642, 5125.612
1101.879, 5204.504
1103.116, 5286.241
1104.353, 5292.013
1105.590, 5394.092
1106.827, 5354.012
1108.063, 5509.834
1109.299, 5372.192
1110.536, 5642.772
1111.771, 5654.395
1113.007, 5469.247
1114.243, 5794.255
1115.478, 5813.943
1116.713, 5692.938
1117.948, 5779.962
1119.183, 6007.057
1120.418, 5824.867
1121.652, 5755.814
1122.886, 5897.847
1124.120, 5985.956
1125.354, 6030.058
1126.588, 5879.469
1127.821, 5979.174
1129.055, 5976.730
1130.288, 6022.973
1131.521, 6128.203
1132.753, 6195.276
1133.986, 6119.640
1135.218, 6037.231
1136.450, 6092.215
1137.682, 6034.433
1138.914, 6130.054
1140.146, 6045.176
1141.377, 6027.067
1142.609, 6095.818
1143.840, 5896.171
1145.071, 5893.022
1146.301, 5981.936
1147.532, 6047.902
1148.762, 5899.338
1149.992, 5931.529
1151.222, 5557.645
1152.452, 5593.792
1153.682, 5560.259
1154.911, 5317.119
1156.140, 5400.591
1157.369, 5170.272
1158.598, 5090.885
1159.827, 4896.301
1161.055, 4784.333
1162.284, 4599.249
1163.512, 4589.365
1164.740, 4381.460
1165.967, 4333.258
1167.195, 4178.114
1168.422, 4188.626
1169.650, 3909.029
1170.877, 3722.015
1172.103, 3662.684
1173.330, 3426.896
1174.557, 3320.272
1175.783, 3448.121
1177.009, 3303.788
1178.235, 2914.828
1179.461, 3030.895
1180.686, 2877.887
1181.912, 2650.623
1183.137, 2671.296
1184.362, 2595.019
1185.587, 2428.889
1186.811, 2202.133
1188.036, 2002.071
1189.260, 2051.252
1190.484, 2032.623
1191.708, 1858.892
1192.932, 1775.276
1194.155, 1563.693
1195.378, 1392.026
1196.602, 1349.363
1197.825, 1209.901
1199.047, 1241.081
1200.270, 1112.803
1201.492, 1013.871
1202.715, 1073.557
1203.937, 740.365
1205.159, 788.308
1206.380, 691.680
1207.602, 811.032
1208.823, 478.104
1210.044, 500.381
1211.265, 447.699
1212.486, 517.018
1213.707, 480.426
1214.927, 387.348
1216.147, 337.561
1217.367, 247.421
1218.587, 350.516
1219.807, 295.714
1221.027, 170.556
1222.246, 320.094
1223.465, 99.435
1224.684, 233.429
1225.903, 230.560
1227.121, 103.812
1228.340, 67.176
1229.558, 194.319
1230.776, 118.539
1231.994, 129.261
1233.212, 47.264
1234.429, 83.158
1235.646, 59.940
1236.864, 19.608
1238.081, 93.258
1239.297, 9.106
1240.514, 88.736
1241.730, 187.801
1242.947, 45.857
1244.163, 7.501
1245.378, 28.088
1246.594, 32.501
1247.810, 131.497
1249.025, 82.924
1250.240, 122.717
1251.455, 4.765
1252.670, 9.867
1253.885, 111.549
1255.099, 55.999
1256.313, 71.577
1257.527, 31.236
1258.741, 45.578
1259.955, 32.679
1261.168, 10.656
1262.382, 14.940
1263.595, 49.194
1264.808, 40.497
1266.021, 27.283
1267.233, 5.568
1268.446, 50.680
1269.658, 31.157
1270.870, 39.114
1272.082, 42.759
1273.294, 18.928
1274.505, 0.133
1275.716, 35.754
1276.928, 21.004
1278.139, 110.728
1279.349, 94.191
1280.560, 53.665
1281.770, 21.952
1282.981, 48.929
1284.191, 7.052
1285.401, 11.965
1286.610, 41.902
1287.820, 2.485
1289.029, 30.772
1290.239, 54.084
1291.448, 29.544
1292.656, 31.142
1293.865, 30.295
1295.073, 54.670
1296.282, 5.688
1297.490, 24.093
1298.698, 19.787
1299.906, 5.051
1301.113, 39.426
1302.320, 11.323
1303.528, 19.759
1304.735, 5.982
1305.942, 30.151
1307.148, 23.291
1308.355, 6.188
1309.561, 4.974
1310.767, 36.513
1311.973, 19.557
1313.179, 20.546
1314.384, 78.498
1315.590, 115.254
1316.795, 22.218
1318.000, 1.242
1319.205, 150.168
1320.410, 86.018
1321.614, 26.775
1322.819, 10.192
1324.023, 48.545
1325.227, 6.831
1326.431, 14.403
1327.634, 42.309
1328.838, 42.958
1330.041, 44.672
1331.244, 53.875
1332.447, 131.537
1333.650, 82.154
1334.852, 49.729
1336.055, 69.259
1337.257, 56.329
1338.459, 56.193
1339.661, 74.445
1340.862, 75.583
1342.064, 63.091
1343.265, 92.600
1344.466, 42.831
1345.667, 32.093
1346.868, 49.043
1348.068, 245.141
1349.269, 42.198
1350.469, 92.210
1351.669, 99.183
1352.869, 33.489
1354.069, 126.986
1355.268, 116.820
1356.468, 39.617
1357.667, 96.374
1358.866, 212.096
1360.065, 150.084
1361.263, 249.768
1362.462, 180.393
1363.660, 154.923
1364.858, 261.416
1366.056, 91.847
1367.254, 118.241
1368.451, 199.602
1369.649, 165.929
1370.846, 137.221
1372.043, 192.354
1373.240, 91.163
1374.436, 129.059
1375.633, 270.884
1376.829, 175.630
1378.025, 199.287
1379.221, 222.885
1380.417, 255.425
1381.613, 252.931
1382.808, 279.449
1384.003, 203.268
1385.199, 154.263
1386.393, 159.952
1387.588, 298.197
1388.783, 371.683
1389.977, 222.995
1391.171, 405.944
1392.365, 110.457
1393.559, 159.601
1394.753, 250.712
1395.946, 225.770
1397.140, 207.022
1398.333, 272.808
1399.526, 218.123
1400.719, 98.983
1401.911, 186.919
1403.104, 244.008
1404.296, 330.518
1405.488, 271.015
1406.680, 274.012
1407.872, 177.296
1409.063, 223.455
1410.255, 214.738
1411.446, 252.113
1412.637, 276.666
1413.828, 243.427
1415.018, 267.253
1416.209, 282.280
1417.399, 293.164
1418.589, 231.942
1419.779, 240.987
1420.969, 189.700
1422.159, 167.834
1423.348, 115.527
1424.537, 132.823
1425.726, 150.422
1426.915, 127.195
1428.104, 186.478
1429.293, 185.305
1430.481, 97.584
1431.669, 214.680
1432.857, 239.606
1434.045, 353.395
1435.233, 173.714
1436.420, 241.711
1437.608, 265.249
1438.795, 249.720
1439.982, 278.407
1441.169, 209.030
1442.355, 237.666
1443.542, 70.622
1444.728, 324.006
1445.914, 171.044
1447.100, 248.939
1448.286, 177.532
1449.472, 206.622
1450.657, 275.503
1451.842, 126.551
1453.027, 297.897
1454.212, 391.729
1455.397, 410.598
1456.581, 136.228
1457.766, 240.977
1458.950, 192.523
1460.134, 138.335
1461.318, 295.437
1462.501, 63.326
1463.685, 214.854
1464.868, 214.914
1466.051, 285.489
1467.234, 202.861
1468.417, 168.136
1469.600, 286.120
1470.782, 319.386
1471.965, 219.763
1473.147, 295.136
1474.329, 57.788
1475.510, 95.358
1476.692, 251.817
1477.873, 161.049
1479.055, 240.460
1480.236, 255.092
1481.416, 24.378
1482.597, 207.729
1483.778, 218.779
1484.958, 2.109
1486.138, 216.769
1487.318, 31.966
1488.498, 10.214
1489.678, 49.809
1490.857, 185.401
1492.037, 131.094
1493.216, 216.947
1494.395, 192.693
1495.574, 63.954
1496.752, 201.412
1497.931, 117.060
1499.109, 140.925
1500.287, 84.026
1501.465, 5.258
1502.643, 0.537
1503.820, 34.715
1504.998, 156.274
1506.175, 52.814
1507.352, 51.381
1508.529, 75.291
1509.706, 92.436
1510.882, 122.132
1512.059, 201.345
1513.235, 147.258
1514.411, 130.885
1515.587, 119.275
1516.762, 94.740
1517.938, 6.275
1519.113, 54.645
1520.288, 0.446
1521.463, 123.116
1522.638, 0.778
1523.813, 0.000
##END=



