##NAMES=Heulandite-Ca
##RRUFFID=R040021
##IDEAL CHEMISTRY=(Ca,Na,K)_5_(Si_27_Al_9_)O_72_&#183;26H_2_O
##LOCALITY=Prospect Park, Patterson, Passaic County, New Jersey, USA
##OWNER=RRUFF
##SOURCE=University of Arizona Mineral Museum
##DESCRIPTION=Group of colorless lamellar crystals
##STATUS=The identification of this mineral has been confirmed by X-ray diffraction and chemical analysis
##URL=rruff.info/R040021
##MEASURED CHEMISTRY=Na_0.25_(Na_0.55_K_0.45_)_Σ=1_(Ca_2.42_Na_0.85_Sr_0.73_)_Σ=4.00_(Si_27.60_Al_8.40_)_Σ=36_O_72_·24H_2_O ; H_2_O estimated by difference
##PIN_ID=m00223
##ORIENTATION=Laser parallel to -c [0 0 -1]. Fiducial mark perpendicular to laser is parallel to b* (0 1 0)
96.161, 0.000
97.554, 2.744
98.947, 141.957
100.340, 513.588
101.732, 704.895
103.124, 1140.439
104.516, 1431.656
105.908, 2177.145
107.300, 2480.559
108.691, 2593.322
110.082, 3479.879
111.473, 3627.271
112.864, 4153.547
114.254, 5034.156
115.644, 5968.457
117.034, 6840.000
118.424, 7042.990
119.813, 6630.607
121.203, 6970.783
122.592, 6385.041
123.981, 6148.074
125.369, 6335.668
126.758, 5804.264
128.146, 5771.568
129.534, 5288.732
130.922, 5557.672
132.309, 5046.861
133.696, 5060.459
135.083, 4581.801
136.470, 5038.070
137.857, 4679.410
139.243, 5016.391
140.630, 4981.855
142.016, 4982.947
143.401, 4928.344
144.787, 5097.676
146.172, 5216.227
147.557, 5334.514
148.942, 5199.246
150.327, 5174.266
151.711, 5268.209
153.096, 5246.092
154.480, 5234.939
155.863, 5295.504
157.247, 5071.725
158.630, 5062.771
160.013, 4874.887
161.396, 4677.078
162.779, 4414.844
164.161, 4315.773
165.544, 3718.842
166.926, 3640.129
168.308, 3146.674
169.689, 2920.297
171.070, 2522.115
172.452, 2449.947
173.833, 2255.621
175.213, 1785.262
176.594, 1692.877
177.974, 1302.475
179.354, 1338.254
180.734, 1144.869
182.114, 826.400
183.493, 683.836
184.872, 750.152
186.251, 599.293
187.630, 531.207
189.008, 333.836
190.387, 381.117
191.765, 375.994
193.143, 231.408
194.520, 244.305
195.898, 3.383
197.275, 134.291
198.652, 47.275
200.029, 186.525
201.405, 129.996
202.782, 122.336
204.158, 188.537
205.534, 278.299
206.909, 245.984
208.285, 308.766
209.660, 289.902
211.035, 275.156
212.410, 439.562
213.784, 287.139
215.159, 399.889
216.533, 394.814
217.907, 298.906
219.281, 377.176
220.654, 299.645
222.027, 431.338
223.400, 280.297
224.773, 245.529
226.146, 100.080
227.518, 201.953
228.891, 77.229
230.263, 113.957
231.634, 2.852
233.006, 76.980
234.377, 74.320
235.748, 253.852
237.119, 483.570
238.490, 534.480
239.860, 830.609
241.231, 887.146
242.601, 1041.113
243.970, 1096.697
245.340, 1371.035
246.709, 1501.113
248.079, 1559.184
249.448, 1932.264
250.816, 1767.441
252.185, 1949.768
253.553, 1958.176
254.921, 2058.693
256.289, 2238.250
257.657, 2227.848
259.024, 2175.475
260.391, 2246.127
261.758, 2256.006
263.125, 2285.023
264.492, 2216.711
265.858, 2234.375
267.224, 2167.602
268.590, 2163.125
269.956, 1965.752
271.321, 2220.338
272.687, 2201.775
274.052, 2016.982
275.416, 1807.893
276.781, 2188.439
278.146, 2071.561
279.510, 1960.211
280.874, 2274.365
282.237, 2280.016
283.601, 2336.146
284.964, 2228.740
286.327, 2212.781
287.690, 2467.248
289.053, 2363.090
290.416, 2490.258
291.778, 2720.711
293.140, 2673.426
294.502, 2869.396
295.863, 2659.648
297.225, 2982.223
298.586, 3066.164
299.947, 2980.514
301.308, 3149.287
302.668, 3100.467
304.029, 3028.043
305.389, 3343.994
306.749, 3241.330
308.108, 3347.008
309.468, 3582.043
310.827, 3560.293
312.186, 3801.811
313.545, 3909.512
314.903, 4256.188
316.262, 4276.727
317.620, 4333.133
318.978, 4705.371
320.336, 4735.525
321.693, 5012.637
323.051, 5226.770
324.408, 5410.945
325.765, 5283.445
327.121, 5885.346
328.478, 5649.783
329.834, 5845.934
331.190, 6184.934
332.546, 6451.838
333.902, 6431.686
335.257, 6665.500
336.612, 6720.305
337.967, 7022.105
339.322, 7111.293
340.677, 7390.141
342.031, 7586.402
343.385, 7663.855
344.739, 8045.539
346.093, 8412.533
347.446, 8561.398
348.799, 8805.875
350.153, 9286.143
351.505, 9635.879
352.858, 9942.104
354.210, 10367.104
355.563, 10996.090
356.915, 11192.684
358.267, 11812.617
359.618, 12420.832
360.969, 12813.053
362.321, 13575.520
363.672, 13919.410
365.022, 14635.129
366.373, 14996.543
367.723, 15616.938
369.073, 16092.613
370.423, 16652.867
371.773, 17275.062
373.122, 17487.750
374.471, 17940.291
375.821, 18957.979
377.169, 19016.115
378.518, 20148.246
379.866, 20360.994
381.215, 21108.549
382.563, 22181.707
383.910, 22893.373
385.258, 23800.449
386.605, 24943.041
387.952, 26535.125
389.299, 27277.451
390.646, 29267.018
391.992, 30393.436
393.339, 32041.635
394.685, 33743.820
396.031, 35684.715
397.376, 37565.266
398.722, 38335.637
400.067, 39854.680
401.412, 40240.676
402.757, 40333.539
404.101, 41046.754
405.446, 39756.059
406.790, 38414.070
408.134, 37438.871
409.478, 36088.566
410.821, 34415.250
412.165, 32720.379
413.508, 30053.365
414.851, 28861.576
416.193, 26598.607
417.536, 24330.713
418.878, 22924.410
420.220, 21140.348
421.562, 19295.062
422.904, 17167.771
424.245, 16031.387
425.586, 14775.896
426.927, 13165.287
428.268, 12497.555
429.609, 10870.699
430.949, 9880.717
432.289, 9050.602
433.629, 8688.355
434.969, 7795.982
436.309, 7311.482
437.648, 6672.852
438.987, 6546.096
440.326, 6146.215
441.665, 5822.209
443.003, 5645.084
444.342, 5632.842
445.680, 5517.479
447.018, 5572.004
448.355, 5775.416
449.693, 5788.717
451.030, 5923.910
452.367, 6362.000
453.704, 7002.990
455.041, 7107.879
456.377, 7991.674
457.713, 8648.373
459.049, 9804.984
460.385, 10673.512
461.721, 11945.949
463.056, 13083.309
464.391, 13837.586
465.726, 14917.789
467.061, 16264.916
468.395, 16750.973
469.730, 17476.957
471.064, 18925.875
472.398, 19298.734
473.731, 21420.533
475.065, 22318.277
476.398, 24087.965
477.731, 25726.602
479.064, 26935.203
480.397, 27664.770
481.729, 27954.299
483.062, 27434.797
484.394, 26272.275
485.725, 24229.730
487.057, 22252.174
488.389, 20101.598
489.720, 17878.014
491.051, 15482.422
492.382, 13717.820
493.712, 11925.207
495.043, 10194.625
496.373, 8758.029
497.703, 7500.428
499.032, 6466.818
500.362, 5639.203
501.691, 4904.582
503.020, 4193.967
504.349, 3491.355
505.678, 3234.555
507.007, 2834.068
508.335, 2531.504
509.663, 2166.895
510.991, 1909.398
512.319, 1732.664
513.646, 1629.611
514.973, 1526.977
516.300, 1142.117
517.627, 1213.951
518.954, 1098.793
520.280, 698.514
521.607, 806.164
522.933, 570.605
524.259, 652.189
525.584, 385.242
526.910, 369.207
528.235, 420.375
529.560, 289.602
530.885, 332.799
532.209, 275.111
533.534, 66.391
534.858, 209.246
536.182, 17.043
537.506, 29.828
538.829, 56.350
540.152, 44.258
541.476, 274.617
542.799, 43.639
544.121, 259.992
545.444, 161.549
546.766, 107.732
548.088, 309.484
549.410, 173.707
550.732, 172.256
552.053, 95.742
553.375, 86.230
554.696, 301.729
556.017, 70.258
557.337, 177.863
558.658, 41.938
559.978, 152.629
561.298, 184.029
562.618, 72.832
563.938, 238.686
565.257, 7.775
566.576, 82.945
567.895, 144.822
569.214, 78.258
570.533, 236.188
571.851, 32.096
573.170, 215.980
574.488, 258.875
575.805, 240.754
577.123, 346.807
578.440, 277.684
579.758, 385.963
581.075, 651.922
582.391, 548.875
583.708, 835.041
585.024, 829.818
586.341, 841.123
587.657, 1077.213
588.972, 1236.996
590.288, 1582.764
591.603, 1679.516
592.918, 1882.648
594.233, 1911.271
595.548, 2250.980
596.863, 2391.682
598.177, 2701.367
599.491, 3002.041
600.805, 3541.703
602.119, 3596.348
603.432, 3724.980
604.746, 4281.602
606.059, 4325.211
607.372, 4481.809
608.685, 4370.391
609.997, 4404.229
611.309, 4342.549
612.621, 4356.113
613.933, 4058.676
615.245, 4095.227
616.557, 3767.770
617.868, 3798.303
619.179, 3471.824
620.490, 3099.338
621.801, 2704.842
623.111, 2806.336
624.421, 2399.818
625.731, 2352.291
627.041, 1750.760
628.351, 2011.217
629.660, 1376.666
630.970, 1465.105
632.279, 1392.537
633.588, 1084.955
634.896, 992.365
636.205, 785.766
637.513, 1013.156
638.821, 705.535
640.129, 827.904
641.437, 822.262
642.744, 806.611
644.051, 854.180
645.358, 707.812
646.665, 782.154
647.972, 789.924
649.278, 565.080
650.584, 521.365
651.890, 371.527
653.196, 669.830
654.502, 538.256
655.807, 615.326
657.113, 341.154
658.418, 347.035
659.722, 372.121
661.027, 325.414
662.331, 96.934
663.636, 264.623
664.940, 534.711
666.244, 63.998
667.547, 401.340
668.851, 54.928
670.154, 213.766
671.457, 120.629
672.760, 7.918
674.062, 286.469
675.365, 309.184
676.667, 119.846
677.969, 147.344
679.271, 244.701
680.572, 226.066
681.874, 148.287
683.175, 209.385
684.476, 195.633
685.777, 217.457
687.077, 267.812
688.378, 260.533
689.678, 342.146
690.978, 221.156
692.278, 278.418
693.577, 56.318
694.877, 576.229
696.176, 217.973
697.475, 541.410
698.774, 89.438
700.072, 336.199
701.371, 324.629
702.669, 242.146
703.967, 152.736
705.265, 233.139
706.562, 427.803
707.860, 287.477
709.157, 53.752
710.454, 456.135
711.751, 260.119
713.047, 364.324
714.344, 128.232
715.640, 366.270
716.936, 5.770
718.232, 290.926
719.527, 320.088
720.823, 157.930
722.118, 227.543
723.413, 216.439
724.708, 229.268
726.002, 263.662
727.297, 333.123
728.591, 339.395
729.885, 271.854
731.179, 402.160
732.472, 224.916
733.766, 263.715
735.059, 163.314
736.352, 235.410
737.645, 235.203
738.937, 180.523
740.230, 380.627
741.522, 143.381
742.814, 210.562
744.106, 316.500
745.397, 349.707
746.689, 321.482
747.980, 208.566
749.271, 392.967
750.562, 470.207
751.853, 441.535
753.143, 322.518
754.433, 495.514
755.723, 358.080
757.013, 430.535
758.303, 672.285
759.592, 569.955
760.881, 677.289
762.170, 675.238
763.459, 835.492
764.748, 818.592
766.036, 660.367
767.325, 980.496
768.613, 778.004
769.901, 837.199
771.188, 1110.787
772.476, 930.256
773.763, 1157.277
775.050, 866.316
776.337, 1081.623
777.624, 1000.746
778.910, 1089.504
780.196, 976.219
781.482, 1049.764
782.768, 1012.902
784.054, 829.432
785.339, 846.422
786.625, 784.928
787.910, 720.168
789.195, 797.809
790.479, 616.186
791.764, 476.521
793.048, 352.812
794.332, 368.064
795.616, 316.271
796.900, 301.434
798.183, 350.555
799.467, 144.635
800.750, 266.666
802.033, 160.654
803.316, 65.596
804.598, 378.486
805.880, 96.662
807.163, 260.064
808.445, 226.750
809.726, 69.389
811.008, 123.979
812.289, 106.521
813.570, 56.238
814.851, 42.461
816.132, 32.852
817.413, 26.389
818.693, 49.564
819.973, 38.795
821.253, 87.973
822.533, 46.912
823.813, 18.338
825.092, 49.885
826.371, 127.008
827.650, 1.264
828.929, 102.176
830.208, 62.332
831.486, 94.000
832.764, 226.262
834.042, 19.363
835.320, 34.627
836.598, 83.311
837.875, 15.869
839.152, 104.434
840.429, 64.217
841.706, 148.227
842.983, 22.400
844.259, 41.234
845.536, 116.320
846.812, 85.396
848.088, 13.029
849.363, 86.586
850.639, 89.158
851.914, 71.482
853.189, 3.266
854.464, 43.035
855.739, 139.178
857.013, 58.287
858.288, 84.602
859.562, 123.570
860.836, 124.896
862.110, 266.166
863.383, 43.465
864.656, 277.775
865.930, 24.957
867.203, 143.355
868.475, 2.922
869.748, 231.367
871.020, 201.701
872.292, 141.488
873.564, 70.332
874.836, 41.590
876.108, 57.627
877.379, 28.797
878.650, 169.084
879.922, 64.062
881.192, 48.008
882.463, 105.084
883.733, 98.732
885.004, 51.488
886.274, 40.045
887.544, 20.701
888.813, 257.906
890.083, 15.621
891.352, 110.797
892.621, 151.953
893.890, 36.551
895.159, 158.646
896.427, 157.383
897.695, 82.666
898.964, 200.920
900.232, 89.145
901.499, 5.041
902.767, 30.197
904.034, 2.998
905.301, 69.406
906.568, 55.461
907.835, 146.486
909.102, 163.480
910.368, 80.449
911.634, 88.387
912.900, 267.297
914.166, 3.180
915.432, 273.027
916.697, 10.148
917.962, 46.361
919.227, 401.377
920.492, 25.912
921.757, 111.758
923.021, 6.402
924.285, 23.016
925.550, 118.602
926.813, 103.160
928.077, 27.695
929.341, 59.205
930.604, 210.684
931.867, 210.139
933.130, 15.430
934.393, 23.973
935.655, 222.350
936.918, 21.703
938.180, 431.033
939.442, 167.340
940.703, 195.629
941.965, 173.895
943.226, 256.139
944.488, 197.361
945.749, 194.561
947.009, 347.742
948.270, 185.904
949.530, 259.045
950.791, 390.166
952.051, 378.732
953.311, 432.541
954.570, 458.193
955.830, 427.617
957.089, 437.684
958.348, 372.836
959.607, 396.533
960.866, 313.652
962.124, 448.812
963.383, 467.219
964.641, 546.570
965.899, 517.744
967.156, 571.719
968.414, 514.459
969.671, 598.994
970.928, 571.109
972.185, 532.990
973.442, 703.785
974.699, 446.164
975.955, 909.525
977.211, 668.711
978.468, 545.273
979.723, 847.859
980.979, 857.084
982.234, 626.330
983.490, 1095.705
984.745, 604.195
986.000, 826.639
987.254, 1024.195
988.509, 759.723
989.763, 1064.441
991.017, 822.865
992.271, 1144.684
993.525, 943.320
994.779, 1027.805
996.032, 1224.998
997.285, 1178.508
998.538, 1305.215
999.791, 882.604
1001.044, 1523.547
1002.296, 1297.055
1003.548, 1659.492
1004.800, 1484.605
1006.052, 1369.430
1007.304, 1442.168
1008.555, 1331.572
1009.807, 1449.131
1011.058, 1393.891
1012.309, 1310.658
1013.559, 1438.832
1014.810, 1520.305
1016.060, 1365.482
1017.310, 1447.762
1018.560, 1620.660
1019.810, 1419.264
1021.060, 1559.436
1022.309, 1812.938
1023.558, 1465.871
1024.807, 1831.680
1026.056, 1609.246
1027.305, 1765.902
1028.553, 1636.275
1029.801, 1843.350
1031.049, 1745.984
1032.297, 1741.812
1033.545, 1694.408
1034.793, 1715.195
1036.040, 1604.449
1037.287, 1682.080
1038.534, 1664.652
1039.781, 1880.926
1041.027, 2012.463
1042.274, 1959.092
1043.520, 1815.639
1044.766, 1899.125
1046.012, 1762.188
1047.257, 1776.455
1048.503, 1642.486
1049.748, 1967.908
1050.993, 1790.979
1052.238, 2127.715
1053.483, 1991.574
1054.727, 1967.307
1055.971, 1977.369
1057.216, 1970.928
1058.459, 1942.770
1059.703, 2103.242
1060.947, 2047.379
1062.190, 2190.695
1063.433, 2138.166
1064.676, 2277.984
1065.919, 2375.482
1067.162, 2083.092
1068.404, 2597.047
1069.646, 2011.539
1070.888, 2397.775
1072.130, 2595.129
1073.372, 2603.045
1074.613, 2725.230
1075.855, 2866.633
1077.096, 2911.975
1078.337, 2936.352
1079.578, 3081.021
1080.818, 3228.025
1082.059, 3416.523
1083.299, 3508.463
1084.539, 3650.432
1085.779, 3716.377
1087.018, 3833.426
1088.258, 3839.342
1089.497, 3820.838
1090.736, 3930.525
1091.975, 4054.113
1093.213, 4042.660
1094.452, 4002.312
1095.690, 4319.969
1096.928, 4105.775
1098.166, 4176.697
1099.404, 4238.777
1100.642, 4637.660
1101.879, 4279.330
1103.116, 4567.246
1104.353, 4443.727
1105.590, 4500.865
1106.827, 4405.742
1108.063, 4771.562
1109.299, 4329.146
1110.536, 4819.785
1111.771, 4698.586
1113.007, 4525.320
1114.243, 4843.330
1115.478, 4816.479
1116.713, 4769.904
1117.948, 4766.219
1119.183, 4990.637
1120.418, 4639.330
1121.652, 5205.635
1122.886, 5360.168
1124.120, 5289.596
1125.354, 5099.088
1126.588, 4757.406
1127.821, 4977.881
1129.055, 4694.908
1130.288, 4960.074
1131.521, 4967.504
1132.753, 4861.602
1133.986, 4692.539
1135.218, 4578.975
1136.450, 4809.354
1137.682, 4412.945
1138.914, 4771.246
1140.146, 4384.859
1141.377, 4386.854
1142.609, 4129.398
1143.840, 4166.504
1145.071, 4238.523
1146.301, 4232.547
1147.532, 3928.617
1148.762, 4126.916
1149.992, 3820.900
1151.222, 3909.461
1152.452, 3656.090
1153.682, 3886.715
1154.911, 3517.529
1156.140, 3727.529
1157.369, 3204.422
1158.598, 3294.725
1159.827, 3241.025
1161.055, 3214.809
1162.284, 3169.650
1163.512, 3140.408
1164.740, 2894.641
1165.967, 2859.098
1167.195, 2725.211
1168.422, 2670.227
1169.650, 2494.559
1170.877, 2430.531
1172.103, 2303.791
1173.330, 2192.076
1174.557, 2189.688
1175.783, 2295.982
1177.009, 2077.105
1178.235, 1624.150
1179.461, 1923.766
1180.686, 1529.914
1181.912, 1538.910
1183.137, 1648.609
1184.362, 1523.537
1185.587, 1244.500
1186.811, 1344.666
1188.036, 1292.775
1189.260, 1002.791
1190.484, 1000.328
1191.708, 1111.199
1192.932, 1122.428
1194.155, 760.020
1195.378, 739.379
1196.602, 706.283
1197.825, 809.184
1199.047, 595.361
1200.270, 735.920
1201.492, 490.408
1202.715, 735.238
1203.937, 649.822
1205.159, 641.943
1206.380, 540.467
1207.602, 401.895
1208.823, 159.006
1210.044, 311.047
1211.265, 428.943
1212.486, 455.939
1213.707, 245.764
1214.927, 192.092
1216.147, 438.547
1217.367, 173.354
1218.587, 264.688
1219.807, 258.029
1221.027, 171.811
1222.246, 233.359
1223.465, 255.455
1224.684, 142.932
1225.903, 362.654
1227.121, 328.564
1228.340, 332.141
1229.558, 159.203
1230.776, 179.055
1231.994, 143.674
1233.212, 66.254
1234.429, 141.967
1235.646, 246.006
1236.864, 200.986
1238.081, 226.812
1239.297, 239.615
1240.514, 214.848
1241.730, 216.111
1242.947, 181.256
1244.163, 155.373
1245.378, 118.457
1246.594, 168.658
1247.810, 219.678
1249.025, 73.932
1250.240, 396.287
1251.455, 43.666
1252.670, 178.398
1253.885, 203.135
1255.099, 259.832
1256.313, 23.492
1257.527, 96.889
1258.741, 110.824
1259.955, 178.152
1261.168, 115.791
1262.382, 71.537
1263.595, 96.543
1264.808, 74.836
1266.021, 248.984
1267.233, 103.900
1268.446, 58.504
1269.658, 90.334
1270.870, 66.008
1272.082, 119.582
1273.294, 92.084
1274.505, 201.486
1275.716, 175.836
1276.928, 113.053
1278.139, 18.094
1279.349, 246.041
1280.560, 129.279
1281.770, 146.064
1282.981, 101.781
1284.191, 17.436
1285.401, 96.035
1286.610, 78.996
1287.820, 116.393
1289.029, 221.775
1290.239, 242.000
1291.448, 77.844
1292.656, 41.242
1293.865, 24.895
1295.073, 52.869
1296.282, 117.779
1297.490, 99.188
1298.698, 99.385
1299.906, 73.082
1301.113, 50.715
1302.320, 103.721
1303.528, 78.207
1304.735, 28.100
1305.942, 85.619
1307.148, 41.561
1308.355, 102.666
1309.561, 30.705
1310.767, 111.660
1311.973, 103.535
1313.179, 79.340
1314.384, 29.939
1315.590, 225.682
1316.795, 30.230
1318.000, 146.709
1319.205, 86.121
1320.410, 143.463
1321.614, 181.744
1322.819, 195.271
1324.023, 293.119
1325.227, 160.217
1326.431, 199.258
1327.634, 65.764
1328.838, 148.875
1330.041, 38.096
1331.244, 140.602
1332.447, 148.242
1333.650, 71.174
1334.852, 74.324
1336.055, 187.766
1337.257, 122.842
1338.459, 67.459
1339.661, 220.291
1340.862, 167.848
1342.064, 160.943
1343.265, 27.002
1344.466, 60.000
1345.667, 63.969
1346.868, 38.096
1348.068, 188.795
1349.269, 321.672
1350.469, 15.572
1351.669, 219.432
1352.869, 85.303
1354.069, 300.303
1355.268, 327.232
1356.468, 57.607
1357.667, 333.994
1358.866, 210.369
1360.065, 181.592
1361.263, 359.914
1362.462, 63.979
1363.660, 206.824
1364.858, 446.969
1366.056, 155.723
1367.254, 183.070
1368.451, 247.793
1369.649, 361.477
1370.846, 105.154
1372.043, 446.568
1373.240, 289.445
1374.436, 308.980
1375.633, 455.145
1376.829, 357.398
1378.025, 315.961
1379.221, 233.865
1380.417, 211.715
1381.613, 198.557
1382.808, 186.807
1384.003, 304.021
1385.199, 319.275
1386.393, 446.152
1387.588, 348.316
1388.783, 549.238
1389.977, 282.367
1391.171, 367.051
1392.365, 223.926
1393.559, 251.467
1394.753, 268.803
1395.946, 254.965
1397.140, 357.521
1398.333, 350.912
1399.526, 452.684
1400.719, 397.955
1401.911, 425.812
1403.104, 337.051
1404.296, 394.416
1405.488, 59.967
1406.680, 523.533
1407.872, 160.627
1409.063, 549.361
1410.255, 420.447
1411.446, 102.156
1412.637, 348.867
1413.828, 86.609
1415.018, 266.293
1416.209, 265.744
1417.399, 272.250
1418.589, 258.824
1419.779, 451.750
1420.969, 258.068
1422.159, 355.369
1423.348, 89.676
1424.537, 319.082
1425.726, 500.227
1426.915, 179.914
1428.104, 470.314
1429.293, 304.527
1430.481, 264.260
1431.669, 189.799
1432.857, 176.936
1434.045, 441.869
1435.233, 254.615
1436.420, 454.207
1437.608, 611.047
1438.795, 418.699
1439.982, 615.477
1441.169, 584.482
1442.355, 516.559
1443.542, 444.855
1444.728, 698.902
1445.914, 724.240
1447.100, 791.783
1448.286, 685.795
1449.472, 597.865
1450.657, 715.617
1451.842, 1040.490
1453.027, 734.154
1454.212, 710.402
1455.397, 1029.881
1456.581, 714.594
1457.766, 749.748
1458.950, 805.287
1460.134, 643.025
1461.318, 980.854
1462.501, 516.557
1463.685, 530.707
1464.868, 683.912
1466.051, 418.297
1467.234, 839.674
1468.417, 376.086
1469.600, 577.527
1470.782, 663.066
1471.965, 555.707
1473.147, 279.385
1474.329, 651.279
1475.510, 526.361
1476.692, 262.730
1477.873, 358.525
1479.055, 399.920
1480.236, 349.844
1481.416, 407.729
1482.597, 169.969
1483.778, 373.188
1484.958, 274.941
1486.138, 141.332
1487.318, 194.500
1488.498, 62.391
1489.678, 256.738
