##NAMES=Heulandite-Ca
##RRUFFID=R060465
##IDEAL CHEMISTRY=(Ca,Na,K)_5_(Si_27_Al_9_)O_72_&#183;26H_2_O
##LOCALITY=Garrawilla, near Gunnadah, New South Wales, Australia
##OWNER=RRUFF
##SOURCE=Michael Scott
##DESCRIPTION=Orange fan of platy crystals
##STATUS=The identification of this mineral has been confirmed by X-ray diffraction and chemical analysis
##URL=rruff.info/R060465
##MEASURED CHEMISTRY=(Ca_0.66_Na_0.24_K_0.10_)_5_(Si_0.77_Al_0.23_)_36_O_72_Â·24H_2_O
##PIN_ID=M01120
##ORIENTATION=Laser parallel to (1 0 1). Fiducial mark perpendicular to laser is parallel to b [0 1 0]
236.5330, 0.0000000E+00
237.7530, 21.38867
238.9720, 103.7891
240.1920, 58.79688
241.4110, 7.332031
242.6300, 38.32422
243.8490, 89.44141
245.0680, 115.1484
246.2860, 98.41016
247.5040, 173.0176
248.7230, 53.48633
249.9410, 216.2832
251.1590, 323.3086
252.3760, 377.2656
253.5940, 207.5137
254.8110, 334.1738
256.0280, 346.0391
257.2450, 355.6016
258.4620, 531.1133
259.6790, 407.1504
260.8950, 584.0918
262.1120, 643.5664
263.3280, 759.3281
264.5440, 758.3926
265.7600, 795.4648
266.9750, 935.4961
268.1910, 1014.221
269.4060, 1057.129
270.6210, 1184.139
271.8360, 1056.176
273.0510, 1401.164
274.2650, 1435.020
275.4800, 1635.658
276.6940, 1921.035
277.9080, 1775.143
279.1220, 1896.990
280.3360, 1892.590
281.5490, 2101.951
282.7630, 2014.070
283.9760, 1947.920
285.1890, 2205.455
286.4020, 2214.637
287.6150, 2122.418
288.8270, 2092.758
290.0400, 2118.613
291.2520, 2055.949
292.4640, 2102.736
293.6760, 2082.936
294.8870, 1987.525
296.0990, 1841.479
297.3100, 1847.771
298.5210, 1679.377
299.7320, 1497.279
300.9430, 1614.457
302.1540, 1289.891
303.3640, 1279.564
304.5750, 859.4629
305.7850, 979.5684
306.9950, 1153.867
308.2050, 669.3438
309.4140, 374.9258
310.6240, 290.4102
311.8330, 361.8652
313.0420, 295.2969
314.2510, 284.5664
315.4600, 280.4297
316.6680, 287.7324
317.8770, 337.3047
319.0850, 376.6406
320.2930, 480.4922
321.5010, 600.7324
322.7090, 714.0137
323.9160, 838.8066
325.1240, 974.2500
326.3310, 913.1211
327.5380, 971.3867
328.7450, 1099.967
329.9520, 1226.781
331.1580, 1097.734
332.3650, 1348.764
333.5710, 1444.828
334.7770, 1333.902
335.9830, 1549.971
337.1880, 1699.041
338.3940, 1794.096
339.5990, 1806.119
340.8040, 2010.100
342.0090, 1992.035
343.2140, 2233.920
344.4190, 2344.764
345.6230, 2408.561
346.8280, 2650.316
348.0320, 2937.023
349.2360, 3051.691
350.4400, 3258.314
351.6430, 3603.895
352.8470, 3863.432
354.0500, 4301.926
355.2530, 4724.371
356.4560, 4845.770
357.6590, 5293.121
358.8620, 5692.426
360.0640, 6112.678
361.2660, 6485.879
362.4680, 7094.025
363.6700, 7398.119
364.8720, 8065.156
366.0740, 8774.139
367.2750, 9215.062
368.4760, 9545.928
369.6770, 10328.73
370.8780, 10855.48
372.0790, 11473.16
373.2800, 12200.78
374.4800, 12868.30
375.6800, 13621.70
376.8800, 14320.24
378.0800, 15185.59
379.2800, 16020.23
380.4790, 16854.09
381.6790, 17850.68
382.8780, 18897.97
384.0770, 19849.27
385.2760, 21035.34
386.4750, 22400.74
387.6730, 23778.27
388.8720, 25091.15
390.0700, 26437.45
391.2680, 27995.12
392.4660, 29114.86
393.6630, 30647.52
394.8610, 32068.85
396.0580, 33254.53
397.2550, 34324.69
398.4520, 35653.51
399.6490, 36464.41
400.8460, 37201.57
402.0420, 37683.25
403.2390, 38185.82
404.4350, 38085.58
405.6310, 37661.66
406.8270, 37714.67
408.0220, 36447.23
409.2180, 35418.98
410.4130, 34088.25
411.6080, 33125.81
412.8030, 31982.62
413.9980, 30465.48
415.1920, 28907.75
416.3870, 27330.18
417.5810, 25477.43
418.7750, 24422.17
419.9690, 22559.67
421.1630, 20976.63
422.3570, 19807.97
423.5500, 18151.93
424.7430, 16899.03
425.9360, 15474.40
427.1290, 14356.63
428.3220, 13060.56
429.5150, 12024.01
430.7070, 10838.14
431.8990, 10089.93
433.0910, 9192.381
434.2830, 8386.688
435.4750, 7907.111
436.6670, 7248.270
437.8580, 6513.857
439.0490, 6203.861
440.2400, 5505.784
441.4310, 5576.781
442.6220, 5304.346
443.8130, 5093.919
445.0030, 5104.492
446.1930, 5038.832
447.3830, 5052.245
448.5730, 5417.637
449.7630, 5507.003
450.9520, 5863.344
452.1420, 6139.658
453.3310, 6664.943
454.5200, 6948.203
455.7090, 7767.436
456.8980, 8441.641
458.0860, 8960.815
459.2740, 9888.960
460.4630, 10439.07
461.6510, 11190.14
462.8380, 11880.17
464.0260, 12632.16
465.2140, 13241.10
466.4010, 13560.99
467.5880, 14534.82
468.7750, 14743.60
469.9620, 15414.31
471.1490, 16295.96
472.3350, 16784.54
473.5220, 17525.05
474.7080, 18407.49
475.8940, 19526.86
477.0800, 20649.15
478.2650, 21473.37
479.4510, 22323.52
480.6360, 23094.60
481.8210, 23584.61
483.0060, 24015.53
484.1910, 23879.38
485.3760, 23510.17
486.5600, 22747.87
487.7440, 21654.50
488.9290, 20224.05
490.1130, 18693.53
491.2960, 16788.94
492.4800, 15308.26
493.6630, 13500.51
494.8470, 11807.69
496.0300, 10295.78
497.2130, 8972.802
498.3960, 7676.691
499.5780, 6389.604
500.7610, 5647.389
501.9430, 4717.096
503.1250, 4250.723
504.3070, 3707.271
505.4890, 3187.741
506.6710, 2849.131
507.8520, 2559.441
509.0330, 2253.672
510.2140, 2131.820
511.3950, 1864.889
512.5760, 1679.877
513.7570, 1601.783
514.9370, 1624.607
516.1170, 1094.353
517.2980, 1294.015
518.4780, 975.5957
519.6570, 955.0938
520.8370, 801.5078
522.0160, 683.8398
523.1960, 599.0898
524.3750, 385.2881
525.5540, 392.4336
526.7320, 303.5195
527.9110, 71.54004
529.0890, 410.4814
530.2680, 232.3633
531.4460, 42.16699
532.6240, 197.8740
533.8010, 43.50293
534.9790, 131.0273
536.1560, 7.749023
537.3340, 86.60449
538.5110, 263.6416
539.6880, 45.62695
540.8650, 201.1016
542.0410, 215.8232
543.2180, 219.8047
544.3940, 181.8164
545.5700, 164.6465
546.7460, 229.2520
547.9220, 224.6514
549.0970, 341.2295
550.2730, 261.7285
551.4480, 218.5781
552.6230, 284.4590
553.7980, 221.8945
554.9730, 124.4932
556.1470, 65.15527
557.3210, 113.2676
558.4960, 172.0420
559.6700, 66.32129
560.8440, 3.025391
562.0170, 50.56934
563.1910, 7.052734
564.3640, 35.80273
565.5380, 57.92188
566.7110, 83.16699
567.8840, 142.4189
569.0560, 167.6875
570.2290, 215.2637
571.4010, 257.2461
572.5740, 300.8389
573.7460, 369.2432
574.9180, 406.9160
576.0890, 381.6074
577.2610, 266.6084
578.4320, 583.0918
579.6040, 484.6963
580.7750, 742.8926
581.9450, 723.7588
583.1160, 826.0488
584.2870, 815.1318
585.4570, 1152.961
586.6270, 1278.371
587.7980, 1426.881
588.9670, 1530.866
590.1370, 1768.667
591.3070, 1939.521
592.4760, 2083.296
593.6450, 2383.397
594.8140, 2470.183
595.9830, 2748.829
597.1520, 3199.896
598.3210, 3634.145
599.4890, 3923.059
600.6570, 4203.659
601.8250, 4715.396
602.9930, 4993.364
604.1610, 5392.605
605.3290, 5817.601
606.4960, 6101.160
607.6630, 6366.758
608.8300, 6437.247
609.9970, 6758.287
611.1640, 6678.989
612.3300, 6648.400
613.4970, 6749.730
614.6630, 6554.983
615.8290, 6298.139
616.9950, 6044.211
618.1610, 5822.197
619.3260, 5630.118
620.4920, 5135.931
621.6570, 4951.635
622.8220, 4560.252
623.9870, 4220.810
625.1520, 4179.302
626.3160, 3872.693
627.4810, 3725.987
628.6450, 3594.182
629.8090, 3450.268
630.9730, 3323.263
632.1370, 3197.160
633.3000, 3070.050
634.4640, 2861.628
635.6270, 2897.212
636.7900, 2835.717
637.9530, 2903.112
639.1160, 2799.426
640.2780, 2465.658
641.4410, 2319.779
642.6030, 2325.788
643.7650, 2202.703
644.9270, 2101.527
646.0890, 1910.242
647.2500, 1748.844
648.4120, 1715.854
649.5730, 1777.712
650.7340, 1583.992
651.8950, 1666.159
653.0560, 1464.214
654.2160, 1374.156
655.3770, 1340.019
656.5370, 1440.768
657.6970, 1320.407
658.8570, 1325.932
660.0170, 1224.342
661.1760, 1131.635
662.3360, 1286.812
663.4950, 1255.805
664.6540, 1193.759
665.8130, 1158.596
666.9720, 1146.159
668.1310, 1136.529
669.2890, 1158.058
670.4470, 1125.644
671.6050, 1182.252
672.7630, 1101.364
673.9210, 1114.792
675.0790, 1009.459
676.2360, 960.5967
677.3930, 930.5215
678.5510, 802.0742
679.7080, 918.0488
680.8640, 949.0146
682.0210, 855.8066
683.1770, 768.1064
684.3340, 650.9014
685.4900, 765.4189
686.6460, 632.4229
687.8020, 591.9551
688.9570, 467.5586
690.1130, 460.4746
691.2680, 384.7725
692.4230, 421.4756
693.5780, 376.4717
694.7330, 324.5156
695.8880, 375.3916
697.0420, 229.4551
698.1960, 273.4717
699.3510, 304.6025
700.5040, 244.9600
701.6580, 162.9707
702.8120, 272.5176
703.9650, 245.5215
705.1190, 263.7852
706.2720, 303.6279
707.4250, 301.4316
708.5780, 220.9805
709.7300, 199.0908
710.8830, 346.3701
712.0350, 123.7012
713.1870, 56.67969
714.3390, 238.4150
715.4910, 136.1494
716.6430, 229.7529
717.7940, 174.1426
718.9460, 243.9141
720.0970, 297.3438
721.2480, 169.7646
722.3990, 193.0410
723.5500, 31.79688
724.7000, 303.5498
725.8500, 49.20117
727.0010, 124.1572
728.1510, 142.5068
729.3010, 103.7676
730.4500, 96.85059
731.6000, 231.9834
732.7490, 55.95020
733.8980, 58.79004
735.0470, 161.4902
736.1960, 104.7168
737.3450, 160.9941
738.4940, 208.5791
739.6420, 164.2031
740.7900, 326.2109
741.9380, 242.2197
743.0860, 283.0674
744.2340, 375.2568
745.3810, 349.5703
746.5290, 356.0840
747.6760, 438.9854
748.8230, 508.9912
749.9700, 565.2314
751.1170, 607.3096
752.2630, 718.8418
753.4100, 716.4551
754.5560, 792.9121
755.7020, 965.3271
756.8480, 776.0332
757.9940, 843.7041
759.1390, 1022.316
760.2850, 1162.620
761.4300, 1118.122
762.5750, 1497.301
763.7200, 1430.692
764.8650, 1293.094
766.0100, 1454.105
767.1540, 1501.695
768.2980, 1454.961
769.4420, 1623.616
770.5860, 1455.317
771.7300, 1669.500
772.8740, 1852.822
774.0170, 1730.269
775.1610, 1887.376
776.3040, 2168.813
777.4470, 1871.229
778.5900, 1912.032
779.7320, 1716.220
780.8750, 1825.578
782.0170, 1724.580
783.1590, 1796.068
784.3010, 1761.367
785.4430, 1576.318
786.5850, 1502.290
787.7260, 1537.176
788.8680, 1471.732
790.0090, 1434.399
791.1500, 1419.995
792.2910, 1484.708
793.4310, 1077.088
794.5720, 1453.721
795.7120, 1227.764
796.8520, 1087.000
797.9920, 1178.345
799.1320, 1023.324
800.2720, 1018.657
801.4120, 970.7012
802.5510, 981.8574
803.6900, 902.8789
804.8290, 740.4033
805.9680, 821.9629
807.1070, 719.3262
808.2450, 704.6602
809.3840, 683.0586
810.5220, 669.1973
811.6600, 617.5752
812.7980, 613.7871
813.9360, 701.7900
815.0730, 638.7598
816.2110, 740.4150
817.3480, 694.3584
818.4850, 649.2979
819.6220, 594.2412
820.7590, 423.9600
821.8960, 449.2451
823.0320, 587.0625
824.1680, 388.4082
825.3040, 479.6680
826.4400, 348.5527
827.5760, 374.5117
828.7120, 194.2354
829.8470, 101.2236
830.9830, 222.1006
832.1180, 192.7939
833.2530, 97.70215
834.3880, 138.0264
835.5220, 218.5898
836.6570, 206.2930
837.7910, 159.6084
838.9250, 163.8008
840.0590, 128.7412
841.1930, 41.68555
842.3270, 50.07129
843.4600, 61.56543
844.5940, 31.01660
845.7270, 116.9463
846.8600, 129.7490
847.9930, 174.0967
849.1250, 75.44238
850.2580, 140.3262
851.3900, 86.00293
852.5230, 153.1768
853.6550, 72.67480
854.7870, 92.86523
855.9180, 165.2734
857.0500, 120.1221
858.1810, 227.7803
859.3130, 73.75195
860.4440, 77.79688
861.5750, 38.92383
862.7050, 23.05469
863.8360, 93.37207
864.9660, 87.69141
866.0970, 102.9824
867.2270, 63.75195
868.3570, 77.22168
869.4870, 79.82422
870.6160, 85.38184
871.7460, 82.66309
872.8750, 3.897461
874.0040, 139.6045
875.1330, 94.55762
876.2620, 23.06934
877.3910, 41.01270
878.5190, 56.42871
879.6470, 95.80469
880.7760, 67.95703
881.9040, 41.35645
883.0310, 1.846680
884.1590, 117.0791
885.2870, 22.19238
886.4140, 68.20801
887.5410, 95.34668
888.6680, 7.623047
889.7950, 70.98730
890.9220, 72.47656
892.0480, 127.0879
893.1750, 56.15039
894.3010, 45.31836
895.4270, 63.58594
896.5530, 164.6055
897.6790, 145.7920
898.8040, 8.135742
899.9300, 26.56152
901.0550, 22.71094
902.1800, 111.3105
903.3050, 63.36328
904.4300, 24.14648
905.5540, 7.983398
906.6790, 106.0410
907.8030, 41.96387
908.9270, 110.0635
910.0510, 27.70801
911.1750, 97.58594
912.2990, 101.0000
913.4220, 42.46387
914.5450, 163.8643
915.6690, 59.79297
916.7920, 72.54688
917.9140, 14.59570
919.0370, 33.67578
920.1600, 90.69629
921.2820, 60.65918
922.4040, 51.43555
923.5260, 108.3818
924.6480, 56.14453
925.7700, 47.84961
926.8910, 122.5010
928.0130, 48.02734
929.1340, 3.498047
930.2550, 77.91602
931.3760, 245.2773
932.4970, 193.5918
933.6170, 255.8564
934.7380, 146.0781
935.8580, 190.2510
936.9780, 139.3779
938.0980, 147.4570
939.2180, 264.4912
940.3370, 212.4795
941.4570, 332.4258
942.5760, 220.3301
943.6950, 184.1943
944.8140, 224.0137
945.9330, 151.7920
947.0520, 182.5283
948.1700, 396.2227
949.2890, 348.8779
950.4070, 448.4922
951.5250, 205.0684
952.6430, 224.6045
953.7600, 310.1025
954.8780, 308.5605
955.9950, 267.6318
957.1120, 288.7832
958.2290, 549.1279
959.3460, 500.1201
960.4630, 377.1670
961.5800, 581.7900
962.6960, 491.4951
963.8120, 474.4229
964.9280, 390.9346
966.0440, 528.9277
967.1600, 514.7734
968.2760, 518.2002
969.3910, 567.7705
970.5060, 560.6758
971.6210, 597.1338
972.7360, 752.1270
973.8510, 655.7676
974.9660, 757.2607
976.0800, 794.2373
977.1950, 776.2900
978.3090, 911.4189
979.4230, 866.0137
980.5370, 991.4746
981.6500, 1035.976
982.7640, 954.6396
983.8770, 1020.940
984.9900, 960.5195
986.1030, 861.9004
987.2160, 1093.628
988.3290, 1340.049
989.4420, 1145.580
990.5540, 1038.406
991.6660, 1273.036
992.7780, 1293.099
993.8900, 1475.515
995.0020, 1328.936
996.1140, 1465.336
997.2250, 1450.303
998.3360, 1575.749
999.4470, 1532.160
1000.558, 1517.623
1001.669, 1685.912
1002.780, 1830.244
1003.890, 1804.580
1005.001, 1817.933
1006.111, 1791.605
1007.221, 1800.968
1008.331, 1906.270
1009.440, 1815.217
1010.550, 1858.658
1011.659, 1866.984
1012.768, 2060.354
1013.877, 2009.266
1014.986, 2065.941
1016.095, 1953.303
1017.204, 1972.162
1018.312, 1935.810
1019.420, 1917.432
1020.528, 1876.187
1021.636, 2006.263
1022.744, 1912.870
1023.852, 2082.527
1024.959, 1987.121
1026.066, 2080.318
1027.173, 2034.445
1028.280, 1942.530
1029.387, 1983.818
1030.494, 1886.804
1031.600, 1800.013
1032.707, 1970.905
1033.813, 2058.688
1034.919, 1876.759
1036.025, 2010.153
1037.130, 1830.771
1038.236, 1756.901
1039.341, 1685.889
1040.446, 1842.296
1041.552, 1753.466
1042.656, 1610.417
1043.761, 1978.528
1044.866, 1852.377
1045.970, 1770.072
1047.074, 1712.286
1048.179, 1704.022
1049.282, 1672.004
1050.386, 1740.229
1051.490, 1690.389
1052.593, 1713.645
1053.697, 1778.157
1054.800, 1731.561
1055.903, 1775.391
1057.006, 1815.602
1058.108, 1808.043
1059.211, 1713.469
1060.313, 1708.688
1061.415, 1641.155
1062.517, 1768.283
1063.619, 1760.017
1064.721, 1805.272
1065.823, 1874.434
1066.924, 1845.877
1068.025, 1932.883
1069.126, 1907.098
1070.227, 2079.121
1071.328, 2047.202
1072.429, 2103.705
1073.529, 2215.105
1074.629, 2168.627
1075.729, 2231.107
1076.829, 2287.461
1077.929, 2506.004
1079.029, 2549.271
1080.128, 2687.892
1081.228, 2730.675
1082.327, 2879.871
1083.426, 3016.477
1084.525, 3020.092
1085.623, 3125.642
1086.722, 3172.364
1087.820, 3223.019
1088.919, 3211.688
1090.017, 3257.369
1091.115, 3265.064
1092.212, 3344.774
1093.310, 3435.499
1094.407, 3373.408
1095.505, 3535.424
1096.602, 3637.329
1097.699, 3682.631
1098.795, 3500.516
1099.892, 3612.395
1100.989, 3750.901
1102.085, 3698.447
1103.181, 3817.414
1104.277, 3993.662
1105.373, 4002.076
1106.469, 4197.941
1107.564, 3950.763
1108.660, 4139.527
1109.755, 4141.549
1110.850, 4042.311
1111.945, 4239.408
1113.040, 4167.500
1114.134, 4306.622
1115.229, 4442.746
1116.323, 4338.822
1117.417, 4374.029
1118.511, 4629.452
1119.605, 4647.712
1120.698, 4714.588
1121.792, 4781.812
1122.885, 4926.979
1123.978, 4852.693
1125.071, 5016.853
1126.164, 4746.170
1127.257, 4817.504
1128.349, 4799.875
1129.442, 4572.266
1130.534, 4839.674
1131.626, 4856.100
1132.718, 4718.543
1133.810, 4851.006
1134.901, 4623.482
1135.993, 4732.980
1137.084, 4892.495
1138.175, 4675.059
1139.266, 4634.646
1140.357, 4703.252
1141.448, 4714.910
1142.538, 4589.601
1143.628, 4694.328
1144.719, 4770.100
1145.809, 4678.918
1146.898, 4690.822
1147.988, 4756.684
1149.078, 4586.613
1150.167, 4657.596
1151.256, 4683.611
1152.345, 4375.671
1153.434, 4552.779
1154.523, 4567.916
1155.612, 4348.100
1156.700, 4442.325
1157.788, 4340.611
1158.877, 4369.916
1159.964, 4252.239
1161.052, 4087.604
1162.140, 4234.040
1163.227, 4217.539
1164.315, 4011.067
1165.402, 4030.629
1166.489, 3917.222
1167.576, 3893.833
1168.663, 3768.484
1169.749, 3675.163
1170.836, 3770.865
1171.922, 3360.584
1173.008, 3483.353
1174.094, 3371.207
1175.180, 3195.105
1176.265, 3093.069
1177.351, 3072.081
1178.436, 2872.111
1179.521, 3056.157
1180.606, 2911.238
1181.691, 2870.358
1182.776, 2533.496
1183.860, 2451.652
1184.944, 2214.824
1186.029, 2259.015
1187.113, 2299.235
1188.197, 2187.472
1189.280, 2129.107
1190.364, 1877.999
1191.447, 1930.319
1192.531, 1642.655
1193.614, 1654.010
1194.697, 1477.381
1195.779, 1459.762
1196.862, 1304.157
1197.945, 1024.563
1199.027, 1391.982
1200.109, 1191.414
1201.191, 945.8584
1202.273, 960.3174
1203.355, 857.7861
1204.436, 720.2666
1205.518, 772.7588
1206.599, 592.2627
1207.680, 628.6797
1208.761, 547.3779
1209.842, 559.8477
1210.922, 472.3994
1212.003, 461.4346
1213.083, 303.5410
1214.163, 412.1279
1215.243, 327.8965
1216.323, 276.3359
1217.402, 345.9551
1218.482, 123.5850
1219.561, 93.22461
1220.641, 47.87598
1221.720, 56.54492
1222.798, 111.2256
1223.877, 45.91406
1224.956, 52.22559
1226.034, 66.32617
1227.112, 3.951172
1228.191, 8.777344
1229.269, 12.46582
1230.346, 52.29004
1231.424, 87.93945
1232.501, 3.800781
1233.579, 44.45215
1234.656, 98.70215
1235.733, 87.99023
1236.810, 13.30957
1237.886, 100.6240
1238.963, 22.01855
1240.039, 146.3271
1241.116, 245.7422
1242.192, 12.27734
1243.268, 18.18262
1244.343, 258.3506
1245.419, 80.01270
1246.494, 177.7158
1247.570, 307.5078
1248.645, 176.4404
1249.720, 153.4629
1250.795, 25.56250
1251.869, 23.65820
1252.944, 22.23340
1254.018, 29.86816
1255.093, 179.1572
1256.167, 188.0479
1257.240, 111.9453
1258.314, 243.8486
1259.388, 151.7598
1260.461, 80.67285
1261.535, 394.5928
1262.608, 202.5156
1263.681, 255.4424
1264.753, 336.3750
1265.826, 187.3105
1266.899, 362.2500
1267.971, 432.5166
1269.043, 438.4619
1270.115, 514.4492
1271.187, 534.7393
1272.259, 481.7148
1273.330, 581.6670
1274.402, 423.6201
1275.473, 416.5723
1276.544, 402.5244
1277.615, 561.4766
1278.686, 549.4268
1279.756, 465.3770
1280.827, 629.3242
1281.897, 527.2695
1282.967, 499.3066
1284.037, 773.5645
1285.107, 573.5010
1286.177, 600.6152
1287.247, 695.7197
1288.316, 709.6426
1289.385, 879.7725
1290.454, 937.0137
1291.523, 774.3662
1292.592, 889.1025
1293.661, 960.4316
1294.729, 1049.562
1295.797, 1055.797
1296.866, 1125.667
1297.934, 984.5283
1299.001, 1003.689
1300.069, 1064.653
1301.137, 1059.178
1302.204, 1245.517
1303.271, 1235.704
1304.338, 1343.261
1305.405, 1552.053
1306.472, 1364.829
1307.539, 1282.740
1308.605, 1697.490
1309.671, 1409.227
1310.737, 1554.324
1311.803, 1650.124
1312.869, 1667.881
1313.935, 1766.780
1315.000, 1628.462
1316.066, 1667.140
1317.131, 1701.524
1318.196, 1865.189
1319.261, 1821.848
1320.326, 1993.500
1321.390, 1969.147
1322.455, 2040.786
1323.519, 2068.419
1324.583, 1928.044
1325.647, 1807.662
1326.711, 1777.273
1327.775, 1719.235
1328.838, 1776.470
1329.902, 1696.058
1330.965, 1735.636
1332.028, 1722.206
1333.091, 1679.894
1334.153, 1771.545
1335.216, 1548.285
1336.279, 1740.075
1337.341, 1709.854
1338.403, 1538.599
1339.465, 1620.436
1340.527, 1617.160
1341.588, 1467.015
1342.650, 1589.855
1343.711, 1451.546
1344.772, 1434.021
1345.834, 1355.627
1346.894, 1406.075
1347.955, 1334.931
1349.016, 1166.428
1350.076, 968.2451
1351.136, 1078.670
1352.197, 992.7188
1353.257, 1135.597
1354.316, 995.2139
1355.376, 993.0332
1356.436, 1075.062
1357.495, 888.2266
1358.554, 823.5967
1359.613, 1016.514
1360.672, 828.2617
1361.731, 1062.836
1362.789, 792.7305
1363.848, 576.6943
1364.906, 825.7949
1365.964, 509.9893
1367.022, 636.6494
1368.080, 623.4912
1369.138, 490.1875
1370.195, 555.9688
1371.253, 543.5762
1372.310, 575.3545
1373.367, 523.5947
1374.424, 473.9336
1375.480, 402.6182
1376.537, 370.3066
1377.593, 303.2891
1378.650, 499.8916
1379.706, 459.7324
1380.762, 355.1357
1381.818, 63.10547
1382.873, 440.5967
1383.929, 258.1729
1384.984, 359.6328
1386.039, 258.1641
1387.094, 236.2959
1388.149, 240.5117
1389.204, 186.5166
1390.259, 381.6553
1391.313, 118.0811
1392.367, 243.1221
1393.422, 310.1162
1394.476, 33.00488
