##NAMES=Heulandite-Ca
##RRUFFID=R060465
##IDEAL CHEMISTRY=(Ca,Na,K)_5_(Si_27_Al_9_)O_72_&#183;26H_2_O
##LOCALITY=Garrawilla, near Gunnadah, New South Wales, Australia
##OWNER=RRUFF
##SOURCE=Michael Scott
##DESCRIPTION=Orange fan of platy crystals
##STATUS=The identification of this mineral has been confirmed by X-ray diffraction and chemical analysis
##URL=rruff.info/R060465
##MEASURED CHEMISTRY=(Ca_0.66_Na_0.24_K_0.10_)_5_(Si_0.77_Al_0.23_)_36_O_72_Â·24H_2_O
##PIN_ID=M01887
##ORIENTATION=Laser parallel to b* (0 1 0). Fiducial mark perpendicular to laser is parallel to -c [0 0 -1]
78.28300, 0.0000000E+00
79.52300, 101.7028
80.76300, 210.7367
82.00300, 49.37366
83.24300, 65.37134
84.48300, 5.787842
85.72200, 7.760010
86.96100, 134.9585
88.20000, 346.9272
89.43900, 724.9792
90.67800, 1063.967
91.91600, 1542.156
93.15500, 1943.160
94.39300, 2574.880
95.63100, 3072.402
96.86900, 3632.933
98.10600, 4178.787
99.34400, 4785.335
100.5810, 5203.031
101.8190, 5772.398
103.0560, 6336.216
104.2930, 6726.562
105.5290, 7499.718
106.7660, 8149.297
108.0020, 8767.140
109.2390, 8823.094
110.4750, 8924.951
111.7110, 8922.507
112.9460, 9339.575
114.1820, 9868.998
115.4170, 10049.63
116.6530, 10201.28
117.8880, 10384.76
119.1230, 10478.26
120.3580, 10633.12
121.5920, 10670.79
122.8270, 10821.34
124.0610, 10958.21
125.2950, 11102.20
126.5290, 11305.67
127.7630, 11477.17
128.9970, 11788.79
130.2300, 12038.49
131.4640, 12421.34
132.6970, 12799.44
133.9300, 13155.09
135.1630, 13556.16
136.3950, 14233.61
137.6280, 14992.42
138.8600, 15637.60
140.0920, 15837.64
141.3240, 15696.37
142.5560, 15497.77
143.7880, 14628.84
145.0190, 14056.57
146.2510, 13218.93
147.4820, 12185.94
148.7130, 11363.57
149.9440, 10869.81
151.1750, 10249.66
152.4050, 9770.920
153.6360, 9242.012
154.8660, 8881.977
156.0960, 8445.936
157.3260, 8080.989
158.5560, 7745.194
159.7850, 7357.602
161.0150, 7300.248
162.2440, 6844.167
163.4730, 6672.384
164.7020, 6455.922
165.9310, 6121.800
167.1590, 6014.034
168.3880, 5724.635
169.6160, 5470.611
170.8440, 5270.973
172.0720, 4989.728
173.3000, 4767.879
174.5280, 4622.432
175.7550, 4348.389
176.9820, 4073.748
178.2100, 3903.515
179.4370, 3824.687
180.6630, 3531.264
181.8900, 3483.243
183.1170, 3210.040
184.3430, 3109.438
185.5690, 2961.056
186.7950, 2813.847
188.0210, 2733.217
189.2470, 2697.082
190.4720, 2569.812
191.6970, 2585.500
192.9230, 2563.918
194.1480, 2547.169
195.3730, 2455.535
196.5970, 2497.641
197.8220, 2204.777
199.0460, 2330.078
200.2700, 2278.102
201.4940, 2355.702
202.7180, 1995.662
203.9420, 1772.979
205.1660, 1504.647
206.3890, 1396.292
207.6120, 1379.020
208.8350, 1308.711
210.0580, 1318.732
211.2810, 1272.288
212.5040, 1252.683
213.7260, 1204.716
214.9480, 1205.001
216.1700, 1163.593
217.3920, 1110.486
218.6140, 1155.681
219.8360, 1068.171
221.0570, 1067.955
222.2790, 1146.030
223.5000, 1163.391
224.7210, 1173.743
225.9410, 1135.781
227.1620, 1132.988
228.3820, 1174.927
229.6030, 1137.875
230.8230, 1154.947
232.0430, 1152.256
233.2630, 1213.863
234.4820, 1237.144
235.7020, 1359.539
236.9210, 1439.813
238.1400, 1494.896
239.3590, 1531.738
240.5780, 1659.296
241.7970, 1701.536
243.0150, 1768.793
244.2340, 1776.982
245.4520, 1846.136
246.6700, 1886.876
247.8880, 1840.183
249.1060, 1858.032
250.3230, 1843.395
251.5400, 1803.584
252.7580, 1785.867
253.9750, 1776.891
255.1920, 1742.278
256.4080, 1683.475
257.6250, 1526.468
258.8410, 1497.185
260.0580, 1417.262
261.2740, 1335.688
262.4900, 1325.517
263.7050, 1184.917
264.9210, 1174.347
266.1360, 1065.890
267.3520, 978.9736
268.5670, 913.3770
269.7820, 800.1055
270.9960, 841.1533
272.2110, 797.5049
273.4250, 531.1504
274.6400, 572.0771
275.8540, 452.2900
277.0680, 335.7842
278.2810, 382.5547
279.4950, 336.5898
280.7090, 169.8799
281.9220, 223.3115
283.1350, 215.2002
284.3480, 189.2129
285.5610, 42.44629
286.7730, 18.10449
287.9860, 172.4473
289.1980, 19.60449
290.4100, 95.56250
291.6220, 37.66797
292.8340, 84.90820
294.0460, 140.2988
295.2570, 208.5156
296.4690, 241.5693
297.6800, 197.4688
298.8910, 167.2090
300.1020, 167.7871
301.3120, 165.2012
302.5230, 154.4453
303.7330, 141.5352
304.9440, 158.4541
306.1540, 200.2100
307.3630, 227.8086
308.5730, 143.2549
309.7830, 192.5410
310.9920, 174.6729
312.2010, 144.6504
313.4100, 254.4717
314.6190, 245.1533
315.8280, 202.6953
317.0370, 158.0938
318.2450, 155.3447
319.4530, 42.44922
320.6610, 4.395508
321.8690, 22.44336
323.0770, 64.34473
324.2850, 73.72363
325.4920, 79.41406
326.6990, 106.2598
327.9060, 90.25977
329.1130, 114.4072
330.3200, 120.6777
331.5270, 136.0830
332.7330, 208.6045
333.9390, 153.2031
335.1450, 200.8906
336.3510, 308.6748
337.5570, 288.5566
338.7630, 294.5254
339.9680, 212.5771
341.1740, 299.7139
342.3790, 248.9258
343.5840, 335.2041
344.7890, 373.5723
345.9930, 361.0635
347.1980, 406.6885
348.4020, 524.4463
349.6060, 560.3340
350.8100, 612.3516
352.0140, 503.4971
353.2180, 674.7686
354.4210, 643.1650
355.6250, 825.6846
356.8280, 931.3252
358.0310, 945.0869
359.2340, 1113.968
360.4360, 1110.966
361.6390, 1274.080
362.8410, 1282.310
364.0430, 1371.652
365.2450, 1655.107
366.4470, 1820.674
367.6490, 1836.349
368.8510, 1991.133
370.0520, 2329.022
371.2530, 2335.115
372.4540, 2580.411
373.6550, 2637.906
374.8560, 2855.599
376.0560, 3121.490
377.2570, 3283.897
378.4570, 3539.854
379.6570, 3777.623
380.8570, 4089.160
382.0570, 4429.751
383.2560, 4673.179
384.4560, 5090.029
385.6550, 5352.329
386.8540, 5861.768
388.0530, 6359.794
389.2520, 6874.900
390.4510, 7440.440
391.6490, 8053.387
392.8470, 8364.750
394.0450, 8827.535
395.2430, 9641.622
396.4410, 9894.443
397.6390, 10370.48
398.8360, 10650.81
400.0340, 11029.75
401.2310, 11347.01
402.4280, 11315.49
403.6250, 11032.86
404.8210, 11035.74
406.0180, 10880.66
407.2140, 10493.31
408.4100, 10107.62
409.6060, 9695.972
410.8020, 9103.521
411.9980, 8675.138
413.1930, 8010.060
414.3890, 7427.870
415.5840, 6992.356
416.7790, 6475.388
417.9740, 5876.438
419.1680, 5531.684
420.3630, 5072.114
421.5570, 4557.155
422.7510, 4183.186
423.9450, 3843.375
425.1390, 3441.379
426.3330, 3219.772
427.5270, 2819.164
428.7200, 2539.167
429.9130, 2357.912
431.1060, 1971.913
432.2990, 1862.935
433.4920, 1688.246
434.6840, 1517.047
435.8770, 1369.651
437.0690, 1212.276
438.2610, 1078.825
439.4530, 992.7612
440.6450, 918.4058
441.8360, 889.3535
443.0280, 828.1709
444.2190, 800.8311
445.4100, 760.9629
446.6010, 755.2134
447.7920, 748.8516
448.9820, 735.0024
450.1730, 779.9380
451.3630, 863.0332
452.5530, 959.6538
453.7430, 1203.837
454.9330, 1291.553
456.1230, 1488.154
457.3120, 1670.322
458.5010, 1847.794
459.6910, 2203.680
460.8800, 2523.910
462.0680, 2694.227
463.2570, 3032.663
464.4460, 3250.955
465.6340, 3578.610
466.8220, 3895.301
468.0100, 4069.025
469.1980, 4436.782
470.3860, 4652.571
471.5730, 4981.390
472.7600, 5467.240
473.9480, 6051.119
475.1350, 6664.026
476.3210, 7279.960
477.5080, 7695.922
478.6950, 8122.908
479.8810, 8363.921
481.0670, 8605.961
482.2530, 8635.023
483.4390, 8570.107
484.6250, 8395.216
485.8100, 7861.347
486.9960, 7345.500
488.1810, 6601.674
489.3660, 5982.870
490.5510, 5238.083
491.7360, 4579.316
492.9200, 3911.567
494.1050, 3322.835
495.2890, 2904.118
496.4730, 2203.417
497.6570, 1954.730
498.8400, 1588.057
500.0240, 1389.396
501.2070, 1200.748
502.3910, 908.1094
503.5740, 712.4814
504.7570, 786.8638
505.9400, 629.2534
507.1220, 471.6509
508.3050, 409.0566
509.4870, 360.4673
510.6690, 284.8843
511.8510, 293.3047
513.0330, 325.7305
514.2140, 351.1572
515.3960, 290.5859
516.5770, 177.0156
517.7580, 295.4434
518.9390, 169.8687
520.1200, 213.7627
521.3010, 151.0581
522.4810, 48.86230
523.6610, 130.1367
524.8420, 103.2725
526.0220, 60.66553
527.2010, 30.06641
528.3810, 62.94385
529.5610, 69.49121
530.7400, 103.4199
531.9190, 106.5898
533.0980, 108.7764
534.2770, 111.3721
535.4560, 62.74951
536.6340, 46.10742
537.8120, 54.94141
538.9910, 88.48926
540.1690, 2.773438
541.3460, 61.88867
542.5240, 26.21094
543.7020, 80.43066
544.8790, 91.65381
546.0560, 97.14746
547.2330, 144.8755
548.4100, 68.61084
549.5870, 42.48828
550.7630, 76.31641
551.9400, 59.19482
553.1160, 34.80322
554.2920, 23.06787
555.4680, 18.35791
556.6440, 26.71826
557.8190, 40.80615
558.9950, 99.15332
560.1700, 43.08691
561.3450, 42.18652
562.5200, 31.00781
563.6950, 87.41064
564.8690, 86.93311
566.0440, 67.58496
567.2180, 197.2212
568.3920, 93.21680
569.5660, 181.1792
570.7400, 196.5020
571.9130, 225.8281
573.0870, 267.7012
574.2600, 285.2861
575.4330, 292.8086
576.6060, 307.3672
577.7790, 258.0947
578.9520, 361.3838
580.1240, 292.9395
581.2960, 418.1904
582.4690, 465.4131
583.6410, 484.7710
584.8120, 527.9429
585.9840, 567.1313
587.1560, 594.9146
588.3270, 649.9126
589.4980, 694.1479
590.6690, 762.4224
591.8400, 861.1719
593.0110, 926.7407
594.1810, 953.4985
595.3510, 1125.513
596.5220, 1270.794
597.6920, 1391.755
598.8610, 1414.159
600.0310, 1563.510
601.2010, 1661.586
602.3700, 1757.979
603.5390, 1925.237
604.7080, 1961.222
605.8770, 2127.143
607.0460, 2240.969
608.2140, 2378.348
609.3830, 2335.111
610.5510, 2517.709
611.7190, 2560.131
612.8870, 2477.512
614.0550, 2391.842
615.2220, 2372.115
616.3900, 2383.336
617.5570, 2127.501
618.7240, 2171.613
619.8910, 2119.674
621.0580, 1859.681
622.2240, 1905.636
623.3910, 1822.547
624.5570, 1741.411
625.7230, 1699.222
626.8890, 1628.510
628.0550, 1613.670
629.2200, 1525.307
630.3860, 1487.883
631.5510, 1449.397
632.7160, 1447.851
633.8810, 1375.089
635.0460, 1329.967
636.2100, 1254.847
637.3750, 1210.073
638.5390, 1167.237
639.7030, 1129.339
640.8670, 1110.380
642.0310, 1017.358
643.1950, 906.2734
644.3580, 960.1250
645.5210, 847.9136
646.6850, 938.6426
647.8480, 850.3081
649.0100, 839.9106
650.1730, 796.4478
651.3350, 803.9209
652.4980, 654.3281
653.6600, 749.6919
654.8220, 591.9927
655.9840, 544.2363
657.1450, 556.4155
658.3070, 566.5283
659.4680, 458.5278
660.6300, 411.5039
661.7910, 470.0547
662.9510, 407.9375
664.1120, 422.8560
665.2730, 393.0288
666.4330, 321.8599
667.5930, 341.3135
668.7530, 492.7021
669.9130, 347.5986
671.0730, 410.4824
672.2320, 244.0186
673.3920, 301.2007
674.5510, 222.0249
675.7100, 256.4751
676.8690, 271.6719
678.0280, 194.1870
679.1860, 268.5259
680.3450, 248.6245
681.5030, 174.1519
682.6610, 202.3916
683.8190, 167.4463
684.9770, 274.6528
686.1340, 78.37695
687.2920, 139.0942
688.4490, 179.1030
689.6060, 116.4829
690.7630, 131.7100
691.9200, 79.02832
693.0760, 135.1680
694.2330, 143.0259
695.3890, 242.0151
696.5450, 154.4116
697.7010, 85.23145
698.8570, 216.0605
700.0130, 188.6987
701.1680, 199.1748
702.3230, 149.0771
703.4780, 134.1533
704.6330, 118.8359
705.7880, 111.8140
706.9430, 144.4131
708.0970, 138.3496
709.2520, 176.0791
710.4060, 170.3936
711.5600, 158.1616
712.7140, 186.4727
713.8670, 90.92041
715.0210, 245.3657
716.1740, 128.8589
717.3270, 152.6997
718.4800, 216.2002
719.6330, 282.3159
720.7860, 287.7197
721.9380, 246.0767
723.0910, 370.3857
724.2430, 237.6470
725.3950, 220.8599
726.5470, 240.0234
727.6980, 238.1396
728.8500, 293.2070
730.0010, 303.2275
731.1530, 171.2017
732.3040, 321.1221
733.4550, 167.7812
734.6050, 262.6016
735.7560, 187.3750
736.9060, 178.0977
738.0560, 218.2793
739.2060, 294.7705
740.3560, 187.7871
741.5060, 204.1064
742.6560, 298.8208
743.8050, 222.8423
744.9540, 307.8750
746.1030, 299.8110
747.2520, 293.2827
748.4010, 241.6191
749.5500, 361.4321
750.6980, 282.2256
751.8460, 392.1377
752.9950, 397.4707
754.1420, 393.4048
755.2900, 405.6821
756.4380, 439.6860
757.5850, 461.2163
758.7330, 443.5713
759.8800, 516.0205
761.0270, 585.1284
762.1730, 580.0112
763.3200, 564.3594
764.4670, 677.5063
765.6130, 657.5015
766.7590, 830.2207
767.9050, 754.7695
769.0510, 925.2046
770.1960, 936.5933
771.3420, 853.9395
772.4870, 930.3960
773.6320, 1087.122
774.7770, 1183.301
775.9220, 1140.572
777.0670, 1172.707
778.2110, 1258.200
779.3560, 1293.275
780.5000, 1349.533
781.6440, 1359.502
782.7880, 1350.618
783.9320, 1440.507
785.0750, 1488.355
786.2180, 1469.494
787.3620, 1524.281
788.5050, 1396.009
789.6480, 1421.698
790.7900, 1566.239
791.9330, 1401.404
793.0750, 1543.745
794.2170, 1503.435
795.3590, 1402.930
796.5010, 1403.388
797.6430, 1355.193
798.7850, 1321.031
799.9260, 1292.127
801.0670, 1247.599
802.2080, 1183.963
803.3490, 1194.367
804.4900, 1099.500
805.6310, 1049.195
806.7710, 924.2827
807.9110, 950.2769
809.0510, 948.5859
810.1910, 938.9854
811.3310, 978.5654
812.4710, 836.8218
813.6100, 991.0171
814.7490, 854.6753
815.8880, 979.8213
817.0270, 957.6006
818.1660, 830.1260
819.3050, 946.3379
820.4430, 910.2119
821.5820, 824.5625
822.7200, 698.0742
823.8580, 581.7090
824.9950, 594.2266
826.1330, 599.7808
827.2710, 515.1841
828.4080, 357.3267
829.5450, 373.1060
830.6820, 250.2803
831.8190, 296.9609
832.9560, 152.9922
834.0920, 316.9238
835.2280, 157.5103
836.3650, 221.4336
837.5010, 292.1050
838.6360, 287.6079
839.7720, 187.7988
840.9080, 144.7896
842.0430, 206.5752
843.1780, 238.2842
844.3130, 218.8032
845.4480, 268.4404
846.5830, 200.2373
847.7170, 251.9609
848.8520, 228.5210
849.9860, 189.4180
851.1200, 271.7656
852.2540, 186.0190
853.3870, 334.0391
854.5210, 243.4375
855.6540, 314.5186
856.7880, 367.8608
857.9210, 348.1934
859.0540, 426.3467
860.1860, 265.6387
861.3190, 250.7212
862.4510, 255.7158
863.5840, 347.7734
864.7160, 239.8071
865.8480, 280.0029
866.9790, 187.1802
868.1110, 137.5918
869.2420, 22.73291
870.3740, 212.0645
871.5050, 229.1025
872.6360, 131.6543
873.7660, 47.07812
874.8970, 9.869629
876.0280, 33.75146
877.1580, 39.69727
878.2880, 47.11279
879.4180, 20.22070
880.5480, 22.37793
881.6770, 27.21777
882.8070, 10.96240
883.9360, 92.83154
885.0650, 21.48584
886.1940, 55.75635
887.3230, 1.954590
888.4520, 58.64355
889.5800, 4.683594
890.7090, 51.96680
891.8370, 11.39990
892.9650, 19.78906
894.0930, 2.204590
895.2200, 26.64014
896.3480, 54.10547
897.4750, 35.61865
898.6020, 28.15186
899.7290, 14.28027
900.8560, 25.69531
901.9830, 52.13379
903.1090, 77.48242
904.2360, 92.85693
905.3620, 99.85449
906.4880, 100.5737
907.6140, 52.91504
908.7400, 12.24561
909.8650, 67.43799
910.9900, 62.83301
912.1160, 201.0933
913.2410, 14.34375
914.3660, 75.58203
915.4900, 29.81055
916.6150, 99.02832
917.7390, 34.23730
918.8640, 18.56396
919.9880, 122.6167
921.1120, 12.78906
922.2350, 66.95166
923.3590, 94.10547
924.4820, 77.25195
925.6060, 86.60840
926.7290, 6.518555
927.8520, 37.44141
928.9740, 25.61230
930.0970, 114.6582
931.2190, 83.69824
932.3420, 41.73193
933.4640, 27.76221
934.5860, 20.78857
935.7080, 41.81104
936.8290, 21.16943
937.9510, 20.83984
939.0720, 128.8481
940.1930, 2.861328
941.3140, 93.12549
942.4350, 6.840332
943.5560, 72.19336
944.6760, 12.73779
945.7960, 174.6763
946.9170, 110.6177
948.0370, 25.56787
949.1560, 5.522461
950.2760, 68.47949
951.3960, 44.44580
952.5150, 110.4155
953.6340, 145.3887
954.7530, 88.38818
955.8720, 129.3940
956.9910, 133.4087
958.1090, 39.43945
959.2280, 129.4941
960.3460, 139.5669
961.4640, 51.64355
962.5820, 3.265137
963.6990, 57.84766
964.8170, 106.0015
965.9340, 3.810059
967.0510, 75.40430
968.1690, 30.57471
969.2850, 106.8062
970.4020, 28.02930
971.5190, 45.26562
972.6350, 77.49854
973.7510, 62.70361
974.8670, 23.90674
975.9830, 6.061523
977.0990, 29.26904
978.2150, 54.51953
979.3300, 107.3281
980.4450, 60.81738
981.5600, 28.96094
982.6750, 63.10400
983.7900, 114.2466
984.9050, 31.38672
986.0190, 267.5327
987.1340, 225.6748
988.2480, 190.8193
989.3620, 173.9639
990.4750, 142.7007
991.5890, 202.2446
992.7020, 119.3867
993.8160, 231.5254
994.9290, 274.6611
996.0420, 283.7954
997.1550, 328.9268
998.2670, 386.0566
999.3800, 551.1841
1000.492, 472.3091
1001.604, 599.4312
1002.716, 598.5537
1003.828, 463.8896
1004.940, 413.0112
1006.051, 435.1313
1007.163, 393.2520
1008.274, 326.8613
1009.385, 328.1118
1010.496, 355.7891
1011.606, 415.1143
1012.717, 389.9937
1013.827, 472.5190
1014.937, 422.9849
1016.047, 473.5015
1017.157, 425.4351
1018.267, 510.4595
1019.377, 594.9600
1020.486, 637.4346
1021.595, 586.7451
1022.704, 667.5898
1023.813, 607.7900
1024.922, 645.6016
1026.030, 555.6426
1027.139, 654.3916
1028.247, 500.7168
1029.355, 557.1831
1030.463, 601.9473
1031.571, 516.8945
1032.678, 621.3340
1033.786, 588.9336
1034.893, 554.6426
1036.000, 640.5874
1037.107, 562.6621
1038.214, 518.8096
1039.321, 604.9629
1040.427, 548.1191
1041.533, 534.1260
1042.639, 568.8242
1043.745, 546.9907
1044.851, 566.7490
1045.957, 586.2803
1047.062, 582.0576
1048.168, 624.2168
1049.273, 605.1553
1050.378, 596.3457
1051.482, 546.3530
1052.587, 551.5508
1053.692, 561.7544
1054.796, 602.6309
1055.900, 566.8257
1057.004, 612.0439
1058.108, 602.2671
1059.212, 445.6030
1060.315, 469.2817
1061.418, 454.7515
1062.522, 526.8398
1063.625, 545.0894
1064.728, 513.3447
1065.830, 559.5356
1066.933, 625.6807
1068.035, 500.8076
1069.137, 627.0347
1070.239, 666.3901
1071.341, 731.5537
1072.443, 559.8516
1073.545, 712.9375
1074.646, 685.2104
1075.747, 640.3652
1076.848, 846.0029
1077.949, 882.2075
1079.050, 939.5449
1080.150, 999.8887
1081.251, 1180.186
1082.351, 1149.412
1083.451, 1240.777
1084.551, 1270.389
1085.651, 1235.768
1086.750, 1256.123
1087.850, 1178.516
1088.949, 1225.953
1090.048, 1201.062
1091.147, 1221.214
1092.246, 1216.959
1093.345, 1197.384
1094.443, 1279.136
1095.541, 1115.331
1096.639, 1276.741
1097.737, 1376.069
1098.835, 1293.770
1099.933, 1256.735
1101.030, 1315.593
1102.128, 1295.063
1103.225, 1429.538
1104.322, 1348.033
1105.419, 1462.876
1106.515, 1320.367
1107.612, 1403.862
1108.708, 1438.355
1109.804, 1402.861
1110.900, 1459.185
1111.996, 1497.244
1113.092, 1437.767
1114.187, 1347.296
1115.283, 1367.831
1116.378, 1424.371
1117.473, 1418.918
1118.568, 1405.471
1119.662, 1342.029
1120.757, 1397.595
1121.851, 1373.840
1122.946, 1438.743
1124.040, 1410.769
1125.134, 1406.358
1126.227, 1461.955
1127.321, 1412.755
1128.414, 1481.310
1129.508, 1356.926
1130.601, 1382.548
1131.693, 1344.179
1132.786, 1340.814
1133.879, 1403.457
1134.971, 1333.107
1136.064, 1361.768
1137.156, 1387.435
1138.248, 1331.108
1139.339, 1345.790
1140.431, 1344.489
1141.522, 1347.199
1142.614, 1335.806
1143.705, 1318.313
1144.796, 1280.453
1145.887, 1268.247
1146.977, 1193.051
1148.068, 1158.864
1149.158, 1234.690
1150.248, 1286.525
1151.338, 1252.370
1152.428, 1215.238
1153.518, 1127.117
1154.607, 1249.006
1155.696, 1189.906
1156.785, 1269.815
1157.874, 1254.737
1158.963, 1101.674
1160.052, 1141.621
1161.141, 1197.584
1162.229, 1085.570
1163.317, 1090.572
1164.405, 1101.593
1165.493, 1035.625
1166.581, 1056.666
1167.668, 1127.718
1168.756, 910.7754
1169.843, 1062.842
1170.930, 1107.917
1172.017, 1041.000
1173.103, 922.0908
1174.190, 872.1924
1175.276, 893.3193
1176.363, 953.4531
1177.449, 844.5967
1178.535, 853.7490
1179.620, 707.9102
1180.706, 752.0801
1181.791, 637.2578
1182.877, 570.4443
1183.962, 495.6445
1185.047, 457.4443
1186.131, 509.0684
1187.216, 423.2930
1188.300, 499.5254
1189.385, 509.7656
1190.469, 378.0361
1191.553, 380.3164
1192.637, 245.6143
1193.720, 325.9199
1194.804, 348.2344
1195.887, 279.5557
1196.970, 69.88574
1198.053, 79.22363
1199.136, 90.57227
1200.219, 305.9268
1201.301, 215.2939
1202.383, 165.6709
1203.465, 165.0547
1204.547, 61.44824
1205.629, 122.8721
1206.711, 85.30469
1207.792, 202.7607
1208.874, 171.5664
1209.955, 15.69727
1211.036, 147.1777
1212.117, 59.66797
1213.198, 14.16406
1214.278, 0.6699220
1215.359, 41.17969
1216.439, 76.30176
1217.519, 39.18848
1218.599, 7.687500
1219.678, 70.80664
1220.758, 32.32617
1221.837, 43.85352
1222.917, 43.60645
1223.996, 22.92676
1225.075, 74.46289
1226.153, 125.0254
1227.232, 123.5312
1228.310, 100.3076
1229.389, 66.01367
1230.467, 1.743164
1231.545, 96.53223
1232.622, 86.81445
1233.700, 10.10449
1234.777, 65.40137
1235.855, 150.7227
1236.932, 95.05273
1238.009, 164.3906
1239.086, 135.7354
1240.162, 63.08887
1241.239, 147.4609
1242.315, 74.86328
1243.391, 154.2754
1244.467, 157.6963
1245.543, 88.12500
1246.619, 126.3418
1247.694, 132.0127
1248.769, 110.4727
1249.844, 50.94629
1250.919, 46.42969
1251.994, 235.9229
1253.069, 24.57617
1254.144, 150.9258
1255.218, 91.43945
1256.292, 4.959961
1257.366, 110.4980
1258.440, 169.0586
