##NAMES=Heulandite-Ca
##RRUFFID=R050097
##IDEAL CHEMISTRY=(Ca,Na,K)_5_(Si_27_Al_9_)O_72_&#183;26H_2_O
##LOCALITY=Rat's Nest Claim, Custer County, Idaho, USA
##OWNER=RRUFF
##SOURCE=John Cornish
##DESCRIPTION=Pale pink coffin-shaped tabular single crystals
##STATUS=The identification of this mineral has been confirmed by X-ray diffraction and chemical analysis
##URL=rruff.info/R050097
##MEASURED CHEMISTRY=(Ca_0.66_Na_0.30_K_0.04_)_5_(Si_0.77_Al_0.23_)_36_O_72_Â·24H_2_O
##PIN_ID=L00063
##ORIENTATION=Laser parallel to (-1 0 -1). Fiducial mark perpendicular to laser is parallel to -b [0 -1 0]
123.9200, 0.0000000E+00
125.1620, 11.15332
126.4040, 98.63965
127.6450, 217.9365
128.8860, 612.4902
130.1280, 735.9111
131.3680, 996.4043
132.6090, 1136.784
133.8500, 1592.960
135.0900, 1749.086
136.3300, 2350.453
137.5700, 2649.152
138.8100, 3047.276
140.0490, 3151.864
141.2890, 3281.172
142.5280, 3348.057
143.7670, 3241.773
145.0050, 3482.509
146.2440, 3502.633
147.4820, 3417.148
148.7200, 3565.812
149.9580, 3383.766
151.1960, 3306.938
152.4340, 3098.678
153.6710, 3123.514
154.9080, 2871.650
156.1450, 2665.521
157.3820, 2486.664
158.6190, 2137.352
159.8550, 1858.058
161.0910, 1573.063
162.3270, 1578.902
163.5630, 1466.840
164.7980, 1194.242
166.0340, 1039.859
167.2690, 921.6533
168.5040, 1024.415
169.7390, 972.6787
170.9730, 953.9395
172.2080, 902.6934
173.4420, 992.8184
174.6760, 1014.579
175.9100, 1032.266
177.1440, 1023.484
178.3770, 1239.084
179.6100, 1013.245
180.8430, 1136.367
182.0760, 1015.059
183.3090, 1000.099
184.5410, 834.7266
185.7740, 959.5781
187.0060, 1081.770
188.2380, 978.4678
189.4690, 984.6133
190.7010, 945.3047
191.9320, 879.3652
193.1630, 848.6680
194.3940, 811.0312
195.6250, 753.8320
196.8550, 754.6162
198.0860, 741.0889
199.3160, 725.4893
200.5460, 676.9873
201.7750, 599.0986
203.0050, 523.5967
204.2340, 445.5459
205.4630, 298.8760
206.6920, 118.7222
207.9210, 43.42383
209.1500, 11.21729
210.3780, 99.05713
211.6060, 92.81885
212.8340, 48.45117
214.0620, 119.8872
215.2900, 67.13184
216.5170, 102.0298
217.7440, 121.8794
218.9710, 43.09912
220.1980, 223.9404
221.4250, 280.7944
222.6510, 190.3872
223.8770, 221.1714
225.1040, 273.1675
226.3290, 163.3945
227.5550, 199.8589
228.7810, 70.57959
230.0060, 180.5312
231.2310, 137.7124
232.4560, 17.87305
233.6810, 6.782715
234.9050, 109.3208
236.1290, 141.1836
237.3540, 248.7925
238.5770, 310.1187
239.8010, 376.5103
241.0250, 436.4727
242.2480, 506.3071
243.4710, 561.2510
244.6940, 708.2822
245.9170, 685.4385
247.1400, 777.8940
248.3620, 869.6938
249.5840, 847.8940
250.8060, 856.6016
252.0280, 902.8584
253.2500, 915.8394
254.4710, 896.6348
255.6920, 888.3027
256.9140, 865.8657
258.1340, 854.3535
259.3550, 863.6104
260.5760, 818.1729
261.7960, 810.6611
263.0160, 738.8979
264.2360, 775.2197
265.4560, 736.5527
266.6750, 739.8784
267.8940, 751.2090
269.1140, 710.5815
270.3330, 705.9902
271.5510, 615.8696
272.7700, 676.1157
273.9880, 592.8096
275.2070, 655.4888
276.4250, 628.9878
277.6420, 828.1772
278.8600, 770.9922
280.0770, 748.3501
281.2950, 702.2183
282.5120, 718.5645
283.7290, 730.3511
284.9450, 749.5405
286.1620, 699.0986
287.3780, 660.0093
288.5940, 626.2783
289.8100, 716.9111
291.0260, 755.9194
292.2410, 655.3081
293.4570, 754.0498
294.6720, 742.0811
295.8870, 713.3359
297.1010, 709.7705
298.3160, 744.3892
299.5300, 708.2114
300.7450, 728.2734
301.9590, 851.6006
303.1730, 695.2739
304.3860, 820.3262
305.6000, 686.7808
306.8130, 900.6514
308.0260, 837.9717
309.2390, 905.7607
310.4510, 961.0161
311.6640, 961.7056
312.8760, 942.6763
314.0880, 941.7617
315.3000, 1032.397
316.5120, 1310.848
317.7240, 1263.357
318.9350, 1328.388
320.1460, 1489.304
321.3570, 1462.867
322.5680, 1499.326
323.7790, 1561.791
324.9890, 1651.436
326.1990, 1655.691
327.4090, 1745.199
328.6190, 1794.592
329.8290, 1871.645
331.0380, 1897.019
332.2480, 1931.311
333.4570, 1953.055
334.6660, 2071.315
335.8740, 2086.556
337.0830, 2248.589
338.2910, 2180.265
339.5000, 2346.682
340.7080, 2363.781
341.9150, 2341.400
343.1230, 2486.027
344.3300, 2562.539
345.5380, 2674.909
346.7450, 2794.860
347.9520, 2883.443
349.1580, 3028.792
350.3650, 3084.612
351.5710, 3199.521
352.7770, 3299.698
353.9830, 3535.138
355.1890, 3538.584
356.3940, 3765.609
357.6000, 3897.112
358.8050, 4188.481
360.0100, 4362.447
361.2150, 4464.799
362.4190, 4652.039
363.6240, 4778.114
364.8280, 5029.212
366.0320, 5196.041
367.2360, 5410.396
368.4400, 5694.523
369.6430, 5937.815
370.8460, 6141.939
372.0500, 6433.268
373.2530, 6674.988
374.4550, 6993.133
375.6580, 7288.477
376.8600, 7602.351
378.0620, 7912.622
379.2650, 8142.542
380.4660, 8630.797
381.6680, 8938.678
382.8690, 9502.678
384.0710, 9717.761
385.2720, 10289.09
386.4730, 10629.86
387.6730, 11184.14
388.8740, 11882.02
390.0740, 12376.12
391.2740, 12859.27
392.4740, 13722.06
393.6740, 14164.52
394.8740, 14757.34
396.0730, 15243.63
397.2730, 15722.91
398.4720, 15778.26
399.6700, 16231.38
400.8690, 16345.90
402.0680, 16586.38
403.2660, 15973.50
404.4640, 15987.90
405.6620, 15525.19
406.8600, 15169.57
408.0570, 14632.96
409.2550, 13968.32
410.4520, 13332.26
411.6490, 12689.81
412.8460, 11816.88
414.0430, 11158.79
415.2390, 10399.84
416.4350, 9839.428
417.6310, 9047.754
418.8270, 8464.374
420.0230, 8084.249
421.2190, 7377.958
422.4140, 6797.613
423.6090, 6436.862
424.8040, 5893.585
425.9990, 5336.287
427.1940, 5049.864
428.3880, 4579.418
429.5820, 4200.904
430.7760, 3883.808
431.9700, 3559.824
433.1640, 3310.931
434.3580, 3116.517
435.5510, 2883.085
436.7440, 2722.021
437.9370, 2547.139
439.1300, 2349.703
440.3230, 2266.470
441.5150, 2169.688
442.7070, 1899.953
443.8990, 2027.973
445.0910, 1821.985
446.2830, 1880.428
447.4750, 1854.135
448.6660, 1958.287
449.8570, 1906.805
451.0480, 1863.144
452.2390, 2006.153
453.4290, 2034.380
454.6200, 2211.774
455.8100, 2292.111
457.0000, 2463.313
458.1900, 2744.463
459.3800, 3007.947
460.5690, 3237.561
461.7590, 3605.946
462.9480, 3695.584
464.1370, 4055.204
465.3260, 4219.798
466.5140, 4502.371
467.7030, 4760.925
468.8910, 5039.461
470.0790, 5229.985
471.2670, 5649.495
472.4550, 6014.995
473.6420, 6332.484
474.8300, 6933.968
476.0170, 7279.446
477.2040, 7899.912
478.3900, 8292.368
479.5770, 8844.816
480.7640, 9181.259
481.9500, 9513.693
483.1360, 9739.122
484.3220, 9860.548
485.5080, 9584.974
486.6930, 9438.394
487.8780, 8824.817
489.0640, 8189.237
490.2490, 7527.657
491.4330, 6854.081
492.6180, 6113.512
493.8030, 5489.951
494.9870, 4522.410
496.1710, 4045.902
497.3550, 3478.440
498.5390, 3020.039
499.7220, 2544.720
500.9060, 2153.480
502.0890, 1820.756
503.2720, 1575.238
504.4550, 1305.252
505.6370, 1091.590
506.8200, 974.9639
508.0020, 769.7090
509.1840, 631.8223
510.3660, 590.8042
511.5480, 640.8765
512.7290, 451.7627
513.9110, 433.3564
515.0920, 375.6284
516.2730, 367.2603
517.4540, 288.6851
518.6350, 299.1997
519.8150, 260.5371
520.9960, 123.1704
522.1760, 180.1255
523.3560, 200.0337
524.5350, 93.16895
525.7150, 26.25049
526.8950, 135.2749
528.0740, 162.0098
529.2530, 14.63867
530.4320, 156.4375
531.6100, 75.66650
532.7890, 54.25244
533.9670, 1.157715
535.1460, 52.28320
536.3240, 70.94482
537.5010, 2.100586
538.6790, 47.07812
539.8570, 56.80908
541.0340, 54.77100
542.2110, 18.76855
543.3880, 16.45605
544.5650, 78.42627
545.7410, 82.41992
546.9180, 36.89746
548.0940, 61.34668
549.2700, 9.335449
550.4460, 126.6494
551.6210, 78.21973
552.7970, 131.0522
553.9720, 77.61621
555.1480, 98.67383
556.3230, 159.5200
557.4970, 12.56738
558.6720, 71.68457
559.8460, 129.0083
561.0210, 131.4067
562.1950, 21.67676
563.3690, 97.97803
564.5420, 26.83594
565.7160, 46.72363
566.8890, 15.68750
568.0630, 25.08691
569.2360, 29.52393
570.4090, 8.849609
571.5810, 63.21240
572.7540, 3.433105
573.9260, 70.91406
575.0980, 106.2871
576.2700, 73.62500
577.4420, 94.96045
578.6140, 121.3003
579.7850, 238.6372
580.9560, 110.1533
582.1270, 271.5713
583.2980, 280.9141
584.4690, 290.2705
585.6400, 360.6289
586.8100, 381.9912
587.9800, 439.7588
589.1500, 540.7241
590.3200, 556.0947
591.4900, 651.4707
592.6590, 711.8481
593.8290, 783.2300
594.9980, 832.6143
596.1670, 975.0015
597.3360, 1094.387
598.5040, 1225.773
599.6730, 1247.164
600.8410, 1382.553
602.0090, 1562.946
603.1770, 1552.337
604.3450, 1670.738
605.5130, 1732.201
606.6800, 1723.610
607.8470, 1767.034
609.0140, 1786.452
610.1810, 1750.866
611.3480, 1724.296
612.5140, 1734.724
613.6810, 1685.145
614.8470, 1654.558
616.0130, 1535.975
617.1790, 1470.388
618.3440, 1337.802
619.5100, 1292.225
620.6750, 1133.643
621.8400, 1075.050
623.0050, 1078.454
624.1700, 901.8511
625.3350, 842.2393
626.4990, 667.6362
627.6640, 702.0322
628.8280, 600.5503
629.9920, 596.8174
631.1550, 472.2012
632.3190, 495.5845
633.4820, 390.9575
634.6460, 436.3193
635.8090, 346.6763
636.9710, 325.0347
638.1340, 226.3809
639.2970, 221.6104
640.4590, 228.0620
641.6210, 231.3926
642.7830, 201.7100
643.9450, 199.0938
645.1070, 141.3184
646.2680, 153.6084
647.4300, 80.89355
648.5910, 27.15820
649.7520, 82.39844
650.9130, 85.61670
652.0730, 156.8125
653.2340, 0.9873050
654.3940, 117.1260
655.5540, 56.24072
656.7140, 122.3271
657.8740, 124.3901
659.0330, 81.42822
660.1930, 28.43994
661.3520, 61.98633
662.5110, 79.75000
663.6700, 37.82373
664.8290, 8.924805
665.9870, 10.95703
667.1460, 21.59277
668.3040, 31.90967
669.4620, 11.45508
670.6200, 29.13525
671.7770, 70.13086
672.9350, 92.68750
674.0920, 15.77197
675.2500, 8.469727
676.4070, 41.76416
677.5630, 62.44141
678.7200, 51.94678
679.8770, 51.51172
681.0330, 34.91357
682.1890, 0.7851560
683.3450, 10.28076
684.5010, 40.63623
685.6560, 25.76562
686.8120, 60.80518
687.9670, 33.71387
689.1220, 62.31641
690.2770, 104.0898
691.4320, 154.1226
692.5870, 69.56299
693.7410, 174.5210
694.8950, 108.4619
696.0490, 99.50684
697.2030, 177.2842
698.3570, 182.6514
699.5110, 180.8721
700.6640, 129.9238
701.8170, 132.1206
702.9700, 88.95752
704.1230, 222.9712
705.2760, 201.2393
706.4290, 268.9824
707.5810, 196.9941
708.7330, 250.0020
709.8850, 216.8838
711.0370, 222.8916
712.1890, 234.1304
713.3400, 168.3213
714.4920, 228.4448
715.6430, 272.3530
716.7940, 269.9497
717.9450, 227.2510
719.0960, 138.2749
720.2460, 161.4277
721.3960, 224.9038
722.5470, 280.1255
723.6970, 276.6689
724.8460, 220.3691
725.9960, 234.1338
727.1460, 213.0781
728.2950, 248.5288
729.4440, 257.1729
730.5930, 225.7812
731.7420, 230.2861
732.8910, 230.3330
734.0390, 201.3428
735.1870, 225.5410
736.3360, 237.7275
737.4840, 211.7925
738.6310, 211.0791
739.7790, 209.4526
740.9260, 342.1694
742.0740, 228.3618
743.2210, 184.8354
744.3680, 387.7754
745.5150, 384.1489
746.6610, 331.0518
747.8080, 294.5820
748.9540, 413.8989
750.1000, 444.9971
751.2460, 404.6655
752.3920, 450.4810
753.5380, 418.8672
754.6830, 478.3633
755.8280, 541.7979
756.9730, 544.1572
758.1180, 540.6211
759.2630, 608.1660
760.4080, 611.3613
761.5520, 682.2371
762.6960, 688.8015
763.8410, 796.2732
764.9840, 778.5596
766.1280, 766.1699
767.2720, 900.4871
768.4150, 913.9148
769.5590, 914.3330
770.7020, 814.4675
771.8450, 1025.509
772.9870, 931.8049
774.1300, 966.7610
775.2720, 1077.572
776.4150, 1023.399
777.5570, 1045.370
778.6990, 1034.261
779.8400, 997.1982
780.9820, 1043.960
782.1230, 998.8850
783.2650, 1055.557
784.4060, 869.9937
785.5470, 1009.136
786.6870, 857.9866
787.8280, 880.0691
788.9680, 890.1448
790.1090, 867.2224
791.2490, 841.0430
792.3890, 806.9016
793.5280, 713.3350
794.6680, 646.4326
795.8070, 673.4126
796.9470, 707.1353
798.0860, 606.2825
799.2250, 621.9404
800.3630, 721.4031
801.5020, 572.7053
802.6410, 531.9507
803.7790, 670.1787
804.9170, 644.6665
806.0550, 603.6836
807.1930, 564.7241
808.3300, 600.4302
809.4680, 611.8472
810.6050, 679.1880
811.7420, 746.9692
812.8790, 718.5010
814.0160, 766.3269
815.1520, 784.8193
816.2890, 686.1023
817.4250, 646.1128
818.5610, 682.0989
819.6970, 625.8911
820.8330, 654.2073
821.9680, 617.6821
823.1040, 513.6794
824.2390, 463.2109
825.3740, 439.4128
826.5090, 342.8936
827.6440, 316.5615
828.7790, 190.4336
829.9130, 316.9668
831.0470, 239.9346
832.1810, 125.6282
833.3150, 170.3105
834.4490, 111.2888
835.5830, 255.2812
836.7160, 212.2815
837.8500, 123.0867
838.9830, 138.8762
840.1160, 93.48828
841.2480, 93.42896
842.3810, 136.3477
843.5140, 76.23706
844.6460, 4.094971
845.7780, 79.91650
846.9100, 98.70703
848.0420, 17.46680
849.1740, 51.19189
850.3050, 96.85400
851.4360, 8.514160
852.5680, 2.864990
853.6990, 51.70972
854.8290, 2.749268
855.9600, 63.57251
857.0910, 81.95728
858.2210, 23.61499
859.3510, 51.75513
860.4810, 28.09058
861.6110, 23.39014
862.7410, 14.65259
863.8700, 44.87622
865.0000, 24.21851
866.1290, 24.21973
867.2580, 10.33740
868.3870, 10.41577
869.5150, 13.45508
870.6440, 60.45679
871.7720, 55.42554
872.9000, 2.361328
874.0290, 28.25537
875.1560, 19.88428
876.2840, 6.922607
877.4120, 50.30884
878.5390, 39.60938
879.6660, 2.4170000E-02
880.7930, 71.42847
881.9200, 51.08862
883.0470, 4.574463
884.1740, 72.97778
885.3000, 6.609131
886.4260, 72.71680
887.5530, 30.01270
888.6780, 29.72339
889.8040, 0.5134280
890.9300, 16.34253
892.0550, 57.21875
893.1810, 11.83740
894.3060, 39.86011
895.4310, 0.1462400
896.5560, 5.809814
897.6800, 18.73242
898.8050, 55.37573
899.9290, 21.54907
901.0530, 11.76880
902.1770, 24.02954
903.3010, 12.66211
904.4250, 27.67627
905.5480, 43.93701
906.6720, 56.52222
907.7950, 12.91943
908.9180, 40.40063
910.0410, 82.06519
911.1630, 40.49487
912.2860, 23.89258
913.4080, 27.74731
914.5300, 13.56763
915.6530, 40.85547
916.7740, 63.88208
917.8960, 2.317383
919.0180, 45.51025
920.1390, 25.61084
921.2600, 23.70898
922.3820, 19.78540
923.5020, 13.83911
924.6230, 73.86914
925.7440, 0.1223140
926.8640, 64.86792
927.9850, 94.83740
929.1050, 0.2124020
930.2250, 10.71436
931.3450, 18.61865
932.4640, 58.50195
933.5840, 0.6323240
934.7030, 47.21240
935.8220, 27.03711
936.9410, 46.84375
938.0600, 56.63721
939.1790, 55.41724
940.2970, 12.19238
941.4160, 61.94971
942.5340, 106.6958
943.6520, 68.44067
944.7700, 1.193115
945.8870, 29.07324
947.0050, 113.6426
948.1220, 73.34961
949.2400, 105.0591
950.3570, 28.77734
951.4740, 134.4998
952.5900, 117.2278
953.7070, 163.9590
954.8240, 111.6843
955.9400, 53.40234
957.0560, 164.1067
958.1720, 71.82129
959.2880, 119.5225
960.4030, 121.2119
961.5190, 144.8882
962.6340, 199.5508
963.7490, 229.1943
964.8640, 291.8291
965.9790, 270.4482
967.0940, 248.7842
968.2080, 315.2954
969.3230, 369.5464
970.4370, 381.1074
971.5510, 430.6543
972.6650, 435.8818
973.7790, 439.2451
974.8920, 429.3691
976.0060, 471.4805
977.1190, 439.7578
978.2320, 488.7715
979.3450, 542.6792
980.4580, 533.6919
981.5710, 686.7720
982.6830, 617.1963
983.7950, 712.0781
984.9080, 713.1416
986.0200, 683.2490
987.1310, 818.7217
988.2430, 752.5664
989.3550, 758.0415
990.4660, 871.9258
991.5770, 868.8877
992.6880, 884.0718
993.7990, 900.9082
994.9100, 946.5566
996.0200, 948.1060
997.1310, 1069.436
998.2410, 1031.222
999.3510, 1195.776
1000.461, 1167.328
1001.571, 1139.523
1002.681, 1106.727
1003.790, 1102.022
1004.899, 1122.368
1006.009, 1171.634
1007.118, 1179.514
1008.226, 1241.134
1009.335, 1241.649
1010.444, 1173.784
1011.552, 1312.411
1012.660, 1251.719
1013.768, 1229.542
1014.876, 1262.896
1015.984, 1226.686
1017.092, 1263.119
1018.199, 1245.259
1019.306, 1288.626
1020.413, 1250.522
1021.520, 1205.236
1022.627, 1247.343
1023.734, 1317.301
1024.840, 1309.287
1025.947, 1304.727
1027.053, 1273.193
1028.159, 1276.959
1029.265, 1329.038
1030.370, 1317.400
1031.476, 1317.825
1032.581, 1237.731
1033.687, 1257.575
1034.792, 1239.060
1035.897, 1150.801
1037.002, 1171.395
1038.106, 1155.964
1039.211, 1158.781
1040.315, 1152.657
1041.419, 1179.241
1042.523, 1153.130
1043.627, 1185.129
1044.731, 1162.893
1045.834, 1161.727
1046.938, 1124.660
1048.041, 1131.393
1049.144, 1104.254
1050.247, 1048.904
1051.349, 1105.528
1052.452, 1032.403
1053.555, 1061.233
1054.657, 1040.063
1055.759, 1099.886
1056.861, 943.6929
1057.963, 940.7607
1059.064, 984.4658
1060.166, 1098.515
1061.267, 979.6992
1062.368, 989.4604
1063.470, 1055.312
1064.570, 951.2095
1065.671, 1043.283
1066.772, 1105.096
1067.872, 1030.144
1068.972, 1017.118
1070.073, 950.1851
1071.173, 1118.306
1072.272, 1132.432
1073.372, 1102.388
1074.472, 1212.564
1075.571, 1137.893
1076.670, 1187.118
1077.769, 1281.065
1078.868, 1253.880
1079.967, 1428.229
1081.065, 1440.521
1082.164, 1383.879
1083.262, 1424.005
1084.360, 1624.375
1085.458, 1544.750
1086.556, 1630.129
1087.654, 1571.515
1088.751, 1710.800
1089.848, 1690.971
1090.946, 1727.356
1092.043, 1835.766
1093.139, 1785.181
1094.236, 1795.602
1095.333, 1785.027
1096.429, 1828.459
1097.525, 1871.872
1098.622, 1909.776
1099.718, 1957.788
1100.813, 2013.243
1101.909, 1968.705
1103.005, 1997.173
1104.100, 2015.572
1105.195, 2037.378
1106.290, 2065.866
1107.385, 2136.362
1108.480, 2027.866
1109.574, 2121.379
1110.669, 2087.899
1111.763, 2060.242
1112.857, 2148.792
1113.951, 2122.818
1115.045, 2111.382
1116.139, 2242.238
1117.232, 2026.821
1118.326, 2129.433
1119.419, 2067.307
1120.512, 2075.143
1121.605, 2131.398
1122.697, 2074.246
1123.790, 2070.146
1124.883, 2158.689
1125.975, 2149.004
1127.067, 2111.069
1128.159, 2113.814
1129.251, 2185.537
1130.342, 2107.270
1131.434, 2088.025
1132.525, 2116.789
1133.617, 2205.041
1134.708, 2137.854
1135.799, 2157.118
1136.889, 2208.556
1137.980, 2106.396
1139.071, 2032.257
1140.161, 2014.681
1141.251, 2067.568
1142.341, 2106.580
1143.431, 1965.511
1144.521, 2046.138
1145.610, 2041.099
1146.700, 1919.442
1147.789, 1924.460
1148.878, 1892.762
1149.967, 1818.465
1151.056, 1891.524
1152.144, 1785.591
1153.233, 1771.762
1154.321, 1786.879
1155.409, 1757.008
1156.498, 1733.819
1157.585, 1703.037
1158.673, 1659.640
1159.761, 1619.844
1160.848, 1574.043
1161.936, 1540.252
1163.023, 1465.537
1164.110, 1493.779
1165.197, 1505.038
1166.283, 1421.310
1167.370, 1340.597
1168.456, 1312.922
1169.542, 1266.493
1170.629, 1255.554
1171.714, 1233.881
1172.800, 1171.219
1173.886, 1173.577
1174.971, 1100.941
1176.057, 1025.324
1177.142, 987.7139
1178.227, 1057.119
1179.312, 1015.532
1180.397, 943.9507
1181.481, 819.3931
1182.566, 863.8438
1183.650, 798.3135
1184.734, 734.7944
1185.818, 742.2769
1186.902, 726.7646
1187.986, 658.2588
1189.069, 615.7578
1190.153, 532.2642
1191.236, 492.9023
1192.319, 522.4180
1193.402, 519.9399
1194.485, 359.8496
1195.567, 507.3828
1196.650, 305.9204
1197.732, 311.5688
1198.814, 326.1177
1199.896, 389.6714
1200.978, 188.4727
1202.060, 290.0811
1203.142, 311.6484
1204.223, 157.3486
1205.304, 172.9243
1206.386, 170.6206
1207.467, 193.4009
1208.547, 190.9888
1209.628, 145.5864
1210.709, 106.1880
1211.789, 213.7920
1212.869, 138.3994
1213.950, 131.0103
1215.030, 65.62402
1216.109, 145.2842
1217.189, 44.97949
1218.269, 74.91553
1219.348, 97.22998
1220.427, 13.40332
1221.506, 7.246094
1222.585, 8.839844
1223.664, 9.465332
1224.743, 13.17627
1225.821, 27.61377
1226.899, 19.35693
1227.978, 45.95947
1229.056, 37.56445
1230.134, 11.17041
1231.211, 99.79590
1232.289, 53.40576
1233.366, 25.98389
1234.444, 33.27686
1235.521, 28.31396
1236.598, 59.91406
1237.675, 54.51514
1238.751, 29.48779
1239.828, 40.09424
1240.904, 39.12012
1241.981, 2.006836
1243.057, 97.29834
1244.133, 39.27441
1245.209, 7.321777
1246.284, 38.24707
1247.360, 1.975098
1248.435, 5.842773
1249.510, 4.303711
1250.585, 31.76074
1251.660, 41.23340
1252.735, 24.54590
1253.810, 50.93750
1254.884, 30.31641
1255.959, 6.049316
1257.033, 6.413574
1258.107, 40.15869
1259.181, 38.64014
1260.255, 79.36719
1261.328, 45.80762
1262.402, 5.752930
1263.475, 34.70068
1264.548, 6.868652
1265.621, 18.00781
1266.694, 66.39795
1267.767, 64.10010
1268.840, 67.49902
1269.912, 62.92725
1270.984, 11.71387
1272.056, 34.63330
1273.129, 67.91064
1274.200, 42.39111
1275.272, 2.748535
1276.344, 35.14990
1277.415, 28.35693
1278.486, 33.91699
1279.558, 68.72656
1280.629, 54.19873
1281.699, 22.40137
1282.770, 56.05371
1283.841, 49.65479
1284.911, 18.93018
1285.981, 63.14160
1287.051, 74.44141
1288.121, 49.71924
1289.191, 66.40527
1290.261, 91.76172
1291.330, 39.37988
1292.400, 143.7036
1293.469, 111.8760
1294.538, 93.04199
1295.607, 93.20166
1296.676, 52.35449
