##NAMES=Heulandite-Ca
##RRUFFID=R040021
##IDEAL CHEMISTRY=(Ca,Na,K)_5_(Si_27_Al_9_)O_72_&#183;26H_2_O
##LOCALITY=Prospect Park, Patterson, Passaic County, New Jersey, USA
##OWNER=RRUFF
##SOURCE=University of Arizona Mineral Museum
##DESCRIPTION=Group of colorless lamellar crystals
##STATUS=The identification of this mineral has been confirmed by X-ray diffraction and chemical analysis
##URL=rruff.info/R040021
##MEASURED CHEMISTRY=Na_0.25_(Na_0.55_K_0.45_)_Σ=1_(Ca_2.42_Na_0.85_Sr_0.73_)_Σ=4.00_(Si_27.60_Al_8.40_)_Σ=36_O_72_·24H_2_O ; H_2_O estimated by difference
##PIN_ID=l00406
##ORIENTATION=Laser parallel to -b* (0 -1 0). Fiducial mark perpendicular to laser is parallel to c [0 0 1]
105.908, 0.000
107.300, 33.781
108.691, 665.414
110.082, 487.902
111.473, 74.172
112.864, 1579.480
114.254, 2723.992
115.644, 3381.758
117.034, 2041.336
118.424, 3304.816
119.813, 3540.297
121.203, 3745.945
122.592, 4833.043
123.981, 5743.109
125.369, 5891.043
126.758, 6821.523
128.146, 7233.254
129.534, 9069.430
130.922, 9387.992
132.309, 10396.254
133.696, 10906.398
135.083, 12695.156
136.470, 12934.852
137.857, 14511.254
139.243, 14937.922
140.630, 15655.852
142.016, 15849.324
143.401, 16338.711
144.787, 16604.656
146.172, 16732.275
147.557, 16232.230
148.942, 15570.020
150.327, 15529.713
151.711, 14687.297
153.096, 14806.393
154.480, 13673.668
155.863, 12995.352
157.247, 12952.336
158.630, 12255.109
160.013, 12054.285
161.396, 11934.188
162.779, 11717.254
164.161, 10866.055
165.544, 10503.914
166.926, 9809.668
168.308, 9307.781
169.689, 8406.578
171.070, 8177.691
172.452, 7365.043
173.833, 6601.709
175.213, 6154.977
176.594, 5401.371
177.974, 5112.180
179.354, 4397.246
180.734, 3641.596
182.114, 3304.266
183.493, 3066.289
184.872, 2552.703
186.251, 2439.303
187.630, 1765.416
189.008, 1539.957
190.387, 1246.104
191.765, 1120.211
193.143, 1077.236
194.520, 617.555
195.898, 589.139
197.275, 413.754
198.652, 517.889
200.029, 197.666
201.405, 167.025
202.782, 103.211
204.158, 96.525
205.534, 151.279
206.909, 186.443
208.285, 299.170
209.660, 81.016
211.035, 545.020
212.410, 491.402
213.784, 468.561
215.159, 591.787
216.533, 460.664
217.907, 512.281
219.281, 371.229
220.654, 312.375
222.027, 246.277
223.400, 173.246
224.773, 35.648
226.146, 20.443
227.518, 142.297
228.891, 213.525
230.263, 424.156
231.634, 642.111
233.006, 950.340
234.377, 931.760
235.748, 1249.338
237.119, 1406.922
238.490, 1930.514
239.860, 2189.912
241.231, 2516.033
242.601, 2757.605
243.970, 3032.648
245.340, 3343.297
246.709, 3436.793
248.079, 3780.385
249.448, 3865.295
250.816, 3990.715
252.185, 4087.867
253.553, 4155.828
254.921, 4219.643
256.289, 4139.387
257.657, 4295.111
259.024, 3735.846
260.391, 3978.564
261.758, 3651.281
263.125, 3622.973
264.492, 3792.633
265.858, 3149.242
267.224, 3202.803
268.590, 2506.301
269.956, 2480.717
271.321, 2356.902
272.687, 2234.443
274.052, 1923.977
275.416, 2132.082
276.781, 1625.729
278.146, 1503.463
279.510, 1706.322
280.874, 1382.227
282.237, 1459.107
283.601, 1109.920
284.964, 1102.598
286.327, 1360.074
287.690, 1034.320
289.053, 1039.330
290.416, 1405.102
291.778, 1196.643
293.140, 1206.924
294.502, 1098.916
295.863, 1193.576
297.225, 1117.838
298.586, 1352.629
299.947, 1408.912
301.308, 1294.711
302.668, 1436.297
304.029, 1343.943
305.389, 1636.898
306.749, 1578.502
308.108, 1972.904
309.468, 1913.766
310.827, 2056.035
312.186, 1931.564
313.545, 2218.730
314.903, 2328.447
316.262, 2359.645
317.620, 2479.307
318.978, 2663.184
320.336, 2840.537
321.693, 2932.883
323.051, 3129.223
324.408, 3246.135
325.765, 3342.094
327.121, 3496.705
328.478, 3588.404
329.834, 3690.922
331.190, 3963.527
332.546, 3813.438
333.902, 4632.826
335.257, 4360.861
336.612, 4467.383
337.967, 4316.734
339.322, 4336.893
340.677, 4524.902
342.031, 4583.801
343.385, 4800.375
344.739, 4897.824
346.093, 4978.910
347.446, 5091.020
348.799, 5342.070
350.153, 5518.664
351.505, 5640.820
352.858, 5974.141
354.210, 6178.045
355.563, 6334.777
356.915, 6829.688
358.267, 6913.566
359.618, 7504.793
360.969, 7837.301
362.321, 8339.865
363.672, 8943.188
365.022, 9137.416
366.373, 9608.363
367.723, 10160.680
369.073, 10631.455
370.423, 11255.262
371.773, 11306.828
373.122, 12185.922
374.471, 12855.184
375.821, 13113.621
377.169, 14229.273
378.518, 14179.938
379.866, 14992.617
381.215, 15990.672
382.563, 16625.488
383.910, 17412.615
385.258, 18496.680
386.605, 19724.695
387.952, 20551.490
389.299, 22296.369
390.646, 23126.389
391.992, 24533.320
393.339, 26312.127
394.685, 27726.477
396.031, 29809.393
397.376, 30138.160
398.722, 31816.182
400.067, 32500.912
401.412, 32825.078
402.757, 33716.992
404.101, 33032.625
405.446, 31988.977
406.790, 31683.283
408.134, 30285.242
409.478, 29718.916
410.821, 28043.777
412.165, 26157.555
413.508, 25568.162
414.851, 23622.008
416.193, 21839.244
417.536, 20360.975
418.878, 18678.070
420.220, 17516.264
421.562, 15840.598
422.904, 14792.023
424.245, 13778.283
425.586, 12286.504
426.927, 11451.688
428.268, 9906.475
429.609, 8941.539
430.949, 8213.730
432.289, 7713.867
433.629, 6701.152
434.969, 6237.619
436.309, 5629.479
437.648, 5117.535
438.987, 5002.930
440.326, 4513.139
441.665, 4268.893
443.003, 4354.996
444.342, 3799.131
445.680, 3883.467
447.018, 3927.473
448.355, 3595.342
449.693, 3603.248
451.030, 3738.947
452.367, 4125.219
453.704, 3991.371
455.041, 4662.320
456.377, 4852.586
457.713, 5488.020
459.049, 5919.916
460.385, 6701.582
461.721, 7447.285
463.056, 7980.314
464.391, 8462.752
465.726, 9337.621
467.061, 9825.553
468.395, 10295.074
469.730, 11393.094
471.064, 11860.711
472.398, 13456.781
473.731, 14358.195
475.065, 16461.688
476.398, 18782.506
477.731, 21311.352
479.064, 23078.594
480.397, 25296.518
481.729, 27102.094
483.062, 27523.988
484.394, 28011.648
485.725, 26861.758
487.057, 25532.086
488.389, 23766.332
489.720, 20969.498
491.051, 18647.045
492.382, 16260.074
493.712, 14012.785
495.043, 11728.695
496.373, 9773.008
497.703, 8234.445
499.032, 7135.100
500.362, 5852.754
501.691, 4834.977
503.020, 3837.373
504.349, 3397.057
505.678, 2605.885
507.007, 2323.773
508.335, 1800.926
509.663, 1715.262
510.991, 1380.613
512.319, 1029.170
513.646, 1007.713
514.973, 794.873
516.300, 629.998
517.627, 805.145
518.954, 402.783
520.280, 523.779
521.607, 550.652
522.933, 280.832
524.259, 326.441
525.584, 106.119
526.910, 212.922
528.235, 155.795
529.560, 226.844
530.885, 81.785
532.209, 12.195
533.534, 178.617
534.858, 40.812
536.182, 180.934
537.506, 64.135
538.829, 188.461
540.152, 108.494
541.476, 200.338
542.799, 121.162
544.121, 8.445
545.444, 1.266
546.766, 17.775
548.088, 54.244
549.410, 35.389
550.732, 10.646
552.053, 13.582
553.375, 206.676
554.696, 187.734
556.017, 186.322
557.337, 28.639
558.658, 89.117
559.978, 196.662
561.298, 4.498
562.618, 169.158
563.938, 129.932
565.257, 9.438
566.576, 187.676
567.895, 93.027
569.214, 135.701
570.533, 21.471
571.851, 14.189
573.170, 342.320
574.488, 234.955
575.805, 344.865
577.123, 241.754
578.440, 454.801
579.758, 826.654
581.075, 610.023
582.391, 1030.426
583.708, 1129.729
585.024, 1161.830
586.341, 1550.879
587.657, 1753.898
588.972, 2096.887
590.288, 2029.834
591.603, 2186.076
592.918, 2472.969
594.233, 2770.137
595.548, 3486.779
596.863, 3629.580
598.177, 4140.363
599.491, 4542.129
600.805, 4941.881
602.119, 5255.637
603.432, 5599.389
604.746, 5767.129
606.059, 5807.873
607.372, 5868.604
608.685, 6017.348
609.997, 5617.162
611.309, 5551.965
612.621, 5297.789
613.933, 5368.605
615.245, 4826.434
616.557, 4715.264
617.868, 4432.098
619.179, 4221.943
620.490, 3630.820
621.801, 3774.703
623.111, 3454.600
624.421, 3292.506
625.731, 2675.414
627.041, 2872.318
628.351, 2189.213
629.660, 1866.146
630.970, 1869.066
632.279, 1437.979
633.588, 1302.887
634.896, 1077.777
636.205, 1219.645
637.513, 829.508
638.821, 958.348
640.129, 1139.158
641.437, 995.943
642.744, 1032.926
644.051, 679.410
645.358, 771.090
646.665, 772.736
647.972, 447.354
649.278, 688.930
650.584, 374.469
651.890, 662.965
653.196, 439.424
654.502, 395.844
655.807, 90.221
657.113, 76.543
658.418, 165.812
659.722, 27.967
661.027, 116.832
662.331, 177.814
663.636, 36.949
664.940, 326.172
666.244, 1.613
667.547, 425.133
668.851, 52.074
670.154, 163.779
671.457, 246.783
672.760, 57.152
674.062, 70.297
675.365, 284.801
676.667, 162.225
677.969, 139.299
679.271, 161.217
680.572, 794.393
681.874, 1362.809
683.175, 993.998
684.476, 966.016
685.777, 514.734
687.077, 45.066
688.378, 80.369
689.678, 6.471
690.978, 154.367
692.278, 197.789
693.577, 253.420
694.877, 1.801
696.176, 159.178
697.475, 44.371
698.774, 308.977
700.072, 222.779
701.371, 82.594
702.669, 60.039
703.967, 260.975
705.265, 355.762
706.562, 336.273
707.860, 20.609
709.157, 468.000
710.454, 163.557
711.751, 508.730
713.047, 186.576
714.344, 455.572
715.640, 217.828
716.936, 260.516
718.232, 444.920
719.527, 445.133
720.823, 390.531
722.118, 699.580
723.413, 304.906
724.708, 296.473
726.002, 481.451
727.297, 352.699
728.591, 280.877
729.885, 476.174
731.179, 406.977
732.472, 398.740
733.766, 350.463
735.059, 382.244
736.352, 490.209
737.645, 473.992
738.937, 482.979
740.230, 543.428
741.522, 556.840
742.814, 599.648
744.106, 588.209
745.397, 572.326
746.689, 458.115
747.980, 672.547
749.271, 505.656
750.562, 737.240
751.853, 583.871
753.143, 687.746
754.433, 793.412
755.723, 637.242
757.013, 854.982
758.303, 701.389
759.592, 1048.711
760.881, 1150.930
762.170, 1259.832
763.459, 1414.256
764.748, 1334.049
766.036, 1754.994
767.325, 1621.316
768.613, 1843.172
769.901, 2208.771
771.188, 1937.861
772.476, 2546.549
773.763, 2335.203
775.050, 2720.518
776.337, 2706.004
777.624, 2803.164
778.910, 2941.602
780.196, 3004.551
781.482, 3109.480
782.768, 3193.199
784.054, 3301.695
785.339, 3332.527
786.625, 3053.143
787.910, 3212.502
789.195, 2966.068
790.479, 3020.426
791.764, 2897.670
793.048, 2775.471
794.332, 2836.422
795.616, 2801.680
796.900, 2635.455
798.183, 2812.104
799.467, 2319.994
800.750, 2276.201
802.033, 1843.156
803.316, 2375.076
804.598, 1789.525
805.880, 2101.998
807.163, 1814.307
808.445, 1949.906
809.726, 1877.516
811.008, 2170.512
812.289, 1913.379
813.570, 2033.855
814.851, 2081.723
816.132, 1911.176
817.413, 1680.375
818.693, 1813.410
819.973, 1504.080
821.253, 1260.475
822.533, 1318.760
823.813, 1131.770
825.092, 884.730
826.371, 767.023
827.650, 675.158
828.929, 711.506
830.208, 653.201
831.486, 578.104
832.764, 376.941
834.042, 482.047
835.320, 260.729
836.598, 330.355
837.875, 254.932
839.152, 226.455
840.429, 453.816
841.706, 192.381
842.983, 196.984
844.259, 426.848
845.536, 258.516
846.812, 248.424
848.088, 225.412
849.363, 277.465
850.639, 374.971
851.914, 109.832
853.189, 211.871
854.464, 314.506
855.739, 651.256
857.013, 269.326
858.288, 329.002
859.562, 624.037
860.836, 606.953
862.110, 329.180
863.383, 581.570
864.656, 374.701
865.930, 187.277
867.203, 243.506
868.475, 320.824
869.748, 78.127
871.020, 191.607
872.292, 95.820
873.564, 17.025
874.836, 94.037
876.108, 189.764
877.379, 57.498
878.650, 147.668
879.922, 82.570
881.192, 37.891
882.463, 22.859
883.733, 67.422
885.004, 35.879
886.274, 16.918
887.544, 181.992
888.813, 12.012
890.083, 4.344
891.352, 275.549
892.621, 37.252
893.890, 96.016
895.159, 35.766
896.427, 31.643
897.695, 163.389
898.964, 4.629
900.232, 21.955
901.499, 114.795
902.767, 223.463
904.034, 196.008
905.301, 120.898
906.568, 153.545
907.835, 24.139
909.102, 34.328
910.368, 34.121
911.634, 168.512
912.900, 34.857
914.166, 235.146
915.432, 20.611
916.697, 226.445
917.962, 172.539
919.227, 41.520
920.492, 158.336
921.757, 1.145
923.021, 9.891
924.285, 144.578
925.550, 39.775
926.813, 104.207
928.077, 17.248
929.341, 37.348
930.604, 10.021
931.867, 10.754
933.130, 54.449
934.393, 227.607
935.655, 170.271
936.918, 161.713
938.180, 20.654
939.442, 6.449
940.703, 167.404
941.965, 198.215
943.226, 11.008
944.488, 52.711
945.749, 236.391
947.009, 144.037
948.270, 239.645
949.530, 381.221
950.791, 172.764
952.051, 78.271
953.311, 4.232
954.570, 263.219
955.830, 200.648
957.089, 255.047
958.348, 195.418
959.607, 278.775
960.866, 169.104
962.124, 338.416
963.383, 367.709
964.641, 151.990
965.899, 382.254
967.156, 428.510
968.414, 328.781
969.671, 486.084
970.928, 390.387
972.185, 619.754
973.442, 488.113
974.699, 777.564
975.955, 651.016
977.211, 377.500
978.468, 814.031
979.723, 707.580
980.979, 796.139
982.234, 1163.756
983.490, 784.430
984.745, 984.941
986.000, 1199.676
987.254, 1157.764
988.509, 1468.125
989.763, 1169.195
991.017, 1370.178
992.271, 1462.922
993.525, 1590.830
994.779, 1701.840
996.032, 1746.709
997.285, 1894.002
998.538, 1822.359
999.791, 2482.607
1001.044, 2510.094
1002.296, 2690.971
1003.548, 2495.746
1004.800, 2418.939
1006.052, 2393.553
1007.304, 2159.385
1008.555, 2242.809
1009.807, 2182.473
1011.058, 2296.271
1012.309, 2316.059
1013.559, 2354.723
1014.810, 2270.496
1016.060, 2494.270
1017.310, 2599.318
1018.560, 2327.596
1019.810, 2756.178
1021.060, 2963.676
1022.309, 2644.701
1023.558, 3046.312
1024.807, 2736.176
1026.056, 2778.682
1027.305, 2818.348
1028.553, 3068.416
1029.801, 2848.184
1031.049, 2802.648
1032.297, 2700.238
1033.545, 2706.961
1034.793, 2693.469
1036.040, 2815.025
1037.287, 2727.133
1038.534, 2796.010
1039.781, 2782.303
1041.027, 2745.834
1042.274, 2856.094
1043.520, 2839.104
1044.766, 2720.617
1046.012, 2707.764
1047.257, 2793.197
1048.503, 3154.016
1049.748, 2833.088
1050.993, 3018.445
1052.238, 2960.062
1053.483, 2878.131
1054.727, 2800.102
1055.971, 2822.158
1057.216, 2753.529
1058.459, 2889.074
1059.703, 2729.635
1060.947, 2769.457
1062.190, 2742.291
1063.433, 2885.152
1064.676, 2873.262
1065.919, 2834.773
1067.162, 3193.840
1068.404, 2794.680
1069.646, 3068.135
1070.888, 3352.910
1072.130, 3392.867
1073.372, 3327.334
1074.613, 3585.457
1075.855, 3511.793
1077.096, 3603.951
1078.337, 3807.051
1079.578, 3967.330
1080.818, 4157.752
1082.059, 4255.555
1083.299, 4361.895
1084.539, 4512.645
1085.779, 4704.531
1087.018, 4816.428
1088.258, 5037.357
1089.497, 4994.979
1090.736, 5147.943
1091.975, 5158.430
1093.213, 4892.414
1094.452, 5396.758
1095.690, 5137.227
1096.928, 5362.045
1098.166, 5594.789
1099.404, 5587.961
1100.642, 5621.809
1101.879, 5880.453
1103.116, 5887.432
1104.353, 5915.588
1105.590, 5505.689
1106.827, 5602.650
1108.063, 5469.082
1109.299, 5794.926
1110.536, 5655.539
1111.771, 5402.361
1113.007, 5727.594
1114.243, 5445.395
1115.478, 5327.078
1116.713, 5574.025
1117.948, 5546.740
1119.183, 5463.619
1120.418, 4980.404
1121.652, 5628.787
1122.886, 6002.178
1124.120, 6118.980
1125.354, 5195.328
1126.588, 5611.471
1127.821, 5491.551
1129.055, 5636.713
1130.288, 5690.035
1131.521, 5349.168
1132.753, 5332.016
1133.986, 5323.133
1135.218, 5719.492
1136.450, 5327.885
1137.682, 5534.473
1138.914, 5395.348
1140.146, 5251.020
1141.377, 5349.336
1142.609, 5163.742
1143.840, 5322.535
1145.071, 5444.078
1146.301, 5281.055
1147.532, 5425.367
1148.762, 4925.818
1149.992, 4904.902
1151.222, 4934.184
1152.452, 5008.518
1153.682, 4668.023
1154.911, 4916.828
1156.140, 4544.219
1157.369, 4243.914
1158.598, 4279.469
1159.827, 4356.953
1161.055, 4051.934
1162.284, 4173.480
1163.512, 3838.736
1164.740, 3758.914
1165.967, 3355.301
1167.195, 3717.051
1168.422, 3320.785
1169.650, 3292.533
1170.877, 3077.285
1172.103, 3071.039
1173.330, 2771.803
1174.557, 2817.602
1175.783, 2714.570
1177.009, 2244.910
1178.235, 2478.814
1179.461, 2114.314
1180.686, 2194.191
1181.912, 2077.402
1183.137, 2143.084
1184.362, 1811.988
1185.587, 1707.439
1186.811, 1776.465
1188.036, 1579.260
1189.260, 1574.746
1190.484, 1489.551
1191.708, 1492.512
1192.932, 1109.850
1194.155, 1074.131
1195.378, 1084.373
1196.602, 1173.727
1197.825, 940.043
1199.047, 932.262
1200.270, 812.604
1201.492, 1061.844
1202.715, 607.658
1203.937, 742.467
1205.159, 407.861
1206.380, 544.623
1207.602, 278.008
1208.823, 424.018
1210.044, 464.809
1211.265, 293.518
1212.486, 240.105
1213.707, 204.541
1214.927, 322.291
1216.147, 182.516
1217.367, 379.102
1218.587, 296.336
1219.807, 183.518
1221.027, 106.131
1222.246, 45.682
1223.465, 152.793
1224.684, 176.898
1225.903, 56.102
1227.121, 7.141
1228.340, 156.369
1229.558, 249.371
1230.776, 48.350
1231.994, 51.652
1233.212, 189.607
1234.429, 216.531
1235.646, 40.631
1236.864, 184.162
1238.081, 91.877
1239.297, 249.486
1240.514, 244.973
1241.730, 138.363
1242.947, 202.650
1244.163, 77.816
1245.378, 294.924
1246.594, 300.963
1247.810, 93.068
1249.025, 142.795
1250.240, 25.398
1251.455, 196.338
1252.670, 30.014
1253.885, 47.381
1255.099, 55.141
1256.313, 35.037
1257.527, 56.336
1258.741, 24.002
1259.955, 5.951
1261.168, 83.578
1262.382, 20.637
1263.595, 71.789
1264.808, 30.707
1266.021, 145.555
1267.233, 86.379
1268.446, 168.100
1269.658, 42.191
1270.870, 2.842
1272.082, 109.885
1273.294, 11.695
1274.505, 37.643
1275.716, 136.906
1276.928, 81.732
1278.139, 288.377
1279.349, 5.178
1280.560, 114.164
1281.770, 103.076
1282.981, 151.225
1284.191, 187.328
1285.401, 72.426
1286.610, 209.096
1287.820, 113.924
1289.029, 71.168
1290.239, 64.336
1291.448, 22.453
1292.656, 123.562
1293.865, 92.658
1295.073, 182.738
1296.282, 137.705
1297.490, 127.459
1298.698, 88.852
1299.906, 50.855
1301.113, 119.854
1302.320, 65.848
1303.528, 84.844
1304.735, 103.828
1305.942, 47.799
1307.148, 92.746
1308.355, 13.350
1309.561, 184.537
1310.767, 137.379
1311.973, 323.166
1313.179, 81.854
1314.384, 501.500
1315.590, 312.100
1316.795, 380.637
1318.000, 329.154
1319.205, 432.652
1320.410, 281.129
1321.614, 195.580
1322.819, 302.018
1324.023, 162.352
1325.227, 444.662
1326.431, 237.568
1327.634, 1.461
1328.838, 111.715
1330.041, 197.732
1331.244, 299.064
1332.447, 58.213
1333.650, 75.521
1334.852, 59.965
1336.055, 24.676
1337.257, 92.840
1338.459, 12.891
1339.661, 18.705
1340.862, 227.562
1342.064, 89.572
1343.265, 43.760
1344.466, 213.869
1345.667, 0.967
1346.868, 337.174
1348.068, 430.963
1349.269, 199.312
1350.469, 406.285
1351.669, 190.924
1352.869, 281.475
1354.069, 314.500
1355.268, 133.840
1356.468, 450.236
1357.667, 444.643
1358.866, 145.137
1360.065, 372.969
1361.263, 156.838
1362.462, 236.062
1363.660, 295.883
1364.858, 137.906
1366.056, 145.104
1367.254, 342.080
1368.451, 399.557
1369.649, 205.000
1370.846, 247.961
1372.043, 189.732
1373.240, 331.676
1374.436, 484.350
1375.633, 154.182
1376.829, 279.391
1378.025, 308.146
1379.221, 388.768
1380.417, 449.590
1381.613, 308.539
1382.808, 336.990
1384.003, 318.377
1385.199, 190.131
1386.393, 231.908
1387.588, 176.689
1388.783, 219.402
1389.977, 335.369
1391.171, 166.604
1392.365, 239.320
1393.559, 378.771
1394.753, 189.053
1395.946, 236.098
1397.140, 148.270
1398.333, 173.914
1399.526, 36.379
1400.719, 279.961
1401.911, 29.771
1403.104, 244.775
1404.296, 51.117
1405.488, 212.182
1406.680, 55.994
1407.872, 133.773
1409.063, 314.484
1410.255, 77.207
1411.446, 255.219
1412.637, 69.137
1413.828, 188.090
1415.018, 149.340
1416.209, 319.254
1417.399, 112.516
1418.589, 227.391
1419.779, 32.762
1420.969, 321.570
1422.159, 5.859
1423.348, 384.855
1424.537, 236.191
1425.726, 61.148
1426.915, 0.031
1428.104, 0.000
##END=



