##NAMES=Heulandite-Ca
##RRUFFID=R060465
##IDEAL CHEMISTRY=(Ca,Na,K)_5_(Si_27_Al_9_)O_72_&#183;26H_2_O
##LOCALITY=Garrawilla, near Gunnadah, New South Wales, Australia
##OWNER=RRUFF
##SOURCE=Michael Scott
##DESCRIPTION=Orange fan of platy crystals
##STATUS=The identification of this mineral has been confirmed by X-ray diffraction and chemical analysis
##URL=rruff.info/R060465
##MEASURED CHEMISTRY=(Ca_0.66_Na_0.24_K_0.10_)_5_(Si_0.77_Al_0.23_)_36_O_72_Â·24H_2_O
##PIN_ID=M01415
##ORIENTATION=Laser parallel to a* (1 0 0). Fiducial mark perpendicular to laser is parallel to b [0 1 0]
223.8660, 0.0000000E+00
225.0920, 288.4004
226.3190, 0.3867190
227.5450, 95.07812
228.7700, 123.1035
229.9960, 62.29688
231.2210, 10.25781
232.4460, 66.60352
233.6710, 246.8848
234.8960, 270.6426
236.1210, 503.0332
237.3450, 701.5352
238.5690, 878.8516
239.7930, 824.7988
241.0170, 1182.352
242.2410, 1242.000
243.4640, 1489.645
244.6870, 1800.410
245.9100, 1643.764
247.1330, 1775.684
248.3560, 1857.291
249.5780, 1934.695
250.8000, 1863.973
252.0230, 1930.178
253.2440, 1956.359
254.4660, 1962.545
255.6880, 2010.758
256.9090, 1987.053
258.1300, 1947.289
259.3510, 1905.203
260.5720, 1764.121
261.7920, 1633.475
263.0130, 1323.186
264.2330, 1010.092
265.4530, 1006.469
266.6730, 857.6836
267.8920, 902.1270
269.1120, 583.8105
270.3310, 433.7520
271.5500, 264.9707
272.7690, 638.4688
273.9880, 255.2461
275.2060, 472.2930
276.4240, 449.5898
277.6430, 437.1152
278.8600, 350.8516
280.0780, 441.7676
281.2960, 356.8496
282.5130, 323.0781
283.7300, 236.4434
284.9470, 138.9355
286.1640, 150.5430
287.3810, 23.25391
288.5970, 3.062500
289.8130, 35.95312
291.0290, 1.072266
292.2450, 26.97266
293.4610, 35.91797
294.6760, 123.2500
295.8910, 145.5293
297.1060, 73.27344
298.3210, 15.01953
299.5360, 176.7656
300.7510, 120.5020
301.9650, 109.7812
303.1790, 46.09961
304.3930, 71.46484
305.6070, 69.90234
306.8200, 44.57617
308.0340, 39.09180
309.2470, 69.78906
310.4600, 193.1895
311.6730, 276.5547
312.8850, 454.1289
314.0980, 645.0820
315.3100, 801.7832
316.5220, 1074.156
317.7340, 1170.092
318.9460, 1471.299
320.1570, 1637.805
321.3690, 1821.461
322.5800, 1912.229
323.7910, 2087.461
325.0010, 2244.148
326.2120, 2383.105
327.4220, 2644.037
328.6330, 2811.938
329.8430, 2759.793
331.0520, 2897.596
332.2620, 2651.322
333.4720, 2873.896
334.6810, 2922.340
335.8900, 2908.629
337.0990, 3128.861
338.3070, 2969.039
339.5160, 3212.156
340.7240, 3329.225
341.9320, 3284.244
343.1400, 3311.215
344.3480, 3238.135
345.5560, 3748.006
346.7630, 3760.830
347.9700, 4077.602
349.1770, 4099.320
350.3840, 4397.988
351.5910, 4757.605
352.7970, 5173.172
354.0040, 5325.686
355.2100, 5763.844
356.4160, 6185.547
357.6220, 6500.898
358.8270, 6925.195
360.0320, 7325.441
361.2380, 7678.631
362.4430, 8468.766
363.6470, 9049.844
364.8520, 9635.871
366.0560, 10197.84
367.2610, 10916.75
368.4650, 11556.60
369.6690, 12078.15
370.8720, 12793.94
372.0760, 13639.97
373.2790, 14409.00
374.4820, 14984.15
375.6850, 15867.41
376.8880, 16884.55
378.0910, 17980.00
379.2930, 18875.51
380.4950, 20024.58
381.6970, 20916.85
382.8990, 21887.83
384.1010, 23039.67
385.3020, 24129.83
386.5040, 25482.08
387.7050, 26998.21
388.9060, 28338.37
390.1060, 29900.10
391.3070, 31396.82
392.5070, 33137.35
393.7080, 34685.38
394.9080, 35957.81
396.1070, 37482.32
397.3070, 38415.54
398.5070, 39816.76
399.7060, 40830.16
400.9050, 41450.55
402.1040, 41800.51
403.3030, 41487.22
404.5010, 41119.50
405.7000, 40923.38
406.8980, 39725.12
408.0960, 38835.81
409.2940, 37237.68
410.4910, 35934.02
411.6890, 34469.14
412.8860, 32642.20
414.0830, 31459.49
415.2800, 29762.46
416.4770, 28086.86
417.6730, 26677.16
418.8690, 25043.19
420.0660, 23438.85
421.2620, 21905.04
422.4570, 20360.51
423.6530, 19049.64
424.8480, 17826.82
426.0440, 16089.23
427.2390, 15067.71
428.4340, 13757.68
429.6280, 12323.92
430.8230, 11365.61
432.0170, 10282.64
433.2110, 9476.682
434.4050, 8864.867
435.5990, 8333.562
436.7930, 7466.844
437.9860, 7054.254
439.1800, 6663.480
440.3730, 6326.020
441.5660, 6056.508
442.7580, 5678.252
443.9510, 5641.896
445.1430, 5497.955
446.3350, 5658.998
447.5270, 5272.008
448.7190, 5478.988
449.9110, 5623.939
451.1020, 5753.625
452.2930, 6107.508
453.4850, 6497.355
454.6750, 6864.166
455.8660, 7391.729
457.0570, 7964.586
458.2470, 8628.371
459.4370, 9238.025
460.6270, 10160.63
461.8170, 10760.20
463.0070, 11422.71
464.1960, 12365.18
465.3850, 12832.59
466.5750, 13619.96
467.7630, 14164.26
468.9520, 14974.52
470.1410, 15983.72
471.3290, 16700.88
472.5170, 17586.97
473.7050, 18961.02
474.8930, 20437.01
476.0810, 22071.95
477.2680, 23968.83
478.4560, 25438.66
479.6430, 27095.44
480.8300, 28319.17
482.0160, 29537.84
483.2030, 30001.46
484.3890, 30036.03
485.5760, 29482.55
486.7620, 28294.02
487.9480, 26874.43
489.1330, 24658.79
490.3190, 22629.10
491.5040, 20175.35
492.6890, 17641.55
493.8740, 15481.70
495.0590, 13366.80
496.2440, 11415.84
497.4280, 9809.832
498.6120, 8236.768
499.7960, 7149.648
500.9800, 6138.480
502.1640, 5223.254
503.3470, 4418.977
504.5310, 4013.646
505.7140, 3269.262
506.8970, 2986.824
508.0800, 2538.332
509.2620, 2222.785
510.4450, 2080.207
511.6270, 1910.781
512.8090, 1541.824
513.9910, 1391.592
515.1730, 1342.734
516.3550, 1275.887
517.5360, 982.4492
518.7170, 1050.207
519.8980, 879.4805
521.0790, 633.5332
522.2600, 472.5957
523.4400, 440.2402
524.6210, 533.5137
525.8010, 337.9941
526.9810, 275.0547
528.1610, 206.0293
529.3400, 137.8164
530.5200, 106.7832
531.6990, 0.9804690
532.8780, 57.09766
534.0570, 92.07227
535.2360, 99.83398
536.4140, 89.46484
537.5930, 26.45117
538.7710, 37.83984
539.9490, 164.3867
541.1270, 33.55859
542.3040, 22.97461
543.4820, 142.8926
544.6590, 218.7090
545.8360, 148.0332
547.0130, 80.58984
548.1900, 223.7344
549.3670, 128.7480
550.5430, 3.652344
551.7190, 91.42969
552.8960, 135.3223
554.0710, 70.89062
555.2470, 186.0801
556.4230, 69.45508
557.5980, 28.76758
558.7730, 43.49805
559.9480, 35.77344
561.1230, 97.78320
562.2980, 90.62305
563.4720, 0.1445310
564.6470, 97.06641
565.8210, 88.88477
566.9950, 198.2754
568.1690, 175.6582
569.3420, 292.6074
570.5160, 223.4453
571.6890, 350.2773
572.8620, 500.8398
574.0350, 484.3320
575.2080, 452.7480
576.3800, 537.0879
577.5530, 793.4277
578.7250, 580.6309
579.8970, 822.9004
581.0690, 1056.504
582.2410, 1078.637
583.4120, 1339.607
584.5830, 1305.516
585.7550, 1548.484
586.9260, 1604.311
588.0960, 1796.414
589.2670, 2147.330
590.4380, 2307.969
591.6080, 2528.953
592.7780, 2660.932
593.9480, 2952.668
595.1180, 3382.033
596.2870, 3679.885
597.4570, 3899.510
598.6260, 4173.688
599.7950, 4373.227
600.9640, 5021.311
602.1330, 5466.727
603.3010, 5867.729
604.4700, 6318.980
605.6380, 6561.812
606.8060, 6732.574
607.9740, 7090.277
609.1420, 7291.953
610.3090, 7520.582
611.4760, 7469.717
612.6440, 7158.740
613.8110, 7121.232
614.9770, 6808.680
616.1440, 6407.071
617.3110, 6002.387
618.4770, 5713.632
619.6430, 5247.822
620.8090, 4833.953
621.9750, 4519.055
623.1400, 4278.078
624.3060, 3813.058
625.4710, 3625.992
626.6360, 3397.859
627.8010, 3153.667
628.9660, 2882.400
630.1300, 2525.068
631.2950, 2438.666
632.4590, 2356.219
633.6230, 2142.698
634.7870, 2144.102
635.9510, 2144.429
637.1140, 1924.678
638.2780, 1690.846
639.4410, 1657.985
640.6040, 1537.071
641.7670, 1405.467
642.9290, 1355.104
644.0920, 1231.004
645.2540, 1105.842
646.4160, 1113.637
647.5780, 782.3535
648.7400, 701.0186
649.9020, 666.6289
651.0630, 617.1787
652.2250, 493.6514
653.3860, 548.0352
654.5470, 448.3418
655.7080, 737.5830
656.8680, 562.7432
658.0290, 7.818359
659.1890, 132.7773
660.3490, 169.6338
661.5090, 36.39062
662.6690, 68.55078
663.8280, 38.54199
664.9880, 73.58887
666.1470, 115.7842
667.3060, 117.5996
668.4650, 131.0127
669.6240, 100.3262
670.7820, 82.54004
671.9410, 44.44824
673.0990, 81.26074
674.2570, 127.1807
675.4150, 92.29102
676.5720, 107.2979
677.7300, 63.94629
678.8870, 114.7773
680.0450, 58.51074
681.2020, 103.9824
682.3590, 162.3408
683.5150, 86.05273
684.6720, 133.8887
685.8280, 132.0508
686.9840, 228.3350
688.1400, 125.5342
689.2960, 46.59473
690.4520, 224.4062
691.6070, 204.6152
692.7630, 72.97852
693.9180, 177.2969
695.0730, 157.2959
696.2280, 99.92578
697.3820, 163.9883
698.5370, 125.6133
699.6910, 298.7139
700.8450, 79.56934
701.9990, 366.8916
703.1530, 298.7334
704.3070, 302.4297
705.4600, 381.9395
706.6130, 364.8320
707.7660, 448.5098
708.9190, 456.6426
710.0720, 437.8379
711.2250, 537.6758
712.3770, 589.3281
713.5300, 652.1514
714.6820, 649.6592
715.8340, 465.1504
716.9850, 583.9805
718.1370, 449.3896
719.2880, 353.1709
720.4400, 455.3867
721.5910, 759.1768
722.7420, 597.0400
723.8930, 455.6172
725.0430, 543.8379
726.1940, 395.3633
727.3440, 423.5117
728.4940, 494.1250
729.6440, 382.6094
730.7940, 368.4941
731.9430, 409.6631
733.0930, 554.1533
734.2420, 349.0938
735.3910, 386.8965
736.5400, 480.0957
737.6890, 391.6748
738.8370, 560.3809
739.9860, 399.0107
741.1340, 484.9365
742.2820, 407.7725
743.4300, 512.0498
744.5780, 544.2539
745.7250, 608.7783
746.8730, 561.3643
748.0200, 651.9160
749.1670, 594.4053
750.3140, 674.2080
751.4610, 742.9141
752.6070, 847.1572
753.7540, 777.0303
754.9000, 892.9805
756.0460, 986.0684
757.1920, 1072.974
758.3380, 986.9736
759.4830, 1168.610
760.6280, 1358.436
761.7740, 1321.050
762.9190, 1791.609
764.0640, 1639.410
765.2080, 1584.309
766.3530, 1927.396
767.4970, 1782.088
768.6420, 2114.810
769.7860, 2222.160
770.9300, 2267.334
772.0730, 2498.107
773.2170, 2652.639
774.3600, 2709.117
775.5040, 2839.209
776.6470, 2902.443
777.7900, 3096.112
778.9320, 3017.946
780.0750, 3053.347
781.2170, 3282.915
782.3600, 3301.848
783.5020, 3552.784
784.6440, 3395.557
785.7850, 3509.293
786.9270, 3616.905
788.0680, 3427.197
789.2100, 3406.445
790.3510, 3486.688
791.4920, 3261.213
792.6320, 3354.506
793.7730, 3337.298
794.9130, 3256.593
796.0540, 3207.325
797.1940, 3134.738
798.3340, 3010.207
799.4730, 2969.762
800.6130, 2772.187
801.7520, 2664.551
802.8920, 2606.764
804.0310, 2368.992
805.1700, 2391.277
806.3090, 2303.430
807.4470, 2143.413
808.5860, 2030.421
809.7240, 2075.709
810.8620, 1892.075
812.0000, 1964.851
813.1380, 1852.808
814.2750, 1905.398
815.4130, 1934.877
816.5500, 2009.321
817.6870, 1937.236
818.8240, 2056.685
819.9610, 1968.104
821.0980, 1836.677
822.2340, 1795.079
823.3700, 1543.460
824.5070, 1464.511
825.6430, 1316.907
826.7780, 1132.984
827.9140, 894.7510
829.0500, 907.4326
830.1850, 732.5713
831.3200, 850.1270
832.4550, 463.6396
833.5900, 471.8887
834.7250, 508.3643
835.8590, 332.6445
836.9930, 385.5752
838.1280, 362.5771
839.2620, 388.7676
840.3950, 239.6133
841.5290, 247.3906
842.6630, 78.41699
843.7960, 86.27734
844.9290, 74.69434
846.0620, 209.4502
847.1950, 162.3379
848.3280, 98.32227
849.4600, 260.2100
850.5930, 239.0029
851.7250, 158.7051
852.8570, 131.2422
853.9890, 136.7480
855.1210, 103.0244
856.2520, 310.8008
857.3840, 205.9150
858.5150, 39.03906
859.6460, 310.0615
860.7770, 136.0146
861.9080, 48.72949
863.0380, 112.1172
864.1690, 48.47266
865.2990, 22.02637
866.4290, 113.0117
867.5590, 37.84375
868.6890, 164.7500
869.8190, 2.858398
870.9480, 49.30859
872.0770, 20.17969
873.2070, 91.40625
874.3360, 47.18750
875.4640, 15.61230
876.5930, 21.89355
877.7220, 150.4854
878.8500, 14.71777
879.9780, 32.31934
881.1060, 37.73828
882.2340, 135.9248
883.3620, 73.29004
884.4890, 121.8018
885.6170, 128.4844
886.7440, 23.65918
887.8710, 91.29395
888.9980, 39.39844
890.1240, 110.3701
891.2510, 73.04883
892.3770, 61.36328
893.5040, 32.91113
894.6300, 140.5801
895.7560, 34.57324
896.8810, 80.36230
898.0070, 97.44238
899.1330, 7.674805
900.2580, 43.14160
901.3830, 92.52832
902.5080, 28.01855
903.6330, 1.321289
904.7570, 106.4355
905.8820, 6.653320
907.0060, 47.64941
908.1300, 81.55762
909.2540, 69.38281
910.3780, 138.1221
911.5020, 165.2207
912.6250, 78.74414
913.7490, 131.4033
914.8720, 15.22070
915.9950, 36.13867
917.1180, 12.16699
918.2400, 126.2900
919.3630, 15.43066
920.4850, 95.93164
921.6080, 80.43066
922.7300, 78.05762
923.8520, 2.185547
924.9730, 75.34766
926.0950, 16.56738
927.2160, 86.57324
928.3380, 45.29883
929.4590, 28.09375
930.5800, 77.81152
931.7010, 43.46777
932.8210, 53.06836
933.9420, 61.32422
935.0620, 24.04590
936.1820, 87.44336
937.3020, 34.79688
938.4220, 91.08887
939.5420, 57.31543
940.6610, 92.48242
941.7810, 48.58496
942.9000, 223.6279
944.0190, 53.61523
945.1380, 98.54492
946.2570, 330.4150
947.3750, 221.2354
948.4940, 317.0000
949.6120, 246.7158
950.7300, 336.3799
951.8480, 395.9922
952.9660, 307.5586
954.0830, 500.0742
955.2010, 243.5410
956.3180, 345.9570
957.4350, 498.3223
958.5520, 280.6387
959.6690, 350.9004
960.7860, 583.1172
961.9020, 441.2891
963.0190, 335.4062
964.1350, 414.4785
965.2510, 543.5039
966.3670, 468.4824
967.4830, 501.0547
968.5980, 660.6426
969.7140, 688.3340
970.8290, 730.2598
971.9440, 776.3574
973.0590, 950.3359
974.1740, 890.3770
975.2880, 897.7461
976.4030, 959.1094
977.5170, 1170.717
978.6310, 988.3145
979.7450, 1143.816
980.8590, 1174.848
981.9730, 1060.670
983.0860, 1324.217
984.2000, 1317.445
985.3130, 1440.576
986.4260, 1394.359
987.5390, 1553.023
988.6520, 1554.689
989.7640, 1701.209
990.8770, 1498.592
991.9890, 1867.559
993.1010, 1595.715
994.2130, 1912.039
995.3250, 1693.594
996.4370, 1850.781
997.5480, 1944.223
998.6590, 1973.072
999.7710, 2032.932
1000.882, 1983.279
1001.993, 2049.328
1003.103, 2062.518
1004.214, 2104.715
1005.324, 2127.730
1006.434, 2121.225
1007.545, 2171.240
1008.655, 2329.008
1009.764, 2248.730
1010.874, 2359.037
1011.983, 2564.316
1013.093, 2529.035
1014.202, 2443.707
1015.311, 2380.939
1016.420, 2292.994
1017.528, 2404.963
1018.637, 2302.873
1019.745, 2350.355
1020.854, 2324.832
1021.962, 2578.652
1023.070, 2629.727
1024.177, 2496.566
1025.285, 2599.230
1026.392, 2516.920
1027.500, 2436.400
1028.607, 2563.121
1029.714, 2842.541
1030.821, 2729.055
1031.927, 2598.510
1033.034, 2786.609
1034.140, 2525.494
1035.246, 2570.076
1036.352, 2787.943
1037.458, 2702.660
1038.564, 2630.639
1039.670, 2699.680
1040.775, 2651.430
1041.880, 2770.469
1042.986, 2725.869
1044.090, 2729.545
1045.195, 2870.967
1046.300, 2820.840
1047.404, 2613.441
1048.509, 2753.363
1049.613, 2698.008
1050.717, 2646.182
1051.821, 2737.238
1052.925, 2826.350
1054.028, 2674.393
1055.132, 2796.447
1056.235, 2740.697
1057.338, 2662.674
1058.441, 2814.029
1059.544, 2695.227
1060.647, 2609.129
1061.749, 2667.363
1062.851, 2672.529
1063.954, 2684.902
1065.056, 2675.137
1066.158, 2710.295
1067.259, 2705.730
1068.361, 2800.895
1069.462, 2725.328
1070.564, 2817.545
1071.665, 2955.002
1072.766, 2956.322
1073.867, 3007.186
1074.967, 3213.049
1076.068, 3359.621
1077.168, 3448.535
1078.268, 3310.482
1079.368, 3466.758
1080.468, 3505.014
1081.568, 3538.865
1082.668, 3736.080
1083.767, 3632.025
1084.866, 3827.080
1085.966, 3902.629
1087.065, 4032.953
1088.163, 4044.432
1089.262, 4092.965
1090.361, 4259.846
1091.459, 4360.854
1092.557, 4359.740
1093.655, 4493.436
1094.753, 4385.773
1095.851, 4490.133
1096.949, 4686.432
1098.046, 4690.951
1099.143, 4834.643
1100.241, 4798.449
1101.338, 4910.092
1102.434, 5032.322
1103.531, 5140.625
1104.628, 5212.496
1105.724, 5277.059
1106.820, 5312.717
1107.916, 5287.666
1109.012, 5285.777
1110.108, 5485.162
1111.204, 5290.352
1112.299, 5622.506
1113.395, 5497.229
1114.490, 5591.141
1115.585, 5528.652
1116.680, 5545.688
1117.775, 5665.055
1118.869, 5790.945
1119.964, 5890.975
1121.058, 6047.162
1122.152, 6137.043
1123.246, 6040.906
1124.340, 5888.590
1125.434, 5971.156
1126.527, 5801.592
1127.620, 6076.146
1128.714, 5867.271
1129.807, 5866.123
1130.900, 6006.039
1131.992, 5976.799
1133.085, 6058.068
1134.178, 5910.254
1135.270, 6107.570
1136.362, 6093.250
1137.454, 5952.688
1138.546, 5844.119
1139.638, 5705.646
1140.729, 5778.014
1141.821, 5925.705
1142.912, 5659.480
1144.003, 5754.906
1145.094, 5662.293
1146.185, 5857.500
1147.276, 5481.957
1148.366, 5829.027
1149.456, 5412.273
1150.547, 5425.867
1151.637, 5647.201
1152.727, 5212.725
1153.816, 5253.924
1154.906, 5143.082
1155.995, 5334.246
1157.085, 5092.412
1158.174, 5254.607
1159.263, 4943.814
1160.352, 4932.068
1161.441, 4982.330
1162.529, 4794.613
1163.618, 4637.938
1164.706, 4723.271
1165.794, 4807.625
1166.882, 4847.982
1167.970, 4398.350
1169.058, 4040.727
1170.145, 4176.139
1171.232, 4273.555
1172.320, 4156.973
1173.407, 3996.393
1174.494, 3733.816
1175.580, 3908.236
1176.667, 3474.707
1177.754, 3521.205
1178.840, 3394.744
1179.926, 3238.289
1181.012, 3295.850
1182.098, 3228.420
1183.184, 3002.025
1184.269, 2816.633
1185.355, 2780.271
1186.440, 2639.934
1187.525, 2642.617
1188.610, 2375.307
1189.695, 2337.102
1190.780, 2094.689
1191.864, 2141.408
1192.949, 2001.127
1194.033, 1889.846
1195.117, 1813.564
1196.201, 1654.285
1197.285, 1599.004
1198.369, 1467.721
1199.452, 1286.438
1200.536, 1213.975
1201.619, 1037.871
1202.702, 993.5820
1203.785, 940.2969
1204.868, 829.0078
1205.950, 831.7168
1207.033, 754.2793
1208.115, 657.1230
1209.197, 645.8223
1210.279, 533.5137
1211.361, 457.2012
1212.443, 477.8809
1213.525, 541.5566
1214.606, 449.8223
1215.687, 273.8828
1216.769, 393.5352
1217.850, 219.1797
1218.930, 307.8145
1220.011, 184.4414
1221.092, 193.0605
1222.172, 35.67188
1223.252, 171.2695
1224.333, 49.85742
1225.413, 101.4336
1226.492, 17.99805
1227.572, 98.54883
1228.652, 128.9121
1229.731, 77.44922
1230.810, 180.9570
1231.889, 38.64062
1232.968, 26.73047
1234.047, 51.91406
1235.126, 16.40430
1236.204, 186.7109
1237.283, 8.992188
1238.361, 84.28711
1239.439, 21.55273
1240.517, 70.82227
1241.595, 28.91797
1242.673, 117.6855
1243.750, 135.5332
1244.827, 160.0039
1245.905, 135.5000
1246.982, 106.5879
1248.059, 132.7520
1249.135, 53.00977
1250.212, 134.2793
1251.288, 112.6445
1252.365, 223.0938
1253.441, 238.3496
1254.517, 13.78320
1255.593, 46.19531
1256.669, 215.1934
1257.744, 124.0645
1258.820, 192.3125
1259.895, 6.548828
1260.970, 23.97656
1262.045, 3.503906
1263.120, 9.308594
1264.195, 110.3613
1265.270, 67.60547
1266.344, 72.86523
1267.418, 46.19336
1268.492, 65.68945
1269.566, 110.7793
1270.640, 38.42578
1271.714, 26.26953
1272.788, 111.5000
1273.861, 125.5137
1274.934, 170.4180
1276.007, 117.3047
1277.080, 221.5430
1278.153, 188.4238
1279.226, 115.4824
1280.299, 16.75195
1281.371, 145.8691
1282.443, 246.9570
1283.515, 384.5352
1284.587, 401.0938
1285.659, 399.3008
1286.731, 278.8203
1287.802, 304.3164
1288.874, 334.0000
1289.945, 494.4551
1291.016, 424.9023
1292.087, 487.7324
1293.158, 593.1191
1294.229, 646.4785
1295.299, 691.0469
1296.370, 719.1309
1297.440, 768.4160
1298.510, 796.6777
1299.580, 785.5918
1300.650, 808.1211
1301.720, 751.3027
1302.789, 677.4551
1303.859, 665.5312
1304.928, 647.6777
1305.997, 647.7480
1307.066, 608.7891
1308.135, 614.8047
1309.203, 607.9941
1310.272, 658.9629
1311.340, 612.6797
1312.409, 712.5723
1313.477, 729.4277
1314.545, 580.2656
1315.612, 572.0840
1316.680, 615.8809
1317.748, 538.6582
1318.815, 553.3945
1319.882, 547.6797
1320.949, 517.8652
1322.016, 542.5586
1323.083, 522.3926
1324.150, 520.0723
1325.216, 541.5117
1326.283, 634.1191
1327.349, 656.7051
1328.415, 715.2676
1329.481, 573.8086
1330.547, 566.3262
1331.613, 466.8223
1332.678, 539.2910
1333.744, 634.7402
1334.809, 650.1660
1335.874, 437.5664
1336.939, 527.9453
1338.004, 738.3027
1339.068, 398.6348
1340.133, 506.9414
1341.197, 600.2266
1342.262, 576.4883
1343.326, 686.7246
1344.390, 543.9395
1345.453, 750.1328
1346.517, 624.3047
1347.581, 884.4512
1348.644, 898.2168
1349.707, 571.7520
1350.770, 938.2734
1351.833, 792.3320
1352.896, 609.1211
1353.959, 531.9727
1355.022, 600.5469
1356.084, 658.3027
1357.146, 556.2539
1358.208, 652.4199
1359.270, 670.0273
1360.332, 611.2871
1361.394, 645.8906
1362.455, 600.2812
1363.517, 582.1328
1364.578, 555.3672
1365.639, 467.4160
1366.700, 481.9004
1367.761, 529.1152
1368.822, 595.8516
1369.883, 518.5742
1370.943, 700.9043
1372.003, 381.5371
1373.063, 434.6406
1374.123, 405.2285
1375.183, 444.7480
1376.243, 373.1543
1377.303, 454.7129
1378.362, 317.3125
1379.421, 305.5840
1380.481, 422.6426
1381.540, 371.8047
1382.598, 356.4512
1383.657, 231.7285
1384.716, 316.9258
