##NAMES=Heulandite-Ca
##RRUFFID=R040021
##IDEAL CHEMISTRY=(Ca,Na,K)_5_(Si_27_Al_9_)O_72_&#183;26H_2_O
##LOCALITY=Prospect Park, Patterson, Passaic County, New Jersey, USA
##OWNER=RRUFF
##SOURCE=University of Arizona Mineral Museum
##DESCRIPTION=Group of colorless lamellar crystals
##STATUS=The identification of this mineral has been confirmed by X-ray diffraction and chemical analysis
##URL=rruff.info/R040021
##MEASURED CHEMISTRY=Na_0.25_(Na_0.55_K_0.45_)_Σ=1_(Ca_2.42_Na_0.85_Sr_0.73_)_Σ=4.00_(Si_27.60_Al_8.40_)_Σ=36_O_72_·24H_2_O ; H_2_O estimated by difference
##PIN_ID=m00378
##ORIENTATION=Laser parallel to a [1 0 0]. Fiducial mark perpendicular to laser is parallel to b* (0 1 0)
93.375, 0.000
94.768, 35.486
96.161, 60.664
97.554, 578.250
98.947, 821.738
100.340, 1178.371
101.732, 1473.631
103.124, 1886.695
104.516, 2399.094
105.908, 3162.855
107.300, 3694.965
108.691, 3967.441
110.082, 4706.307
111.473, 4915.902
112.864, 5368.465
114.254, 6125.885
115.644, 7047.527
117.034, 7760.137
118.424, 7938.213
119.813, 8032.109
121.203, 9043.303
122.592, 9163.711
123.981, 9801.387
125.369, 10572.887
126.758, 11340.355
128.146, 12274.115
129.534, 13043.527
130.922, 14925.438
132.309, 15601.711
133.696, 16990.264
135.083, 17569.018
136.470, 19539.951
137.857, 20064.076
139.243, 21043.447
140.630, 21180.160
142.016, 21669.113
143.401, 21246.117
144.787, 21207.346
146.172, 20918.711
147.557, 20448.230
148.942, 19365.105
150.327, 18143.750
151.711, 17386.631
153.096, 16276.648
154.480, 15568.352
155.863, 14433.252
157.247, 13223.797
158.630, 12492.086
160.013, 11359.691
161.396, 10477.637
162.779, 9541.096
164.161, 8833.137
165.544, 7863.811
166.926, 6990.170
168.308, 6559.254
169.689, 5765.121
171.070, 5002.822
172.452, 4659.406
173.833, 4093.922
175.213, 3501.414
176.594, 3136.953
177.974, 2414.766
179.354, 2149.098
180.734, 1771.064
182.114, 1226.752
183.493, 839.201
184.872, 816.449
186.251, 415.510
187.630, 186.398
189.008, 58.531
190.387, 251.500
191.765, 298.803
193.143, 265.939
194.520, 98.725
195.898, 299.436
197.275, 160.996
198.652, 57.342
200.029, 201.182
201.405, 125.896
202.782, 241.502
204.158, 88.398
205.534, 108.941
206.909, 484.816
208.285, 45.412
209.660, 173.469
211.035, 121.156
212.410, 145.963
213.784, 127.930
215.159, 100.701
216.533, 14.500
217.907, 119.639
219.281, 86.295
220.654, 81.307
222.027, 40.398
223.400, 214.418
224.773, 292.104
226.146, 430.543
227.518, 448.750
228.891, 584.682
230.263, 869.406
231.634, 1168.914
233.006, 1441.314
234.377, 1734.158
235.748, 2087.818
237.119, 2495.096
238.490, 2814.021
239.860, 3501.541
241.231, 3693.697
242.601, 4226.656
243.970, 4508.432
245.340, 4752.033
246.709, 5103.473
248.079, 4972.754
249.448, 5351.875
250.816, 5211.854
252.185, 5363.678
253.553, 5366.352
254.921, 5265.850
256.289, 5282.170
257.657, 4868.305
259.024, 4678.969
260.391, 4414.217
261.758, 4401.760
263.125, 4048.350
264.492, 4000.443
265.858, 3613.678
267.224, 3319.793
268.590, 3265.588
269.956, 2535.908
271.321, 2675.635
272.687, 2353.664
274.052, 1912.916
275.416, 1519.312
276.781, 1653.795
278.146, 1358.307
279.510, 914.814
280.874, 919.279
282.237, 627.678
283.601, 669.969
284.964, 173.119
286.327, 121.938
287.690, 52.707
289.053, 78.941
290.416, 303.945
291.778, 49.385
293.140, 411.201
294.502, 233.482
295.863, 471.186
297.225, 405.375
298.586, 311.029
299.947, 486.125
301.308, 321.703
302.668, 536.723
304.029, 508.234
305.389, 328.236
306.749, 390.766
308.108, 468.949
309.468, 151.809
310.827, 253.240
312.186, 31.199
313.545, 164.680
314.903, 76.287
316.262, 97.709
317.620, 287.449
318.978, 306.592
320.336, 419.223
321.693, 624.178
323.051, 702.652
324.408, 905.789
325.765, 826.613
327.121, 1263.154
328.478, 1079.422
329.834, 1308.428
331.190, 1666.176
332.546, 1835.676
333.902, 1766.938
335.257, 2150.975
336.612, 2143.781
337.967, 2226.371
339.322, 2394.740
340.677, 2419.900
342.031, 2578.852
343.385, 2676.602
344.739, 2819.148
346.093, 3019.488
347.446, 3131.639
348.799, 3276.582
350.153, 3510.623
351.505, 3890.941
352.858, 3997.744
354.210, 4298.252
355.563, 4591.779
356.915, 4841.348
358.267, 5154.096
359.618, 5836.801
360.969, 6127.400
362.321, 6620.217
363.672, 7026.102
365.022, 7602.467
366.373, 8049.338
367.723, 8620.340
369.073, 9270.541
370.423, 9739.320
371.773, 10449.199
373.122, 10917.266
374.471, 11599.953
375.821, 12646.328
377.169, 12758.977
378.518, 14012.371
379.866, 14085.578
381.215, 14867.783
382.563, 15892.238
383.910, 16793.797
385.258, 17380.914
386.605, 18447.861
387.952, 19898.547
389.299, 20370.170
390.646, 21984.139
391.992, 23181.039
393.339, 24593.605
394.685, 26352.402
396.031, 28122.617
397.376, 30272.488
398.722, 31173.811
400.067, 33203.711
401.412, 34044.203
402.757, 34760.992
404.101, 35973.414
405.446, 35653.777
406.790, 34768.957
408.134, 34185.516
409.478, 33102.426
410.821, 31843.070
412.165, 30033.268
413.508, 27545.891
414.851, 26310.566
416.193, 24118.078
417.536, 22145.684
418.878, 20699.139
420.220, 18838.270
421.562, 17465.773
422.904, 15378.973
424.245, 14435.012
425.586, 13315.879
426.927, 11730.559
428.268, 11101.059
429.609, 9704.367
430.949, 8637.480
432.289, 8010.393
433.629, 7484.107
434.969, 6657.619
436.309, 6346.930
437.648, 5514.033
438.987, 5434.934
440.326, 4969.629
441.665, 4529.000
443.003, 4252.102
444.342, 4369.680
445.680, 4039.154
447.018, 3902.990
448.355, 3954.488
449.693, 3810.127
451.030, 3847.102
452.367, 3762.348
453.704, 4085.980
455.041, 3942.316
456.377, 4376.230
457.713, 4723.660
459.049, 5475.658
460.385, 5286.033
461.721, 5866.879
463.056, 6641.521
464.391, 7089.154
465.726, 7904.066
467.061, 8969.781
468.395, 9491.098
469.730, 10566.039
471.064, 12067.453
472.398, 13196.070
473.731, 15404.211
475.065, 16692.570
476.398, 18967.254
477.731, 20870.637
479.064, 22614.977
480.397, 23955.553
481.729, 24738.719
483.062, 24984.236
484.394, 24398.496
485.725, 23421.432
487.057, 21517.596
488.389, 19990.090
489.720, 17802.648
491.051, 15640.994
492.382, 13812.861
493.712, 12185.676
495.043, 10478.740
496.373, 8633.871
497.703, 7607.172
499.032, 6407.062
500.362, 5667.887
501.691, 4822.773
503.020, 4159.977
504.349, 3400.080
505.678, 3043.074
507.007, 2603.404
508.335, 2388.805
509.663, 2129.375
510.991, 1768.625
512.319, 1749.980
513.646, 1701.430
514.973, 1767.520
516.300, 1114.066
517.627, 1219.361
518.954, 1253.691
520.280, 844.725
521.607, 1082.184
522.933, 929.461
524.259, 889.428
525.584, 628.039
526.910, 644.744
528.235, 686.424
529.560, 658.068
530.885, 559.719
532.209, 579.385
533.534, 495.322
534.858, 500.604
536.182, 404.025
537.506, 340.986
538.829, 371.072
540.152, 339.031
541.476, 337.777
542.799, 556.312
544.121, 118.734
545.444, 413.131
546.766, 339.742
548.088, 94.451
549.410, 337.588
550.732, 444.564
552.053, 427.447
553.375, 337.084
554.696, 199.779
556.017, 246.402
557.337, 341.896
558.658, 173.299
559.978, 231.598
561.298, 37.994
562.618, 174.090
563.938, 160.086
565.257, 42.980
566.576, 280.773
567.895, 37.479
569.214, 187.100
570.533, 501.658
571.851, 362.164
573.170, 318.609
574.488, 560.988
575.805, 503.316
577.123, 507.574
578.440, 550.770
579.758, 662.898
581.075, 1134.951
582.391, 699.953
583.708, 1160.898
585.024, 1447.775
586.341, 1278.600
587.657, 1500.363
588.972, 1734.072
590.288, 1966.721
591.603, 2086.309
592.918, 2374.811
594.233, 2756.328
595.548, 2846.744
596.863, 3288.100
598.177, 3465.389
599.491, 3710.629
600.805, 4219.809
602.119, 4433.938
603.432, 4819.016
604.746, 5345.055
606.059, 5601.080
607.372, 5846.164
608.685, 5791.262
609.997, 6128.416
611.309, 5902.736
612.621, 5824.104
613.933, 5766.641
615.245, 5502.277
616.557, 5188.082
617.868, 4990.035
619.179, 4571.117
620.490, 4275.395
621.801, 3895.820
623.111, 3693.451
624.421, 3095.271
625.731, 3280.232
627.041, 2442.355
628.351, 2703.662
629.660, 1968.072
630.970, 1763.629
632.279, 2059.260
633.588, 1583.002
634.896, 1482.795
636.205, 964.631
637.513, 1238.482
638.821, 752.344
640.129, 880.211
641.437, 931.061
642.744, 680.895
644.051, 451.713
645.358, 548.512
646.665, 683.277
647.972, 490.029
649.278, 422.771
650.584, 264.473
651.890, 154.129
653.196, 125.508
654.502, 53.484
655.807, 119.799
657.113, 21.746
658.418, 59.650
659.722, 40.678
661.027, 7.734
662.331, 8.518
663.636, 71.355
664.940, 22.730
666.244, 223.238
667.547, 5.633
668.851, 143.545
670.154, 114.838
671.457, 158.236
672.760, 166.756
674.062, 116.244
675.365, 166.154
676.667, 44.031
677.969, 55.369
679.271, 89.383
680.572, 48.496
681.874, 15.227
683.175, 21.279
684.476, 58.305
685.777, 45.043
687.077, 27.357
688.378, 132.205
689.678, 186.922
690.978, 163.686
692.278, 6.457
693.577, 210.197
694.877, 285.717
696.176, 66.250
697.475, 326.590
698.774, 126.416
700.072, 384.254
701.371, 372.680
702.669, 59.797
703.967, 12.594
705.265, 359.867
706.562, 671.629
707.860, 401.857
709.157, 167.988
710.454, 676.027
711.751, 359.195
713.047, 702.557
714.344, 437.879
715.640, 641.898
716.936, 312.195
718.232, 527.613
719.527, 791.668
720.823, 759.650
722.118, 592.385
723.413, 674.832
724.708, 539.465
726.002, 631.602
727.297, 986.307
728.591, 520.645
729.885, 747.600
731.179, 702.789
732.472, 544.717
733.766, 523.682
735.059, 714.414
736.352, 717.854
737.645, 761.064
738.937, 862.812
740.230, 973.402
741.522, 820.248
742.814, 1042.555
744.106, 999.689
745.397, 1161.004
746.689, 1141.791
747.980, 976.875
749.271, 1259.301
750.562, 1249.904
751.853, 1636.211
753.143, 1153.189
754.433, 1498.137
755.723, 1602.068
757.013, 1449.096
758.303, 1961.988
759.592, 1860.691
760.881, 2136.875
762.170, 2185.258
763.459, 2503.059
764.748, 2769.184
766.036, 2653.400
767.325, 3446.457
768.613, 3090.184
769.901, 3822.869
771.188, 3842.746
772.476, 3948.637
773.763, 4337.643
775.050, 4212.660
776.337, 4941.350
777.624, 4742.070
778.910, 4958.992
780.196, 4949.449
781.482, 5148.324
782.768, 5023.186
784.054, 4838.543
785.339, 4909.961
786.625, 4838.246
787.910, 4477.045
789.195, 4688.551
790.479, 4115.729
791.764, 4143.869
793.048, 4051.971
794.332, 3657.221
795.616, 3636.248
796.900, 3373.479
798.183, 3496.330
799.467, 3064.652
800.750, 3058.531
802.033, 3062.129
803.316, 2725.043
804.598, 3302.645
805.880, 2493.529
807.163, 3192.172
808.445, 3111.420
809.726, 3042.338
811.008, 3267.504
812.289, 3569.586
813.570, 3350.449
814.851, 3799.834
816.132, 3978.168
817.413, 3906.455
818.693, 3729.260
819.973, 3974.834
821.253, 3425.092
822.533, 3197.518
823.813, 2997.689
825.092, 2362.621
826.371, 2181.791
827.650, 1966.387
828.929, 1699.121
830.208, 1643.689
831.486, 1497.463
832.764, 995.699
834.042, 993.002
835.320, 877.496
836.598, 847.223
837.875, 878.740
839.152, 563.178
840.429, 625.547
841.706, 823.795
842.983, 556.254
844.259, 473.186
845.536, 680.012
846.812, 293.150
848.088, 397.648
849.363, 264.971
850.639, 284.342
851.914, 348.826
853.189, 195.467
854.464, 241.180
855.739, 435.848
857.013, 649.205
858.288, 209.359
859.562, 268.975
860.836, 211.645
862.110, 414.301
863.383, 144.098
864.656, 480.727
865.930, 222.316
867.203, 76.924
868.475, 222.514
869.748, 292.096
871.020, 70.475
872.292, 285.037
873.564, 277.592
874.836, 31.137
876.108, 13.672
877.379, 57.814
878.650, 98.666
879.922, 102.729
881.192, 72.635
882.463, 86.381
883.733, 73.193
885.004, 19.072
886.274, 37.990
887.544, 11.955
888.813, 118.041
890.083, 46.979
891.352, 39.055
892.621, 99.818
893.890, 42.189
895.159, 14.531
896.427, 11.771
897.695, 16.047
898.964, 19.559
900.232, 67.699
901.499, 92.898
902.767, 43.477
904.034, 107.031
905.301, 184.391
906.568, 13.912
907.835, 311.570
909.102, 148.037
910.368, 185.484
911.634, 12.086
912.900, 92.312
914.166, 38.689
915.432, 340.047
916.697, 3.613
917.962, 177.303
919.227, 89.896
920.492, 72.926
921.757, 273.189
923.021, 110.291
924.285, 100.379
925.550, 64.449
926.813, 46.498
928.077, 41.480
929.341, 24.504
930.604, 51.436
931.867, 231.361
933.130, 44.273
934.393, 39.168
935.655, 327.045
936.918, 62.088
938.180, 230.730
939.442, 15.539
940.703, 75.326
941.965, 144.100
943.226, 190.861
944.488, 262.492
945.749, 96.352
947.009, 341.082
948.270, 80.807
949.530, 25.471
950.791, 13.221
952.051, 155.902
953.311, 43.428
954.570, 86.791
955.830, 124.787
957.089, 220.369
958.348, 68.951
959.607, 243.525
960.866, 373.102
962.124, 134.674
963.383, 154.322
964.641, 292.018
965.899, 276.727
967.156, 437.475
968.414, 359.227
969.671, 604.982
970.928, 598.754
972.185, 591.436
973.442, 546.391
974.699, 583.234
975.955, 586.111
977.211, 672.012
978.468, 519.947
979.723, 701.922
980.979, 657.928
982.234, 680.977
983.490, 1091.035
984.745, 766.148
986.000, 813.283
987.254, 1096.430
988.509, 770.580
989.763, 988.736
991.017, 972.918
992.271, 1010.105
993.525, 1075.299
994.779, 1114.529
996.032, 1377.760
997.285, 1269.049
998.538, 1588.336
999.791, 1342.680
1001.044, 1799.025
1002.296, 1664.387
1003.548, 1955.744
1004.800, 1724.990
1006.052, 1700.350
1007.304, 1797.705
1008.555, 1747.059
1009.807, 1948.379
1011.058, 1835.729
1012.309, 1950.055
1013.559, 2209.404
1014.810, 1954.459
1016.060, 1936.797
1017.310, 2117.133
1018.560, 2240.900
1019.810, 2076.223
1021.060, 2201.539
1022.309, 2581.281
1023.558, 2380.592
1024.807, 2535.900
1026.056, 2364.469
1027.305, 2535.828
1028.553, 2484.490
1029.801, 2460.141
1031.049, 2723.801
1032.297, 2481.619
1033.545, 2615.637
1034.793, 2747.430
1036.040, 2734.242
1037.287, 2632.051
1038.534, 2607.273
1039.781, 2635.258
1041.027, 3005.602
1042.274, 2509.395
1043.520, 2860.322
1044.766, 2763.973
1046.012, 2703.139
1047.257, 2708.453
1048.503, 2481.562
1049.748, 2928.172
1050.993, 2356.461
1052.238, 2692.381
1053.483, 2762.104
1054.727, 2534.090
1055.971, 2574.389
1057.216, 2906.691
1058.459, 2480.984
1059.703, 2477.154
1060.947, 2658.441
1062.190, 2532.031
1063.433, 2520.975
1064.676, 2765.689
1065.919, 2568.957
1067.162, 2496.873
1068.404, 2892.127
1069.646, 2539.059
1070.888, 2655.293
1072.130, 3096.539
1073.372, 2846.336
1074.613, 3090.693
1075.855, 3306.527
1077.096, 3235.299
1078.337, 3210.885
1079.578, 3912.904
1080.818, 3796.080
1082.059, 3991.115
1083.299, 4011.053
1084.539, 4045.510
1085.779, 4467.270
1087.018, 4186.320
1088.258, 4495.510
1089.497, 4665.359
1090.736, 4640.672
1091.975, 4817.096
1093.213, 4792.961
1094.452, 4646.926
1095.690, 5234.799
1096.928, 4718.742
1098.166, 5114.514
1099.404, 4983.650
1100.642, 5283.246
1101.879, 5042.352
1103.116, 5205.189
1104.353, 5044.312
1105.590, 5226.371
1106.827, 4952.000
1108.063, 5154.529
1109.299, 4819.465
1110.536, 5169.979
1111.771, 5035.898
1113.007, 4991.994
1114.243, 5164.785
1115.478, 5453.473
1116.713, 5067.184
1117.948, 5187.523
1119.183, 4980.070
1120.418, 4730.080
1121.652, 4923.812
1122.886, 5042.912
1124.120, 5099.146
1125.354, 5071.244
1126.588, 4646.102
1127.821, 4908.525
1129.055, 4603.535
1130.288, 4778.918
1131.521, 4747.723
1132.753, 4564.500
1133.986, 4466.801
1135.218, 4400.861
1136.450, 4822.125
1137.682, 4134.094
1138.914, 4437.500
1140.146, 4057.773
1141.377, 4010.604
1142.609, 3993.404
1143.840, 3878.723
1145.071, 3957.309
1146.301, 3831.293
1147.532, 3746.475
1148.762, 3651.746
1149.992, 3462.412
1151.222, 3445.168
1152.452, 3611.715
1153.682, 3605.830
1154.911, 3122.293
1156.140, 3126.480
1157.369, 2854.920
1158.598, 2975.734
1159.827, 2914.301
1161.055, 3033.895
1162.284, 2921.805
1163.512, 2704.877
1164.740, 2615.281
1165.967, 2524.121
1167.195, 2200.311
1168.422, 2610.803
1169.650, 2404.363
1170.877, 2495.154
1172.103, 1948.297
1173.330, 1825.078
1174.557, 2033.697
1175.783, 2034.473
1177.009, 1902.691
1178.235, 1346.285
1179.461, 1851.105
1180.686, 1608.357
1181.912, 1508.207
1183.137, 1737.199
1184.362, 1584.887
1185.587, 1395.479
1186.811, 1411.340
1188.036, 1350.176
1189.260, 1172.689
1190.484, 1146.621
1191.708, 1197.912
1192.932, 1261.957
1194.155, 1256.477
1195.378, 1417.938
1196.602, 1177.574
1197.825, 895.160
1199.047, 584.279
1200.270, 646.725
1201.492, 545.123
1202.715, 506.908
1203.937, 231.430
1205.159, 560.434
1206.380, 468.852
1207.602, 545.992
1208.823, 193.090
1210.044, 239.156
1211.265, 373.064
1212.486, 328.174
1213.707, 334.994
1214.927, 125.770
1216.147, 265.646
1217.367, 306.402
1218.587, 389.701
1219.807, 54.377
1221.027, 151.016
1222.246, 302.145
1223.465, 34.318
1224.684, 124.180
1225.903, 327.631
1227.121, 156.285
1228.340, 55.562
1229.558, 207.975
1230.776, 152.078
1231.994, 48.129
1233.212, 33.068
1234.429, 290.930
1235.646, 204.732
1236.864, 154.477
1238.081, 197.139
1239.297, 90.729
1240.514, 66.264
1241.730, 45.662
1242.947, 6.926
1244.163, 7.615
1245.378, 48.629
1246.594, 39.814
1247.810, 304.922
1249.025, 2.482
1250.240, 231.447
1251.455, 22.691
1252.670, 2.076
1253.885, 96.768
1255.099, 59.395
1256.313, 7.945
1257.527, 257.574
1258.741, 148.641
1259.955, 32.018
1261.168, 109.883
1262.382, 96.123
1263.595, 18.057
1264.808, 130.666
1266.021, 50.416
1267.233, 79.662
1268.446, 228.311
1269.658, 191.977
1270.870, 222.436
1272.082, 289.395
1273.294, 136.182
1274.505, 38.510
1275.716, 16.691
1276.928, 64.812
1278.139, 138.123
1279.349, 170.928
1280.560, 45.912
1281.770, 184.869
1282.981, 257.748
1284.191, 63.453
1285.401, 3.316
1286.610, 304.068
1287.820, 17.783
1289.029, 184.480
1290.239, 188.834
1291.448, 268.811
1292.656, 57.439
1293.865, 53.055
1295.073, 115.646
1296.282, 107.219
1297.490, 143.363
1298.698, 22.289
1299.906, 166.732
1301.113, 235.156
1302.320, 176.785
1303.528, 633.865
1304.735, 149.162
1305.942, 18.404
1307.148, 287.613
1308.355, 293.803
1309.561, 193.973
1310.767, 331.111
1311.973, 249.232
1313.179, 178.334
1314.384, 69.219
1315.590, 627.301
1316.795, 266.371
1318.000, 362.789
1319.205, 73.840
1320.410, 388.203
1321.614, 251.809
1322.819, 33.973
1324.023, 463.148
1325.227, 265.156
1326.431, 373.266
1327.634, 339.828
1328.838, 3.660
1330.041, 203.141
1331.244, 445.594
1332.447, 570.832
1333.650, 60.012
1334.852, 160.082
1336.055, 123.004
1337.257, 226.984
1338.459, 323.012
1339.661, 283.250
1340.862, 286.766
1342.064, 294.824
1343.265, 153.316
1344.466, 113.891
1345.667, 325.098
1346.868, 185.254
1348.068, 455.656
1349.269, 135.320
1350.469, 260.680
1351.669, 714.914
1352.869, 519.855
1354.069, 391.410
1355.268, 483.262
1356.468, 208.727
1357.667, 387.168
1358.866, 325.211
1360.065, 242.648
1361.263, 285.719
1362.462, 118.961
1363.660, 329.836
1364.858, 385.633
1366.056, 127.793
1367.254, 338.562
1368.451, 490.781
1369.649, 269.199
1370.846, 6.293
1372.043, 369.855
1373.240, 180.426
1374.436, 280.754
1375.633, 306.316
1376.829, 265.320
1378.025, 217.957
1379.221, 198.426
1380.417, 254.387
1381.613, 263.344
1382.808, 329.828
1384.003, 278.230
1385.199, 229.801
1386.393, 306.977
1387.588, 228.730
1388.783, 290.305
1389.977, 210.961
1391.171, 422.645
1392.365, 33.727
1393.559, 150.211
1394.753, 509.547
1395.946, 215.145
1397.140, 237.270
1398.333, 157.926
1399.526, 267.496
1400.719, 195.191
1401.911, 177.895
1403.104, 212.336
1404.296, 279.406
1405.488, 165.477
1406.680, 211.703
1407.872, 5.145
1409.063, 64.938
1410.255, 19.273
1411.446, 91.426
1412.637, 74.164
1413.828, 1.105
1415.018, 134.824
1416.209, 168.457
1417.399, 0.000
##END=



