##NAMES=Heulandite-Ca
##RRUFFID=R060465
##IDEAL CHEMISTRY=(Ca,Na,K)_5_(Si_27_Al_9_)O_72_&#183;26H_2_O
##LOCALITY=Garrawilla, near Gunnadah, New South Wales, Australia
##OWNER=RRUFF
##SOURCE=Michael Scott
##DESCRIPTION=Orange fan of platy crystals
##STATUS=The identification of this mineral has been confirmed by X-ray diffraction and chemical analysis
##URL=rruff.info/R060465
##MEASURED CHEMISTRY=(Ca_0.66_Na_0.24_K_0.10_)_5_(Si_0.77_Al_0.23_)_36_O_72_Â·24H_2_O
##PIN_ID=M01254
##ORIENTATION=Laser parallel to c* (0 0 1). Fiducial mark perpendicular to laser is parallel to a [1 0 0]
238.9720, 0.0000000E+00
240.1920, 0.6914060
241.4110, 3.410156
242.6300, 82.67969
243.8490, 134.2480
245.0680, 142.3926
246.2860, 195.5840
247.5040, 142.8477
248.7230, 2.628906
249.9410, 26.18359
251.1590, 124.9902
252.3760, 59.82422
253.5940, 181.0020
254.8110, 205.0566
256.0280, 258.9863
257.2450, 238.4941
258.4620, 157.3184
259.6790, 302.3555
260.8950, 375.6348
262.1120, 545.6504
263.3280, 510.8691
264.5440, 633.6035
265.7600, 319.7383
266.9750, 580.1758
268.1910, 359.8281
269.4060, 557.5938
270.6210, 804.4023
271.8360, 917.1738
273.0510, 866.8418
274.2650, 1054.344
275.4800, 1085.617
276.6940, 1121.605
277.9080, 1261.254
279.1220, 1237.551
280.3360, 1342.488
281.5490, 1239.039
282.7630, 1324.197
283.9760, 1077.975
285.1890, 1172.355
286.4020, 1128.301
287.6150, 1227.783
288.8270, 1289.777
290.0400, 1057.244
291.2520, 1214.148
292.4640, 1092.461
293.6760, 804.1523
294.8870, 848.1992
296.0990, 952.5723
297.3100, 813.2520
298.5210, 875.2129
299.7320, 735.4453
300.9430, 708.9219
302.1540, 582.6328
303.3640, 617.5586
304.5750, 529.6875
305.7850, 620.0020
306.9950, 290.4941
308.2050, 114.1465
309.4140, 450.9512
310.6240, 166.9062
311.8330, 201.9668
313.0420, 507.0273
314.2510, 361.1406
315.4600, 459.4062
316.6680, 658.9961
317.8770, 591.0020
319.0850, 525.5254
320.2930, 860.3379
321.5010, 813.2891
322.7090, 1045.436
323.9160, 890.9590
325.1240, 1052.988
326.3310, 1258.541
327.5380, 1386.512
328.7450, 1517.828
329.9520, 1467.439
331.1580, 1553.160
332.3650, 1666.918
333.5710, 1751.705
334.7770, 1973.590
335.9830, 1761.648
337.1880, 1875.775
338.3940, 1776.900
339.5990, 2071.002
340.8040, 1800.078
342.0090, 2358.125
343.2140, 2332.133
344.4190, 2305.104
345.6230, 2354.041
346.8280, 2511.064
348.0320, 3004.812
349.2360, 2905.648
350.4400, 3288.449
351.6430, 3454.217
352.8470, 3611.951
354.0500, 4217.648
355.2530, 4320.754
356.4560, 4530.102
357.6590, 4897.531
358.8620, 4902.080
360.0640, 5293.596
361.2660, 5774.068
362.4680, 6124.500
363.6700, 6436.891
364.8720, 7027.240
366.0740, 7124.543
367.2750, 7678.799
368.4760, 7943.010
369.6770, 8497.176
370.8780, 9046.291
372.0790, 9606.355
373.2800, 9877.375
374.4800, 10447.34
375.6800, 10928.25
376.8800, 11651.12
378.0800, 12146.95
379.2800, 12834.73
380.4790, 13490.49
381.6790, 14092.88
382.8780, 15098.32
384.0770, 16113.19
385.2760, 16842.02
386.4750, 17695.12
387.6730, 19071.49
388.8720, 19863.42
390.0700, 21220.04
391.2680, 22394.88
392.4660, 23462.83
393.6630, 24915.36
394.8610, 26080.12
396.0580, 27753.64
397.2550, 28633.57
398.4520, 29828.07
399.6490, 30506.52
400.8460, 31034.83
402.0420, 31718.06
403.2390, 31707.94
404.4350, 31588.98
405.6310, 31281.69
406.8270, 30763.43
408.0220, 29807.97
409.2180, 28423.83
410.4130, 27396.14
411.6080, 26246.00
412.8030, 25355.40
413.9980, 24021.83
415.1920, 22557.93
416.3870, 21444.14
417.5810, 19945.18
418.7750, 19195.66
419.9690, 17479.21
421.1630, 16487.46
422.3570, 15526.23
423.5500, 14359.25
424.7430, 13215.07
425.9360, 12060.97
427.1290, 11207.21
428.3220, 10364.85
429.5150, 9496.977
430.7070, 8750.387
431.8990, 7930.082
433.0910, 7260.344
434.2830, 6454.330
435.4750, 5702.785
436.6670, 5721.787
437.8580, 4996.525
439.0490, 4736.041
440.2400, 4393.051
441.4310, 4227.572
442.6220, 4152.725
443.8130, 3944.836
445.0030, 3888.938
446.1930, 3953.020
447.3830, 3956.086
448.5730, 4155.133
449.7630, 4234.156
450.9520, 4537.018
452.1420, 4823.135
453.3310, 5256.086
454.5200, 5777.010
455.7090, 6248.906
456.8980, 6950.777
458.0860, 7500.621
459.2740, 8263.441
460.4630, 9116.227
461.6510, 9829.977
462.8380, 10570.69
464.0260, 10864.36
465.2140, 11735.00
466.4010, 11820.59
467.5880, 12279.14
468.7750, 12416.65
469.9620, 12866.11
471.1490, 13324.53
472.3350, 13663.89
473.5220, 14144.19
474.7080, 15003.43
475.8940, 15452.62
477.0800, 16569.76
478.2650, 17596.83
479.4510, 18306.86
480.6360, 18873.82
481.8210, 19719.72
483.0060, 19838.56
484.1910, 19952.34
485.3760, 19482.06
486.5600, 18506.72
487.7440, 17662.32
488.9290, 16037.86
490.1130, 14787.34
491.2960, 13452.75
492.4800, 11418.10
493.6630, 10299.39
494.8470, 8608.623
496.0300, 7577.793
497.2130, 6373.895
498.3960, 5577.936
499.5780, 4728.916
500.7610, 4037.830
501.9430, 3559.680
503.1250, 2965.465
504.3070, 2490.789
505.4890, 2232.846
506.6710, 1693.441
507.8520, 1491.971
509.0330, 1317.436
510.2140, 1171.834
511.3950, 1078.801
512.5760, 951.6934
513.7570, 910.6875
514.9370, 686.9961
516.1170, 534.6152
517.2980, 466.7949
518.4780, 470.7363
519.6570, 412.4102
520.8370, 285.4707
522.0160, 405.7148
523.1960, 350.3828
524.3750, 337.4180
525.5540, 91.79102
526.7320, 6.298828
527.9110, 240.2207
529.0890, 22.30859
530.2680, 256.9219
531.4460, 91.15820
532.6240, 185.4121
533.8010, 163.4102
534.9790, 102.6250
536.1560, 107.9922
537.3340, 234.5137
538.5110, 189.9922
539.6880, 160.5996
540.8650, 59.92969
542.0410, 30.91992
543.2180, 0.6210940
544.3940, 57.19336
545.5700, 5.818359
546.7460, 61.06055
547.9220, 74.23047
549.0970, 211.3613
550.2730, 165.7090
551.4480, 186.1836
552.6230, 240.1113
553.7980, 119.0879
554.9730, 149.3496
556.1470, 157.9531
557.3210, 94.00586
558.4960, 89.74023
559.6700, 63.32812
560.8440, 94.61719
562.0170, 83.69922
563.1910, 111.2754
564.3640, 178.5176
565.5380, 70.17188
566.7110, 204.7461
567.8840, 169.8008
569.0560, 249.8340
570.2290, 134.1504
571.4010, 45.03125
572.5740, 9.843750
573.7460, 108.3828
574.9180, 125.8164
576.0890, 318.9883
577.2610, 428.5508
578.4320, 493.1113
579.6040, 547.6230
580.7750, 430.0605
581.9450, 546.9180
583.1160, 635.1230
584.2870, 688.2578
585.4570, 813.3242
586.6270, 946.9375
587.7980, 1083.424
588.9670, 1230.602
590.1370, 1199.504
591.3070, 1408.271
592.4760, 1626.779
593.6450, 1919.393
594.8140, 1983.969
595.9830, 2038.898
597.1520, 2330.584
598.3210, 2427.389
599.4890, 2715.621
600.6570, 3026.662
601.8250, 3142.344
602.9930, 3698.941
604.1610, 3947.086
605.3290, 4051.676
606.4960, 4139.047
607.6630, 4569.523
608.8300, 4703.781
609.9970, 4798.283
611.1640, 4851.477
612.3300, 4586.688
613.4970, 4618.566
614.6630, 4456.367
615.8290, 4136.107
616.9950, 4263.930
618.1610, 3837.584
619.3260, 3523.180
620.4920, 3433.719
621.6570, 2904.176
622.8220, 2806.561
623.9870, 2585.857
625.1520, 2511.066
626.3160, 2395.188
627.4810, 2096.217
628.6450, 1967.160
629.8090, 1903.016
630.9730, 1713.779
632.1370, 1628.883
633.3000, 1500.262
634.4640, 1436.559
635.6270, 1258.871
636.7900, 1225.525
637.9530, 1126.732
639.1160, 1075.926
640.2780, 1014.072
641.4410, 957.1484
642.6030, 794.1348
643.7650, 989.0508
644.9270, 1003.879
646.0890, 903.6621
647.2500, 1044.395
648.4120, 740.0332
649.5730, 742.6152
650.7340, 579.1055
651.8950, 581.8867
653.0560, 542.9570
654.2160, 690.9863
655.3770, 602.0938
656.5370, 692.1016
657.6970, 930.0156
658.8570, 619.8340
660.0170, 597.5137
661.1760, 614.5352
662.3360, 738.9434
663.4950, 632.0020
664.6540, 533.8848
665.8130, 632.4688
666.9720, 465.1055
668.1310, 465.2090
669.2890, 495.4043
670.4470, 556.3242
671.6050, 359.7617
672.7630, 439.1250
673.9210, 267.5977
675.0790, 466.6660
676.2360, 713.1914
677.3930, 375.5742
678.5510, 581.5488
679.7080, 456.1758
680.8640, 184.9297
682.0210, 467.8945
683.1770, 293.9824
684.3340, 257.4746
685.4900, 249.8477
686.6460, 465.6504
687.8020, 197.3555
688.9570, 378.2617
690.1130, 146.9688
691.2680, 382.0996
692.4230, 552.7070
693.5780, 365.0801
694.7330, 101.4922
695.8880, 386.6328
697.0420, 495.9570
698.1960, 168.8066
699.3510, 288.1719
700.5040, 328.6094
701.6580, 485.2773
702.8120, 294.4551
703.9650, 175.7715
705.1190, 166.1914
706.2720, 268.5078
707.4250, 249.3730
708.5780, 493.9531
709.7300, 131.2090
710.8830, 186.4531
712.0350, 467.7090
713.1870, 465.9785
714.3390, 41.08008
715.4910, 376.2031
716.6430, 117.6504
717.7940, 364.7988
718.9460, 126.2266
720.0970, 140.4512
721.2480, 269.6680
722.3990, 150.4980
723.5500, 146.6387
724.7000, 235.1445
725.8500, 244.4258
727.0010, 297.9824
728.1510, 341.7949
729.3010, 362.8770
730.4500, 410.5020
731.6000, 365.1484
732.7490, 352.6309
733.8980, 247.9199
735.0470, 286.0703
736.1960, 238.8301
737.3450, 354.1914
738.4940, 379.1230
739.6420, 442.9375
740.7900, 507.4551
741.9380, 314.7129
743.0860, 425.1133
744.2340, 581.4141
745.3810, 183.4531
746.5290, 465.4336
747.6760, 386.9277
748.8230, 382.9355
749.9700, 465.8984
751.1170, 511.8496
752.2630, 593.9707
753.4100, 504.5137
754.5560, 453.1055
755.7020, 573.7930
756.8480, 511.0137
757.9940, 700.3242
759.1390, 795.4316
760.2850, 957.0469
761.4300, 1046.311
762.5750, 1026.359
763.7200, 910.3555
764.8650, 1064.176
766.0100, 1074.859
767.1540, 1185.666
768.2980, 1103.225
769.4420, 1078.500
770.5860, 1181.195
771.7300, 1198.543
772.8740, 1224.764
774.0170, 1178.422
775.1610, 1126.396
776.3040, 1300.555
777.4470, 1325.664
778.5900, 1460.057
779.7320, 1326.221
780.8750, 1312.434
782.0170, 1372.961
783.1590, 1273.600
784.3010, 1315.531
785.4430, 1239.643
786.5850, 1262.391
787.7260, 1080.295
788.8680, 1045.984
790.0090, 928.2988
791.1500, 1052.041
792.2910, 1106.506
793.4310, 1204.396
794.5720, 817.2539
795.7120, 1064.811
796.8520, 769.8047
797.9920, 977.0176
799.1320, 797.1914
800.2720, 658.9668
801.4120, 600.4238
802.5510, 669.6953
803.6900, 867.8262
804.8290, 680.0000
805.9680, 815.2578
807.1070, 704.6934
808.2450, 666.7324
809.3840, 765.1680
810.5220, 649.8730
811.6600, 576.5527
812.7980, 719.8203
813.9360, 574.7207
815.0730, 715.0957
816.2110, 628.4102
817.3480, 514.6816
818.4850, 607.1328
819.6220, 619.0176
820.7590, 544.3438
821.8960, 569.0410
823.0320, 429.6934
824.1680, 503.3828
825.3040, 455.8809
826.4400, 419.2949
827.5760, 514.6250
828.7120, 435.1816
829.8470, 356.5527
830.9830, 93.17188
832.1180, 228.2891
833.2530, 151.3438
834.3880, 294.6621
835.5220, 291.5938
836.6570, 47.03320
837.7910, 252.6562
838.9250, 231.8555
840.0590, 20.22461
841.1930, 134.0195
842.3270, 121.7207
843.4600, 132.7852
844.5940, 14.70117
845.7270, 155.4766
846.8600, 295.8652
847.9930, 99.44727
849.1250, 176.1211
850.2580, 46.73242
851.3900, 1.558594
852.5230, 131.5859
853.6550, 121.4199
854.7870, 3.423828
855.9180, 66.82227
857.0500, 2.847656
858.1810, 124.9707
859.3130, 48.52734
860.4440, 162.9941
861.5750, 194.7676
862.7050, 107.5156
863.8360, 261.4199
864.9660, 49.55469
866.0970, 26.56641
867.2270, 28.51562
868.3570, 36.33398
869.4870, 48.03320
870.6160, 56.22656
871.7460, 6.484375
872.8750, 199.5176
874.0040, 44.94336
875.1330, 49.40820
876.2620, 184.9238
877.3910, 141.6211
878.5190, 85.46875
879.6470, 91.28320
880.7760, 131.0039
881.9040, 89.96680
883.0310, 13.09766
884.1590, 72.76562
885.2870, 300.3574
886.4140, 43.24805
887.5410, 5.910156
888.6680, 94.14844
889.7950, 160.5078
890.9220, 132.1484
892.0480, 94.80859
893.1750, 98.25391
894.3010, 1.501953
895.4270, 43.48047
896.5530, 16.44922
897.6790, 46.31445
898.8040, 37.11914
899.9300, 57.27344
901.0550, 68.55078
902.1800, 17.17773
903.3050, 55.74805
904.4300, 22.74219
905.5540, 79.30859
906.6790, 43.98047
907.8030, 50.26367
908.9270, 162.4492
910.0510, 44.41602
911.1750, 239.6348
912.2990, 162.3633
913.4220, 57.50391
914.5450, 4.736328
915.6690, 59.02734
916.7920, 17.40430
917.9140, 165.8477
919.0370, 140.8711
920.1600, 108.8555
921.2820, 128.9082
922.4040, 81.21094
923.5260, 198.2812
924.6480, 29.30469
925.7700, 15.71484
926.8910, 56.21289
928.0130, 82.08789
929.1340, 157.9199
930.2550, 354.7129
931.3760, 474.4609
932.4970, 150.1738
933.6170, 12.15430
934.7380, 110.4688
935.8580, 60.04688
936.9780, 0.4160160
938.0980, 97.07812
939.2180, 144.5312
940.3370, 103.9492
941.4570, 80.33008
942.5760, 253.6758
943.6950, 160.9863
944.8140, 41.73047
945.9330, 209.4980
947.0520, 55.69922
948.1700, 133.8652
949.2890, 194.9941
950.4070, 187.0898
951.5250, 81.15625
952.6430, 373.1836
953.7600, 167.2773
954.8780, 384.0000
955.9950, 487.1016
957.1120, 594.5039
958.2290, 548.0273
959.3460, 420.6719
960.4630, 257.5078
961.5800, 391.1992
962.6960, 539.9766
963.8120, 692.6992
964.9280, 486.0625
966.0440, 247.3047
967.1600, 369.0898
968.2760, 241.5352
969.3910, 605.5469
970.5060, 607.5312
971.6210, 748.3164
972.7360, 523.0859
973.8510, 702.7500
974.9660, 574.9336
976.0800, 458.1484
977.1950, 826.2852
978.3090, 654.4727
979.4230, 859.5039
980.5370, 884.7930
981.6500, 741.6797
982.7640, 635.7266
983.8770, 615.1562
984.9900, 918.9219
986.1030, 963.0977
987.2160, 1014.344
988.3290, 1069.035
989.4420, 1211.559
990.5540, 954.7422
991.6660, 1007.301
992.7780, 1361.562
993.8900, 1196.477
995.0020, 945.9180
996.1140, 1269.480
997.2250, 1024.672
998.3360, 1304.492
999.4470, 1098.902
1000.558, 1411.809
1001.669, 1250.543
1002.780, 1415.340
1003.890, 1585.262
1005.001, 1425.234
1006.111, 1495.523
1007.221, 1703.105
1008.331, 1520.027
1009.440, 1501.965
1010.550, 1623.105
1011.659, 1665.418
1012.768, 1887.488
1013.877, 1540.602
1014.986, 1593.895
1016.095, 1562.141
1017.204, 1836.785
1018.312, 1959.859
1019.420, 1954.941
1020.528, 1677.941
1021.636, 1989.680
1022.744, 1559.910
1023.852, 1829.008
1024.959, 1808.914
1026.066, 1589.199
1027.173, 1611.309
1028.280, 1636.535
1029.387, 1806.160
1030.494, 1535.059
1031.600, 1718.086
1032.707, 1650.078
1033.813, 1672.160
1034.919, 1814.297
1036.025, 1722.891
1037.130, 1588.312
1038.236, 1658.605
1039.341, 1701.395
1040.446, 1673.457
1041.552, 1646.555
1042.656, 1652.582
1043.761, 1582.316
1044.866, 1572.234
1045.970, 1551.125
1047.074, 1408.301
1048.179, 1473.328
1049.282, 1307.875
1050.386, 1471.027
1051.490, 1585.992
1052.593, 1397.590
1053.697, 1354.070
1054.800, 1598.551
1055.903, 1271.941
1057.006, 1719.844
1058.108, 1371.059
1059.211, 1752.598
1060.313, 1665.957
1061.415, 1480.441
1062.517, 1595.262
1063.619, 1718.484
1064.721, 1494.715
1065.823, 1579.559
1066.924, 1472.441
1068.025, 1608.164
1069.126, 1615.691
1070.227, 1627.926
1071.328, 1665.648
1072.429, 1673.285
1073.529, 1735.391
1074.629, 1718.102
1075.729, 1761.406
1076.829, 1806.410
1077.929, 1890.594
1079.029, 1934.922
1080.128, 1971.641
1081.228, 2002.711
1082.327, 2310.059
1083.426, 2184.391
1084.525, 2252.309
1085.623, 2546.695
1086.722, 2537.016
1087.820, 2587.418
1088.919, 2745.832
1090.017, 2697.258
1091.115, 2765.691
1092.212, 2684.145
1093.310, 2747.793
1094.407, 2919.070
1095.505, 2883.547
1096.602, 2922.043
1097.699, 3080.555
1098.795, 3349.078
1099.892, 3211.613
1100.989, 3303.180
1102.085, 3362.754
1103.181, 3154.344
1104.277, 3128.957
1105.373, 3300.582
1106.469, 3497.227
1107.564, 3215.000
1108.660, 3559.844
1109.755, 3493.008
1110.850, 3745.863
1111.945, 3523.609
1113.040, 3648.844
1114.134, 3658.727
1115.229, 3933.270
1116.323, 3888.086
1117.417, 4022.855
1118.511, 3966.766
1119.605, 4012.652
1120.698, 4046.594
1121.792, 4052.383
1122.885, 4524.395
1123.978, 4386.266
1125.071, 4422.625
1126.164, 4051.953
1127.257, 4053.039
1128.349, 3870.141
1129.442, 3959.254
1130.534, 3806.387
1131.626, 3757.473
1132.718, 3854.680
1133.810, 4134.051
1134.901, 4285.973
1135.993, 3956.445
1137.084, 4087.004
1138.175, 4030.289
1139.266, 3939.590
1140.357, 4067.902
1141.448, 4086.234
1142.538, 3965.914
1143.628, 3697.336
1144.719, 4036.148
1145.809, 4060.988
1146.898, 3887.477
1147.988, 4008.012
1149.078, 3865.617
1150.167, 3850.754
1151.256, 3878.328
1152.345, 4030.090
1153.434, 3803.699
1154.523, 4020.648
1155.612, 3566.363
1156.700, 3684.137
1157.788, 3793.152
1158.877, 3662.004
1159.964, 3686.879
1161.052, 3525.176
1162.140, 3580.094
1163.227, 3459.051
1164.315, 3285.020
1165.402, 3457.996
1166.489, 3334.992
1167.576, 3344.004
1168.663, 3155.023
1169.749, 3165.074
1170.836, 3116.156
1171.922, 3007.316
1173.008, 2894.676
1174.094, 2817.812
1175.180, 2827.984
1176.265, 2674.160
1177.351, 2634.883
1178.436, 2494.660
1179.521, 2483.934
1180.606, 2436.242
1181.691, 2370.566
1182.776, 1940.949
1183.860, 2187.375
1184.944, 2038.816
1186.029, 2032.297
1187.113, 2234.789
1188.197, 1874.289
1189.280, 1908.801
1190.364, 1711.324
1191.447, 1764.863
1192.531, 1562.406
1193.614, 1611.961
1194.697, 1543.520
1195.779, 1544.082
1196.862, 1328.652
1197.945, 1143.238
1199.027, 943.8281
1200.109, 1075.430
1201.191, 912.0391
1202.273, 643.6602
1203.355, 841.2852
1204.436, 853.9180
1205.518, 549.5625
1206.599, 774.2031
1207.680, 816.8555
1208.761, 554.5195
1209.842, 606.1914
1210.922, 541.8711
1212.003, 542.5547
1213.083, 299.2422
1214.163, 446.9375
1215.243, 218.6367
1216.323, 456.3438
1217.402, 262.0508
1218.482, 389.7656
1219.561, 122.4805
1220.641, 212.1992
1221.720, 228.9570
1222.798, 37.68359
1223.877, 129.4180
1224.956, 165.1445
1226.034, 178.8828
1227.112, 190.6367
1228.191, 163.3555
1229.269, 171.1055
1230.346, 164.9961
1231.424, 163.6562
1232.501, 155.2891
1233.579, 152.0469
1234.656, 145.8047
1235.733, 98.23828
1236.810, 27.32422
1237.886, 18.12500
1238.963, 96.07031
1240.039, 185.3203
1241.116, 249.3359
1242.192, 93.00781
1243.268, 43.45703
1244.343, 317.9375
1245.419, 72.49609
1246.494, 9.070313
1247.570, 176.6445
1248.645, 392.2500
1249.720, 146.5820
1250.795, 218.0977
1251.869, 195.1055
1252.944, 200.6680
1254.018, 159.5781
1255.093, 25.57812
1256.167, 269.8359
1257.240, 126.0156
1258.314, 144.3281
1259.388, 195.0430
1260.461, 132.5352
1261.535, 146.3672
1262.608, 61.26953
1263.681, 94.83203
1264.753, 4.000000
1265.826, 87.17969
1266.899, 113.6094
1267.971, 241.4023
1269.043, 198.1875
1270.115, 442.1836
1271.187, 42.42969
1272.259, 125.4570
1273.330, 131.5039
1274.402, 29.18750
1275.473, 177.8750
1276.544, 201.5547
1277.615, 123.7656
1278.686, 163.1797
1279.756, 138.3047
1280.827, 80.78516
1281.897, 201.2539
1282.967, 53.77734
1284.037, 254.7617
1285.107, 315.5586
1286.177, 79.99609
1287.247, 458.4414
1288.316, 374.8672
1289.385, 38.29688
1290.454, 304.7188
1291.523, 166.5234
1292.592, 205.9297
1293.661, 355.3281
1294.729, 280.7227
1295.797, 146.8750
1296.866, 368.3555
1297.934, 434.8711
1299.001, 474.2148
1300.069, 281.5508
1301.137, 84.84766
1302.204, 407.1523
1303.271, 561.9648
1304.338, 541.2461
1305.405, 479.5156
1306.472, 446.7656
1307.539, 425.1602
1308.605, 290.2227
1309.671, 374.4297
1310.737, 377.6250
1311.803, 328.7969
1312.869, 549.9531
1313.935, 305.0977
1315.000, 275.2305
1316.066, 214.3594
1317.131, 578.4688
1318.196, 608.5742
1319.261, 601.6641
1320.326, 516.7500
1321.390, 482.8203
1322.455, 432.0391
1323.519, 409.9258
1324.583, 389.9648
1325.647, 320.9883
1326.711, 438.0000
1327.775, 316.0000
1328.838, 449.9883
1329.902, 547.9648
1330.965, 501.9258
1332.028, 406.8789
1333.091, 385.8125
1334.153, 506.7383
1335.216, 308.6445
1336.279, 542.5391
1337.341, 197.4141
1338.403, 622.2773
1339.465, 497.1250
1340.527, 468.4609
1341.588, 557.2812
1342.650, 344.0703
1343.711, 370.8516
1344.772, 416.6250
1345.834, 382.3789
1346.894, 294.1133
1347.955, 304.8320
1349.016, 196.5312
1350.076, 490.2109
1351.136, 326.8789
1352.197, 440.5352
1353.257, 252.2148
1354.316, 363.8438
1355.376, 447.4648
1356.436, 292.0664
1357.495, 60.65625
1358.554, 272.2305
1359.613, 312.0664
1360.672, 307.6211
1361.731, 420.1641
1362.789, 407.6953
1363.848, 473.5195
1364.906, 438.5234
1365.964, 536.8281
1367.022, 529.8008
1368.080, 399.0820
1369.138, 243.4844
1370.195, 30.51562
1371.253, 292.7852
1372.310, 532.3828
1373.367, 246.7109
1374.424, 292.0508
1375.480, 56.31250
1376.537, 263.6055
1377.593, 289.8945
1378.650, 298.3516
1379.706, 174.6211
1380.762, 181.1875
1381.818, 8.273438
1382.873, 98.91406
1383.929, 118.1445
1384.984, 86.39844
1386.039, 9.617188
1387.094, 180.8164
1388.149, 235.0938
1389.204, 200.2734
1390.259, 321.2031
1391.313, 270.6484
1392.367, 396.0625
1393.422, 232.9219
1394.476, 192.5547
1395.529, 174.6992
1396.583, 108.2266
