##NAMES=Heulandite-Ca
##RRUFFID=R060465
##IDEAL CHEMISTRY=(Ca,Na,K)_5_(Si_27_Al_9_)O_72_&#183;26H_2_O
##LOCALITY=Garrawilla, near Gunnadah, New South Wales, Australia
##OWNER=RRUFF
##SOURCE=Michael Scott
##DESCRIPTION=Orange fan of platy crystals
##STATUS=The identification of this mineral has been confirmed by X-ray diffraction and chemical analysis
##URL=rruff.info/R060465
##MEASURED CHEMISTRY=(Ca_0.66_Na_0.24_K_0.10_)_5_(Si_0.77_Al_0.23_)_36_O_72_Â·24H_2_O
##PIN_ID=M01887
##ORIENTATION=Laser parallel to b* (0 1 0). Fiducial mark perpendicular to laser is parallel to -c [0 0 -1]
82.00300, 0.0000000E+00
83.24300, 89.49719
84.48300, 85.86194
85.72200, 28.04968
86.96100, 32.74219
88.20000, 35.90576
89.43900, 174.1035
90.67800, 416.2471
91.91600, 765.2222
93.15500, 1019.894
94.39300, 1551.795
95.63100, 1871.958
96.86900, 2346.822
98.10600, 2796.146
99.34400, 3417.903
100.5810, 3723.222
101.8190, 4144.335
103.0560, 4434.564
104.2930, 4921.311
105.5290, 5546.057
106.7660, 6085.358
108.0020, 6746.835
109.2390, 6861.175
110.4750, 6708.161
111.7110, 6862.610
112.9460, 7083.333
114.1820, 7486.113
115.4170, 7535.739
116.6530, 7769.017
117.8880, 7842.782
119.1230, 8108.880
120.3580, 7957.106
121.5920, 8141.257
122.8270, 8341.174
124.0610, 8404.738
125.2950, 8578.851
126.5290, 8604.422
127.7630, 8882.385
128.9970, 8985.674
130.2300, 9139.237
131.4640, 9238.026
132.6970, 9529.998
133.9300, 9620.122
135.1630, 9958.420
136.3950, 10050.25
137.6280, 9918.512
138.8600, 10390.12
140.0920, 10348.28
141.3240, 10177.77
142.5560, 10340.42
143.7880, 10202.93
145.0190, 9920.347
146.2510, 9662.495
147.4820, 9279.355
148.7130, 8940.910
149.9440, 8403.152
151.1750, 8015.073
152.4050, 7584.656
153.6360, 7311.892
154.8660, 7014.771
156.0960, 6850.069
157.3260, 6297.167
158.5560, 6273.137
159.7850, 6053.128
161.0150, 5599.225
162.2440, 5592.490
163.4730, 5398.975
164.7020, 5160.722
165.9310, 4987.760
167.1590, 4723.120
168.3880, 4559.822
169.6160, 4506.884
170.8440, 4225.323
172.0720, 4069.146
173.3000, 3992.368
174.5280, 3788.994
175.7550, 3802.034
176.9820, 3515.489
178.2100, 3428.362
179.4370, 3357.658
180.6630, 3261.377
181.8900, 3036.520
183.1170, 3032.084
184.3430, 2865.069
185.5690, 2723.754
186.7950, 2840.575
188.0210, 2854.224
189.2470, 2666.797
190.4720, 2662.493
191.6970, 2533.018
192.9230, 2551.910
194.1480, 2488.771
195.3730, 2558.152
196.5970, 2527.301
197.8220, 2503.906
199.0460, 2499.551
200.2700, 2488.595
201.4940, 2483.865
202.7180, 2304.447
203.9420, 2134.740
205.1660, 2036.973
206.3890, 1977.749
207.6120, 1800.895
208.8350, 1938.331
210.0580, 1880.123
211.2810, 1862.266
212.5040, 1765.752
213.7260, 1789.578
214.9480, 1649.736
216.1700, 1632.220
217.3920, 1513.027
218.6140, 1605.151
219.8360, 1562.592
221.0570, 1526.342
222.2790, 1614.400
223.5000, 1558.762
224.7210, 1547.425
225.9410, 1701.383
227.1620, 1830.645
228.3820, 1566.198
229.6030, 1709.509
230.8230, 1656.700
232.0430, 1722.840
233.2630, 1657.625
234.4820, 1597.064
235.7020, 1696.463
236.9210, 1823.066
238.1400, 1880.762
239.3590, 1943.354
240.5780, 1953.118
241.7970, 1990.625
243.0150, 1940.950
244.2340, 1896.072
245.4520, 1936.924
246.6700, 2019.467
247.8880, 1947.676
249.1060, 1984.510
250.3230, 1969.934
251.5400, 1848.930
252.7580, 1828.459
253.9750, 1686.517
255.1920, 1711.084
256.4080, 1648.138
257.6250, 1609.667
258.8410, 1568.940
260.0580, 1608.056
261.2740, 1440.935
262.4900, 1256.254
263.7050, 1155.961
264.9210, 1150.039
266.1360, 1130.537
267.3520, 946.4053
268.5670, 839.6592
269.7820, 870.2529
270.9960, 774.1914
272.2110, 689.4658
273.4250, 540.0820
274.6400, 503.3896
275.8540, 468.2676
277.0680, 405.8115
278.2810, 395.6465
279.4950, 358.7646
280.7090, 302.1729
281.9220, 177.8535
283.1350, 223.7998
284.3480, 102.0273
285.5610, 30.51172
286.7730, 13.74414
287.9860, 70.23730
289.1980, 38.45020
290.4100, 16.88672
291.6220, 39.46094
292.8340, 130.5986
294.0460, 143.5381
295.2570, 194.0020
296.4690, 148.8574
297.6800, 233.2461
298.8910, 157.4688
300.1020, 132.5186
301.3120, 91.39551
302.5230, 107.7285
303.7330, 107.8193
304.9440, 164.9785
306.1540, 162.1611
307.3630, 171.1768
308.5730, 223.0254
309.7830, 311.7158
310.9920, 163.2588
312.2010, 171.6396
313.4100, 203.8584
314.6190, 105.9209
315.8280, 163.8174
317.0370, 203.5566
318.2450, 126.3037
319.4530, 154.5762
320.6610, 36.85254
321.8690, 20.96582
323.0770, 2.084961
324.2850, 13.88086
325.4920, 125.3193
326.6990, 54.79297
327.9060, 9.114258
329.1130, 99.28027
330.3200, 64.69922
331.5270, 0.1699220
332.7330, 211.1123
333.9390, 112.5234
335.1450, 206.0371
336.3510, 36.64453
337.5570, 147.3604
338.7630, 206.1943
339.9680, 326.1348
341.1740, 369.1709
342.3790, 485.2656
343.5840, 460.4541
344.7890, 632.7363
345.9930, 569.1016
347.1980, 733.5645
348.4020, 695.1523
349.6060, 807.8721
350.8100, 900.6953
352.0140, 879.6328
353.2180, 887.6982
354.4210, 1032.891
355.6250, 1187.212
356.8280, 1242.657
358.0310, 1415.229
359.2340, 1491.921
360.4360, 1531.735
361.6390, 1756.669
362.8410, 1803.721
364.0430, 1917.889
365.2450, 2145.173
366.4470, 2258.569
367.6490, 2482.080
368.8510, 2521.461
370.0520, 2838.191
371.2530, 2826.030
372.4540, 3056.303
373.6550, 3345.514
374.8560, 3445.779
376.0560, 3627.258
377.2570, 3945.452
378.4570, 4081.365
379.6570, 4324.817
380.8570, 4579.096
382.0570, 4771.555
383.2560, 5078.734
384.4560, 5463.109
385.6550, 5874.543
386.8540, 6253.238
388.0530, 6676.454
389.2520, 7120.209
390.4510, 7525.684
391.6490, 8023.802
392.8470, 8499.308
394.0450, 8853.114
395.2430, 9341.911
396.4410, 9879.377
397.6390, 10213.46
398.8360, 10602.26
400.0340, 11025.60
401.2310, 11191.65
402.4280, 11382.23
403.6250, 11418.61
404.8210, 11211.15
406.0180, 11030.18
407.2140, 10672.57
408.4100, 10255.18
409.6060, 9658.938
410.8020, 9194.096
411.9980, 8552.061
413.1930, 8175.280
414.3890, 7656.562
415.5840, 7069.465
416.7790, 6617.111
417.9740, 6104.200
419.1680, 5764.082
420.3630, 5230.896
421.5570, 4839.523
422.7510, 4390.899
423.9450, 4044.056
425.1390, 3652.618
426.3330, 3308.090
427.5270, 3092.632
428.7200, 2740.387
429.9130, 2403.156
431.1060, 2213.439
432.2990, 2060.661
433.4920, 1841.932
434.6840, 1692.318
435.8770, 1437.258
437.0690, 1191.672
438.2610, 1364.798
439.4530, 1137.726
440.6450, 1170.175
441.8360, 932.2354
443.0280, 1041.513
444.2190, 908.4346
445.4100, 1029.407
446.6010, 926.9873
447.7920, 985.5830
448.9820, 1004.671
450.1730, 926.8438
451.3630, 1095.755
452.5530, 968.1465
453.7430, 1266.692
454.9330, 1505.838
456.1230, 1570.735
457.3120, 1827.690
458.5010, 2055.458
459.6910, 2170.583
460.8800, 2452.542
462.0680, 2424.760
463.2570, 2902.148
464.4460, 3037.684
465.6340, 3355.569
466.8220, 3368.925
468.0100, 3592.479
469.1980, 3732.697
470.3860, 3929.829
471.5730, 3994.036
472.7600, 4379.993
473.9480, 4570.705
475.1350, 4964.135
476.3210, 5263.789
477.5080, 5602.687
478.6950, 5859.499
479.8810, 6228.334
481.0670, 6424.192
482.2530, 6458.072
483.4390, 6185.973
484.6250, 6124.894
485.8100, 5765.834
486.9960, 5517.793
488.1810, 5078.772
489.3660, 4679.767
490.5510, 4208.780
491.7360, 3625.810
492.9200, 3092.854
494.1050, 2726.914
495.2890, 2318.986
496.4730, 1970.072
497.6570, 1560.172
498.8400, 1444.281
500.0240, 954.4004
501.2070, 949.5303
502.3910, 678.6680
503.5740, 711.8145
504.7570, 500.9688
505.9400, 574.1279
507.1220, 349.2930
508.3050, 484.4629
509.4870, 272.6367
510.6690, 95.81348
511.8510, 362.9824
513.0330, 162.1553
514.2140, 125.4219
515.3960, 138.5889
516.5770, 172.6523
517.7580, 193.9922
518.9390, 48.42969
520.1200, 164.1211
521.3010, 91.42285
522.4810, 219.0479
523.6610, 183.2314
524.8420, 8.279297
526.0220, 31.53027
527.2010, 64.39648
528.3810, 17.13965
529.5610, 134.1553
530.7400, 44.38477
531.9190, 42.42773
533.0980, 86.51855
534.2770, 52.58594
535.4560, 17.29297
536.6340, 45.93555
537.8120, 11.57715
538.9910, 47.42773
540.1690, 55.81250
541.3460, 26.22266
542.5240, 51.46289
543.7020, 14.16504
544.8790, 32.14355
546.0560, 184.8496
547.2330, 138.4238
548.4100, 34.48340
549.5870, 60.68457
550.7630, 191.1182
551.9400, 23.66602
553.1160, 119.6328
554.2920, 38.83203
555.4680, 16.55566
556.6440, 7.302734
557.8190, 51.39355
558.9950, 1.544922
560.1700, 33.18750
561.3450, 74.41602
562.5200, 72.27246
563.6950, 109.7158
564.8690, 26.71094
566.0440, 100.2207
567.2180, 107.2803
568.3920, 10.31836
569.5660, 77.37109
570.7400, 27.86523
571.9130, 125.5000
573.0870, 138.7158
574.2600, 179.7607
575.4330, 225.4961
576.6060, 223.1162
577.7790, 206.0029
578.9520, 264.9238
580.1240, 255.7139
581.2960, 354.4707
582.4690, 450.6416
583.6410, 520.9102
584.8120, 417.5840
585.9840, 449.2256
587.1560, 501.8271
588.3270, 516.3428
589.4980, 572.3545
590.6690, 666.4199
591.8400, 681.9248
593.0110, 795.3613
594.1810, 878.9453
595.3510, 796.3467
596.5220, 1071.716
597.6920, 1054.054
598.8610, 1156.477
600.0310, 1350.748
601.2010, 1419.986
602.3700, 1500.198
603.5390, 1750.371
604.7080, 1778.511
605.8770, 1931.603
607.0460, 1942.646
608.2140, 2055.639
609.3830, 2209.580
610.5510, 2108.562
611.7190, 2043.435
612.8870, 2120.256
614.0550, 2210.035
615.2220, 2158.765
616.3900, 2129.441
617.5570, 1968.067
618.7240, 1928.637
619.8910, 1964.150
621.0580, 1807.614
622.2240, 1811.019
623.3910, 1654.367
624.5570, 1471.659
625.7230, 1243.762
626.8890, 1213.826
628.0550, 1175.783
629.2200, 1130.119
630.3860, 1053.929
631.5510, 1017.000
632.7160, 964.2725
633.8810, 910.8359
635.0460, 879.2607
636.2100, 807.2764
637.3750, 853.9961
638.5390, 727.5781
639.7030, 858.0986
640.8670, 937.5586
642.0310, 799.9570
643.1950, 723.2959
644.3580, 700.5723
645.5210, 746.7969
646.6850, 652.9619
647.8480, 642.0645
649.0100, 586.1045
650.1730, 618.0820
651.3350, 624.2393
652.4980, 625.0938
653.6600, 507.8848
654.8220, 557.2852
655.9840, 400.7920
657.1450, 494.3896
658.3070, 477.9248
659.4680, 347.8838
660.6300, 379.2568
661.7910, 351.2139
662.9510, 386.4561
664.1120, 398.6250
665.2730, 373.1748
666.4330, 402.6328
667.5930, 345.1279
668.7530, 249.7959
669.9130, 292.9121
671.0730, 339.7412
672.2320, 216.5156
673.3920, 249.7119
674.5510, 349.5869
675.7100, 328.2324
676.8690, 238.1719
678.0280, 259.0674
679.1860, 166.6240
680.3450, 256.5215
681.5030, 139.9365
682.6610, 228.7129
683.8190, 216.0107
684.9770, 307.5498
686.1340, 257.9814
687.2920, 151.0059
688.4490, 129.7256
689.6060, 123.6992
690.7630, 90.70605
691.9200, 143.7773
693.0760, 153.0674
694.2330, 196.1387
695.3890, 213.0293
696.5450, 234.6855
697.7010, 206.4805
698.8570, 223.2510
700.0130, 154.4775
701.1680, 170.1875
702.3230, 61.70312
703.4780, 164.3301
704.6330, 167.7793
705.7880, 123.8652
706.9430, 51.05859
708.0970, 221.2090
709.2520, 243.1660
710.4060, 194.1309
711.5600, 126.4014
712.7140, 351.9434
713.8670, 149.4541
715.0210, 153.8623
716.1740, 394.1309
717.3270, 251.9404
718.4800, 307.6943
719.6330, 308.2598
720.7860, 178.5156
721.9380, 163.7275
723.0910, 286.8916
724.2430, 329.0156
725.3950, 329.2285
726.5470, 308.1396
727.6980, 310.1406
728.8500, 312.0996
730.0010, 259.0186
731.1530, 307.8965
732.3040, 225.7344
733.4550, 287.5283
734.6050, 346.2832
735.7560, 445.9971
736.9060, 236.6699
738.0560, 338.3018
739.2060, 275.8936
740.3560, 372.4922
741.5060, 343.0049
742.6560, 277.5391
743.8050, 330.0537
744.9540, 269.9600
746.1030, 382.6055
747.2520, 382.2988
748.4010, 238.9180
749.5500, 470.3066
750.6980, 418.9375
751.8460, 340.4600
752.9950, 429.7568
754.1420, 460.8936
755.2900, 551.2178
756.4380, 571.2197
757.5850, 493.6094
758.7330, 411.9365
759.8800, 546.8242
761.0270, 611.9072
762.1730, 792.9336
763.3200, 664.7080
764.4670, 816.4453
765.6130, 796.1465
766.7590, 887.8301
767.9050, 795.4600
769.0510, 882.8486
770.1960, 969.7217
771.3420, 1016.242
772.4870, 1035.728
773.6320, 1068.283
774.7770, 1147.698
775.9220, 1126.078
777.0670, 1110.425
778.2110, 1198.737
779.3560, 1159.015
780.5000, 1094.647
781.6440, 1184.028
782.7880, 1304.172
783.9320, 1240.603
785.0750, 1273.890
786.2180, 1134.969
787.3620, 1241.016
788.5050, 1194.380
789.6480, 1203.366
790.7900, 1150.396
791.9330, 1076.524
793.0750, 1105.689
794.2170, 1292.380
795.3590, 1106.186
796.5010, 1107.712
797.6430, 1058.937
798.7850, 956.6660
799.9260, 953.8770
801.0670, 909.4189
802.2080, 871.3115
803.3490, 905.3750
804.4900, 879.6309
805.6310, 941.8281
806.7710, 852.8623
807.9110, 896.9697
809.0510, 846.8477
810.1910, 881.4365
811.3310, 985.3184
812.4710, 1064.293
813.6100, 1053.950
814.7490, 1096.126
815.8880, 999.3066
817.0270, 1100.217
818.1660, 1239.310
819.3050, 1160.342
820.4430, 1179.225
821.5820, 1095.393
822.7200, 947.9639
823.8580, 911.3086
824.9950, 819.3574
826.1330, 776.6846
827.2710, 750.2275
828.4080, 674.7617
829.5450, 638.3047
830.6820, 554.0410
831.8190, 487.6309
832.9560, 405.2520
834.0920, 341.0654
835.2280, 310.5498
836.3650, 330.0742
837.5010, 348.0039
838.6360, 253.0645
839.7720, 394.6885
840.9080, 194.8467
842.0430, 203.9121
843.1780, 317.5791
844.3130, 254.6123
845.4480, 259.7129
846.5830, 393.7227
847.7170, 176.5957
848.8520, 321.6484
849.9860, 399.7979
851.1200, 313.5537
852.2540, 344.9775
853.3870, 312.0957
854.5210, 322.1104
855.6540, 406.2061
856.7880, 393.2871
857.9210, 409.9688
859.0540, 439.4541
860.1860, 467.5645
861.3190, 421.6553
862.4510, 320.6543
863.5840, 488.6387
864.7160, 391.6064
865.8480, 247.5596
866.9790, 309.4580
868.1110, 306.3789
869.2420, 290.1143
870.3740, 295.0068
871.5050, 245.8838
872.6360, 399.7471
873.7660, 133.4814
874.8970, 216.3164
876.0280, 107.1357
877.1580, 210.9424
878.2880, 102.7334
879.4180, 99.51172
880.5480, 47.27441
881.6770, 73.02051
882.8070, 61.74902
883.9360, 39.53809
885.0650, 7.926758
886.1940, 52.72852
887.3230, 60.36816
888.4520, 10.00684
889.5800, 98.59473
890.7090, 14.81738
891.8370, 120.7490
892.9650, 49.30273
894.0930, 19.15918
895.2200, 161.3555
896.3480, 69.85742
897.4750, 71.34863
898.6020, 125.8252
899.7290, 177.2910
900.8560, 149.7471
901.9830, 101.1934
903.1090, 268.6289
904.2360, 2.053711
905.3620, 53.46094
906.4880, 227.8564
907.6140, 193.2412
908.7400, 76.61816
909.8650, 129.9834
910.9900, 163.3408
912.1160, 102.6885
913.2410, 140.0273
914.3660, 181.3564
915.4900, 37.67871
916.6150, 62.98828
917.7390, 35.71191
918.8640, 47.56152
919.9880, 59.82422
921.1120, 127.0781
922.2350, 123.8623
923.3590, 36.56152
924.4820, 97.78809
925.6060, 74.00879
926.7290, 40.22168
927.8520, 104.4238
928.9740, 13.37988
930.0970, 55.80566
931.2190, 299.9814
932.3420, 105.1543
933.4640, 53.32617
934.5860, 177.4961
935.7080, 59.66602
936.8290, 177.8330
937.9510, 30.00098
939.0720, 10.14941
940.1930, 65.29199
941.3140, 6.436523
942.4350, 10.58398
943.5560, 5.740234
944.6760, 35.89062
945.7960, 3.949219
946.9170, 41.22559
948.0370, 97.40918
949.1560, 32.40625
950.2760, 22.77930
951.3960, 64.03711
952.5150, 81.12402
953.6340, 118.7139
954.7530, 75.39746
955.8720, 6.518555
956.9910, 0.3613280
958.1090, 140.2422
959.2280, 97.19043
960.3460, 0.1601560
961.4640, 80.11816
962.5820, 113.8887
963.6990, 228.9297
964.8170, 4.023438
965.9340, 84.98438
967.0510, 34.98926
968.1690, 74.01074
969.2850, 28.92383
970.4020, 165.8701
971.5190, 46.81152
972.6350, 50.25000
973.7510, 26.34082
974.8670, 127.5586
975.9830, 80.54395
977.0990, 52.30664
978.2150, 64.81641
979.3300, 10.03027
980.4450, 41.86914
981.5600, 21.70020
982.6750, 74.52344
983.7900, 136.3438
984.9050, 1.156250
986.0190, 129.9609
987.1340, 66.75977
988.2480, 96.55273
989.3620, 62.33594
990.4750, 205.1133
991.5890, 36.88184
992.7020, 113.6455
993.8160, 31.40332
994.9290, 32.15332
996.0420, 268.8955
997.1550, 328.6299
998.2670, 440.3574
999.3800, 501.0781
1000.492, 501.7910
1001.604, 567.4971
1002.716, 530.1973
1003.828, 474.8926
1004.940, 496.5801
1006.051, 435.2607
1007.163, 347.9365
1008.274, 189.6045
1009.385, 180.2686
1010.496, 305.8770
1011.606, 384.5264
1012.717, 406.1074
1013.827, 489.9629
1014.937, 462.7812
1016.047, 554.1152
1017.157, 530.3555
1018.267, 488.6260
1019.377, 521.0811
1020.486, 599.2500
1021.595, 612.4844
1022.704, 592.8994
1023.813, 413.4326
1024.922, 512.7324
1026.030, 410.3145
1027.139, 597.4658
1028.247, 531.6357
1029.355, 484.2041
1030.463, 333.5332
1031.571, 698.8789
1032.678, 611.4346
1033.786, 666.9873
1034.893, 415.5352
1036.000, 524.0615
1037.107, 542.6025
1038.214, 662.3418
1039.321, 648.9287
1040.427, 683.0898
1041.533, 577.6162
1042.639, 756.0342
1043.745, 623.5566
1044.851, 641.0732
1045.957, 682.5879
1047.062, 810.0996
1048.168, 637.6074
1049.273, 836.7256
1050.378, 500.0586
1051.482, 794.5918
1052.587, 502.8047
1053.692, 681.1240
1054.796, 534.6162
1055.900, 619.1074
1057.004, 520.2461
1058.108, 525.7324
1059.212, 499.1426
1060.315, 482.4062
1061.418, 477.8066
1062.522, 468.2930
1063.625, 561.6211
1064.728, 519.0957
1065.830, 554.6504
1066.933, 559.8926
1068.035, 583.3613
1069.137, 623.7246
1070.239, 651.4414
1071.341, 645.0420
1072.443, 689.0273
1073.545, 724.9189
1074.646, 757.0732
1075.747, 813.7812
1076.848, 852.1592
1077.949, 875.6387
1079.050, 840.4834
1080.150, 884.2832
1081.251, 894.5127
1082.351, 903.6826
1083.451, 955.9385
1084.551, 922.9053
1085.651, 974.7637
1086.750, 987.0205
1087.850, 1023.071
1088.949, 1024.812
1090.048, 1038.232
1091.147, 1075.407
1092.246, 1101.439
1093.345, 1101.521
1094.443, 1131.921
1095.541, 1107.757
1096.639, 1134.900
1097.737, 1186.318
1098.835, 1181.273
1099.933, 1216.584
1101.030, 1234.328
1102.128, 1198.547
1103.225, 1266.376
1104.322, 1243.639
1105.419, 1205.654
1106.515, 1218.653
1107.612, 1207.092
1108.708, 1177.721
1109.804, 1222.200
1110.900, 1221.990
1111.996, 1244.158
1113.092, 1273.528
1114.187, 1283.757
1115.283, 1288.561
1116.378, 1302.696
1117.473, 1265.776
1118.568, 1235.223
1119.662, 1186.671
1120.757, 1221.121
1121.851, 1266.573
1122.946, 1260.866
1124.040, 1248.419
1125.134, 1282.875
1126.227, 1208.255
1127.321, 1168.644
1128.414, 1193.106
1129.508, 1314.572
1130.601, 1122.041
1131.693, 1222.511
1132.786, 1129.984
1133.879, 1250.459
1134.971, 1350.938
1136.064, 1029.419
1137.156, 1127.903
1138.248, 991.3896
1139.339, 1060.879
1140.431, 1198.372
1141.522, 1100.868
1142.614, 1131.367
1143.705, 1111.870
1144.796, 1097.378
1145.887, 1113.589
1146.977, 1088.404
1148.068, 1157.927
1149.158, 1102.452
1150.248, 1188.993
1151.338, 945.5430
1152.428, 952.0986
1153.518, 1064.669
1154.607, 1195.249
1155.696, 985.8330
1156.785, 967.4277
1157.874, 1067.026
1158.963, 1171.631
1160.052, 1108.247
1161.141, 1151.866
1162.229, 1059.492
1163.317, 912.1221
1164.405, 896.7578
1165.493, 944.3975
1166.581, 1006.042
1167.668, 895.6914
1168.756, 795.3457
1169.843, 953.0088
1170.930, 828.6777
1172.017, 1004.350
1173.103, 759.0283
1174.190, 870.7129
1175.276, 754.4014
1176.363, 760.0957
1177.449, 657.7949
1178.535, 803.4990
1179.620, 737.2080
1180.706, 530.9248
1181.791, 694.6484
1182.877, 549.3848
1183.962, 542.1289
1185.047, 535.8779
1186.131, 389.6348
1187.216, 287.3955
1188.300, 426.1641
1189.385, 406.9375
1190.469, 307.7178
1191.553, 219.5049
1192.637, 188.8174
1193.720, 245.1006
1194.804, 124.9092
1195.887, 146.7246
1196.970, 174.5469
1198.053, 124.3740
1199.136, 79.20801
1200.219, 198.0488
1201.301, 92.89453
1202.383, 67.75586
1203.465, 123.6260
1204.547, 101.5010
1205.629, 38.61523
1206.711, 99.25977
1207.792, 0.1425780
1208.874, 71.97070
1209.955, 51.10742
1211.036, 11.25977
1212.117, 54.41309
1213.198, 62.42480
1214.278, 66.26953
1215.359, 125.1377
1216.439, 12.01270
1217.519, 34.07324
1218.599, 91.83008
1219.678, 36.25684
1220.758, 29.35254
1221.837, 102.4180
1222.917, 41.49805
1223.996, 29.41113
1225.075, 115.6504
1226.153, 9.240234
1227.232, 35.13672
1228.310, 37.04492
1229.389, 29.01758
1230.467, 100.9229
1231.545, 79.11035
1232.622, 42.82910
1233.700, 202.7773
1234.777, 61.73242
1235.855, 31.70996
1236.932, 9.700195
1238.009, 99.70020
1239.086, 116.2715
1240.162, 80.70996
1241.239, 76.71875
1242.315, 222.7354
1243.391, 87.76270
1244.467, 184.8018
1245.543, 43.84961
1246.619, 176.9170
1247.694, 141.8535
1248.769, 135.0986
1249.844, 87.17383
1250.919, 186.2842
1251.994, 48.40527
1253.069, 151.5596
1254.144, 222.7451
1255.218, 153.9561
1256.292, 103.1768
1257.366, 40.41113
1258.440, 141.6543
1259.514, 207.9053
1260.587, 176.1660
1261.661, 158.4365
