##NAMES=Heulandite-Ca
##RRUFFID=R040021
##IDEAL CHEMISTRY=(Ca,Na,K)_5_(Si_27_Al_9_)O_72_&#183;26H_2_O
##LOCALITY=Prospect Park, Patterson, Passaic County, New Jersey, USA
##OWNER=RRUFF
##SOURCE=University of Arizona Mineral Museum
##DESCRIPTION=Group of colorless lamellar crystals
##STATUS=The identification of this mineral has been confirmed by X-ray diffraction and chemical analysis
##URL=rruff.info/R040021
##MEASURED CHEMISTRY=Na_0.25_(Na_0.55_K_0.45_)_Σ=1_(Ca_2.42_Na_0.85_Sr_0.73_)_Σ=4.00_(Si_27.60_Al_8.40_)_Σ=36_O_72_·24H_2_O ; H_2_O estimated by difference
##PIN_ID=m00223
##ORIENTATION=Laser parallel to -c [0 0 -1]. Fiducial mark perpendicular to laser is parallel to b* (0 1 0)
100.340, 0.000
101.732, 11.072
103.124, 193.650
104.516, 412.414
105.908, 1038.703
107.300, 1631.090
108.691, 1460.773
110.082, 2465.527
111.473, 2419.664
112.864, 2616.307
114.254, 3239.348
115.644, 3766.641
117.034, 4242.959
118.424, 4239.688
119.813, 4024.188
121.203, 5013.574
122.592, 4631.984
123.981, 4930.727
125.369, 5465.898
126.758, 5614.840
128.146, 6170.275
129.534, 6168.725
130.922, 7213.570
132.309, 7386.441
133.696, 8196.498
135.083, 8145.811
136.470, 9364.195
137.857, 9324.758
139.243, 10016.199
140.630, 10504.602
142.016, 10567.904
143.401, 10369.506
144.787, 10747.094
146.172, 10507.043
147.557, 10400.070
148.942, 10073.393
150.327, 9636.293
151.711, 9473.496
153.096, 8824.119
154.480, 8598.850
155.863, 7967.266
157.247, 7493.551
158.630, 7156.045
160.013, 6502.264
161.396, 6120.305
162.779, 5395.539
164.161, 5160.717
165.544, 4455.000
166.926, 3958.395
168.308, 3413.654
169.689, 3126.027
171.070, 2636.947
172.452, 2465.451
173.833, 2117.562
175.213, 1645.305
176.594, 1590.725
177.974, 994.850
179.354, 960.721
180.734, 657.355
182.114, 530.768
183.493, 322.281
184.872, 128.162
186.251, 122.145
187.630, 15.250
189.008, 195.461
190.387, 233.402
191.765, 239.010
193.143, 255.240
194.520, 264.104
195.898, 320.143
197.275, 276.736
198.652, 420.244
200.029, 100.709
201.405, 326.838
202.782, 231.109
204.158, 370.693
205.534, 199.326
206.909, 124.988
208.285, 375.826
209.660, 287.000
211.035, 26.338
212.410, 187.314
213.784, 161.230
215.159, 213.070
216.533, 46.160
217.907, 101.510
219.281, 134.924
220.654, 272.031
222.027, 186.773
223.400, 405.084
224.773, 446.881
226.146, 669.025
227.518, 890.344
228.891, 934.592
230.263, 1145.768
231.634, 1351.857
233.006, 1734.883
234.377, 1757.980
235.748, 2182.133
237.119, 2412.477
238.490, 2672.020
239.860, 3348.928
241.231, 3339.191
242.601, 3857.102
243.970, 4206.859
245.340, 4427.533
246.709, 4705.271
248.079, 4839.420
249.448, 5170.277
250.816, 4926.656
252.185, 4957.201
253.553, 4747.004
254.921, 4442.055
256.289, 4565.318
257.657, 4019.684
259.024, 3785.107
260.391, 3569.553
261.758, 3412.963
263.125, 3020.326
264.492, 2866.617
265.858, 2663.129
267.224, 2409.172
268.590, 2190.486
269.956, 2046.229
271.321, 1901.229
272.687, 1794.977
274.052, 1667.350
275.416, 1584.557
276.781, 1352.475
278.146, 1339.027
279.510, 1089.787
280.874, 1047.680
282.237, 1026.678
283.601, 1169.770
284.964, 1054.953
286.327, 937.203
287.690, 1021.469
289.053, 900.662
290.416, 846.717
291.778, 1176.596
293.140, 942.293
294.502, 1033.820
295.863, 832.227
297.225, 1113.570
298.586, 993.930
299.947, 1011.363
301.308, 1180.885
302.668, 1112.461
304.029, 1081.041
305.389, 1283.570
306.749, 1227.967
308.108, 1319.068
309.468, 1469.582
310.827, 1479.338
312.186, 1574.402
313.545, 1452.807
314.903, 1722.703
316.262, 1651.152
317.620, 1659.213
318.978, 1822.016
320.336, 1799.812
321.693, 2009.590
323.051, 2007.463
324.408, 2320.809
325.765, 1981.715
327.121, 2513.252
328.478, 2385.520
329.834, 2630.564
331.190, 2806.441
332.546, 3116.193
333.902, 3100.861
335.257, 3433.461
336.612, 3479.324
337.967, 3719.719
339.322, 3970.119
340.677, 4250.281
342.031, 4544.609
343.385, 4768.695
344.739, 5026.002
346.093, 5403.812
347.446, 5537.465
348.799, 5810.971
350.153, 6279.465
351.505, 6717.744
352.858, 7164.988
354.210, 7509.004
355.563, 7876.795
356.915, 8476.676
358.267, 8809.094
359.618, 9423.061
360.969, 9888.824
362.321, 10586.633
363.672, 11123.180
365.022, 11938.977
366.373, 12544.531
367.723, 12948.746
369.073, 13850.254
370.423, 14377.645
371.773, 15117.270
373.122, 15321.334
374.471, 16236.650
375.821, 17332.281
377.169, 17724.523
378.518, 19018.693
379.866, 19141.758
381.215, 20302.008
382.563, 21296.947
383.910, 22417.969
385.258, 23443.842
386.605, 24951.760
387.952, 26752.873
389.299, 27606.834
390.646, 29910.256
391.992, 31545.412
393.339, 33856.273
394.685, 35677.887
396.031, 37447.598
397.376, 39595.711
398.722, 40413.723
400.067, 42040.586
401.412, 42598.062
402.757, 42946.855
404.101, 42775.305
405.446, 42354.734
406.790, 41118.547
408.134, 39760.613
409.478, 38287.453
410.821, 36628.367
412.165, 34789.484
413.508, 31834.770
414.851, 30702.062
416.193, 28429.926
417.536, 26086.842
418.878, 24507.779
420.220, 22595.273
421.562, 20827.348
422.904, 18574.053
424.245, 17598.002
425.586, 16303.143
426.927, 14777.217
428.268, 13938.064
429.609, 12111.672
430.949, 11072.902
432.289, 10432.234
433.629, 10001.664
434.969, 8904.354
436.309, 8501.213
437.648, 7520.428
438.987, 7454.381
440.326, 6865.990
441.665, 6526.270
443.003, 6396.094
444.342, 6411.551
445.680, 6161.338
447.018, 6211.379
448.355, 6468.668
449.693, 6291.055
451.030, 6621.688
452.367, 7151.832
453.704, 7604.145
455.041, 7633.250
456.377, 8845.520
457.713, 9382.594
459.049, 10490.777
460.385, 11879.262
461.721, 12782.623
463.056, 13719.508
464.391, 14586.922
465.726, 15440.027
467.061, 16491.811
468.395, 16702.191
469.730, 17078.801
471.064, 17858.889
472.398, 18164.887
473.731, 19515.156
475.065, 20134.811
476.398, 21447.480
477.731, 22847.771
479.064, 24500.012
480.397, 25321.852
481.729, 25887.539
483.062, 25795.039
484.394, 24826.477
485.725, 23629.170
487.057, 21768.398
488.389, 20041.148
489.720, 17861.820
491.051, 15616.402
492.382, 13737.912
493.712, 12166.336
495.043, 10502.684
496.373, 9144.684
497.703, 7718.146
499.032, 6681.275
500.362, 5961.346
501.691, 4908.355
503.020, 4351.324
504.349, 3643.252
505.678, 3382.457
507.007, 2831.051
508.335, 2520.916
509.663, 2187.197
510.991, 2164.662
512.319, 1954.195
513.646, 1722.459
514.973, 1560.889
516.300, 1358.230
517.627, 1336.680
518.954, 1325.162
520.280, 1131.646
521.607, 1088.812
522.933, 817.951
524.259, 718.959
525.584, 545.762
526.910, 449.232
528.235, 566.910
529.560, 519.174
530.885, 533.629
532.209, 333.045
533.534, 197.025
534.858, 282.951
536.182, 306.025
537.506, 50.539
538.829, 208.211
540.152, 127.494
541.476, 2.445
542.799, 68.848
544.121, 296.371
545.444, 21.936
546.766, 89.926
548.088, 237.090
549.410, 115.996
550.732, 268.029
552.053, 182.158
553.375, 212.219
554.696, 347.820
556.017, 225.088
557.337, 195.166
558.658, 74.072
559.978, 219.482
561.298, 289.105
562.618, 57.375
563.938, 326.355
565.257, 164.402
566.576, 136.447
567.895, 326.045
569.214, 23.965
570.533, 26.230
571.851, 33.822
573.170, 178.262
574.488, 280.553
575.805, 247.105
577.123, 223.186
578.440, 71.158
579.758, 390.734
581.075, 697.332
582.391, 617.572
583.708, 875.717
585.024, 861.736
586.341, 932.691
587.657, 1359.582
588.972, 1653.410
590.288, 1836.180
591.603, 1935.896
592.918, 2246.516
594.233, 2332.168
595.548, 2805.730
596.863, 3204.250
598.177, 3583.729
599.491, 3928.170
600.805, 4330.418
602.119, 4794.953
603.432, 5116.301
604.746, 5618.621
606.059, 6051.914
607.372, 6356.180
608.685, 6302.418
609.997, 6806.637
611.309, 6472.834
612.621, 6522.002
613.933, 6168.146
615.245, 5947.270
616.557, 5773.379
617.868, 5486.473
619.179, 5133.545
620.490, 4688.604
621.801, 4335.641
623.111, 4376.660
624.421, 3879.664
625.731, 3631.648
627.041, 2929.613
628.351, 3063.559
629.660, 2625.482
630.970, 2413.383
632.279, 2449.260
633.588, 2042.117
634.896, 1952.947
636.205, 1514.754
637.513, 1644.533
638.821, 1301.283
640.129, 1358.002
641.437, 1359.680
642.744, 1345.318
644.051, 1307.484
645.358, 1232.455
646.665, 1173.957
647.972, 1055.412
649.278, 985.818
650.584, 821.180
651.890, 713.506
653.196, 999.787
654.502, 944.988
655.807, 865.143
657.113, 645.252
658.418, 742.316
659.722, 810.328
661.027, 580.305
662.331, 486.236
663.636, 383.131
664.940, 555.990
666.244, 213.816
667.547, 409.604
668.851, 159.357
670.154, 481.072
671.457, 223.760
672.760, 265.408
674.062, 501.025
675.365, 276.607
676.667, 318.160
677.969, 383.678
679.271, 439.168
680.572, 241.988
681.874, 76.855
683.175, 411.504
684.476, 385.740
685.777, 499.453
687.077, 463.953
688.378, 507.863
689.678, 381.238
690.978, 391.346
692.278, 367.795
693.577, 51.678
694.877, 493.857
696.176, 99.896
697.475, 410.572
698.774, 291.465
700.072, 430.791
701.371, 240.910
702.669, 271.359
703.967, 74.061
705.265, 464.605
706.562, 515.525
707.860, 382.049
709.157, 73.906
710.454, 443.822
711.751, 217.188
713.047, 363.215
714.344, 247.094
715.640, 361.045
716.936, 359.096
718.232, 161.074
719.527, 363.797
720.823, 227.352
722.118, 172.066
723.413, 271.482
724.708, 18.541
726.002, 198.971
727.297, 314.102
728.591, 54.162
729.885, 176.041
731.179, 247.289
732.472, 68.443
733.766, 71.488
735.059, 143.027
736.352, 116.729
737.645, 183.891
738.937, 188.711
740.230, 230.104
741.522, 244.182
742.814, 285.037
744.106, 229.273
745.397, 334.771
746.689, 270.312
747.980, 209.385
749.271, 404.551
750.562, 293.588
751.853, 597.592
753.143, 412.572
754.433, 464.508
755.723, 584.408
757.013, 375.270
758.303, 759.062
759.592, 593.994
760.881, 639.723
762.170, 800.422
763.459, 965.090
764.748, 964.090
766.036, 990.484
767.325, 1106.973
768.613, 1195.402
769.901, 1318.621
771.188, 1435.777
772.476, 1625.867
773.763, 1778.795
775.050, 1880.367
776.337, 2098.721
777.624, 1984.529
778.910, 2023.271
780.196, 1860.939
781.482, 1692.533
782.768, 1622.570
784.054, 1338.492
785.339, 1336.857
786.625, 1382.148
787.910, 1188.361
789.195, 1285.496
790.479, 994.557
791.764, 1069.539
793.048, 1072.074
794.332, 860.023
795.616, 1120.352
796.900, 938.705
798.183, 966.209
799.467, 782.139
800.750, 1088.613
802.033, 982.922
803.316, 941.135
804.598, 1456.465
805.880, 907.215
807.163, 1262.924
808.445, 1375.137
809.726, 1332.703
811.008, 1362.951
812.289, 1476.203
813.570, 1525.754
814.851, 1663.787
816.132, 1654.010
817.413, 1576.822
818.693, 1385.371
819.973, 1548.711
821.253, 1172.479
822.533, 1027.617
823.813, 1146.533
825.092, 749.824
826.371, 654.080
827.650, 638.914
828.929, 517.344
830.208, 805.420
831.486, 466.164
832.764, 242.998
834.042, 321.816
835.320, 14.385
836.598, 274.404
837.875, 108.189
839.152, 207.965
840.429, 144.740
841.706, 304.500
842.983, 43.258
844.259, 70.018
845.536, 165.795
846.812, 142.574
848.088, 21.344
849.363, 61.107
850.639, 193.873
851.914, 136.645
853.189, 46.572
854.464, 46.230
855.739, 52.102
857.013, 1.662
858.288, 43.158
859.562, 105.896
860.836, 262.125
862.110, 244.518
863.383, 170.109
864.656, 188.850
865.930, 89.986
867.203, 277.367
868.475, 116.025
869.748, 117.908
871.020, 76.033
872.292, 5.818
873.564, 104.547
874.836, 99.055
876.108, 90.713
877.379, 73.518
878.650, 198.668
879.922, 112.611
881.192, 89.688
882.463, 281.744
883.733, 183.109
885.004, 113.070
886.274, 191.775
887.544, 86.955
888.813, 360.764
890.083, 66.547
891.352, 77.861
892.621, 344.322
893.890, 225.914
895.159, 134.594
896.427, 93.836
897.695, 56.014
898.964, 48.250
900.232, 218.180
901.499, 61.092
902.767, 122.672
904.034, 216.957
905.301, 139.873
906.568, 317.129
907.835, 351.354
909.102, 314.764
910.368, 185.762
911.634, 3.951
912.900, 229.855
914.166, 360.709
915.432, 394.475
916.697, 2.398
917.962, 135.863
919.227, 20.230
920.492, 0.000
##END=



