##NAMES=Heulandite-Ca
##RRUFFID=R060465
##IDEAL CHEMISTRY=(Ca,Na,K)_5_(Si_27_Al_9_)O_72_&#183;26H_2_O
##LOCALITY=Garrawilla, near Gunnadah, New South Wales, Australia
##OWNER=RRUFF
##SOURCE=Michael Scott
##DESCRIPTION=Orange fan of platy crystals
##STATUS=The identification of this mineral has been confirmed by X-ray diffraction and chemical analysis
##URL=rruff.info/R060465
##MEASURED CHEMISTRY=(Ca_0.66_Na_0.24_K_0.10_)_5_(Si_0.77_Al_0.23_)_36_O_72_Â·24H_2_O
##PIN_ID=M01120
##ORIENTATION=Laser parallel to (1 0 1). Fiducial mark perpendicular to laser is parallel to b [0 1 0]
214.5470, 0.0000000E+00
215.7700, 20.67188
216.9930, 82.77051
218.2150, 18.25000
219.4380, 277.7031
220.6600, 247.0361
221.8820, 156.9629
223.1040, 17.15723
224.3260, 12.77344
225.5470, 87.28027
226.7680, 235.1113
227.9900, 30.03418
229.2110, 54.86035
230.4310, 31.57031
231.6520, 31.39844
232.8720, 96.25391
234.0930, 63.26953
235.3130, 74.53613
236.5330, 279.9502
237.7530, 399.4863
238.9720, 741.8584
240.1920, 892.2109
241.4110, 1117.428
242.6300, 1478.473
243.8490, 1636.308
245.0680, 1775.895
246.2860, 2047.194
247.5040, 2339.173
248.7230, 2674.793
249.9410, 2576.019
251.1590, 3138.818
252.3760, 2778.146
253.5940, 3020.954
254.8110, 2974.197
256.0280, 2743.846
257.2450, 2847.868
258.4620, 2991.245
259.6790, 2810.820
260.8950, 2589.824
262.1120, 2481.377
263.3280, 2011.078
264.5440, 1496.120
265.7600, 1556.525
266.9750, 1369.303
268.1910, 983.4609
269.4060, 882.9961
270.6210, 783.8867
271.8360, 683.1123
273.0510, 544.6514
274.2650, 477.9365
275.4800, 396.5977
276.6940, 350.9717
277.9080, 247.5908
279.1220, 239.4463
280.3360, 167.5195
281.5490, 113.7998
282.7630, 99.45801
283.9760, 120.9434
285.1890, 55.78418
286.4020, 46.79297
287.6150, 24.92969
288.8270, 162.0732
290.0400, 49.19727
291.2520, 185.3203
292.4640, 200.4033
293.6760, 119.5078
294.8870, 200.6455
296.0990, 315.8115
297.3100, 156.0254
298.5210, 289.2939
299.7320, 350.6260
300.9430, 371.0264
302.1540, 363.5088
303.3640, 451.0986
304.5750, 275.8438
305.7850, 377.7021
306.9950, 408.7627
308.2050, 246.0859
309.4140, 461.5576
310.6240, 427.2129
311.8330, 372.2080
313.0420, 282.6406
314.2510, 415.5068
315.4600, 473.7998
316.6680, 552.4482
317.8770, 452.4492
319.0850, 552.8867
320.2930, 459.6025
321.5010, 617.5479
322.7090, 607.6436
323.9160, 730.7969
325.1240, 786.9590
326.3310, 765.1230
327.5380, 922.2803
328.7450, 1054.428
329.9520, 1009.565
331.1580, 1057.692
332.3650, 1179.812
333.5710, 1226.924
334.7770, 1493.027
335.9830, 1398.122
337.1880, 1416.209
338.3940, 1622.288
339.5990, 1617.358
340.8040, 1711.419
342.0090, 1720.472
343.2140, 1943.515
344.4190, 2181.547
345.6230, 2210.567
346.8280, 2488.577
348.0320, 2610.574
349.2360, 2980.559
350.4400, 3054.526
351.6430, 3245.481
352.8470, 3620.422
354.0500, 3889.347
355.2530, 4180.253
356.4560, 4596.145
357.6590, 4866.018
358.8620, 5258.873
360.0640, 5658.968
361.2660, 6022.946
362.4680, 6346.660
363.6700, 6816.609
364.8720, 7434.252
366.0740, 7801.103
367.2750, 8255.155
368.4760, 8796.358
369.6770, 9240.396
370.8780, 9874.921
372.0790, 10196.62
373.2800, 10836.47
374.4800, 11521.47
375.6800, 12318.98
376.8800, 13047.71
378.0800, 13593.12
379.2800, 14421.65
380.4790, 15273.28
381.6790, 16038.03
382.8780, 17072.89
384.0770, 18127.83
385.2760, 19727.10
386.4750, 20455.36
387.6730, 21299.86
388.8720, 22882.04
390.0700, 24590.98
391.2680, 25875.44
392.4660, 27344.63
393.6630, 29275.87
394.8610, 30703.82
396.0580, 32257.55
397.2550, 33730.24
398.4520, 35108.65
399.6490, 36375.94
400.8460, 37368.48
402.0420, 38693.82
403.2390, 38981.58
404.4350, 39553.65
405.6310, 40075.46
406.8270, 39745.19
408.0220, 38943.36
409.2180, 38326.27
410.4130, 37001.21
411.6080, 36032.73
412.8030, 34697.91
413.9980, 33085.75
415.1920, 31091.17
416.3870, 29774.14
417.5810, 28084.91
418.7750, 26217.14
419.9690, 24696.95
421.1630, 22986.54
422.3570, 21413.32
423.5500, 19946.20
424.7430, 18427.99
425.9360, 16896.91
427.1290, 15652.66
428.3220, 14451.52
429.5150, 13055.84
430.7070, 11995.56
431.8990, 10876.17
433.0910, 10000.84
434.2830, 9030.874
435.4750, 8484.062
436.6670, 7820.965
437.8580, 7188.809
439.0490, 6598.344
440.2400, 6205.877
441.4310, 6007.410
442.6220, 5596.945
443.8130, 5380.482
445.0030, 5112.016
446.1930, 5164.551
447.3830, 5116.086
448.5730, 5155.617
449.7630, 5281.145
450.9520, 5484.726
452.1420, 5815.177
453.3310, 6150.681
454.5200, 6545.174
455.7090, 7090.656
456.8980, 7647.127
458.0860, 8224.582
459.2740, 9011.024
460.4630, 9643.445
461.6510, 10603.84
462.8380, 11113.22
464.0260, 12283.58
465.2140, 13397.92
466.4010, 14021.24
467.5880, 14437.53
468.7750, 15149.80
469.9620, 15844.04
471.1490, 16617.25
472.3350, 17115.43
473.5220, 18113.57
474.7080, 19259.69
475.8940, 20081.78
477.0800, 21602.84
478.2650, 22923.86
479.4510, 24045.86
480.6360, 25844.82
481.8210, 26745.75
483.0060, 27960.66
484.1910, 28417.53
485.3760, 28699.36
486.5600, 28273.16
487.7440, 27319.94
488.9290, 25931.67
490.1130, 24220.38
491.2960, 22042.06
492.4800, 19751.69
493.6630, 17376.30
494.8470, 15140.86
496.0300, 13253.40
497.2130, 11394.95
498.3960, 9697.357
499.5780, 8328.788
500.7610, 7163.180
501.9430, 6107.535
503.1250, 5186.869
504.3070, 4578.188
505.4890, 3869.486
506.6710, 3247.774
507.8520, 2799.045
509.0330, 2388.267
510.2140, 2057.699
511.3950, 1776.205
512.5760, 1622.962
513.7570, 1414.146
514.9370, 1313.307
516.1170, 1321.443
517.2980, 1073.555
518.4780, 810.6416
519.6570, 842.7031
520.8370, 677.7383
522.0160, 483.7432
523.1960, 454.7178
524.3750, 439.6602
525.5540, 394.5723
526.7320, 329.4521
527.9110, 359.2969
529.0890, 328.1055
530.2680, 184.8770
531.4460, 62.60449
532.6240, 164.2812
533.8010, 22.08594
534.9790, 257.4619
536.1560, 108.6074
537.3340, 17.42188
538.5110, 18.80859
539.6880, 89.87109
540.8650, 40.67578
542.0410, 16.58203
543.2180, 53.42285
544.3940, 25.37402
545.5700, 3.306641
546.7460, 22.39258
547.9220, 114.3955
549.0970, 135.5537
550.2730, 209.1699
551.4480, 112.4219
552.6230, 167.3408
553.7980, 224.3604
554.9730, 201.4951
556.1470, 65.65234
557.3210, 216.7617
558.4960, 20.93262
559.6700, 186.6162
560.8440, 146.7998
562.0170, 221.9863
563.1910, 208.3525
564.3640, 17.63574
565.5380, 143.1484
566.7110, 48.86914
567.8840, 29.52734
569.0560, 1.166016
570.2290, 37.47949
571.4010, 198.2852
572.5740, 274.3760
573.7460, 240.5264
574.9180, 391.9336
576.0890, 357.7334
577.2610, 427.8027
578.4320, 443.0244
579.6040, 563.1689
580.7750, 617.5459
581.9450, 900.4551
583.1160, 939.7578
584.2870, 1168.920
585.4570, 1301.929
586.6270, 1336.190
587.7980, 1384.393
588.9670, 1776.187
590.1370, 1848.699
591.3070, 2129.074
592.4760, 2434.360
593.6450, 2593.520
594.8140, 2817.744
595.9830, 3208.173
597.1520, 3504.619
598.3210, 4079.115
599.4890, 4493.785
600.6570, 4944.842
601.8250, 5429.281
602.9930, 5850.593
604.1610, 6327.863
605.3290, 6711.994
606.4960, 7321.898
607.6630, 7549.098
608.8300, 8040.279
609.9970, 8219.795
611.1640, 8338.910
612.3300, 8504.829
613.4970, 8452.526
614.6630, 7957.781
615.8290, 7856.070
616.9950, 7556.429
618.1610, 7318.158
619.3260, 6748.510
620.4920, 6297.268
621.6570, 6021.039
622.8220, 5398.024
623.9870, 4950.875
625.1520, 4636.538
626.3160, 4042.270
627.4810, 3778.918
628.6450, 3383.385
629.8090, 3274.336
630.9730, 3021.586
632.1370, 2614.775
633.3000, 2376.951
634.4640, 2176.080
635.6270, 1987.868
636.7900, 1938.152
637.9530, 1727.100
639.1160, 1699.985
640.2780, 1497.813
641.4410, 1457.580
642.6030, 1311.284
643.7650, 1344.925
644.9270, 1215.502
646.0890, 1251.019
647.2500, 1156.470
648.4120, 1107.855
649.5730, 907.1807
650.7340, 956.4414
651.8950, 768.5498
653.0560, 883.3730
654.2160, 938.0703
655.3770, 935.8125
656.5370, 706.3398
657.6970, 770.1514
658.8570, 716.3330
660.0170, 657.6172
661.1760, 858.9424
662.3360, 786.5469
663.4950, 864.0830
664.6540, 781.5479
665.8130, 695.9434
666.9720, 790.0352
668.1310, 739.1670
669.2890, 777.0801
670.4470, 666.3066
671.6050, 772.7920
672.7630, 832.7549
673.9210, 690.9912
675.0790, 688.1650
676.2360, 688.6270
677.3930, 670.7637
678.5510, 658.8877
679.7080, 639.8281
680.8640, 609.0215
682.0210, 589.4463
683.1770, 564.7764
684.3340, 511.3027
685.4900, 532.4902
686.6460, 503.9053
687.8020, 496.3848
688.9570, 591.3809
690.1130, 407.6045
691.2680, 521.7500
692.4230, 490.4404
693.5780, 451.7949
694.7330, 395.3848
695.8880, 346.5010
697.0420, 295.9639
698.1960, 388.9521
699.3510, 497.4189
700.5040, 396.3584
701.6580, 520.5459
702.8120, 240.4414
703.9650, 313.2344
705.1190, 309.9004
706.2720, 260.4531
707.4250, 143.6064
708.5780, 199.5098
709.7300, 67.13379
710.8830, 214.0371
712.0350, 206.3428
713.1870, 130.4766
714.3390, 266.5693
715.4910, 188.2725
716.6430, 389.3369
717.7940, 143.3691
718.9460, 315.3789
720.0970, 175.6621
721.2480, 68.83008
722.3990, 90.34277
723.5500, 114.8027
724.7000, 43.59570
725.8500, 45.10449
727.0010, 130.2178
728.1510, 184.3193
729.3010, 210.1660
730.4500, 217.9287
731.6000, 235.8760
732.7490, 206.3701
733.8980, 145.5303
735.0470, 132.1416
736.1960, 116.9014
737.3450, 72.99121
738.4940, 203.3164
739.6420, 109.6846
740.7900, 128.2090
741.9380, 124.2617
743.0860, 1.458984
744.2340, 16.26172
745.3810, 105.0264
746.5290, 116.3877
747.6760, 268.8447
748.8230, 364.2041
749.9700, 395.8291
751.1170, 203.6641
752.2630, 308.5312
753.4100, 290.7461
754.5560, 272.0244
755.7020, 413.6992
756.8480, 250.5244
757.9940, 395.8125
759.1390, 390.0605
760.2850, 336.0166
761.4300, 364.3906
762.5750, 400.5244
763.7200, 381.4268
764.8650, 390.0811
766.0100, 418.9131
767.1540, 293.6738
768.2980, 540.4219
769.4420, 588.7471
770.5860, 790.1426
771.7300, 561.0977
772.8740, 601.1982
774.0170, 686.6660
775.1610, 574.6025
776.3040, 571.0908
777.4470, 624.8682
778.5900, 674.5830
779.7320, 701.0762
780.8750, 657.7080
782.0170, 830.9941
783.1590, 727.6357
784.3010, 881.5225
785.4430, 837.3232
786.5850, 694.9482
787.7260, 811.9990
788.8680, 738.8125
790.0090, 885.7764
791.1500, 728.3213
792.2910, 842.1484
793.4310, 831.9600
794.5720, 927.5381
795.7120, 744.4297
796.8520, 688.6318
797.9920, 785.4541
799.1320, 782.0205
800.2720, 792.6113
801.4120, 941.1904
802.5510, 855.4941
803.6900, 623.8906
804.8290, 712.4072
805.9680, 599.8760
807.1070, 511.1523
808.2450, 487.2246
809.3840, 580.1504
810.5220, 635.0127
811.6600, 696.8428
812.7980, 525.6025
813.9360, 622.3018
815.0730, 587.9512
816.2110, 544.5508
817.3480, 590.1260
818.4850, 592.6680
819.6220, 643.1699
820.7590, 699.5391
821.8960, 659.6387
823.0320, 686.7910
824.1680, 668.3340
825.3040, 637.9229
826.4400, 556.1143
827.5760, 555.8652
828.7120, 359.1221
829.8470, 266.3057
830.9830, 280.4092
832.1180, 247.3486
833.2530, 255.0859
834.3880, 167.6934
835.5220, 166.5781
836.6570, 143.9980
837.7910, 124.0703
838.9250, 133.3662
840.0590, 123.9854
841.1930, 157.8877
842.3270, 17.82031
843.4600, 263.5322
844.5940, 16.74512
845.7270, 129.1523
846.8600, 43.00000
847.9930, 139.6055
849.1250, 210.5654
850.2580, 3.639648
851.3900, 155.6348
852.5230, 121.4414
853.6550, 378.1377
854.7870, 21.71875
855.9180, 108.9482
857.0500, 119.5283
858.1810, 39.59766
859.3130, 36.69141
860.4440, 15.81934
861.5750, 22.57422
862.7050, 50.26758
863.8360, 42.75293
864.9660, 24.59961
866.0970, 76.55371
867.2270, 34.67676
868.3570, 85.81152
869.4870, 17.76172
870.6160, 11.61133
871.7460, 63.12891
872.8750, 69.83887
874.0040, 59.13379
875.1330, 29.40820
876.2620, 17.44336
877.3910, 70.50879
878.5190, 22.38379
879.6470, 21.28125
880.7760, 20.71484
881.9040, 156.1357
883.0310, 44.70312
884.1590, 93.74023
885.2870, 26.47852
886.4140, 41.23047
887.5410, 101.8467
888.6680, 22.17285
889.7950, 85.66016
890.9220, 35.36133
892.0480, 65.43359
893.1750, 137.5068
894.3010, 86.01270
895.4270, 87.67480
896.5530, 76.69727
897.6790, 42.81348
898.8040, 88.69531
899.9300, 22.87891
901.0550, 9.893555
902.1800, 46.26562
903.3050, 14.04688
904.4300, 35.75586
905.5540, 171.4961
906.6790, 38.89941
907.8030, 33.61719
908.9270, 166.0791
910.0510, 12.50684
911.1750, 123.8438
912.2990, 13.85547
913.4220, 32.38086
914.5450, 66.56641
915.6690, 14.72266
916.7920, 78.78711
917.9140, 1.177734
919.0370, 136.8037
920.1600, 138.7383
921.2820, 8.371094
922.4040, 41.46582
923.5260, 49.74805
924.6480, 24.96484
925.7700, 106.6289
926.8910, 20.25000
928.0130, 5.822266
929.1340, 42.92773
930.2550, 187.8262
931.3760, 95.26562
932.4970, 167.6631
933.6170, 210.0205
934.7380, 152.3398
935.8580, 203.6191
936.9780, 234.8613
938.0980, 177.0674
939.2180, 130.2354
940.3370, 123.3643
941.4570, 151.4551
942.5760, 182.5088
943.6950, 201.5273
944.8140, 230.5107
945.9330, 194.4609
947.0520, 230.1152
948.1700, 231.2568
949.2890, 264.1055
950.4070, 202.9209
951.5250, 218.7031
952.6430, 229.4541
953.7600, 309.1719
954.8780, 369.8564
955.9950, 320.5098
957.1120, 327.1328
958.2290, 302.7256
959.3460, 334.9385
960.4630, 414.8203
961.5800, 401.3232
962.6960, 439.7959
963.8120, 432.1025
964.9280, 379.9561
966.0440, 435.5244
967.1600, 270.7109
968.2760, 461.5049
969.3910, 464.9180
970.5060, 394.3369
971.6210, 510.6445
972.7360, 598.8516
973.8510, 659.0908
974.9660, 703.3105
976.0800, 674.5410
977.1950, 696.9033
978.3090, 671.5527
979.4230, 683.9863
980.5370, 624.1826
981.6500, 636.9053
982.7640, 638.4492
983.8770, 651.9658
984.9900, 758.1162
986.1030, 722.4443
987.2160, 781.6104
988.3290, 710.7842
989.4420, 621.2021
990.5540, 873.2900
991.6660, 730.4062
992.7780, 654.1006
993.8900, 818.7744
995.0020, 864.0293
996.1140, 875.4795
997.2250, 937.2461
998.3360, 1004.949
999.4470, 1045.826
1000.558, 1027.703
1001.669, 899.3115
1002.780, 980.2012
1003.890, 962.5215
1005.001, 1069.215
1006.111, 1049.679
1007.221, 1086.730
1008.331, 1047.461
1009.440, 974.0664
1010.550, 1088.433
1011.659, 1012.188
1012.768, 1050.635
1013.877, 1130.076
1014.986, 1118.334
1016.095, 1143.106
1017.204, 1295.894
1018.312, 1134.620
1019.420, 1310.134
1020.528, 1281.191
1021.636, 1187.471
1022.744, 1139.772
1023.852, 1272.117
1024.959, 1230.647
1026.066, 1098.362
1027.173, 1385.541
1028.280, 1203.982
1029.387, 1201.354
1030.494, 1395.454
1031.600, 1222.720
1032.707, 1145.146
1033.813, 1285.746
1034.919, 1269.226
1036.025, 1353.447
1037.130, 1358.038
1038.236, 1343.341
1039.341, 1373.884
1040.446, 1279.758
1041.552, 1368.417
1042.656, 1346.641
1043.761, 1411.327
1044.866, 1454.394
1045.970, 1305.104
1047.074, 1340.810
1048.179, 1287.670
1049.282, 1448.324
1050.386, 1266.261
1051.490, 1477.774
1052.593, 1415.979
1053.697, 1540.205
1054.800, 1408.541
1055.903, 1396.386
1057.006, 1253.405
1058.108, 1467.210
1059.211, 1295.373
1060.313, 1406.189
1061.415, 1249.959
1062.517, 1504.901
1063.619, 1442.466
1064.721, 1372.659
1065.823, 1447.172
1066.924, 1563.880
1068.025, 1512.362
1069.126, 1533.076
1070.227, 1688.866
1071.328, 1656.505
1072.429, 1663.964
1073.529, 1877.414
1074.629, 1859.998
1075.729, 1893.731
1076.829, 2012.563
1077.929, 2152.403
1079.029, 2229.244
1080.128, 2284.101
1081.228, 2264.966
1082.327, 2405.840
1083.426, 2413.723
1084.525, 2445.613
1085.623, 2612.514
1086.722, 2627.424
1087.820, 2655.343
1088.919, 2476.272
1090.017, 2650.211
1091.115, 2809.160
1092.212, 2724.119
1093.310, 2872.089
1094.407, 2818.068
1095.505, 2835.059
1096.602, 3008.061
1097.699, 2918.078
1098.795, 2911.162
1099.892, 2923.204
1100.989, 3039.399
1102.085, 3133.350
1103.181, 3166.960
1104.277, 3090.705
1105.373, 3118.992
1106.469, 3148.658
1107.564, 3256.922
1108.660, 3125.807
1109.755, 3229.988
1110.850, 3002.873
1111.945, 3285.085
1113.040, 3193.865
1114.134, 3253.107
1115.229, 3110.908
1116.323, 3249.285
1117.417, 3511.888
1118.511, 3519.243
1119.605, 3526.123
1120.698, 3527.523
1121.792, 3512.506
1122.885, 3407.916
1123.978, 3420.272
1125.071, 3215.290
1126.164, 3213.744
1127.257, 3166.217
1128.349, 2985.523
1129.442, 2914.047
1130.534, 3062.395
1131.626, 2975.942
1132.718, 2966.505
1133.810, 3014.083
1134.901, 2842.676
1135.993, 2948.286
1137.084, 2991.924
1138.175, 3106.867
1139.266, 3088.185
1140.357, 3119.316
1141.448, 3038.080
1142.538, 3057.871
1143.628, 3018.676
1144.719, 3023.498
1145.809, 2967.338
1146.898, 2915.208
1147.988, 2859.167
1149.078, 2811.181
1150.167, 2845.246
1151.256, 2899.333
1152.345, 2902.455
1153.434, 2915.626
1154.523, 2872.826
1155.612, 2866.069
1156.700, 2949.346
1157.788, 3113.636
1158.877, 2980.984
1159.964, 2922.377
1161.052, 2737.812
1162.140, 2762.290
1163.227, 2741.799
1164.315, 2678.352
1165.402, 2742.941
1166.489, 2634.548
1167.576, 2727.187
1168.663, 2596.849
1169.749, 2677.526
1170.836, 2461.270
1171.922, 2491.076
1173.008, 2602.901
1174.094, 2523.738
1175.180, 2448.596
1176.265, 2197.490
1177.351, 2441.410
1178.436, 2214.352
1179.521, 2227.320
1180.606, 2093.306
1181.691, 1992.328
1182.776, 1936.367
1183.860, 1872.420
1184.944, 1839.484
1186.029, 1757.565
1187.113, 1707.661
1188.197, 1701.782
1189.280, 1791.917
1190.364, 1450.062
1191.447, 1275.222
1192.531, 1387.394
1193.614, 1162.579
1194.697, 1282.773
1195.779, 1247.979
1196.862, 1163.193
1197.945, 866.4170
1199.027, 1072.649
1200.109, 877.8896
1201.191, 895.1387
1202.273, 787.3945
1203.355, 495.6611
1204.436, 516.9365
1205.518, 398.2217
1206.599, 473.5146
1207.680, 482.8154
1208.761, 554.1240
1209.842, 485.4395
1210.922, 426.7607
1212.003, 380.0195
1213.083, 324.8555
1214.163, 276.8604
1215.243, 239.1221
1216.323, 194.4795
1217.402, 169.3633
1218.482, 156.1162
1219.561, 156.5947
1220.641, 118.9805
1221.720, 94.37500
1222.798, 97.77539
1223.877, 117.1836
1224.956, 28.59863
1226.034, 23.02344
1227.112, 49.45996
1228.191, 83.09766
1229.269, 128.3145
1230.346, 27.26758
1231.424, 142.8574
1232.501, 33.50879
1233.579, 35.17285
1234.656, 79.84863
1235.733, 165.5586
1236.810, 94.34863
1237.886, 103.1807
1238.963, 99.93750
1240.039, 84.94043
1241.116, 26.14355
1242.192, 7.767578
1243.268, 29.32324
1244.343, 142.5811
1245.419, 214.5430
1246.494, 89.59375
1247.570, 31.31152
1248.645, 3.781250
1249.720, 22.12402
1250.795, 107.9717
1251.869, 46.87695
1252.944, 29.27539
1254.018, 57.44531
1255.093, 66.35254
1256.167, 161.1494
1257.240, 25.04785
1258.314, 28.26367
1259.388, 5.499023
1260.461, 45.25781
1261.535, 86.03320
1262.608, 45.80957
1263.681, 138.5830
1264.753, 180.4219
1265.826, 86.64062
1266.899, 9.725586
1267.971, 254.4951
1269.043, 210.2627
1270.115, 161.0977
1271.187, 282.0166
1272.259, 404.0186
1273.330, 249.7754
1274.402, 260.6738
1275.473, 255.1211
1276.544, 519.0410
1277.615, 478.7314
1278.686, 451.8633
1279.756, 383.7168
1280.827, 392.8008
1281.897, 421.3115
1282.967, 439.5293
1284.037, 374.6094
1285.107, 474.7246
1286.177, 587.6660
1287.247, 423.5732
1288.316, 685.5195
1289.385, 645.4121
1290.454, 738.5010
1291.523, 618.3887
1292.592, 782.4297
1293.661, 788.4902
1294.729, 589.4834
1295.797, 647.4619
1296.866, 634.8936
1297.934, 703.2070
1299.001, 756.1855
1300.069, 926.4707
1301.137, 958.0371
1302.204, 1111.639
1303.271, 1069.280
1304.338, 1164.534
1305.405, 1190.068
1306.472, 1265.195
1307.539, 1278.305
1308.605, 1263.014
1309.671, 1217.422
1310.737, 1298.292
1311.803, 1422.070
1312.869, 1349.557
1313.935, 1565.252
1315.000, 1348.006
1316.066, 1488.333
1317.131, 1696.650
1318.196, 1504.063
1319.261, 1597.859
1320.326, 1578.150
1321.390, 1754.518
1322.455, 1716.792
1323.519, 1753.338
1324.583, 1531.593
1325.647, 1535.839
1326.711, 1358.074
1327.775, 1455.680
1328.838, 1644.512
1329.902, 1605.716
1330.965, 1659.910
1332.028, 1548.091
1333.091, 1619.558
1334.153, 1555.922
1335.216, 1594.070
1336.279, 1556.744
1337.341, 1543.330
1338.403, 1476.471
1339.465, 1277.574
1340.527, 1228.664
1341.588, 1176.391
1342.650, 1107.783
1343.711, 1232.521
1344.772, 1079.572
1345.834, 1114.912
1346.894, 1141.943
1347.955, 1034.488
1349.016, 913.6895
1350.076, 860.0039
1351.136, 1001.410
1352.197, 872.8516
1353.257, 799.4355
1354.316, 960.8594
1355.376, 829.9785
1356.436, 823.2812
1357.495, 813.3594
1358.554, 798.4922
1359.613, 732.7070
1360.672, 721.9688
1361.731, 705.1953
1362.789, 564.7754
1363.848, 535.9785
1364.906, 455.5898
1365.964, 460.9434
1367.022, 363.2363
1368.080, 469.4609
1369.138, 532.6895
1370.195, 428.1113
1371.253, 339.9570
1372.310, 461.8496
1373.367, 466.3867
1374.424, 376.8672
1375.480, 297.6855
