##NAMES=Heulandite-Ca
##RRUFFID=R060465
##IDEAL CHEMISTRY=(Ca,Na,K)_5_(Si_27_Al_9_)O_72_&#183;26H_2_O
##LOCALITY=Garrawilla, near Gunnadah, New South Wales, Australia
##OWNER=RRUFF
##SOURCE=Michael Scott
##DESCRIPTION=Orange fan of platy crystals
##STATUS=The identification of this mineral has been confirmed by X-ray diffraction and chemical analysis
##URL=rruff.info/R060465
##MEASURED CHEMISTRY=(Ca_0.66_Na_0.24_K_0.10_)_5_(Si_0.77_Al_0.23_)_36_O_72_Â·24H_2_O
##PIN_ID=M01415
##ORIENTATION=Laser parallel to a* (1 0 0). Fiducial mark perpendicular to laser is parallel to b [0 1 0]
223.8660, 0.0000000E+00
225.0920, 106.0098
226.3190, 260.1211
227.5450, 113.6289
228.7700, 0.5175780
229.9960, 212.6367
231.2210, 72.11133
232.4460, 205.5117
233.6710, 31.38086
234.8960, 95.90039
236.1210, 50.12109
237.3450, 10.01172
238.5690, 38.31641
239.7930, 109.7773
241.0170, 148.0898
242.2410, 90.00977
243.4640, 392.3066
244.6870, 274.7773
245.9100, 115.2246
247.1330, 312.4961
248.3560, 427.4590
249.5780, 506.0117
250.8000, 348.0625
252.0230, 345.5234
253.2440, 364.3145
254.4660, 423.3516
255.6880, 566.5684
256.9090, 409.8926
258.1300, 552.2598
259.3510, 589.8418
260.5720, 921.8906
261.7920, 711.0234
263.0130, 501.9297
264.2330, 486.4668
265.4530, 208.7969
266.6730, 429.6660
267.8920, 246.1387
269.1120, 195.2188
270.3310, 225.9160
271.5500, 103.2324
272.7690, 155.0117
273.9880, 392.7344
275.2060, 256.8906
276.4240, 316.6191
277.6430, 481.8945
278.8600, 453.6855
280.0780, 406.9609
281.2960, 398.6973
282.5130, 614.8691
283.7300, 532.4531
284.9470, 670.4336
286.1640, 591.7852
287.3810, 512.4941
288.5970, 461.5430
289.8130, 586.9160
291.0290, 646.5996
292.2450, 742.5781
293.4610, 624.8359
294.6760, 670.3691
295.8910, 662.1562
297.1060, 594.1367
298.3210, 727.1094
299.5360, 626.0371
300.7510, 651.9375
301.9650, 674.8555
303.1790, 713.5156
304.3930, 802.7168
305.6070, 935.7539
306.8200, 916.8848
308.0340, 1146.111
309.2470, 1155.570
310.4600, 1385.447
311.6730, 1466.828
312.8850, 1696.691
314.0980, 1947.004
315.3100, 1982.734
316.5220, 2380.955
317.7340, 2336.625
318.9460, 2536.750
320.1570, 3017.316
321.3690, 2914.424
322.5800, 3129.812
323.7910, 3222.375
325.0010, 3483.037
326.2120, 3519.916
327.4220, 3731.961
328.6330, 3714.117
329.8430, 3814.332
331.0520, 4075.584
332.2620, 4119.873
333.4720, 4062.195
334.6810, 4068.555
335.8900, 4158.949
337.0990, 4236.377
338.3070, 4249.842
339.5160, 4003.344
340.7240, 4333.885
341.9320, 4287.461
343.1400, 4613.074
344.3480, 4687.717
345.5560, 4865.398
346.7630, 5152.111
347.9700, 5248.857
349.1770, 5513.635
350.3840, 5713.441
351.5910, 5909.279
352.7970, 6191.141
354.0040, 6419.033
355.2100, 6874.951
356.4160, 7139.893
357.6220, 7434.857
358.8270, 7609.844
360.0320, 8203.852
361.2380, 8793.881
362.4430, 8964.934
363.6470, 9436.992
364.8520, 9892.078
366.0560, 10246.18
367.2610, 10781.29
368.4650, 11138.42
369.6690, 11665.02
370.8720, 12180.89
372.0760, 12752.07
373.2790, 13370.07
374.4820, 14007.23
375.6850, 14497.92
376.8880, 15320.90
378.0910, 16371.33
379.2930, 16657.10
380.4950, 17475.34
381.6970, 18257.72
382.8990, 19655.28
384.1010, 20199.21
385.3020, 21446.38
386.5040, 22332.78
387.7050, 23826.40
388.9060, 24849.24
390.1060, 26491.28
391.3070, 27501.51
392.5070, 29114.32
393.7080, 30568.17
394.9080, 32040.01
396.1070, 33192.85
397.3070, 34226.90
398.5070, 35560.69
399.7060, 36325.52
400.9050, 36745.84
402.1040, 37576.28
403.3030, 37409.41
404.5010, 36993.56
405.7000, 36812.62
406.8980, 36145.11
408.0960, 34712.63
409.2940, 33519.00
410.4910, 32642.54
411.6890, 30892.73
412.8860, 29584.24
414.0830, 28392.46
415.2800, 26919.85
416.4770, 25657.94
417.6730, 23881.89
418.8690, 22607.38
420.0660, 21197.00
421.2620, 20276.78
422.4570, 18823.48
423.6530, 17340.62
424.8480, 15888.34
426.0440, 14445.76
427.2390, 13259.86
428.4340, 12082.27
429.6280, 11070.97
430.8230, 10109.69
432.0170, 9232.047
433.2110, 8502.014
434.4050, 7747.564
435.5990, 7218.004
436.7930, 6681.441
437.9860, 6210.904
439.1800, 5879.391
440.3730, 5458.896
441.5660, 5133.428
442.7580, 5157.980
443.9510, 5259.555
445.1430, 5270.152
446.3350, 5100.768
447.5270, 5244.414
448.7190, 5526.076
449.9110, 5752.766
451.1020, 6071.477
452.2930, 6338.207
453.4850, 6652.957
454.6750, 7341.725
455.8660, 7807.504
457.0570, 8852.297
458.2470, 9521.104
459.4370, 10376.91
460.6270, 11149.73
461.8170, 11741.55
463.0070, 12415.37
464.1960, 13343.19
465.3850, 13787.00
466.5750, 14331.81
467.7630, 14628.61
468.9520, 15118.40
470.1410, 15637.19
471.3290, 16076.97
472.5170, 16634.73
473.7050, 17550.49
474.8930, 18571.23
476.0810, 19487.97
477.2680, 20595.69
478.4560, 21775.39
479.6430, 22729.09
480.8300, 23602.77
482.0160, 24194.43
483.2030, 24554.08
484.3890, 24492.72
485.5760, 23804.34
486.7620, 22787.94
487.9480, 21794.53
489.1330, 19804.11
490.3190, 18503.66
491.5040, 16326.20
492.6890, 14507.72
493.8740, 12881.22
495.0590, 11025.71
496.2440, 9782.170
497.4280, 8503.617
498.6120, 7031.047
499.7960, 6281.455
500.9800, 5168.842
502.1640, 4555.209
503.3470, 4048.557
504.5310, 3475.883
505.7140, 3132.189
506.8970, 2812.473
508.0800, 2602.736
509.2620, 2408.979
510.4450, 2142.197
511.6270, 2001.863
512.8090, 1630.594
513.9910, 1629.803
515.1730, 1642.424
516.3550, 1338.658
517.5360, 1182.988
518.7170, 1273.250
519.8980, 1119.518
521.0790, 902.3340
522.2600, 532.8223
523.4400, 656.2188
524.6210, 671.7188
525.8010, 574.4648
526.9810, 589.1660
528.1610, 242.5508
529.3400, 411.4590
530.5200, 173.1758
531.6990, 286.1777
532.8780, 236.1152
534.0570, 61.84961
535.2360, 25.31445
536.4140, 147.9473
537.5930, 190.9453
538.7710, 189.9883
539.9490, 149.6035
541.1270, 177.8359
542.3040, 165.6602
543.4820, 147.7363
544.6590, 139.1348
545.8360, 167.7168
547.0130, 83.22461
548.1900, 198.0625
549.3670, 243.1152
550.5430, 110.1699
551.7190, 189.6816
552.8960, 117.4375
554.0710, 247.3164
555.2470, 144.3887
556.4230, 144.5996
557.5980, 328.7480
558.7730, 133.0000
559.9480, 91.60742
561.1230, 20.55078
562.2980, 60.34766
563.4720, 86.65234
564.6470, 17.61523
565.8210, 104.5293
566.9950, 95.24805
568.1690, 22.44727
569.3420, 45.26562
570.5160, 68.07227
571.6890, 168.5117
572.8620, 49.06250
574.0350, 130.5586
575.2080, 240.0137
576.3800, 276.4336
577.5530, 343.9004
578.7250, 336.1719
579.8970, 387.4922
581.0690, 425.7793
582.2410, 350.0293
583.4120, 650.2441
584.5830, 601.4258
585.7550, 817.1113
586.9260, 767.5547
588.0960, 977.1367
589.2670, 1135.191
590.4380, 1279.430
591.6080, 1455.412
592.7780, 1498.363
593.9480, 1676.900
595.1180, 1954.385
596.2870, 2210.258
597.4570, 2206.152
598.6260, 2782.596
599.7950, 3137.771
600.9640, 3208.137
602.1330, 3217.859
603.3010, 3811.545
604.4700, 4117.193
605.6380, 4051.832
606.8060, 4593.793
607.9740, 4629.078
609.1420, 4649.859
610.3090, 4803.430
611.4760, 4798.957
612.6440, 4663.105
613.8110, 4848.543
614.9770, 4290.938
616.1440, 4198.312
617.3110, 3777.844
618.4770, 3757.148
619.6430, 3632.414
620.8090, 3470.637
621.9750, 3084.842
623.1400, 3141.012
624.3060, 2844.133
625.4710, 2580.225
626.6360, 2470.279
627.8010, 2387.311
628.9660, 2279.309
630.1300, 2226.561
631.2950, 2061.191
632.4590, 2103.066
633.6230, 1950.895
634.7870, 1826.678
635.9510, 1695.414
637.1140, 1677.109
638.2780, 1428.766
639.4410, 1580.389
640.6040, 1404.980
641.7670, 1363.547
642.9290, 1237.062
644.0920, 1168.562
645.2540, 995.0410
646.4160, 1101.473
647.5780, 782.8516
648.7400, 1050.186
649.9020, 854.4883
651.0630, 568.7734
652.2250, 569.0039
653.3860, 560.1836
654.5470, 335.3340
655.7080, 566.4258
656.8680, 415.4648
658.0290, 491.4473
659.1890, 523.3809
660.3490, 308.2812
661.5090, 389.1016
662.6690, 417.4141
663.8280, 393.1230
664.9880, 335.7773
666.1470, 347.0938
667.3060, 422.4141
668.4650, 296.9336
669.6240, 342.3730
670.7820, 272.9297
671.9410, 287.8027
673.0990, 263.2051
674.2570, 363.4824
675.4150, 389.9062
676.5720, 482.9941
677.7300, 364.4707
678.8870, 302.7988
680.0450, 368.4980
681.2020, 224.5254
682.3590, 294.6797
683.5150, 233.9492
684.6720, 286.4805
685.8280, 224.1680
686.9840, 274.2656
688.1400, 275.0586
689.2960, 215.2305
690.4520, 302.1777
691.6070, 355.0840
692.7630, 366.4570
693.9180, 396.4570
695.0730, 310.0137
696.2280, 216.4121
697.3820, 164.5020
698.5370, 206.7539
699.6910, 275.3750
700.8450, 363.7891
701.9990, 352.6758
703.1530, 412.8027
704.3070, 293.2910
705.4600, 140.0293
706.6130, 281.7656
707.7660, 296.4531
708.9190, 259.8926
710.0720, 380.3672
711.2250, 267.9629
712.3770, 368.5879
713.5300, 402.0664
714.6820, 459.0781
715.8340, 281.1719
716.9850, 304.2754
718.1370, 306.0254
719.2880, 287.2031
720.4400, 299.8203
721.5910, 375.3301
722.7420, 341.1348
723.8930, 99.41016
725.0430, 148.3496
726.1940, 107.1035
727.3440, 259.9766
728.4940, 5.460938
729.6440, 243.6699
730.7940, 331.8887
731.9430, 87.20312
733.0930, 90.20312
734.2420, 280.2363
735.3910, 233.8457
736.5400, 109.3281
737.6890, 163.7871
738.8370, 109.7773
739.9860, 309.6016
741.1340, 386.2207
742.2820, 315.0332
743.4300, 269.5645
744.5780, 198.7578
745.7250, 135.2324
746.8730, 245.1113
748.0200, 303.0723
749.1670, 421.6172
750.3140, 126.9336
751.4610, 285.4453
752.6070, 384.7090
753.7540, 432.6406
754.9000, 252.2305
756.0460, 360.0352
757.1920, 351.6250
758.3380, 337.3496
759.4830, 493.1523
760.6280, 342.6133
761.7740, 489.3535
762.9190, 519.7344
764.0640, 571.7422
765.2080, 653.9199
766.3530, 685.8633
767.4970, 668.6895
768.6420, 755.9043
769.7860, 613.7129
770.9300, 594.4883
772.0730, 653.4062
773.2170, 842.0156
774.3600, 793.3066
775.5040, 887.3340
776.6470, 653.4355
777.7900, 792.0352
778.9320, 644.3379
780.0750, 914.4707
781.2170, 825.2383
782.3600, 819.0234
783.5020, 678.8809
784.6440, 739.9805
785.7850, 780.8516
786.9270, 672.0527
788.0680, 660.6738
789.2100, 688.1387
790.3510, 730.7383
791.4920, 468.1699
792.6320, 382.7168
793.7730, 399.8926
794.9130, 690.6172
796.0540, 462.7773
797.1940, 337.4590
798.3340, 535.7500
799.4730, 210.7539
800.6130, 481.8438
801.7520, 341.6328
802.8920, 475.9199
804.0310, 219.6152
805.1700, 330.4785
806.3090, 377.9902
807.4470, 213.6738
808.5860, 450.5781
809.7240, 264.2734
810.8620, 222.9941
812.0000, 208.5918
813.1380, 313.7969
814.2750, 245.8203
815.4130, 249.9844
816.5500, 243.0312
817.6870, 174.5215
818.8240, 288.0254
819.9610, 247.3926
821.0980, 270.3125
822.2340, 240.9258
823.3700, 174.9570
824.5070, 54.11328
825.6430, 196.3262
826.7780, 75.62891
827.9140, 143.9199
829.0500, 188.3438
830.1850, 78.76953
831.3200, 87.19531
832.4550, 89.60938
833.5900, 39.92578
834.7250, 64.75391
835.8590, 206.3418
836.9930, 58.75000
838.1280, 137.1035
839.2620, 98.42773
840.3950, 14.30859
841.5290, 186.8770
842.6630, 150.3438
843.7960, 141.6660
844.9290, 133.6348
846.0620, 108.4473
847.1950, 214.3672
848.3280, 61.12305
849.4600, 175.8203
850.5930, 143.4570
851.7250, 146.0332
852.8570, 139.5449
853.9890, 30.99219
855.1210, 98.36719
856.2520, 220.6797
857.3840, 35.92969
858.5150, 152.1113
859.6460, 48.23047
860.7770, 95.74609
861.9080, 127.4004
863.0380, 36.18359
864.1690, 18.69141
865.2990, 235.1758
866.4290, 2.869141
867.5590, 167.4824
868.6890, 228.4121
869.8190, 124.7031
870.9480, 8.646484
872.0770, 102.1328
873.2070, 66.40039
874.3360, 165.0977
875.4640, 0.5097660
876.5930, 28.44727
877.7220, 17.32031
878.8500, 77.87500
879.9780, 169.1934
881.1060, 158.9902
882.2340, 95.74023
883.3620, 61.86914
884.4890, 147.1055
885.6170, 142.2852
886.7440, 305.7383
887.8710, 82.80469
888.9980, 67.18555
890.1240, 50.28906
891.2510, 224.3340
892.3770, 7.078125
893.5040, 123.7539
894.6300, 81.62891
895.7560, 7.121094
896.8810, 91.31055
898.0070, 30.31641
899.1330, 3.1250000E-02
900.2580, 65.81445
901.3830, 31.70117
902.5080, 2.281250
903.6330, 4.277344
904.7570, 61.17188
905.8820, 55.00391
907.0060, 19.25781
908.1300, 63.49414
909.2540, 15.84570
910.3780, 2.740234
911.5020, 47.73438
912.6250, 41.30078
913.7490, 69.95117
914.8720, 85.29883
915.9950, 96.50586
917.1180, 98.41992
918.2400, 104.5508
919.3630, 30.46875
920.4850, 69.33008
921.6080, 63.85742
922.7300, 104.1387
923.8520, 118.4688
924.9730, 70.02344
926.0950, 58.46875
927.2160, 193.9512
928.3380, 122.3242
929.4590, 195.6484
930.5800, 93.92969
931.7010, 192.1621
932.8210, 138.3242
933.9420, 31.46680
935.0620, 20.00977
936.1820, 50.05273
937.3020, 95.04883
938.4220, 1.001953
939.5420, 8.400391
940.6610, 60.78320
941.7810, 30.45508
942.9000, 33.16992
944.0190, 80.84180
945.1380, 32.15039
946.2570, 154.2461
947.3750, 23.24609
948.4940, 122.6406
949.6120, 16.28906
950.7300, 126.7480
951.8480, 200.7227
952.9660, 60.62891
954.0830, 172.4141
955.2010, 284.2539
956.3180, 115.1523
957.4350, 199.8906
958.5520, 227.3184
959.6690, 284.1094
960.7860, 351.5527
961.9020, 154.8418
963.0190, 300.9941
964.1350, 198.3008
965.2510, 266.1133
966.3670, 490.9277
967.4830, 168.7168
968.5980, 487.0859
969.7140, 481.6582
970.8290, 621.8262
971.9440, 514.2754
973.0590, 480.0781
974.1740, 521.3320
975.2880, 559.4531
976.4030, 452.3672
977.5170, 570.5508
978.6310, 385.2168
979.7450, 652.8164
980.8590, 468.5469
981.9730, 452.4180
983.0860, 524.5938
984.2000, 619.3027
985.3130, 474.8516
986.4260, 765.3984
987.5390, 777.9004
988.6520, 809.6738
989.7640, 605.0391
990.8770, 634.8867
991.9890, 495.7891
993.1010, 571.3184
994.2130, 594.4805
995.3250, 742.5586
996.4370, 767.9121
997.5480, 819.0703
998.6590, 987.4590
999.7710, 861.2598
1000.882, 983.8926
1001.993, 969.3750
1003.103, 910.0879
1004.214, 920.6953
1005.324, 735.6504
1006.434, 847.6523
1007.545, 1008.604
1008.655, 889.9863
1009.764, 982.4609
1010.874, 1126.068
1011.983, 976.4062
1013.093, 1201.979
1014.202, 935.8398
1015.311, 1100.352
1016.420, 989.3828
1017.528, 1002.262
1018.637, 1271.488
1019.745, 1056.680
1020.854, 1123.562
1021.962, 1160.500
1023.070, 1054.891
1024.177, 1001.398
1025.285, 1008.959
1026.392, 1129.090
1027.500, 953.2031
1028.607, 1220.799
1029.714, 1376.088
1030.821, 1045.035
1031.927, 1418.900
1033.034, 1473.682
1034.140, 1265.355
1035.246, 1332.189
1036.352, 1292.891
1037.458, 1257.492
1038.564, 1057.248
1039.670, 1383.969
1040.775, 1170.477
1041.880, 1096.221
1042.986, 1465.213
1044.090, 1415.400
1045.195, 1118.447
1046.300, 1425.924
1047.404, 1371.633
1048.509, 1033.438
1049.613, 1275.564
1050.717, 1383.605
1051.821, 1327.502
1052.925, 1338.090
1054.028, 1336.840
1055.132, 1192.193
1056.235, 1140.059
1057.338, 1483.012
1058.441, 1092.764
1059.544, 1521.615
1060.647, 1544.887
1061.749, 1250.863
1062.851, 1565.146
1063.954, 1519.006
1065.056, 1629.279
1066.158, 1442.328
1067.259, 1571.936
1068.361, 1250.500
1069.462, 1734.191
1070.564, 1383.082
1071.665, 1428.535
1072.766, 1398.070
1073.867, 1714.361
1074.967, 1745.600
1076.068, 1872.256
1077.168, 1907.188
1078.268, 2120.811
1079.368, 2274.859
1080.468, 2371.502
1081.568, 2241.398
1082.668, 2403.688
1083.767, 2449.303
1084.866, 2490.418
1085.966, 2691.732
1087.065, 2594.822
1088.163, 2797.037
1089.262, 2879.551
1090.361, 3017.055
1091.459, 3036.256
1092.557, 3092.000
1093.655, 3196.158
1094.753, 2954.527
1095.851, 3096.365
1096.949, 3169.104
1098.046, 3201.512
1099.143, 3390.111
1100.241, 3359.600
1101.338, 3452.211
1102.434, 3421.828
1103.531, 3477.801
1104.628, 3368.812
1105.724, 3838.445
1106.820, 3296.084
1107.916, 3820.541
1109.012, 3794.004
1110.108, 3541.900
1111.204, 3774.262
1112.299, 4079.258
1113.395, 3601.029
1114.490, 4124.898
1115.585, 4194.398
1116.680, 3919.971
1117.775, 4251.357
1118.869, 4358.916
1119.964, 4159.736
1121.058, 4479.287
1122.152, 4604.414
1123.246, 4496.893
1124.340, 4700.238
1125.434, 4461.582
1126.527, 4509.416
1127.620, 4515.477
1128.714, 4471.562
1129.807, 4432.227
1130.900, 4574.191
1131.992, 4404.084
1133.085, 4410.012
1134.178, 4638.078
1135.270, 4429.727
1136.362, 4687.742
1137.454, 4607.191
1138.546, 4568.518
1139.638, 4702.715
1140.729, 4720.465
1141.821, 5038.914
1142.912, 4631.426
1144.003, 4843.980
1145.094, 4380.203
1146.185, 4617.824
1147.276, 4285.270
1148.366, 4577.848
1149.456, 4347.859
1150.547, 4102.105
1151.637, 4415.074
1152.727, 4052.320
1153.816, 4226.008
1154.906, 4270.035
1155.995, 4198.332
1157.085, 4247.176
1158.174, 4041.719
1159.263, 3795.613
1160.352, 3687.344
1161.441, 3616.645
1162.529, 3906.023
1163.618, 3689.383
1164.706, 3560.742
1165.794, 3790.129
1166.882, 3647.531
1167.970, 3503.227
1169.058, 3329.641
1170.145, 3272.062
1171.232, 3292.480
1172.320, 3007.898
1173.407, 2800.320
1174.494, 3130.754
1175.580, 2833.730
1176.667, 2967.180
1177.754, 2976.645
1178.840, 2763.133
1179.926, 2681.875
1181.012, 2510.395
1182.098, 2289.949
1183.184, 2354.500
1184.269, 2313.039
1185.355, 2090.582
1186.440, 1911.145
1187.525, 2108.738
1188.610, 2053.324
1189.695, 1823.914
1190.780, 1868.520
1191.864, 1718.184
1192.949, 1570.785
1194.033, 1479.379
1195.117, 1214.969
1196.201, 1460.559
1197.285, 1276.141
1198.369, 1012.727
1199.452, 1091.773
1200.536, 928.8672
1201.619, 994.4453
1202.702, 1012.473
1203.785, 799.0469
1204.868, 726.6367
1205.950, 698.2305
1207.033, 574.8203
1208.115, 655.4062
1209.197, 534.9922
1210.279, 457.5664
1211.361, 555.1445
1212.443, 647.7188
1213.525, 406.2891
1214.606, 697.8633
1215.687, 272.4258
1216.769, 385.9961
1217.850, 467.5625
1218.930, 243.1172
1220.011, 279.6758
1221.092, 343.3906
1222.172, 285.9297
1223.252, 315.4648
1224.333, 302.9883
1225.413, 23.48828
1226.492, 92.01562
1227.572, 9.492188
1228.652, 200.9844
1229.731, 269.6680
1230.810, 185.1445
1231.889, 268.6094
1232.968, 59.06641
1234.047, 52.51172
1235.126, 177.9453
1236.204, 305.3672
1237.283, 46.22656
1238.361, 3.835938
1239.439, 13.46094
1240.517, 4.933594
1241.595, 93.30859
1242.673, 193.6719
1243.750, 76.97656
1244.827, 165.6758
1245.905, 0.5156250
1246.982, 66.30859
1248.059, 36.18359
1249.135, 165.1680
1250.212, 352.7578
1251.288, 99.11328
1252.365, 95.02344
1253.441, 51.75781
1254.517, 27.47656
1255.593, 214.2539
1256.669, 127.2852
1257.744, 124.5820
1258.820, 11.04688
1259.895, 225.1289
1260.970, 282.9180
1262.045, 45.78906
1263.120, 154.1250
1264.195, 43.99609
1265.270, 326.4297
1266.344, 107.8438
1267.418, 147.6484
1268.492, 132.9570
1269.566, 50.37891
1270.640, 126.6445
1271.714, 113.8945
1272.788, 87.73047
1273.861, 49.57422
1274.934, 9.773438
1276.007, 170.8320
1277.080, 12.87109
1278.153, 5.882813
1279.226, 275.8594
1280.299, 40.18359
1281.371, 368.7109
1282.443, 66.41016
1283.515, 134.6094
1284.587, 278.3008
1285.659, 98.96875
1286.731, 172.9023
1287.802, 90.53516
1288.874, 137.6992
1289.945, 465.2812
1291.016, 315.8477
1292.087, 408.4023
1293.158, 306.0547
1294.229, 313.9648
1295.299, 282.4570
1296.370, 172.1602
1297.440, 364.6055
1298.510, 315.0352
1299.580, 491.4453
1300.650, 445.8320
1301.720, 315.1992
1302.789, 676.5469
1303.859, 116.8672
1304.928, 494.1680
1305.997, 324.4414
1307.066, 383.6875
1308.135, 36.08203
1309.203, 405.0781
1310.272, 249.2188
1311.340, 430.3320
1312.409, 312.4219
1313.477, 448.4883
1314.545, 522.5352
1315.612, 367.5625
1316.680, 633.5742
1317.748, 507.5664
1318.815, 385.5391
1319.882, 243.4922
1320.949, 465.4297
1322.016, 510.3398
1323.083, 348.2266
1324.150, 434.1016
1325.216, 286.9531
1326.283, 366.7891
1327.349, 152.6016
1328.415, 143.3984
1329.481, 396.1641
1330.547, 158.9141
1331.613, 361.6367
1332.678, 588.3477
1333.744, 418.0273
1334.809, 440.6914
1335.874, 502.3359
1336.939, 517.9531
1338.004, 396.5508
1339.068, 411.1250
1340.133, 424.4219
1341.197, 509.6719
1342.262, 487.1797
1343.326, 585.6602
1344.390, 609.1289
1345.453, 445.5703
1346.517, 583.9922
1347.581, 478.3906
1348.644, 237.8477
1349.707, 301.4531
1350.770, 279.9727
1351.833, 476.9766
1352.896, 617.3008
1353.959, 515.7852
1355.022, 485.5469
1356.084, 416.2617
1357.146, 237.9219
1358.208, 507.2617
1359.270, 434.2891
1360.332, 406.3008
1361.394, 711.9375
1362.455, 362.5195
1363.517, 353.4688
1364.578, 463.3984
1365.639, 557.5234
1366.700, 490.0352
1367.761, 673.0820
1368.822, 637.2812
1369.883, 534.8633
1370.943, 547.0508
1372.003, 524.0234
1373.063, 571.5156
1374.123, 302.9961
1375.183, 345.6250
1376.243, 220.9375
1377.303, 284.8945
1378.362, 469.8359
1379.421, 262.1797
1380.481, 390.1602
1381.540, 274.2656
1382.598, 282.3555
1383.657, 182.9531
1384.716, 116.4922
