##NAMES=Heulandite-Ca
##RRUFFID=R040021
##IDEAL CHEMISTRY=(Ca,Na,K)_5_(Si_27_Al_9_)O_72_&#183;26H_2_O
##LOCALITY=Prospect Park, Patterson, Passaic County, New Jersey, USA
##OWNER=RRUFF
##SOURCE=University of Arizona Mineral Museum
##DESCRIPTION=Group of colorless lamellar crystals
##STATUS=The identification of this mineral has been confirmed by X-ray diffraction and chemical analysis
##URL=rruff.info/R040021
##MEASURED CHEMISTRY=Na_0.25_(Na_0.55_K_0.45_)_Σ=1_(Ca_2.42_Na_0.85_Sr_0.73_)_Σ=4.00_(Si_27.60_Al_8.40_)_Σ=36_O_72_·24H_2_O ; H_2_O estimated by difference
##PIN_ID=m00146
##ORIENTATION=Laser parallel to [-1 0 -1]. Fiducial mark perpendicular to laser is parallel to b* (0 1 0)
94.768, 0.000
96.161, 7.477
97.554, 72.668
98.947, 499.059
100.340, 582.227
101.732, 894.385
103.124, 1156.906
104.516, 1583.945
105.908, 2172.479
107.300, 2369.326
108.691, 3176.232
110.082, 3366.129
111.473, 3984.344
112.864, 4757.309
114.254, 6191.520
115.644, 7056.309
117.034, 7448.939
118.424, 6768.523
119.813, 6996.209
121.203, 6656.066
122.592, 6489.959
123.981, 6556.500
125.369, 6217.305
126.758, 6063.621
128.146, 5500.809
129.534, 5653.576
130.922, 5235.863
132.309, 5035.789
133.696, 4601.572
135.083, 5092.311
136.470, 4677.498
137.857, 5044.895
139.243, 4937.441
140.630, 5192.199
142.016, 5222.096
143.401, 5544.395
144.787, 5590.184
146.172, 5788.221
147.557, 5685.054
148.942, 5642.447
150.327, 5896.182
151.711, 5585.365
153.096, 5848.454
154.480, 5775.870
155.863, 5768.303
157.247, 5720.005
158.630, 5431.831
160.013, 5288.645
161.396, 5027.879
162.779, 4741.592
164.161, 4322.813
165.544, 3857.739
166.926, 3549.939
168.308, 3188.871
169.689, 2838.469
171.070, 2596.154
172.452, 2382.183
173.833, 2017.122
175.213, 1840.021
176.594, 1501.885
177.974, 1360.921
179.354, 1325.807
180.734, 938.604
182.114, 821.305
183.493, 780.873
184.872, 574.257
186.251, 640.404
187.630, 269.253
189.008, 200.744
190.387, 332.819
191.765, 147.421
193.143, 167.490
194.520, 141.966
195.898, 177.791
197.275, 36.081
198.652, 80.303
200.029, 87.097
201.405, 142.321
202.782, 113.415
204.158, 108.422
205.534, 166.390
206.909, 286.377
208.285, 286.437
209.660, 279.619
211.035, 519.958
212.410, 346.472
213.784, 432.164
215.159, 392.032
216.533, 339.072
217.907, 358.279
219.281, 336.688
220.654, 304.126
222.027, 297.200
223.400, 231.364
224.773, 201.884
226.146, 138.776
227.518, 102.069
228.891, 41.796
230.263, 103.956
231.634, 97.049
233.006, 87.501
234.377, 198.173
235.748, 384.002
237.119, 392.943
238.490, 768.101
239.860, 728.552
241.231, 965.482
242.601, 1090.006
243.970, 1294.238
245.340, 1395.302
246.709, 1452.327
248.079, 1694.359
249.448, 1592.475
250.816, 1945.641
252.185, 1894.928
253.553, 1938.307
254.921, 2038.735
256.289, 1954.210
257.657, 2024.722
259.024, 2093.269
260.391, 2129.902
261.758, 2033.459
263.125, 2067.545
264.492, 2082.508
265.858, 2037.960
267.224, 2083.648
268.590, 2025.823
269.956, 2080.056
271.321, 1938.536
272.687, 2049.759
274.052, 2030.659
275.416, 2186.176
276.781, 2086.250
278.146, 2133.840
279.510, 2131.921
280.874, 2171.486
282.237, 2364.523
283.601, 2299.018
284.964, 2276.951
286.327, 2649.294
287.690, 2602.014
289.053, 2520.060
290.416, 2854.388
291.778, 2921.973
293.140, 2988.813
294.502, 2798.936
295.863, 2990.382
297.225, 3080.195
298.586, 3115.418
299.947, 3133.081
301.308, 3125.157
302.668, 3102.646
304.029, 3448.523
305.389, 3504.782
306.749, 3464.304
308.108, 3691.128
309.468, 3694.246
310.827, 3995.574
312.186, 3922.068
313.545, 4283.580
314.903, 4430.148
316.262, 4590.597
317.620, 4878.814
318.978, 4975.877
320.336, 5307.869
321.693, 5422.871
323.051, 5693.992
324.408, 5672.381
325.765, 6204.198
327.121, 6098.651
328.478, 6458.834
329.834, 6624.841
331.190, 6989.737
332.546, 7103.805
333.902, 7239.353
335.257, 7308.121
336.612, 7468.887
337.967, 7513.650
339.322, 7771.828
340.677, 8037.640
342.031, 8102.911
343.385, 8459.079
344.739, 8515.623
346.093, 8655.257
347.446, 9153.617
348.799, 9397.302
350.153, 9824.587
351.505, 10226.287
352.858, 10428.581
354.210, 10947.528
355.563, 11309.583
356.915, 11986.353
358.267, 12441.457
359.618, 13025.683
360.969, 13758.881
362.321, 14223.898
363.672, 14945.118
365.022, 15481.971
366.373, 15894.732
367.723, 16765.902
369.073, 17204.525
370.423, 17823.693
371.773, 18130.342
373.122, 18894.096
374.471, 19489.613
375.821, 19565.100
377.169, 20623.768
378.518, 20718.998
379.866, 21502.711
381.215, 22426.129
382.563, 23086.494
383.910, 23734.100
385.258, 24724.043
386.605, 26485.668
387.952, 26926.334
389.299, 29143.322
390.646, 30474.084
391.992, 32361.262
393.339, 34491.543
394.685, 36645.156
396.031, 39272.688
397.376, 40708.957
398.722, 42929.281
400.067, 44166.129
401.412, 45094.898
402.757, 45651.211
404.101, 45572.355
405.446, 45142.309
406.790, 44278.602
408.134, 42706.648
409.478, 41101.363
410.821, 38750.867
412.165, 35769.441
413.508, 34080.215
414.851, 31670.723
416.193, 28799.326
417.536, 26785.379
418.878, 24727.736
420.220, 22636.578
421.562, 20774.752
422.904, 18812.180
424.245, 17255.826
425.586, 15598.355
426.927, 14303.767
428.268, 12511.057
429.609, 11580.223
430.949, 10473.266
432.289, 9925.183
433.629, 8737.979
434.969, 8520.649
436.309, 7558.197
437.648, 7308.623
438.987, 6752.936
440.326, 6363.129
441.665, 6091.205
443.003, 6186.172
444.342, 5908.028
445.680, 5933.775
447.018, 6105.416
448.355, 6035.957
449.693, 6299.395
451.030, 6672.735
452.367, 7247.980
453.704, 7404.135
455.041, 8474.201
456.377, 9060.181
457.713, 10154.079
459.049, 10996.899
460.385, 12313.640
461.721, 13500.305
463.056, 14427.898
464.391, 15372.424
465.726, 16736.885
467.061, 17130.271
468.395, 17983.605
469.730, 19090.879
471.064, 19609.094
472.398, 21366.256
473.731, 22061.367
475.065, 23847.445
476.398, 25670.473
477.731, 27313.469
479.064, 28309.436
480.397, 29183.379
481.729, 29169.295
483.062, 28405.201
484.394, 27039.092
485.725, 24915.975
487.057, 23047.852
488.389, 20768.721
489.720, 18184.586
491.051, 16028.453
492.382, 14028.316
493.712, 12096.202
495.043, 10277.080
496.373, 9281.959
497.703, 7635.834
499.032, 6793.715
500.362, 5712.595
501.691, 5052.481
503.020, 4295.657
504.349, 3734.798
505.678, 3216.988
507.007, 2851.952
508.335, 2418.564
509.663, 2241.969
510.991, 2076.594
512.319, 1785.130
513.646, 1719.984
514.973, 1317.211
516.300, 1402.831
517.627, 1339.414
518.954, 932.590
520.280, 898.334
521.607, 851.219
522.933, 762.456
524.259, 698.698
525.584, 516.278
526.910, 577.603
528.235, 353.096
529.560, 389.915
530.885, 228.573
532.209, 83.726
533.534, 136.084
534.858, 137.783
536.182, 51.388
537.506, 23.509
538.829, 96.865
540.152, 46.942
541.476, 33.659
542.799, 236.428
544.121, 179.132
545.444, 168.538
546.766, 240.460
548.088, 173.825
549.410, 122.391
550.732, 170.915
552.053, 138.617
553.375, 147.146
554.696, 167.699
556.017, 168.263
557.337, 31.822
558.658, 201.419
559.978, 145.267
561.298, 115.566
562.618, 137.130
563.938, 169.880
565.257, 34.298
566.576, 112.045
567.895, 33.751
569.214, 90.400
570.533, 68.505
571.851, 31.599
573.170, 91.809
574.488, 72.318
575.805, 201.819
577.123, 131.203
578.440, 344.348
579.758, 457.410
581.075, 365.468
582.391, 658.517
583.708, 705.557
585.024, 669.592
586.341, 968.619
587.657, 1207.640
588.972, 1324.660
590.288, 1371.671
591.603, 1450.684
592.918, 1819.691
594.233, 2003.693
595.548, 2331.689
596.863, 2660.701
598.177, 2811.707
599.491, 3297.709
600.805, 3525.706
602.119, 3916.730
603.432, 4341.753
604.746, 4640.771
606.059, 4876.787
607.372, 5009.800
608.685, 5261.809
609.997, 5069.827
611.309, 4982.842
612.621, 4772.854
613.933, 4749.864
615.245, 4312.871
616.557, 4242.880
617.868, 3824.883
619.179, 3467.886
620.490, 3162.886
621.801, 3400.882
623.111, 2878.875
624.421, 2668.865
625.731, 1989.854
627.041, 2142.839
628.351, 1821.821
629.660, 1533.799
630.970, 1574.775
632.279, 1167.749
633.588, 1214.720
634.896, 1006.688
636.205, 1018.651
637.513, 784.613
638.821, 791.570
640.129, 849.525
641.437, 772.475
642.744, 553.420
644.051, 606.603
645.358, 596.536
646.665, 675.950
647.972, 580.341
649.278, 566.257
650.584, 457.276
651.890, 459.183
653.196, 377.289
654.502, 397.572
655.807, 249.398
657.113, 291.062
658.418, 422.240
659.722, 159.962
661.027, 171.418
662.331, 166.378
663.636, 263.601
664.940, 79.960
666.244, 148.237
667.547, 111.533
668.851, 149.857
670.154, 87.779
671.457, 84.874
672.760, 177.280
674.062, 31.019
675.365, 87.867
676.667, 208.640
677.969, 212.909
679.271, 164.113
680.572, 153.238
681.874, 204.611
683.175, 258.061
684.476, 259.697
685.777, 229.088
687.077, 83.724
688.378, 244.286
689.678, 242.583
690.978, 215.049
692.278, 15.485
693.577, 254.188
694.877, 128.796
696.176, 372.392
697.475, 273.085
698.774, 365.104
700.072, 315.801
701.371, 254.208
702.669, 144.567
703.967, 242.914
705.265, 447.341
706.562, 313.211
707.860, 82.863
709.157, 331.889
710.454, 273.190
711.751, 416.793
713.047, 251.170
714.344, 275.143
715.640, 58.348
716.936, 119.411
718.232, 318.826
719.527, 248.840
720.823, 300.083
722.118, 132.971
723.413, 212.415
724.708, 239.499
726.002, 306.945
727.297, 352.249
728.591, 304.636
729.885, 397.883
731.179, 265.789
732.472, 183.690
733.766, 241.542
735.059, 275.258
736.352, 392.205
737.645, 317.771
738.937, 384.223
740.230, 318.753
741.522, 301.398
742.814, 330.055
744.106, 381.131
745.397, 413.913
746.689, 313.770
747.980, 402.933
749.271, 373.927
750.562, 535.190
751.853, 467.416
753.143, 487.549
754.433, 580.422
755.723, 535.223
757.013, 765.083
758.303, 557.229
759.592, 676.094
760.881, 597.032
762.170, 835.341
763.459, 824.187
764.748, 678.106
766.036, 1060.430
767.325, 875.777
768.613, 989.297
769.901, 971.746
771.188, 994.269
772.476, 1128.521
773.763, 1063.932
775.050, 1102.760
776.337, 1005.621
777.624, 1009.224
778.910, 946.967
780.196, 955.869
781.482, 905.375
782.768, 747.103
784.054, 775.631
785.339, 726.904
786.625, 577.567
787.910, 735.351
789.195, 588.481
790.479, 461.734
791.764, 414.231
793.048, 410.343
794.332, 472.585
795.616, 342.556
796.900, 376.428
798.183, 236.221
799.467, 341.964
800.750, 178.656
802.033, 183.297
803.316, 336.884
804.598, 36.578
805.880, 294.862
807.163, 245.256
808.445, 201.597
809.726, 69.885
811.008, 107.116
812.289, 221.291
813.570, 89.413
814.851, 150.199
816.132, 12.977
817.413, 7.659
818.693, 165.524
819.973, 58.292
821.253, 42.952
822.533, 11.884
823.813, 42.249
825.092, 28.939
826.371, 23.465
827.650, 8.806
828.929, 74.484
830.208, 10.064
831.486, 82.228
832.764, 129.518
834.042, 65.193
835.320, 22.047
836.598, 71.782
837.875, 91.430
839.152, 104.223
840.429, 109.025
841.706, 15.842
842.983, 73.406
844.259, 7.207
845.536, 67.637
846.812, 7.950
848.088, 134.471
849.363, 117.318
850.639, 128.919
851.914, 70.735
853.189, 16.737
854.464, 71.189
855.739, 203.402
857.013, 175.046
858.288, 84.413
859.562, 118.865
860.836, 36.297
862.110, 31.104
863.383, 151.272
864.656, 67.363
865.930, 72.943
867.203, 19.809
868.475, 131.430
869.748, 29.156
871.020, 48.513
872.292, 16.604
873.564, 41.308
874.836, 0.750
876.108, 78.728
877.379, 1.052
878.650, 31.903
879.922, 4.744
881.192, 41.532
882.463, 55.274
883.733, 53.030
885.004, 29.416
886.274, 18.181
887.544, 71.227
888.813, 10.660
890.083, 86.043
891.352, 102.377
892.621, 72.667
893.890, 34.908
895.159, 21.104
896.427, 5.752
897.695, 208.338
898.964, 21.613
900.232, 95.373
901.499, 124.314
902.767, 49.212
904.034, 64.937
905.301, 57.832
906.568, 108.556
907.835, 114.234
909.102, 112.130
910.368, 8.401
911.634, 63.885
912.900, 34.325
914.166, 172.719
915.432, 33.074
916.697, 41.615
917.962, 133.629
919.227, 115.833
920.492, 61.997
921.757, 67.117
923.021, 37.195
924.285, 89.231
925.550, 99.229
926.813, 106.188
928.077, 146.105
929.341, 194.986
930.604, 148.832
931.867, 98.640
933.130, 94.409
934.393, 216.140
935.655, 149.838
936.918, 277.500
938.180, 92.130
939.442, 50.721
940.703, 259.274
941.965, 151.793
943.226, 80.277
944.488, 159.726
945.749, 115.730
947.009, 167.722
948.270, 177.871
949.530, 255.189
950.791, 306.235
952.051, 309.493
953.311, 193.237
954.570, 426.968
955.830, 313.134
957.089, 413.160
958.348, 381.264
959.607, 503.133
960.866, 449.789
962.124, 421.894
963.383, 435.123
964.641, 467.804
965.899, 569.917
967.156, 450.259
968.414, 410.062
969.671, 620.567
970.928, 502.902
972.185, 657.279
973.442, 558.609
974.699, 753.872
975.955, 719.500
977.211, 502.664
978.468, 679.953
979.723, 712.631
980.979, 619.157
982.234, 949.721
983.490, 644.775
984.745, 1044.867
986.000, 920.993
987.254, 682.830
988.509, 942.548
989.763, 833.054
991.017, 899.769
992.271, 773.208
993.525, 942.330
994.779, 950.081
996.032, 971.874
997.285, 1156.668
998.538, 893.701
999.791, 1323.824
1001.044, 1256.853
1002.296, 1313.921
1003.548, 1165.115
1004.800, 1284.500
1006.052, 1331.322
1007.304, 1286.697
1008.555, 1179.948
1009.807, 1269.829
1011.058, 1260.891
1012.309, 1161.616
1013.559, 1378.606
1014.810, 1285.824
1016.060, 1492.590
1017.310, 1507.477
1018.560, 1276.264
1019.810, 1404.412
1021.060, 1673.727
1022.309, 1288.843
1023.558, 1636.488
1024.807, 1582.096
1026.056, 1720.315
1027.305, 1554.649
1028.553, 1582.475
1029.801, 1580.022
1031.049, 1609.207
1032.297, 1624.346
1033.545, 1631.203
1034.793, 1637.975
1036.040, 1666.598
1037.287, 1630.931
1038.534, 1696.880
1039.781, 1730.549
1041.027, 1675.575
1042.274, 1774.667
1043.520, 1884.631
1044.766, 1790.446
1046.012, 1711.200
1047.257, 1737.501
1048.503, 1861.046
1049.748, 1756.465
1050.993, 1881.527
1052.238, 1947.708
1053.483, 1706.570
1054.727, 1854.436
1055.971, 2037.346
1057.216, 1948.464
1058.459, 1844.606
1059.703, 1917.637
1060.947, 2001.333
1062.190, 2045.258
1063.433, 2040.056
1064.676, 2049.432
1065.919, 2052.219
1067.162, 2226.879
1068.404, 2046.084
1069.646, 2140.215
1070.888, 2356.117
1072.130, 2215.039
1073.372, 2572.945
1074.613, 2637.340
1075.855, 2660.975
1077.096, 2762.051
1078.337, 2905.133
1079.578, 3152.078
1080.818, 3252.330
1082.059, 3383.545
1083.299, 3552.566
1084.539, 3668.533
1085.779, 3680.090
1087.018, 3922.936
1088.258, 4107.945
1089.497, 4101.113
1090.736, 4315.547
1091.975, 4287.848
1093.213, 4248.133
1094.452, 4691.768
1095.690, 4452.438
1096.928, 4671.125
1098.166, 4623.225
1099.404, 4989.035
1100.642, 4771.801
1101.879, 5130.051
1103.116, 4960.461
1104.353, 5191.830
1105.590, 5006.547
1106.827, 5181.262
1108.063, 5076.520
1109.299, 5347.361
1110.536, 5229.418
1111.771, 5177.018
1113.007, 5330.738
1114.243, 5287.762
1115.478, 5309.631
1116.713, 5365.027
1117.948, 5510.730
1119.183, 5114.484
1120.418, 5314.461
1121.652, 5594.129
1122.886, 5844.057
1124.120, 5554.492
1125.354, 5315.473
1126.588, 5442.492
1127.821, 5281.354
1129.055, 5458.016
1130.288, 5439.283
1131.521, 5418.828
1132.753, 5185.998
1133.986, 5202.697
1135.218, 5517.703
1136.450, 5114.434
1137.682, 5245.820
1138.914, 5091.295
1140.146, 4915.941
1141.377, 5099.164
1142.609, 4916.438
1143.840, 5015.010
1145.071, 4903.256
1146.301, 4728.873
1147.532, 4719.660
1148.762, 4530.713
1149.992, 4520.578
1151.222, 4199.068
1152.452, 4230.590
1153.682, 4014.203
1154.911, 4084.680
1156.140, 3846.869
1157.369, 3705.055
1158.598, 3657.068
1159.827, 3778.732
1161.055, 3438.832
1162.284, 3461.959
1163.512, 3174.930
1164.740, 3277.549
1165.967, 2872.010
1167.195, 2942.666
1168.422, 2853.475
1169.650, 2911.383
1170.877, 2754.043
1172.103, 2616.518
1173.330, 2538.066
1174.557, 2680.250
1175.783, 2482.781
1177.009, 2113.059
1178.235, 2290.828
1179.461, 2152.666
1180.686, 1948.115
1181.912, 1893.184
1183.137, 1818.451
1184.362, 1662.006
1185.587, 1688.004
1186.811, 1649.812
1188.036, 1517.619
1189.260, 1401.639
1190.484, 1349.182
1191.708, 1291.910
1192.932, 1107.479
1194.155, 1089.973
1195.378, 959.674
1196.602, 1085.326
1197.825, 1184.090
1199.047, 1497.486
1200.270, 1145.000
1201.492, 1465.846
1202.715, 1205.188
1203.937, 732.684
1205.159, 756.889
1206.380, 545.576
1207.602, 319.045
1208.823, 339.111
1210.044, 402.209
1211.265, 514.725
1212.486, 432.688
1213.707, 358.725
1214.927, 373.217
1216.147, 224.119
1217.367, 225.340
1218.587, 244.531
1219.807, 158.363
1221.027, 94.176
1222.246, 47.959
1223.465, 206.750
1224.684, 237.480
1225.903, 111.678
1227.121, 204.359
1228.340, 154.312
1229.558, 281.943
1230.776, 78.561
1231.994, 126.172
1233.212, 106.760
1234.429, 206.461
1235.646, 124.020
1236.864, 267.564
1238.081, 196.186
1239.297, 128.691
1240.514, 127.186
1241.730, 75.562
1242.947, 125.549
1244.163, 37.955
1245.378, 115.324
1246.594, 125.668
1247.810, 14.070
1249.025, 211.352
1250.240, 223.609
1251.455, 137.846
1252.670, 144.039
1253.885, 21.172
1255.099, 113.266
1256.313, 94.547
1257.527, 173.443
1258.741, 143.336
1259.955, 43.830
1261.168, 108.930
1262.382, 11.656
1263.595, 152.281
1264.808, 3.086
1266.021, 88.502
1267.233, 17.029
1268.446, 112.336
1269.658, 20.643
1270.870, 101.906
1272.082, 97.025
1273.294, 31.896
1274.505, 9.066
1275.716, 49.988
1276.928, 88.158
1278.139, 17.377
1279.349, 198.301
1280.560, 128.932
1281.770, 198.480
1282.981, 49.014
1284.191, 47.406
1285.401, 35.244
1286.610, 138.957
1287.820, 93.244
1289.029, 63.633
1290.239, 103.416
1291.448, 63.584
1292.656, 28.354
1293.865, 42.240
1295.073, 103.080
1296.282, 59.904
1297.490, 27.381
1298.698, 3.305
1299.906, 5.943
1301.113, 114.525
1302.320, 36.941
1303.528, 145.471
1304.735, 44.096
1305.942, 66.789
1307.148, 117.443
1308.355, 32.377
1309.561, 237.730
1310.767, 8.789
1311.973, 74.211
1313.179, 156.293
1314.384, 158.521
1315.590, 40.279
1316.795, 53.982
1318.000, 119.371
1319.205, 86.172
1320.410, 49.658
1321.614, 34.906
1322.819, 178.457
1324.023, 28.771
1325.227, 246.033
1326.431, 94.250
1327.634, 98.578
1328.838, 42.510
1330.041, 104.549
1331.244, 144.547
1332.447, 59.500
1333.650, 87.385
1334.852, 38.225
1336.055, 10.980
1337.257, 175.760
1338.459, 23.541
1339.661, 134.096
1340.862, 138.693
1342.064, 109.250
1343.265, 190.766
1344.466, 156.242
1345.667, 30.318
1346.868, 123.062
1348.068, 214.412
1349.269, 44.729
1350.469, 91.010
1351.669, 142.260
1352.869, 233.479
1354.069, 218.672
1355.268, 112.842
1356.468, 334.986
1357.667, 214.107
1358.866, 102.213
1360.065, 366.299
1361.263, 212.902
1362.462, 98.971
1363.660, 428.029
1364.858, 422.980
1366.056, 570.666
1367.254, 225.162
1368.451, 268.258
1369.649, 115.309
1370.846, 384.035
1372.043, 160.107
1373.240, 255.061
1374.436, 246.857
1375.633, 230.398
1376.829, 302.256
1378.025, 204.361
1379.221, 345.756
1380.417, 318.824
1381.613, 214.580
1382.808, 308.166
1384.003, 369.990
1385.199, 286.051
1386.393, 137.314
1387.588, 315.307
1388.783, 272.346
1389.977, 452.045
1391.171, 213.445
1392.365, 339.400
1393.559, 380.812
1394.753, 305.584
1395.946, 286.104
1397.140, 307.572
1398.333, 382.912
1399.526, 196.846
1400.719, 350.455
1401.911, 296.742
1403.104, 211.787
1404.296, 225.588
1405.488, 305.900
1406.680, 43.998
1407.872, 365.234
1409.063, 481.826
1410.255, 268.949
1411.446, 245.520
1412.637, 173.840
1413.828, 157.152
1415.018, 283.703
1416.209, 323.131
1417.399, 280.707
1418.589, 349.459
1419.779, 346.092
1420.969, 386.023
1422.159, 301.506
1423.348, 143.514
1424.537, 403.369
1425.726, 290.740
1426.915, 209.051
1428.104, 360.537
1429.293, 70.840
1430.481, 333.727
1431.669, 300.666
1432.857, 275.100
1434.045, 290.742
1435.233, 422.896
1436.420, 430.219
1437.608, 328.166
1438.795, 283.025
1439.982, 540.875
1441.169, 497.680
1442.355, 355.314
1443.542, 690.928
1444.728, 496.766
1445.914, 652.969
1447.100, 562.686
1448.286, 556.412
1449.472, 520.705
1450.657, 783.934
1451.842, 553.012
1453.027, 513.924
1454.212, 912.428
1455.397, 604.900
1456.581, 679.287
1457.766, 748.260
1458.950, 697.547
1460.134, 734.004
1461.318, 497.883
1462.501, 671.098
1463.685, 611.746
1464.868, 340.521
1466.051, 628.781
1467.234, 399.279
1468.417, 409.842
1469.600, 519.664
1470.782, 493.703
1471.965, 308.936
1473.147, 652.229
1474.329, 505.738
1475.510, 316.270
1476.692, 596.793
1477.873, 458.311
1479.055, 263.816
1480.236, 575.348
1481.416, 232.906
1482.597, 534.523
1483.778, 280.254
1484.958, 351.141
1486.138, 318.217
1487.318, 506.527
1488.498, 281.145
1489.678, 254.107
