##NAMES=Heulandite-Ca
##RRUFFID=R050097
##IDEAL CHEMISTRY=(Ca,Na,K)_5_(Si_27_Al_9_)O_72_&#183;26H_2_O
##LOCALITY=Rat's Nest Claim, Custer County, Idaho, USA
##OWNER=RRUFF
##SOURCE=John Cornish
##DESCRIPTION=Pale pink coffin-shaped tabular single crystals
##STATUS=The identification of this mineral has been confirmed by X-ray diffraction and chemical analysis
##URL=rruff.info/R050097
##MEASURED CHEMISTRY=(Ca_0.66_Na_0.30_K_0.04_)_5_(Si_0.77_Al_0.23_)_36_O_72_Â·24H_2_O
##PIN_ID=M00432
##ORIENTATION=Laser parallel to -c* (0 0 -1). Fiducial mark perpendicular to laser is parallel to a [1 0 0]
81.521, 0.000
82.916, 29.764
84.311, 311.645
85.706, 426.219
87.101, 912.758
88.496, 1446.564
89.890, 2090.014
91.284, 2974.605
92.678, 3972.238
94.071, 4284.631
95.465, 5370.695
96.858, 5883.176
98.251, 6522.082
99.644, 7294.566
101.036, 7766.916
102.428, 8623.656
103.820, 9265.217
105.212, 9930.137
106.604, 10653.256
107.995, 11183.301
109.387, 11703.668
110.777, 11634.207
112.168, 12426.039
113.559, 12315.555
114.949, 12489.047
116.339, 12636.164
117.729, 13056.688
119.119, 12913.021
120.508, 12541.965
121.897, 11765.361
123.286, 12302.332
124.675, 11619.297
126.063, 11516.627
127.452, 11366.219
128.840, 11006.770
130.228, 11014.971
131.615, 10651.430
133.003, 11368.654
134.390, 11223.266
135.777, 11452.703
137.164, 11296.387
138.550, 12450.617
139.937, 11941.605
141.323, 12469.430
142.709, 12825.246
144.094, 12711.227
145.480, 12720.668
146.865, 12862.787
148.250, 12842.266
149.635, 12618.100
151.019, 12521.049
152.403, 12162.799
153.788, 12051.094
155.171, 11696.855
156.555, 11436.746
157.939, 11115.332
159.322, 10639.316
160.705, 10145.582
162.088, 9426.518
163.470, 8728.391
164.853, 8051.344
166.235, 7342.363
167.617, 6667.832
168.998, 5963.318
170.380, 5451.312
171.761, 4931.598
173.142, 4231.764
174.523, 4178.736
175.904, 3747.396
177.284, 3172.479
178.664, 3174.621
180.044, 2672.158
181.424, 2608.311
182.803, 2660.328
184.183, 2235.018
185.562, 2184.508
186.940, 2335.238
188.319, 2149.391
189.698, 2192.805
191.076, 1843.256
192.454, 1998.018
193.831, 2039.018
195.209, 1835.611
196.586, 1919.941
197.963, 1700.779
199.340, 1801.344
200.717, 1673.643
202.093, 1536.898
203.470, 1451.037
204.846, 1387.014
206.221, 1186.811
207.597, 1050.332
208.972, 825.080
210.347, 653.119
211.722, 235.207
213.097, 24.877
214.472, 512.129
215.846, 377.549
217.220, 500.131
218.594, 708.875
219.967, 659.781
221.341, 708.850
222.714, 796.076
224.087, 875.449
225.460, 864.969
226.832, 886.621
228.204, 947.410
229.577, 886.414
230.948, 937.100
232.320, 948.875
233.692, 760.941
235.063, 526.268
236.434, 566.947
237.805, 391.961
239.175, 315.322
240.545, 295.053
241.916, 116.357
243.286, 34.010
244.655, 263.150
246.025, 307.090
247.394, 603.131
248.763, 737.232
250.132, 637.162
251.501, 1018.277
252.869, 850.738
254.237, 1080.957
255.605, 1091.529
256.973, 1036.141
258.340, 1144.545
259.708, 1055.539
261.075, 1165.961
262.442, 1200.693
263.808, 1248.629
265.175, 1288.217
266.541, 1402.734
267.907, 1364.709
269.273, 1312.529
270.639, 1424.143
272.004, 1402.689
273.369, 1646.611
274.734, 1495.428
276.099, 1404.941
277.463, 1475.146
278.828, 1667.035
280.192, 1686.580
281.556, 1728.912
282.919, 1658.270
284.283, 1681.219
285.646, 1570.477
287.009, 1435.021
288.372, 1400.875
289.734, 1605.066
291.097, 1479.641
292.459, 1322.627
293.821, 1669.051
295.183, 1447.943
296.544, 1616.328
297.905, 1401.229
299.266, 1444.654
300.627, 1463.631
301.988, 1423.168
303.348, 1516.281
304.709, 1414.984
306.069, 1491.289
307.428, 1749.209
308.788, 1554.756
310.147, 1639.932
311.507, 1834.600
312.865, 1679.049
314.224, 1984.100
315.583, 1972.496
316.941, 2250.219
318.299, 2398.180
319.657, 2435.387
321.015, 2740.902
322.372, 2820.848
323.729, 2935.619
325.086, 3003.465
326.443, 3252.707
327.800, 3194.602
329.156, 3468.492
330.512, 3601.020
331.868, 3862.629
333.224, 4062.174
334.579, 4141.654
335.935, 4119.066
337.290, 4698.410
338.645, 4623.680
339.999, 4861.869
341.354, 5095.371
342.708, 5165.850
344.062, 5479.969
345.416, 5498.840
346.769, 5772.645
348.123, 6012.359
349.476, 5957.973
350.829, 6362.508
352.182, 6599.980
353.534, 7168.340
354.887, 7364.635
356.239, 7652.807
357.591, 7988.863
358.942, 8519.859
360.294, 8870.727
361.645, 9330.521
362.996, 9735.387
364.347, 10321.359
365.698, 10723.641
367.048, 11268.736
368.398, 11896.168
369.748, 12228.115
371.098, 13115.328
372.448, 13442.258
373.797, 13875.480
375.146, 14347.135
376.495, 15164.461
377.844, 15926.066
379.192, 16394.826
380.540, 17507.941
381.889, 18130.393
383.236, 18542.645
384.584, 19681.896
385.932, 20563.186
387.279, 21279.105
388.626, 22436.277
389.973, 24310.787
391.319, 24349.051
392.666, 26237.893
394.012, 27008.729
395.358, 28337.979
396.704, 29759.955
398.049, 30741.604
399.394, 32425.686
400.740, 32513.336
402.084, 33075.738
403.429, 32883.949
404.774, 32815.059
406.118, 32179.242
407.462, 31587.113
408.806, 30256.297
410.150, 29263.848
411.493, 28001.262
412.836, 26664.375
414.179, 25263.602
415.522, 22881.758
416.865, 22124.789
418.207, 20315.762
419.549, 18582.002
420.891, 17469.232
422.233, 16112.580
423.575, 14986.035
424.916, 13126.611
426.257, 12644.096
427.598, 11625.455
428.939, 10326.996
430.279, 9871.082
431.619, 8618.654
432.959, 7843.395
434.299, 7188.754
435.639, 6790.342
436.978, 5901.504
438.318, 5766.000
439.657, 5091.500
440.996, 5005.326
442.334, 4572.967
443.673, 4337.262
445.011, 4049.557
446.349, 4063.512
447.687, 3840.734
449.024, 3914.129
450.361, 4066.123
451.699, 3880.715
453.036, 3993.533
454.372, 4115.453
455.709, 4627.580
457.045, 4736.543
458.381, 5316.977
459.717, 5663.279
461.053, 6238.539
462.388, 6681.654
463.724, 7314.137
465.059, 8499.273
466.394, 8707.531
467.728, 9234.895
469.063, 10047.125
470.397, 10256.336
471.731, 10949.703
473.065, 11928.686
474.398, 12286.824
475.732, 13692.055
477.065, 14496.070
478.398, 15821.477
479.731, 17068.773
481.063, 18366.967
482.396, 19432.072
483.728, 20361.082
485.060, 20999.008
486.391, 20485.863
487.723, 19780.633
489.054, 18972.332
490.385, 17916.969
491.716, 16270.516
493.047, 14405.988
494.377, 12577.387
495.708, 11077.250
497.038, 9612.969
498.368, 7949.145
499.697, 6737.582
501.027, 5752.605
502.356, 4867.475
503.685, 4229.082
505.014, 3546.248
506.342, 2899.211
507.671, 2573.184
508.999, 2226.332
510.327, 1908.803
511.655, 1760.590
512.982, 1777.311
514.310, 1345.174
515.637, 1216.549
516.964, 1092.277
518.291, 764.504
519.617, 992.268
520.944, 766.428
522.270, 439.441
523.596, 622.516
524.921, 537.494
526.247, 552.229
527.572, 460.461
528.897, 306.955
530.222, 452.982
531.547, 292.059
532.871, 477.092
534.196, 155.889
535.520, 15.744
536.844, 148.658
538.167, 168.766
539.491, 111.285
540.814, 92.338
542.137, 78.035
543.460, 100.293
544.783, 33.303
546.105, 142.727
547.427, 28.883
548.749, 107.684
550.071, 216.158
551.393, 56.512
552.714, 78.496
554.035, 43.754
555.356, 100.139
556.677, 228.111
557.998, 148.600
559.318, 29.697
560.638, 92.395
561.958, 35.660
563.278, 107.002
564.597, 0.174
565.917, 80.119
567.236, 131.203
568.555, 87.371
569.874, 13.195
571.192, 166.547
572.511, 168.156
573.829, 243.070
575.147, 303.422
576.464, 265.047
577.782, 318.988
579.099, 363.465
580.416, 416.770
581.733, 433.986
583.050, 621.926
584.366, 681.504
585.683, 876.035
586.999, 810.332
588.315, 744.506
589.630, 1254.547
590.946, 1403.711
592.261, 1358.703
593.576, 1439.666
594.891, 1496.582
596.206, 1625.027
597.520, 1826.420
598.834, 2307.965
600.148, 2399.221
601.462, 2562.414
602.776, 3049.551
604.089, 2959.625
605.402, 3266.648
606.715, 3628.654
608.028, 3828.605
609.341, 3787.504
610.653, 3875.342
611.965, 3823.125
613.277, 3547.895
614.589, 3562.605
615.901, 3344.275
617.212, 3401.906
618.523, 3012.490
619.834, 2969.039
621.145, 2774.547
622.456, 2700.008
623.766, 2278.471
625.076, 2359.885
626.386, 2225.266
627.696, 2052.594
629.006, 1590.906
630.315, 1702.193
631.624, 1240.428
632.933, 1194.623
634.242, 1460.760
635.551, 963.846
636.859, 1054.877
638.167, 736.850
639.475, 873.768
640.783, 587.633
642.090, 729.441
643.398, 774.195
644.705, 795.891
646.012, 582.527
647.318, 574.107
648.625, 672.625
649.931, 603.086
651.237, 657.490
652.543, 446.836
653.849, 463.516
655.155, 585.732
656.460, 494.885
657.765, 791.973
659.070, 116.998
660.375, 160.947
661.679, 249.818
662.984, 44.385
664.288, 20.301
665.592, 16.094
666.895, 86.590
668.199, 156.217
669.502, 13.984
670.805, 190.898
672.108, 53.027
673.411, 31.127
674.713, 183.389
676.016, 144.600
677.318, 136.295
678.620, 48.891
679.921, 17.926
681.223, 136.230
682.524, 58.178
683.825, 142.295
685.126, 76.543
686.427, 166.582
687.727, 133.936
689.028, 124.715
690.328, 162.189
691.628, 138.480
692.927, 127.133
694.227, 116.648
695.526, 16.945
696.825, 204.051
698.124, 337.516
699.423, 387.895
700.721, 100.729
702.020, 245.049
703.318, 211.295
704.616, 176.893
705.913, 375.121
707.211, 127.986
708.508, 326.119
709.805, 317.221
711.102, 174.889
712.399, 465.904
713.695, 104.666
714.992, 524.268
716.288, 188.229
717.584, 330.518
718.879, 122.770
720.175, 65.316
721.470, 503.104
722.765, 256.059
724.060, 311.740
725.355, 325.225
726.649, 237.775
727.944, 249.840
729.238, 395.354
730.532, 90.893
731.825, 381.342
733.119, 342.920
734.412, 204.404
735.705, 307.424
736.998, 149.902
738.291, 278.539
739.584, 347.861
740.876, 343.574
742.168, 382.672
743.460, 395.133
744.752, 414.152
746.043, 375.443
747.334, 406.039
748.626, 403.639
749.916, 398.736
751.207, 497.982
752.498, 440.654
753.788, 663.336
755.078, 520.689
756.368, 658.209
757.658, 743.357
758.947, 732.795
760.237, 923.178
761.526, 835.566
762.815, 972.811
764.104, 948.971
765.392, 1156.439
766.680, 1216.939
767.969, 1008.439
769.257, 1542.070
770.544, 1259.496
771.832, 1532.002
773.119, 1449.539
774.406, 1440.750
775.693, 1632.883
776.980, 1496.912
778.267, 1550.814
779.553, 1627.918
780.839, 1853.785
782.125, 1657.031
783.411, 1640.879
784.697, 1538.045
785.982, 1498.986
787.267, 1708.525
788.552, 1473.299
789.837, 1317.971
791.122, 1415.107
792.406, 1198.883
793.690, 1140.842
794.974, 1117.473
796.258, 958.221
797.542, 1090.738
798.825, 882.160
800.108, 992.883
801.391, 740.643
802.674, 887.352
803.957, 913.414
805.239, 659.314
806.522, 944.914
807.804, 441.557
809.085, 938.709
810.367, 889.211
811.649, 878.287
812.930, 876.619
814.211, 903.943
815.492, 846.369
816.772, 884.080
818.053, 928.828
819.333, 1016.408
820.613, 883.654
821.893, 1181.420
823.173, 830.707
824.452, 706.904
825.732, 774.801
827.011, 571.023
828.290, 504.740
829.568, 376.799
830.847, 329.164
832.125, 262.090
833.403, 234.768
834.681, 209.334
835.959, 177.219
837.236, 148.424
838.514, 169.346
839.791, 191.846
841.068, 248.645
842.345, 211.232
843.621, 428.703
844.898, 189.264
846.174, 75.650
847.450, 312.922
848.726, 72.920
850.001, 90.840
851.277, 80.146
852.552, 136.936
853.827, 189.861
855.102, 84.574
856.376, 117.840
857.651, 304.969
858.925, 532.906
860.199, 371.672
861.473, 308.453
862.746, 347.031
864.020, 416.553
865.293, 70.416
866.566, 349.477
867.839, 131.084
869.112, 130.352
870.384, 300.262
871.656, 543.750
872.928, 45.670
874.200, 112.609
875.472, 12.598
876.744, 75.723
878.015, 48.125
879.286, 76.145
880.557, 186.492
881.828, 60.111
883.098, 109.270
884.369, 96.918
885.639, 78.955
886.909, 51.404
888.178, 30.537
889.448, 4.834
890.717, 149.389
891.987, 138.271
893.256, 23.652
894.524, 148.795
895.793, 41.033
897.061, 19.756
898.330, 42.561
899.598, 41.645
900.865, 41.943
902.133, 22.096
903.401, 14.191
904.668, 81.848
905.935, 58.572
907.202, 2.531
908.468, 56.283
909.735, 20.959
911.001, 34.672
912.267, 28.752
913.533, 158.268
914.799, 18.057
916.064, 17.311
917.330, 161.490
918.595, 132.805
919.860, 136.348
921.124, 59.555
922.389, 25.613
923.653, 61.865
924.918, 17.773
926.182, 44.650
927.445, 45.170
928.709, 74.219
929.972, 188.438
931.236, 13.736
932.499, 48.156
933.761, 174.859
935.024, 131.168
936.286, 90.330
937.549, 181.396
938.811, 34.936
940.073, 176.650
941.334, 2.818
942.596, 45.652
943.857, 109.064
945.118, 43.414
946.379, 11.279
947.640, 48.959
948.900, 81.977
950.161, 82.271
951.421, 227.348
952.681, 196.371
953.940, 183.340
955.200, 79.254
956.459, 96.156
957.719, 146.023
958.978, 222.803
960.236, 334.154
961.495, 374.863
962.753, 510.529
964.012, 507.375
965.270, 532.518
966.527, 516.369
967.785, 515.932
969.043, 527.479
970.300, 522.008
971.557, 574.502
972.814, 664.975
974.071, 705.436
975.327, 749.910
976.583, 788.350
977.840, 950.812
979.095, 921.242
980.351, 820.646
981.607, 1078.639
982.862, 1132.402
984.117, 1130.930
985.372, 1309.984
986.627, 1281.582
987.882, 1472.764
989.136, 1461.801
990.390, 1425.975
991.644, 1672.217
992.898, 1718.711
994.152, 1625.021
995.405, 1709.217
996.659, 1848.383
997.912, 1959.047
999.165, 2092.682
1000.417, 2314.107
1001.670, 2111.779
1002.922, 2317.059
1004.174, 2585.189
1005.426, 2487.191
1006.678, 2380.730
1007.930, 2491.383
1009.181, 2516.791
1010.432, 2307.707
1011.683, 2517.340
1012.934, 2432.686
1014.185, 2573.162
1015.435, 2636.900
1016.685, 2510.170
1017.935, 2566.570
1019.185, 2788.027
1020.435, 2678.447
1021.684, 2691.549
1022.934, 2782.137
1024.183, 2774.854
1025.432, 2725.084
1026.680, 2912.863
1027.929, 2593.592
1029.177, 2648.453
1030.425, 2646.090
1031.673, 2715.467
1032.921, 2532.281
1034.169, 2503.271
1035.416, 2487.484
1036.663, 2423.777
1037.911, 2353.301
1039.157, 2435.854
1040.404, 2393.062
1041.650, 2473.094
1042.897, 2792.086
1044.143, 2405.602
1045.389, 2363.639
1046.634, 2626.229
1047.880, 2270.182
1049.125, 2441.771
1050.371, 2337.420
1051.615, 2620.057
1052.860, 2190.539
1054.105, 2432.775
1055.349, 2292.479
1056.593, 2108.062
1057.837, 2196.873
1059.081, 2336.410
1060.325, 1998.203
1061.568, 2060.602
1062.812, 2036.941
1064.055, 1978.979
1065.298, 2119.248
1066.540, 2037.482
1067.783, 2120.963
1069.025, 1961.635
1070.267, 2247.275
1071.509, 2090.744
1072.751, 2117.910
1073.993, 2398.367
1075.234, 2202.219
1076.475, 2422.678
1077.716, 2738.838
1078.957, 2606.762
1080.198, 2617.543
1081.438, 3014.016
1082.679, 2873.273
1083.919, 3077.299
1085.159, 3107.908
1086.398, 3295.332
1087.638, 3137.092
1088.877, 3161.371
1090.116, 3401.072
1091.355, 3525.650
1092.594, 3507.908
1093.833, 3569.266
1095.071, 3531.799
1096.309, 3488.916
1097.547, 3600.896
1098.785, 3710.402
1100.023, 3856.686
1101.260, 3791.432
1102.498, 4030.768
1103.735, 3786.711
1104.972, 4195.029
1106.208, 4157.232
1107.445, 4170.727
1108.681, 4192.488
1109.918, 4486.629
1111.154, 4062.840
1112.389, 4377.604
1113.625, 4242.379
1114.860, 4079.924
1116.096, 4471.629
1117.331, 4357.605
1118.566, 4374.426
1119.800, 4358.027
1121.035, 4475.895
1122.269, 4491.203
1123.503, 4890.807
1124.737, 4970.982
1125.971, 4609.240
1127.205, 4644.703
1128.438, 4244.551
1129.671, 4392.984
1130.904, 4101.279
1132.137, 4437.320
1133.370, 4342.615
1134.602, 4361.654
1135.834, 4082.512
1137.066, 4169.207
1138.298, 4534.449
1139.530, 3867.494
1140.762, 4324.869
1141.993, 4010.836
1143.224, 3985.447
1144.455, 3826.725
1145.686, 3771.941
1146.917, 3954.189
1148.147, 3962.193
1149.377, 3874.248
1150.607, 3898.346
1151.837, 3627.506
1153.067, 3683.484
1154.296, 3658.732
1155.526, 3711.863
1156.755, 3335.650
1157.984, 3554.775
1159.213, 3308.793
1160.441, 3415.824
1161.670, 3208.709
1162.898, 3424.457
1164.126, 3137.410
1165.354, 3055.535
1166.581, 3027.080
1167.809, 2794.736
1169.036, 2581.055
1170.263, 2816.166
1171.490, 2889.949
1172.717, 3280.494
1173.943, 2771.512
1175.170, 2648.000
1176.396, 2329.998
1177.622, 2453.453
1178.848, 2304.900
1180.073, 1905.316
1181.299, 2088.701
1182.524, 1767.059
1183.749, 1735.760
1184.974, 1802.939
1186.199, 1656.723
1187.423, 1482.441
1188.648, 1493.557
1189.872, 1390.645
1191.096, 1231.586
1192.320, 1133.875
1193.543, 1084.670
1194.767, 1013.607
1195.990, 815.867
1197.213, 890.037
1198.436, 823.539
1199.659, 944.836
1200.881, 554.545
1202.104, 715.559
1203.326, 595.764
1204.548, 895.668
1205.770, 366.041
1206.991, 574.594
1208.213, 352.537
1209.434, 394.363
1210.655, 113.945
1211.876, 305.209
1213.096, 372.988
1214.317, 150.564
1215.537, 411.320
1216.757, 292.365
1217.977, 276.807
1219.197, 132.420
1220.417, 257.676
1221.636, 130.848
1222.855, 37.750
1224.074, 107.633
1225.293, 67.840
1226.512, 201.539
1227.731, 200.928
1228.949, 43.686
1230.167, 61.711
1231.385, 152.955
1232.603, 95.363
1233.820, 44.297
1235.038, 0.893
1236.255, 47.000
1237.472, 18.678
1238.689, 18.906
1239.906, 292.844
1241.122, 59.365
1242.338, 96.467
1243.555, 127.252
1244.771, 43.020
1245.986, 28.662
1247.202, 299.264
1248.417, 122.826
1249.633, 200.350
1250.848, 162.611
1252.063, 45.164
1253.277, 24.436
1254.492, 31.521
1255.706, 49.104
1256.920, 34.631
1258.134, 6.268
1259.348, 102.943
1260.562, 83.127
1261.775, 135.246
1262.988, 73.824
1264.201, 96.051
1265.414, 143.734
1266.627, 74.713
1267.839, 201.377
1269.052, 126.914
1270.264, 223.529
1271.476, 197.967
1272.688, 143.641
1273.899, 283.980
1275.111, 139.271
1276.322, 166.510
1277.533, 222.443
1278.744, 155.598
1279.955, 41.303
1281.165, 250.740
1282.376, 53.740
1283.586, 148.697
1284.796, 190.613
1286.006, 141.512
1287.215, 199.266
1288.425, 53.939
1289.634, 112.469
1290.843, 120.865
1292.052, 108.311
1293.261, 159.254
1294.469, 147.305
1295.678, 130.281
1296.886, 110.178
1298.094, 147.012
1299.302, 77.781
1300.509, 98.488
1301.717, 174.135
1302.924, 85.723
1304.131, 104.250
1305.338, 93.719
1306.545, 121.104
1307.752, 146.434
1308.958, 89.705
1310.164, 280.914
1311.370, 173.066
1312.576, 432.143
1313.782, 214.164
1314.987, 256.125
1316.193, 91.033
1317.398, 546.885
1318.603, 260.684
1319.807, 387.420
1321.012, 258.100
1322.216, 393.715
1323.421, 478.275
1324.625, 824.781
1325.829, 618.322
1327.032, 460.625
1328.236, 299.963
1329.439, 178.801
1330.642, 69.650
1331.845, 13.584
1333.048, 58.348
1334.251, 58.107
1335.453, 87.826
1336.656, 45.682
1337.858, 69.973
1339.060, 88.355
1340.261, 29.828
1341.463, 44.377
1342.664, 33.732
1343.866, 97.297
1345.067, 5.459
1346.267, 33.721
1347.468, 97.840
1348.669, 6.904
1349.869, 71.250
1351.069, 208.859
1352.269, 115.758
1353.469, 128.605
1354.668, 180.402
1355.868, 257.340
1357.067, 126.025
1358.266, 165.676
1359.465, 352.291
1360.664, 282.207
1361.862, 188.762
1363.061, 414.398
1364.259, 232.443
1365.457, 247.604
1366.655, 302.191
1367.852, 10.352
1369.050, 377.744
1370.247, 801.334
1371.444, 606.053
1372.641, 293.740
1373.838, 322.496
1375.035, 284.449
1376.231, 343.127
1377.427, 212.273
1378.623, 279.398
1379.819, 440.713
1381.015, 41.090
1382.211, 241.387
1383.406, 384.189
1384.601, 164.941
1385.796, 370.094
1386.991, 374.727
1388.185, 561.072
1389.380, 528.381
1390.574, 499.158
1391.768, 369.543
1392.962, 447.859
1394.156, 236.389
1395.350, 254.523
1396.543, 474.459
1397.736, 151.816
1398.929, 263.221
1400.122, 266.846
1401.315, 412.312
1402.507, 295.055
1403.700, 318.520
1404.892, 324.148
1406.084, 338.885
1407.276, 335.711
1408.467, 356.354
1409.659, 265.871
1410.850, 329.645
1412.041, 519.689
1413.232, 110.275
1414.423, 382.646
1415.614, 284.150
1416.804, 356.090
1417.994, 376.031
1419.184, 505.955
1420.374, 175.949
1421.564, 586.621
1422.753, 365.793
1423.943, 541.543
1425.132, 415.199
1426.321, 679.502
1427.510, 576.744
1428.698, 665.430
1429.887, 518.182
1431.075, 417.576
1432.263, 604.193
1433.451, 547.900
1434.639, 784.660
1435.827, 728.570
1437.014, 628.209
1438.201, 1140.195
1439.388, 966.043
1440.575, 941.934
1441.762, 1074.596
1442.949, 1212.611
1444.135, 1300.418
1445.321, 1187.621
1446.507, 1298.568
1447.693, 1178.818
1448.879, 1195.506
1450.064, 1366.299
1451.250, 1439.715
1452.435, 1284.229
1453.620, 1656.574
1454.805, 1511.684
1455.989, 1510.945
1457.174, 1830.486
1458.358, 1555.756
1459.542, 1714.967
1460.726, 1575.107
1461.910, 1511.070
1463.093, 1562.342
1464.277, 1381.553
1465.460, 1377.660
1466.643, 1383.496
1467.826, 1245.496
1469.009, 1453.137
1470.191, 1113.248
1471.373, 952.570
1472.556, 1162.791
1473.738, 930.572
1474.919, 843.168
1476.101, 911.484
1477.283, 1107.525
1478.464, 682.260
