##NAMES=Hubnerite
##RRUFFID=R050069
##IDEAL CHEMISTRY=Mn^2+^W^6+^O_4_
##LOCALITY=Yaogangxian, Yizhang County, Hunan Province, China
##OWNER=RRUFF
##SOURCE=Rock Currier
##DESCRIPTION=Black colored prismatic single crystal
##STATUS=The identification of this mineral has been confirmed by X-ray diffraction and chemical analysis
##URL=rruff.info/R050069
##MEASURED CHEMISTRY=(Mn_0.68_Fe_0.32_)W_1.00_O_4_
##PIN_ID=L00322
##ORIENTATION=Laser parallel to (-1 0 -1). Fiducial mark perpendicular to laser is parallel to -b [0 -1 0]
151.324, 0.000
152.710, 86.154
154.096, 77.698
155.481, 144.380
156.866, 1.603
158.251, 19.469
159.636, 7.542
161.020, 32.901
162.405, 16.770
163.789, 66.168
165.172, 144.105
166.556, 256.346
167.939, 272.303
169.322, 222.540
170.705, 449.528
172.088, 395.438
173.470, 328.369
174.853, 149.265
176.234, 152.793
177.616, 121.462
178.998, 80.905
180.379, 102.365
181.760, 45.323
183.141, 21.268
184.521, 67.729
185.902, 71.819
187.282, 75.893
188.662, 114.860
190.042, 179.180
191.421, 180.725
192.800, 244.517
194.179, 211.840
195.558, 253.117
196.937, 247.878
198.315, 276.810
199.693, 299.617
201.071, 325.181
202.449, 350.356
203.826, 381.343
205.203, 441.633
206.580, 477.632
207.957, 463.685
209.333, 451.267
210.710, 401.982
212.086, 308.196
213.462, 289.427
214.837, 213.296
216.213, 182.689
217.588, 186.227
218.963, 214.535
220.337, 152.461
221.712, 132.392
223.086, 143.984
224.460, 57.115
225.834, 58.284
227.207, 35.498
228.581, 35.630
229.954, 23.284
231.327, 91.382
232.699, 61.405
234.072, 85.609
235.444, 40.972
236.816, 93.762
238.188, 70.110
239.559, 63.165
240.931, 70.284
242.302, 22.292
243.673, 79.546
245.043, 29.309
246.414, 40.255
247.784, 31.248
249.154, 127.524
250.523, 25.823
251.893, 42.132
253.262, 9.542
254.631, 68.894
256.000, 34.432
257.369, 1.007
258.737, 12.206
260.105, 117.071
261.473, 93.888
262.841, 144.625
264.208, 104.763
265.576, 123.899
266.943, 106.080
268.310, 215.670
269.676, 161.790
271.042, 175.607
272.409, 256.833
273.775, 252.086
275.140, 205.200
276.506, 173.173
277.871, 121.011
279.236, 99.713
280.601, 85.264
281.965, 75.897
283.330, 71.945
284.694, 67.227
286.058, 33.475
287.421, 1.333
288.785, 18.721
290.148, 12.781
291.511, 29.955
292.874, 133.065
294.236, 99.035
295.599, 104.403
296.961, 70.850
298.323, 53.961
299.684, 16.854
301.046, 58.188
302.407, 55.225
303.768, 14.854
305.129, 9.262
306.489, 24.771
307.850, 36.934
309.210, 26.455
310.570, 1.321
311.929, 7.639
313.289, 27.456
314.648, 0.806
316.007, 124.587
317.366, 95.494
318.724, 183.797
320.083, 203.611
321.441, 355.732
322.799, 381.552
324.156, 376.001
325.514, 466.221
326.871, 480.981
328.228, 480.467
329.585, 490.794
330.941, 440.662
332.298, 412.251
333.654, 448.505
335.010, 381.455
336.365, 369.115
337.721, 345.390
339.076, 321.708
340.431, 333.539
341.786, 291.457
343.140, 296.941
344.495, 265.263
345.849, 270.933
347.203, 242.056
348.556, 273.354
349.910, 236.414
351.263, 259.227
352.616, 284.976
353.969, 324.564
355.321, 293.775
356.674, 305.983
358.026, 242.790
359.378, 307.521
360.729, 251.974
362.081, 269.231
363.432, 261.395
364.783, 293.417
366.134, 288.374
367.484, 294.208
368.835, 252.059
370.185, 313.865
371.535, 286.523
372.884, 266.994
374.234, 324.145
375.583, 300.797
376.932, 276.271
378.281, 321.314
379.630, 250.109
380.978, 309.794
382.326, 348.468
383.674, 280.628
385.022, 351.475
386.369, 326.327
387.717, 340.226
389.064, 354.968
390.411, 359.892
391.757, 387.934
393.104, 505.921
394.450, 478.304
395.796, 562.179
397.141, 652.291
398.487, 679.646
399.832, 713.758
401.177, 708.533
402.522, 619.242
403.867, 569.959
405.211, 453.932
406.555, 479.769
407.899, 410.759
409.243, 404.985
410.587, 360.798
411.930, 330.936
413.273, 320.736
414.616, 291.669
415.959, 273.665
417.301, 265.730
418.644, 265.473
419.986, 249.153
421.327, 247.220
422.669, 241.183
424.010, 246.978
425.351, 229.127
426.692, 225.738
428.033, 206.676
429.374, 193.177
430.714, 210.396
432.054, 172.472
433.394, 203.686
434.733, 221.201
436.073, 210.233
437.412, 229.541
438.751, 212.152
440.090, 229.553
441.428, 251.802
442.767, 232.494
444.105, 219.508
445.443, 217.796
446.780, 209.145
448.118, 228.602
449.455, 207.550
450.792, 194.627
452.129, 203.209
453.465, 186.769
454.802, 263.536
456.138, 170.243
457.474, 215.125
458.809, 193.787
460.145, 169.370
461.480, 165.305
462.815, 186.551
464.150, 172.735
465.485, 198.667
466.819, 194.851
468.153, 198.013
469.487, 182.669
470.821, 184.975
472.155, 182.460
473.488, 179.102
474.821, 173.581
476.154, 152.100
477.487, 141.451
478.819, 156.556
480.151, 168.113
481.483, 164.163
482.815, 188.882
484.147, 169.027
485.478, 166.855
486.809, 170.209
488.140, 197.976
489.471, 193.922
490.802, 223.424
492.132, 205.276
493.462, 209.871
494.792, 211.552
496.122, 211.802
497.451, 235.902
498.780, 292.982
500.109, 224.765
501.438, 310.525
502.767, 278.146
504.095, 302.662
505.423, 262.923
506.751, 350.253
508.079, 361.320
509.406, 331.511
510.734, 361.458
512.061, 301.454
513.388, 325.512
514.714, 311.691
516.041, 280.698
517.367, 328.714
518.693, 282.424
520.019, 313.364
521.344, 263.033
522.670, 227.737
523.995, 296.371
525.320, 221.102
526.644, 279.776
527.969, 259.439
529.293, 298.890
530.617, 315.565
531.941, 262.092
533.265, 328.504
534.588, 342.123
535.911, 370.614
537.234, 360.974
538.557, 309.495
539.880, 400.692
541.202, 400.113
542.524, 338.671
543.846, 390.922
545.168, 352.448
546.489, 324.849
547.811, 360.293
549.132, 323.784
550.453, 250.312
551.773, 253.947
553.094, 244.804
554.414, 243.641
555.734, 230.992
557.054, 231.256
558.374, 198.037
559.693, 192.799
561.012, 168.542
562.331, 180.267
563.650, 125.973
564.968, 156.664
566.287, 161.335
567.605, 133.005
568.923, 186.649
570.240, 146.106
571.558, 120.120
572.875, 160.468
574.192, 168.539
575.509, 206.613
576.825, 180.521
578.142, 110.676
579.458, 125.641
580.774, 52.600
582.090, 32.520
583.405, 35.451
584.721, 71.293
586.036, 18.110
587.351, 9.167
588.665, 26.480
589.980, 22.182
591.294, 4.711
592.608, 2.354
593.922, 10.651
595.236, 24.682
596.549, 14.624
597.862, 16.028
599.175, 22.618
600.488, 9.654
601.801, 3.978
603.113, 6.454
604.425, 14.907
605.737, 27.587
607.049, 14.841
608.361, 22.363
609.672, 36.046
610.983, 19.491
612.294, 1.134
613.605, 16.450
614.915, 2.824
616.225, 1.723
617.536, 25.368
618.845, 5.864
620.155, 9.093
621.464, 6.406
622.774, 16.657
624.083, 34.030
625.391, 39.399
626.700, 2.199
628.008, 27.160
629.317, 49.450
630.625, 8.904
631.932, 18.247
633.240, 36.433
634.547, 28.781
635.854, 5.944
637.161, 38.834
638.468, 53.405
639.774, 44.378
641.081, 6.905
642.387, 16.906
643.693, 1.256
644.998, 10.578
646.304, 24.688
647.609, 25.071
648.914, 18.269
650.219, 19.474
651.523, 30.783
652.828, 49.042
654.132, 55.298
655.436, 19.651
656.740, 51.152
658.043, 52.453
659.346, 28.935
660.650, 44.728
661.952, 80.874
663.255, 35.333
664.558, 60.783
665.860, 45.351
667.162, 145.668
668.464, 97.102
669.766, 106.531
671.067, 166.953
672.368, 151.693
673.669, 150.781
674.970, 184.188
676.271, 173.590
677.571, 171.987
678.871, 219.382
680.171, 254.728
681.471, 211.116
682.771, 223.449
684.070, 248.837
685.369, 233.222
686.668, 265.604
687.967, 264.982
689.266, 221.362
690.564, 311.744
691.862, 295.124
693.160, 292.501
694.458, 267.878
695.755, 274.252
697.053, 291.629
698.350, 257.003
699.646, 283.378
700.943, 251.756
702.240, 226.131
703.536, 207.512
704.832, 199.890
706.128, 182.265
707.423, 177.641
708.719, 150.014
710.014, 135.383
711.309, 114.750
712.604, 77.114
713.898, 42.474
715.193, 31.951
716.487, 69.185
717.781, 5.467
719.075, 43.804
720.368, 27.917
721.662, 33.164
722.955, 48.438
724.248, 17.600
725.541, 78.937
726.833, 20.837
728.125, 14.278
729.418, 37.568
730.709, 1.898
732.001, 50.228
733.293, 54.559
734.584, 55.673
735.875, 43.858
737.166, 39.745
738.457, 34.556
739.747, 22.387
741.037, 97.376
742.327, 58.151
743.617, 99.350
744.907, 148.178
746.196, 79.998
747.486, 62.753
748.775, 64.509
750.063, 70.691
751.352, 137.559
752.640, 151.565
753.929, 169.508
755.217, 219.396
756.504, 244.688
757.792, 276.664
759.079, 278.993
760.367, 342.061
761.654, 369.019
762.940, 410.115
764.227, 488.827
765.513, 531.852
766.799, 674.818
768.085, 666.620
769.371, 769.706
770.657, 797.635
771.942, 801.449
773.227, 860.107
774.512, 835.083
775.797, 798.085
777.081, 838.086
778.365, 814.143
779.650, 750.283
780.933, 768.458
782.217, 738.360
783.501, 737.505
784.784, 676.966
786.067, 638.057
787.350, 604.199
788.633, 591.450
789.915, 560.660
791.197, 541.786
792.479, 458.958
793.761, 435.307
795.043, 428.212
796.324, 410.391
797.606, 412.791
798.887, 399.971
800.167, 411.711
801.448, 327.017
802.728, 300.078
804.009, 230.381
805.289, 242.757
806.568, 272.138
807.848, 274.607
809.128, 260.115
810.407, 286.486
811.686, 254.000
812.965, 224.531
814.243, 219.976
815.522, 171.499
816.800, 222.096
818.078, 145.610
819.355, 263.225
820.633, 239.804
821.910, 214.484
823.188, 218.116
824.465, 206.753
825.741, 246.397
827.018, 262.046
828.294, 296.700
829.570, 255.361
830.846, 319.027
832.122, 280.145
833.398, 318.851
834.673, 289.538
835.948, 345.015
837.223, 358.714
838.498, 379.446
839.772, 392.156
841.047, 467.873
842.321, 433.553
843.595, 452.615
844.868, 528.349
846.142, 595.090
847.415, 640.276
848.688, 679.039
849.961, 761.827
851.234, 834.609
852.507, 850.988
853.779, 897.783
855.051, 1029.588
856.323, 1145.047
857.595, 1276.863
858.866, 1417.298
860.137, 1565.078
861.409, 1741.966
862.679, 1905.806
863.950, 2144.835
865.221, 2373.888
866.491, 2749.745
867.761, 3060.610
869.031, 3357.480
870.301, 3823.356
871.570, 4341.238
872.839, 5061.129
874.109, 5742.034
875.377, 6588.824
876.646, 7598.745
877.915, 8538.676
879.183, 9678.610
880.451, 10447.858
881.719, 11277.808
882.987, 12008.610
884.254, 12008.572
885.521, 11798.605
886.788, 11178.582
888.055, 10418.564
889.322, 9208.556
890.588, 8198.552
891.855, 7138.562
893.121, 6024.589
894.387, 5352.631
895.652, 4505.682
896.918, 3857.745
898.183, 3274.817
899.448, 2835.900
900.713, 2354.991
901.978, 2092.092
903.242, 1742.207
904.506, 1627.331
905.771, 1360.468
907.034, 1160.619
908.298, 1076.778
909.562, 940.950
910.825, 898.131
912.088, 781.322
913.351, 728.526
914.613, 570.738
915.876, 586.961
917.138, 507.198
918.400, 453.444
919.662, 451.698
920.924, 404.960
922.185, 384.235
923.447, 378.518
924.708, 272.810
925.969, 199.115
927.229, 300.429
928.490, 261.751
929.750, 284.081
931.010, 235.419
932.270, 156.763
933.530, 185.116
934.789, 169.476
936.048, 296.844
937.308, 234.260
938.566, 138.625
939.825, 203.026
941.084, 140.444
942.342, 184.867
943.600, 130.298
944.858, 102.747
946.116, 135.202
947.373, 130.675
948.630, 103.155
949.888, 130.228
951.144, 110.726
952.401, 153.233
953.658, 111.746
954.914, 59.271
956.170, 71.803
957.426, 83.345
958.682, 140.894
959.937, 120.404
961.193, 66.007
962.448, 88.573
963.703, 69.145
964.957, 17.721
966.212, 79.303
967.466, 36.890
968.720, 59.262
969.974, 51.860
971.228, 22.462
972.482, 2.930
973.735, 34.681
974.988, 39.297
976.241, 42.917
977.494, 54.178
978.746, 25.171
979.999, 44.806
981.251, 16.444
982.503, 13.912
983.755, 1.268
985.006, 31.927
986.258, 41.420
987.509, 50.220
988.760, 1.111
990.011, 7.539
991.261, 12.195
992.512, 24.147
993.762, 31.493
995.012, 34.152
996.262, 4.816
997.511, 12.381
998.761, 1.316
1000.010, 23.216
1001.259, 11.437
1002.508, 13.927
1003.756, 22.274
1005.005, 5.374
1006.253, 34.975
1007.501, 3.664
1008.749, 7.381
1009.996, 13.973
1011.244, 17.674
1012.491, 54.347
1013.738, 3.987
1014.985, 4.328
1016.232, 33.333
1017.478, 15.998
1018.724, 22.665
1019.970, 22.336
1021.216, 45.114
1022.462, 26.865
1023.707, 28.627
1024.953, 16.950
1026.198, 51.736
1027.443, 80.431
1028.687, 41.194
1029.932, 37.907
1031.176, 30.657
1032.420, 15.611
1033.664, 82.173
1034.908, 0.902
1036.152, 8.635
1037.395, 56.374
1038.638, 7.114
1039.881, 22.859
1041.124, 72.847
1042.366, 13.786
1043.609, 40.207
1044.851, 23.070
1046.093, 51.001
1047.335, 72.908
1048.576, 49.755
1049.818, 51.569
1051.059, 51.294
1052.300, 34.821
1053.541, 47.660
1054.781, 61.783
1056.022, 66.574
1057.262, 71.759
1058.502, 96.456
1059.742, 65.213
1060.981, 75.034
1062.221, 52.826
1063.460, 77.584
1064.699, 51.362
1065.938, 94.119
1067.177, 44.885
1068.415, 70.748
1069.653, 144.504
1070.891, 78.260
1072.129, 129.015
1073.367, 123.769
1074.604, 53.595
1075.842, 110.348
1077.079, 63.098
1078.316, 98.947
1079.553, 121.696
1080.789, 95.445
1082.025, 113.135
1083.262, 95.012
1084.498, 95.758
1085.733, 79.557
1086.969, 56.300
1088.204, 108.040
1089.439, 64.779
1090.674, 43.515
1091.909, 63.282
1093.144, 23.388
1094.378, 86.233
1095.612, 88.183
1096.846, 57.908
1098.080, 1.369
1099.314, 34.442
1100.547, 83.154
1101.781, 42.866
1103.014, 101.575
1104.247, 34.281
1105.479, 68.984
1106.712, 67.807
1107.944, 32.524
1109.176, 62.217
1110.408, 50.939
1111.640, 69.673
1112.871, 33.355
1114.102, 21.882
1115.334, 77.710
1116.565, 18.513
1117.795, 60.140
1119.026, 71.847
1120.256, 86.504
1121.486, 50.093
1122.716, 42.730
1123.946, 82.363
1125.176, 76.992
1126.405, 82.334
1127.634, 76.343
1128.863, 73.961
1130.092, 74.783
1131.321, 51.946
1132.549, 3.522
1133.778, 70.309
1135.006, 62.115
1136.233, 23.892
1137.461, 82.447
1138.689, 30.279
1139.916, 48.849
1141.143, 48.604
1142.370, 54.831
1143.597, 27.459
1144.823, 14.089
1146.050, 21.807
1147.276, 17.934
1148.502, 31.436
1149.727, 5.070
1150.953, 52.941
1152.178, 82.657
1153.404, 58.639
1154.629, 66.976
1155.853, 16.636
1157.078, 78.090
1158.302, 33.814
1159.527, 28.564
1160.751, 32.852
1161.975, 50.357
1163.198, 76.822
1164.422, 60.595
1165.645, 62.157
1166.868, 42.617
1168.091, 17.259
1169.314, 20.775
1170.536, 22.721
1171.759, 1.211
1172.981, 47.608
1174.203, 45.591
1175.424, 32.573
1176.646, 58.530
1177.867, 43.642
1179.089, 56.749
1180.310, 35.745
1181.530, 72.163
1182.751, 83.380
1183.971, 88.365
1185.192, 109.972
1186.412, 85.848
1187.632, 18.219
1188.851, 20.402
1190.071, 12.061
1191.290, 28.264
1192.509, 22.592
1193.728, 24.878
1194.947, 34.184
1196.165, 42.429
1197.384, 20.644
1198.602, 9.917
1199.820, 38.134
1201.037, 15.360
1202.255, 50.561
1203.472, 85.720
1204.690, 15.889
1205.907, 95.999
1207.124, 45.128
1208.340, 52.468
1209.557, 160.735
1210.773, 56.861
1211.989, 110.929
1213.205, 60.030
1214.421, 37.359
1215.636, 105.402
1216.851, 82.507
1218.067, 82.533
1219.281, 69.588
1220.496, 46.597
1221.711, 87.789
1222.925, 120.780
1224.139, 42.003
1225.353, 70.288
1226.567, 67.579
1227.781, 49.630
1228.994, 69.607
1230.207, 86.662
1231.421, 54.597
1232.633, 70.672
1233.846, 82.582
1235.059, 119.521
1236.271, 78.412
1237.483, 61.516
1238.695, 20.392
1239.907, 42.260
1241.118, 29.119
1242.330, 95.972
1243.541, 95.011
1244.752, 47.304
1245.963, 88.168
1247.173, 77.683
1248.384, 81.501
1249.594, 97.311
1250.804, 99.158
1252.014, 42.955
1253.223, 67.745
1254.433, 131.527
1255.642, 65.302
1256.851, 62.070
1258.060, 134.829
1259.269, 104.653
1260.478, 77.396
1261.686, 49.150
1262.894, 74.097
1264.102, 59.248
1265.310, 70.528
1266.518, 93.245
1267.725, 91.941
1268.932, 151.628
1270.139, 122.308
1271.346, 92.168
1272.553, 49.820
1273.759, 115.498
1274.966, 33.131
1276.172, 130.822
1277.378, 78.425
1278.583, 34.447
1279.789, 76.105
1280.994, 34.644
1282.200, 75.143
1283.405, 29.652
1284.609, 95.151
1285.814, 40.636
1287.018, 100.180
1288.223, 58.723
1289.427, 57.175
1290.631, 132.483
1291.834, 50.889
1293.038, 40.519
1294.241, 111.994
1295.444, 44.438
1296.647, 27.910
1297.850, 130.322
1299.053, 64.725
1300.255, 31.127
1301.457, 88.445
1302.659, 0.826
1303.861, 23.392
1305.063, 1.726
1306.264, 27.060
1307.466, 28.472
1308.667, 20.796
1309.868, 38.108
1311.068, 61.411
1312.269, 28.703
1313.469, 44.880
1314.669, 46.071
1315.869, 37.243
1317.069, 23.251
1318.269, 12.021
1319.468, 28.047
1320.668, 6.374
1321.867, 24.393
1323.066, 10.744
1324.264, 31.979
1325.463, 45.701
1326.661, 0.875
1327.859, 5.238
1329.057, 22.337
1330.255, 8.425
1331.452, 50.501
1332.650, 46.325
1333.847, 47.192
1335.044, 44.566
1336.241, 41.492
1337.438, 49.529
1338.634, 42.206
1339.830, 55.136
1341.027, 60.077
1342.222, 43.859
1343.418, 53.837
1344.614, 49.803
1345.809, 52.813
1347.004, 60.730
1348.199, 56.699
1349.394, 84.268
1350.589, 61.193
1351.783, 23.048
1352.978, 28.905
1354.172, 55.755
1355.365, 73.576
1356.559, 57.406
1357.753, 20.217
1358.946, 79.919
1360.139, 49.715
1361.332, 76.499
1362.525, 57.280
1363.718, 74.145
1364.910, 26.817
1366.102, 94.550
1367.294, 22.271
1368.486, 69.960
1369.678, 6.660
1370.869, 23.348
1372.061, 57.944
1373.252, 36.612
1374.443, 63.252
1375.634, 29.838
1376.824, 74.447
1378.015, 55.143
1379.205, 68.615
1380.395, 22.858
1381.585, 78.624
1382.775, 91.644
1383.964, 97.779
1385.153, 65.002
1386.343, 25.209
1387.531, 55.274
1388.720, 56.435
1389.909, 0.519
1391.097, 66.677
1392.285, 97.707
1393.473, 53.792
1394.661, 104.916
1395.849, 81.042
1397.037, 89.154
1398.224, 118.135
1399.411, 98.978
1400.598, 81.828
1401.785, 46.666
1402.971, 79.409
1404.158, 59.271
1405.344, 113.209
1406.530, 85.390
1407.716, 98.484
1408.901, 60.765
1410.087, 85.496
1411.272, 106.216
1412.457, 62.057
1413.642, 23.516
1414.827, 98.814
1416.012, 53.081
1417.196, 66.612
1418.380, 45.201
1419.564, 62.656
1420.748, 77.490
1421.932, 22.952
1423.115, 59.692
1424.299, 98.810
1425.482, 52.990
1426.665, 45.595
1427.847, 77.904
1429.030, 31.213
1430.212, 30.546
1431.395, 94.019
1432.577, 72.372
1433.759, 61.752
1434.940, 83.225
1436.122, 35.773
1437.303, 52.631
1438.484, 32.112
1439.665, 67.112
1440.846, 68.526
1442.026, 46.985
1443.207, 75.154
1444.387, 77.213
1445.567, 8.742
1446.747, 98.726
1447.927, 46.936
1449.106, 23.069
1450.286, 72.421
1451.465, 60.382
1452.644, 102.760
1453.822, 49.701
1455.001, 42.865
1456.179, 87.628
1457.358, 47.750
1458.536, 51.929
1459.714, 59.072
1460.891, 27.183
1462.069, 40.090
1463.246, 24.087
1464.423, 56.093
1465.600, 15.030
1466.777, 6.036
1467.954, 16.617
1469.130, 79.203
1470.306, 49.933
1471.483, 139.716
1472.658, 173.887
1473.834, 69.086
1475.010, 37.104
1476.185, 118.095
1477.360, 81.280
1478.535, 53.309
1479.710, 54.281
1480.885, 28.427
1482.059, 61.557
1483.234, 24.945
1484.408, 37.070
1485.582, 34.865
1486.755, 69.964
1487.929, 33.059
1489.102, 24.202
1490.275, 82.340
1491.449, 96.265
1492.621, 29.135
1493.794, 60.414
1494.967, 35.211
1496.139, 42.882
1497.311, 72.506
1498.483, 72.076
1499.655, 79.022
1500.826, 34.912
1501.998, 75.064
1503.169, 15.324
1504.340, 0.538
1505.511, 58.192
1506.682, 14.926
1507.852, 53.151
1509.023, 0.365
1510.193, 29.080
1511.363, 28.533
1512.532, 24.975
1513.702, 9.311
1514.872, 10.556
1516.041, 7.270
1517.210, 16.489
1518.379, 0.105
1519.548, 0.000
##END=



