##NAMES=Hubnerite
##RRUFFID=R050139
##IDEAL CHEMISTRY=Mn^2+^W^6+^O_4_
##LOCALITY=Pasto Bueno District, Pallasca Province, Ancash Department, Peru
##OWNER=RRUFF
##SOURCE=Dave Bunk Minerals
##DESCRIPTION=Black tabular crystals associated with quartz
##STATUS=The identification of this mineral has been confirmed by X-ray diffraction and chemical analysis
##URL=rruff.info/R050139
##MEASURED CHEMISTRY=(Mn^2+^_0.79_Fe^2+^_0.20_)W_1.00_O4
##PIN_ID=L00536
##ORIENTATION=Laser parallel to -b* (0 -1 0). Fiducial mark perpendicular to laser is parallel to -c [0 0 -1]
99.917, 0.000
101.314, 61.758
102.712, 49.801
104.109, 34.465
105.505, 84.829
106.902, 5.948
108.298, 172.113
109.694, 246.418
111.090, 345.760
112.486, 708.485
113.881, 495.359
115.277, 508.185
116.672, 670.426
118.066, 345.173
119.461, 395.156
120.855, 573.817
122.249, 912.275
123.643, 1610.755
125.036, 2093.795
126.430, 2706.503
127.823, 3111.493
129.216, 3268.114
130.608, 3372.248
132.001, 2690.467
133.393, 2144.147
134.785, 1522.355
136.176, 1578.984
137.568, 1370.597
138.959, 1301.357
140.350, 1035.628
141.741, 869.081
143.131, 767.531
144.521, 748.037
145.911, 727.602
147.301, 622.502
148.691, 512.127
150.080, 486.854
151.469, 387.447
152.858, 273.649
154.247, 154.016
155.635, 75.000
157.024, 27.515
158.411, 81.967
159.799, 38.887
161.187, 75.784
162.574, 17.834
163.961, 25.213
165.348, 0.157
166.734, 99.271
168.121, 142.604
169.507, 173.876
170.893, 248.698
172.278, 167.613
173.664, 210.984
175.049, 158.336
176.434, 185.521
177.819, 215.014
179.203, 238.248
180.587, 128.720
181.971, 181.558
183.355, 212.756
184.739, 333.163
186.122, 244.446
187.505, 285.629
188.888, 338.963
190.271, 357.796
191.653, 451.485
193.035, 529.241
194.417, 598.986
195.799, 712.457
197.180, 897.879
198.562, 1172.271
199.943, 1350.219
201.324, 1674.533
202.704, 1963.562
204.084, 2253.567
205.465, 2320.166
206.844, 2293.557
208.224, 2057.710
209.603, 1756.596
210.983, 1396.148
212.362, 1041.266
213.740, 808.915
215.119, 523.095
216.497, 434.825
217.875, 294.163
219.253, 207.123
220.631, 178.690
222.008, 73.864
223.385, 106.655
224.762, 45.060
226.139, 71.111
227.515, 8.186
228.891, 15.809
230.267, 22.616
231.643, 115.153
233.018, 55.814
234.394, 71.104
235.769, 66.065
237.144, 32.987
238.518, 76.578
239.893, 36.021
241.267, 15.896
242.641, 27.959
244.014, 8.583
245.388, 20.456
246.761, 93.426
248.134, 58.827
249.507, 34.792
250.879, 29.333
252.252, 89.481
253.624, 140.860
254.996, 230.770
256.367, 313.994
257.739, 371.480
259.110, 442.310
260.481, 353.689
261.852, 222.977
263.222, 253.015
264.592, 151.795
265.962, 117.480
267.332, 12.840
268.702, 54.100
270.071, 107.758
271.440, 164.274
272.809, 143.992
274.178, 126.548
275.546, 121.894
276.915, 258.961
278.283, 164.200
279.650, 304.268
281.018, 286.261
282.385, 311.229
283.752, 411.907
285.119, 472.112
286.486, 453.524
287.852, 545.312
289.218, 563.267
290.584, 585.067
291.950, 707.724
293.316, 664.533
294.681, 770.982
296.046, 776.366
297.411, 777.630
298.775, 903.197
300.140, 922.789
301.504, 951.665
302.868, 1036.755
304.231, 1129.526
305.595, 1278.586
306.958, 1292.302
308.321, 1445.896
309.684, 1595.719
311.047, 1794.967
312.409, 2027.065
313.771, 2319.366
315.133, 2574.169
316.495, 3069.058
317.856, 3562.554
319.217, 4229.269
320.578, 4979.251
321.939, 5692.711
323.299, 6305.639
324.660, 6725.031
326.020, 6887.563
327.380, 6805.046
328.739, 6549.311
330.099, 6004.546
331.458, 5565.944
332.817, 4930.126
334.176, 4480.325
335.534, 3985.172
336.892, 3537.212
338.251, 3170.699
339.608, 2851.137
340.966, 2571.524
342.323, 2301.010
343.681, 2084.601
345.037, 1850.710
346.394, 1726.510
347.751, 1695.532
349.107, 1592.517
350.463, 1451.388
351.819, 1393.654
353.174, 1333.199
354.530, 1256.732
355.885, 1224.789
357.240, 1146.374
358.594, 1129.151
359.949, 1126.321
361.303, 1109.025
362.657, 1072.600
364.011, 1070.698
365.365, 986.099
366.718, 1019.461
368.071, 962.700
369.424, 911.824
370.777, 907.833
372.129, 890.728
373.481, 925.510
374.833, 936.969
376.185, 869.852
377.537, 884.672
378.888, 866.212
380.239, 889.027
381.590, 857.602
382.941, 856.352
384.291, 830.696
385.642, 825.460
386.992, 836.762
388.341, 846.833
389.691, 868.460
391.040, 927.281
392.389, 1040.627
393.738, 1103.012
395.087, 1144.137
396.435, 1272.991
397.784, 1269.890
399.132, 1261.107
400.479, 1177.402
401.827, 1061.966
403.174, 948.079
404.521, 845.662
405.868, 775.117
407.215, 774.331
408.561, 723.634
409.908, 742.437
411.254, 706.719
412.599, 604.612
413.945, 564.515
415.290, 570.480
416.636, 619.073
417.980, 532.335
419.325, 575.284
420.670, 519.778
422.014, 517.498
423.358, 562.915
424.702, 535.232
426.045, 528.496
427.389, 557.292
428.732, 572.481
430.075, 510.775
431.417, 523.837
432.760, 539.167
434.102, 542.599
435.444, 488.034
436.786, 510.982
438.127, 586.720
439.469, 532.584
440.810, 558.580
442.151, 557.421
443.492, 543.668
444.832, 591.910
446.172, 455.913
447.512, 508.717
448.852, 519.467
450.192, 464.477
451.531, 492.648
452.870, 516.874
454.209, 459.178
455.548, 480.836
456.887, 454.507
458.225, 467.484
459.563, 404.448
460.901, 433.335
462.238, 412.314
463.576, 406.142
464.913, 444.277
466.250, 386.686
467.587, 357.808
468.923, 362.679
470.259, 377.409
471.596, 360.443
472.931, 413.659
474.267, 387.562
475.603, 369.077
476.938, 317.830
478.273, 354.699
479.608, 381.400
480.942, 399.530
482.276, 371.030
483.611, 295.723
484.944, 300.403
486.278, 282.886
487.612, 352.352
488.945, 373.781
490.278, 364.844
491.611, 341.361
492.943, 369.759
494.276, 307.112
495.608, 268.383
496.940, 330.616
498.271, 299.834
499.603, 323.002
500.934, 289.143
502.265, 365.254
503.596, 327.338
504.927, 332.393
506.257, 305.426
507.587, 307.434
508.917, 340.415
510.247, 336.367
511.577, 318.294
512.906, 311.194
514.235, 307.067
515.564, 326.911
516.892, 317.725
518.221, 336.395
519.549, 314.984
520.877, 333.551
522.205, 362.035
523.533, 387.351
524.860, 355.643
526.187, 421.558
527.514, 442.591
528.841, 485.365
530.167, 539.906
531.493, 571.410
532.820, 623.821
534.145, 651.360
535.471, 724.933
536.796, 775.217
538.122, 780.562
539.447, 887.831
540.771, 827.203
542.096, 897.458
543.420, 884.729
544.744, 890.914
546.068, 877.110
547.392, 821.383
548.715, 707.736
550.039, 613.213
551.362, 564.538
552.684, 502.130
554.007, 473.272
555.329, 451.454
556.652, 437.660
557.973, 332.895
559.295, 345.157
560.617, 283.438
561.938, 308.748
563.259, 194.078
564.580, 269.255
565.901, 146.179
567.221, 185.139
568.541, 175.945
569.861, 167.857
571.181, 146.653
572.501, 114.057
573.820, 96.327
575.139, 94.649
576.458, 106.197
577.777, 99.399
579.095, 74.793
580.414, 78.966
581.732, 38.137
583.049, 30.507
584.367, 96.986
585.685, 0.831
587.002, 16.715
588.319, 43.368
589.636, 3.231
590.952, 31.277
592.268, 25.322
593.585, 4.690
594.900, 10.130
596.216, 32.488
597.532, 8.406
598.847, 12.786
600.162, 7.215
601.477, 20.439
602.792, 27.873
604.106, 11.038
605.420, 0.245
606.734, 8.231
608.048, 9.644
609.361, 17.045
610.675, 88.240
611.988, 12.125
613.301, 0.715
614.614, 61.807
615.926, 5.758
617.238, 9.250
618.550, 49.014
619.862, 18.420
621.174, 46.239
622.485, 40.074
623.797, 42.569
625.108, 0.843
626.418, 49.013
627.729, 2.778
629.039, 14.494
630.349, 52.728
631.659, 102.811
632.969, 7.499
634.279, 16.250
635.588, 21.208
636.897, 87.996
638.206, 30.667
639.515, 62.252
640.823, 29.029
642.131, 25.016
643.439, 112.042
644.747, 65.287
646.055, 75.457
647.362, 11.305
648.669, 15.066
649.976, 32.360
651.283, 44.208
652.589, 75.959
653.896, 50.984
655.202, 31.292
656.508, 42.493
657.814, 43.812
659.119, 52.011
660.424, 89.549
661.729, 101.952
663.034, 90.397
664.339, 63.751
665.643, 114.136
666.947, 124.681
668.251, 122.230
669.555, 151.727
670.859, 143.216
672.162, 201.710
673.465, 258.310
674.768, 321.894
676.071, 307.582
677.373, 402.204
678.676, 432.652
679.978, 509.793
681.280, 574.750
682.581, 606.638
683.883, 763.604
685.184, 819.576
686.485, 950.554
687.786, 1107.541
689.087, 1216.534
690.387, 1388.536
691.687, 1526.546
692.987, 1674.563
694.287, 1792.565
695.586, 1898.625
696.886, 1995.676
698.185, 2037.736
699.484, 2106.813
700.783, 2032.900
702.081, 1896.002
703.379, 1779.113
704.677, 1701.233
705.975, 1485.776
707.273, 1307.505
708.570, 1087.659
709.868, 998.822
711.165, 842.990
712.462, 763.174
713.758, 663.376
715.055, 645.582
716.351, 488.794
717.647, 479.015
718.943, 410.240
720.238, 288.269
721.533, 303.505
722.829, 229.385
724.124, 190.457
725.418, 168.516
726.713, 184.579
728.007, 174.576
729.301, 233.462
730.595, 376.301
731.889, 562.158
733.182, 731.086
734.476, 666.012
735.769, 648.860
737.061, 565.751
738.354, 43.497
739.647, 21.763
740.939, 6.737
742.231, 28.104
743.523, 20.392
744.814, 42.559
746.106, 42.969
747.397, 15.193
748.688, 4.768
749.978, 29.646
751.269, 50.079
752.559, 1.218
753.849, 6.320
755.139, 38.249
756.429, 20.327
757.719, 8.179
759.008, 17.083
760.297, 30.606
761.586, 49.428
762.875, 44.076
764.163, 34.703
765.451, 45.102
766.739, 124.401
768.027, 123.004
769.315, 133.949
770.602, 110.208
771.890, 98.072
773.177, 154.849
774.463, 165.125
775.750, 134.297
777.036, 140.648
778.323, 115.959
779.609, 73.304
780.894, 75.483
782.180, 72.903
783.465, 67.324
784.750, 89.809
786.035, 71.317
787.320, 83.070
788.605, 66.145
789.889, 66.917
791.173, 76.514
792.457, 105.224
793.741, 45.460
795.024, 47.286
796.307, 103.886
797.591, 82.494
798.873, 32.267
800.156, 94.056
801.439, 64.856
802.721, 156.014
804.003, 130.701
805.285, 149.485
806.566, 131.290
807.848, 125.153
809.129, 141.030
810.410, 119.904
811.691, 136.808
812.971, 189.725
814.252, 148.655
815.532, 143.597
816.812, 188.551
818.092, 139.518
819.371, 222.498
820.651, 142.489
821.930, 224.494
823.209, 172.509
824.488, 175.572
825.766, 293.612
827.045, 267.665
828.323, 241.730
829.601, 284.549
830.878, 265.638
832.156, 360.738
833.433, 386.850
834.710, 414.972
835.987, 407.104
837.264, 483.248
838.540, 526.401
839.817, 509.566
841.093, 573.743
842.369, 610.013
843.644, 681.210
844.920, 752.419
846.195, 781.637
847.470, 866.866
848.745, 962.301
850.020, 1020.149
851.294, 1170.408
852.568, 1286.550
853.842, 1410.884
855.116, 1710.452
856.390, 1843.758
857.663, 2076.080
858.936, 2259.670
860.209, 2585.444
861.482, 2938.255
862.755, 3377.105
864.027, 3730.478
865.299, 4218.241
866.571, 4925.317
867.843, 5373.719
869.115, 6264.132
870.386, 7165.188
871.657, 8395.621
872.928, 9786.063
874.199, 11506.513
875.470, 13668.410
876.740, 16570.367
878.010, 19761.277
879.280, 24085.221
880.550, 27495.732
881.820, 29796.268
883.089, 30823.877
884.358, 30480.863
885.627, 29448.033
886.896, 26558.609
888.164, 22629.199
889.433, 18569.830
890.701, 15370.555
891.969, 12551.179
893.236, 10000.609
894.504, 8320.674
895.771, 6829.851
897.038, 5621.356
898.305, 4717.904
899.572, 3989.437
900.838, 3461.182
902.105, 3050.748
903.371, 2585.029
904.637, 2279.798
905.902, 2057.217
907.168, 1853.903
908.433, 1664.787
909.698, 1447.613
910.963, 1342.383
912.228, 1156.235
913.492, 1101.100
914.757, 948.981
916.021, 927.874
917.285, 814.779
918.548, 778.697
919.812, 788.624
921.075, 608.562
922.338, 667.510
923.601, 604.468
924.864, 550.436
926.126, 487.415
927.388, 494.402
928.650, 450.400
929.912, 376.414
931.174, 368.437
932.435, 404.467
933.697, 343.508
934.958, 395.555
936.218, 314.613
937.479, 234.681
938.739, 313.757
940.000, 294.862
941.260, 240.976
942.520, 305.102
943.779, 219.239
945.039, 179.382
946.298, 159.539
947.557, 244.714
948.816, 213.897
950.074, 240.087
951.333, 125.583
952.591, 183.784
953.849, 187.992
955.107, 167.209
956.365, 236.433
957.622, 217.662
958.879, 134.905
960.136, 136.155
961.393, 96.411
962.650, 158.816
963.906, 68.083
965.162, 149.451
966.418, 20.727
967.674, 95.009
968.930, 69.341
970.185, 30.635
971.441, 102.950
972.696, 45.253
973.950, 115.561
975.205, 11.873
976.459, 22.189
977.714, 83.510
978.968, 25.258
980.222, 8.413
981.475, 42.913
982.729, 26.244
983.982, 50.577
985.235, 35.915
986.488, 35.416
987.740, 41.602
988.993, 29.045
990.245, 19.397
991.497, 21.312
992.749, 10.672
994.000, 23.045
995.252, 69.687
996.503, 23.056
997.754, 58.428
999.005, 5.804
1000.256, 23.820
1001.506, 29.544
1002.756, 29.087
1004.006, 16.056
1005.256, 16.588
1006.506, 46.889
1007.755, 22.239
1009.005, 5.105
1010.254, 0.536
1011.502, 19.784
1012.751, 0.435
1014.000, 55.913
1015.248, 36.510
1016.496, 41.926
1017.744, 25.789
1018.991, 49.481
1020.239, 2.888
1021.486, 37.507
1022.733, 38.823
1023.980, 40.143
1025.227, 18.142
1026.473, 18.963
1027.719, 2.918
1028.965, 52.935
1030.211, 39.334
1031.457, 52.489
1032.702, 18.761
1033.948, 49.305
1035.193, 38.488
1036.438, 31.222
1037.682, 38.150
1038.927, 26.424
1040.171, 18.886
1041.415, 30.159
1042.659, 39.566
1043.903, 57.879
1045.146, 66.836
1046.390, 38.178
1047.633, 51.562
1048.876, 36.861
1050.118, 96.800
1051.361, 101.918
1052.603, 24.234
1053.845, 94.357
1055.087, 98.069
1056.329, 68.494
1057.571, 84.581
1058.812, 76.633
1060.053, 116.238
1061.294, 73.625
1062.535, 101.950
1063.775, 95.770
1065.016, 90.092
1066.256, 119.463
1067.496, 107.811
1068.736, 109.127
1069.975, 86.448
1071.214, 72.767
1072.454, 74.208
1073.693, 53.579
1074.931, 88.764
1076.170, 55.083
1077.408, 91.467
1078.647, 154.768
1079.885, 146.115
1081.122, 139.361
1082.360, 179.653
1083.597, 79.940
1084.835, 77.245
1086.072, 111.525
1087.308, 76.801
1088.545, 99.311
1089.781, 95.629
1091.018, 99.892
1092.254, 100.149
1093.490, 92.402
1094.725, 86.651
1095.961, 94.894
1097.196, 65.166
1098.431, 94.399
1099.666, 20.627
1100.900, 93.908
1102.135, 59.133
1103.369, 117.342
1104.603, 146.566
1105.837, 53.764
1107.071, 111.958
1108.304, 99.248
1109.538, 77.478
1110.771, 32.656
1112.004, 146.827
1113.236, 36.992
1114.469, 94.150
1115.701, 104.343
1116.933, 42.493
1118.165, 81.152
1119.397, 47.290
1120.629, 125.420
1121.860, 119.544
1123.091, 91.663
1124.322, 76.738
1125.553, 104.843
1126.783, 21.940
1128.014, 84.027
1129.244, 63.367
1130.474, 103.440
1131.704, 65.506
1132.933, 93.565
1134.163, 86.618
1135.392, 61.663
1136.621, 42.701
1137.850, 107.731
1139.079, 17.753
1140.307, 120.819
1141.535, 51.795
1142.763, 32.802
1143.991, 139.910
1145.219, 63.917
1146.446, 95.892
1147.674, 73.664
1148.901, 59.023
1150.128, 75.975
1151.354, 9.909
1152.581, 67.140
1153.807, 40.807
1155.033, 120.709
1156.259, 18.679
1157.485, 1.811
1158.710, 29.243
1159.936, 64.371
1161.161, 55.209
1162.386, 34.310
1163.611, 30.874
1164.835, 19.910
1166.060, 21.597
1167.284, 25.646
1168.508, 42.153
1169.732, 74.930
1170.955, 55.219
1172.179, 21.310
1173.402, 49.735
1174.625, 35.439
1175.848, 38.960
1177.070, 57.547
1178.293, 16.581
1179.515, 88.081
1180.737, 24.247
1181.959, 47.889
1183.181, 30.521
1184.402, 1.314
1185.624, 64.042
1186.845, 31.705
1188.066, 145.268
1189.286, 20.032
1190.507, 49.634
1191.727, 6.176
1192.947, 45.822
1194.167, 41.390
1195.387, 71.918
1196.607, 8.565
1197.826, 14.406
1199.045, 1.539
1200.264, 14.232
1201.483, 19.959
1202.702, 42.793
1203.920, 4.421
1205.138, 85.796
1206.356, 87.281
1207.574, 50.994
1208.792, 104.403
1210.009, 9.199
1211.227, 100.330
1212.444, 53.639
1213.661, 59.051
1214.877, 90.270
1216.094, 106.103
1217.310, 97.919
1218.526, 68.421
1219.742, 83.865
1220.958, 60.177
1222.173, 68.396
1223.389, 52.605
1224.604, 105.866
1225.819, 98.170
1227.034, 104.712
1228.248, 87.994
1229.463, 143.203
1230.677, 68.459
1231.891, 80.594
1233.105, 107.845
1234.318, 33.959
1235.532, 62.061
1236.745, 99.207
1237.958, 94.288
1239.171, 95.429
1240.384, 105.581
1241.596, 147.636
1242.809, 67.802
1244.021, 76.841
1245.233, 142.870
1246.444, 61.596
1247.656, 73.608
1248.867, 98.612
1250.079, 71.628
1251.290, 127.612
1252.500, 125.910
1253.711, 52.919
1254.921, 66.255
1256.132, 100.251
1257.342, 82.046
1258.552, 114.080
1259.761, 78.969
1260.971, 69.766
1262.180, 99.753
1263.389, 18.692
1264.598, 109.574
1265.807, 107.431
1267.015, 137.346
1268.223, 109.201
1269.432, 145.046
1270.640, 89.874
1271.847, 161.688
1273.055, 111.066
1274.262, 175.854
1275.470, 99.634
1276.677, 85.403
1277.883, 81.157
1279.090, 127.007
1280.296, 89.736
1281.503, 107.455
1282.709, 103.067
1283.915, 131.790
1285.120, 66.035
1286.326, 65.709
1287.531, 76.421
1288.736, 49.800
1289.941, 74.142
1291.146, 147.300
1292.350, 89.914
1293.555, 112.515
1294.759, 92.114
1295.963, 68.701
1297.167, 39.533
1298.370, 72.107
1299.574, 95.543
1300.777, 59.104
1301.980, 10.884
1303.183, 85.631
1304.386, 3.823
1305.588, 16.316
1306.790, 30.799
1307.993, 48.045
1309.195, 8.264
1310.396, 39.048
1311.598, 31.131
1312.799, 23.267
1314.000, 77.628
1315.201, 13.060
1316.402, 24.488
1317.603, 48.568
1318.803, 9.944
1320.003, 46.167
1321.203, 21.443
1322.403, 32.861
1323.603, 95.365
1324.802, 3.718
1326.002, 90.789
1327.201, 82.092
1328.400, 32.219
1329.599, 40.726
1330.797, 47.045
1331.995, 47.146
1333.194, 39.424
1334.392, 40.024
1335.589, 69.777
1336.787, 38.330
1337.985, 54.517
1339.182, 61.631
1340.379, 30.829
1341.576, 3.384
1342.772, 9.753
1343.969, 0.086
1345.165, 26.263
1346.361, 6.000
1347.557, 19.013
1348.753, 64.353
1349.949, 31.487
1351.144, 9.569
1352.339, 44.579
1353.534, 44.637
1354.729, 18.187
1355.924, 56.223
1357.118, 29.195
1358.312, 8.821
1359.506, 18.821
1360.700, 1.164
1361.894, 8.137
1363.088, 18.091
1364.281, 36.935
1365.474, 59.941
1366.667, 60.863
1367.860, 40.721
1369.052, 27.638
1370.245, 5.547
1371.437, 27.447
1372.629, 42.345
1373.821, 28.271
1375.013, 90.132
1376.204, 24.020
1377.395, 74.893
1378.586, 136.519
1379.777, 40.425
1380.968, 70.169
1382.159, 36.558
1383.349, 31.934
1384.539, 77.262
1385.729, 24.550
1386.919, 55.877
1388.109, 81.180
1389.298, 51.382
1390.487, 71.623
1391.676, 68.901
1392.865, 47.122
1394.054, 62.798
1395.242, 5.022
1396.431, 41.232
1397.619, 1.430
1398.807, 39.616
1399.995, 64.792
1401.182, 25.955
1402.370, 35.104
1403.557, 9.758
1404.744, 30.303
1405.931, 28.336
1407.118, 85.256
1408.304, 77.335
1409.490, 37.402
1410.676, 72.185
1411.862, 53.211
1413.048, 48.204
1414.234, 65.282
1415.419, 52.312
1416.604, 77.313
1417.789, 60.804
1418.974, 50.208
1420.159, 52.974
1421.343, 16.939
1422.528, 51.252
1423.712, 56.916
1424.896, 45.947
1426.079, 34.608
1427.263, 14.197
1428.446, 63.765
1429.629, 26.499
1430.812, 85.146
1431.995, 17.222
1433.178, 55.172
1434.360, 179.907
1435.543, 137.396
1436.725, 142.419
1437.907, 201.621
1439.088, 28.034
1440.270, 89.701
1441.451, 30.218
1442.632, 26.599
1443.813, 94.868
1444.994, 13.636
1446.175, 28.065
1447.355, 94.913
1448.535, 33.332
1449.715, 70.806
1450.895, 70.516
1452.075, 10.889
1453.255, 63.473
1454.434, 62.879
1455.613, 35.504
1456.792, 34.094
1457.971, 26.622
1459.149, 11.458
1460.328, 65.018
1461.506, 30.377
1462.684, 82.418
1463.862, 14.487
1465.040, 18.592
1466.217, 59.756
1467.395, 77.017
1468.572, 44.297
1469.749, 53.588
1470.925, 42.875
1472.102, 16.869
1473.278, 93.160
1474.455, 73.364
1475.631, 61.272
1476.807, 83.323
1477.982, 19.631
1479.158, 10.774
1480.333, 85.903
1481.508, 58.884
1482.683, 72.970
1483.858, 60.904
1485.033, 30.041
1486.207, 83.222
1487.381, 21.477
1488.555, 65.500
1489.729, 106.480
1490.903, 0.084
1492.076, 62.024
1493.250, 40.781
1494.423, 63.645
1495.596, 33.595
1496.769, 27.510
1497.941, 20.941
1499.114, 30.124
1500.286, 9.053
1501.458, 30.901
1502.630, 54.892
1503.802, 12.871
1504.973, 40.919
1506.145, 81.070
1507.316, 96.861
1508.487, 2.079
1509.657, 197.341
1510.828, 198.679
1511.999, 58.103
1513.169, 4.628
1514.339, 0.733
1515.509, 91.831
1516.678, 4.791
1517.848, 31.817
1519.017, 38.361
1520.187, 0.046
1521.356, 0.000
##END=



