##NAMES=Hubnerite
##RRUFFID=R050069
##IDEAL CHEMISTRY=Mn^2+^W^6+^O_4_
##LOCALITY=Yaogangxian, Yizhang County, Hunan Province, China
##OWNER=RRUFF
##SOURCE=Rock Currier
##DESCRIPTION=Black colored prismatic single crystal
##STATUS=The identification of this mineral has been confirmed by X-ray diffraction and chemical analysis
##URL=rruff.info/R050069
##MEASURED CHEMISTRY=(Mn_0.68_Fe_0.32_)W_1.00_O_4_
##PIN_ID=L00211
##ORIENTATION=Laser parallel to a* (1 0 0). Fiducial mark perpendicular to laser is parallel to -b [0 -1 0]
149.938, 0.000
151.324, 0.340
152.710, 78.159
154.096, 57.719
155.481, 1.497
156.866, 30.897
158.251, 109.868
159.636, 20.593
161.020, 77.067
162.405, 29.626
163.789, 14.638
165.172, 47.456
166.556, 87.034
167.939, 121.509
169.322, 37.033
170.705, 108.671
172.088, 65.112
173.470, 127.926
174.853, 149.061
176.234, 55.844
177.616, 131.748
178.998, 55.616
180.379, 45.087
181.760, 39.150
183.141, 22.281
184.521, 2.892
185.902, 50.525
187.282, 89.271
188.662, 142.686
190.042, 92.073
191.421, 0.883
192.800, 171.963
194.179, 140.217
195.558, 247.184
196.937, 241.983
198.315, 261.271
199.693, 370.303
201.071, 427.431
202.449, 490.751
203.826, 629.131
205.203, 702.882
206.580, 837.679
207.957, 987.688
209.333, 1037.724
210.710, 1081.739
212.086, 1067.581
213.462, 998.982
214.837, 864.465
216.213, 681.956
217.588, 547.593
218.963, 498.874
220.337, 406.990
221.712, 411.458
223.086, 303.622
224.460, 192.951
225.834, 200.752
227.207, 168.375
228.581, 165.229
229.954, 172.629
231.327, 137.655
232.699, 100.032
234.072, 135.153
235.444, 31.617
236.816, 20.171
238.188, 20.838
239.559, 23.595
240.931, 9.421
242.302, 19.068
243.673, 0.211
245.043, 24.145
246.414, 24.086
247.784, 16.015
249.154, 44.916
250.523, 18.773
251.893, 16.598
253.262, 11.554
254.631, 40.827
256.000, 8.144
257.369, 20.684
258.737, 5.595
260.105, 32.159
261.473, 87.303
262.841, 73.771
264.208, 78.278
265.576, 84.121
266.943, 125.683
268.310, 137.786
269.676, 179.767
271.042, 185.367
272.409, 178.327
273.775, 165.896
275.140, 146.515
276.506, 125.399
277.871, 93.545
279.236, 61.224
280.601, 38.686
281.965, 17.726
283.330, 5.939
284.694, 57.529
286.058, 21.609
287.421, 35.923
288.785, 10.021
290.148, 64.208
291.511, 18.893
292.874, 27.775
294.236, 13.419
295.599, 115.113
296.961, 126.461
298.323, 142.924
299.684, 146.234
301.046, 146.992
302.407, 104.865
303.768, 108.472
305.129, 103.808
306.489, 77.643
307.850, 105.302
309.210, 83.835
310.570, 96.288
311.929, 96.762
313.289, 118.334
314.648, 203.825
316.007, 168.103
317.366, 320.127
318.724, 352.626
320.083, 389.749
321.441, 522.452
322.799, 564.104
324.156, 765.278
325.514, 817.406
326.871, 914.076
328.228, 993.820
329.585, 1062.408
330.941, 1071.564
332.298, 965.268
333.654, 941.583
335.010, 792.585
336.365, 788.187
337.721, 686.034
339.076, 576.964
340.431, 543.994
341.786, 506.107
343.140, 434.597
344.495, 405.818
345.849, 402.819
347.203, 467.474
348.556, 410.660
349.910, 426.263
351.263, 364.993
352.616, 424.773
353.969, 420.176
355.321, 348.230
356.674, 380.594
358.026, 391.598
359.378, 367.825
360.729, 403.805
362.081, 327.679
363.432, 353.641
364.783, 395.463
366.134, 332.092
367.484, 343.580
368.835, 324.938
370.185, 294.205
371.535, 296.383
372.884, 288.484
374.234, 232.518
375.583, 258.482
376.932, 237.375
378.281, 207.189
379.630, 212.893
380.978, 230.506
382.326, 216.002
383.674, 321.335
385.022, 182.598
386.369, 189.309
387.717, 138.506
389.064, 283.686
390.411, 259.655
391.757, 189.548
393.104, 265.450
394.450, 209.018
395.796, 289.232
397.141, 312.708
398.487, 306.922
399.832, 405.845
401.177, 295.769
402.522, 354.743
403.867, 341.259
405.211, 275.203
406.555, 257.228
407.899, 179.266
409.243, 169.608
410.587, 154.059
411.930, 135.324
413.273, 132.274
414.616, 105.960
415.959, 115.440
417.301, 88.865
418.644, 125.558
419.986, 132.383
421.327, 60.134
422.669, 85.321
424.010, 122.116
425.351, 95.834
426.692, 112.543
428.033, 113.555
429.374, 65.596
430.714, 67.664
432.054, 91.887
433.394, 62.034
434.733, 95.723
436.073, 54.439
437.412, 55.418
438.751, 136.675
440.090, 85.044
441.428, 134.146
442.767, 108.259
444.105, 62.642
445.443, 81.616
446.780, 94.024
448.118, 153.345
449.455, 111.609
450.792, 61.817
452.129, 141.183
453.465, 105.675
454.802, 120.214
456.138, 124.130
457.474, 130.375
458.809, 115.027
460.145, 24.621
461.480, 76.896
462.815, 61.104
464.150, 54.064
465.485, 88.980
466.819, 87.877
468.153, 49.545
469.487, 34.352
470.821, 76.051
472.155, 20.996
473.488, 53.766
474.821, 105.681
476.154, 57.851
477.487, 45.749
478.819, 98.275
480.151, 83.827
481.483, 130.203
482.815, 87.524
484.147, 95.886
485.478, 86.218
486.809, 89.374
488.140, 103.568
489.471, 110.731
490.802, 61.747
492.132, 131.699
493.462, 86.604
494.792, 165.463
496.122, 168.277
497.451, 126.049
498.780, 82.776
500.109, 158.458
501.438, 172.101
502.767, 199.702
504.095, 191.266
505.423, 200.794
506.751, 277.287
508.079, 257.745
509.406, 281.172
510.734, 289.565
512.061, 391.924
513.388, 380.247
514.714, 328.539
516.041, 380.758
517.367, 276.989
518.693, 280.189
520.019, 291.356
521.344, 210.492
522.670, 262.479
523.995, 235.547
525.320, 298.590
526.644, 233.514
527.969, 265.461
529.293, 272.304
530.617, 221.995
531.941, 307.671
533.265, 265.290
534.588, 350.652
535.911, 325.100
537.234, 282.436
538.557, 316.625
539.880, 349.815
541.202, 303.058
542.524, 363.219
543.846, 351.802
545.168, 298.786
546.489, 338.780
547.811, 371.548
549.132, 347.908
550.453, 312.155
551.773, 283.095
553.094, 280.339
554.414, 230.335
555.734, 241.658
557.054, 182.069
558.374, 163.453
559.693, 154.903
561.012, 176.240
562.331, 147.670
563.650, 94.091
564.968, 156.343
566.287, 89.526
567.605, 104.381
568.923, 69.195
570.240, 106.942
571.558, 49.608
572.875, 90.260
574.192, 32.801
575.509, 78.392
576.825, 19.899
578.142, 53.567
579.458, 31.262
580.774, 10.647
582.090, 29.148
583.405, 6.051
584.721, 12.323
586.036, 5.087
587.351, 8.495
588.665, 16.865
589.980, 22.233
591.294, 36.691
592.608, 9.986
593.922, 12.541
595.236, 9.708
596.549, 78.045
597.862, 17.362
599.175, 19.074
600.488, 25.599
601.801, 34.251
603.113, 14.898
604.425, 45.871
605.737, 23.378
607.049, 34.875
608.361, 41.778
609.672, 16.665
610.983, 5.190
612.294, 2.868
613.605, 4.488
614.915, 6.556
616.225, 13.656
617.536, 22.690
618.845, 23.574
620.155, 32.748
621.464, 18.849
622.774, 29.916
624.083, 19.124
625.391, 14.575
626.700, 30.359
628.008, 6.314
629.317, 3.547
630.625, 2.263
631.932, 4.328
633.240, 14.576
634.547, 26.617
635.854, 11.604
637.161, 21.803
638.468, 62.935
639.774, 69.254
641.081, 28.391
642.387, 21.556
643.693, 56.684
644.998, 26.812
646.304, 20.994
647.609, 43.201
648.914, 104.199
650.219, 115.487
651.523, 86.582
652.828, 50.005
654.132, 79.436
655.436, 125.689
656.740, 50.758
658.043, 126.142
659.346, 121.581
660.650, 86.097
661.952, 130.606
663.255, 159.108
664.558, 162.610
665.860, 221.104
667.162, 227.595
668.464, 238.079
669.766, 269.560
671.067, 276.044
672.368, 290.528
673.669, 255.006
674.970, 300.482
676.271, 339.956
677.571, 445.426
678.871, 406.890
680.171, 468.350
681.471, 514.805
682.771, 446.255
684.070, 496.701
685.369, 550.143
686.668, 565.580
687.967, 634.014
689.266, 665.449
690.564, 651.879
691.862, 690.316
693.160, 772.751
694.458, 782.184
695.755, 828.616
697.053, 794.046
698.350, 773.476
699.646, 787.905
700.943, 777.331
702.240, 742.757
703.536, 746.184
704.832, 689.610
706.128, 673.042
707.423, 592.473
708.719, 549.904
710.014, 453.334
711.309, 487.764
712.604, 462.193
713.898, 443.620
715.193, 333.046
716.487, 247.469
717.781, 318.892
719.075, 273.313
720.368, 249.604
721.662, 199.022
722.955, 198.305
724.248, 167.656
725.541, 109.866
726.833, 168.242
728.125, 101.385
729.418, 103.705
730.709, 112.793
732.001, 134.079
733.293, 104.129
734.584, 170.326
735.875, 63.437
737.166, 85.471
738.457, 102.590
739.747, 44.619
741.037, 64.683
742.327, 72.543
743.617, 78.943
744.907, 101.628
746.196, 93.766
747.486, 80.971
748.775, 3.573
750.063, 54.063
751.352, 49.183
752.640, 35.173
753.929, 50.066
755.217, 41.230
756.504, 56.064
757.792, 64.442
759.079, 65.622
760.367, 77.608
761.654, 99.573
762.940, 102.866
764.227, 89.891
765.513, 112.283
766.799, 83.221
768.085, 101.267
769.371, 93.258
770.657, 86.489
771.942, 138.094
773.227, 124.411
774.512, 110.743
775.797, 46.124
777.081, 77.457
778.365, 123.847
779.650, 78.202
780.933, 94.548
782.217, 70.975
783.501, 77.312
784.784, 70.493
786.067, 32.836
787.350, 42.198
788.633, 70.613
789.915, 52.089
791.197, 99.514
792.479, 54.991
793.761, 11.615
795.043, 63.243
796.324, 75.779
797.606, 0.704
798.887, 112.946
800.167, 69.511
801.448, 72.063
802.728, 52.721
804.009, 62.397
805.289, 49.079
806.568, 42.767
807.848, 72.459
809.128, 67.156
810.407, 64.859
811.686, 109.567
812.965, 52.292
814.243, 98.022
815.522, 101.756
816.800, 71.494
818.078, 86.678
819.355, 131.425
820.633, 117.700
821.910, 53.455
823.188, 99.095
824.465, 110.923
825.741, 175.845
827.018, 126.655
828.294, 168.408
829.570, 180.800
830.846, 216.817
832.122, 203.615
833.398, 188.409
834.673, 226.207
835.948, 253.010
837.223, 249.828
838.498, 255.650
839.772, 262.478
841.047, 264.310
842.321, 255.771
843.595, 316.611
844.868, 361.140
846.142, 344.989
847.415, 382.843
848.688, 456.701
849.961, 436.563
851.234, 521.431
852.507, 548.304
853.779, 554.184
855.051, 615.068
856.323, 724.957
857.595, 868.850
858.866, 887.223
860.137, 963.126
861.409, 1081.033
862.679, 1256.945
863.950, 1357.861
865.221, 1499.790
866.491, 1781.723
867.761, 1970.661
869.031, 2258.603
870.301, 2574.550
871.570, 2903.502
872.839, 3418.458
874.109, 3932.422
875.377, 4506.389
876.646, 5428.363
877.915, 6217.342
879.183, 7198.327
880.451, 8058.315
881.719, 8928.312
882.987, 9668.312
884.254, 9838.317
885.521, 9688.329
886.788, 9258.348
888.055, 8398.371
889.322, 7468.399
890.588, 6310.434
891.855, 5322.474
893.121, 4427.523
894.387, 3776.576
895.652, 3071.637
896.918, 2559.706
898.183, 2145.781
899.448, 1818.863
900.713, 1443.950
901.978, 1304.045
903.242, 1081.353
904.506, 926.724
905.771, 838.233
907.034, 717.377
908.298, 646.534
909.562, 565.703
910.825, 476.885
912.088, 462.073
913.351, 442.278
914.613, 347.490
915.876, 363.708
917.138, 292.940
918.400, 288.181
919.662, 264.430
920.924, 246.685
922.185, 190.946
923.447, 186.213
924.708, 204.488
925.969, 117.769
927.229, 193.054
928.490, 195.344
929.750, 168.639
931.010, 133.939
932.270, 160.244
933.530, 109.379
934.789, 168.693
936.048, 145.012
937.308, 125.337
938.566, 108.667
939.825, 128.001
941.084, 101.344
942.342, 81.692
943.600, 130.045
944.858, 73.401
946.116, 58.761
947.373, 65.124
948.630, 50.491
949.888, 101.029
951.144, 63.403
952.401, 116.781
953.658, 93.046
954.914, 55.430
956.170, 72.818
957.426, 89.208
958.682, 58.602
959.937, 80.998
961.193, 36.397
962.448, 14.799
963.703, 111.054
964.957, 39.462
966.212, 68.872
967.466, 51.286
968.720, 31.299
969.974, 56.106
971.228, 12.486
972.482, 21.920
973.735, 19.672
974.988, 41.270
976.241, 24.883
977.494, 0.505
978.746, 21.124
979.999, 13.666
981.251, 5.296
982.503, 0.647
983.755, 6.447
985.006, 16.536
986.258, 20.197
987.509, 39.350
988.760, 39.730
990.011, 50.176
991.261, 33.560
992.512, 12.054
993.762, 53.327
995.012, 31.290
996.262, 4.080
997.511, 8.451
998.761, 12.830
1000.010, 38.261
1001.259, 14.826
1002.508, 19.446
1003.756, 31.152
1005.005, 17.631
1006.253, 30.073
1007.501, 17.458
1008.749, 26.157
1009.996, 12.437
1011.244, 10.814
1012.491, 41.193
1013.738, 57.574
1014.985, 49.863
1016.232, 59.342
1017.478, 72.735
1018.724, 75.131
1019.970, 38.650
1021.216, 38.091
1022.462, 77.566
1023.707, 55.290
1024.953, 74.776
1026.198, 45.249
1027.443, 31.787
1028.687, 71.267
1029.932, 62.761
1031.176, 58.206
1032.420, 65.622
1033.664, 54.167
1034.908, 69.455
1036.152, 42.874
1037.395, 62.305
1038.638, 62.724
1039.881, 32.143
1041.124, 23.562
1042.366, 68.043
1043.609, 30.462
1044.851, 98.891
1046.093, 72.825
1047.335, 82.352
1048.576, 95.770
1049.818, 81.215
1051.059, 43.632
1052.300, 72.126
1053.541, 53.544
1054.781, 115.962
1056.022, 67.437
1057.262, 96.275
1058.502, 61.704
1059.742, 56.134
1060.981, 33.564
1062.221, 67.309
1063.460, 43.098
1064.699, 101.542
1065.938, 73.983
1067.177, 118.423
1068.415, 84.862
1069.653, 92.299
1070.891, 100.733
1072.129, 96.166
1073.367, 86.640
1074.604, 113.068
1075.842, 63.494
1077.079, 103.918
1078.316, 78.446
1079.553, 51.943
1080.789, 78.421
1082.025, 6.163
1083.262, 90.243
1084.498, 85.646
1085.733, 60.047
1086.969, 55.467
1088.204, 41.927
1089.439, 64.363
1090.674, 87.880
1091.909, 64.267
1093.144, 83.651
1094.378, 60.032
1095.612, 60.409
1096.846, 37.784
1098.080, 9.845
1099.314, 69.513
1100.547, 71.891
1101.781, 4.757
1103.014, 28.583
1104.247, 91.919
1105.479, 75.252
1106.712, 72.583
1107.944, 29.910
1109.176, 99.233
1110.408, 81.581
1111.640, 35.031
1112.871, 73.337
1114.102, 40.621
1115.334, 68.955
1116.565, 77.232
1117.795, 34.063
1119.026, 122.332
1120.256, 88.133
1121.486, 35.395
1122.716, 65.802
1123.946, 100.057
1125.176, 64.153
1126.405, 62.477
1127.634, 11.766
1128.863, 68.421
1130.092, 98.424
1131.321, 47.684
1132.549, 104.972
1133.778, 49.267
1135.006, 36.482
1136.233, 84.796
1137.461, 15.026
1138.689, 48.209
1139.916, 47.389
1141.143, 48.940
1142.370, 51.922
1143.597, 43.434
1144.823, 34.756
1146.050, 28.947
1147.276, 17.102
1148.502, 6.789
1149.727, 4.930
1150.953, 2.705
1152.178, 11.940
1153.404, 18.064
1154.629, 46.605
1155.853, 85.720
1157.078, 5.353
1158.302, 79.086
1159.527, 36.367
1160.751, 43.876
1161.975, 22.745
1163.198, 14.586
1164.422, 35.694
1165.645, 57.053
1166.868, 13.556
1168.091, 28.601
1169.314, 20.750
1170.536, 5.153
1171.759, 21.007
1172.981, 25.649
1174.203, 15.962
1175.424, 26.889
1176.646, 24.062
1177.867, 36.079
1179.089, 51.069
1180.310, 65.176
1181.530, 48.155
1182.751, 89.561
1183.971, 41.626
1185.192, 81.684
1186.412, 53.799
1187.632, 84.765
1188.851, 30.774
1190.071, 50.835
1191.290, 43.766
1192.509, 2.760
1193.728, 20.722
1194.947, 73.834
1196.165, 40.926
1197.384, 93.964
1198.602, 30.297
1199.820, 111.271
1201.037, 52.215
1202.255, 36.197
1203.472, 6.300
1204.690, 169.126
1205.907, 62.657
1207.124, 146.611
1208.340, 14.054
1209.557, 13.318
1210.773, 99.419
1211.989, 93.243
1213.205, 65.044
1214.421, 81.964
1215.636, 91.759
1216.851, 59.555
1218.067, 65.329
1219.281, 47.095
1220.496, 83.854
1221.711, 71.669
1222.925, 74.459
1224.139, 33.389
1225.353, 40.208
1226.567, 44.562
1227.781, 66.672
1228.994, 76.698
1230.207, 62.399
1231.421, 90.094
1232.633, 53.826
1233.846, 43.507
1235.059, 2.820
1236.271, 28.837
1237.483, 65.546
1238.695, 80.192
1239.907, 102.833
1241.118, 96.494
1242.330, 60.124
1243.541, 103.749
1244.752, 86.258
1245.963, 53.872
1247.173, 81.480
1248.384, 59.199
1249.594, 102.797
1250.804, 80.389
1252.014, 95.097
1253.223, 103.678
1254.433, 84.254
1255.642, 52.823
1256.851, 42.387
1258.060, 38.096
1259.269, 66.648
1260.478, 44.644
1261.686, 68.648
1262.894, 81.470
1264.102, 83.718
1265.310, 43.711
1266.518, 58.257
1267.725, 50.933
1268.932, 42.785
1270.139, 65.010
1271.346, 31.132
1272.553, 52.877
1273.759, 52.303
1274.966, 61.966
1276.172, 49.623
1277.378, 44.061
1278.583, 42.110
1279.789, 51.554
1280.994, 36.218
1282.200, 46.696
1283.405, 64.055
1284.609, 84.475
1285.814, 79.287
1287.018, 59.289
1288.223, 60.686
1289.427, 77.083
1290.631, 49.609
1291.834, 83.011
1293.038, 53.312
1294.241, 29.533
1295.444, 47.601
1296.647, 31.577
1297.850, 63.882
1299.053, 7.127
1300.255, 71.406
1301.457, 59.679
1302.659, 0.728
1303.861, 20.989
1305.063, 7.240
1306.264, 13.483
1307.466, 10.187
1308.667, 43.946
1309.868, 10.841
1311.068, 4.362
1312.269, 71.492
1313.469, 28.638
1314.669, 7.742
1315.869, 3.409
1317.069, 0.083
1318.269, 10.822
1319.468, 59.191
1320.668, 33.254
1321.867, 49.297
1323.066, 73.380
1324.264, 25.485
1325.463, 60.580
1326.661, 4.667
1327.859, 30.745
1329.057, 30.802
1330.255, 20.861
1331.452, 49.912
1332.650, 37.954
1333.847, 24.926
1335.044, 55.952
1336.241, 36.958
1337.438, 41.450
1338.634, 16.342
1339.830, 17.334
1341.027, 21.747
1342.222, 3.270
1343.418, 30.164
1344.614, 36.126
1345.809, 25.082
1347.004, 12.977
1348.199, 22.499
1349.394, 0.582
1350.589, 15.325
1351.783, 32.776
1352.978, 14.200
1354.172, 9.476
1355.365, 46.337
1356.559, 67.192
1357.753, 22.042
1358.946, 47.884
1360.139, 45.721
1361.332, 81.552
1362.525, 76.377
1363.718, 64.154
1364.910, 33.969
1366.102, 38.033
1367.294, 14.578
1368.486, 27.266
1369.678, 54.978
1370.869, 41.703
1372.061, 18.484
1373.252, 59.265
1374.443, 80.157
1375.634, 36.935
1376.824, 80.694
1378.015, 62.374
1379.205, 49.042
1380.395, 32.098
1381.585, 73.273
1382.775, 69.440
1383.964, 39.603
1385.153, 81.738
1386.343, 53.897
1387.531, 30.046
1388.720, 83.188
1389.909, 56.211
1391.097, 53.272
1392.285, 62.354
1393.473, 49.486
1394.661, 19.542
1395.849, 89.550
1397.037, 82.523
1398.224, 51.561
1399.411, 72.602
1400.598, 70.522
1401.785, 80.463
1402.971, 38.496
1404.158, 85.573
1405.344, 60.641
1406.530, 107.663
1407.716, 67.694
1408.901, 90.546
1410.087, 57.455
1411.272, 26.948
1412.457, 42.152
1413.642, 83.374
1414.827, 35.308
1416.012, 77.478
1417.196, 47.826
1418.380, 105.118
1419.564, 54.034
1420.748, 4.113
1421.932, 60.842
1423.115, 45.544
1424.299, 24.782
1425.482, 54.351
1426.665, 34.936
1427.847, 75.487
1429.030, 74.212
1430.212, 68.651
1431.395, 71.944
1432.577, 9.894
1433.759, 28.396
1434.940, 91.535
1436.122, 15.937
1437.303, 41.784
1438.484, 39.878
1439.665, 3.259
1440.846, 19.804
1442.026, 59.384
1443.207, 40.576
1444.387, 66.967
1445.567, 39.350
1446.747, 54.567
1447.927, 41.091
1449.106, 43.518
1450.286, 34.031
1451.465, 27.417
1452.644, 43.840
1453.822, 7.292
1455.001, 71.576
1456.179, 78.974
1457.358, 32.345
1458.536, 3.587
1459.714, 2.276
1460.891, 26.006
1462.069, 18.189
1463.246, 51.406
1464.423, 87.586
1465.600, 30.734
1466.777, 73.644
1467.954, 103.699
1469.130, 51.867
1470.306, 83.044
1471.483, 87.571
1472.658, 38.601
1473.834, 81.737
1475.010, 31.866
1476.185, 93.975
1477.360, 75.533
1478.535, 26.497
1479.710, 85.865
1480.885, 47.776
1482.059, 14.116
1483.234, 41.459
1484.408, 10.801
1485.582, 47.131
1486.755, 47.451
1487.929, 40.522
1489.102, 65.819
1490.275, 53.139
1491.449, 29.360
1492.621, 44.580
1493.794, 13.808
1494.967, 3.950
1496.139, 24.310
1497.311, 58.600
1498.483, 31.904
1499.655, 52.261
1500.826, 54.089
1501.998, 103.023
1503.169, 53.409
1504.340, 30.804
1505.511, 16.299
1506.682, 62.920
1507.852, 53.882
1509.023, 49.457
1510.193, 62.072
1511.363, 13.728
1512.532, 31.435
1513.702, 59.174
1514.872, 0.691
1516.041, 87.652
1517.210, 64.359
1518.379, 15.554
1519.548, 0.000
##END=



