##NAMES=Hubnerite
##RRUFFID=R050069
##IDEAL CHEMISTRY=Mn^2+^W^6+^O_4_
##LOCALITY=Yaogangxian, Yizhang County, Hunan Province, China
##OWNER=RRUFF
##SOURCE=Rock Currier
##DESCRIPTION=Black colored prismatic single crystal
##STATUS=The identification of this mineral has been confirmed by X-ray diffraction and chemical analysis
##URL=rruff.info/R050069
##MEASURED CHEMISTRY=(Mn_0.68_Fe_0.32_)W_1.00_O_4_
##PIN_ID=L00506
##ORIENTATION=Laser parallel to b* (0 1 0). Fiducial mark perpendicular to laser is parallel to c [0 0 1]
151.324, 0.000
152.710, 100.294
154.096, 0.347
155.481, 128.126
156.866, 12.278
158.251, 14.786
159.636, 31.383
161.020, 62.992
162.405, 8.950
163.789, 96.765
165.172, 94.440
166.556, 34.920
167.939, 97.232
169.322, 31.235
170.705, 24.409
172.088, 58.473
173.470, 49.183
174.853, 91.788
176.234, 1.385
177.616, 25.120
178.998, 1.783
180.379, 2.866
181.760, 34.518
183.141, 50.001
184.521, 69.157
185.902, 147.343
187.282, 128.834
188.662, 87.668
190.042, 168.701
191.421, 202.642
192.800, 145.674
194.179, 218.767
195.558, 270.665
196.937, 252.428
198.315, 230.203
199.693, 305.234
201.071, 270.691
202.449, 254.705
203.826, 301.477
205.203, 182.967
206.580, 310.974
207.957, 313.229
209.333, 273.419
210.710, 143.144
212.086, 138.468
213.462, 170.022
214.837, 120.836
216.213, 116.045
217.588, 165.788
218.963, 120.882
220.337, 40.369
221.712, 21.399
223.086, 20.109
224.460, 92.159
225.834, 84.503
227.207, 88.122
228.581, 89.204
229.954, 116.229
231.327, 96.291
232.699, 94.114
234.072, 132.742
235.444, 119.768
236.816, 124.445
238.188, 125.356
239.559, 160.436
240.931, 159.982
242.302, 164.680
243.673, 163.211
245.043, 168.773
246.414, 128.532
247.784, 136.274
249.154, 93.843
250.523, 65.336
251.893, 76.027
253.262, 95.459
254.631, 113.802
256.000, 97.980
257.369, 171.812
258.737, 246.192
260.105, 263.094
261.473, 238.901
262.841, 247.532
264.208, 235.813
265.576, 200.928
266.943, 207.734
268.310, 178.929
269.676, 154.104
271.042, 163.448
272.409, 141.619
273.775, 146.440
275.140, 147.552
276.506, 143.331
277.871, 139.972
279.236, 112.489
280.601, 74.883
281.965, 9.151
283.330, 35.295
284.694, 9.143
286.058, 6.372
287.421, 28.422
288.785, 39.075
290.148, 66.889
291.511, 55.129
292.874, 36.104
294.236, 118.219
295.599, 38.206
296.961, 27.951
298.323, 2.666
299.684, 11.921
301.046, 1.775
302.407, 25.572
303.768, 25.545
305.129, 55.686
306.489, 27.211
307.850, 60.980
309.210, 3.437
310.570, 51.048
311.929, 34.872
313.289, 35.123
314.648, 12.712
316.007, 14.530
317.366, 22.428
318.724, 14.594
320.083, 3.736
321.441, 89.395
322.799, 111.673
324.156, 71.366
325.514, 209.841
326.871, 100.515
328.228, 154.982
329.585, 165.865
330.941, 172.179
332.298, 183.254
333.654, 186.583
335.010, 187.259
336.365, 212.579
337.721, 184.253
339.076, 187.784
340.431, 186.441
341.786, 267.800
343.140, 230.500
344.495, 250.958
345.849, 253.695
347.203, 257.274
348.556, 241.675
349.910, 267.266
351.263, 313.528
352.616, 329.334
353.969, 310.970
355.321, 307.693
356.674, 309.721
358.026, 308.716
359.378, 314.066
360.729, 318.214
362.081, 337.571
363.432, 335.961
364.783, 370.294
366.134, 356.078
367.484, 404.797
368.835, 402.721
370.185, 351.145
371.535, 390.347
372.884, 370.339
374.234, 393.510
375.583, 383.513
376.932, 440.505
378.281, 371.108
379.630, 382.603
380.978, 438.127
382.326, 417.216
383.674, 479.139
385.022, 418.559
386.369, 446.050
387.717, 486.196
389.064, 521.152
390.411, 517.674
391.757, 602.311
393.104, 752.792
394.450, 742.713
395.796, 854.579
397.141, 1084.707
398.487, 1046.676
399.832, 1066.451
401.177, 1000.327
402.522, 927.398
403.867, 766.299
405.211, 700.204
406.555, 667.986
407.899, 588.749
409.243, 550.069
410.587, 487.478
411.930, 458.272
413.273, 455.655
414.616, 415.990
415.959, 379.761
417.301, 371.310
418.644, 347.446
419.986, 331.692
421.327, 348.498
422.669, 316.256
424.010, 361.285
425.351, 303.987
426.692, 311.409
428.033, 325.712
429.374, 376.737
430.714, 362.406
432.054, 369.652
433.394, 330.705
434.733, 343.383
436.073, 348.119
437.412, 322.825
438.751, 334.081
440.090, 340.541
441.428, 325.306
442.767, 366.596
444.105, 357.007
445.443, 375.690
446.780, 359.095
448.118, 314.690
449.455, 357.336
450.792, 294.777
452.129, 321.186
453.465, 312.368
454.802, 326.549
456.138, 352.402
457.474, 289.957
458.809, 320.025
460.145, 304.515
461.480, 283.619
462.815, 296.698
464.150, 311.287
465.485, 270.379
466.819, 269.734
468.153, 293.884
469.487, 277.689
470.821, 296.026
472.155, 267.531
473.488, 303.319
474.821, 296.452
476.154, 289.299
477.487, 248.998
478.819, 262.298
480.151, 236.463
481.483, 158.760
482.815, 226.137
484.147, 245.779
485.478, 192.741
486.809, 196.750
488.140, 228.904
489.471, 245.449
490.802, 206.945
492.132, 238.288
493.462, 253.725
494.792, 215.989
496.122, 224.338
497.451, 197.757
498.780, 203.813
500.109, 150.818
501.438, 240.966
502.767, 223.208
504.095, 242.219
505.423, 198.262
506.751, 198.261
508.079, 211.219
509.406, 175.058
510.734, 150.949
512.061, 150.634
513.388, 203.022
514.714, 148.938
516.041, 191.790
517.367, 224.602
518.693, 212.364
520.019, 217.101
521.344, 204.812
522.670, 163.559
523.995, 194.255
525.320, 200.052
526.644, 212.749
527.969, 245.609
529.293, 214.425
530.617, 232.987
531.941, 206.675
533.265, 263.244
534.588, 241.877
535.911, 236.436
537.234, 279.202
538.557, 205.648
539.880, 216.114
541.202, 189.781
542.524, 239.335
543.846, 231.128
545.168, 157.652
546.489, 183.273
547.811, 163.041
549.132, 225.812
550.453, 113.559
551.773, 186.278
553.094, 215.972
554.414, 155.643
555.734, 157.291
557.054, 121.916
558.374, 146.516
559.693, 102.093
561.012, 106.647
562.331, 128.176
563.650, 118.681
564.968, 127.163
566.287, 125.086
567.605, 133.058
568.923, 110.474
570.240, 132.868
571.558, 117.239
572.875, 156.592
574.192, 96.773
575.509, 54.794
576.825, 111.766
578.142, 118.630
579.458, 61.416
580.774, 24.255
582.090, 19.942
583.405, 41.800
584.721, 14.598
586.036, 61.009
587.351, 11.338
588.665, 29.494
589.980, 28.258
591.294, 7.973
592.608, 19.384
593.922, 18.235
595.236, 21.137
596.549, 22.639
597.862, 10.117
599.175, 10.585
600.488, 10.913
601.801, 25.518
603.113, 14.951
604.425, 6.315
605.737, 7.738
607.049, 31.665
608.361, 11.752
609.672, 8.563
610.983, 6.986
612.294, 31.630
613.605, 6.797
614.915, 19.674
616.225, 11.415
617.536, 10.990
618.845, 5.659
620.155, 28.610
621.464, 19.948
622.774, 40.373
624.083, 17.368
625.391, 20.922
626.700, 14.318
628.008, 76.647
629.317, 14.067
630.625, 23.407
631.932, 35.929
633.240, 30.573
634.547, 4.112
635.854, 25.189
637.161, 52.572
638.468, 18.858
639.774, 41.838
641.081, 1.101
642.387, 42.447
643.693, 21.575
644.998, 30.719
646.304, 26.000
647.609, 39.351
648.914, 77.541
650.219, 32.864
651.523, 72.253
652.828, 22.487
654.132, 13.757
655.436, 54.917
656.740, 131.105
658.043, 2.076
659.346, 45.426
660.650, 128.705
661.952, 90.066
663.255, 125.248
664.558, 142.434
665.860, 146.678
667.162, 133.776
668.464, 100.777
669.766, 172.781
671.067, 189.009
672.368, 217.015
673.669, 196.207
674.970, 248.550
676.271, 358.854
677.571, 340.184
678.871, 418.470
680.171, 403.591
681.471, 368.845
682.771, 559.133
684.070, 533.479
685.369, 560.961
686.668, 564.330
687.967, 708.786
689.266, 803.139
690.564, 854.623
691.862, 848.104
693.160, 970.588
694.458, 991.070
695.755, 931.464
697.053, 1027.908
698.350, 1009.252
699.646, 1047.734
700.943, 987.214
702.240, 994.451
703.536, 924.941
704.832, 833.075
706.128, 796.550
707.423, 688.628
708.719, 683.017
710.014, 622.491
711.309, 521.771
712.604, 521.065
713.898, 454.224
715.193, 456.494
716.487, 372.584
717.781, 364.700
719.075, 348.915
720.368, 247.096
721.662, 242.322
722.955, 251.546
724.248, 214.815
725.541, 199.999
726.833, 171.288
728.125, 185.522
729.418, 122.929
730.709, 178.094
732.001, 110.094
733.293, 144.342
734.584, 148.628
735.875, 71.686
737.166, 124.599
738.457, 123.505
739.747, 46.513
741.037, 66.701
742.327, 31.812
743.617, 108.181
744.907, 30.677
746.196, 42.684
747.486, 19.246
748.775, 41.301
750.063, 71.300
751.352, 50.303
752.640, 1.249
753.929, 66.797
755.217, 48.342
756.504, 106.890
757.792, 37.766
759.079, 62.165
760.367, 67.949
761.654, 65.693
762.940, 73.872
764.227, 79.304
765.513, 158.588
766.799, 108.701
768.085, 133.426
769.371, 178.564
770.657, 82.907
771.942, 128.633
773.227, 145.828
774.512, 157.811
775.797, 81.106
777.081, 130.378
778.365, 73.749
779.650, 181.329
780.933, 94.645
782.217, 82.946
783.501, 117.521
784.784, 95.846
786.067, 48.224
787.350, 145.666
788.633, 89.760
789.915, 95.969
791.197, 141.404
792.479, 78.966
793.761, 82.399
795.043, 152.943
796.324, 137.329
797.606, 88.901
798.887, 111.400
800.167, 86.950
801.448, 72.494
802.728, 164.106
804.009, 26.831
805.289, 162.442
806.568, 196.178
807.848, 101.771
809.128, 119.340
810.407, 111.095
811.686, 74.857
812.965, 131.418
814.243, 114.172
815.522, 98.955
816.800, 163.743
818.078, 170.538
819.355, 144.339
820.633, 177.147
821.910, 175.962
823.188, 145.785
824.465, 137.616
825.741, 155.453
827.018, 161.694
828.294, 222.299
829.570, 219.978
830.846, 212.841
832.122, 251.230
833.398, 248.133
834.673, 263.016
835.948, 295.689
837.223, 334.584
838.498, 320.486
839.772, 374.349
841.047, 356.890
842.321, 392.809
843.595, 419.913
844.868, 491.844
846.142, 526.887
847.415, 528.950
848.688, 624.143
849.961, 666.095
851.234, 714.881
852.507, 795.469
853.779, 849.441
855.051, 959.388
856.323, 1055.475
857.595, 1176.477
858.866, 1279.488
860.137, 1365.506
861.409, 1642.530
862.679, 1866.983
863.950, 2078.021
865.221, 2255.063
866.491, 2653.492
867.761, 2971.549
869.031, 3432.612
870.301, 3970.692
871.570, 4486.779
872.839, 5229.881
874.109, 6008.021
875.377, 6863.136
876.646, 7894.002
877.915, 8934.440
879.183, 9705.315
880.451, 10365.911
881.719, 10496.055
882.987, 10476.211
884.254, 10186.372
885.521, 9296.538
886.788, 8536.716
888.055, 7496.896
889.322, 6407.084
890.588, 5587.281
891.855, 4741.485
893.121, 3929.697
894.387, 3495.920
895.652, 2842.150
896.918, 2408.391
898.183, 2068.646
899.448, 1752.908
900.713, 1559.179
901.978, 1315.464
903.242, 1169.757
904.506, 1009.062
905.771, 877.377
907.034, 786.080
908.298, 676.039
909.562, 636.384
910.825, 582.742
912.088, 518.110
913.351, 513.486
914.613, 438.871
915.876, 376.263
917.138, 369.665
918.400, 306.073
919.662, 330.489
920.924, 244.918
922.185, 274.354
923.447, 275.800
924.708, 233.254
925.969, 229.715
927.229, 186.184
928.490, 156.659
929.750, 191.145
931.010, 172.637
932.270, 157.138
933.530, 213.646
934.789, 128.159
936.048, 139.678
937.308, 153.202
938.566, 145.732
939.825, 106.267
941.084, 94.814
942.342, 85.367
943.600, 85.925
944.858, 76.261
946.116, 77.323
947.373, 76.628
948.630, 69.250
949.888, 92.833
951.144, 70.421
952.401, 68.014
953.658, 44.611
954.914, 81.212
956.170, 95.818
957.426, 55.428
958.682, 84.041
959.937, 31.658
961.193, 73.281
962.448, 41.120
963.703, 35.380
964.957, 24.171
966.212, 25.809
967.466, 76.450
968.720, 89.095
969.974, 75.257
971.228, 39.394
972.482, 42.049
973.735, 44.707
974.988, 43.368
976.241, 4.033
977.494, 13.299
978.746, 33.633
979.999, 37.976
981.251, 17.669
982.503, 11.683
983.755, 0.037
985.006, 9.611
986.258, 16.736
987.509, 31.912
988.760, 16.673
990.011, 19.672
991.261, 12.998
992.512, 34.651
993.762, 23.697
995.012, 26.947
996.262, 24.408
997.511, 72.230
998.761, 4.131
1000.010, 21.509
1001.259, 15.850
1002.508, 11.491
1003.756, 10.203
1005.005, 20.100
1006.253, 8.783
1007.501, 16.651
1008.749, 13.370
1009.996, 13.007
1011.244, 26.651
1012.491, 24.686
1013.738, 5.069
1014.985, 60.955
1016.232, 23.360
1017.478, 34.316
1018.724, 48.993
1019.970, 8.035
1021.216, 18.805
1022.462, 38.172
1023.707, 6.036
1024.953, 13.440
1026.198, 9.547
1027.443, 0.863
1028.687, 9.138
1029.932, 3.462
1031.176, 52.211
1032.420, 29.941
1033.664, 50.629
1034.908, 51.304
1036.152, 28.979
1037.395, 73.656
1038.638, 57.332
1039.881, 47.125
1041.124, 64.890
1042.366, 58.566
1043.609, 43.243
1044.851, 71.950
1046.093, 61.625
1047.335, 81.370
1048.576, 65.465
1049.818, 51.617
1051.059, 43.732
1052.300, 33.502
1053.541, 55.177
1054.781, 100.851
1056.022, 82.524
1057.262, 72.197
1058.502, 45.869
1059.742, 83.539
1060.981, 53.224
1062.221, 79.922
1063.460, 153.590
1064.699, 84.256
1065.938, 119.031
1067.177, 121.753
1068.415, 80.510
1069.653, 69.179
1070.891, 81.839
1072.129, 104.495
1073.367, 68.150
1074.604, 110.887
1075.842, 117.559
1077.079, 55.208
1078.316, 83.088
1079.553, 97.732
1080.789, 84.373
1082.025, 75.102
1083.262, 118.780
1084.498, 64.413
1085.733, 102.184
1086.969, 97.812
1088.204, 87.437
1089.439, 111.059
1090.674, 90.678
1091.909, 87.295
1093.144, 77.908
1094.378, 59.518
1095.612, 126.125
1096.846, 19.728
1098.080, 74.389
1099.314, 112.040
1100.547, 78.643
1101.781, 54.232
1103.014, 67.818
1104.247, 51.401
1105.479, 50.437
1106.712, 67.554
1107.944, 46.125
1109.176, 61.218
1110.408, 56.676
1111.640, 50.958
1112.871, 105.570
1114.102, 95.121
1115.334, 150.668
1116.565, 131.051
1117.795, 130.610
1119.026, 87.289
1120.256, 103.820
1121.486, 68.347
1122.716, 53.153
1123.946, 98.671
1125.176, 81.185
1126.405, 60.126
1127.634, 77.694
1128.863, 46.510
1130.092, 46.183
1131.321, 56.154
1132.549, 71.613
1133.778, 36.110
1135.006, 68.195
1136.233, 19.754
1137.461, 94.634
1138.689, 31.138
1139.916, 88.692
1141.143, 72.341
1142.370, 78.680
1143.597, 69.118
1144.823, 84.322
1146.050, 108.794
1147.276, 96.970
1148.502, 51.387
1149.727, 0.829
1150.953, 22.950
1152.178, 23.381
1153.404, 9.966
1154.629, 9.589
1155.853, 7.094
1157.078, 45.014
1158.302, 52.656
1159.527, 47.094
1160.751, 24.448
1161.975, 17.636
1163.198, 84.188
1164.422, 77.361
1165.645, 99.890
1166.868, 23.249
1168.091, 31.246
1169.314, 12.306
1170.536, 22.268
1171.759, 43.732
1172.981, 65.269
1174.203, 82.314
1175.424, 43.088
1176.646, 89.761
1177.867, 75.768
1179.089, 40.089
1180.310, 50.351
1181.530, 101.527
1182.751, 87.812
1183.971, 55.420
1185.192, 67.576
1186.412, 27.792
1187.632, 34.933
1188.851, 119.200
1190.071, 89.392
1191.290, 49.534
1192.509, 83.695
1193.728, 40.801
1194.947, 67.970
1196.165, 81.255
1197.384, 15.606
1198.602, 35.708
1199.820, 77.060
1201.037, 69.242
1202.255, 90.375
1203.472, 93.553
1204.690, 71.684
1205.907, 91.823
1207.124, 56.892
1208.340, 53.952
1209.557, 97.300
1210.773, 68.302
1211.989, 35.583
1213.205, 48.813
1214.421, 39.998
1215.636, 60.763
1216.851, 62.726
1218.067, 89.682
1219.281, 108.672
1220.496, 43.843
1221.711, 58.776
1222.925, 99.702
1224.139, 4.380
1225.353, 106.520
1226.567, 69.446
1227.781, 43.334
1228.994, 55.215
1230.207, 102.236
1231.421, 32.101
1232.633, 99.040
1233.846, 100.005
1235.059, 99.847
1236.271, 103.767
1237.483, 98.820
1238.695, 99.987
1239.907, 91.224
1241.118, 86.094
1242.330, 84.891
1243.541, 52.639
1244.752, 54.425
1245.963, 65.321
1247.173, 90.098
1248.384, 87.579
1249.594, 78.746
1250.804, 82.506
1252.014, 105.256
1253.223, 77.000
1254.433, 107.737
1255.642, 35.467
1256.851, 68.188
1258.060, 55.902
1259.269, 102.609
1260.478, 108.515
1261.686, 117.357
1262.894, 73.037
1264.102, 95.764
1265.310, 70.431
1266.518, 106.090
1267.725, 23.743
1268.932, 77.388
1270.139, 72.025
1271.346, 97.715
1272.553, 7.307
1273.759, 37.873
1274.966, 31.437
1276.172, 103.971
1277.378, 83.499
1278.583, 67.016
1279.789, 17.521
1280.994, 50.020
1282.200, 16.392
1283.405, 71.880
1284.609, 4.328
1285.814, 29.794
1287.018, 53.251
1288.223, 88.705
1289.427, 86.152
1290.631, 60.595
1291.834, 129.029
1293.038, 103.454
1294.241, 29.870
1295.444, 83.558
1296.647, 61.901
1297.850, 20.234
1299.053, 68.366
1300.255, 35.508
1301.457, 0.792
1302.659, 7.831
1303.861, 52.486
1305.063, 26.166
1306.264, 16.951
1307.466, 38.834
1308.667, 22.435
1309.868, 23.701
1311.068, 5.958
1312.269, 21.854
1313.469, 25.076
1314.669, 13.621
1315.869, 17.662
1317.069, 14.831
1318.269, 23.029
1319.468, 18.473
1320.668, 21.883
1321.867, 17.544
1323.066, 31.713
1324.264, 43.817
1325.463, 62.953
1326.661, 35.118
1327.859, 7.250
1329.057, 74.371
1330.255, 46.485
1331.452, 75.475
1332.650, 30.495
1333.847, 46.587
1335.044, 56.671
1336.241, 50.781
1337.438, 66.851
1338.634, 44.845
1339.830, 21.902
1341.027, 15.950
1342.222, 54.655
1343.418, 14.593
1344.614, 31.612
1345.809, 41.638
1347.004, 30.650
1348.199, 36.654
1349.394, 34.651
1350.589, 49.641
1351.783, 49.608
1352.978, 10.556
1354.172, 113.526
1355.365, 13.490
1356.559, 16.337
1357.753, 77.232
1358.946, 115.084
1360.139, 70.016
1361.332, 81.949
1362.525, 48.921
1363.718, 16.847
1364.910, 65.684
1366.102, 80.578
1367.294, 102.491
1368.486, 118.272
1369.678, 49.271
1370.869, 80.679
1372.061, 63.581
1373.252, 23.436
1374.443, 99.331
1375.634, 37.085
1376.824, 28.961
1378.015, 102.766
1379.205, 35.547
1380.395, 55.287
1381.585, 67.050
1382.775, 57.677
1383.964, 39.973
1385.153, 112.198
1386.343, 64.408
1387.531, 111.674
1388.720, 27.931
1389.909, 55.178
1391.097, 27.266
1392.285, 56.428
1393.473, 54.645
1394.661, 61.848
1395.849, 125.042
1397.037, 93.913
1398.224, 57.085
1399.411, 95.516
1400.598, 115.302
1401.785, 84.437
1402.971, 16.085
1404.158, 21.606
1405.344, 94.841
1406.530, 40.596
1407.716, 119.668
1408.901, 56.679
1410.087, 90.487
1411.272, 125.494
1412.457, 84.122
1413.642, 37.030
1414.827, 73.088
1416.012, 56.409
1417.196, 33.702
1418.380, 55.474
1419.564, 43.754
1420.748, 65.781
1421.932, 45.913
1423.115, 42.088
1424.299, 86.333
1425.482, 50.005
1426.665, 62.969
1427.847, 78.627
1429.030, 39.177
1430.212, 98.782
1431.395, 62.436
1432.577, 53.745
1433.759, 72.989
1434.940, 39.035
1436.122, 40.377
1437.303, 60.697
1438.484, 89.194
1439.665, 55.258
1440.846, 43.973
1442.026, 42.563
1443.207, 86.142
1444.387, 25.230
1445.567, 61.780
1446.747, 79.326
1447.927, 47.803
1449.106, 19.042
1450.286, 47.388
1451.465, 53.651
1452.644, 60.946
1453.822, 24.406
1455.001, 9.708
1456.179, 98.113
1457.358, 74.235
1458.536, 116.318
1459.714, 63.610
1460.891, 71.880
1462.069, 110.123
1463.246, 81.344
1464.423, 71.696
1465.600, 61.737
1466.777, 65.227
1467.954, 15.971
1469.130, 79.886
1470.306, 48.152
1471.483, 35.525
1472.658, 76.956
1473.834, 18.400
1475.010, 97.847
1476.185, 64.300
1477.360, 4.743
1478.535, 93.179
1479.710, 83.624
1480.885, 67.077
1482.059, 53.534
1483.234, 25.014
1484.408, 62.427
1485.582, 69.904
1486.755, 69.232
1487.929, 37.713
1489.102, 66.157
1490.275, 41.352
1491.449, 91.852
1492.621, 76.370
1493.794, 66.905
1494.967, 66.502
1496.139, 36.017
1497.311, 45.344
1498.483, 66.397
1499.655, 49.075
1500.826, 55.435
1501.998, 55.182
1503.169, 8.955
1504.340, 46.097
1505.511, 74.106
1506.682, 69.927
1507.852, 40.449
1509.023, 2.466
1510.193, 4.181
1511.363, 5.001
1512.532, 5.927
1513.702, 28.683
1514.872, 61.062
1516.041, 126.546
1517.210, 106.503
1518.379, 20.771
1519.548, 67.742
1520.716, 24.981
1521.885, 0.003
1523.053, 0.000
##END=



