##NAMES=Hubnerite
##RRUFFID=R050139
##IDEAL CHEMISTRY=Mn^2+^W^6+^O_4_
##LOCALITY=Pasto Bueno District, Pallasca Province, Ancash Department, Peru
##OWNER=RRUFF
##SOURCE=Dave Bunk Minerals
##DESCRIPTION=Black tabular crystals associated with quartz
##STATUS=The identification of this mineral has been confirmed by X-ray diffraction and chemical analysis
##URL=rruff.info/R050139
##MEASURED CHEMISTRY=(Mn^2+^_0.79_Fe^2+^_0.20_)W_1.00_O4
##PIN_ID=L00536
##ORIENTATION=Laser parallel to -b* (0 -1 0). Fiducial mark perpendicular to laser is parallel to -c [0 0 -1]
85.929, 0.000
87.329, 190.863
88.728, 2.076
90.128, 265.340
91.527, 390.281
92.926, 569.822
94.324, 568.943
95.723, 624.363
97.121, 603.664
98.519, 536.600
99.917, 372.859
101.314, 160.926
102.712, 163.939
104.109, 8.803
105.505, 77.422
106.902, 199.867
108.298, 226.712
109.694, 358.119
111.090, 794.650
112.486, 1019.678
113.881, 895.270
115.277, 815.362
116.672, 746.178
118.066, 610.769
119.461, 694.402
120.855, 1016.605
122.249, 1681.127
123.643, 2508.865
125.036, 3467.014
126.430, 4392.658
127.823, 4951.334
129.216, 5354.240
130.608, 5085.244
132.001, 4238.145
133.393, 3028.104
134.785, 2092.292
136.176, 1785.824
137.568, 1379.867
138.959, 1264.281
140.350, 982.771
141.741, 788.557
143.131, 564.424
144.521, 493.786
145.911, 506.691
147.301, 397.449
148.691, 262.631
150.080, 218.295
151.469, 26.727
152.858, 148.388
154.247, 174.040
155.635, 110.633
157.024, 69.858
158.411, 71.979
159.799, 79.621
161.187, 191.492
162.574, 193.309
163.961, 235.972
165.348, 313.566
166.734, 157.354
168.121, 186.448
169.507, 181.037
170.893, 227.977
172.278, 185.420
173.664, 165.210
175.049, 104.240
176.434, 66.000
177.819, 64.082
179.203, 48.480
180.587, 101.835
181.971, 79.145
183.355, 127.020
184.739, 185.784
186.122, 206.607
187.505, 241.480
188.888, 198.659
190.271, 276.039
191.653, 235.359
193.035, 231.857
194.417, 268.615
195.799, 389.691
197.180, 331.596
198.562, 476.428
199.943, 432.798
201.324, 687.726
202.704, 807.145
204.084, 851.051
205.465, 871.376
206.844, 872.107
208.224, 727.269
209.603, 576.873
210.983, 492.904
212.362, 206.378
213.740, 232.288
215.119, 190.601
216.497, 12.321
217.875, 48.484
219.253, 17.134
220.631, 63.706
222.008, 114.021
223.385, 114.856
224.762, 131.397
226.139, 108.008
227.515, 75.817
228.891, 74.902
230.267, 0.227
231.643, 83.870
233.018, 73.499
234.394, 6.235
235.769, 140.352
237.144, 90.280
238.518, 77.931
239.893, 1.855
241.267, 45.854
242.641, 3.046
244.014, 22.296
245.388, 24.139
246.761, 55.570
248.134, 77.187
249.507, 133.357
250.879, 146.779
252.252, 303.681
253.624, 432.279
254.996, 663.848
256.367, 929.878
257.739, 999.130
259.110, 1068.850
260.481, 1134.752
261.852, 1118.874
263.222, 980.451
264.592, 927.786
265.962, 850.133
267.332, 763.357
268.702, 714.521
270.071, 638.315
271.440, 629.383
272.809, 616.924
274.178, 643.079
275.546, 667.709
276.915, 685.642
278.283, 760.291
279.650, 753.121
281.018, 784.194
282.385, 837.146
283.752, 936.127
285.119, 903.146
286.486, 953.102
287.852, 945.131
289.218, 1043.973
290.584, 1075.734
291.950, 1176.340
293.316, 1127.054
294.681, 1186.983
296.046, 1205.841
297.411, 1243.653
298.775, 1353.864
300.140, 1327.971
301.504, 1463.012
302.868, 1556.414
304.231, 1573.779
305.595, 1668.362
306.958, 1721.374
308.321, 1896.011
309.684, 2040.707
311.047, 2142.798
312.409, 2257.606
313.771, 2541.673
315.133, 2784.073
316.495, 3151.729
317.856, 3655.823
319.217, 4304.073
320.578, 4859.242
321.939, 5529.195
323.299, 5987.302
324.660, 6412.580
326.020, 6479.205
327.380, 6484.900
328.739, 6230.804
330.099, 5771.335
331.458, 5301.259
332.817, 4875.790
334.176, 4475.554
335.534, 3958.066
336.892, 3687.429
338.251, 3274.530
339.608, 3015.054
340.966, 2734.305
342.323, 2550.326
343.681, 2359.668
345.037, 2195.567
346.394, 2055.584
347.751, 1890.745
349.107, 1868.747
350.463, 1743.011
351.819, 1787.499
353.174, 1767.229
354.530, 1604.705
355.885, 1645.763
357.240, 1598.477
358.594, 1484.552
359.949, 1465.234
361.303, 1423.403
362.657, 1382.633
364.011, 1397.350
365.365, 1362.979
366.718, 1320.986
368.071, 1321.062
369.424, 1310.108
370.777, 1295.048
372.129, 1276.273
373.481, 1250.783
374.833, 1272.033
376.185, 1202.841
377.537, 1185.913
378.888, 1192.405
380.239, 1292.128
381.590, 1174.193
382.941, 1239.167
384.291, 1218.210
385.642, 1183.110
386.992, 1295.975
388.341, 1373.820
389.691, 1482.154
391.040, 1585.528
392.389, 1861.981
393.738, 2256.143
395.087, 2459.078
396.435, 2799.688
397.784, 2895.547
399.132, 2838.020
400.479, 2553.673
401.827, 2225.149
403.174, 1948.688
404.521, 1688.293
405.868, 1560.684
407.215, 1353.308
408.561, 1311.073
409.908, 1150.460
411.254, 1048.149
412.599, 1033.652
413.945, 961.312
415.290, 961.281
416.636, 893.840
417.980, 774.219
419.325, 790.701
420.670, 762.811
422.014, 774.113
423.358, 759.457
424.702, 752.700
426.045, 722.916
427.389, 750.855
428.732, 664.278
430.075, 730.999
431.417, 729.309
432.760, 685.086
434.102, 682.847
435.444, 712.421
436.786, 645.676
438.127, 631.086
439.469, 682.195
440.810, 621.114
442.151, 617.067
443.492, 719.889
444.832, 710.830
446.172, 658.704
447.512, 644.496
448.852, 601.482
450.192, 596.891
451.531, 586.820
452.870, 607.450
454.209, 573.096
455.548, 527.995
456.887, 553.025
458.225, 569.975
459.563, 493.875
460.901, 553.910
462.238, 532.072
463.576, 558.494
464.913, 506.095
466.250, 474.039
467.587, 497.072
468.923, 449.658
470.259, 410.431
471.596, 465.344
472.931, 441.355
474.267, 470.612
475.603, 406.282
476.938, 449.093
478.273, 425.704
479.608, 430.265
480.942, 382.754
482.276, 378.607
483.611, 384.102
484.944, 359.594
486.278, 397.820
487.612, 409.091
488.945, 394.165
490.278, 394.335
491.611, 355.288
492.943, 284.304
494.276, 391.289
495.608, 357.334
496.940, 425.266
498.271, 371.225
499.603, 388.267
500.934, 376.215
502.265, 380.958
503.596, 363.671
504.927, 369.941
506.257, 393.227
507.587, 365.001
508.917, 374.700
510.247, 345.389
511.577, 353.067
512.906, 364.732
514.235, 378.389
515.564, 318.034
516.892, 352.668
518.221, 341.294
519.549, 438.776
520.877, 408.205
522.205, 413.488
523.533, 468.625
524.860, 475.849
526.187, 456.943
527.514, 501.875
528.841, 517.992
530.167, 622.731
531.493, 609.593
532.820, 693.392
534.145, 787.105
535.471, 834.934
536.796, 903.346
538.122, 890.067
539.447, 1001.690
540.771, 1024.805
542.096, 1061.487
543.420, 1022.513
544.744, 1014.561
546.068, 1036.597
547.392, 932.229
548.715, 904.919
550.039, 746.660
551.362, 788.443
552.684, 659.269
554.007, 602.117
555.329, 516.010
556.652, 511.944
557.973, 431.902
559.295, 384.920
560.617, 332.983
561.938, 299.089
563.259, 262.625
564.580, 241.463
565.901, 211.646
567.221, 191.844
568.541, 184.057
569.861, 194.446
571.181, 167.681
572.501, 172.013
573.820, 97.718
575.139, 140.895
576.458, 138.774
577.777, 67.020
579.095, 157.781
580.414, 119.094
581.732, 111.882
583.049, 56.339
584.367, 104.103
585.685, 56.305
587.002, 47.289
588.319, 76.949
589.636, 76.557
590.952, 75.819
592.268, 23.214
593.585, 4.829
594.900, 58.633
596.216, 2.887
597.532, 42.107
598.847, 112.773
600.162, 48.980
601.477, 65.207
602.792, 45.903
604.106, 119.600
605.420, 66.118
606.734, 29.617
608.048, 119.974
609.361, 56.354
610.675, 122.730
611.988, 14.765
613.301, 40.628
614.614, 35.872
615.926, 42.259
617.238, 61.757
618.550, 109.975
619.862, 25.484
621.174, 71.940
622.485, 98.544
623.797, 10.967
625.108, 63.290
626.418, 9.255
627.729, 77.031
629.039, 31.185
630.349, 3.400
631.659, 20.056
632.969, 36.565
634.279, 42.755
635.588, 9.114
636.897, 38.514
638.206, 7.894
639.515, 17.137
640.823, 76.605
642.131, 6.324
643.439, 27.884
644.747, 7.097
646.055, 44.802
647.362, 12.220
648.669, 54.707
649.976, 32.064
651.283, 31.160
652.589, 9.736
653.896, 29.203
655.202, 15.989
656.508, 1.418
657.814, 8.278
659.119, 53.957
660.424, 61.689
661.729, 28.385
663.034, 49.140
664.339, 35.027
665.643, 68.829
666.947, 77.706
668.251, 104.495
669.555, 147.349
670.859, 81.286
672.162, 96.314
673.465, 173.123
674.768, 150.110
676.071, 258.083
677.373, 243.488
678.676, 329.809
679.978, 353.188
681.280, 401.617
682.581, 495.057
683.883, 524.506
685.184, 537.966
686.485, 584.435
687.786, 694.916
689.087, 794.405
690.387, 827.916
691.687, 854.437
692.987, 967.983
694.287, 968.542
695.586, 1075.113
696.886, 1093.696
698.185, 1101.290
699.484, 1064.908
700.783, 978.536
702.081, 967.181
703.379, 795.836
704.677, 756.499
705.975, 651.184
707.273, 542.876
708.570, 481.576
709.868, 336.283
711.165, 363.996
712.462, 275.715
713.758, 179.444
715.055, 211.180
716.351, 102.933
717.647, 81.692
718.943, 145.458
720.238, 8.228
721.533, 67.970
722.829, 24.610
724.124, 25.192
725.418, 59.234
726.713, 18.366
728.007, 19.123
729.301, 44.586
730.595, 36.369
731.889, 54.974
733.182, 8.604
734.476, 59.519
735.769, 91.072
737.061, 59.822
738.354, 33.618
739.647, 59.647
740.939, 29.488
742.231, 62.529
743.523, 81.628
744.814, 74.634
746.106, 3.671
747.397, 52.698
748.688, 13.960
749.978, 14.292
751.269, 50.392
752.559, 6.745
753.849, 15.083
755.139, 63.228
756.429, 91.131
757.719, 93.130
759.008, 99.071
760.297, 120.741
761.586, 146.419
762.875, 151.365
764.163, 162.713
765.451, 171.819
766.739, 169.228
768.027, 204.917
769.315, 223.030
770.602, 216.147
771.890, 233.314
773.177, 248.385
774.463, 267.084
775.750, 286.251
777.036, 260.636
778.323, 278.154
779.609, 316.329
780.894, 260.746
782.180, 247.774
783.465, 286.294
784.750, 258.647
786.035, 227.833
787.320, 319.709
788.605, 201.115
789.889, 243.328
791.173, 247.701
792.457, 262.082
793.741, 337.495
795.024, 300.271
796.307, 319.009
797.591, 278.199
798.873, 276.787
800.156, 304.310
801.439, 227.012
802.721, 255.600
804.003, 252.386
805.285, 188.100
806.566, 327.833
807.848, 181.496
809.129, 340.261
810.410, 270.993
811.691, 312.635
812.971, 322.374
814.252, 295.325
815.532, 365.314
816.812, 390.198
818.092, 357.189
819.371, 394.139
820.651, 403.167
821.930, 453.203
823.209, 402.249
824.488, 455.305
825.766, 499.370
827.045, 525.443
828.323, 600.525
829.601, 552.617
830.878, 592.717
832.156, 646.825
833.433, 657.940
834.710, 732.062
835.987, 777.191
837.264, 824.327
838.540, 962.469
839.817, 917.618
841.093, 961.774
842.369, 1108.938
843.644, 1091.087
844.920, 1245.267
846.195, 1260.565
847.470, 1457.989
848.745, 1617.191
850.020, 1677.699
851.294, 1968.914
852.568, 2066.874
853.842, 2260.104
855.116, 2671.104
856.390, 2781.362
857.663, 3257.612
858.936, 3509.084
860.209, 3980.567
861.482, 4615.839
862.755, 5140.116
864.027, 5794.435
865.299, 6594.726
866.571, 7395.642
867.843, 8305.945
869.115, 9268.995
870.386, 10829.313
871.657, 12409.634
872.928, 14499.962
874.199, 16960.219
875.470, 19870.578
876.740, 23771.004
878.010, 28161.381
879.280, 33238.629
880.550, 38079.031
881.820, 42028.484
883.089, 44606.598
884.358, 44814.930
885.627, 41652.312
886.896, 37941.879
888.164, 32539.008
889.433, 26774.859
890.701, 22412.225
891.969, 18200.850
893.236, 14849.314
894.504, 12407.874
895.771, 10104.804
897.038, 8390.731
898.305, 7047.032
899.572, 6026.716
900.838, 5161.125
902.105, 4527.351
903.371, 3956.558
904.637, 3488.082
905.902, 3021.626
907.168, 2755.985
908.433, 2488.598
909.698, 2222.644
910.963, 2116.277
912.228, 1902.233
913.492, 1749.885
914.757, 1543.548
916.021, 1437.219
917.285, 1352.900
918.548, 1198.591
919.812, 1142.290
921.075, 1059.104
922.338, 973.824
923.601, 923.553
924.864, 849.292
926.126, 800.039
927.388, 737.794
928.650, 722.558
929.912, 681.331
931.174, 697.111
932.435, 641.644
933.697, 575.699
934.958, 554.506
936.218, 568.322
937.479, 535.146
938.739, 423.979
940.000, 488.823
941.260, 430.680
942.520, 369.742
943.779, 419.622
945.039, 455.514
946.298, 361.414
947.557, 376.321
948.816, 312.249
950.074, 387.185
951.333, 374.270
952.591, 331.245
953.849, 360.202
955.107, 343.167
956.365, 362.138
957.622, 256.116
958.879, 274.101
960.136, 250.091
961.393, 253.282
962.650, 255.286
963.906, 199.297
965.162, 245.583
966.418, 169.098
967.674, 192.126
968.930, 191.206
970.185, 192.245
971.441, 185.335
972.696, 179.160
973.950, 175.441
975.205, 160.665
976.459, 129.729
977.714, 118.818
978.968, 122.894
980.222, 36.973
981.475, 119.202
982.729, 40.292
983.982, 55.386
985.235, 89.484
986.488, 27.587
987.740, 97.695
988.993, 64.807
990.245, 25.923
991.497, 66.043
992.749, 31.441
994.000, 27.963
995.252, 84.325
996.503, 49.106
997.754, 9.342
999.005, 31.440
1000.256, 6.542
1001.506, 89.646
1002.756, 42.246
1004.006, 39.650
1005.256, 24.048
1006.506, 23.410
1007.755, 77.496
1009.005, 50.816
1010.254, 9.249
1011.502, 79.642
1012.751, 61.866
1014.000, 20.390
1015.248, 83.962
1016.496, 1.882
1017.744, 33.198
1018.991, 42.317
1020.239, 86.751
1021.486, 31.963
1022.733, 34.418
1023.980, 22.804
1025.227, 24.455
1026.473, 18.485
1027.719, 32.147
1028.965, 24.718
1030.211, 42.928
1031.457, 7.210
1032.702, 13.061
1033.948, 32.208
1035.193, 96.376
1036.438, 26.572
1037.682, 54.977
1038.927, 5.194
1040.171, 8.516
1041.415, 10.770
1042.659, 14.961
1043.903, 105.314
1045.146, 29.659
1046.390, 35.075
1047.633, 128.549
1048.876, 33.168
1050.118, 45.716
1051.361, 98.194
1052.603, 85.663
1053.845, 59.050
1055.087, 119.548
1056.329, 54.956
1057.571, 33.372
1058.812, 3.783
1060.053, 91.190
1061.294, 7.665
1062.535, 81.073
1063.775, 36.542
1065.016, 71.976
1066.256, 74.398
1067.496, 83.963
1068.736, 61.386
1069.975, 20.808
1071.214, 93.237
1072.454, 176.680
1073.693, 90.099
1074.931, 89.519
1076.170, 74.937
1077.408, 124.354
1078.647, 106.774
1079.885, 116.193
1081.122, 82.614
1082.360, 88.154
1083.597, 89.626
1084.835, 61.983
1086.072, 99.395
1087.308, 61.806
1088.545, 58.219
1089.781, 82.630
1091.018, 18.041
1092.254, 113.446
1093.490, 71.850
1094.725, 66.251
1095.961, 82.651
1097.196, 59.048
1098.431, 54.443
1099.666, 22.834
1100.900, 35.224
1102.135, 76.609
1103.369, 58.992
1104.603, 70.373
1105.837, 52.750
1107.071, 58.125
1108.304, 82.498
1109.538, 20.867
1110.771, 59.231
1112.004, 65.593
1113.236, 16.952
1114.469, 6.305
1115.701, 57.650
1116.933, 34.992
1118.165, 69.330
1119.397, 35.665
1120.629, 68.998
1121.860, 54.410
1123.091, 25.736
1124.322, 91.057
1125.553, 40.374
1126.783, 99.687
1128.014, 64.998
1129.244, 28.305
1130.474, 104.606
1131.704, 91.903
1132.933, 72.197
1134.163, 77.486
1135.392, 48.771
1136.621, 68.051
1137.850, 57.327
1139.079, 59.598
1140.307, 20.864
1141.535, 12.123
1142.763, 26.396
1143.991, 11.639
1145.219, 13.764
1146.446, 54.763
1147.674, 100.022
1148.901, 73.176
1150.128, 49.539
1151.354, 1.716
1152.581, 20.640
1153.807, 10.167
1155.033, 51.458
1156.259, 1.632
1157.485, 93.678
1158.710, 10.688
1159.936, 21.020
1161.161, 5.275
1162.386, 3.728
1163.611, 29.273
1164.835, 42.924
1166.060, 8.136
1167.284, 65.822
1168.508, 22.368
1169.732, 9.182
1170.955, 13.821
1172.179, 15.604
1173.402, 21.479
1174.625, 15.473
1175.848, 29.816
1177.070, 29.544
1178.293, 8.656
1179.515, 17.553
1180.737, 49.605
1181.959, 59.286
1183.181, 56.726
1184.402, 26.701
1185.624, 56.611
1186.845, 36.459
1188.066, 50.199
1189.286, 64.753
1190.507, 71.698
1191.727, 39.719
1192.947, 35.054
1194.167, 32.734
1195.387, 23.006
1196.607, 29.311
1197.826, 37.043
1199.045, 38.978
1200.264, 76.155
1201.483, 39.074
1202.702, 76.911
1203.920, 53.033
1205.138, 103.801
1206.356, 96.215
1207.574, 44.953
1208.792, 72.379
1210.009, 48.491
1211.227, 57.000
1212.444, 61.495
1213.661, 38.753
1214.877, 62.621
1216.094, 69.363
1217.310, 60.653
1218.526, 57.658
1219.742, 67.875
1220.958, 69.370
1222.173, 92.858
1223.389, 78.499
1224.604, 102.107
1225.819, 89.780
1227.034, 66.376
1228.248, 44.961
1229.463, 130.592
1230.677, 87.158
1231.891, 117.714
1233.105, 137.412
1234.318, 89.808
1235.532, 184.391
1236.745, 88.922
1237.958, 134.311
1239.171, 130.820
1240.384, 94.345
1241.596, 149.839
1242.809, 123.326
1244.021, 110.806
1245.233, 114.278
1246.444, 123.740
1247.656, 121.172
1248.867, 88.623
1250.079, 83.065
1251.290, 124.499
1252.500, 85.962
1253.711, 131.528
1254.921, 121.940
1256.132, 102.150
1257.342, 98.643
1258.552, 117.031
1259.761, 115.144
1260.971, 109.024
1262.180, 139.478
1263.389, 116.790
1264.598, 116.137
1265.807, 90.963
1267.015, 59.312
1268.223, 104.630
1269.432, 153.888
1270.640, 104.188
1271.847, 142.457
1273.055, 83.218
1274.262, 143.478
1275.470, 170.571
1276.677, 125.797
1277.883, 104.077
1279.090, 113.385
1280.296, 143.588
1281.503, 87.748
1282.709, 118.881
1283.915, 122.002
1285.120, 122.101
1286.326, 154.912
1287.531, 145.530
1288.736, 140.319
1289.941, 101.103
1291.146, 103.957
1292.350, 73.032
1293.555, 39.150
1294.759, 47.326
1295.963, 35.896
1297.167, 45.382
1298.370, 57.146
1299.574, 51.797
1300.777, 83.956
1301.980, 58.297
1303.183, 65.086
1304.386, 42.171
1305.588, 54.940
1306.790, 28.816
1307.993, 24.295
1309.195, 46.103
1310.396, 57.974
1311.598, 5.565
1312.799, 22.290
1314.000, 12.005
1315.201, 15.447
1316.402, 17.959
1317.603, 61.197
1318.803, 67.046
1320.003, 80.255
1321.203, 63.543
1322.403, 0.808
1323.603, 14.757
1324.802, 11.252
1326.002, 32.563
1327.201, 28.899
1328.400, 52.742
1329.599, 81.168
1330.797, 21.784
1331.995, 25.304
1333.194, 17.103
1334.392, 12.472
1335.589, 35.038
1336.787, 10.531
1337.985, 7.958
1339.182, 54.337
1340.379, 36.577
1341.576, 4.124
1342.772, 41.242
1343.969, 15.611
1345.165, 40.058
1346.361, 57.396
1347.557, 16.820
1348.753, 90.225
1349.949, 50.624
1351.144, 5.939
1352.339, 70.374
1353.534, 28.260
1354.729, 2.965
1355.924, 22.357
1357.118, 49.677
1358.312, 28.845
1359.506, 53.670
1360.700, 28.436
1361.894, 55.710
1363.088, 69.962
1364.281, 44.229
1365.474, 64.487
1366.667, 62.739
1367.860, 7.016
1369.052, 50.222
1370.245, 128.456
1371.437, 81.717
1372.629, 52.847
1373.821, 77.135
1375.013, 76.371
1376.204, 29.853
1377.395, 5.205
1378.586, 52.663
1379.777, 63.519
1380.968, 50.362
1382.159, 82.192
1383.349, 60.008
1384.539, 96.813
1385.729, 106.604
1386.919, 106.382
1388.109, 92.146
1389.298, 32.897
1390.487, 106.636
1391.676, 73.367
1392.865, 75.085
1394.054, 106.693
1395.242, 57.379
1396.431, 31.052
1397.619, 80.708
1398.807, 98.351
1399.995, 42.981
1401.182, 89.597
1402.370, 73.202
1403.557, 76.796
1404.744, 44.386
1405.931, 79.971
1407.118, 96.200
1408.304, 0.211
1409.490, 60.422
1410.676, 83.803
1411.862, 39.120
1413.048, 65.256
1414.234, 93.736
1415.419, 1.901
1416.604, 62.947
1417.789, 78.220
1418.974, 72.815
1420.159, 45.198
1421.343, 34.420
1422.528, 53.175
1423.712, 46.817
1424.896, 70.048
1426.079, 53.523
1427.263, 59.451
1428.446, 55.744
1429.629, 44.073
1430.812, 38.089
1431.995, 34.374
1433.178, 11.943
1434.360, 37.549
1435.543, 21.910
1436.725, 36.951
1437.907, 37.188
1439.088, 25.771
1440.270, 63.365
1441.451, 23.275
1442.632, 0.068
1443.813, 51.144
1444.994, 3.050
1446.175, 18.766
1447.355, 42.674
1448.535, 8.460
1449.715, 13.243
1450.895, 75.902
1452.075, 51.601
1453.255, 63.312
1454.434, 49.678
1455.613, 36.300
1456.792, 81.879
1457.971, 40.990
1459.149, 54.470
1460.328, 53.669
1461.506, 28.045
1462.684, 64.143
1463.862, 48.047
1465.040, 39.195
1466.217, 53.052
1467.395, 40.838
1468.572, 33.952
1469.749, 78.881
1470.925, 19.623
1472.102, 84.833
1473.278, 21.106
1474.455, 23.372
1475.631, 70.439
1476.807, 112.121
1477.982, 106.112
1479.158, 28.319
1480.333, 117.486
1481.508, 17.103
1482.683, 77.189
1483.858, 74.787
1485.033, 31.696
1486.207, 65.896
1487.381, 59.070
1488.555, 49.218
1489.729, 51.349
1490.903, 102.466
1492.076, 0.364
1493.250, 37.851
1494.423, 40.109
1495.596, 118.384
1496.769, 8.674
1497.941, 99.989
1499.114, 66.341
1500.286, 98.728
1501.458, 93.291
1502.630, 55.983
1503.802, 61.749
1504.973, 68.613
1506.145, 37.056
1507.316, 49.119
1508.487, 75.298
1509.657, 88.720
1510.828, 32.372
1511.999, 8.288
1513.169, 12.898
1514.339, 7.585
1515.509, 40.751
1516.678, 0.337
1517.848, 0.000
##END=



