##NAMES=Hubnerite
##RRUFFID=R050139
##IDEAL CHEMISTRY=Mn^2+^W^6+^O_4_
##LOCALITY=Pasto Bueno District, Pallasca Province, Ancash Department, Peru
##OWNER=RRUFF
##SOURCE=Dave Bunk Minerals
##DESCRIPTION=Black tabular crystals associated with quartz
##STATUS=The identification of this mineral has been confirmed by X-ray diffraction and chemical analysis
##URL=rruff.info/R050139
##MEASURED CHEMISTRY=(Mn^2+^_0.79_Fe^2+^_0.20_)W_1.00_O4
##PIN_ID=L00483
##ORIENTATION=Laser parallel to -a* (-1 0 0). Fiducial mark perpendicular to laser is parallel to -b [0 -1 0]
95.723, 0.000
97.121, 2.639
98.519, 155.445
99.917, 289.055
101.314, 154.541
102.712, 77.236
104.109, 34.692
105.505, 54.384
106.902, 188.156
108.298, 291.045
109.694, 658.812
111.090, 714.963
112.486, 831.546
113.881, 618.521
115.277, 405.006
116.672, 454.063
118.066, 290.438
119.461, 145.006
120.855, 323.980
122.249, 650.631
123.643, 1134.218
125.036, 1477.582
126.430, 2136.267
127.823, 2631.356
129.216, 2918.860
130.608, 2997.234
132.001, 2519.982
133.393, 1768.072
134.785, 1532.662
136.176, 1298.086
137.568, 1094.652
138.959, 1028.647
140.350, 998.535
141.741, 987.511
143.131, 905.011
144.521, 877.668
145.911, 902.184
147.301, 764.896
148.691, 700.433
150.080, 605.260
151.469, 484.511
152.858, 347.345
154.247, 174.101
155.635, 170.792
157.024, 214.827
158.411, 104.638
159.799, 63.114
161.187, 137.921
162.574, 288.775
163.961, 199.336
165.348, 90.496
166.734, 149.468
168.121, 54.198
169.507, 264.149
170.893, 270.540
172.278, 303.372
173.664, 261.824
175.049, 235.058
176.434, 253.280
177.819, 238.425
179.203, 477.303
180.587, 302.582
181.971, 462.656
183.355, 544.804
184.739, 506.368
186.122, 548.499
187.505, 569.196
188.888, 614.269
190.271, 678.125
191.653, 779.936
193.035, 839.180
194.417, 945.339
195.799, 1070.776
197.180, 1172.236
198.562, 1318.449
199.943, 1565.819
201.324, 1946.775
202.704, 2369.356
204.084, 2723.787
205.465, 2977.973
206.844, 3114.902
208.224, 2875.526
209.603, 2495.800
210.983, 2011.694
212.362, 1612.190
213.740, 1292.876
215.119, 982.048
216.497, 737.928
217.875, 558.522
219.253, 396.597
220.631, 320.163
222.008, 215.243
223.385, 102.872
224.762, 31.087
226.139, 14.746
227.515, 7.430
228.891, 12.906
230.267, 37.367
231.643, 28.998
233.018, 82.342
234.394, 112.081
235.769, 125.587
237.144, 80.236
238.518, 93.331
239.893, 38.013
241.267, 92.831
242.641, 75.203
244.014, 134.354
245.388, 43.441
246.761, 52.092
248.134, 16.399
249.507, 1.758
250.879, 23.312
252.252, 49.548
253.624, 45.471
254.996, 10.576
256.367, 43.886
257.739, 76.585
259.110, 54.309
260.481, 3.488
261.852, 30.216
263.222, 107.209
264.592, 84.948
265.962, 135.480
267.332, 145.959
268.702, 210.083
270.071, 220.737
271.440, 252.342
272.809, 304.283
274.178, 326.318
275.546, 369.520
276.915, 449.431
278.283, 454.268
279.650, 456.229
281.018, 470.746
282.385, 559.621
283.752, 587.491
285.119, 688.649
286.486, 739.204
287.852, 783.145
289.218, 805.337
290.584, 903.434
291.950, 941.645
293.316, 933.676
294.681, 973.155
296.046, 1082.513
297.411, 1066.194
298.775, 1207.696
300.140, 1225.398
301.504, 1258.061
302.868, 1401.465
304.231, 1364.520
305.595, 1455.613
306.958, 1526.854
308.321, 1757.182
309.684, 1862.478
311.047, 2123.429
312.409, 2336.170
313.771, 2595.178
315.133, 3010.504
316.495, 3475.698
317.856, 4012.777
319.217, 4723.922
320.578, 5486.221
321.939, 6231.633
323.299, 6848.282
324.660, 7213.529
326.020, 7238.897
327.380, 7004.919
328.739, 6576.985
330.099, 5965.061
331.458, 5343.903
332.817, 4777.220
334.176, 4247.576
335.534, 3825.980
336.892, 3452.893
338.251, 3086.827
339.608, 2770.262
340.966, 2568.409
342.323, 2330.121
343.681, 2218.310
345.037, 2032.090
346.394, 1896.342
347.751, 1870.122
349.107, 1751.467
350.463, 1718.019
351.819, 1648.321
353.174, 1600.577
354.530, 1607.500
355.885, 1568.741
357.240, 1532.054
358.594, 1461.573
359.949, 1477.608
361.303, 1405.693
362.657, 1382.174
364.011, 1440.522
365.365, 1319.306
366.718, 1350.391
368.071, 1261.326
369.424, 1307.110
370.777, 1290.744
372.129, 1243.230
373.481, 1214.569
374.833, 1198.665
376.185, 1191.713
377.537, 1232.788
378.888, 1182.191
380.239, 1194.450
381.590, 1145.280
382.941, 1150.653
384.291, 1128.205
385.642, 1149.355
386.992, 1102.398
388.341, 1150.247
389.691, 1095.571
391.040, 1084.231
392.389, 1184.147
393.738, 1076.944
395.087, 1126.231
396.435, 1157.137
397.784, 1200.144
399.132, 1165.273
400.479, 1089.218
401.827, 1078.314
403.174, 1024.854
404.521, 1003.055
405.868, 937.214
407.215, 952.642
408.561, 934.963
409.908, 862.535
411.254, 852.531
412.599, 841.497
413.945, 882.155
415.290, 858.125
416.636, 834.209
417.980, 771.147
419.325, 765.033
420.670, 782.965
422.014, 751.385
423.358, 783.187
424.702, 752.712
426.045, 742.788
427.389, 737.499
428.732, 714.664
430.075, 721.714
431.417, 751.341
432.760, 737.905
434.102, 731.232
435.444, 724.057
436.786, 689.880
438.127, 764.929
439.469, 786.184
440.810, 759.417
442.151, 789.236
443.492, 708.118
444.832, 734.862
446.172, 712.057
447.512, 757.539
448.852, 719.696
450.192, 710.106
451.531, 729.648
452.870, 704.243
454.209, 741.819
455.548, 647.241
456.887, 677.569
458.225, 587.137
459.563, 641.497
460.901, 609.171
462.238, 632.938
463.576, 584.664
464.913, 604.816
466.250, 595.639
467.587, 591.648
468.923, 546.848
470.259, 606.325
471.596, 564.919
472.931, 580.468
474.267, 572.811
475.603, 533.992
476.938, 580.058
478.273, 515.024
479.608, 518.842
480.942, 588.604
482.276, 530.169
483.611, 505.551
484.944, 514.857
486.278, 509.506
487.612, 522.743
488.945, 539.042
490.278, 530.893
491.611, 505.229
492.943, 524.161
494.276, 501.058
495.608, 495.907
496.940, 524.713
498.271, 461.479
499.603, 517.206
500.934, 545.903
502.265, 499.572
503.596, 502.214
504.927, 511.819
506.257, 533.396
507.587, 500.941
508.917, 461.452
510.247, 432.928
511.577, 475.369
512.906, 518.755
514.235, 432.941
515.564, 493.151
516.892, 480.191
518.221, 484.070
519.549, 433.647
520.877, 472.280
522.205, 495.601
523.533, 517.813
524.860, 460.254
526.187, 532.167
527.514, 514.188
528.841, 530.815
530.167, 442.614
531.493, 516.324
532.820, 549.816
534.145, 592.171
535.471, 708.442
536.796, 656.675
538.122, 650.076
539.447, 753.269
540.771, 729.522
542.096, 716.585
543.420, 679.697
544.744, 693.745
546.068, 710.922
547.392, 774.959
548.715, 741.269
550.039, 713.932
551.362, 601.653
552.684, 589.360
554.007, 527.724
555.329, 452.394
556.652, 449.320
557.973, 379.570
559.295, 388.822
560.617, 320.883
561.938, 288.031
563.259, 247.060
564.580, 284.129
565.901, 293.046
567.221, 213.181
568.541, 267.347
569.861, 207.321
571.181, 267.344
572.501, 180.404
573.820, 190.728
575.139, 226.057
576.458, 132.392
577.777, 187.538
579.095, 123.723
580.414, 123.041
581.732, 92.289
583.049, 64.743
584.367, 82.249
585.685, 10.681
587.002, 39.478
588.319, 33.353
589.636, 26.105
590.952, 12.790
592.268, 34.510
593.585, 45.536
594.900, 77.481
596.216, 49.120
597.532, 38.256
598.847, 4.705
600.162, 58.441
601.477, 25.154
602.792, 16.880
604.106, 37.094
605.420, 21.012
606.734, 26.912
608.048, 41.108
609.361, 3.725
610.675, 29.285
611.988, 27.356
613.301, 13.624
614.614, 33.916
615.926, 44.995
617.238, 38.735
618.550, 66.812
619.862, 24.726
621.174, 31.827
622.485, 38.717
623.797, 47.729
625.108, 62.742
626.418, 57.778
627.729, 10.334
629.039, 2.832
630.349, 3.143
631.659, 4.978
632.969, 15.102
634.279, 14.096
635.588, 11.318
636.897, 20.813
638.206, 10.342
639.515, 34.715
640.823, 63.875
642.131, 73.970
643.439, 9.856
644.747, 32.670
646.055, 0.402
647.362, 16.972
648.669, 18.506
649.976, 44.109
651.283, 35.096
652.589, 70.472
653.896, 71.870
655.202, 72.427
656.508, 102.760
657.814, 85.368
659.119, 148.138
660.424, 125.755
661.729, 154.424
663.034, 175.175
664.339, 184.057
665.643, 213.232
666.947, 225.510
668.251, 267.097
669.555, 274.904
670.859, 317.934
672.162, 349.648
673.465, 398.656
674.768, 466.654
676.071, 561.712
677.373, 571.604
678.676, 697.703
679.978, 777.860
681.280, 849.037
682.581, 966.227
683.883, 1124.438
685.184, 1323.672
686.485, 1347.928
687.786, 1650.204
689.087, 1828.514
690.387, 1961.854
691.687, 2256.216
692.987, 2501.606
694.287, 2598.017
695.586, 2839.467
696.886, 2906.944
698.185, 3007.452
699.484, 2958.983
700.783, 2890.538
702.081, 2713.126
703.379, 2559.740
704.677, 2251.378
705.975, 2066.048
707.273, 1763.742
708.570, 1528.459
709.868, 1355.197
711.165, 1132.958
712.462, 1027.747
713.758, 860.560
715.055, 839.398
716.351, 722.268
717.647, 657.162
718.943, 584.078
720.238, 465.888
721.533, 446.844
722.829, 367.820
724.124, 327.615
725.418, 278.629
726.713, 249.485
728.007, 242.553
729.301, 200.393
730.595, 174.314
731.889, 176.423
733.182, 98.180
734.476, 156.207
735.769, 54.008
737.061, 79.845
738.354, 75.591
739.647, 5.259
740.939, 26.036
742.231, 2.450
743.523, 5.783
744.814, 27.113
746.106, 20.452
747.397, 20.826
748.688, 27.870
749.978, 30.203
751.269, 65.573
752.559, 58.031
753.849, 80.240
755.139, 64.602
756.429, 59.740
757.719, 24.018
759.008, 13.318
760.297, 15.240
761.586, 43.067
762.875, 12.086
764.163, 4.001
765.451, 41.288
766.739, 26.615
768.027, 24.541
769.315, 2.559
770.602, 38.454
771.890, 39.543
773.177, 8.640
774.463, 21.885
775.750, 9.986
777.036, 34.146
778.323, 38.368
779.609, 39.658
780.894, 28.042
782.180, 74.437
783.465, 64.423
784.750, 49.647
786.035, 29.830
787.320, 79.125
788.605, 112.492
789.889, 46.885
791.173, 85.295
792.457, 23.775
793.741, 16.241
795.024, 67.836
796.307, 71.548
797.591, 30.276
798.873, 92.608
800.156, 19.298
801.439, 76.867
802.721, 63.560
804.003, 47.291
805.285, 93.114
806.566, 29.951
807.848, 18.805
809.129, 79.673
810.410, 83.555
811.691, 90.452
812.971, 89.363
814.252, 102.285
815.532, 120.222
816.812, 161.172
818.092, 94.136
819.371, 121.113
820.651, 114.103
821.930, 82.105
823.209, 131.225
824.488, 147.255
825.766, 178.296
827.045, 140.390
828.323, 209.456
829.601, 185.535
830.878, 255.624
832.156, 265.839
833.433, 321.467
834.710, 298.739
835.987, 305.872
837.264, 347.018
838.540, 364.899
839.817, 397.687
841.093, 441.757
842.369, 481.054
843.644, 508.161
844.920, 572.695
846.195, 610.903
847.470, 670.171
848.745, 726.302
850.020, 799.593
851.294, 886.745
852.568, 973.154
853.842, 1120.647
855.116, 1235.314
856.390, 1409.258
857.663, 1527.571
858.936, 1756.471
860.209, 1939.796
861.482, 2212.355
862.755, 2514.809
864.027, 2820.146
865.299, 3217.491
866.571, 3681.688
867.843, 4126.663
869.115, 4753.938
870.386, 5593.663
871.657, 6513.814
872.928, 7609.383
874.199, 9060.889
875.470, 10832.288
876.740, 13223.693
878.010, 15815.470
879.280, 19127.381
880.550, 22211.689
881.820, 24793.623
883.089, 26745.094
884.358, 26916.691
885.627, 25258.537
886.896, 23019.988
888.164, 19471.941
889.433, 15893.409
890.701, 13104.883
891.969, 10536.540
893.236, 8487.939
894.504, 7079.431
895.771, 5774.601
897.038, 4694.686
898.305, 3897.952
899.572, 3301.465
900.838, 2835.959
902.105, 2475.204
903.371, 2094.381
904.637, 1932.144
905.902, 1622.443
907.168, 1458.610
908.433, 1286.519
909.698, 1168.533
910.963, 1026.038
912.228, 975.620
913.492, 826.881
914.757, 762.582
916.021, 757.221
917.285, 660.717
918.548, 609.497
919.812, 542.153
921.075, 472.816
922.338, 474.104
923.601, 472.779
924.864, 369.459
926.126, 366.075
927.388, 342.931
928.650, 327.574
929.912, 315.271
931.174, 313.972
932.435, 296.906
933.697, 271.384
934.958, 290.094
936.218, 262.809
937.479, 297.528
938.739, 203.251
940.000, 132.978
941.260, 187.708
942.520, 211.440
943.779, 223.174
945.039, 213.911
946.298, 184.644
947.557, 203.385
948.816, 193.273
950.074, 200.044
951.333, 191.790
952.591, 173.543
953.849, 185.469
955.107, 175.683
956.365, 179.251
957.622, 168.030
958.879, 134.418
960.136, 120.173
961.393, 105.084
962.650, 136.841
963.906, 167.599
965.162, 100.357
966.418, 67.115
967.674, 56.273
968.930, 118.029
970.185, 86.126
971.441, 62.881
972.696, 41.636
973.950, 29.390
975.205, 51.332
976.459, 56.252
977.714, 36.002
978.968, 80.750
980.222, 41.497
981.475, 47.242
982.729, 29.986
983.982, 11.727
985.235, 28.621
986.488, 52.454
987.740, 86.526
988.993, 7.254
990.245, 30.974
991.497, 15.822
992.749, 37.037
994.000, 16.356
995.252, 21.318
996.503, 0.026
997.754, 39.856
999.005, 49.503
1000.256, 0.671
1001.506, 15.076
1002.756, 32.505
1004.006, 28.088
1005.256, 20.306
1006.506, 4.526
1007.755, 45.165
1009.005, 26.099
1010.254, 46.478
1011.502, 28.055
1012.751, 35.557
1014.000, 52.055
1015.248, 15.452
1016.496, 5.031
1017.744, 8.640
1018.991, 30.672
1020.239, 3.950
1021.486, 7.473
1022.733, 32.391
1023.980, 37.953
1025.227, 62.404
1026.473, 71.830
1027.719, 21.607
1028.965, 17.075
1030.211, 29.470
1031.457, 16.997
1032.702, 46.367
1033.948, 35.232
1035.193, 21.593
1036.438, 97.920
1037.682, 18.384
1038.927, 79.699
1040.171, 78.289
1041.415, 33.596
1042.659, 66.895
1043.903, 97.203
1045.146, 52.749
1046.390, 48.113
1047.633, 60.772
1048.876, 89.060
1050.118, 113.667
1051.361, 63.910
1052.603, 78.195
1053.845, 106.517
1055.087, 34.182
1056.329, 88.482
1057.571, 42.346
1058.812, 68.666
1060.053, 87.991
1061.294, 117.622
1062.535, 16.942
1063.775, 104.405
1065.016, 58.833
1066.256, 80.139
1067.496, 74.439
1068.736, 127.740
1069.975, 124.485
1071.214, 131.671
1072.454, 99.393
1073.693, 120.917
1074.931, 74.237
1076.170, 41.550
1077.408, 122.812
1078.647, 95.062
1079.885, 88.305
1081.122, 66.541
1082.360, 72.769
1083.597, 60.990
1084.835, 72.204
1086.072, 102.510
1087.308, 132.811
1088.545, 126.201
1089.781, 82.217
1091.018, 121.396
1092.254, 87.567
1093.490, 93.730
1094.725, 104.889
1095.961, 90.041
1097.196, 48.184
1098.431, 57.318
1099.666, 94.444
1100.900, 122.563
1102.135, 47.674
1103.369, 6.775
1104.603, 46.873
1105.837, 59.946
1107.071, 24.011
1108.304, 125.063
1109.538, 50.210
1110.771, 84.243
1112.004, 137.403
1113.236, 69.440
1114.469, 83.448
1115.701, 36.448
1116.933, 83.436
1118.165, 40.418
1119.397, 82.388
1120.629, 84.460
1121.860, 72.415
1123.091, 50.318
1124.322, 52.256
1125.553, 72.182
1126.783, 95.059
1128.014, 82.967
1129.244, 104.864
1130.474, 77.754
1131.704, 93.520
1132.933, 53.943
1134.163, 58.726
1135.392, 41.678
1136.621, 79.517
1137.850, 100.675
1139.079, 56.366
1140.307, 35.849
1141.535, 73.560
1142.763, 66.440
1143.991, 86.895
1145.219, 42.676
1146.446, 79.455
1147.674, 40.401
1148.901, 104.324
1150.128, 62.221
1151.354, 60.800
1152.581, 54.340
1153.807, 32.019
1155.033, 45.390
1156.259, 37.679
1157.485, 46.779
1158.710, 46.667
1159.936, 68.629
1161.161, 93.152
1162.386, 99.790
1163.611, 96.790
1164.835, 24.754
1166.060, 56.861
1167.284, 27.582
1168.508, 60.027
1169.732, 13.485
1170.955, 36.149
1172.179, 48.617
1173.402, 54.615
1174.625, 20.505
1175.848, 43.828
1177.070, 44.096
1178.293, 36.786
1179.515, 51.902
1180.737, 9.360
1181.959, 51.707
1183.181, 98.022
1184.402, 34.228
1185.624, 62.193
1186.845, 22.805
1188.066, 81.308
1189.286, 70.558
1190.507, 55.978
1191.727, 24.592
1192.947, 41.289
1194.167, 16.742
1195.387, 59.459
1196.607, 19.831
1197.826, 4.808
1199.045, 85.535
1200.264, 51.870
1201.483, 16.760
1202.702, 64.486
1203.920, 8.092
1205.138, 133.514
1206.356, 76.823
1207.574, 21.589
1208.792, 73.023
1210.009, 33.637
1211.227, 38.323
1212.444, 66.560
1213.661, 75.816
1214.877, 75.028
1216.094, 13.231
1217.310, 39.513
1218.526, 26.792
1219.742, 25.929
1220.958, 52.783
1222.173, 52.930
1223.389, 63.004
1224.604, 92.131
1225.819, 109.249
1227.034, 109.601
1228.248, 105.351
1229.463, 93.804
1230.677, 77.885
1231.891, 41.199
1233.105, 40.328
1234.318, 58.739
1235.532, 81.964
1236.745, 95.047
1237.958, 88.195
1239.171, 79.314
1240.384, 85.058
1241.596, 74.062
1242.809, 73.064
1244.021, 117.106
1245.233, 80.061
1246.444, 101.291
1247.656, 80.259
1248.867, 74.073
1250.079, 60.949
1251.290, 64.701
1252.500, 73.617
1253.711, 63.789
1254.921, 39.039
1256.132, 67.802
1257.342, 33.727
1258.552, 58.628
1259.761, 85.522
1260.971, 100.490
1262.180, 110.968
1263.389, 79.524
1264.598, 154.049
1265.807, 36.997
1267.015, 111.312
1268.223, 49.153
1269.432, 62.793
1270.640, 89.446
1271.847, 90.255
1273.055, 94.080
1274.262, 69.861
1275.470, 79.616
1276.677, 81.371
1277.883, 46.104
1279.090, 45.668
1280.296, 38.284
1281.503, 78.660
1282.709, 72.359
1283.915, 63.049
1285.120, 35.600
1286.326, 55.846
1287.531, 74.525
1288.736, 61.191
1289.941, 65.863
1291.146, 46.295
1292.350, 39.021
1293.555, 19.448
1294.759, 45.093
1295.963, 69.731
1297.167, 48.382
1298.370, 21.048
1299.574, 3.432
1300.777, 12.945
1301.980, 12.351
1303.183, 17.892
1304.386, 0.421
1305.588, 59.057
1306.790, 80.672
1307.993, 31.715
1309.195, 20.893
1310.396, 31.090
1311.598, 42.378
1312.799, 18.891
1314.000, 3.577
1315.201, 13.444
1316.402, 51.807
1317.603, 3.267
1318.803, 8.746
1320.003, 21.854
1321.203, 15.256
1322.403, 41.061
1323.603, 27.019
1324.802, 65.449
1326.002, 51.074
1327.201, 15.493
1328.400, 6.078
1329.599, 81.218
1330.797, 20.629
1331.995, 38.752
1333.194, 105.160
1334.392, 84.545
1335.589, 17.077
1336.787, 10.189
1337.985, 31.470
1339.182, 7.446
1340.379, 81.782
1341.576, 63.791
1342.772, 93.155
1343.969, 53.467
1345.165, 3.164
1346.361, 4.243
1347.557, 8.040
1348.753, 14.587
1349.949, 44.022
1351.144, 1.724
1352.339, 16.215
1353.534, 57.435
1354.729, 0.503
1355.924, 47.586
1357.118, 40.783
1358.312, 94.968
1359.506, 71.146
1360.700, 25.865
1361.894, 23.921
1363.088, 6.160
1364.281, 46.735
1365.474, 46.818
1366.667, 21.894
1367.860, 53.005
1369.052, 62.116
1370.245, 24.221
1371.437, 43.320
1372.629, 14.466
1373.821, 52.557
1375.013, 7.647
1376.204, 28.638
1377.395, 0.617
1378.586, 11.671
1379.777, 31.762
1380.968, 16.334
1382.159, 19.892
1383.349, 7.561
1384.539, 69.976
1385.729, 42.503
1386.919, 10.012
1388.109, 72.534
1389.298, 5.941
1390.487, 84.306
1391.676, 36.784
1392.865, 56.279
1394.054, 55.761
1395.242, 83.111
1396.431, 12.503
1397.619, 33.960
1398.807, 48.409
1399.995, 38.851
1401.182, 86.124
1402.370, 54.436
1403.557, 22.862
1404.744, 66.127
1405.931, 6.455
1407.118, 65.885
1408.304, 19.897
1409.490, 2.783
1410.676, 83.290
1411.862, 60.636
1413.048, 40.282
1414.234, 96.923
1415.419, 29.100
1416.604, 45.996
1417.789, 47.869
1418.974, 29.832
1420.159, 53.402
1421.343, 39.898
1422.528, 38.669
1423.712, 28.685
1424.896, 32.005
1426.079, 35.149
1427.263, 43.366
1428.446, 40.503
1429.629, 51.865
1430.812, 32.312
1431.995, 48.418
1433.178, 60.534
1434.360, 9.739
1435.543, 36.314
1436.725, 28.494
1437.907, 59.234
1439.088, 16.485
1440.270, 5.435
1441.451, 12.277
1442.632, 67.906
1443.813, 28.887
1444.994, 33.675
1446.175, 71.476
1447.355, 10.119
1448.535, 12.597
1449.715, 9.694
1450.895, 8.144
1452.075, 19.582
1453.255, 36.918
1454.434, 13.297
1455.613, 91.521
1456.792, 39.201
1457.971, 26.908
1459.149, 49.219
1460.328, 13.774
1461.506, 45.345
1462.684, 45.724
1463.862, 8.576
1465.040, 29.814
1466.217, 35.047
1467.395, 12.562
1468.572, 7.756
1469.749, 32.220
1470.925, 4.703
1472.102, 33.214
1473.278, 53.670
1474.455, 4.161
1475.631, 40.630
1476.807, 3.909
1477.982, 22.303
1479.158, 32.821
1480.333, 37.239
1481.508, 39.096
1482.683, 49.799
1483.858, 19.274
1485.033, 22.433
1486.207, 2.466
1487.381, 28.002
1488.555, 53.427
1489.729, 53.320
1490.903, 73.368
1492.076, 79.843
1493.250, 88.309
1494.423, 100.962
1495.596, 70.593
1496.769, 77.942
1497.941, 50.291
1499.114, 30.641
1500.286, 31.010
1501.458, 26.375
1502.630, 17.778
1503.802, 35.260
1504.973, 12.559
1506.145, 27.435
1507.316, 40.038
1508.487, 28.550
1509.657, 26.078
1510.828, 20.759
1511.999, 48.502
1513.169, 1.515
1514.339, 68.698
1515.509, 77.204
1516.678, 32.114
1517.848, 41.190
1519.017, 38.980
1520.187, 0.000
##END=



