##NAMES=Hubnerite
##RRUFFID=R050069
##IDEAL CHEMISTRY=Mn^2+^W^6+^O_4_
##LOCALITY=Yaogangxian, Yizhang County, Hunan Province, China
##OWNER=RRUFF
##SOURCE=Rock Currier
##DESCRIPTION=Black colored prismatic single crystal
##STATUS=The identification of this mineral has been confirmed by X-ray diffraction and chemical analysis
##URL=rruff.info/R050069
##MEASURED CHEMISTRY=(Mn_0.68_Fe_0.32_)W_1.00_O_4_
##PIN_ID=L00498
##ORIENTATION=Laser parallel to c* (0 0 1). Fiducial mark perpendicular to laser is parallel to a [1 0 0]
149.938, 0.000
151.324, 46.111
152.710, 10.572
154.096, 43.425
155.481, 1.175
156.866, 89.435
158.251, 216.774
159.636, 315.935
161.020, 505.925
162.405, 732.196
163.789, 971.524
165.172, 1492.328
166.556, 2231.640
167.939, 2342.095
169.322, 1442.784
170.705, 756.329
172.088, 369.827
173.470, 172.703
174.853, 129.147
176.234, 101.322
177.616, 37.432
178.998, 47.580
180.379, 35.988
181.760, 9.415
183.141, 5.555
184.521, 9.648
185.902, 57.740
187.282, 55.835
188.662, 17.387
190.042, 57.963
191.421, 97.375
192.800, 125.450
194.179, 88.055
195.558, 174.255
196.937, 201.023
198.315, 241.913
199.693, 386.076
201.071, 436.434
202.449, 580.726
203.826, 821.599
205.203, 1082.934
206.580, 1279.969
207.957, 1241.830
209.333, 1038.324
210.710, 801.034
212.086, 602.868
213.462, 469.247
214.837, 318.700
216.213, 257.250
217.588, 195.363
218.963, 199.666
220.337, 109.342
221.712, 101.638
223.086, 77.082
224.460, 69.046
225.834, 60.756
227.207, 65.119
228.581, 58.915
229.954, 40.852
231.327, 59.985
232.699, 37.502
234.072, 5.358
235.444, 14.573
236.816, 26.879
238.188, 22.276
239.559, 27.768
240.931, 5.322
242.302, 14.083
243.673, 18.544
245.043, 9.200
246.414, 26.129
247.784, 13.461
249.154, 18.821
250.523, 25.796
251.893, 18.389
253.262, 45.482
254.631, 45.491
256.000, 83.997
257.369, 119.467
258.737, 126.899
260.105, 158.292
261.473, 104.644
262.841, 100.954
264.208, 15.303
265.576, 50.699
266.943, 58.890
268.310, 51.004
269.676, 62.053
271.042, 64.144
272.409, 74.949
273.775, 75.794
275.140, 74.558
276.506, 83.360
277.871, 41.860
279.236, 57.381
280.601, 46.816
281.965, 3.858
283.330, 13.549
284.694, 26.005
286.058, 17.380
287.421, 6.315
288.785, 38.341
290.148, 68.132
291.511, 81.068
292.874, 175.109
294.236, 160.134
295.599, 167.179
296.961, 153.375
298.323, 113.011
299.684, 111.132
301.046, 48.703
302.407, 104.390
303.768, 60.723
305.129, 63.205
306.489, 91.450
307.850, 116.007
309.210, 108.552
310.570, 116.912
311.929, 190.230
313.289, 186.902
314.648, 239.167
316.007, 306.355
317.366, 361.880
318.724, 460.980
320.083, 555.267
321.441, 715.152
322.799, 896.702
324.156, 1028.020
325.514, 1098.607
326.871, 1208.674
328.228, 1124.079
329.585, 1092.477
330.941, 926.321
332.298, 784.358
333.654, 708.328
335.010, 577.916
336.365, 518.631
337.721, 448.993
339.076, 417.990
340.431, 385.098
341.786, 349.812
343.140, 370.473
344.495, 362.867
345.849, 372.182
347.203, 404.010
348.556, 443.767
349.910, 512.879
351.263, 560.711
352.616, 734.126
353.969, 782.850
355.321, 889.445
356.674, 920.948
358.026, 909.217
359.378, 876.737
360.729, 755.074
362.081, 705.920
363.432, 652.363
364.783, 522.367
366.134, 475.309
367.484, 385.204
368.835, 342.056
370.185, 306.864
371.535, 277.611
372.884, 251.053
374.234, 231.957
375.583, 223.562
376.932, 213.124
378.281, 209.981
379.630, 208.282
380.978, 219.237
382.326, 225.298
383.674, 248.936
385.022, 290.485
386.369, 292.808
387.717, 384.040
389.064, 410.166
390.411, 535.307
391.757, 618.358
393.104, 849.159
394.450, 1307.182
395.796, 1729.899
397.141, 2498.801
398.487, 2817.019
399.832, 2599.507
401.177, 2103.885
402.522, 1500.357
403.867, 1067.190
405.211, 751.840
406.555, 566.061
407.899, 461.994
409.243, 365.837
410.587, 327.458
411.930, 254.726
413.273, 203.008
414.616, 170.112
415.959, 145.656
417.301, 144.179
418.644, 140.052
419.986, 118.118
421.327, 128.192
422.669, 101.394
424.010, 66.411
425.351, 81.310
426.692, 77.175
428.033, 97.643
429.374, 65.060
430.714, 66.177
432.054, 38.857
433.394, 68.835
434.733, 37.388
436.073, 59.590
437.412, 75.917
438.751, 26.210
440.090, 55.365
441.428, 3.320
442.767, 84.460
444.105, 44.281
445.443, 15.485
446.780, 34.924
448.118, 1.862
449.455, 19.393
450.792, 36.370
452.129, 21.257
453.465, 38.646
454.802, 57.730
456.138, 43.479
457.474, 24.164
458.809, 39.609
460.145, 53.017
461.480, 6.605
462.815, 1.298
464.150, 15.594
465.485, 26.582
466.819, 28.456
468.153, 19.642
469.487, 17.896
470.821, 27.098
472.155, 6.317
473.488, 20.823
474.821, 1.293
476.154, 31.130
477.487, 12.489
478.819, 38.964
480.151, 10.404
481.483, 30.805
482.815, 0.170
484.147, 1.493
485.478, 16.775
486.809, 14.978
488.140, 6.779
489.471, 8.376
490.802, 40.497
492.132, 8.587
493.462, 6.643
494.792, 14.665
496.122, 6.658
497.451, 15.536
498.780, 2.452
500.109, 24.443
501.438, 26.311
502.767, 22.152
504.095, 45.967
505.423, 43.758
506.751, 55.529
508.079, 55.279
509.406, 33.007
510.734, 66.711
512.061, 59.395
513.388, 33.058
514.714, 73.700
516.041, 85.322
517.367, 72.924
518.693, 66.508
520.019, 88.071
521.344, 136.616
522.670, 124.143
523.995, 156.652
525.320, 209.144
526.644, 215.619
527.969, 269.078
529.293, 267.520
530.617, 331.945
531.941, 399.355
533.265, 476.750
534.588, 544.128
535.911, 622.483
537.234, 808.783
538.557, 881.057
539.880, 1060.314
541.202, 1168.606
542.524, 1245.899
543.846, 1389.182
545.168, 1351.453
546.489, 1413.716
547.811, 1279.969
549.132, 1158.214
550.453, 1066.450
551.773, 873.678
553.094, 817.898
554.414, 651.111
555.734, 554.318
557.054, 498.521
558.374, 400.719
559.693, 378.913
561.012, 320.101
562.331, 265.283
563.650, 247.464
564.968, 195.646
566.287, 179.825
567.605, 113.000
568.923, 112.182
570.240, 113.366
571.558, 101.555
572.875, 117.739
574.192, 66.872
575.509, 78.903
576.825, 47.928
578.142, 61.933
579.458, 57.843
580.774, 17.792
582.090, 1.626
583.405, 32.309
584.721, 16.052
586.036, 6.784
587.351, 18.399
588.665, 14.730
589.980, 24.064
591.294, 10.570
592.608, 12.086
593.922, 33.435
595.236, 17.839
596.549, 35.184
597.862, 3.118
599.175, 24.667
600.488, 34.046
601.801, 9.609
603.113, 1.095
604.425, 0.748
605.737, 6.722
607.049, 28.482
608.361, 39.849
609.672, 36.637
610.983, 1.296
612.294, 10.782
613.605, 27.188
614.915, 28.333
616.225, 23.295
617.536, 9.200
618.845, 9.752
620.155, 27.105
621.464, 6.499
622.774, 8.704
624.083, 25.896
625.391, 6.512
626.700, 15.818
628.008, 8.098
629.317, 26.792
630.625, 34.428
631.932, 32.794
633.240, 7.472
634.547, 5.872
635.854, 98.326
637.161, 43.389
638.468, 66.991
639.774, 32.474
641.081, 56.161
642.387, 87.945
643.693, 44.333
644.998, 112.118
646.304, 110.436
647.609, 153.623
648.914, 136.179
650.219, 151.409
651.523, 141.580
652.828, 185.023
654.132, 178.232
655.436, 214.703
656.740, 251.172
658.043, 320.979
659.346, 348.528
660.650, 396.066
661.952, 473.713
663.255, 574.357
664.558, 694.060
665.860, 784.769
667.162, 1015.394
668.464, 1085.168
669.766, 1384.921
671.067, 1510.573
672.368, 1680.403
673.669, 1894.291
674.970, 1844.137
676.271, 1895.966
677.571, 1767.894
678.871, 1524.831
680.171, 1414.771
681.471, 1229.716
682.771, 1132.670
684.070, 1025.628
685.369, 937.590
686.668, 975.557
687.967, 884.531
689.266, 942.510
690.564, 1067.495
691.862, 1140.486
693.160, 1267.491
694.458, 1343.505
695.755, 1572.526
697.053, 1686.560
698.350, 1676.603
699.646, 1806.655
700.943, 1598.716
702.240, 1470.787
703.536, 1280.866
704.832, 1034.957
706.128, 949.057
707.423, 656.167
708.719, 588.288
710.014, 497.416
711.309, 386.553
712.604, 340.698
713.898, 254.852
715.193, 272.012
716.487, 202.180
717.781, 136.359
719.075, 147.546
720.368, 101.744
721.662, 129.950
722.955, 103.163
724.248, 71.387
725.541, 78.618
726.833, 1.856
728.125, 57.102
729.418, 34.361
730.709, 23.627
732.001, 73.902
733.293, 30.184
734.584, 48.475
735.875, 54.775
737.166, 42.066
738.457, 51.304
739.747, 44.631
741.037, 78.961
742.327, 98.267
743.617, 70.704
744.907, 149.347
746.196, 131.527
747.486, 165.418
748.775, 172.816
750.063, 164.564
751.352, 258.168
752.640, 268.873
753.929, 316.314
755.217, 391.767
756.504, 393.636
757.792, 542.118
759.079, 581.610
760.367, 739.086
761.654, 929.604
762.940, 1036.925
764.227, 1335.471
765.513, 1534.405
766.799, 1828.938
768.085, 2301.195
769.371, 2568.714
770.657, 3070.319
771.942, 3223.088
773.227, 3449.717
774.512, 3620.359
775.797, 3293.036
777.081, 3210.712
778.365, 2939.402
779.650, 2568.223
780.933, 2421.938
782.217, 1941.665
783.501, 1804.406
784.784, 1584.160
786.067, 1381.928
787.350, 1299.710
788.633, 1095.507
789.915, 993.227
791.197, 898.063
792.479, 737.913
793.761, 810.776
795.043, 662.651
796.324, 614.543
797.606, 526.452
798.887, 445.373
800.167, 447.315
801.448, 344.275
802.728, 317.249
804.009, 275.235
805.289, 192.235
806.568, 217.250
807.848, 138.278
809.128, 116.320
810.407, 157.375
811.686, 89.447
812.965, 119.531
814.243, 97.628
815.522, 116.738
816.800, 95.860
818.078, 90.101
819.355, 92.143
820.633, 84.303
821.910, 80.476
823.188, 108.661
824.465, 65.858
825.741, 116.068
827.018, 90.289
828.294, 133.522
829.570, 120.770
830.846, 112.029
832.122, 166.301
833.398, 162.583
834.673, 137.878
835.948, 207.256
837.223, 187.575
838.498, 259.910
839.772, 292.256
841.047, 321.102
842.321, 342.478
843.595, 352.276
844.868, 475.675
846.142, 469.168
847.415, 484.281
848.688, 637.151
849.961, 639.877
851.234, 748.293
852.507, 875.462
853.779, 908.582
855.051, 1167.854
856.323, 1206.786
857.595, 1440.758
858.866, 1555.794
860.137, 1643.225
861.409, 2024.641
862.679, 2189.204
863.950, 2433.599
865.221, 2817.281
866.491, 2977.199
867.761, 3544.807
869.031, 4003.564
870.301, 4376.992
871.570, 5468.915
872.839, 5933.417
874.109, 7285.164
875.377, 8796.838
876.646, 10418.340
877.915, 13619.031
879.183, 16759.732
880.451, 21460.447
881.719, 28202.400
882.987, 34303.137
884.254, 41223.879
885.521, 42814.629
886.788, 39625.391
888.055, 35676.160
889.322, 26456.943
890.588, 20967.734
891.855, 16188.533
893.121, 11969.343
894.387, 9950.161
895.652, 7415.988
896.918, 6055.830
898.183, 5056.682
899.448, 4004.550
900.713, 3550.428
901.978, 2855.315
903.242, 2478.221
904.506, 2257.139
905.771, 1784.104
907.034, 1677.047
908.298, 1476.998
909.562, 1235.135
910.825, 1139.110
912.088, 942.093
913.351, 908.085
914.613, 808.085
915.876, 725.188
917.138, 751.211
918.400, 582.249
919.662, 580.295
920.924, 533.352
922.185, 437.420
923.447, 477.496
924.708, 409.583
925.969, 398.678
927.229, 424.780
928.490, 344.894
929.750, 339.015
931.010, 277.143
932.270, 268.282
933.530, 306.430
934.789, 220.584
936.048, 244.744
937.308, 241.911
938.566, 180.084
939.825, 229.264
941.084, 144.450
942.342, 172.697
943.600, 164.895
944.858, 147.100
946.116, 139.311
947.373, 115.529
948.630, 117.426
949.888, 152.042
951.144, 117.276
952.401, 125.515
953.658, 123.760
954.914, 110.086
956.170, 111.265
957.426, 101.524
958.682, 83.789
959.937, 85.059
961.193, 84.333
962.448, 134.645
963.703, 70.963
964.957, 16.251
966.212, 87.543
967.466, 68.840
968.720, 67.312
969.974, 29.662
971.228, 16.971
972.482, 62.509
973.735, 60.826
974.988, 50.149
976.241, 53.474
977.494, 15.925
978.746, 23.257
979.999, 58.263
981.251, 54.707
982.503, 25.091
983.755, 8.435
985.006, 24.959
986.258, 25.684
987.509, 6.223
988.760, 4.391
990.011, 24.008
991.261, 12.172
992.512, 16.412
993.762, 10.230
995.012, 3.325
996.262, 42.196
997.511, 15.522
998.761, 10.023
1000.010, 26.695
1001.259, 20.269
1002.508, 14.949
1003.756, 13.568
1005.005, 16.194
1006.253, 8.955
1007.501, 28.660
1008.749, 9.741
1009.996, 17.223
1011.244, 16.534
1012.491, 4.554
1013.738, 15.027
1014.985, 0.196
1016.232, 4.540
1017.478, 3.746
1018.724, 0.387
1019.970, 13.481
1021.216, 3.220
1022.462, 13.589
1023.707, 1.659
1024.953, 14.228
1026.198, 12.498
1027.443, 24.739
1028.687, 9.002
1029.932, 29.281
1031.176, 19.482
1032.420, 10.068
1033.664, 8.509
1034.908, 22.790
1036.152, 19.737
1037.395, 33.020
1038.638, 12.347
1039.881, 17.625
1041.124, 25.892
1042.366, 11.119
1043.609, 38.344
1044.851, 34.657
1046.093, 17.990
1047.335, 21.230
1048.576, 14.588
1049.818, 72.823
1051.059, 59.158
1052.300, 28.943
1053.541, 110.333
1054.781, 8.601
1056.022, 38.848
1057.262, 48.085
1058.502, 4.327
1059.742, 58.616
1060.981, 17.866
1062.221, 17.250
1063.460, 80.518
1064.699, 7.887
1065.938, 71.345
1067.177, 79.560
1068.415, 55.079
1069.653, 66.355
1070.891, 77.542
1072.129, 67.726
1073.367, 74.301
1074.604, 71.179
1075.842, 68.572
1077.079, 60.742
1078.316, 51.960
1079.553, 58.965
1080.789, 51.311
1082.025, 65.905
1083.262, 77.056
1084.498, 65.202
1085.733, 57.344
1086.969, 39.531
1088.204, 57.669
1089.439, 47.279
1090.674, 14.931
1091.909, 51.055
1093.144, 45.234
1094.378, 52.648
1095.612, 65.780
1096.846, 15.885
1098.080, 48.010
1099.314, 55.172
1100.547, 37.262
1101.781, 63.368
1103.014, 64.448
1104.247, 27.523
1105.479, 53.647
1106.712, 25.712
1107.944, 61.772
1109.176, 48.827
1110.408, 20.877
1111.640, 21.005
1112.871, 30.044
1114.102, 33.100
1115.334, 31.758
1116.565, 16.198
1117.795, 22.244
1119.026, 31.253
1120.256, 15.271
1121.486, 50.356
1122.716, 27.346
1123.946, 43.329
1125.176, 20.335
1126.405, 35.305
1127.634, 5.285
1128.863, 22.238
1130.092, 26.183
1131.321, 69.122
1132.549, 20.063
1133.778, 30.987
1135.006, 7.861
1136.233, 2.771
1137.461, 16.667
1138.689, 7.446
1139.916, 17.941
1141.143, 32.824
1142.370, 19.267
1143.597, 23.111
1144.823, 13.010
1146.050, 19.148
1147.276, 33.532
1148.502, 21.063
1149.727, 30.366
1150.953, 22.006
1152.178, 35.181
1153.404, 28.182
1154.629, 31.898
1155.853, 14.793
1157.078, 11.481
1158.302, 15.508
1159.527, 7.331
1160.751, 14.526
1161.975, 5.409
1163.198, 30.319
1164.422, 25.048
1165.645, 30.999
1166.868, 10.158
1168.091, 31.239
1169.314, 12.378
1170.536, 31.418
1171.759, 5.970
1172.981, 25.712
1174.203, 35.590
1175.424, 26.203
1176.646, 22.981
1177.867, 54.654
1179.089, 5.011
1180.310, 9.666
1181.530, 20.313
1182.751, 2.942
1183.971, 20.866
1185.192, 19.084
1186.412, 24.623
1187.632, 27.155
1188.851, 37.680
1190.071, 60.198
1191.290, 20.809
1192.509, 19.312
1193.728, 33.838
1194.947, 17.451
1196.165, 34.939
1197.384, 19.437
1198.602, 1.248
1199.820, 16.804
1201.037, 31.741
1202.255, 36.147
1203.472, 38.187
1204.690, 37.105
1205.907, 26.348
1207.124, 33.800
1208.340, 18.238
1209.557, 28.647
1210.773, 19.219
1211.989, 13.586
1213.205, 40.047
1214.421, 10.487
1215.636, 26.913
1216.851, 59.396
1218.067, 54.771
1219.281, 66.127
1220.496, 26.498
1221.711, 16.805
1222.925, 70.102
1224.139, 34.420
1225.353, 55.703
1226.567, 39.978
1227.781, 6.245
1228.994, 88.507
1230.207, 54.756
1231.421, 48.998
1232.633, 36.233
1233.846, 68.439
1235.059, 59.659
1236.271, 58.870
1237.483, 88.042
1238.695, 35.239
1239.907, 13.428
1241.118, 44.610
1242.330, 63.785
1243.541, 43.892
1244.752, 34.054
1245.963, 76.298
1247.173, 45.504
1248.384, 86.659
1249.594, 55.794
1250.804, 37.923
1252.014, 88.046
1253.223, 67.204
1254.433, 95.497
1255.642, 80.600
1256.851, 31.792
1258.060, 96.847
1259.269, 45.930
1260.478, 40.006
1261.686, 56.076
1262.894, 43.969
1264.102, 57.077
1265.310, 48.127
1266.518, 31.047
1267.725, 69.084
1268.932, 59.111
1270.139, 45.137
1271.346, 58.027
1272.553, 48.038
1273.759, 54.437
1274.966, 54.741
1276.172, 52.995
1277.378, 49.287
1278.583, 60.075
1279.789, 45.708
1280.994, 61.100
1282.200, 88.228
1283.405, 61.919
1284.609, 82.281
1285.814, 43.055
1287.018, 62.962
1288.223, 91.666
1289.427, 21.441
1290.631, 68.999
1291.834, 60.807
1293.038, 459.685
1294.241, 244.336
1295.444, 320.322
1296.647, 42.118
1297.850, 59.993
1299.053, 5.841
1300.255, 49.711
1301.457, 38.952
1302.659, 16.565
1303.861, 8.386
1305.063, 19.131
1306.264, 15.820
1307.466, 19.695
1308.667, 3.515
1309.868, 8.318
1311.068, 2.791
1312.269, 11.765
1313.469, 42.595
1314.669, 58.010
1315.869, 43.799
1317.069, 19.259
1318.269, 25.007
1319.468, 47.780
1320.668, 13.526
1321.867, 25.243
1323.066, 55.056
1324.264, 25.482
1325.463, 25.010
1326.661, 12.710
1327.859, 6.717
1329.057, 20.620
1330.255, 54.992
1331.452, 46.637
1332.650, 47.284
1333.847, 45.964
1335.044, 19.639
1336.241, 52.218
1337.438, 33.801
1338.634, 16.448
1339.830, 39.034
1341.027, 34.660
1342.222, 15.760
1343.418, 18.298
1344.614, 18.257
1345.809, 71.336
1347.004, 41.906
1348.199, 17.477
1349.394, 51.036
1350.589, 28.538
1351.783, 30.079
1352.978, 34.469
1354.172, 8.965
1355.365, 19.680
1356.559, 17.641
1357.753, 19.164
1358.946, 19.376
1360.139, 11.822
1361.332, 27.345
1362.525, 29.861
1363.718, 24.371
1364.910, 48.815
1366.102, 50.096
1367.294, 30.592
1368.486, 42.043
1369.678, 52.529
1370.869, 41.982
1372.061, 35.020
1373.252, 46.697
1374.443, 38.167
1375.634, 44.634
1376.824, 10.951
1378.015, 66.466
1379.205, 65.857
1380.395, 30.224
1381.585, 75.909
1382.775, 41.317
1383.964, 60.016
1385.153, 47.662
1386.343, 54.347
1387.531, 51.988
1388.720, 15.676
1389.909, 21.355
1391.097, 31.934
1392.285, 53.517
1393.473, 43.134
1394.661, 49.762
1395.849, 24.299
1397.037, 5.897
1398.224, 69.501
1399.411, 10.121
1400.598, 51.725
1401.785, 85.300
1402.971, 49.903
1404.158, 64.513
1405.344, 44.097
1406.530, 13.530
1407.716, 61.137
1408.901, 12.738
1410.087, 41.302
1411.272, 59.417
1412.457, 31.963
1413.642, 70.939
1414.827, 31.119
1416.012, 15.065
1417.196, 82.445
1418.380, 28.708
1419.564, 18.279
1420.748, 32.582
1421.932, 7.100
1423.115, 70.348
1424.299, 58.691
1425.482, 26.610
1426.665, 50.673
1427.847, 43.183
1429.030, 58.535
1430.212, 38.988
1431.395, 35.276
1432.577, 48.594
1433.759, 5.500
1434.940, 32.927
1436.122, 36.174
1437.303, 43.449
1438.484, 45.111
1439.665, 20.604
1440.846, 36.720
1442.026, 18.783
1443.207, 17.012
1444.387, 42.397
1445.567, 2.729
1446.747, 42.108
1447.927, 33.477
1449.106, 21.851
1450.286, 38.287
1451.465, 16.580
1452.644, 2.909
1453.822, 22.227
1455.001, 10.532
1456.179, 42.509
1457.358, 32.756
1458.536, 31.015
1459.714, 29.746
1460.891, 26.668
1462.069, 15.867
1463.246, 48.049
1464.423, 3.978
1465.600, 33.866
1466.777, 40.990
1467.954, 11.095
1469.130, 60.000
1470.306, 26.101
1471.483, 31.065
1472.658, 46.197
1473.834, 21.190
1475.010, 30.271
1476.185, 50.334
1477.360, 28.408
1478.535, 4.256
1479.710, 9.391
1480.885, 0.999
1482.059, 28.574
1483.234, 0.381
1484.408, 38.312
1485.582, 37.384
1486.755, 2.453
1487.929, 16.196
1489.102, 13.121
1490.275, 16.181
1491.449, 16.252
1492.621, 7.285
1493.794, 14.114
1494.967, 17.986
1496.139, 16.034
1497.311, 20.335
1498.483, 28.279
1499.655, 25.433
1500.826, 26.884
1501.998, 34.919
1503.169, 10.580
1504.340, 20.432
1505.511, 1.569
1506.682, 41.716
1507.852, 10.794
1509.023, 5.992
1510.193, 50.200
1511.363, 27.423
1512.532, 12.775
1513.702, 1.369
1514.872, 23.094
1516.041, 37.325
1517.210, 56.895
1518.379, 24.967
1519.548, 15.637
1520.716, 0.000
##END=



