##NAMES=Hubnerite
##RRUFFID=R050139
##IDEAL CHEMISTRY=Mn^2+^W^6+^O_4_
##LOCALITY=Pasto Bueno District, Pallasca Province, Ancash Department, Peru
##OWNER=RRUFF
##SOURCE=Dave Bunk Minerals
##DESCRIPTION=Black tabular crystals associated with quartz
##STATUS=The identification of this mineral has been confirmed by X-ray diffraction and chemical analysis
##URL=rruff.info/R050139
##MEASURED CHEMISTRY=(Mn^2+^_0.79_Fe^2+^_0.20_)W_1.00_O4
##PIN_ID=L00188
##ORIENTATION=Laser parallel to -c* (0 0 -1). Fiducial mark perpendicular to laser is parallel to -a [-1 0 0]
84.529, 0.000
85.929, 3.563
87.329, 81.515
88.728, 127.527
90.128, 320.562
91.527, 488.654
92.926, 510.105
94.324, 454.703
95.723, 420.776
97.121, 370.321
98.519, 309.692
99.917, 309.443
101.314, 271.712
102.712, 266.418
104.109, 281.554
105.505, 253.305
106.902, 321.584
108.298, 230.747
109.694, 239.860
111.090, 247.560
112.486, 369.451
113.881, 492.223
115.277, 355.302
116.672, 436.714
118.066, 436.345
119.461, 517.444
120.855, 728.310
122.249, 971.971
123.643, 1689.214
125.036, 2440.429
126.430, 3348.537
127.823, 3908.145
129.216, 4076.345
130.608, 3899.374
132.001, 3062.003
133.393, 2052.077
134.785, 1437.692
136.176, 1043.613
137.568, 847.647
138.959, 802.138
140.350, 672.824
141.741, 457.584
143.131, 417.955
144.521, 284.476
145.911, 330.809
147.301, 148.774
148.691, 96.961
150.080, 19.225
151.469, 70.937
152.858, 132.113
154.247, 96.752
155.635, 83.344
157.024, 148.285
158.411, 137.155
159.799, 334.770
161.187, 523.070
162.574, 887.248
163.961, 1085.055
165.348, 1416.005
166.734, 1375.997
168.121, 1354.785
169.507, 1120.273
170.893, 875.078
172.278, 533.911
173.664, 355.980
175.049, 289.447
176.434, 307.760
177.819, 233.187
179.203, 238.433
180.587, 185.131
181.971, 223.137
183.355, 203.890
184.739, 268.032
186.122, 289.336
187.505, 269.091
188.888, 249.590
190.271, 318.123
191.653, 355.100
193.035, 344.331
194.417, 408.002
195.799, 420.468
197.180, 483.360
198.562, 538.137
199.943, 575.805
201.324, 716.467
202.704, 773.954
204.084, 974.558
205.465, 1008.871
206.844, 999.933
208.224, 956.779
209.603, 811.414
210.983, 694.803
212.362, 585.979
213.740, 414.853
215.119, 288.312
216.497, 230.298
217.875, 152.923
219.253, 58.206
220.631, 23.314
222.008, 10.774
223.385, 34.908
224.762, 40.879
226.139, 10.118
227.515, 64.604
228.891, 15.240
230.267, 40.773
231.643, 15.155
233.018, 30.790
234.394, 69.808
235.769, 119.998
237.144, 63.205
238.518, 56.175
239.893, 41.562
241.267, 56.345
242.641, 63.522
244.014, 81.147
245.388, 73.167
246.761, 49.571
248.134, 28.372
249.507, 67.135
250.879, 109.972
252.252, 57.586
253.624, 22.683
254.996, 30.477
256.367, 141.759
257.739, 170.355
259.110, 222.848
260.481, 244.956
261.852, 261.421
263.222, 290.351
264.592, 372.637
265.962, 346.466
267.332, 382.837
268.702, 457.600
270.071, 455.873
271.440, 521.593
272.809, 490.792
274.178, 519.310
275.546, 552.162
276.915, 572.324
278.283, 575.703
279.650, 591.973
281.018, 568.880
282.385, 609.852
283.752, 611.120
285.119, 635.832
286.486, 676.025
287.852, 665.662
289.218, 693.781
290.584, 791.168
291.950, 871.256
293.316, 896.789
294.681, 879.818
296.046, 940.327
297.411, 887.206
298.775, 865.677
300.140, 883.656
301.504, 812.091
302.868, 831.035
304.231, 847.317
305.595, 920.650
306.958, 891.613
308.321, 921.949
309.684, 941.384
311.047, 995.632
312.409, 1027.258
313.771, 1029.189
315.133, 1182.586
316.495, 1140.347
317.856, 1272.189
319.217, 1356.578
320.578, 1456.057
321.939, 1594.659
323.299, 1654.085
324.660, 1760.789
326.020, 1749.131
327.380, 1762.226
328.739, 1781.918
330.099, 1713.159
331.458, 1610.556
332.817, 1539.485
334.176, 1507.095
335.534, 1420.411
336.892, 1358.625
338.251, 1286.334
339.608, 1284.853
340.966, 1277.425
342.323, 1266.859
343.681, 1330.440
345.037, 1377.706
346.394, 1384.500
347.751, 1409.059
349.107, 1405.317
350.463, 1452.468
351.819, 1459.413
353.174, 1450.004
354.530, 1508.132
355.885, 1467.624
357.240, 1476.794
358.594, 1539.218
359.949, 1430.703
361.303, 1413.597
362.657, 1338.836
364.011, 1359.241
365.365, 1267.125
366.718, 1238.151
368.071, 1224.922
369.424, 1152.742
370.777, 1171.431
372.129, 1109.848
373.481, 1116.565
374.833, 1090.704
376.185, 1029.298
377.537, 1080.541
378.888, 1009.615
380.239, 1043.894
381.590, 1032.975
382.941, 958.946
384.291, 1039.723
385.642, 1013.903
386.992, 1075.237
388.341, 1071.161
389.691, 1188.981
391.040, 1298.349
392.389, 1468.782
393.738, 1712.581
395.087, 1926.956
396.435, 2241.319
397.784, 2275.205
399.132, 2069.913
400.479, 1957.165
401.827, 1659.844
403.174, 1429.430
404.521, 1260.083
405.868, 1129.284
407.215, 935.383
408.561, 879.993
409.908, 824.099
411.254, 749.555
412.599, 722.982
413.945, 697.770
415.290, 667.191
416.636, 663.986
417.980, 662.146
419.325, 700.438
420.670, 596.037
422.014, 556.144
423.358, 576.268
424.702, 570.432
426.045, 580.719
427.389, 556.662
428.732, 526.206
430.075, 530.044
431.417, 511.495
432.760, 508.149
434.102, 500.860
435.444, 507.825
436.786, 516.391
438.127, 529.226
439.469, 524.392
440.810, 525.901
442.151, 517.381
443.492, 510.936
444.832, 511.470
446.172, 493.966
447.512, 460.644
448.852, 444.357
450.192, 443.658
451.531, 510.741
452.870, 478.475
454.209, 497.200
455.548, 482.233
456.887, 464.436
458.225, 475.447
459.563, 435.154
460.901, 421.959
462.238, 429.767
463.576, 426.602
464.913, 411.146
466.250, 390.229
467.587, 396.248
468.923, 407.998
470.259, 400.781
471.596, 408.858
472.931, 412.485
474.267, 383.123
475.603, 397.715
476.938, 360.905
478.273, 343.871
479.608, 413.341
480.942, 391.125
482.276, 350.885
483.611, 412.595
484.944, 375.261
486.278, 342.876
487.612, 389.437
488.945, 305.943
490.278, 327.389
491.611, 407.775
492.943, 360.104
494.276, 338.378
495.608, 329.603
496.940, 353.783
498.271, 305.929
499.603, 352.972
500.934, 351.012
502.265, 359.023
503.596, 301.000
504.927, 377.033
506.257, 366.053
507.587, 309.060
508.917, 315.051
510.247, 368.026
511.577, 319.984
512.906, 311.927
514.235, 355.857
515.564, 314.770
516.892, 379.667
518.221, 364.548
519.549, 352.414
520.877, 380.262
522.205, 384.093
523.533, 339.905
524.860, 379.696
526.187, 396.466
527.514, 469.214
528.841, 515.936
530.167, 494.564
531.493, 500.236
532.820, 618.678
534.145, 719.148
535.471, 742.513
536.796, 830.627
538.122, 813.968
539.447, 856.033
540.771, 908.268
542.096, 966.492
543.420, 938.458
544.744, 941.822
546.068, 957.143
547.392, 854.809
548.715, 799.511
550.039, 753.787
551.362, 665.250
552.684, 622.815
554.007, 536.653
555.329, 447.520
556.652, 421.421
557.973, 371.366
559.295, 291.369
560.617, 269.416
561.938, 244.504
563.259, 238.629
564.580, 219.796
565.901, 235.007
567.221, 185.266
568.541, 165.571
569.861, 209.849
571.181, 203.899
572.501, 142.943
573.820, 105.008
575.139, 140.046
576.458, 61.134
577.777, 95.762
579.095, 77.106
580.414, 68.363
581.732, 86.525
583.049, 65.464
584.367, 50.013
585.685, 13.041
587.002, 11.999
588.319, 3.139
589.636, 79.231
590.952, 35.414
592.268, 48.599
593.585, 1.810
594.900, 44.964
596.216, 28.075
597.532, 11.115
598.847, 19.149
600.162, 7.616
601.477, 8.530
602.792, 7.178
604.106, 10.156
605.420, 16.179
606.734, 16.313
608.048, 35.489
609.361, 30.648
610.675, 39.506
611.988, 57.482
613.301, 17.375
614.614, 3.696
615.926, 18.272
617.238, 19.167
618.550, 2.798
619.862, 0.745
621.174, 38.238
622.485, 5.211
623.797, 21.213
625.108, 21.704
626.418, 3.273
627.729, 12.188
629.039, 20.097
630.349, 0.940
631.659, 5.271
632.969, 25.399
634.279, 32.004
635.588, 2.743
636.897, 39.825
638.206, 59.235
639.515, 49.588
640.823, 88.809
642.131, 33.324
643.439, 93.721
644.747, 77.018
646.055, 71.548
647.362, 77.766
648.669, 86.111
649.976, 103.120
651.283, 163.391
652.589, 160.898
653.896, 205.407
655.202, 262.057
656.508, 266.546
657.814, 286.272
659.119, 339.030
660.424, 359.861
661.729, 476.490
663.034, 526.477
664.339, 562.458
665.643, 699.240
666.947, 716.088
668.251, 857.198
669.555, 990.146
670.859, 1062.102
672.162, 1135.284
673.465, 1176.336
674.768, 1195.596
676.071, 1249.874
677.373, 1178.176
678.676, 1205.500
679.978, 1180.841
681.280, 1116.204
682.581, 1141.591
683.883, 1054.006
685.184, 1115.441
686.485, 1049.904
687.786, 1055.391
689.087, 1130.896
690.387, 1137.424
691.687, 1190.973
692.987, 1268.541
694.287, 1270.135
695.586, 1331.750
696.886, 1299.401
698.185, 1316.923
699.484, 1357.797
700.783, 1303.541
702.081, 1230.306
703.379, 1201.094
704.677, 995.907
705.975, 900.740
707.273, 793.600
708.570, 683.490
709.868, 596.662
711.165, 505.329
712.462, 412.281
713.758, 362.262
715.055, 261.262
716.351, 268.282
717.647, 248.328
718.943, 215.393
720.238, 128.479
721.533, 156.583
722.829, 165.706
724.124, 76.857
725.418, 70.025
726.713, 116.212
728.007, 42.418
729.301, 13.643
730.595, 81.753
731.889, 67.017
733.182, 15.986
734.476, 3.186
735.769, 38.688
737.061, 39.579
738.354, 8.627
739.647, 19.220
740.939, 57.902
742.231, 85.904
743.523, 13.938
744.814, 47.836
746.106, 67.603
747.397, 79.364
748.688, 72.606
749.978, 108.689
751.269, 212.160
752.559, 166.372
753.849, 259.265
755.139, 264.895
756.429, 321.975
757.719, 488.058
759.008, 547.222
760.297, 677.321
761.586, 791.236
762.875, 947.181
764.163, 1117.396
765.451, 1322.849
766.739, 1565.966
768.027, 1743.336
769.315, 1911.416
770.602, 2156.168
771.890, 2176.285
773.177, 2347.404
774.463, 2334.257
775.750, 2162.108
777.036, 2226.562
778.323, 2073.318
779.609, 1917.537
780.894, 1808.773
782.180, 1668.688
783.465, 1516.353
784.750, 1443.756
786.035, 1244.790
787.320, 1167.908
788.605, 1037.046
789.889, 940.205
791.173, 920.384
792.457, 808.584
793.741, 734.805
795.024, 758.046
796.307, 686.308
797.591, 628.588
798.873, 583.889
800.156, 516.212
801.439, 405.554
802.721, 398.917
804.003, 387.299
805.285, 321.700
806.566, 372.121
807.848, 299.561
809.129, 273.020
810.410, 236.499
811.691, 186.998
812.971, 239.516
814.252, 230.052
815.532, 219.606
816.812, 228.179
818.092, 175.771
819.371, 183.148
820.651, 240.007
821.930, 165.652
823.209, 196.314
824.488, 191.994
825.766, 252.062
827.045, 216.260
828.323, 283.641
829.601, 255.548
830.878, 332.841
832.156, 305.486
833.433, 311.284
834.710, 345.741
835.987, 375.155
837.264, 425.159
838.540, 482.208
839.817, 480.435
841.093, 530.183
842.369, 513.326
843.644, 601.686
844.920, 641.642
846.195, 709.668
847.470, 803.623
848.745, 945.634
850.020, 915.789
851.294, 1081.145
852.568, 1107.775
853.842, 1232.296
855.116, 1471.535
856.390, 1536.084
857.663, 1803.425
858.936, 1961.540
860.209, 2214.334
861.482, 2370.181
862.755, 2778.335
864.027, 3087.509
865.299, 3447.403
866.571, 4027.115
867.843, 4377.317
869.115, 4977.674
870.386, 5745.788
871.657, 6593.027
872.928, 7525.111
874.199, 8846.377
875.470, 10527.652
876.740, 12641.414
878.010, 15102.714
879.280, 18184.025
880.550, 21405.611
881.820, 24796.939
883.089, 29198.318
884.358, 29389.877
885.627, 28831.238
886.896, 27272.168
888.164, 24213.547
889.433, 20493.639
890.701, 17444.266
891.969, 14395.683
893.236, 11946.911
894.504, 9759.443
895.771, 8050.893
897.038, 6486.357
898.305, 5454.835
899.572, 4569.474
900.838, 3819.994
902.105, 3316.864
903.371, 2821.414
904.637, 2459.981
905.902, 2055.699
907.168, 1837.294
908.433, 1604.902
909.698, 1384.522
910.963, 1243.049
912.228, 1108.890
913.492, 1016.542
914.757, 921.209
916.021, 883.886
917.285, 788.579
918.548, 696.285
919.812, 589.007
921.075, 513.746
922.338, 474.499
923.601, 464.258
924.864, 432.028
926.126, 329.810
927.388, 375.598
928.650, 291.394
929.912, 276.203
931.174, 263.020
932.435, 252.846
933.697, 210.684
934.958, 237.530
936.218, 204.382
937.479, 162.244
938.739, 200.112
940.000, 137.986
941.260, 182.865
942.520, 165.749
943.779, 169.639
945.039, 146.534
946.298, 122.662
947.557, 155.567
948.816, 102.476
950.074, 117.389
951.333, 130.754
952.591, 137.676
953.849, 141.243
955.107, 143.542
956.365, 140.476
957.622, 125.413
958.879, 124.355
960.136, 108.423
961.393, 106.423
962.650, 70.613
963.906, 96.568
965.162, 112.527
966.418, 60.487
967.674, 46.451
968.930, 63.567
970.185, 54.535
971.441, 20.525
972.696, 44.498
973.950, 41.474
975.205, 84.468
976.459, 1.263
977.714, 3.286
978.968, 6.313
980.222, 4.656
981.475, 23.377
982.729, 9.902
983.982, 17.803
985.235, 4.767
986.488, 22.790
987.740, 33.046
988.993, 7.076
990.245, 36.001
991.497, 10.879
992.749, 14.015
994.000, 0.909
995.252, 20.914
996.503, 15.803
997.754, 9.309
999.005, 20.721
1000.256, 48.199
1001.506, 33.301
1002.756, 37.784
1004.006, 16.887
1005.256, 13.291
1006.506, 2.398
1007.755, 11.815
1009.005, 73.961
1010.254, 19.262
1011.502, 37.466
1012.751, 41.510
1014.000, 28.259
1015.248, 0.962
1016.496, 33.223
1017.744, 42.491
1018.991, 18.413
1020.239, 21.581
1021.486, 34.195
1022.733, 2.011
1023.980, 45.172
1025.227, 46.879
1026.473, 30.434
1027.719, 46.236
1028.965, 39.053
1030.211, 14.718
1031.457, 53.386
1032.702, 31.097
1033.948, 18.757
1035.193, 68.412
1036.438, 32.065
1037.682, 44.791
1038.927, 62.498
1040.171, 6.257
1041.415, 79.915
1042.659, 10.117
1043.903, 35.551
1045.146, 47.269
1046.390, 56.962
1047.633, 75.621
1048.876, 27.283
1050.118, 70.901
1051.361, 6.493
1052.603, 70.095
1053.845, 97.679
1055.087, 29.336
1056.329, 98.914
1057.571, 81.487
1058.812, 63.248
1060.053, 33.841
1061.294, 62.403
1062.535, 47.991
1063.775, 57.025
1065.016, 72.554
1066.256, 73.093
1067.496, 104.641
1068.736, 108.168
1069.975, 124.731
1071.214, 125.872
1072.454, 95.143
1073.693, 120.645
1074.931, 100.239
1076.170, 102.727
1077.408, 98.208
1078.647, 98.682
1079.885, 97.438
1081.122, 110.663
1082.360, 101.471
1083.597, 97.916
1084.835, 113.354
1086.072, 127.785
1087.308, 91.208
1088.545, 91.639
1089.781, 120.062
1091.018, 82.473
1092.254, 87.085
1093.490, 90.468
1094.725, 35.844
1095.961, 87.209
1097.196, 67.566
1098.431, 71.915
1099.666, 26.256
1100.900, 77.597
1102.135, 55.917
1103.369, 150.229
1104.603, 290.684
1105.837, 300.979
1107.071, 214.331
1108.304, 46.641
1109.538, 53.003
1110.771, 40.365
1112.004, 97.632
1113.236, 88.870
1114.469, 80.099
1115.701, 165.365
1116.933, 47.658
1118.165, 113.859
1119.397, 59.067
1120.629, 67.269
1121.860, 82.529
1123.091, 60.692
1124.322, 40.846
1125.553, 79.618
1126.783, 74.267
1128.014, 80.747
1129.244, 67.736
1130.474, 84.311
1131.704, 39.630
1132.933, 0.735
1134.163, 10.157
1135.392, 67.583
1136.621, 73.466
1137.850, 84.423
1139.079, 40.450
1140.307, 86.449
1141.535, 72.369
1142.763, 48.033
1143.991, 78.011
1145.219, 70.030
1146.446, 45.011
1147.674, 41.542
1148.901, 4.416
1150.128, 14.053
1151.354, 43.815
1152.581, 4.701
1153.807, 27.119
1155.033, 80.573
1156.259, 73.637
1157.485, 86.898
1158.710, 47.158
1159.936, 28.017
1161.161, 80.664
1162.386, 48.476
1163.611, 76.793
1164.835, 68.074
1166.060, 30.567
1167.284, 25.311
1168.508, 40.311
1169.732, 38.248
1170.955, 13.858
1172.179, 50.603
1173.402, 67.326
1174.625, 68.565
1175.848, 33.113
1177.070, 81.949
1178.293, 59.347
1179.515, 48.058
1180.737, 89.660
1181.959, 85.146
1183.181, 65.133
1184.402, 43.784
1185.624, 46.591
1186.845, 40.104
1188.066, 58.247
1189.286, 23.984
1190.507, 51.139
1191.727, 40.803
1192.947, 43.445
1194.167, 51.108
1195.387, 49.841
1196.607, 59.433
1197.826, 87.085
1199.045, 90.320
1200.264, 101.513
1201.483, 44.699
1202.702, 95.135
1203.920, 80.669
1205.138, 31.137
1206.356, 55.562
1207.574, 90.425
1208.792, 56.897
1210.009, 18.480
1211.227, 55.862
1212.444, 118.235
1213.661, 61.639
1214.877, 73.097
1216.094, 55.439
1217.310, 20.771
1218.526, 105.478
1219.742, 88.787
1220.958, 43.103
1222.173, 84.428
1223.389, 71.708
1224.604, 67.984
1225.819, 54.244
1227.034, 68.552
1228.248, 22.823
1229.463, 72.134
1230.677, 101.434
1231.891, 75.643
1233.105, 81.844
1234.318, 64.037
1235.532, 64.220
1236.745, 65.420
1237.958, 31.584
1239.171, 73.810
1240.384, 72.953
1241.596, 98.958
1242.809, 91.086
1244.021, 92.302
1245.233, 88.414
1246.444, 65.072
1247.656, 87.167
1248.867, 79.277
1250.079, 36.390
1251.290, 76.517
1252.500, 52.580
1253.711, 60.636
1254.921, 45.612
1256.132, 43.601
1257.342, 63.394
1258.552, 85.417
1259.761, 120.433
1260.971, 57.460
1262.180, 48.445
1263.389, 93.301
1264.598, 64.269
1265.807, 63.209
1267.015, 47.157
1268.223, 70.097
1269.432, 98.010
1270.640, 89.641
1271.847, 81.552
1273.055, 66.463
1274.262, 59.258
1275.470, 72.757
1276.677, 46.078
1277.883, 61.658
1279.090, 69.020
1280.296, 37.190
1281.503, 113.617
1282.709, 37.414
1283.915, 16.203
1285.120, 77.773
1286.326, 76.557
1287.531, 37.331
1288.736, 59.983
1289.941, 34.755
1291.146, 61.503
1292.350, 1.094
1293.555, 40.617
1294.759, 48.302
1295.963, 7.463
1297.167, 46.168
1298.370, 31.651
1299.574, 45.045
1300.777, 5.746
1301.980, 7.440
1303.183, 35.125
1304.386, 20.227
1305.588, 21.782
1306.790, 52.882
1307.993, 18.502
1309.195, 52.151
1310.396, 20.198
1311.598, 28.235
1312.799, 26.573
1314.000, 21.219
1315.201, 4.262
1316.402, 49.063
1317.603, 9.358
1318.803, 21.771
1320.003, 34.810
1321.203, 23.233
1322.403, 25.205
1323.603, 42.343
1324.802, 57.834
1326.002, 42.364
1327.201, 7.886
1328.400, 37.398
1329.599, 57.827
1330.797, 26.263
1331.995, 26.643
1333.194, 21.722
1334.392, 42.263
1335.589, 23.699
1336.787, 30.072
1337.985, 24.406
1339.182, 16.867
1340.379, 16.260
1341.576, 21.683
1342.772, 35.107
1343.969, 22.530
1345.165, 15.054
1346.361, 26.277
1347.557, 32.676
1348.753, 46.069
1349.949, 75.260
1351.144, 19.397
1352.339, 36.966
1353.534, 17.291
1354.729, 83.213
1355.924, 51.520
1357.118, 41.861
1358.312, 26.180
1359.506, 56.511
1360.700, 64.794
1361.894, 1.727
1363.088, 97.043
1364.281, 46.357
1365.474, 41.569
1366.667, 69.876
1367.860, 48.181
1369.052, 79.485
1370.245, 35.733
1371.437, 42.035
1372.629, 28.988
1373.821, 29.291
1375.013, 75.596
1376.204, 68.375
1377.395, 51.689
1378.586, 71.993
1379.777, 42.306
1380.968, 64.540
1382.159, 30.516
1383.349, 72.676
1384.539, 24.337
1385.729, 74.990
1386.919, 24.621
1388.109, 63.259
1389.298, 66.729
1390.487, 54.244
1391.676, 39.644
1392.865, 39.225
1394.054, 33.770
1395.242, 70.266
1396.431, 57.805
1397.619, 34.278
1398.807, 72.841
1399.995, 59.393
1401.182, 52.904
1402.370, 79.319
1403.557, 35.427
1404.744, 82.816
1405.931, 35.910
1407.118, 105.283
1408.304, 80.616
1409.490, 96.349
1410.676, 70.647
1411.862, 103.487
1413.048, 69.750
1414.234, 80.232
1415.419, 36.178
1416.604, 78.177
1417.789, 92.219
1418.974, 82.135
1420.159, 48.034
1421.343, 70.361
1422.528, 49.805
1423.712, 48.734
1424.896, 45.098
1426.079, 40.132
1427.263, 41.594
1428.446, 34.877
1429.629, 40.655
1430.812, 29.558
1431.995, 23.385
1433.178, 43.891
1434.360, 30.691
1435.543, 48.574
1436.725, 23.370
1437.907, 0.428
1439.088, 3.877
1440.270, 2.514
1441.451, 30.599
1442.632, 23.456
1443.813, 25.811
1444.994, 62.795
1446.175, 49.736
1447.355, 80.717
1448.535, 83.538
1449.715, 70.202
1450.895, 50.156
1452.075, 69.093
1453.255, 25.965
1454.434, 50.733
1455.613, 1.577
1456.792, 24.083
1457.971, 6.088
1459.149, 17.577
1460.328, 37.229
1461.506, 82.853
1462.684, 65.562
1463.862, 29.238
1465.040, 41.869
1466.217, 98.483
1467.395, 53.147
1468.572, 76.500
1469.749, 74.305
1470.925, 79.077
1472.102, 50.796
1473.278, 72.535
1474.455, 35.356
1475.631, 15.230
1476.807, 57.105
1477.982, 64.978
1479.158, 13.810
1480.333, 13.718
1481.508, 52.256
1482.683, 67.499
1483.858, 47.476
1485.033, 70.471
1486.207, 86.465
1487.381, 72.468
1488.555, 39.476
1489.729, 61.492
1490.903, 60.110
1492.076, 34.228
1493.250, 103.257
1494.423, 59.310
1495.596, 109.394
1496.769, 28.510
1497.941, 82.666
1499.114, 43.859
1500.286, 27.083
1501.458, 33.337
1502.630, 30.626
1503.802, 40.994
1504.973, 49.989
1506.145, 48.102
1507.316, 68.429
1508.487, 53.090
1509.657, 46.876
1510.828, 57.768
1511.999, 83.781
1513.169, 13.936
1514.339, 41.263
1515.509, 63.792
1516.678, 3.428
1517.848, 47.645
1519.017, 54.932
1520.187, 30.797
1521.356, 53.812
1522.524, 39.077
1523.693, 0.000
##END=



