##NAMES=Hubnerite
##RRUFFID=R050069
##IDEAL CHEMISTRY=Mn^2+^W^6+^O_4_
##LOCALITY=Yaogangxian, Yizhang County, Hunan Province, China
##OWNER=RRUFF
##SOURCE=Rock Currier
##DESCRIPTION=Black colored prismatic single crystal
##STATUS=The identification of this mineral has been confirmed by X-ray diffraction and chemical analysis
##URL=rruff.info/R050069
##MEASURED CHEMISTRY=(Mn_0.68_Fe_0.32_)W_1.00_O_4_
##PIN_ID=L00498
##ORIENTATION=Laser parallel to c* (0 0 1). Fiducial mark perpendicular to laser is parallel to a [1 0 0]
151.324, 0.000
152.710, 32.003
154.096, 11.743
155.481, 53.455
156.866, 0.364
158.251, 12.864
159.636, 11.252
161.020, 21.922
162.405, 38.812
163.789, 80.085
165.172, 70.808
166.556, 77.718
167.939, 117.541
169.322, 75.820
170.705, 60.342
172.088, 69.547
173.470, 30.196
174.853, 31.164
176.234, 7.850
177.616, 43.187
178.998, 60.722
180.379, 44.720
181.760, 18.379
183.141, 4.026
184.521, 12.741
185.902, 52.309
187.282, 74.349
188.662, 71.102
190.042, 77.171
191.421, 100.266
192.800, 129.140
194.179, 161.783
195.558, 227.418
196.937, 298.669
198.315, 375.313
199.693, 536.951
201.071, 756.694
202.449, 1031.477
203.826, 1531.969
205.203, 2084.861
206.580, 2555.400
207.957, 2461.014
209.333, 2133.556
210.710, 1525.091
212.086, 1074.457
213.462, 794.714
214.837, 568.732
216.213, 473.094
217.588, 316.073
218.963, 294.104
220.337, 226.362
221.712, 182.980
223.086, 174.094
224.460, 139.143
225.834, 87.631
227.207, 111.863
228.581, 103.487
229.954, 35.326
231.327, 81.173
232.699, 68.020
234.072, 73.885
235.444, 68.865
236.816, 8.928
238.188, 35.051
239.559, 22.224
240.931, 5.559
242.302, 38.690
243.673, 22.964
245.043, 39.254
246.414, 31.548
247.784, 16.838
249.154, 7.125
250.523, 3.396
251.893, 1.657
253.262, 11.908
254.631, 0.148
256.000, 55.376
257.369, 69.001
258.737, 81.530
260.105, 75.545
261.473, 76.438
262.841, 80.354
264.208, 57.632
265.576, 51.700
266.943, 36.245
268.310, 26.721
269.676, 20.686
271.042, 18.615
272.409, 23.505
273.775, 12.649
275.140, 0.845
276.506, 10.087
277.871, 12.623
279.236, 10.728
280.601, 17.126
281.965, 11.568
283.330, 16.936
284.694, 12.614
286.058, 9.857
287.421, 25.512
288.785, 14.799
290.148, 42.221
291.511, 95.089
292.874, 41.293
294.236, 51.110
295.599, 59.841
296.961, 91.543
298.323, 75.228
299.684, 115.058
301.046, 80.034
302.407, 129.619
303.768, 109.095
305.129, 159.638
306.489, 217.178
307.850, 195.707
309.210, 247.907
310.570, 280.427
311.929, 318.127
313.289, 446.442
314.648, 448.788
316.007, 601.547
317.366, 776.150
318.724, 970.775
320.083, 1234.156
321.441, 1500.274
322.799, 1959.313
324.156, 2226.204
325.514, 2584.010
326.871, 2570.774
328.228, 2512.405
329.585, 2310.901
330.941, 1941.205
332.298, 1675.510
333.654, 1352.638
335.010, 1114.586
336.365, 960.588
337.721, 696.260
339.076, 669.978
340.431, 483.726
341.786, 442.109
343.140, 386.491
344.495, 301.737
345.849, 260.719
347.203, 254.424
348.556, 242.178
349.910, 200.174
351.263, 183.189
352.616, 204.112
353.969, 197.987
355.321, 215.871
356.674, 198.794
358.026, 215.643
359.378, 181.423
360.729, 144.123
362.081, 149.760
363.432, 131.409
364.783, 124.018
366.134, 134.279
367.484, 133.659
368.835, 146.001
370.185, 146.637
371.535, 163.576
372.884, 157.805
374.234, 148.989
375.583, 169.129
376.932, 172.204
378.281, 183.224
379.630, 204.174
380.978, 224.074
382.326, 237.922
383.674, 262.722
385.022, 323.410
386.369, 341.035
387.717, 401.495
389.064, 508.715
390.411, 649.028
391.757, 876.291
393.104, 1170.985
394.450, 1771.110
395.796, 2479.116
397.141, 3528.164
398.487, 3965.160
399.832, 3641.317
401.177, 2924.960
402.522, 1975.402
403.867, 1448.811
405.211, 916.470
406.555, 723.896
407.899, 564.541
409.243, 431.078
410.587, 379.363
411.930, 300.399
413.273, 246.292
414.616, 233.097
415.959, 200.238
417.301, 199.942
418.644, 134.653
419.986, 127.464
421.327, 110.356
422.669, 104.192
424.010, 117.021
425.351, 80.863
426.692, 62.510
428.033, 76.094
429.374, 85.515
430.714, 51.804
432.054, 34.987
433.394, 83.124
434.733, 59.332
436.073, 70.198
437.412, 69.714
438.751, 69.643
440.090, 55.617
441.428, 53.494
442.767, 52.963
444.105, 29.775
445.443, 29.801
446.780, 5.536
448.118, 32.404
449.455, 23.549
450.792, 51.127
452.129, 29.467
453.465, 47.104
454.802, 11.379
456.138, 55.727
457.474, 48.135
458.809, 9.708
460.145, 9.800
461.480, 15.842
462.815, 47.038
464.150, 8.164
465.485, 25.471
466.819, 7.305
468.153, 0.816
469.487, 28.063
470.821, 0.888
472.155, 5.802
473.488, 21.719
474.821, 18.498
476.154, 22.722
477.487, 9.568
478.819, 11.771
480.151, 20.001
481.483, 28.870
482.815, 32.362
484.147, 34.099
485.478, 37.372
486.809, 34.081
488.140, 33.639
489.471, 46.477
490.802, 69.373
492.132, 41.826
493.462, 67.021
494.792, 78.417
496.122, 57.689
497.451, 79.030
498.780, 54.778
500.109, 58.081
501.438, 114.370
502.767, 109.641
504.095, 106.896
505.423, 121.134
506.751, 119.357
508.079, 125.566
509.406, 121.760
510.734, 139.939
512.061, 156.103
513.388, 208.252
514.714, 214.386
516.041, 184.505
517.367, 241.609
518.693, 235.699
520.019, 285.774
521.344, 307.689
522.670, 356.615
523.995, 390.452
525.320, 434.246
526.644, 491.072
527.969, 618.884
529.293, 626.736
530.617, 806.580
531.941, 876.484
533.265, 1097.353
534.588, 1295.176
535.911, 1452.072
537.234, 1763.972
538.557, 2024.871
539.880, 2370.760
541.202, 2594.637
542.524, 2837.504
543.846, 3121.361
545.168, 3077.208
546.489, 3150.046
547.811, 2894.875
549.132, 2650.696
550.453, 2376.510
551.773, 2072.315
553.094, 1883.115
554.414, 1531.907
555.734, 1286.693
557.054, 1166.472
558.374, 982.244
559.693, 885.013
561.012, 777.777
562.331, 669.536
563.650, 591.295
564.968, 514.050
566.287, 445.876
567.605, 394.948
568.923, 348.285
570.240, 320.022
571.558, 306.815
572.875, 299.548
574.192, 229.278
575.509, 235.137
576.825, 207.864
578.142, 153.527
579.458, 159.157
580.774, 126.712
582.090, 136.238
583.405, 98.814
584.721, 124.520
586.036, 101.863
587.351, 94.262
588.665, 90.699
589.980, 84.996
591.294, 90.187
592.608, 119.618
593.922, 29.958
595.236, 59.346
596.549, 515.740
597.862, 897.144
599.175, 373.648
600.488, 73.999
601.801, 84.362
603.113, 67.624
604.425, 66.890
605.737, 75.921
607.049, 39.228
608.361, 74.469
609.672, 31.870
610.983, 43.179
612.294, 47.560
613.605, 36.721
614.915, 69.139
616.225, 40.524
617.536, 61.670
618.845, 45.998
620.155, 6.798
621.464, 5.569
622.774, 16.980
624.083, 16.252
625.391, 19.358
626.700, 13.234
628.008, 21.509
629.317, 21.517
630.625, 9.008
631.932, 17.193
633.240, 21.633
634.547, 31.553
635.854, 16.252
637.161, 33.237
638.468, 1.125
639.774, 29.950
641.081, 0.214
642.387, 27.616
643.693, 0.456
644.998, 33.311
646.304, 22.195
647.609, 6.041
648.914, 4.203
650.219, 12.669
651.523, 5.556
652.828, 15.171
654.132, 28.004
655.436, 40.730
656.740, 9.406
658.043, 45.556
659.346, 18.920
660.650, 49.283
661.952, 21.642
663.255, 64.002
664.558, 57.360
665.860, 82.717
667.162, 122.072
668.464, 130.427
669.766, 152.780
671.067, 200.132
672.368, 188.484
673.669, 247.835
674.970, 256.185
676.271, 280.535
677.571, 270.884
678.871, 283.234
680.171, 289.697
681.471, 248.933
682.771, 298.285
684.070, 296.636
685.369, 295.989
686.668, 392.343
687.967, 376.697
689.266, 483.052
690.564, 517.408
691.862, 632.765
693.160, 756.123
694.458, 816.482
695.755, 999.842
697.053, 1078.204
698.350, 1077.568
699.646, 1169.932
700.943, 984.298
702.240, 945.665
703.536, 866.036
704.832, 687.409
706.128, 574.783
707.423, 462.163
708.719, 348.545
710.014, 279.934
711.309, 221.323
712.604, 190.715
713.898, 131.112
715.193, 148.512
716.487, 121.913
717.781, 80.317
719.075, 98.722
720.368, 86.132
721.662, 63.544
722.955, 51.958
724.248, 18.376
725.541, 40.796
726.833, 2.781
728.125, 46.648
729.418, 21.078
730.709, 5.488
732.001, 22.947
733.293, 28.385
734.584, 32.825
735.875, 13.269
737.166, 14.717
738.457, 19.168
739.747, 10.378
741.037, 30.078
742.327, 10.538
743.617, 16.003
744.907, 12.472
746.196, 13.945
747.486, 6.424
748.775, 0.093
750.063, 16.312
751.352, 50.804
752.640, 34.301
753.929, 7.198
755.217, 45.306
756.504, 20.815
757.792, 44.329
759.079, 34.849
760.367, 50.373
761.654, 59.904
762.940, 106.430
764.227, 121.972
765.513, 133.484
766.799, 192.035
768.085, 229.592
769.371, 228.151
770.657, 284.718
771.942, 321.290
773.227, 387.869
774.512, 368.458
775.797, 338.338
777.081, 336.818
778.365, 310.370
779.650, 256.929
780.933, 287.510
782.217, 236.078
783.501, 229.690
784.784, 212.808
786.067, 172.709
787.350, 168.341
788.633, 152.520
789.915, 156.193
791.197, 139.753
792.479, 133.069
793.761, 125.757
795.043, 125.560
796.324, 101.099
797.606, 112.085
798.887, 117.619
800.167, 128.287
801.448, 95.659
802.728, 100.957
804.009, 94.685
805.289, 92.658
806.568, 92.417
807.848, 103.289
809.128, 88.077
810.407, 118.448
811.686, 104.250
812.965, 122.060
814.243, 122.876
815.522, 122.699
816.800, 156.529
818.078, 93.365
819.355, 151.207
820.633, 141.056
821.910, 160.912
823.188, 185.774
824.465, 220.643
825.741, 221.518
827.018, 210.401
828.294, 205.290
829.570, 253.185
830.846, 247.088
832.122, 285.997
833.398, 321.913
834.673, 313.836
835.948, 385.769
837.223, 348.710
838.498, 458.663
839.772, 446.625
841.047, 444.594
842.321, 518.572
843.595, 514.557
844.868, 633.552
846.142, 736.671
847.415, 711.681
848.688, 866.708
849.961, 903.066
851.234, 1028.104
852.507, 1243.152
853.779, 1218.207
855.051, 1511.269
856.323, 1543.027
857.595, 1764.104
858.866, 2093.194
860.137, 2150.345
861.409, 2554.449
862.679, 2740.566
863.950, 3047.686
865.221, 3517.817
866.491, 3686.818
867.761, 4368.963
869.031, 4894.122
870.301, 5416.285
871.570, 6738.460
872.839, 7345.090
874.109, 9066.277
875.377, 10906.479
876.646, 12786.818
877.915, 16877.031
879.183, 20467.588
880.451, 26508.363
881.719, 35118.594
882.987, 41948.953
884.254, 51279.070
885.521, 52619.320
886.788, 48119.586
888.055, 43109.863
889.322, 31350.205
890.588, 24880.496
891.855, 18900.789
893.121, 13890.810
894.387, 11591.120
895.652, 8519.434
896.918, 7104.756
898.183, 5856.088
899.448, 4588.426
900.713, 4165.771
901.978, 3337.115
903.242, 2859.479
904.506, 2619.850
905.771, 2052.229
907.034, 1963.456
908.298, 1715.846
909.562, 1442.244
910.825, 1388.649
912.088, 1125.060
913.351, 1123.479
914.613, 1034.905
915.876, 951.337
917.138, 924.776
918.400, 756.221
919.662, 755.673
920.924, 666.130
922.185, 615.594
923.447, 625.064
924.708, 583.541
925.969, 513.024
927.229, 497.512
928.490, 491.010
929.750, 448.515
931.010, 429.027
932.270, 390.544
933.530, 392.068
934.789, 333.598
936.048, 324.134
937.308, 344.103
938.566, 239.661
939.825, 300.226
941.084, 239.803
942.342, 266.386
943.600, 270.981
944.858, 199.591
946.116, 225.208
947.373, 204.839
948.630, 169.476
949.888, 201.127
951.144, 163.784
952.401, 211.455
953.658, 134.138
954.914, 141.828
956.170, 203.124
957.426, 130.148
958.682, 143.858
959.937, 123.577
961.193, 124.300
962.448, 117.040
963.703, 82.784
964.957, 107.532
966.212, 100.286
967.466, 85.045
968.720, 96.809
969.974, 70.577
971.228, 95.350
972.482, 80.127
973.735, 62.910
974.988, 70.697
976.241, 103.488
977.494, 20.284
978.746, 66.085
979.999, 34.890
981.251, 44.700
982.503, 78.514
983.755, 34.333
985.006, 81.156
986.258, 32.592
987.509, 25.865
988.760, 32.604
990.011, 39.057
991.261, 25.957
992.512, 51.207
993.762, 6.128
995.012, 37.590
996.262, 6.543
997.511, 21.532
998.761, 0.508
1000.010, 13.124
1001.259, 51.731
1002.508, 36.175
1003.756, 13.051
1005.005, 11.993
1006.253, 20.999
1007.501, 14.880
1008.749, 12.291
1009.996, 27.825
1011.244, 46.053
1012.491, 26.437
1013.738, 5.437
1014.985, 4.936
1016.232, 23.183
1017.478, 0.697
1018.724, 5.091
1019.970, 1.972
1021.216, 8.615
1022.462, 13.186
1023.707, 20.698
1024.953, 1.067
1026.198, 5.041
1027.443, 54.978
1028.687, 10.084
1029.932, 16.152
1031.176, 51.774
1032.420, 3.896
1033.664, 29.470
1034.908, 36.621
1036.152, 24.510
1037.395, 21.662
1038.638, 2.167
1039.881, 3.698
1041.124, 33.623
1042.366, 3.520
1043.609, 28.419
1044.851, 20.393
1046.093, 15.323
1047.335, 45.855
1048.576, 51.925
1049.818, 52.829
1051.059, 57.755
1052.300, 10.066
1053.541, 32.972
1054.781, 21.879
1056.022, 34.786
1057.262, 40.707
1058.502, 19.640
1059.742, 33.761
1060.981, 22.701
1062.221, 43.019
1063.460, 55.941
1064.699, 17.883
1065.938, 64.795
1067.177, 3.706
1068.415, 53.640
1069.653, 61.550
1070.891, 36.486
1072.129, 43.396
1073.367, 50.306
1074.604, 10.226
1075.842, 35.134
1077.079, 51.042
1078.316, 44.041
1079.553, 47.948
1080.789, 13.853
1082.025, 55.843
1083.262, 15.747
1084.498, 25.650
1085.733, 6.447
1086.969, 24.526
1088.204, 23.427
1089.439, 42.508
1090.674, 23.435
1091.909, 42.661
1093.144, 67.558
1094.378, 13.480
1095.612, 64.373
1096.846, 7.270
1098.080, 25.190
1099.314, 28.111
1100.547, 10.002
1101.781, 12.886
1103.014, 31.768
1104.247, 7.352
1105.479, 2.479
1106.712, 31.388
1107.944, 18.280
1109.176, 51.142
1110.408, 28.003
1111.640, 10.862
1112.871, 7.719
1114.102, 7.642
1115.334, 10.499
1116.565, 20.348
1117.795, 18.733
1119.026, 28.096
1120.256, 17.990
1121.486, 30.861
1122.716, 23.697
1123.946, 23.607
1125.176, 12.520
1126.405, 18.404
1127.634, 27.229
1128.863, 20.120
1130.092, 22.108
1131.321, 34.954
1132.549, 17.766
1133.778, 3.425
1135.006, 0.625
1136.233, 7.832
1137.461, 3.051
1138.689, 8.757
1139.916, 0.602
1141.143, 9.114
1142.370, 2.195
1143.597, 14.572
1144.823, 5.201
1146.050, 8.940
1147.276, 0.303
1148.502, 7.908
1149.727, 1.194
1150.953, 41.510
1152.178, 11.212
1153.404, 8.945
1154.629, 31.950
1155.853, 16.317
1157.078, 24.353
1158.302, 23.032
1159.527, 2.306
1160.751, 21.496
1161.975, 2.543
1163.198, 42.191
1164.422, 19.355
1165.645, 16.976
1166.868, 45.637
1168.091, 4.743
1169.314, 2.855
1170.536, 23.016
1171.759, 0.398
1172.981, 21.180
1174.203, 8.635
1175.424, 13.213
1176.646, 13.481
1177.867, 13.478
1179.089, 0.039
1180.310, 0.522
1181.530, 4.013
1182.751, 27.573
1183.971, 4.630
1185.192, 4.212
1186.412, 55.686
1187.632, 28.192
1188.851, 36.860
1190.071, 88.236
1191.290, 14.021
1192.509, 20.543
1193.728, 1.976
1194.947, 9.506
1196.165, 35.971
1197.384, 23.473
1198.602, 14.071
1199.820, 113.391
1201.037, 52.109
1202.255, 161.475
1203.472, 26.899
1204.690, 24.396
1205.907, 8.860
1207.124, 23.298
1208.340, 2.743
1209.557, 28.136
1210.773, 23.528
1211.989, 44.383
1213.205, 50.790
1214.421, 27.163
1215.636, 36.530
1216.851, 26.891
1218.067, 48.281
1219.281, 48.633
1220.496, 31.021
1221.711, 58.362
1222.925, 50.698
1224.139, 18.029
1225.353, 36.357
1226.567, 56.676
1227.781, 19.030
1228.994, 65.338
1230.207, 50.719
1231.421, 48.188
1232.633, 20.078
1233.846, 38.542
1235.059, 13.824
1236.271, 30.099
1237.483, 7.369
1238.695, 54.653
1239.907, 30.920
1241.118, 45.172
1242.330, 36.425
1243.541, 30.668
1244.752, 29.930
1245.963, 37.162
1247.173, 44.390
1248.384, 50.614
1249.594, 51.832
1250.804, 52.445
1252.014, 42.356
1253.223, 31.559
1254.433, 77.755
1255.642, 81.969
1256.851, 61.541
1258.060, 45.741
1259.269, 23.917
1260.478, 38.112
1261.686, 53.277
1262.894, 34.433
1264.102, 30.587
1265.310, 26.766
1266.518, 31.983
1267.725, 49.118
1268.932, 46.249
1270.139, 16.375
1271.346, 26.745
1272.553, 56.857
1273.759, 24.994
1274.966, 72.118
1276.172, 14.225
1277.378, 43.313
1278.583, 58.396
1279.789, 55.867
1280.994, 57.694
1282.200, 45.732
1283.405, 30.179
1284.609, 22.319
1285.814, 2.034
1287.018, 54.939
1288.223, 33.692
1289.427, 53.716
1290.631, 41.530
1291.834, 30.457
1293.038, 39.958
1294.241, 63.986
1295.444, 49.421
1296.647, 52.453
1297.850, 27.385
1299.053, 35.285
1300.255, 25.294
1301.457, 38.748
1302.659, 19.728
1303.861, 41.719
1305.063, 11.064
1306.264, 3.038
1307.466, 15.385
1308.667, 0.338
1309.868, 24.285
1311.068, 35.716
1312.269, 29.657
1313.469, 32.835
1314.669, 27.454
1315.869, 35.384
1317.069, 31.639
1318.269, 27.113
1319.468, 28.526
1320.668, 21.386
1321.867, 18.248
1323.066, 29.110
1324.264, 31.565
1325.463, 43.981
1326.661, 22.606
1327.859, 3.510
1329.057, 15.107
1330.255, 23.702
1331.452, 44.569
1332.650, 18.433
1333.847, 54.290
1335.044, 0.138
1336.241, 20.908
1337.438, 34.719
1338.634, 25.923
1339.830, 38.587
1341.027, 18.411
1342.222, 54.388
1343.418, 21.799
1344.614, 3.610
1345.809, 15.416
1347.004, 34.219
1348.199, 11.005
1349.394, 14.775
1350.589, 19.354
1351.783, 16.109
1352.978, 43.484
1354.172, 25.250
1355.365, 4.008
1356.559, 18.761
1357.753, 75.527
1358.946, 46.477
1360.139, 65.286
1361.332, 17.759
1362.525, 62.507
1363.718, 15.252
1364.910, 31.984
1366.102, 31.724
1367.294, 47.461
1368.486, 24.104
1369.678, 25.836
1370.869, 15.567
1372.061, 32.211
1373.252, 8.986
1374.443, 1.714
1375.634, 20.441
1376.824, 15.761
1378.015, 50.958
1379.205, 45.447
1380.395, 26.040
1381.585, 18.584
1382.775, 21.420
1383.964, 28.240
1385.153, 22.382
1386.343, 27.244
1387.531, 17.725
1388.720, 28.531
1389.909, 26.358
1391.097, 24.174
1392.285, 28.902
1393.473, 34.680
1394.661, 17.371
1395.849, 36.119
1397.037, 24.712
1398.224, 17.412
1399.411, 3.912
1400.598, 17.602
1401.785, 55.343
1402.971, 16.089
1404.158, 28.705
1405.344, 52.621
1406.530, 20.334
1407.716, 13.027
1408.901, 5.763
1410.087, 42.505
1411.272, 51.190
1412.457, 27.871
1413.642, 2.475
1414.827, 21.652
1416.012, 11.735
1417.196, 13.415
1418.380, 16.139
1419.564, 20.859
1420.748, 45.581
1421.932, 31.252
1423.115, 4.903
1424.299, 30.644
1425.482, 30.563
1426.665, 0.833
1427.847, 27.829
1429.030, 28.110
1430.212, 4.225
1431.395, 23.482
1432.577, 29.137
1433.759, 29.559
1434.940, 18.208
1436.122, 21.304
1437.303, 24.321
1438.484, 10.040
1439.665, 24.901
1440.846, 7.610
1442.026, 11.260
1443.207, 36.888
1444.387, 16.591
1445.567, 13.284
1446.747, 16.911
1447.927, 28.460
1449.106, 25.778
1450.286, 28.180
1451.465, 32.796
1452.644, 27.378
1453.822, 42.007
1455.001, 35.589
1456.179, 41.214
1457.358, 32.832
1458.536, 12.391
1459.714, 24.999
1460.891, 20.660
1462.069, 40.199
1463.246, 34.717
1464.423, 23.299
1465.600, 24.609
1466.777, 45.179
1467.954, 35.742
1469.130, 45.561
1470.306, 42.018
1471.483, 42.569
1472.658, 53.912
1473.834, 40.453
1475.010, 43.783
1476.185, 24.101
1477.360, 33.602
1478.535, 38.100
1479.710, 26.592
1480.885, 11.983
1482.059, 35.268
1483.234, 4.260
1484.408, 31.153
1485.582, 18.603
1486.755, 27.123
1487.929, 8.636
1489.102, 38.140
1490.275, 27.626
1491.449, 15.130
1492.621, 55.648
1493.794, 31.166
1494.967, 62.698
1496.139, 36.248
1497.311, 29.803
1498.483, 31.373
1499.655, 17.014
1500.826, 20.667
1501.998, 16.295
1503.169, 12.737
1504.340, 9.342
1505.511, 17.007
1506.682, 10.722
1507.852, 21.401
1509.023, 39.134
1510.193, 35.893
1511.363, 80.670
1512.532, 46.553
1513.702, 0.592
1514.872, 53.732
1516.041, 29.011
1517.210, 0.498
1518.379, 45.995
1519.548, 22.331
1520.716, 0.000
##END=



