##NAMES=Hubnerite
##RRUFFID=R050139
##IDEAL CHEMISTRY=Mn^2+^W^6+^O_4_
##LOCALITY=Pasto Bueno District, Pallasca Province, Ancash Department, Peru
##OWNER=RRUFF
##SOURCE=Dave Bunk Minerals
##DESCRIPTION=Black tabular crystals associated with quartz
##STATUS=The identification of this mineral has been confirmed by X-ray diffraction and chemical analysis
##URL=rruff.info/R050139
##MEASURED CHEMISTRY=(Mn^2+^_0.79_Fe^2+^_0.20_)W_1.00_O4
##PIN_ID=L00536
##ORIENTATION=Laser parallel to -b* (0 -1 0). Fiducial mark perpendicular to laser is parallel to -c [0 0 -1]
97.121, 0.000
98.519, 207.762
99.917, 123.965
101.314, 245.333
102.712, 4.902
104.109, 10.758
105.505, 34.485
106.902, 215.587
108.298, 272.402
109.694, 406.301
111.090, 538.692
112.486, 592.537
113.881, 745.628
115.277, 627.329
116.672, 593.696
118.066, 383.700
119.461, 362.113
120.855, 572.593
122.249, 799.769
123.643, 1253.634
125.036, 1653.186
126.430, 2149.131
127.823, 2458.916
129.216, 2671.066
130.608, 2404.597
132.001, 1881.456
133.393, 1306.618
134.785, 839.145
136.176, 819.766
137.568, 588.175
138.959, 566.083
140.350, 561.562
141.741, 459.763
143.131, 328.644
144.521, 334.407
145.911, 281.977
147.301, 230.794
148.691, 193.611
150.080, 156.888
151.469, 126.719
152.858, 87.725
154.247, 93.335
155.635, 34.111
157.024, 33.116
158.411, 4.903
159.799, 79.876
161.187, 38.214
162.574, 177.630
163.961, 157.771
165.348, 194.109
166.734, 240.231
168.121, 230.958
169.507, 208.656
170.893, 298.098
172.278, 166.977
173.664, 239.202
175.049, 171.397
176.434, 216.714
177.819, 126.534
179.203, 227.598
180.587, 168.873
181.971, 105.729
183.355, 93.441
184.739, 180.376
186.122, 209.734
187.505, 165.549
188.888, 211.459
190.271, 213.812
191.653, 199.678
193.035, 227.540
194.417, 273.439
195.799, 390.132
197.180, 374.031
198.562, 448.155
199.943, 437.151
201.324, 544.970
202.704, 574.644
204.084, 666.668
205.465, 656.114
206.844, 744.765
208.224, 571.875
209.603, 447.668
210.983, 294.392
212.362, 209.211
213.740, 151.904
215.119, 92.756
216.497, 46.473
217.875, 57.667
219.253, 50.291
220.631, 24.642
222.008, 36.263
223.385, 21.590
224.762, 37.118
226.139, 5.176
227.515, 0.696
228.891, 18.937
230.267, 1.545
231.643, 40.450
233.018, 28.081
234.394, 0.285
235.769, 64.485
237.144, 2.095
238.518, 87.765
239.893, 80.252
241.267, 35.987
242.641, 45.530
244.014, 0.530
245.388, 37.873
246.761, 61.566
248.134, 52.624
249.507, 25.969
250.879, 19.794
252.252, 69.057
253.624, 110.575
254.996, 124.770
256.367, 220.644
257.739, 265.354
259.110, 371.318
260.481, 341.172
261.852, 285.400
263.222, 276.246
264.592, 324.902
265.962, 364.932
267.332, 226.543
268.702, 273.461
270.071, 257.620
271.440, 227.351
272.809, 348.940
274.178, 250.626
275.546, 228.877
276.915, 329.220
278.283, 305.725
279.650, 415.286
281.018, 396.569
282.385, 377.440
283.752, 414.402
285.119, 404.187
286.486, 529.975
287.852, 539.946
289.218, 532.087
290.584, 506.257
291.950, 597.826
293.316, 578.285
294.681, 638.152
296.046, 614.987
297.411, 671.307
298.775, 653.913
300.140, 630.127
301.504, 666.810
302.868, 614.761
304.231, 651.791
305.595, 673.764
306.958, 701.725
308.321, 727.730
309.684, 678.202
311.047, 757.900
312.409, 760.326
313.771, 737.979
315.133, 791.236
316.495, 828.678
317.856, 802.483
319.217, 792.866
320.578, 802.924
321.939, 910.033
323.299, 928.651
324.660, 975.711
326.020, 974.414
327.380, 967.612
328.739, 981.893
330.099, 967.795
331.458, 923.780
332.817, 929.018
334.176, 897.169
335.534, 897.651
336.892, 925.106
338.251, 909.012
339.608, 913.767
340.966, 962.963
342.323, 984.694
343.681, 919.792
345.037, 952.217
346.394, 923.160
347.751, 963.600
349.107, 979.547
350.463, 970.543
351.819, 960.854
353.174, 1011.750
354.530, 1015.414
355.885, 1041.880
357.240, 1029.623
358.594, 1011.527
359.949, 1003.364
361.303, 1011.947
362.657, 997.928
364.011, 1034.618
365.365, 917.416
366.718, 969.237
368.071, 941.559
369.424, 985.458
370.777, 962.675
372.129, 890.987
373.481, 905.535
374.833, 913.653
376.185, 916.176
377.537, 903.764
378.888, 931.488
380.239, 918.988
381.590, 922.812
382.941, 876.230
384.291, 922.925
385.642, 976.986
386.992, 1010.416
388.341, 1083.448
389.691, 1177.070
391.040, 1286.461
392.389, 1533.874
393.738, 1776.380
395.087, 1959.194
396.435, 2222.856
397.784, 2250.217
399.132, 2189.668
400.479, 1971.091
401.827, 1697.210
403.174, 1461.313
404.521, 1259.236
405.868, 1114.747
407.215, 981.022
408.561, 906.511
409.908, 805.750
411.254, 809.933
412.599, 773.319
413.945, 713.270
415.290, 704.654
416.636, 655.496
417.980, 625.527
419.325, 641.660
420.670, 594.011
422.014, 536.470
423.358, 546.280
424.702, 545.657
426.045, 587.860
427.389, 493.171
428.732, 534.303
430.075, 542.715
431.417, 592.247
432.760, 503.925
434.102, 509.343
435.444, 513.426
436.786, 475.725
438.127, 477.754
439.469, 462.274
440.810, 474.444
442.151, 572.869
443.492, 461.134
444.832, 513.590
446.172, 517.430
447.512, 475.886
448.852, 505.158
450.192, 484.797
451.531, 502.116
452.870, 434.462
454.209, 483.041
455.548, 425.523
456.887, 492.137
458.225, 443.507
459.563, 441.903
460.901, 484.168
462.238, 395.657
463.576, 380.710
464.913, 398.474
466.250, 455.274
467.587, 433.080
468.923, 376.950
470.259, 364.822
471.596, 336.837
472.931, 417.687
474.267, 419.809
475.603, 337.452
476.938, 372.260
478.273, 312.171
479.608, 327.922
480.942, 313.585
482.276, 401.251
483.611, 339.333
484.944, 333.470
486.278, 360.062
487.612, 303.412
488.945, 335.614
490.278, 354.844
491.611, 281.986
492.943, 293.914
494.276, 332.837
495.608, 334.607
496.940, 332.772
498.271, 327.948
499.603, 311.996
500.934, 288.791
502.265, 282.783
503.596, 263.867
504.927, 208.672
506.257, 270.608
507.587, 290.428
508.917, 235.427
510.247, 271.491
511.577, 261.514
512.906, 220.498
514.235, 244.691
515.564, 211.898
516.892, 193.215
518.221, 215.477
519.549, 188.856
520.877, 180.795
522.205, 197.958
523.533, 210.050
524.860, 269.285
526.187, 256.020
527.514, 191.962
528.841, 246.774
530.167, 224.760
531.493, 234.639
532.820, 259.211
534.145, 279.839
535.471, 223.507
536.796, 251.193
538.122, 220.843
539.447, 249.629
540.771, 218.392
542.096, 279.199
543.420, 226.841
544.744, 208.713
546.068, 231.690
547.392, 188.670
548.715, 243.648
550.039, 187.633
551.362, 135.624
552.684, 169.625
554.007, 171.631
555.329, 142.655
556.652, 142.692
557.973, 102.736
559.295, 141.802
560.617, 50.874
561.938, 157.974
563.259, 139.103
564.580, 86.249
565.901, 74.414
567.221, 6.584
568.541, 93.769
569.861, 31.977
571.181, 63.205
572.501, 93.434
573.820, 45.629
575.139, 75.812
576.458, 65.812
577.777, 8.708
579.095, 36.683
580.414, 8.529
581.732, 45.020
583.049, 41.619
584.367, 5.226
585.685, 17.021
587.002, 22.568
588.319, 33.986
589.636, 32.368
590.952, 64.605
592.268, 47.165
593.585, 23.501
594.900, 26.047
596.216, 28.687
597.532, 1.663
598.847, 4.968
600.162, 17.345
601.477, 26.845
602.792, 59.494
604.106, 30.068
605.420, 64.330
606.734, 29.911
608.048, 17.363
609.361, 13.884
610.675, 21.316
611.988, 81.985
613.301, 20.515
614.614, 15.832
615.926, 24.547
617.238, 62.885
618.550, 21.338
619.862, 35.003
621.174, 53.296
622.485, 18.562
623.797, 43.933
625.108, 43.572
626.418, 25.851
627.729, 12.509
629.039, 11.152
630.349, 48.097
631.659, 34.285
632.969, 6.355
634.279, 20.684
635.588, 24.188
636.897, 2.473
638.206, 17.878
639.515, 7.858
640.823, 18.959
642.131, 6.483
643.439, 9.988
644.747, 2.323
646.055, 42.133
647.362, 26.753
648.669, 50.484
649.976, 27.940
651.283, 98.477
652.589, 92.208
653.896, 107.978
655.202, 99.772
656.508, 86.578
657.814, 178.348
659.119, 134.053
660.424, 174.764
661.729, 108.426
663.034, 216.889
664.339, 147.642
665.643, 343.510
666.947, 272.177
668.251, 322.027
669.555, 336.865
670.859, 397.563
672.162, 427.392
673.465, 466.113
674.768, 510.786
676.071, 579.586
677.373, 601.304
678.676, 659.019
679.978, 725.835
681.280, 756.733
682.581, 837.927
683.883, 963.097
685.184, 1102.034
686.485, 1235.529
687.786, 1392.378
689.087, 1549.595
690.387, 1771.959
691.687, 1946.440
692.987, 2070.730
694.287, 2164.177
695.586, 2458.530
696.886, 2503.047
698.185, 2533.467
699.484, 2507.064
700.783, 2377.595
702.081, 2539.084
703.379, 2287.700
704.677, 1968.167
705.975, 1877.546
707.273, 1538.369
708.570, 1319.723
709.868, 1288.154
711.165, 831.199
712.462, 910.289
713.758, 761.802
715.055, 692.193
716.351, 571.778
717.647, 501.011
718.943, 474.722
720.238, 385.383
721.533, 366.853
722.829, 217.301
724.124, 281.493
725.418, 179.078
726.713, 233.433
728.007, 314.945
729.301, 366.612
730.595, 645.105
731.889, 771.757
733.182, 937.394
734.476, 650.821
735.769, 44.394
737.061, 59.564
738.354, 31.236
739.647, 9.926
740.939, 96.492
742.231, 23.137
743.523, 59.932
744.814, 9.278
746.106, 31.281
747.397, 15.701
748.688, 10.485
749.978, 31.376
751.269, 37.161
752.559, 43.866
753.849, 54.701
755.139, 78.899
756.429, 78.561
757.719, 133.465
759.008, 170.948
760.297, 200.063
761.586, 225.385
762.875, 249.283
764.163, 290.729
765.451, 324.336
766.739, 379.688
768.027, 397.073
769.315, 478.361
770.602, 503.661
771.890, 474.005
773.177, 443.457
774.463, 508.871
775.750, 449.871
777.036, 460.375
778.323, 437.869
779.609, 419.407
780.894, 387.962
782.180, 365.924
783.465, 367.094
784.750, 314.274
786.035, 321.899
787.320, 294.216
788.605, 297.875
789.889, 233.551
791.173, 195.244
792.457, 222.956
793.741, 252.686
795.024, 214.434
796.307, 219.197
797.591, 171.979
798.873, 169.483
800.156, 202.218
801.439, 121.051
802.721, 221.901
804.003, 206.767
805.285, 152.651
806.566, 181.553
807.848, 126.471
809.129, 137.406
810.410, 215.357
811.691, 117.325
812.971, 173.309
814.252, 214.310
815.532, 144.328
816.812, 227.363
818.092, 166.416
819.371, 195.487
820.651, 220.574
821.930, 254.678
823.209, 208.798
824.488, 249.935
825.766, 241.089
827.045, 287.283
828.323, 281.470
829.601, 348.528
830.878, 305.750
832.156, 392.989
833.433, 376.246
834.710, 392.541
835.987, 483.144
837.264, 513.490
838.540, 540.481
839.817, 497.818
841.093, 579.168
842.369, 618.089
843.644, 627.326
844.920, 807.765
846.195, 844.670
847.470, 892.980
848.745, 1057.428
850.020, 1079.769
851.294, 1201.456
852.568, 1272.243
853.842, 1457.092
855.116, 1709.279
856.390, 1815.124
857.663, 2052.666
858.936, 2252.828
860.209, 2492.060
861.482, 2834.226
862.755, 3164.931
864.027, 3498.539
865.299, 4102.161
866.571, 4566.950
867.843, 5153.148
869.115, 5915.121
870.386, 6897.858
871.657, 7918.548
872.928, 9129.249
874.199, 10850.361
875.470, 12801.088
876.740, 15411.826
878.010, 18412.605
879.280, 21853.371
880.550, 25514.143
881.820, 28144.936
883.089, 30065.736
884.358, 30617.342
885.627, 28548.174
886.896, 26179.137
888.164, 22359.992
889.433, 18281.135
890.701, 15172.984
891.969, 12284.283
893.236, 9825.190
894.504, 8166.109
895.771, 6648.240
897.038, 5531.187
898.305, 4550.239
899.572, 3869.287
900.838, 3264.296
902.105, 2862.308
903.371, 2525.358
904.637, 2141.426
905.902, 1849.512
907.168, 1714.609
908.433, 1513.717
909.698, 1333.835
910.963, 1202.968
912.228, 1130.123
913.492, 1008.287
914.757, 867.472
916.021, 851.672
917.285, 707.885
918.548, 662.110
919.812, 595.353
921.075, 592.604
922.338, 524.863
923.601, 538.132
924.864, 413.413
926.126, 410.701
927.388, 377.998
928.650, 387.309
929.912, 364.628
931.174, 336.955
932.435, 344.289
933.697, 313.591
934.958, 264.984
936.218, 280.344
937.479, 277.713
938.739, 276.088
940.000, 232.477
941.260, 167.871
942.520, 218.272
943.779, 154.679
945.039, 175.093
946.298, 150.512
947.557, 198.937
948.816, 149.369
950.074, 190.808
951.333, 176.253
952.591, 159.766
953.849, 123.224
955.107, 155.687
956.365, 133.155
957.622, 103.628
958.879, 176.107
960.136, 163.590
961.393, 134.175
962.650, 152.668
963.906, 64.165
965.162, 124.724
966.418, 102.229
967.674, 141.740
968.930, 58.267
970.185, 69.111
971.441, 46.633
972.696, 53.159
973.950, 89.689
975.205, 38.317
976.459, 48.854
977.714, 9.394
978.968, 49.003
980.222, 11.451
981.475, 17.344
982.729, 60.888
983.982, 38.584
985.235, 12.153
986.488, 75.291
987.740, 11.229
988.993, 6.248
990.245, 12.592
991.497, 49.192
992.749, 3.285
994.000, 46.775
995.252, 14.321
996.503, 39.191
997.754, 27.383
999.005, 38.218
1000.256, 45.326
1001.506, 7.151
1002.756, 34.191
1004.006, 3.222
1005.256, 3.361
1006.506, 4.573
1007.755, 25.977
1009.005, 1.620
1010.254, 21.222
1011.502, 19.567
1012.751, 15.050
1014.000, 31.420
1015.248, 55.469
1016.496, 29.160
1017.744, 53.808
1018.991, 6.939
1020.239, 20.555
1021.486, 74.977
1022.733, 35.369
1023.980, 4.705
1025.227, 46.031
1026.473, 32.357
1027.719, 25.683
1028.965, 42.872
1030.211, 69.332
1031.457, 39.657
1032.702, 30.674
1033.948, 1.601
1035.193, 52.336
1036.438, 20.185
1037.682, 45.067
1038.927, 12.388
1040.171, 4.296
1041.415, 8.010
1042.659, 41.336
1043.903, 47.634
1045.146, 7.983
1046.390, 39.457
1047.633, 25.080
1048.876, 71.842
1050.118, 55.608
1051.361, 19.589
1052.603, 76.508
1053.845, 55.360
1055.087, 91.120
1056.329, 121.384
1057.571, 125.919
1058.812, 40.177
1060.053, 90.430
1061.294, 64.783
1062.535, 87.079
1063.775, 68.351
1065.016, 54.627
1066.256, 90.862
1067.496, 106.173
1068.736, 97.640
1069.975, 95.866
1071.214, 89.087
1072.454, 74.443
1073.693, 123.658
1074.931, 87.868
1076.170, 177.073
1077.408, 97.454
1078.647, 181.670
1079.885, 160.008
1081.122, 136.208
1082.360, 156.390
1083.597, 106.625
1084.835, 61.846
1086.072, 90.012
1087.308, 87.172
1088.545, 135.331
1089.781, 100.480
1091.018, 100.622
1092.254, 75.759
1093.490, 52.888
1094.725, 75.011
1095.961, 103.128
1097.196, 79.493
1098.431, 67.772
1099.666, 85.868
1100.900, 42.061
1102.135, 97.143
1103.369, 78.311
1104.603, 77.393
1105.837, 68.455
1107.071, 56.452
1108.304, 72.644
1109.538, 40.686
1110.771, 75.719
1112.004, 82.744
1113.236, 45.762
1114.469, 56.772
1115.701, 91.837
1116.933, 51.832
1118.165, 28.963
1119.397, 54.940
1120.629, 97.910
1121.860, 70.871
1123.091, 43.825
1124.322, 99.822
1125.553, 76.871
1126.783, 47.776
1128.014, 132.699
1129.244, 34.761
1130.474, 111.665
1131.704, 41.562
1132.933, 53.520
1134.163, 58.287
1135.392, 87.843
1136.621, 112.667
1137.850, 39.847
1139.079, 30.689
1140.307, 51.606
1141.535, 61.875
1142.763, 7.166
1143.991, 62.688
1145.219, 4.018
1146.446, 33.014
1147.674, 88.297
1148.901, 39.263
1150.128, 25.842
1151.354, 62.559
1152.581, 41.933
1153.807, 9.218
1155.033, 80.602
1156.259, 48.295
1157.485, 53.379
1158.710, 19.426
1159.936, 19.593
1161.161, 80.309
1162.386, 2.046
1163.611, 69.932
1164.835, 57.542
1166.060, 6.652
1167.284, 14.193
1168.508, 28.195
1169.732, 31.321
1170.955, 39.700
1172.179, 42.538
1173.402, 49.429
1174.625, 55.915
1175.848, 55.717
1177.070, 50.315
1178.293, 53.440
1179.515, 0.036
1180.737, 10.698
1181.959, 1.724
1183.181, 116.278
1184.402, 29.522
1185.624, 81.049
1186.845, 78.236
1188.066, 66.772
1189.286, 42.087
1190.507, 49.516
1191.727, 32.987
1192.947, 25.206
1194.167, 13.847
1195.387, 7.302
1196.607, 7.345
1197.826, 0.270
1199.045, 1.281
1200.264, 3.628
1201.483, 7.325
1202.702, 52.900
1203.920, 18.316
1205.138, 53.679
1206.356, 64.993
1207.574, 32.453
1208.792, 40.775
1210.009, 46.020
1211.227, 44.715
1212.444, 67.941
1213.661, 37.385
1214.877, 8.381
1216.094, 86.805
1217.310, 80.982
1218.526, 31.152
1219.742, 57.308
1220.958, 58.572
1222.173, 83.758
1223.389, 26.929
1224.604, 53.046
1225.819, 30.152
1227.034, 54.401
1228.248, 64.360
1229.463, 45.437
1230.677, 47.856
1231.891, 89.062
1233.105, 81.108
1234.318, 59.292
1235.532, 143.600
1236.745, 93.616
1237.958, 107.623
1239.171, 96.621
1240.384, 75.609
1241.596, 93.589
1242.809, 23.559
1244.021, 29.558
1245.233, 63.511
1246.444, 37.548
1247.656, 64.424
1248.867, 40.446
1250.079, 59.523
1251.290, 95.589
1252.500, 42.549
1253.711, 94.447
1254.921, 66.426
1256.132, 73.227
1257.342, 88.102
1258.552, 91.969
1259.761, 74.770
1260.971, 48.751
1262.180, 87.638
1263.389, 32.455
1264.598, 80.040
1265.807, 91.855
1267.015, 75.712
1268.223, 100.507
1269.432, 51.251
1270.640, 37.028
1271.847, 118.797
1273.055, 66.132
1274.262, 70.884
1275.470, 109.465
1276.677, 107.191
1277.883, 46.754
1279.090, 4.564
1280.296, 104.123
1281.503, 62.820
1282.709, 77.506
1283.915, 73.108
1285.120, 43.504
1286.326, 84.142
1287.531, 113.912
1288.736, 38.947
1289.941, 110.582
1291.146, 28.956
1292.350, 3.444
1293.555, 38.357
1294.759, 48.938
1295.963, 17.328
1297.167, 65.945
1298.370, 20.546
1299.574, 74.674
1300.777, 91.341
1301.980, 58.912
1303.183, 52.538
1304.386, 39.831
1305.588, 25.550
1306.790, 38.693
1307.993, 18.549
1309.195, 28.074
1310.396, 50.004
1311.598, 27.892
1312.799, 4.332
1314.000, 0.819
1315.201, 15.250
1316.402, 23.727
1317.603, 12.264
1318.803, 18.726
1320.003, 54.563
1321.203, 63.006
1322.403, 0.559
1323.603, 95.863
1324.802, 20.581
1326.002, 13.580
1327.201, 42.353
1328.400, 6.261
1329.599, 24.999
1330.797, 72.349
1331.995, 44.688
1333.194, 15.024
1334.392, 59.324
1335.589, 46.642
1336.787, 37.863
1337.985, 24.043
1339.182, 26.991
1340.379, 72.787
1341.576, 77.574
1342.772, 34.165
1343.969, 52.772
1345.165, 6.434
1346.361, 13.177
1347.557, 26.397
1348.753, 36.333
1349.949, 45.534
1351.144, 18.725
1352.339, 38.778
1353.534, 58.874
1354.729, 0.982
1355.924, 74.070
1357.118, 12.814
1358.312, 47.212
1359.506, 84.098
1360.700, 61.209
1361.894, 9.719
1363.088, 108.203
1364.281, 24.251
1365.474, 40.288
1366.667, 41.316
1367.860, 65.153
1369.052, 83.142
1370.245, 18.995
1371.437, 8.029
1372.629, 57.951
1373.821, 3.865
1375.013, 18.779
1376.204, 75.737
1377.395, 18.691
1378.586, 7.635
1379.777, 73.581
1380.968, 54.538
1382.159, 68.589
1383.349, 58.442
1384.539, 54.914
1385.729, 124.938
1386.919, 40.280
1388.109, 108.622
1389.298, 27.033
1390.487, 92.357
1391.676, 26.760
1392.865, 17.154
1394.054, 17.472
1395.242, 35.689
1396.431, 60.054
1397.619, 27.410
1398.807, 44.573
1399.995, 79.906
1401.182, 89.229
1402.370, 65.460
1403.557, 18.704
1404.744, 35.986
1405.931, 95.167
1407.118, 26.439
1408.304, 93.601
1409.490, 34.066
1410.676, 87.149
1411.862, 34.052
1413.048, 52.994
1414.234, 89.224
1415.419, 4.701
1416.604, 81.184
1417.789, 24.892
1418.974, 84.045
1420.159, 53.854
1421.343, 78.361
1422.528, 52.699
1423.712, 85.760
1424.896, 76.012
1426.079, 26.327
1427.263, 105.010
1428.446, 88.036
1429.629, 10.531
1430.812, 56.442
1431.995, 87.040
1433.178, 17.802
1434.360, 73.631
1435.543, 1.008
1436.725, 38.344
1437.907, 98.119
1439.088, 47.647
1440.270, 56.828
1441.451, 17.680
1442.632, 13.537
1443.813, 62.696
1444.994, 16.367
1446.175, 81.070
1447.355, 76.934
1448.535, 64.891
1449.715, 47.052
1450.895, 49.575
1452.075, 5.461
1453.255, 52.320
1454.434, 50.092
1455.613, 8.848
1456.792, 85.511
1457.971, 46.030
1459.149, 11.182
1460.328, 65.379
1461.506, 21.205
1462.684, 40.341
1463.862, 71.895
1465.040, 79.010
1466.217, 91.306
1467.395, 106.654
1468.572, 57.981
1469.749, 113.412
1470.925, 67.138
1472.102, 107.276
1473.278, 61.683
1474.455, 57.083
1475.631, 84.300
1476.807, 92.738
1477.982, 49.809
1479.158, 11.001
1480.333, 100.491
1481.508, 100.875
1482.683, 51.250
1483.858, 9.167
1485.033, 74.375
1486.207, 92.773
1487.381, 30.212
1488.555, 29.061
1489.729, 55.444
1490.903, 20.475
1492.076, 50.534
1493.250, 76.613
1494.423, 53.677
1495.596, 59.721
1496.769, 29.738
1497.941, 42.757
1499.114, 40.789
1500.286, 0.214
1501.458, 0.252
1502.630, 47.483
1503.802, 10.401
1504.973, 44.037
1506.145, 54.842
1507.316, 44.613
1508.487, 52.096
1509.657, 55.702
1510.828, 55.245
1511.999, 38.516
1513.169, 42.141
1514.339, 40.021
1515.509, 62.458
1516.678, 8.062
1517.848, 30.809
1519.017, 12.670
1520.187, 54.197
1521.356, 5.085
1522.524, 0.195
1523.693, 0.000
##END=



