##NAMES=Hubnerite
##RRUFFID=R050139
##IDEAL CHEMISTRY=Mn^2+^W^6+^O_4_
##LOCALITY=Pasto Bueno District, Pallasca Province, Ancash Department, Peru
##OWNER=RRUFF
##SOURCE=Dave Bunk Minerals
##DESCRIPTION=Black tabular crystals associated with quartz
##STATUS=The identification of this mineral has been confirmed by X-ray diffraction and chemical analysis
##URL=rruff.info/R050139
##MEASURED CHEMISTRY=(Mn^2+^_0.79_Fe^2+^_0.20_)W_1.00_O4
##PIN_ID=L00483
##ORIENTATION=Laser parallel to -a* (-1 0 0). Fiducial mark perpendicular to laser is parallel to -b [0 -1 0]
84.529, 0.000
85.929, 2.240
87.329, 28.923
88.728, 82.656
90.128, 285.548
91.527, 339.537
92.926, 397.059
94.324, 411.854
95.723, 432.710
97.121, 391.340
98.519, 306.253
99.917, 265.033
101.314, 131.994
102.712, 50.964
104.109, 112.805
105.505, 163.585
106.902, 241.559
108.298, 435.967
109.694, 695.724
111.090, 963.820
112.486, 1062.283
113.881, 807.628
115.277, 654.444
116.672, 701.402
118.066, 608.057
119.461, 608.313
120.855, 1039.643
122.249, 1644.756
123.643, 2606.859
125.036, 4213.412
126.430, 5842.616
127.823, 6976.993
129.216, 7389.670
130.608, 6766.721
132.001, 5297.392
133.393, 3458.692
134.785, 2250.417
136.176, 1530.402
137.568, 1074.638
138.959, 924.993
140.350, 696.334
141.741, 552.030
143.131, 408.829
144.521, 313.612
145.911, 281.883
147.301, 175.611
148.691, 102.394
150.080, 43.803
151.469, 8.157
152.858, 10.411
154.247, 64.762
155.635, 22.116
157.024, 59.785
158.411, 8.572
159.799, 24.279
161.187, 63.250
162.574, 104.193
163.961, 40.346
165.348, 100.976
166.734, 80.295
168.121, 151.614
169.507, 176.471
170.893, 208.863
172.278, 170.079
173.664, 129.844
175.049, 145.335
176.434, 132.347
177.819, 134.351
179.203, 141.770
180.587, 226.063
181.971, 124.193
183.355, 161.872
184.739, 256.229
186.122, 220.932
187.505, 277.691
188.888, 319.599
190.271, 377.145
191.653, 426.900
193.035, 438.698
194.417, 519.332
195.799, 579.705
197.180, 600.701
198.562, 821.860
199.943, 919.025
201.324, 1129.440
202.704, 1407.498
204.084, 1686.188
205.465, 1761.496
206.844, 1865.420
208.224, 1604.954
209.603, 1331.094
210.983, 1106.862
212.362, 831.255
213.740, 642.268
215.119, 431.180
216.497, 369.458
217.875, 234.873
219.253, 195.107
220.631, 139.125
222.008, 98.903
223.385, 106.096
224.762, 47.116
226.139, 36.627
227.515, 2.741
228.891, 15.824
230.267, 53.454
231.643, 11.462
233.018, 31.631
234.394, 16.441
235.769, 67.767
237.144, 73.379
238.518, 41.289
239.893, 61.525
241.267, 62.114
242.641, 82.033
244.014, 85.316
245.388, 87.951
246.761, 84.943
248.134, 64.298
249.507, 80.004
250.879, 33.941
252.252, 67.646
253.624, 71.072
254.996, 85.268
256.367, 96.780
257.739, 181.288
259.110, 199.281
260.481, 250.071
261.852, 342.181
263.222, 336.627
264.592, 331.296
265.962, 396.014
267.332, 381.280
268.702, 432.296
270.071, 459.904
271.440, 507.117
272.809, 442.796
274.178, 465.340
275.546, 477.516
276.915, 531.012
278.283, 546.719
279.650, 569.683
281.018, 540.795
282.385, 642.105
283.752, 621.517
285.119, 675.012
286.486, 642.151
287.852, 630.435
289.218, 633.019
290.584, 627.719
291.950, 710.796
293.316, 706.248
294.681, 784.176
296.046, 783.608
297.411, 813.597
298.775, 786.078
300.140, 820.859
301.504, 916.379
302.868, 856.800
304.231, 928.042
305.595, 984.114
306.958, 982.990
308.321, 1085.430
309.684, 1142.615
311.047, 1158.398
312.409, 1247.832
313.771, 1361.121
315.133, 1494.560
316.495, 1671.282
317.856, 1879.334
319.217, 2113.813
320.578, 2398.887
321.939, 2675.404
323.299, 2924.882
324.660, 3055.646
326.020, 3068.022
327.380, 2992.313
328.739, 2690.365
330.099, 2553.052
331.458, 2259.647
332.817, 2020.984
334.176, 1896.235
335.534, 1718.876
336.892, 1561.719
338.251, 1428.571
339.608, 1324.603
340.966, 1256.286
342.323, 1153.895
343.681, 1101.517
345.037, 1025.213
346.394, 1062.315
347.751, 993.943
349.107, 967.669
350.463, 966.842
351.819, 934.530
353.174, 901.448
354.530, 951.734
355.885, 890.327
357.240, 924.910
358.594, 948.034
359.949, 903.301
361.303, 911.552
362.657, 897.633
364.011, 937.032
365.365, 904.229
366.718, 959.506
368.071, 900.108
369.424, 965.617
370.777, 975.036
372.129, 934.366
373.481, 960.946
374.833, 958.519
376.185, 967.870
377.537, 929.366
378.888, 926.776
380.239, 970.618
381.590, 960.282
382.941, 985.535
384.291, 1023.047
385.642, 1091.948
386.992, 1149.942
388.341, 1297.759
389.691, 1460.277
391.040, 1750.363
392.389, 2129.294
393.738, 2554.872
395.087, 2974.464
396.435, 3380.433
397.784, 3375.370
399.132, 3233.103
400.479, 2712.501
401.827, 2225.933
403.174, 1744.116
404.521, 1418.287
405.868, 1244.237
407.215, 1110.012
408.561, 972.658
409.908, 924.533
411.254, 844.749
412.599, 787.029
413.945, 675.019
415.290, 684.729
416.636, 644.427
417.980, 605.133
419.325, 642.802
420.670, 551.187
422.014, 606.742
423.358, 556.442
424.702, 535.867
426.045, 549.076
427.389, 546.174
428.732, 544.534
430.075, 527.597
431.417, 486.901
432.760, 416.962
434.102, 411.395
435.444, 430.388
436.786, 446.232
438.127, 442.966
439.469, 456.076
440.810, 451.474
442.151, 439.322
443.492, 453.845
444.832, 442.820
446.172, 436.581
447.512, 414.229
448.852, 424.846
450.192, 422.251
451.531, 458.458
452.870, 440.009
454.209, 437.279
455.548, 411.370
456.887, 385.043
458.225, 352.528
459.563, 344.721
460.901, 393.423
462.238, 342.947
463.576, 345.712
464.913, 374.110
466.250, 331.724
467.587, 387.537
468.923, 273.277
470.259, 346.415
471.596, 317.769
472.931, 367.092
474.267, 327.853
475.603, 336.932
476.938, 283.995
478.273, 288.927
479.608, 355.306
480.942, 381.085
482.276, 315.298
483.611, 364.889
484.944, 364.612
486.278, 333.380
487.612, 364.293
488.945, 352.033
490.278, 352.686
491.611, 311.291
492.943, 345.324
494.276, 368.131
495.608, 340.711
496.940, 356.674
498.271, 393.277
499.603, 381.742
500.934, 402.685
502.265, 385.659
503.596, 410.106
504.927, 419.382
506.257, 401.457
507.587, 482.553
508.917, 424.390
510.247, 414.135
511.577, 466.899
512.906, 492.546
514.235, 439.070
515.564, 500.819
516.892, 522.322
518.221, 520.982
519.549, 534.746
520.877, 570.047
522.205, 602.179
523.533, 662.530
524.860, 705.270
526.187, 787.872
527.514, 859.702
528.841, 984.275
530.167, 1054.118
531.493, 1184.995
532.820, 1313.696
534.145, 1478.507
535.471, 1551.310
536.796, 1665.160
538.122, 1863.860
539.447, 1979.565
540.771, 2066.475
542.096, 2153.368
543.420, 2160.381
544.744, 2143.686
546.068, 2086.427
547.392, 1974.464
548.715, 1850.513
550.039, 1652.578
551.362, 1590.664
552.684, 1307.776
554.007, 1152.925
555.329, 1066.092
556.652, 917.290
557.973, 777.514
559.295, 697.779
560.617, 621.084
561.938, 586.423
563.259, 509.799
564.580, 414.214
565.901, 358.672
567.221, 358.175
568.541, 314.722
569.861, 335.312
571.181, 251.941
572.501, 273.613
573.820, 250.345
575.139, 254.957
576.458, 162.443
577.777, 193.808
579.095, 163.372
580.414, 97.134
581.732, 121.244
583.049, 92.022
584.367, 92.204
585.685, 68.123
587.002, 71.650
588.319, 89.421
589.636, 48.308
590.952, 96.517
592.268, 20.747
593.585, 28.392
594.900, 51.783
596.216, 21.436
597.532, 29.214
598.847, 21.888
600.162, 34.972
601.477, 52.202
602.792, 23.596
604.106, 28.519
605.420, 85.898
606.734, 33.582
608.048, 47.063
609.361, 71.410
610.675, 17.943
611.988, 28.430
613.301, 107.938
614.614, 19.373
615.926, 42.729
617.238, 32.980
618.550, 32.769
619.862, 10.707
621.174, 30.004
622.485, 40.343
623.797, 43.833
625.108, 37.179
626.418, 39.790
627.729, 33.954
629.039, 27.809
630.349, 39.863
631.659, 15.508
632.969, 0.015
634.279, 2.414
635.588, 10.960
636.897, 18.620
638.206, 28.099
639.515, 15.048
640.823, 27.448
642.131, 18.375
643.439, 3.224
644.747, 37.032
646.055, 0.146
647.362, 31.286
648.669, 18.592
649.976, 14.720
651.283, 35.782
652.589, 53.780
653.896, 13.890
655.202, 0.087
656.508, 26.232
657.814, 7.368
659.119, 26.473
660.424, 18.684
661.729, 11.849
663.034, 1.978
664.339, 45.204
665.643, 69.394
666.947, 60.595
668.251, 129.807
669.555, 120.029
670.859, 99.266
672.162, 113.514
673.465, 133.774
674.768, 175.045
676.071, 178.328
677.373, 205.082
678.676, 265.928
679.978, 248.245
681.280, 239.574
682.581, 274.842
683.883, 359.268
685.184, 361.632
686.485, 453.008
687.786, 531.396
689.087, 555.793
690.387, 605.202
691.687, 677.621
692.987, 718.055
694.287, 760.502
695.586, 783.884
696.886, 817.438
698.185, 806.928
699.484, 783.435
700.783, 792.958
702.081, 744.500
703.379, 686.052
704.677, 599.616
705.975, 505.189
707.273, 439.773
708.570, 368.400
709.868, 322.970
711.165, 256.583
712.462, 236.209
713.758, 202.845
715.055, 182.492
716.351, 149.148
717.647, 136.813
718.943, 161.488
720.238, 77.173
721.533, 116.866
722.829, 65.570
724.124, 37.283
725.418, 28.004
726.713, 36.736
728.007, 12.477
729.301, 0.225
730.595, 30.980
731.889, 12.746
733.182, 47.521
734.476, 17.305
735.769, 28.903
737.061, 7.305
738.354, 26.594
739.647, 14.004
740.939, 5.403
742.231, 40.890
743.523, 0.369
744.814, 26.759
746.106, 13.680
747.397, 20.658
748.688, 29.308
749.978, 2.074
751.269, 24.429
752.559, 48.058
753.849, 4.667
755.139, 47.774
756.429, 33.640
757.719, 74.853
759.008, 25.497
760.297, 35.122
761.586, 1.487
762.875, 9.891
764.163, 20.369
765.451, 22.969
766.739, 47.363
768.027, 24.821
769.315, 53.940
770.602, 144.068
771.890, 92.643
773.177, 113.198
774.463, 131.806
775.750, 102.306
777.036, 156.906
778.323, 152.569
779.609, 167.264
780.894, 138.951
782.180, 175.667
783.465, 170.377
784.750, 118.081
786.035, 136.853
787.320, 115.541
788.605, 80.168
789.889, 145.782
791.173, 150.504
792.457, 167.759
793.741, 269.589
795.024, 218.218
796.307, 359.958
797.591, 196.797
798.873, 178.589
800.156, 227.224
801.439, 200.019
802.721, 256.900
804.003, 231.821
805.285, 224.313
806.566, 250.029
807.848, 255.964
809.129, 168.514
810.410, 248.420
811.691, 238.466
812.971, 286.447
814.252, 315.577
815.532, 300.636
816.812, 347.681
818.092, 308.635
819.371, 329.760
820.651, 367.898
821.930, 368.043
823.209, 361.195
824.488, 433.006
825.766, 446.172
827.045, 483.346
828.323, 481.551
829.601, 497.738
830.878, 548.978
832.156, 578.179
833.433, 622.386
834.710, 702.600
835.987, 725.948
837.264, 743.372
838.540, 798.606
839.817, 802.935
841.093, 824.182
842.369, 928.460
843.644, 899.719
844.920, 1077.984
846.195, 1084.804
847.470, 1220.683
848.745, 1346.874
850.020, 1361.206
851.294, 1548.806
852.568, 1667.474
853.842, 1790.196
855.116, 2070.269
856.390, 2210.872
857.663, 2521.323
858.936, 2715.667
860.209, 2976.016
861.482, 3355.372
862.755, 3754.733
864.027, 4252.099
865.299, 4765.311
866.571, 5336.689
867.843, 6092.259
869.115, 6851.705
870.386, 7976.196
871.657, 9276.595
872.928, 10767.232
874.199, 12927.644
875.470, 15108.522
876.740, 18419.074
878.010, 22029.494
879.280, 26320.672
880.550, 30661.105
881.820, 34151.594
883.089, 36452.000
884.358, 36203.301
885.627, 33023.758
886.896, 29444.219
888.164, 24074.689
889.433, 19493.641
890.701, 15513.507
891.969, 12242.529
893.236, 9742.180
894.504, 7932.104
895.771, 6458.500
897.038, 5262.624
898.305, 4288.598
899.572, 3685.230
900.838, 3134.468
902.105, 2736.301
903.371, 2303.503
904.637, 1973.548
905.902, 1697.490
907.168, 1583.402
908.433, 1344.367
909.698, 1239.946
910.963, 1104.461
912.228, 1035.438
913.492, 912.969
914.757, 798.141
916.021, 806.596
917.285, 623.213
918.548, 598.836
919.812, 599.465
921.075, 492.100
922.338, 481.740
923.601, 448.387
924.864, 414.039
926.126, 376.697
927.388, 327.365
928.650, 314.038
929.912, 289.258
931.174, 242.402
932.435, 262.092
933.697, 232.787
934.958, 212.487
936.218, 255.193
937.479, 210.905
938.739, 184.621
940.000, 225.343
941.260, 170.070
942.520, 176.803
943.779, 198.541
945.039, 203.485
946.298, 204.391
947.557, 172.995
948.816, 197.760
950.074, 175.608
951.333, 169.426
952.591, 183.425
953.849, 223.213
955.107, 228.010
956.365, 167.811
957.622, 205.619
958.879, 164.435
960.136, 171.264
961.393, 105.100
962.650, 125.939
963.906, 58.824
965.162, 135.894
966.418, 77.748
967.674, 48.883
968.930, 54.743
970.185, 54.611
971.441, 63.744
972.696, 44.615
973.950, 45.489
975.205, 5.635
976.459, 67.474
977.714, 49.486
978.968, 14.428
980.222, 64.383
981.475, 12.405
982.729, 60.298
983.982, 31.184
985.235, 32.073
986.488, 12.965
987.740, 1.858
988.993, 32.994
990.245, 9.889
991.497, 21.906
992.749, 14.806
994.000, 24.710
995.252, 34.617
996.503, 3.478
997.754, 4.036
999.005, 10.138
1000.256, 14.761
1001.506, 17.643
1002.756, 18.760
1004.006, 19.593
1005.256, 25.481
1006.506, 3.368
1007.755, 10.517
1009.005, 41.365
1010.254, 66.216
1011.502, 48.457
1012.751, 64.464
1014.000, 65.375
1015.248, 8.770
1016.496, 49.225
1017.744, 6.324
1018.991, 14.175
1020.239, 11.357
1021.486, 33.211
1022.733, 4.066
1023.980, 39.351
1025.227, 1.769
1026.473, 9.090
1027.719, 38.031
1028.965, 7.110
1030.211, 30.877
1031.457, 14.754
1032.702, 5.018
1033.948, 8.193
1035.193, 23.662
1036.438, 23.521
1037.682, 21.384
1038.927, 19.250
1040.171, 77.583
1041.415, 55.463
1042.659, 14.725
1043.903, 55.620
1045.146, 16.607
1046.390, 41.544
1047.633, 93.844
1048.876, 11.807
1050.118, 37.722
1051.361, 40.718
1052.603, 89.689
1053.845, 57.696
1055.087, 92.634
1056.329, 81.583
1057.571, 27.534
1058.812, 72.495
1060.053, 30.493
1061.294, 42.592
1062.535, 60.625
1063.775, 64.615
1065.016, 32.610
1066.256, 95.646
1067.496, 48.636
1068.736, 72.639
1069.975, 28.637
1071.214, 57.697
1072.454, 66.682
1073.693, 68.668
1074.931, 85.653
1076.170, 59.635
1077.408, 72.977
1078.647, 101.636
1079.885, 77.663
1081.122, 82.637
1082.360, 86.659
1083.597, 29.629
1084.835, 108.647
1086.072, 45.010
1087.308, 54.974
1088.545, 66.937
1089.781, 54.896
1091.018, 49.856
1092.254, 69.871
1093.490, 10.825
1094.725, 40.913
1095.961, 29.860
1097.196, 73.805
1098.431, 19.746
1099.666, 22.684
1100.900, 10.660
1102.135, 48.593
1103.369, 39.520
1104.603, 61.478
1105.837, 55.922
1107.071, 79.337
1108.304, 46.266
1109.538, 56.179
1110.771, 72.135
1112.004, 25.042
1113.236, 11.945
1114.469, 47.842
1115.701, 9.735
1116.933, 48.623
1118.165, 31.560
1119.397, 11.544
1120.629, 32.450
1121.860, 77.311
1123.091, 70.258
1124.322, 12.481
1125.553, 18.329
1126.783, 24.171
1128.014, 22.984
1129.244, 18.818
1130.474, 31.209
1131.704, 48.459
1132.933, 40.511
1134.163, 60.327
1135.392, 39.387
1136.621, 13.722
1137.850, 36.606
1139.079, 21.313
1140.307, 33.160
1141.535, 33.194
1142.763, 32.979
1143.991, 42.760
1145.219, 14.900
1146.446, 51.302
1147.674, 31.247
1148.901, 1.962
1150.128, 38.505
1151.354, 9.019
1152.581, 12.549
1153.807, 49.520
1155.033, 6.284
1156.259, 40.910
1157.485, 31.712
1158.710, 2.400
1159.936, 15.254
1161.161, 22.928
1162.386, 42.597
1163.611, 15.681
1164.835, 9.430
1166.060, 86.211
1167.284, 5.260
1168.508, 31.039
1169.732, 43.956
1170.955, 1.115
1172.179, 27.735
1173.402, 44.150
1174.625, 22.742
1175.848, 65.437
1177.070, 19.995
1178.293, 30.959
1179.515, 14.461
1180.737, 6.886
1181.959, 35.975
1183.181, 50.444
1184.402, 46.679
1185.624, 51.011
1186.845, 30.737
1188.066, 53.381
1189.286, 6.502
1190.507, 56.437
1191.727, 26.304
1192.947, 34.851
1194.167, 6.321
1195.387, 31.980
1196.607, 65.317
1197.826, 29.026
1199.045, 33.647
1200.264, 29.578
1201.483, 77.004
1202.702, 45.477
1203.920, 45.933
1205.138, 80.339
1206.356, 36.739
1207.574, 25.131
1208.792, 34.706
1210.009, 50.922
1211.227, 46.292
1212.444, 36.654
1213.661, 57.063
1214.877, 44.411
1216.094, 45.760
1217.310, 32.396
1218.526, 93.888
1219.742, 78.827
1220.958, 75.219
1222.173, 82.523
1223.389, 57.820
1224.604, 41.109
1225.819, 39.391
1227.034, 80.665
1228.248, 39.933
1229.463, 61.194
1230.677, 40.493
1231.891, 9.780
1233.105, 85.288
1234.318, 88.562
1235.532, 86.782
1236.745, 92.611
1237.958, 40.850
1239.171, 77.047
1240.384, 28.039
1241.596, 55.224
1242.809, 68.401
1244.021, 67.574
1245.233, 76.663
1246.444, 45.781
1247.656, 55.086
1248.867, 71.978
1250.079, 48.610
1251.290, 61.748
1252.500, 52.880
1253.711, 54.009
1254.921, 70.192
1256.132, 46.478
1257.342, 70.632
1258.552, 91.690
1259.761, 96.560
1260.971, 66.647
1262.180, 64.450
1263.389, 45.682
1264.598, 54.752
1265.807, 29.548
1267.015, 75.600
1268.223, 36.646
1269.432, 52.682
1270.640, 62.479
1271.847, 63.367
1273.055, 81.347
1274.262, 67.307
1275.470, 50.213
1276.677, 61.281
1277.883, 20.263
1279.090, 84.291
1280.296, 41.241
1281.503, 52.182
1282.709, 38.873
1283.915, 70.789
1285.120, 45.578
1286.326, 18.493
1287.531, 74.401
1288.736, 64.261
1289.941, 33.118
1291.146, 49.427
1292.350, 36.269
1293.555, 40.100
1294.759, 52.228
1295.963, 27.059
1297.167, 31.653
1298.370, 32.231
1299.574, 12.153
1300.777, 47.771
1301.980, 31.577
1303.183, 60.376
1304.386, 22.828
1305.588, 78.459
1306.790, 68.204
1307.993, 15.972
1309.195, 35.591
1310.396, 12.238
1311.598, 4.065
1312.799, 17.471
1314.000, 14.198
1315.201, 4.084
1316.402, 61.192
1317.603, 12.134
1318.803, 29.551
1320.003, 35.144
1321.203, 19.188
1322.403, 8.341
1323.603, 45.969
1324.802, 17.204
1326.002, 22.907
1327.201, 7.470
1328.400, 3.858
1329.599, 5.559
1330.797, 4.674
1331.995, 3.555
1333.194, 3.738
1334.392, 1.820
1335.589, 3.712
1336.787, 22.148
1337.985, 64.635
1339.182, 15.754
1340.379, 89.207
1341.576, 10.697
1342.772, 17.103
1343.969, 1.466
1345.165, 58.974
1346.361, 39.434
1347.557, 41.877
1348.753, 82.312
1349.949, 56.952
1351.144, 65.192
1352.339, 59.410
1353.534, 44.765
1354.729, 83.162
1355.924, 65.548
1357.118, 38.885
1358.312, 62.259
1359.506, 49.611
1360.700, 6.961
1361.894, 17.240
1363.088, 4.414
1364.281, 31.922
1365.474, 59.250
1366.667, 79.589
1367.860, 85.906
1369.052, 89.905
1370.245, 64.606
1371.437, 70.921
1372.629, 66.440
1373.821, 39.734
1375.013, 40.974
1376.204, 7.843
1377.395, 39.059
1378.586, 89.348
1379.777, 4.498
1380.968, 41.521
1382.159, 87.165
1383.349, 76.719
1384.539, 63.401
1385.729, 53.032
1386.919, 58.696
1388.109, 68.313
1389.298, 76.924
1390.487, 38.505
1391.676, 36.125
1392.865, 2.262
1394.054, 76.286
1395.242, 74.727
1396.431, 49.223
1397.619, 34.785
1398.807, 15.365
1399.995, 38.899
1401.182, 65.191
1402.370, 60.655
1403.557, 75.064
1404.744, 67.531
1405.931, 16.720
1407.118, 48.085
1408.304, 49.429
1409.490, 56.803
1410.676, 89.985
1411.862, 78.474
1413.048, 50.234
1414.234, 76.492
1415.419, 43.971
1416.604, 43.975
1417.789, 38.383
1418.974, 28.433
1420.159, 51.492
1421.343, 31.975
1422.528, 56.816
1423.712, 81.565
1424.896, 86.394
1426.079, 63.379
1427.263, 38.406
1428.446, 14.141
1429.629, 29.759
1430.812, 76.823
1431.995, 56.769
1433.178, 98.316
1434.360, 97.865
1435.543, 55.807
1436.725, 96.012
1437.907, 47.212
1439.088, 23.356
1440.270, 58.452
1441.451, 14.619
1442.632, 12.963
1443.813, 39.859
1444.994, 46.989
1446.175, 24.112
1447.355, 56.227
1448.535, 29.243
1449.715, 60.731
1450.895, 40.725
1452.075, 5.497
1453.255, 13.541
1454.434, 47.563
1455.613, 63.562
1456.792, 63.177
1457.971, 53.372
1459.149, 60.087
1460.328, 39.812
1461.506, 44.150
1462.684, 112.965
1463.862, 40.753
1465.040, 72.109
1466.217, 64.835
1467.395, 33.544
1468.572, 41.231
1469.749, 62.763
1470.925, 54.062
1472.102, 61.184
1473.278, 76.272
1474.455, 66.008
1475.631, 63.677
1476.807, 80.336
1477.982, 33.102
1479.158, 45.876
1480.333, 42.625
1481.508, 34.147
1482.683, 35.736
1483.858, 63.862
1485.033, 33.355
1486.207, 10.908
1487.381, 20.976
1488.555, 70.249
1489.729, 47.836
1490.903, 53.442
1492.076, 111.040
1493.250, 23.628
1494.423, 67.217
1495.596, 56.792
1496.769, 62.369
1497.941, 67.951
1499.114, 40.595
1500.286, 31.312
1501.458, 30.018
1502.630, 39.750
1503.802, 59.508
1504.973, 46.807
1506.145, 51.051
1507.316, 17.492
1508.487, 32.383
1509.657, 22.322
1510.828, 0.683
1511.999, 19.363
1513.169, 1.531
1514.339, 57.713
1515.509, 63.716
1516.678, 33.534
1517.848, 29.025
1519.017, 0.388
1520.187, 23.377
1521.356, 0.000
##END=



