##NAMES=Hubnerite
##RRUFFID=R050069
##IDEAL CHEMISTRY=Mn^2+^W^6+^O_4_
##LOCALITY=Yaogangxian, Yizhang County, Hunan Province, China
##OWNER=RRUFF
##SOURCE=Rock Currier
##DESCRIPTION=Black colored prismatic single crystal
##STATUS=The identification of this mineral has been confirmed by X-ray diffraction and chemical analysis
##URL=rruff.info/R050069
##MEASURED CHEMISTRY=(Mn_0.68_Fe_0.32_)W_1.00_O_4_
##PIN_ID=L00322
##ORIENTATION=Laser parallel to (-1 0 -1). Fiducial mark perpendicular to laser is parallel to -b [0 -1 0]
149.938, 0.000
151.324, 216.398
152.710, 0.449
154.096, 22.552
155.481, 181.619
156.866, 195.402
158.251, 123.976
159.636, 28.356
161.020, 105.769
162.405, 83.964
163.789, 156.379
165.172, 82.167
166.556, 12.018
167.939, 207.431
169.322, 49.494
170.705, 70.573
172.088, 147.790
173.470, 107.687
174.853, 28.321
176.234, 95.490
177.616, 125.021
178.998, 100.458
180.379, 147.609
181.760, 78.977
183.141, 202.306
184.521, 183.008
185.902, 162.773
187.282, 243.800
188.662, 282.607
190.042, 253.907
191.421, 251.671
192.800, 315.114
194.179, 258.696
195.558, 356.905
196.937, 355.282
198.315, 372.815
199.693, 435.542
201.071, 366.471
202.449, 399.161
203.826, 410.399
205.203, 406.643
206.580, 428.446
207.957, 361.269
209.333, 422.585
210.710, 354.515
212.086, 270.777
213.462, 280.205
214.837, 275.562
216.213, 215.411
217.588, 300.916
218.963, 302.269
220.337, 197.826
221.712, 212.010
223.086, 197.096
224.460, 226.129
225.834, 215.237
227.207, 202.136
228.581, 216.534
229.954, 210.763
231.327, 174.250
232.699, 143.500
234.072, 96.585
235.444, 149.566
236.816, 150.812
238.188, 127.301
239.559, 120.991
240.931, 107.722
242.302, 156.771
243.673, 87.803
245.043, 133.896
246.414, 146.593
247.784, 100.207
249.154, 91.930
250.523, 115.832
251.893, 103.411
253.262, 140.134
254.631, 65.069
256.000, 190.961
257.369, 103.659
258.737, 140.528
260.105, 183.229
261.473, 170.865
262.841, 184.596
264.208, 207.353
265.576, 168.202
266.943, 150.211
268.310, 141.774
269.676, 99.625
271.042, 121.817
272.409, 58.794
273.775, 12.786
275.140, 11.371
276.506, 42.139
277.871, 0.094
279.236, 37.644
280.601, 42.466
281.965, 72.018
283.330, 35.679
284.694, 26.042
286.058, 10.699
287.421, 4.172
288.785, 71.439
290.148, 32.460
291.511, 30.554
292.874, 1.638
294.236, 37.888
295.599, 41.587
296.961, 2.550
298.323, 40.498
299.684, 10.679
301.046, 46.084
302.407, 30.248
303.768, 55.948
305.129, 4.107
306.489, 92.549
307.850, 92.438
309.210, 86.921
310.570, 77.199
311.929, 163.224
313.289, 220.304
314.648, 189.873
316.007, 322.389
317.366, 374.816
318.724, 532.486
320.083, 582.604
321.441, 702.120
322.799, 827.395
324.156, 928.406
325.514, 1089.176
326.871, 1130.294
328.228, 1177.864
329.585, 1182.802
330.941, 1145.853
332.298, 1081.385
333.654, 959.872
335.010, 846.721
336.365, 863.739
337.721, 747.316
339.076, 692.562
340.431, 653.114
341.786, 638.486
343.140, 608.213
344.495, 550.844
345.849, 524.954
347.203, 465.163
348.556, 453.815
349.910, 495.053
351.263, 412.071
352.616, 416.780
353.969, 469.348
355.321, 464.452
356.674, 428.645
358.026, 448.864
359.378, 419.974
360.729, 436.310
362.081, 410.082
363.432, 446.952
364.783, 500.039
366.134, 456.636
367.484, 455.039
368.835, 496.202
370.185, 448.542
371.535, 480.665
372.884, 449.700
374.234, 488.959
375.583, 467.535
376.932, 475.835
378.281, 443.022
379.630, 504.411
380.978, 533.736
382.326, 514.010
383.674, 567.223
385.022, 513.390
386.369, 557.105
387.717, 601.781
389.064, 597.016
390.411, 705.358
391.757, 733.993
393.104, 915.823
394.450, 1079.495
395.796, 1217.804
397.141, 1455.500
398.487, 1613.727
399.832, 1691.883
401.177, 1681.670
402.522, 1618.473
403.867, 1428.078
405.211, 1272.230
406.555, 1084.406
407.899, 985.094
409.243, 831.012
410.587, 782.279
411.930, 729.249
413.273, 673.367
414.616, 601.373
415.959, 533.008
417.301, 510.859
418.644, 486.264
419.986, 489.905
421.327, 478.554
422.669, 505.423
424.010, 524.065
425.351, 458.800
426.692, 419.702
428.033, 367.149
429.374, 375.516
430.714, 371.896
432.054, 291.677
433.394, 363.717
434.733, 359.822
436.073, 388.541
437.412, 334.124
438.751, 338.574
440.090, 362.834
441.428, 343.638
442.767, 332.251
444.105, 305.092
445.443, 287.383
446.780, 295.996
448.118, 298.894
449.455, 271.232
450.792, 309.839
452.129, 266.447
453.465, 336.502
454.802, 315.448
456.138, 264.896
457.474, 266.000
458.809, 250.971
460.145, 284.276
461.480, 199.355
462.815, 210.249
464.150, 239.972
465.485, 206.186
466.819, 241.743
468.153, 200.415
469.487, 270.261
470.821, 189.810
472.155, 196.332
473.488, 209.448
474.821, 262.790
476.154, 221.093
477.487, 184.859
478.819, 177.558
480.151, 169.169
481.483, 142.749
482.815, 190.486
484.147, 203.158
485.478, 229.620
486.809, 212.122
488.140, 189.368
489.471, 252.600
490.802, 216.885
492.132, 222.865
493.462, 172.783
494.792, 255.522
496.122, 204.260
497.451, 168.768
498.780, 223.535
500.109, 201.936
501.438, 190.958
502.767, 220.993
504.095, 214.805
505.423, 140.184
506.751, 183.387
508.079, 205.271
509.406, 186.122
510.734, 223.000
512.061, 239.500
513.388, 152.928
514.714, 168.515
516.041, 117.024
517.367, 207.324
518.693, 182.655
520.019, 176.810
521.344, 191.982
522.670, 155.992
523.995, 204.105
525.320, 485.393
526.644, 649.456
527.969, 377.468
529.293, 207.612
530.617, 142.513
531.941, 173.505
533.265, 238.324
534.588, 247.270
535.911, 233.092
537.234, 174.915
538.557, 191.567
539.880, 245.447
541.202, 203.423
542.524, 237.288
543.846, 205.354
545.168, 219.173
546.489, 218.156
547.811, 229.308
549.132, 233.422
550.453, 211.064
551.773, 217.894
553.094, 159.089
554.414, 138.257
555.734, 109.400
557.054, 148.519
558.374, 158.613
559.693, 164.684
561.012, 130.895
562.331, 125.003
563.650, 131.023
564.968, 126.167
566.287, 149.212
567.605, 125.366
568.923, 124.443
570.240, 154.459
571.558, 189.478
572.875, 164.178
574.192, 109.252
575.509, 158.274
576.825, 102.329
578.142, 196.546
579.458, 53.005
580.774, 76.283
582.090, 93.731
583.405, 83.315
584.721, 80.213
586.036, 102.012
587.351, 71.483
588.665, 42.089
589.980, 54.745
591.294, 47.504
592.608, 47.758
593.922, 5.127
595.236, 27.855
596.549, 70.562
597.862, 24.315
599.175, 43.219
600.488, 35.034
601.801, 3.201
603.113, 11.505
604.425, 5.146
605.737, 6.885
607.049, 31.569
608.361, 8.180
609.672, 33.946
610.983, 46.532
612.294, 72.436
613.605, 72.263
614.915, 65.908
616.225, 66.560
617.536, 56.158
618.845, 76.925
620.155, 65.735
621.464, 70.268
622.774, 59.498
624.083, 53.991
625.391, 51.645
626.700, 3.120
628.008, 51.882
629.317, 23.303
630.625, 63.747
631.932, 95.238
633.240, 32.944
634.547, 31.464
635.854, 69.823
637.161, 12.861
638.468, 68.400
639.774, 44.538
641.081, 33.860
642.387, 59.219
643.693, 24.676
644.998, 62.045
646.304, 41.306
647.609, 5.819
648.914, 58.168
650.219, 50.531
651.523, 71.674
652.828, 51.152
654.132, 85.405
655.436, 2.501
656.740, 70.815
658.043, 133.030
659.346, 72.193
660.650, 76.474
661.952, 130.724
663.255, 119.658
664.558, 103.770
665.860, 80.972
667.162, 116.093
668.464, 90.366
669.766, 98.708
671.067, 171.690
672.368, 122.736
673.669, 234.567
674.970, 195.777
676.271, 133.885
677.571, 209.969
678.871, 219.120
680.171, 221.122
681.471, 261.328
682.771, 272.140
684.070, 317.413
685.369, 326.944
686.668, 335.171
687.967, 377.130
689.266, 312.220
690.564, 352.585
691.862, 343.990
693.160, 366.338
694.458, 400.447
695.755, 309.629
697.053, 291.044
698.350, 326.285
699.646, 330.671
700.943, 297.925
702.240, 257.240
703.536, 211.554
704.832, 203.916
706.128, 166.296
707.423, 123.596
708.719, 124.929
710.014, 114.022
711.309, 83.029
712.604, 134.917
713.898, 73.971
715.193, 63.068
716.487, 14.193
717.781, 32.177
719.075, 47.136
720.368, 10.124
721.662, 28.091
722.955, 58.844
724.248, 7.083
725.541, 56.992
726.833, 38.972
728.125, 12.831
729.418, 1.197
730.709, 2.005
732.001, 5.002
733.293, 50.237
734.584, 16.108
735.875, 33.588
737.166, 34.991
738.457, 29.660
739.747, 65.730
741.037, 67.174
742.327, 7.566
743.617, 49.088
744.907, 11.761
746.196, 0.616
747.486, 25.033
748.775, 22.694
750.063, 11.352
751.352, 25.604
752.640, 54.041
753.929, 15.291
755.217, 43.625
756.504, 48.932
757.792, 88.052
759.079, 18.991
760.367, 106.199
761.654, 125.267
762.940, 40.598
764.227, 121.838
765.513, 108.192
766.799, 121.605
768.085, 221.132
769.371, 202.664
770.657, 188.176
771.942, 207.696
773.227, 134.179
774.512, 190.755
775.797, 179.291
777.081, 263.853
778.365, 175.374
779.650, 202.880
780.933, 186.382
782.217, 182.687
783.501, 173.200
784.784, 207.602
786.067, 199.180
787.350, 267.895
788.633, 157.355
789.915, 205.815
791.197, 242.443
792.479, 131.448
793.761, 197.084
795.043, 239.628
796.324, 212.135
797.606, 162.755
798.887, 135.237
800.167, 176.883
801.448, 192.448
802.728, 186.872
804.009, 172.521
805.289, 145.146
806.568, 249.867
807.848, 199.508
809.128, 246.301
810.407, 225.754
811.686, 189.500
812.965, 270.418
814.243, 200.191
815.522, 216.989
816.800, 274.912
818.078, 146.838
819.355, 270.767
820.633, 310.615
821.910, 293.547
823.188, 314.450
824.465, 282.385
825.741, 346.321
827.018, 321.261
828.294, 352.203
829.570, 367.147
830.846, 341.094
832.122, 423.042
833.398, 404.994
834.673, 473.949
835.948, 455.906
837.223, 459.863
838.498, 519.821
839.772, 587.779
841.047, 523.749
842.321, 584.720
843.595, 617.694
844.868, 728.675
846.142, 830.656
847.415, 834.639
848.688, 930.627
849.961, 973.465
851.234, 957.457
852.507, 1104.451
853.779, 1183.446
855.051, 1345.442
856.323, 1419.441
857.595, 1658.441
858.866, 1847.444
860.137, 2046.056
861.409, 2336.907
862.679, 2552.810
863.950, 2905.821
865.221, 3211.835
866.491, 3638.853
867.761, 4036.874
869.031, 4562.897
870.301, 5289.760
871.570, 5970.704
872.839, 6880.718
874.109, 7850.586
875.377, 8960.534
876.646, 10367.354
877.915, 11547.229
879.183, 13045.424
880.451, 14433.328
881.719, 15522.533
882.987, 16152.609
884.254, 16372.308
885.521, 16051.880
886.788, 15139.182
888.055, 14068.252
889.322, 12446.453
890.588, 11024.593
891.855, 9784.662
893.121, 8211.135
894.387, 7257.534
895.652, 6197.036
896.918, 5297.433
898.183, 4511.757
899.448, 3904.643
900.713, 3416.331
901.978, 2977.145
903.242, 2580.233
904.506, 2274.394
905.771, 1965.565
907.034, 1797.706
908.298, 1623.896
909.562, 1375.874
910.825, 1314.079
912.088, 1176.289
913.351, 1154.511
914.613, 1007.745
915.876, 942.988
917.138, 851.241
918.400, 767.500
919.662, 719.770
920.924, 666.166
922.185, 629.328
923.447, 588.616
924.708, 594.911
925.969, 538.212
927.229, 542.519
928.490, 496.832
929.750, 486.150
931.010, 445.476
932.270, 391.807
933.530, 360.144
934.789, 335.488
936.048, 331.839
937.308, 319.196
938.566, 263.559
939.825, 266.928
941.084, 341.304
942.342, 271.685
943.600, 234.072
944.858, 281.469
946.116, 196.873
947.373, 240.282
948.630, 202.698
949.888, 282.120
951.144, 178.547
952.401, 242.980
953.658, 177.419
954.914, 201.864
956.170, 206.315
957.426, 200.771
958.682, 117.261
959.937, 186.728
961.193, 110.200
962.448, 147.678
963.703, 149.535
964.957, 125.023
966.212, 143.517
967.466, 119.762
968.720, 118.719
969.974, 99.225
971.228, 62.735
972.482, 76.250
973.735, 56.769
974.988, 71.292
976.241, 96.819
977.494, 3.352
978.746, 63.889
979.999, 56.430
981.251, 89.976
982.503, 45.525
983.755, 41.450
985.006, 74.007
986.258, 45.569
987.509, 90.168
988.760, 100.738
990.011, 10.312
991.261, 12.968
992.512, 12.549
993.762, 42.135
995.012, 2.766
996.262, 56.359
997.511, 30.957
998.761, 26.458
1000.010, 19.937
1001.259, 60.664
1002.508, 59.269
1003.756, 52.876
1005.005, 1.488
1006.253, 51.104
1007.501, 73.926
1008.749, 7.548
1009.996, 53.708
1011.244, 19.768
1012.491, 20.711
1013.738, 11.513
1014.985, 49.129
1016.232, 51.775
1017.478, 46.608
1018.724, 15.265
1019.970, 15.925
1021.216, 34.581
1022.462, 32.243
1023.707, 41.912
1024.953, 129.584
1026.198, 48.265
1027.443, 77.194
1028.687, 27.924
1029.932, 17.117
1031.176, 68.472
1032.420, 6.707
1033.664, 60.498
1034.908, 17.299
1036.152, 26.049
1037.395, 53.814
1038.638, 16.593
1039.881, 0.383
1041.124, 30.260
1042.366, 3.074
1043.609, 24.629
1044.851, 50.799
1046.093, 36.716
1047.335, 45.635
1048.576, 13.560
1049.818, 58.476
1051.059, 103.361
1052.300, 13.254
1053.541, 63.150
1054.781, 46.350
1056.022, 19.249
1057.262, 61.943
1058.502, 35.150
1059.742, 62.743
1060.981, 29.577
1062.221, 12.665
1063.460, 62.416
1064.699, 6.151
1065.938, 85.268
1067.177, 138.169
1068.415, 42.064
1069.653, 103.025
1070.891, 89.929
1072.129, 81.833
1073.367, 48.737
1074.604, 80.750
1075.842, 87.656
1077.079, 147.562
1078.316, 55.468
1079.553, 154.374
1080.789, 59.280
1082.025, 16.187
1083.262, 119.092
1084.498, 101.998
1085.733, 79.903
1086.969, 54.809
1088.204, 22.896
1089.439, 27.068
1090.674, 12.126
1091.909, 45.632
1093.144, 29.534
1094.378, 58.931
1095.612, 114.832
1096.846, 27.731
1098.080, 89.630
1099.314, 47.213
1100.547, 107.424
1101.781, 26.320
1103.014, 16.214
1104.247, 88.107
1105.479, 57.000
1106.712, 2.894
1107.944, 87.785
1109.176, 58.727
1110.408, 93.615
1111.640, 21.386
1112.871, 31.487
1114.102, 46.359
1115.334, 0.229
1116.565, 3.095
1117.795, 13.959
1119.026, 9.157
1120.256, 46.681
1121.486, 31.539
1122.716, 64.459
1123.946, 67.430
1125.176, 88.498
1126.405, 86.967
1127.634, 16.312
1128.863, 64.277
1130.092, 37.119
1131.321, 2.042
1132.549, 46.839
1133.778, 56.668
1135.006, 7.584
1136.233, 55.464
1137.461, 42.376
1138.689, 29.807
1139.916, 52.988
1141.143, 45.906
1142.370, 12.305
1143.597, 48.586
1144.823, 65.534
1146.050, 9.494
1147.276, 28.283
1148.502, 44.278
1149.727, 50.059
1150.953, 49.945
1152.178, 67.691
1153.404, 63.515
1154.629, 3.401
1155.853, 34.228
1157.078, 6.998
1158.302, 47.209
1159.527, 2.239
1160.751, 2.599
1161.975, 30.462
1163.198, 15.277
1164.422, 3.370
1165.645, 24.751
1166.868, 25.562
1168.091, 40.688
1169.314, 28.705
1170.536, 28.380
1171.759, 46.333
1172.981, 38.184
1174.203, 8.689
1175.424, 11.363
1176.646, 4.323
1177.867, 1.665
1179.089, 17.548
1180.310, 1.095
1181.530, 23.752
1182.751, 63.427
1183.971, 43.144
1185.192, 66.178
1186.412, 68.001
1187.632, 22.806
1188.851, 40.142
1190.071, 57.707
1191.290, 29.313
1192.509, 27.007
1193.728, 30.712
1194.947, 31.773
1196.165, 35.728
1197.384, 57.632
1198.602, 63.303
1199.820, 77.964
1201.037, 10.467
1202.255, 71.960
1203.472, 1.099
1204.690, 56.087
1205.907, 51.025
1207.124, 7.545
1208.340, 17.011
1209.557, 6.526
1210.773, 2.050
1211.989, 15.833
1213.205, 57.357
1214.421, 4.148
1215.636, 38.228
1216.851, 80.701
1218.067, 66.143
1219.281, 57.581
1220.496, 27.924
1221.711, 79.356
1222.925, 72.783
1224.139, 112.143
1225.353, 94.556
1226.567, 96.865
1227.781, 57.196
1228.994, 74.510
1230.207, 117.787
1231.421, 98.129
1232.633, 60.388
1233.846, 22.816
1235.059, 82.057
1236.271, 52.933
1237.483, 100.513
1238.695, 100.730
1239.907, 8.940
1241.118, 93.143
1242.330, 94.055
1243.541, 91.037
1244.752, 160.722
1245.963, 122.949
1247.173, 90.164
1248.384, 111.413
1249.594, 83.571
1250.804, 73.829
1252.014, 64.548
1253.223, 101.660
1254.433, 51.792
1255.642, 78.917
1256.851, 38.034
1258.060, 105.908
1259.269, 81.011
1260.478, 80.107
1261.686, 100.043
1262.894, 76.075
1264.102, 70.149
1265.310, 81.216
1266.518, 87.275
1267.725, 50.327
1268.932, 38.371
1270.139, 26.406
1271.346, 126.422
1272.553, 38.421
1273.759, 38.404
1274.966, 112.358
1276.172, 70.300
1277.378, 55.855
1278.583, 69.755
1279.789, 46.693
1280.994, 54.564
1282.200, 46.430
1283.405, 78.285
1284.609, 79.044
1285.814, 36.968
1287.018, 85.821
1288.223, 40.246
1289.427, 30.035
1290.631, 27.810
1291.834, 62.675
1293.038, 46.294
1294.241, 60.334
1295.444, 34.066
1296.647, 70.788
1297.850, 47.497
1299.053, 32.197
1300.255, 46.681
1301.457, 33.896
1302.659, 18.089
1303.861, 31.571
1305.063, 9.020
1306.264, 4.512
1307.466, 40.132
1308.667, 8.272
1309.868, 44.844
1311.068, 37.729
1312.269, 13.293
1313.469, 19.869
1314.669, 68.417
1315.869, 6.049
1317.069, 4.532
1318.269, 15.030
1319.468, 63.231
1320.668, 5.531
1321.867, 21.672
1323.066, 7.500
1324.264, 29.856
1325.463, 55.822
1326.661, 50.185
1327.859, 38.592
1329.057, 9.011
1330.255, 25.369
1331.452, 25.737
1332.650, 2.020
1333.847, 67.356
1335.044, 55.682
1336.241, 34.361
1337.438, 20.599
1338.634, 17.875
1339.830, 13.428
1341.027, 16.293
1342.222, 32.553
1343.418, 32.884
1344.614, 68.124
1345.809, 70.051
1347.004, 12.271
1348.199, 2.669
1349.394, 22.846
1350.589, 50.020
1351.783, 59.804
1352.978, 45.773
1354.172, 74.494
1355.365, 10.030
1356.559, 33.937
1357.753, 39.048
1358.946, 79.146
1360.139, 37.168
1361.332, 42.239
1362.525, 41.296
1363.718, 85.342
1364.910, 38.271
1366.102, 37.297
1367.294, 51.315
1368.486, 36.311
1369.678, 50.892
1370.869, 59.271
1372.061, 53.237
1373.252, 73.206
1374.443, 42.155
1375.634, 71.097
1376.824, 25.036
1378.015, 78.788
1379.205, 99.725
1380.395, 76.649
1381.585, 77.245
1382.775, 85.326
1383.964, 84.894
1385.153, 75.695
1386.343, 70.538
1387.531, 56.524
1388.720, 47.037
1389.909, 48.483
1391.097, 38.856
1392.285, 75.343
1393.473, 33.820
1394.661, 4.285
1395.849, 92.664
1397.037, 59.727
1398.224, 102.014
1399.411, 87.285
1400.598, 29.628
1401.785, 113.914
1402.971, 122.115
1404.158, 120.699
1405.344, 165.717
1406.530, 97.740
1407.716, 152.394
1408.901, 67.285
1410.087, 116.216
1411.272, 113.252
1412.457, 120.283
1413.642, 130.766
1414.827, 116.796
1416.012, 103.022
1417.196, 77.085
1418.380, 77.808
1419.564, 107.495
1420.748, 75.337
1421.932, 31.400
1423.115, 35.135
1424.299, 83.788
1425.482, 103.486
1426.665, 64.955
1427.847, 16.377
1429.030, 29.197
1430.212, 4.624
1431.395, 36.990
1432.577, 38.972
1433.759, 58.533
1434.940, 73.583
1436.122, 7.761
1437.303, 66.367
1438.484, 39.975
1439.665, 51.694
1440.846, 76.241
1442.026, 57.628
1443.207, 80.265
1444.387, 87.507
1445.567, 91.915
1446.747, 75.487
1447.927, 60.078
1449.106, 27.569
1450.286, 103.841
1451.465, 23.447
1452.644, 37.028
1453.822, 77.578
1455.001, 11.929
1456.179, 118.348
1457.358, 43.599
1458.536, 73.476
1459.714, 42.803
1460.891, 70.093
1462.069, 90.018
1463.246, 50.217
1464.423, 76.373
1465.600, 104.488
1466.777, 63.557
1467.954, 64.610
1469.130, 95.715
1470.306, 158.923
1471.483, 127.759
1472.658, 69.290
1473.834, 96.602
1475.010, 60.657
1476.185, 48.831
1477.360, 4.845
1478.535, 31.483
1479.710, 59.289
1480.885, 34.630
1482.059, 125.971
1483.234, 45.305
1484.408, 0.629
1485.582, 135.893
1486.755, 47.931
1487.929, 93.359
1489.102, 51.207
1490.275, 10.320
1491.449, 91.445
1492.621, 115.570
1493.794, 63.690
1494.967, 58.812
1496.139, 4.070
1497.311, 50.037
1498.483, 79.131
1499.655, 6.603
1500.826, 93.634
1501.998, 71.639
1503.169, 29.962
1504.340, 2.826
1505.511, 76.792
1506.682, 81.899
1507.852, 75.995
1509.023, 60.341
1510.193, 13.110
1511.363, 40.112
1512.532, 23.140
1513.702, 0.769
1514.872, 55.293
1516.041, 32.981
1517.210, 41.018
1518.379, 39.147
1519.548, 69.513
1520.716, 0.000
##END=



