##NAMES=Hubnerite
##RRUFFID=R050069
##IDEAL CHEMISTRY=Mn^2+^W^6+^O_4_
##LOCALITY=Yaogangxian, Yizhang County, Hunan Province, China
##OWNER=RRUFF
##SOURCE=Rock Currier
##DESCRIPTION=Black colored prismatic single crystal
##STATUS=The identification of this mineral has been confirmed by X-ray diffraction and chemical analysis
##URL=rruff.info/R050069
##MEASURED CHEMISTRY=(Mn_0.68_Fe_0.32_)W_1.00_O_4_
##PIN_ID=L00211
##ORIENTATION=Laser parallel to a* (1 0 0). Fiducial mark perpendicular to laser is parallel to -b [0 -1 0]
151.324, 0.000
152.710, 51.944
154.096, 17.483
155.481, 106.698
156.866, 96.231
158.251, 146.646
159.636, 40.695
161.020, 117.550
162.405, 91.484
163.789, 62.839
165.172, 56.136
166.556, 45.707
167.939, 15.139
169.322, 52.112
170.705, 57.610
172.088, 50.783
173.470, 77.852
174.853, 93.176
176.234, 99.861
177.616, 70.885
178.998, 87.156
180.379, 46.494
181.760, 52.148
183.141, 52.037
184.521, 82.820
185.902, 68.237
187.282, 46.889
188.662, 107.494
190.042, 81.753
191.421, 148.312
192.800, 178.684
194.179, 243.955
195.558, 260.528
196.937, 357.033
198.315, 362.977
199.693, 419.496
201.071, 603.151
202.449, 744.672
203.826, 913.634
205.203, 1154.589
206.580, 1329.359
207.957, 1635.369
209.333, 1650.546
210.710, 1759.062
212.086, 1647.583
213.462, 1551.996
214.837, 1315.790
216.213, 1105.953
217.588, 945.682
218.963, 774.306
220.337, 652.301
221.712, 512.433
223.086, 453.540
224.460, 371.076
225.834, 312.704
227.207, 299.659
228.581, 252.289
229.954, 228.610
231.327, 196.447
232.699, 176.962
234.072, 139.795
235.444, 105.840
236.816, 93.060
238.188, 52.421
239.559, 98.894
240.931, 105.455
242.302, 114.067
243.673, 50.716
245.043, 96.398
246.414, 27.106
247.784, 105.827
249.154, 17.548
250.523, 14.261
251.893, 56.952
253.262, 52.620
254.631, 74.259
256.000, 87.874
257.369, 16.541
258.737, 45.021
260.105, 1.344
261.473, 3.004
262.841, 66.302
264.208, 30.930
265.576, 130.480
266.943, 79.141
268.310, 62.099
269.676, 3.180
271.042, 39.180
272.409, 27.385
273.775, 47.676
275.140, 22.190
276.506, 10.338
277.871, 16.258
279.236, 30.494
280.601, 20.109
281.965, 16.953
283.330, 50.520
284.694, 5.251
286.058, 2.042
287.421, 18.746
288.785, 54.465
290.148, 10.058
291.511, 35.517
292.874, 105.219
294.236, 77.952
295.599, 97.135
296.961, 94.345
298.323, 72.048
299.684, 150.635
301.046, 130.807
302.407, 174.991
303.768, 132.472
305.129, 171.439
306.489, 224.355
307.850, 272.194
309.210, 352.972
310.570, 403.459
311.929, 415.876
313.289, 537.392
314.648, 578.729
316.007, 677.725
317.366, 842.050
318.724, 1033.117
320.083, 1216.747
321.441, 1556.943
322.799, 1852.897
324.156, 2158.972
325.514, 2547.278
326.871, 2874.889
328.228, 2995.357
329.585, 3114.441
330.941, 3033.221
332.298, 2845.202
333.654, 2667.451
335.010, 2352.634
336.365, 2014.470
337.721, 1807.233
339.076, 1587.843
340.431, 1386.364
341.786, 1232.586
343.140, 1169.664
344.495, 1020.351
345.849, 866.139
347.203, 846.579
348.556, 705.045
349.910, 705.889
351.263, 564.629
352.616, 574.755
353.969, 559.216
355.321, 514.960
356.674, 524.908
358.026, 500.652
359.378, 416.172
360.729, 414.713
362.081, 466.326
363.432, 384.580
364.783, 393.790
366.134, 434.854
367.484, 364.633
368.835, 292.386
370.185, 331.028
371.535, 292.729
372.884, 324.240
374.234, 275.600
375.583, 270.632
376.932, 305.521
378.281, 234.234
379.630, 255.825
380.978, 244.257
382.326, 210.577
383.674, 215.791
385.022, 183.928
386.369, 195.943
387.717, 194.549
389.064, 171.851
390.411, 267.049
391.757, 211.086
393.104, 197.959
394.450, 121.609
395.796, 185.285
397.141, 184.522
398.487, 258.542
399.832, 194.370
401.177, 208.439
402.522, 168.247
403.867, 210.107
405.211, 195.897
406.555, 224.926
407.899, 214.879
409.243, 208.980
410.587, 243.530
411.930, 181.802
413.273, 180.871
414.616, 153.073
415.959, 206.279
417.301, 172.721
418.644, 150.235
419.986, 112.743
421.327, 183.540
422.669, 101.951
424.010, 152.545
425.351, 232.736
426.692, 111.336
428.033, 191.577
429.374, 160.888
430.714, 131.928
432.054, 138.920
433.394, 117.456
434.733, 123.927
436.073, 182.764
437.412, 134.393
438.751, 113.580
440.090, 160.185
441.428, 207.908
442.767, 144.130
444.105, 170.281
445.443, 162.728
446.780, 163.375
448.118, 215.658
449.455, 169.451
450.792, 172.442
452.129, 229.033
453.465, 251.861
454.802, 200.659
456.138, 151.495
457.474, 193.580
458.809, 148.110
460.145, 159.502
461.480, 175.408
462.815, 157.136
464.150, 169.896
465.485, 131.262
466.819, 152.229
468.153, 139.305
469.487, 87.512
470.821, 149.163
472.155, 178.853
473.488, 186.506
474.821, 167.083
476.154, 91.635
477.487, 162.269
478.819, 127.674
480.151, 135.190
481.483, 152.438
482.815, 125.677
484.147, 162.859
485.478, 99.986
486.809, 180.058
488.140, 123.123
489.471, 147.091
490.802, 139.009
492.132, 133.878
493.462, 151.716
494.792, 120.498
496.122, 140.232
497.451, 148.922
498.780, 159.567
500.109, 145.169
501.438, 145.727
502.767, 154.243
504.095, 136.717
505.423, 80.150
506.751, 117.543
508.079, 126.895
509.406, 208.208
510.734, 137.486
512.061, 108.727
513.388, 180.929
514.714, 139.098
516.041, 106.230
517.367, 157.324
518.693, 178.383
520.019, 173.407
521.344, 119.396
522.670, 169.349
523.995, 140.260
525.320, 140.146
526.644, 179.998
527.969, 146.736
529.293, 135.144
530.617, 91.686
531.941, 113.038
533.265, 119.460
534.588, 176.722
535.911, 159.904
537.234, 200.208
538.557, 197.192
539.880, 221.245
541.202, 169.229
542.524, 248.052
543.846, 155.877
545.168, 194.551
546.489, 170.256
547.811, 189.939
549.132, 203.511
550.453, 130.468
551.773, 135.175
553.094, 184.814
554.414, 100.121
555.734, 123.681
557.054, 100.228
558.374, 101.076
559.693, 143.647
561.012, 109.275
562.331, 105.726
563.650, 131.345
564.968, 114.896
566.287, 36.566
567.605, 60.185
568.923, 48.779
570.240, 95.507
571.558, 113.980
572.875, 54.453
574.192, 28.806
575.509, 36.376
576.825, 51.800
578.142, 60.122
579.458, 65.292
580.774, 60.780
582.090, 71.923
583.405, 21.285
584.721, 16.978
586.036, 42.839
587.351, 3.640
588.665, 7.984
589.980, 4.798
591.294, 17.550
592.608, 70.405
593.922, 7.285
595.236, 46.892
596.549, 8.687
597.862, 24.413
599.175, 7.960
600.488, 55.476
601.801, 22.719
603.113, 5.960
604.425, 68.358
605.737, 18.736
607.049, 14.704
608.361, 10.330
609.672, 37.953
610.983, 32.793
612.294, 24.308
613.605, 3.243
614.915, 6.006
616.225, 45.398
617.536, 24.609
618.845, 49.867
620.155, 52.186
621.464, 12.425
622.774, 1.320
624.083, 29.733
625.391, 49.948
626.700, 59.777
628.008, 28.110
629.317, 49.989
630.625, 50.623
631.932, 61.850
633.240, 74.071
634.547, 22.969
635.854, 91.156
637.161, 102.192
638.468, 33.253
639.774, 74.380
641.081, 52.390
642.387, 81.551
643.693, 58.444
644.998, 37.668
646.304, 65.650
647.609, 78.727
648.914, 84.768
650.219, 40.784
651.523, 95.871
652.828, 131.825
654.132, 71.859
655.436, 118.927
656.740, 157.037
658.043, 98.086
659.346, 142.135
660.650, 124.219
661.952, 161.230
663.255, 143.003
664.558, 159.933
665.860, 255.902
667.162, 208.178
668.464, 315.192
669.766, 233.085
671.067, 288.281
672.368, 285.303
673.669, 312.188
674.970, 366.288
676.271, 382.476
677.571, 417.646
678.871, 461.591
680.171, 520.031
681.471, 601.782
682.771, 679.821
684.070, 748.032
685.369, 866.110
686.668, 924.941
687.967, 1004.998
689.266, 1065.946
690.564, 1112.926
691.862, 1172.121
693.160, 1369.280
694.458, 1383.472
695.755, 1442.663
697.053, 1486.858
698.350, 1517.056
699.646, 1478.254
700.943, 1557.442
702.240, 1409.641
703.536, 1463.849
704.832, 1324.059
706.128, 1243.278
707.423, 1193.414
708.719, 1084.575
710.014, 930.797
711.309, 882.831
712.604, 762.971
713.898, 732.021
715.193, 645.083
716.487, 569.313
717.781, 515.425
719.075, 498.531
720.368, 415.751
721.662, 391.912
722.955, 373.753
724.248, 311.701
725.541, 296.609
726.833, 295.720
728.125, 250.918
729.418, 239.876
730.709, 217.736
732.001, 190.636
733.293, 210.610
734.584, 168.628
735.875, 158.614
737.166, 161.719
738.457, 122.817
739.747, 105.712
741.037, 101.597
742.327, 37.024
743.617, 119.876
744.907, 107.755
746.196, 101.346
747.486, 53.321
748.775, 42.870
750.063, 44.619
751.352, 2.080
752.640, 9.609
753.929, 36.945
755.217, 59.535
756.504, 28.305
757.792, 25.332
759.079, 38.942
760.367, 3.820
761.654, 35.220
762.940, 70.439
764.227, 23.892
765.513, 58.882
766.799, 10.181
768.085, 64.291
769.371, 76.115
770.657, 79.830
771.942, 48.060
773.227, 94.213
774.512, 72.483
775.797, 44.772
777.081, 64.907
778.365, 71.897
779.650, 98.126
780.933, 56.451
782.217, 80.828
783.501, 37.085
784.784, 35.444
786.067, 56.818
787.350, 40.269
788.633, 47.907
789.915, 43.973
791.197, 56.420
792.479, 49.873
793.761, 74.242
795.043, 74.760
796.324, 61.179
797.606, 86.657
798.887, 71.141
800.167, 72.587
801.448, 90.084
802.728, 60.587
804.009, 93.096
805.289, 89.603
806.568, 78.125
807.848, 95.654
809.128, 56.190
810.407, 103.732
811.686, 67.281
812.965, 53.835
814.243, 122.397
815.522, 83.374
816.800, 88.022
818.078, 104.606
819.355, 107.397
820.633, 108.507
821.910, 89.750
823.188, 116.360
824.465, 95.978
825.741, 124.601
827.018, 162.231
828.294, 127.869
829.570, 86.513
830.846, 197.229
832.122, 167.886
833.398, 205.550
834.673, 168.220
835.948, 200.296
837.223, 209.189
838.498, 224.007
839.772, 272.704
841.047, 272.409
842.321, 275.122
843.595, 270.842
844.868, 313.075
846.142, 332.303
847.415, 396.049
848.688, 454.802
849.961, 480.653
851.234, 522.192
852.507, 538.966
853.779, 607.748
855.051, 732.535
856.323, 737.254
857.595, 879.175
858.866, 966.750
860.137, 1049.674
861.409, 1147.495
862.679, 1311.324
863.950, 1521.390
865.221, 1703.232
866.491, 1943.091
867.761, 2186.957
869.031, 2533.831
870.301, 2972.716
871.570, 3377.607
872.839, 3848.506
874.109, 4544.412
875.377, 5300.323
876.646, 6344.243
877.915, 7242.172
879.183, 8432.112
880.451, 9552.165
881.719, 10602.126
882.987, 11452.101
884.254, 11652.076
885.521, 11432.206
886.788, 11002.202
888.055, 9832.203
889.322, 8692.211
890.588, 7412.465
891.855, 6374.491
893.121, 5269.523
894.387, 4411.312
895.652, 3755.370
896.918, 3108.438
898.183, 2479.513
899.448, 2263.598
900.713, 1835.695
901.978, 1642.818
903.242, 1336.952
904.506, 1185.371
905.771, 1095.356
907.034, 975.369
908.298, 813.556
909.562, 692.764
910.825, 726.979
912.088, 602.203
913.351, 517.390
914.613, 471.627
915.876, 371.876
917.138, 342.135
918.400, 341.410
919.662, 344.701
920.924, 280.999
922.185, 368.306
923.447, 294.621
924.708, 275.943
925.969, 196.271
927.229, 208.605
928.490, 222.946
929.750, 206.295
931.010, 167.652
932.270, 157.015
933.530, 157.384
934.789, 149.760
936.048, 125.141
937.308, 180.528
938.566, 113.921
939.825, 91.319
941.084, 134.722
942.342, 93.131
943.600, 89.546
944.858, 105.966
946.116, 41.391
947.373, 126.821
948.630, 83.258
949.888, 124.700
951.144, 136.146
952.401, 102.598
953.658, 95.055
954.914, 97.517
956.170, 90.983
957.426, 85.102
958.682, 111.931
959.937, 65.413
961.193, 79.900
962.448, 59.391
963.703, 110.914
964.957, 22.414
966.212, 13.080
967.466, 3.342
968.720, 23.169
969.974, 7.317
971.228, 5.800
972.482, 12.720
973.735, 4.245
974.988, 24.773
976.241, 3.307
977.494, 6.097
978.746, 8.385
979.999, 4.930
981.251, 2.521
982.503, 17.032
983.755, 24.588
985.006, 11.152
986.258, 11.281
987.509, 28.713
988.760, 4.152
990.011, 30.412
991.261, 20.326
992.512, 31.898
993.762, 28.005
995.012, 16.053
996.262, 1.752
997.511, 25.609
998.761, 1.219
1000.010, 24.472
1001.259, 17.870
1002.508, 33.784
1003.756, 61.371
1005.005, 12.961
1006.253, 40.219
1007.501, 2.639
1008.749, 37.041
1009.996, 2.261
1011.244, 2.312
1012.491, 35.504
1013.738, 4.915
1014.985, 7.667
1016.232, 28.616
1017.478, 28.202
1018.724, 39.812
1019.970, 38.827
1021.216, 33.667
1022.462, 37.065
1023.707, 15.756
1024.953, 29.365
1026.198, 20.016
1027.443, 9.316
1028.687, 57.932
1029.932, 0.381
1031.176, 20.050
1032.420, 48.762
1033.664, 41.399
1034.908, 0.039
1036.152, 10.702
1037.395, 17.353
1038.638, 35.005
1039.881, 1.584
1041.124, 36.072
1042.366, 53.728
1043.609, 11.549
1044.851, 58.104
1046.093, 49.757
1047.335, 16.412
1048.576, 65.069
1049.818, 30.850
1051.059, 113.508
1052.300, 62.646
1053.541, 1.696
1054.781, 59.962
1056.022, 40.620
1057.262, 44.283
1058.502, 46.947
1059.742, 52.331
1060.981, 49.272
1062.221, 59.934
1063.460, 70.598
1064.699, 35.261
1065.938, 61.932
1067.177, 45.594
1068.415, 57.635
1069.653, 59.296
1070.891, 57.956
1072.129, 150.615
1073.367, 62.272
1074.604, 131.955
1075.842, 117.610
1077.079, 54.263
1078.316, 118.456
1079.553, 95.105
1080.789, 89.754
1082.025, 58.401
1083.262, 56.172
1084.498, 36.816
1085.733, 82.532
1086.969, 116.174
1088.204, 68.814
1089.439, 94.452
1090.674, 36.087
1091.909, 72.738
1093.144, 74.369
1094.378, 17.026
1095.612, 23.653
1096.846, 34.524
1098.080, 45.146
1099.314, 29.764
1100.547, 43.400
1101.781, 31.013
1103.014, 68.624
1104.247, 33.285
1105.479, 15.890
1106.712, 47.604
1107.944, 90.311
1109.176, 79.907
1110.408, 65.500
1111.640, 13.095
1112.871, 31.710
1114.102, 19.628
1115.334, 5.801
1116.565, 63.304
1117.795, 56.877
1119.026, 47.247
1120.256, 96.858
1121.486, 98.421
1122.716, 36.980
1123.946, 65.582
1125.176, 33.144
1126.405, 192.764
1127.634, 107.918
1128.863, 108.667
1130.092, 31.413
1131.321, 46.947
1132.549, 25.177
1133.778, 60.702
1135.006, 32.125
1136.233, 38.526
1137.461, 40.910
1138.689, 4.545
1139.916, 86.378
1141.143, 42.875
1142.370, 30.367
1143.597, 13.021
1144.823, 10.415
1146.050, 22.125
1147.276, 1.317
1148.502, 23.135
1149.727, 14.895
1150.953, 27.367
1152.178, 43.905
1153.404, 8.686
1154.629, 41.284
1155.853, 23.890
1157.078, 6.586
1158.302, 73.115
1159.527, 1.864
1160.751, 33.615
1161.975, 40.064
1163.198, 29.556
1164.422, 44.858
1165.645, 25.714
1166.868, 14.818
1168.091, 36.615
1169.314, 62.176
1170.536, 15.545
1171.759, 77.438
1172.981, 24.839
1174.203, 1.493
1175.424, 51.863
1176.646, 19.547
1177.867, 7.044
1179.089, 21.557
1180.310, 41.841
1181.530, 42.494
1182.751, 40.071
1183.971, 100.333
1185.192, 74.545
1186.412, 0.506
1187.632, 68.680
1188.851, 90.056
1190.071, 30.461
1191.290, 52.989
1192.509, 55.305
1193.728, 57.739
1194.947, 68.197
1196.165, 21.344
1197.384, 70.522
1198.602, 6.655
1199.820, 80.148
1201.037, 56.336
1202.255, 127.502
1203.472, 59.694
1204.690, 55.850
1205.907, 54.973
1207.124, 85.213
1208.340, 120.287
1209.557, 54.840
1210.773, 102.901
1211.989, 50.282
1213.205, 80.399
1214.421, 11.470
1215.636, 76.506
1216.851, 68.662
1218.067, 61.802
1219.281, 118.816
1220.496, 47.822
1221.711, 114.940
1222.925, 55.932
1224.139, 6.917
1225.353, 93.889
1226.567, 74.854
1227.781, 69.924
1228.994, 27.070
1230.207, 69.085
1231.421, 39.127
1232.633, 137.336
1233.846, 114.303
1235.059, 76.211
1236.271, 69.204
1237.483, 54.098
1238.695, 118.010
1239.907, 51.893
1241.118, 73.769
1242.330, 20.639
1243.541, 94.503
1244.752, 79.360
1245.963, 55.211
1247.173, 115.082
1248.384, 104.919
1249.594, 47.751
1250.804, 96.577
1252.014, 34.396
1253.223, 35.208
1254.433, 102.013
1255.642, 69.883
1256.851, 60.853
1258.060, 55.609
1259.269, 17.677
1260.478, 64.443
1261.686, 104.973
1262.894, 84.727
1264.102, 91.574
1265.310, 26.315
1266.518, 72.049
1267.725, 66.774
1268.932, 52.825
1270.139, 61.511
1271.346, 47.031
1272.553, 53.721
1273.759, 53.401
1274.966, 75.073
1276.172, 74.732
1277.378, 4.381
1278.583, 80.062
1279.789, 20.687
1280.994, 43.286
1282.200, 99.902
1283.405, 35.474
1284.609, 18.772
1285.814, 94.320
1287.018, 70.881
1288.223, 30.513
1289.427, 46.039
1290.631, 47.313
1291.834, 41.794
1293.038, 42.571
1294.241, 44.043
1295.444, 56.514
1296.647, 39.985
1297.850, 16.456
1299.053, 40.683
1300.255, 18.944
1301.457, 52.563
1302.659, 23.798
1303.861, 5.233
1305.063, 43.043
1306.264, 19.456
1307.466, 77.860
1308.667, 47.891
1309.868, 7.278
1311.068, 32.637
1312.269, 35.545
1313.469, 8.094
1314.669, 48.255
1315.869, 3.510
1317.069, 37.937
1318.269, 12.218
1319.468, 43.842
1320.668, 15.140
1321.867, 11.597
1323.066, 43.173
1324.264, 47.020
1325.463, 7.267
1326.661, 29.497
1327.859, 47.708
1329.057, 58.941
1330.255, 1.858
1331.452, 18.576
1332.650, 20.757
1333.847, 17.930
1335.044, 33.027
1336.241, 24.857
1337.438, 14.333
1338.634, 12.473
1339.830, 59.604
1341.027, 47.604
1342.222, 73.910
1343.418, 8.539
1344.614, 8.742
1345.809, 42.837
1347.004, 34.925
1348.199, 42.005
1349.394, 48.077
1350.589, 23.143
1351.783, 58.201
1352.978, 3.252
1354.172, 86.295
1355.365, 11.783
1356.559, 41.806
1357.753, 50.830
1358.946, 58.468
1360.139, 27.482
1361.332, 28.484
1362.525, 83.477
1363.718, 103.464
1364.910, 28.420
1366.102, 91.398
1367.294, 57.371
1368.486, 86.723
1369.678, 83.602
1370.869, 28.466
1372.061, 19.312
1373.252, 37.012
1374.443, 28.824
1375.634, 12.537
1376.824, 42.308
1378.015, 66.064
1379.205, 31.815
1380.395, 99.168
1381.585, 48.498
1382.775, 108.594
1383.964, 66.932
1385.153, 77.240
1386.343, 65.502
1387.531, 87.692
1388.720, 72.873
1389.909, 48.153
1391.097, 80.033
1392.285, 73.293
1393.473, 70.545
1394.661, 89.565
1395.849, 94.741
1397.037, 114.866
1398.224, 36.968
1399.411, 20.164
1400.598, 111.524
1401.785, 11.225
1402.971, 97.228
1404.158, 226.971
1405.344, 137.750
1406.530, 28.839
1407.716, 103.735
1408.901, 57.709
1410.087, 108.244
1411.272, 63.820
1412.457, 60.540
1413.642, 23.688
1414.827, 97.364
1416.012, 71.682
1417.196, 112.443
1418.380, 77.729
1419.564, 79.822
1420.748, 38.230
1421.932, 52.322
1423.115, 95.431
1424.299, 32.127
1425.482, 101.976
1426.665, 19.424
1427.847, 58.681
1429.030, 34.169
1430.212, 16.125
1431.395, 13.905
1432.577, 30.145
1433.759, 55.278
1434.940, 85.833
1436.122, 61.302
1437.303, 22.259
1438.484, 69.453
1439.665, 34.016
1440.846, 43.503
1442.026, 36.989
1443.207, 43.460
1444.387, 55.135
1445.567, 67.810
1446.747, 56.409
1447.927, 69.183
1449.106, 53.162
1450.286, 37.603
1451.465, 44.686
1452.644, 62.739
1453.822, 43.293
1455.001, 45.823
1456.179, 40.274
1457.358, 39.823
1458.536, 12.207
1459.714, 45.469
1460.891, 97.452
1462.069, 101.125
1463.246, 39.471
1464.423, 60.539
1465.600, 26.830
1466.777, 59.107
1467.954, 67.018
1469.130, 35.267
1470.306, 22.535
1471.483, 57.674
1472.658, 35.982
1473.834, 41.186
1475.010, 45.548
1476.185, 55.353
1477.360, 45.707
1478.535, 48.168
1479.710, 56.436
1480.885, 59.875
1482.059, 104.344
1483.234, 2.802
1484.408, 72.269
1485.582, 8.754
1486.755, 46.234
1487.929, 59.706
1489.102, 61.176
1490.275, 75.160
1491.449, 60.682
1492.621, 82.204
1493.794, 38.682
1494.967, 44.263
1496.139, 17.266
1497.311, 107.372
1498.483, 90.054
1499.655, 67.783
1500.826, 71.550
1501.998, 59.899
1503.169, 31.810
1504.340, 47.517
1505.511, 30.991
1506.682, 35.074
1507.852, 37.920
1509.023, 35.558
1510.193, 74.330
1511.363, 41.641
1512.532, 60.410
1513.702, 32.047
1514.872, 0.797
1516.041, 22.702
1517.210, 11.692
1518.379, 48.912
1519.548, 0.000
##END=



