##NAMES=Hubnerite
##RRUFFID=R050069
##IDEAL CHEMISTRY=Mn^2+^W^6+^O_4_
##LOCALITY=Yaogangxian, Yizhang County, Hunan Province, China
##OWNER=RRUFF
##SOURCE=Rock Currier
##DESCRIPTION=Black colored prismatic single crystal
##STATUS=The identification of this mineral has been confirmed by X-ray diffraction and chemical analysis
##URL=rruff.info/R050069
##MEASURED CHEMISTRY=(Mn_0.68_Fe_0.32_)W_1.00_O_4_
##PIN_ID=L00506
##ORIENTATION=Laser parallel to b* (0 1 0). Fiducial mark perpendicular to laser is parallel to c [0 0 1]
151.324, 0.000
152.710, 86.102
154.096, 104.435
155.481, 204.825
156.866, 73.202
158.251, 138.192
159.636, 2.791
161.020, 110.612
162.405, 112.735
163.789, 52.076
165.172, 183.301
166.556, 175.366
167.939, 160.238
169.322, 188.869
170.705, 93.645
172.088, 224.686
173.470, 194.509
174.853, 182.744
176.234, 116.061
177.616, 110.681
178.998, 74.493
180.379, 127.301
181.760, 125.137
183.141, 47.714
184.521, 27.423
185.902, 5.014
187.282, 160.797
188.662, 196.030
190.042, 245.743
191.421, 137.135
192.800, 207.531
194.179, 197.825
195.558, 292.617
196.937, 381.669
198.315, 473.515
199.693, 557.292
201.071, 633.824
202.449, 715.294
203.826, 796.665
205.203, 884.184
206.580, 1025.570
207.957, 1053.590
209.333, 1034.755
210.710, 961.017
212.086, 876.198
213.462, 820.862
214.837, 715.286
216.213, 579.376
217.588, 568.515
218.963, 466.096
220.337, 457.717
221.712, 361.802
223.086, 345.666
224.460, 325.752
225.834, 326.792
227.207, 286.144
228.581, 292.486
229.954, 232.614
231.327, 203.887
232.699, 131.632
234.072, 136.278
235.444, 92.876
236.816, 113.683
238.188, 59.651
239.559, 139.733
240.931, 59.911
242.302, 121.178
243.673, 86.506
245.043, 26.883
246.414, 70.292
247.784, 39.707
249.154, 69.121
250.523, 64.491
251.893, 101.795
253.262, 92.079
254.631, 130.330
256.000, 163.540
257.369, 51.712
258.737, 79.839
260.105, 114.486
261.473, 90.834
262.841, 150.890
264.208, 74.710
265.576, 71.786
266.943, 150.453
268.310, 124.344
269.676, 127.312
271.042, 42.068
272.409, 37.402
273.775, 22.881
275.140, 0.860
276.506, 30.117
277.871, 35.000
279.236, 23.997
280.601, 17.980
281.965, 49.163
283.330, 81.503
284.694, 33.750
286.058, 13.924
287.421, 6.069
288.785, 35.991
290.148, 13.682
291.511, 46.692
292.874, 35.990
294.236, 98.305
295.599, 37.192
296.961, 40.793
298.323, 70.107
299.684, 70.284
301.046, 115.208
302.407, 108.275
303.768, 139.464
305.129, 66.044
306.489, 121.548
307.850, 204.993
309.210, 141.365
310.570, 224.867
311.929, 252.161
313.289, 368.164
314.648, 412.281
316.007, 546.972
317.366, 656.315
318.724, 797.213
320.083, 929.496
321.441, 1118.429
322.799, 1331.476
324.156, 1536.031
325.514, 1758.952
326.871, 1998.652
328.228, 2126.586
329.585, 2214.188
330.941, 2238.439
332.298, 2159.220
333.654, 2157.743
335.010, 1990.583
336.365, 1912.831
337.721, 1755.815
339.076, 1631.489
340.431, 1491.564
341.786, 1340.245
343.140, 1232.430
344.495, 1123.108
345.849, 1047.527
347.203, 988.835
348.556, 910.384
349.910, 852.381
351.263, 699.005
352.616, 700.489
353.969, 603.303
355.321, 647.192
356.674, 585.231
358.026, 514.849
359.378, 507.539
360.729, 491.610
362.081, 481.161
363.432, 452.568
364.783, 448.944
366.134, 356.922
367.484, 426.945
368.835, 440.787
370.185, 380.372
371.535, 319.847
372.884, 365.194
374.234, 333.501
375.583, 370.610
376.932, 312.781
378.281, 328.581
379.630, 347.229
380.978, 339.654
382.326, 304.681
383.674, 319.540
385.022, 290.852
386.369, 291.505
387.717, 294.965
389.064, 293.848
390.411, 311.490
391.757, 321.166
393.104, 261.374
394.450, 314.439
395.796, 297.857
397.141, 282.568
398.487, 317.494
399.832, 277.793
401.177, 318.224
402.522, 256.708
403.867, 273.198
405.211, 242.392
406.555, 257.373
407.899, 224.171
409.243, 232.002
410.587, 232.744
411.930, 240.398
413.273, 223.900
414.616, 223.978
415.959, 185.838
417.301, 174.042
418.644, 187.274
419.986, 91.443
421.327, 197.840
422.669, 87.988
424.010, 178.498
425.351, 178.640
426.692, 171.960
428.033, 203.804
429.374, 115.090
430.714, 143.948
432.054, 162.277
433.394, 114.545
434.733, 152.095
436.073, 141.308
437.412, 171.221
438.751, 157.772
440.090, 169.521
441.428, 171.194
442.767, 165.629
444.105, 157.666
445.443, 148.339
446.780, 159.415
448.118, 144.594
449.455, 99.930
450.792, 132.084
452.129, 89.064
453.465, 70.920
454.802, 154.960
456.138, 107.365
457.474, 132.292
458.809, 113.181
460.145, 113.479
461.480, 114.056
462.815, 123.744
464.150, 91.371
465.485, 107.188
466.819, 47.232
468.153, 101.754
469.487, 69.845
470.821, 81.057
472.155, 133.172
473.488, 130.314
474.821, 31.871
476.154, 106.496
477.487, 71.282
478.819, 53.976
480.151, 66.699
481.483, 132.290
482.815, 88.765
484.147, 223.635
485.478, 274.329
486.809, 223.277
488.140, 441.366
489.471, 129.373
490.802, 141.316
492.132, 96.366
493.462, 100.506
494.792, 105.334
496.122, 87.036
497.451, 64.678
498.780, 79.262
500.109, 106.835
501.438, 148.308
502.767, 145.801
504.095, 73.171
505.423, 88.529
506.751, 149.794
508.079, 99.014
509.406, 160.198
510.734, 123.341
512.061, 140.436
513.388, 61.484
514.714, 123.483
516.041, 102.436
517.367, 137.343
518.693, 160.233
520.019, 105.028
521.344, 183.802
522.670, 174.534
523.995, 142.223
525.320, 205.871
526.644, 159.139
527.969, 166.664
529.293, 204.190
530.617, 192.321
531.941, 195.425
533.265, 174.556
534.588, 242.521
535.911, 137.611
537.234, 254.426
538.557, 207.277
539.880, 200.178
541.202, 232.020
542.524, 192.689
543.846, 239.396
545.168, 182.961
546.489, 229.508
547.811, 223.048
549.132, 221.564
550.453, 205.134
551.773, 206.725
553.094, 163.049
554.414, 209.578
555.734, 93.026
557.054, 179.394
558.374, 123.899
559.693, 143.225
561.012, 116.714
562.331, 113.932
563.650, 129.212
564.968, 73.352
566.287, 79.542
567.605, 49.592
568.923, 13.336
570.240, 114.724
571.558, 66.809
572.875, 37.816
574.192, 50.811
575.509, 49.635
576.825, 98.396
578.142, 49.199
579.458, 84.595
580.774, 0.572
582.090, 69.787
583.405, 38.515
584.721, 45.230
586.036, 47.091
587.351, 42.319
588.665, 7.042
589.980, 10.490
591.294, 10.965
592.608, 22.500
593.922, 12.968
595.236, 14.610
596.549, 3.805
597.862, 15.322
599.175, 20.269
600.488, 28.292
601.801, 31.494
603.113, 13.977
604.425, 41.459
605.737, 7.103
607.049, 20.384
608.361, 6.935
609.672, 36.385
610.983, 12.329
612.294, 8.871
613.605, 12.580
614.915, 24.755
616.225, 40.193
617.536, 33.551
618.845, 25.094
620.155, 26.244
621.464, 18.807
622.774, 26.914
624.083, 45.134
625.391, 46.170
626.700, 18.428
628.008, 9.456
629.317, 14.693
630.625, 27.051
631.932, 35.388
633.240, 54.300
634.547, 31.516
635.854, 32.575
637.161, 5.550
638.468, 17.566
639.774, 26.847
641.081, 9.064
642.387, 49.573
643.693, 18.332
644.998, 23.951
646.304, 62.678
647.609, 80.888
648.914, 12.143
650.219, 2.799
651.523, 33.267
652.828, 83.347
654.132, 91.345
655.436, 89.630
656.740, 33.199
658.043, 79.265
659.346, 24.500
660.650, 75.719
661.952, 29.631
663.255, 76.604
664.558, 104.829
665.860, 140.839
667.162, 88.102
668.464, 68.208
669.766, 139.383
671.067, 159.226
672.368, 175.325
673.669, 115.335
674.970, 187.490
676.271, 174.739
677.571, 171.759
678.871, 220.108
680.171, 287.418
681.471, 315.592
682.771, 345.015
684.070, 372.273
685.369, 420.562
686.668, 449.977
687.967, 500.391
689.266, 462.809
690.564, 627.155
691.862, 567.565
693.160, 660.761
694.458, 631.162
695.755, 728.559
697.053, 688.951
698.350, 644.346
699.646, 678.737
700.943, 710.134
702.240, 684.527
703.536, 698.918
704.832, 611.311
706.128, 590.700
707.423, 541.103
708.719, 497.502
710.014, 466.894
711.309, 440.290
712.604, 388.399
713.898, 361.791
715.193, 333.970
716.487, 303.375
717.781, 279.605
719.075, 264.830
720.368, 224.124
721.662, 226.191
722.955, 143.290
724.248, 134.271
725.541, 166.418
726.833, 64.685
728.125, 76.759
729.418, 121.718
730.709, 86.739
732.001, 116.762
733.293, 55.998
734.584, 94.037
735.875, 28.232
737.166, 54.031
738.457, 28.182
739.747, 58.212
741.037, 44.277
742.327, 74.744
743.617, 55.508
744.907, 82.440
746.196, 75.853
747.486, 7.677
748.775, 47.348
750.063, 41.343
751.352, 11.758
752.640, 85.422
753.929, 19.304
755.217, 20.712
756.504, 24.190
757.792, 43.240
759.079, 6.582
760.367, 21.499
761.654, 24.537
762.940, 27.594
764.227, 29.651
765.513, 31.164
766.799, 25.775
768.085, 29.428
769.371, 28.931
770.657, 23.114
771.942, 61.371
773.227, 80.045
774.512, 84.134
775.797, 101.676
777.081, 83.993
778.365, 111.247
779.650, 75.588
780.933, 71.946
782.217, 93.198
783.501, 74.157
784.784, 59.247
786.067, 67.569
787.350, 49.936
788.633, 33.394
789.915, 38.767
791.197, 31.158
792.479, 35.447
793.761, 88.799
795.043, 58.199
796.324, 58.138
797.606, 120.655
798.887, 30.050
800.167, 85.478
801.448, 56.046
802.728, 54.618
804.009, 73.028
805.289, 103.292
806.568, 77.813
807.848, 86.409
809.128, 69.012
810.407, 81.037
811.686, 65.190
812.965, 106.813
814.243, 51.368
815.522, 53.001
816.800, 138.601
818.078, 114.248
819.355, 56.901
820.633, 148.560
821.910, 130.225
823.188, 77.896
824.465, 103.572
825.741, 156.256
827.018, 179.946
828.294, 122.643
829.570, 188.377
830.846, 193.546
832.122, 219.488
833.398, 236.208
834.673, 226.933
835.948, 238.665
837.223, 244.101
838.498, 278.843
839.772, 318.592
841.047, 330.083
842.321, 351.671
843.595, 358.747
844.868, 386.517
846.142, 389.292
847.415, 479.073
848.688, 483.858
849.961, 520.648
851.234, 596.955
852.507, 576.770
853.779, 669.469
855.051, 818.280
856.323, 858.096
857.595, 952.852
858.866, 1074.688
860.137, 1209.048
861.409, 1330.896
862.679, 1599.748
863.950, 1709.605
865.221, 1970.468
866.491, 2210.340
867.761, 2460.216
869.031, 2909.098
870.301, 3287.993
871.570, 3673.892
872.839, 4236.799
874.109, 4830.710
875.377, 5682.630
876.646, 6556.559
877.915, 7236.492
879.183, 8256.438
880.451, 8746.391
881.719, 9316.346
882.987, 9576.309
884.254, 9486.280
885.521, 8976.260
886.788, 8286.241
888.055, 7556.232
889.322, 6726.230
890.588, 5852.235
891.855, 5097.246
893.121, 4409.307
894.387, 3705.291
895.652, 3222.333
896.918, 2678.392
898.183, 2270.459
899.448, 1978.537
900.713, 1657.473
901.978, 1509.574
903.242, 1242.682
904.506, 1125.545
905.771, 1003.675
907.034, 932.310
908.298, 928.462
909.562, 799.144
910.825, 737.618
912.088, 631.298
913.351, 564.495
914.613, 526.700
915.876, 470.916
917.138, 417.138
918.400, 367.367
919.662, 328.605
920.924, 364.853
922.185, 286.111
923.447, 294.374
924.708, 288.643
925.969, 201.918
927.229, 338.204
928.490, 263.496
929.750, 252.794
931.010, 231.097
932.270, 200.406
933.530, 201.721
934.789, 259.042
936.048, 207.372
937.308, 209.706
938.566, 175.046
939.825, 116.391
941.084, 154.740
942.342, 133.124
943.600, 175.483
944.858, 158.848
946.116, 105.218
947.373, 93.593
948.630, 83.318
949.888, 77.214
951.144, 80.751
952.401, 96.147
953.658, 97.547
954.914, 107.951
956.170, 123.361
957.426, 121.778
958.682, 120.546
959.937, 91.625
961.193, 109.054
962.448, 97.487
963.703, 100.925
964.957, 47.367
966.212, 83.813
967.466, 25.263
968.720, 28.717
969.974, 62.180
971.228, 14.641
972.482, 63.106
973.735, 14.574
974.988, 43.046
976.241, 41.522
977.494, 53.010
978.746, 20.494
979.999, 0.019
981.251, 10.529
982.503, 5.041
983.755, 2.448
985.006, 46.942
986.258, 4.440
987.509, 53.060
988.760, 24.421
990.011, 37.239
991.261, 67.268
992.512, 28.252
993.762, 6.249
995.012, 85.411
996.262, 41.888
997.511, 22.354
998.761, 13.823
1000.010, 27.294
1001.259, 30.233
1002.508, 1.461
1003.756, 37.074
1005.005, 46.377
1006.253, 36.831
1007.501, 17.298
1008.749, 14.260
1009.996, 63.010
1011.244, 44.432
1012.491, 47.923
1013.738, 5.368
1014.985, 55.999
1016.232, 52.110
1017.478, 27.580
1018.724, 41.041
1019.970, 62.067
1021.216, 68.541
1022.462, 58.098
1023.707, 25.587
1024.953, 76.922
1026.198, 122.483
1027.443, 39.967
1028.687, 72.459
1029.932, 39.969
1031.176, 54.553
1032.420, 44.096
1033.664, 58.772
1034.908, 80.135
1036.152, 68.628
1037.395, 77.683
1038.638, 64.083
1039.881, 62.594
1041.124, 59.187
1042.366, 50.810
1043.609, 43.490
1044.851, 42.727
1046.093, 32.270
1047.335, 36.006
1048.576, 51.518
1049.818, 89.029
1051.059, 114.489
1052.300, 42.137
1053.541, 114.597
1054.781, 13.109
1056.022, 96.621
1057.262, 45.150
1058.502, 85.663
1059.742, 89.181
1060.981, 80.698
1062.221, 58.215
1063.460, 109.963
1064.699, 126.477
1065.938, 84.078
1067.177, 119.597
1068.415, 48.116
1069.653, 44.649
1070.891, 103.166
1072.129, 46.682
1073.367, 91.210
1074.604, 75.722
1075.842, 68.232
1077.079, 122.743
1078.316, 40.252
1079.553, 123.759
1080.789, 44.312
1082.025, 37.179
1083.262, 88.686
1084.498, 100.247
1085.733, 86.823
1086.969, 129.241
1088.204, 44.735
1089.439, 49.229
1090.674, 11.720
1091.909, 35.208
1093.144, 51.695
1094.378, 88.178
1095.612, 100.659
1096.846, 65.137
1098.080, 99.612
1099.314, 43.084
1100.547, 84.658
1101.781, 70.173
1103.014, 75.636
1104.247, 58.381
1105.479, 73.173
1106.712, 102.628
1107.944, 85.079
1109.176, 81.527
1110.408, 74.972
1111.640, 55.836
1112.871, 63.274
1114.102, 34.710
1115.334, 35.006
1116.565, 41.629
1117.795, 21.053
1119.026, 43.972
1120.256, 30.881
1121.486, 26.455
1122.716, 65.864
1123.946, 48.239
1125.176, 24.211
1126.405, 53.752
1127.634, 60.146
1128.863, 77.503
1130.092, 46.427
1131.321, 68.593
1132.549, 46.557
1133.778, 61.928
1135.006, 54.382
1136.233, 37.043
1137.461, 5.401
1138.689, 26.839
1139.916, 13.617
1141.143, 16.957
1142.370, 7.078
1143.597, 23.407
1144.823, 43.817
1146.050, 73.275
1147.276, 41.595
1148.502, 49.937
1149.727, 5.771
1150.953, 49.185
1152.178, 35.657
1153.404, 34.951
1154.629, 30.715
1155.853, 10.785
1157.078, 4.176
1158.302, 69.939
1159.527, 17.185
1160.751, 53.573
1161.975, 6.070
1163.198, 3.491
1164.422, 29.343
1165.645, 60.739
1166.868, 17.519
1168.091, 55.410
1169.314, 15.636
1170.536, 33.065
1171.759, 5.314
1172.981, 17.885
1174.203, 47.191
1175.424, 60.988
1176.646, 35.202
1177.867, 18.505
1179.089, 28.753
1180.310, 72.002
1181.530, 36.173
1182.751, 37.817
1183.971, 7.268
1185.192, 13.660
1186.412, 41.966
1187.632, 23.300
1188.851, 46.523
1190.071, 41.677
1191.290, 89.875
1192.509, 36.929
1193.728, 11.031
1194.947, 59.204
1196.165, 76.323
1197.384, 20.653
1198.602, 17.347
1199.820, 4.616
1201.037, 74.361
1202.255, 60.465
1203.472, 44.433
1204.690, 57.465
1205.907, 65.789
1207.124, 66.965
1208.340, 85.947
1209.557, 12.875
1210.773, 54.794
1211.989, 32.463
1213.205, 99.426
1214.421, 64.623
1215.636, 4.449
1216.851, 126.614
1218.067, 60.579
1219.281, 50.440
1220.496, 79.294
1221.711, 73.140
1222.925, 68.395
1224.139, 84.329
1225.353, 73.153
1226.567, 44.233
1227.781, 10.295
1228.994, 55.216
1230.207, 42.017
1231.421, 84.832
1232.633, 110.665
1233.846, 91.467
1235.059, 146.655
1236.271, 76.471
1237.483, 101.257
1238.695, 131.079
1239.907, 83.814
1241.118, 75.543
1242.330, 94.266
1243.541, 88.982
1244.752, 120.691
1245.963, 34.395
1247.173, 48.090
1248.384, 79.852
1249.594, 15.657
1250.804, 13.358
1252.014, 120.036
1253.223, 119.696
1254.433, 88.349
1255.642, 99.250
1256.851, 9.891
1258.060, 98.521
1259.269, 105.241
1260.478, 47.858
1261.686, 81.469
1262.894, 78.073
1264.102, 26.707
1265.310, 74.968
1266.518, 99.034
1267.725, 100.210
1268.932, 9.925
1270.139, 37.699
1271.346, 29.050
1272.553, 110.564
1273.759, 69.067
1274.966, 74.551
1276.172, 61.028
1277.378, 4.497
1278.583, 81.946
1279.789, 43.386
1280.994, 66.817
1282.200, 96.250
1283.405, 43.335
1284.609, 80.739
1285.814, 67.094
1287.018, 41.503
1288.223, 106.792
1289.427, 44.206
1290.631, 33.665
1291.834, 88.042
1293.038, 59.413
1294.241, 57.771
1295.444, 35.900
1296.647, 50.237
1297.850, 100.778
1299.053, 19.764
1300.255, 27.137
1301.457, 32.343
1302.659, 20.633
1303.861, 68.657
1305.063, 29.026
1306.264, 18.298
1307.466, 7.601
1308.667, 1.987
1309.868, 24.210
1311.068, 4.434
1312.269, 16.912
1313.469, 52.287
1314.669, 17.395
1315.869, 6.563
1317.069, 51.925
1318.269, 26.004
1319.468, 15.847
1320.668, 44.285
1321.867, 24.335
1323.066, 33.052
1324.264, 31.475
1325.463, 48.570
1326.661, 2.637
1327.859, 10.698
1329.057, 10.475
1330.255, 24.375
1331.452, 16.420
1332.650, 26.376
1333.847, 40.805
1335.044, 28.417
1336.241, 61.415
1337.438, 48.371
1338.634, 29.127
1339.830, 40.095
1341.027, 72.054
1342.222, 66.057
1343.418, 48.862
1344.614, 65.064
1345.809, 26.771
1347.004, 57.688
1348.199, 40.582
1349.394, 6.482
1350.589, 15.372
1351.783, 47.254
1352.978, 82.128
1354.172, 125.761
1355.365, 19.380
1356.559, 44.880
1357.753, 10.716
1358.946, 49.544
1360.139, 18.414
1361.332, 34.229
1362.525, 116.037
1363.718, 62.855
1364.910, 64.653
1366.102, 3.445
1367.294, 32.231
1368.486, 80.986
1369.678, 11.734
1370.869, 12.424
1372.061, 26.809
1373.252, 53.521
1374.443, 48.167
1375.634, 41.866
1376.824, 47.801
1378.015, 2.440
1379.205, 39.919
1380.395, 39.157
1381.585, 36.384
1382.775, 98.602
1383.964, 83.810
1385.153, 108.848
1386.343, 75.735
1387.531, 59.553
1388.720, 91.714
1389.909, 95.408
1391.097, 38.542
1392.285, 26.602
1393.473, 49.549
1394.661, 53.651
1395.849, 82.253
1397.037, 83.485
1398.224, 12.111
1399.411, 78.154
1400.598, 65.510
1401.785, 32.439
1402.971, 96.358
1404.158, 56.376
1405.344, 68.267
1406.530, 50.989
1407.716, 84.933
1408.901, 111.699
1410.087, 67.573
1411.272, 89.685
1412.457, 96.796
1413.642, 100.499
1414.827, 74.422
1416.012, 93.207
1417.196, 60.952
1418.380, 69.145
1419.564, 74.482
1420.748, 75.726
1421.932, 79.688
1423.115, 81.620
1424.299, 74.383
1425.482, 68.228
1426.665, 57.600
1427.847, 46.940
1429.030, 32.882
1430.212, 21.238
1431.395, 33.741
1432.577, 13.671
1433.759, 54.778
1434.940, 90.301
1436.122, 54.930
1437.303, 40.474
1438.484, 59.071
1439.665, 2.013
1440.846, 9.165
1442.026, 94.534
1443.207, 43.064
1444.387, 46.624
1445.567, 43.625
1446.747, 7.388
1447.927, 61.769
1449.106, 30.041
1450.286, 62.491
1451.465, 81.587
1452.644, 47.955
1453.822, 57.298
1455.001, 96.619
1456.179, 100.760
1457.358, 101.695
1458.536, 21.907
1459.714, 85.527
1460.891, 37.696
1462.069, 79.609
1463.246, 35.712
1464.423, 48.739
1465.600, 60.775
1466.777, 51.866
1467.954, 46.978
1469.130, 63.140
1470.306, 60.324
1471.483, 59.552
1472.658, 83.778
1473.834, 63.023
1475.010, 34.146
1476.185, 56.992
1477.360, 74.682
1478.535, 58.775
1479.710, 34.895
1480.885, 33.855
1482.059, 42.968
1483.234, 64.092
1484.408, 91.686
1485.582, 40.708
1486.755, 71.825
1487.929, 83.922
1489.102, 43.014
1490.275, 53.896
1491.449, 33.992
1492.621, 83.090
1493.794, 107.189
1494.967, 65.283
1496.139, 47.364
1497.311, 7.576
1498.483, 41.476
1499.655, 64.725
1500.826, 7.020
1501.998, 123.367
1503.169, 43.778
1504.340, 16.227
1505.511, 98.731
1506.682, 32.303
1507.852, 61.950
1509.023, 54.448
1510.193, 81.590
1511.363, 40.637
1512.532, 14.888
1513.702, 23.244
1514.872, 45.665
1516.041, 34.560
1517.210, 0.268
1518.379, 54.872
1519.548, 0.000
##END=



