##NAMES=Hubnerite
##RRUFFID=R050069
##IDEAL CHEMISTRY=Mn^2+^W^6+^O_4_
##LOCALITY=Yaogangxian, Yizhang County, Hunan Province, China
##OWNER=RRUFF
##SOURCE=Rock Currier
##DESCRIPTION=Black colored prismatic single crystal
##STATUS=The identification of this mineral has been confirmed by X-ray diffraction and chemical analysis
##URL=rruff.info/R050069
##MEASURED CHEMISTRY=(Mn_0.68_Fe_0.32_)W_1.00_O_4_
##PIN_ID=L00506
##ORIENTATION=Laser parallel to b* (0 1 0). Fiducial mark perpendicular to laser is parallel to c [0 0 1]
149.938, 0.000
151.324, 21.210
152.710, 18.883
154.096, 101.635
155.481, 49.744
156.866, 98.267
158.251, 31.775
159.636, 21.128
161.020, 77.569
162.405, 3.956
163.789, 96.513
165.172, 69.368
166.556, 168.155
167.939, 90.081
169.322, 105.861
170.705, 161.547
172.088, 143.178
173.470, 138.468
174.853, 131.438
176.234, 115.364
177.616, 54.273
178.998, 73.870
180.379, 56.913
181.760, 14.589
183.141, 2.229
184.521, 83.410
185.902, 132.072
187.282, 188.719
188.662, 140.635
190.042, 169.893
191.421, 109.099
192.800, 195.930
194.179, 191.416
195.558, 274.100
196.937, 316.028
198.315, 272.709
199.693, 296.319
201.071, 313.589
202.449, 290.881
203.826, 317.082
205.203, 297.785
206.580, 332.702
207.957, 254.026
209.333, 300.898
210.710, 270.366
212.086, 184.011
213.462, 252.756
214.837, 199.371
216.213, 154.292
217.588, 118.318
218.963, 110.963
220.337, 109.632
221.712, 104.705
223.086, 136.038
224.460, 153.100
225.834, 161.282
227.207, 164.328
228.581, 179.006
229.954, 164.247
231.327, 197.353
232.699, 202.169
234.072, 192.396
235.444, 121.302
236.816, 141.975
238.188, 113.808
239.559, 90.763
240.931, 106.827
242.302, 76.971
243.673, 29.181
245.043, 26.441
246.414, 82.727
247.784, 122.019
249.154, 103.271
250.523, 137.502
251.893, 48.717
253.262, 141.108
254.631, 132.566
256.000, 132.150
257.369, 238.787
258.737, 158.909
260.105, 229.039
261.473, 208.734
262.841, 222.604
264.208, 274.377
265.576, 315.589
266.943, 265.666
268.310, 223.120
269.676, 138.443
271.042, 148.525
272.409, 143.493
273.775, 143.353
275.140, 109.928
276.506, 39.743
277.871, 49.263
279.236, 10.663
280.601, 22.933
281.965, 37.901
283.330, 29.835
284.694, 4.490
286.058, 43.104
287.421, 24.329
288.785, 28.478
290.148, 16.940
291.511, 3.875
292.874, 11.054
294.236, 26.683
295.599, 32.899
296.961, 0.459
298.323, 37.113
299.684, 1.010
301.046, 80.543
302.407, 34.345
303.768, 73.843
305.129, 51.342
306.489, 50.849
307.850, 69.493
309.210, 92.839
310.570, 90.423
311.929, 168.241
313.289, 191.948
314.648, 252.522
316.007, 349.602
317.366, 384.088
318.724, 493.095
320.083, 613.534
321.441, 765.526
322.799, 963.887
324.156, 1060.696
325.514, 1188.440
326.871, 1244.986
328.228, 1343.042
329.585, 1385.654
330.941, 1385.102
332.298, 1338.921
333.654, 1312.285
335.010, 1226.857
336.365, 1120.420
337.721, 1069.379
339.076, 1057.090
340.431, 877.363
341.786, 859.100
343.140, 743.886
344.495, 699.154
345.849, 681.435
347.203, 652.457
348.556, 531.173
349.910, 605.012
351.263, 492.874
352.616, 494.167
353.969, 419.247
355.321, 471.896
356.674, 400.876
358.026, 465.455
359.378, 425.250
360.729, 394.941
362.081, 457.046
363.432, 352.254
364.783, 443.266
366.134, 422.998
367.484, 312.576
368.835, 377.023
370.185, 411.706
371.535, 329.676
372.884, 314.744
374.234, 378.790
375.583, 344.147
376.932, 343.700
378.281, 389.836
379.630, 369.538
380.978, 407.677
382.326, 348.449
383.674, 349.932
385.022, 311.156
386.369, 408.441
387.717, 417.656
389.064, 480.836
390.411, 524.962
391.757, 608.754
393.104, 652.124
394.450, 827.342
395.796, 953.564
397.141, 1116.718
398.487, 1158.205
399.832, 1254.950
401.177, 1157.287
402.522, 1031.414
403.867, 945.776
405.211, 812.874
406.555, 742.094
407.899, 643.986
409.243, 498.217
410.587, 522.575
411.930, 385.926
413.273, 423.707
414.616, 381.197
415.959, 338.786
417.301, 342.137
418.644, 303.585
419.986, 342.784
421.327, 262.276
422.669, 280.380
424.010, 282.442
425.351, 219.507
426.692, 271.714
428.033, 269.154
429.374, 229.449
430.714, 230.374
432.054, 167.817
433.394, 210.582
434.733, 243.932
436.073, 255.800
437.412, 219.710
438.751, 171.648
440.090, 238.721
441.428, 188.061
442.767, 215.291
444.105, 189.150
445.443, 185.007
446.780, 154.677
448.118, 156.778
449.455, 149.962
450.792, 151.912
452.129, 202.395
453.465, 212.260
454.802, 165.247
456.138, 191.251
457.474, 132.665
458.809, 139.056
460.145, 132.287
461.480, 92.759
462.815, 104.024
464.150, 74.607
465.485, 159.503
466.819, 63.202
468.153, 83.854
469.487, 237.711
470.821, 59.875
472.155, 146.079
473.488, 152.624
474.821, 148.221
476.154, 136.096
477.487, 143.376
478.819, 139.447
480.151, 142.893
481.483, 142.271
482.815, 133.284
484.147, 132.706
485.478, 126.205
486.809, 122.622
488.140, 127.546
489.471, 116.477
490.802, 120.236
492.132, 119.099
493.462, 175.975
494.792, 112.682
496.122, 32.416
497.451, 113.989
498.780, 107.421
500.109, 138.802
501.438, 118.135
502.767, 90.512
504.095, 127.898
505.423, 108.093
506.751, 116.252
508.079, 137.448
509.406, 107.525
510.734, 96.558
512.061, 126.548
513.388, 152.499
514.714, 137.276
516.041, 103.148
517.367, 143.777
518.693, 123.573
520.019, 132.233
521.344, 173.733
522.670, 131.417
523.995, 151.674
525.320, 160.281
526.644, 191.773
527.969, 173.775
529.293, 125.019
530.617, 199.378
531.941, 214.368
533.265, 136.270
534.588, 251.414
535.911, 176.388
537.234, 214.338
538.557, 215.459
539.880, 245.476
541.202, 248.253
542.524, 237.535
543.846, 254.428
545.168, 212.149
546.489, 220.266
547.811, 217.680
549.132, 211.559
550.453, 205.639
551.773, 177.802
553.094, 181.897
554.414, 165.974
555.734, 151.031
557.054, 156.071
558.374, 133.095
559.693, 164.102
561.012, 130.094
562.331, 115.071
563.650, 78.032
564.968, 50.025
566.287, 106.191
567.605, 46.136
568.923, 124.457
570.240, 66.401
571.558, 37.333
572.875, 66.985
574.192, 79.555
575.509, 110.239
576.825, 80.861
578.142, 63.791
579.458, 108.502
580.774, 61.869
582.090, 43.851
583.405, 50.148
584.721, 61.650
586.036, 36.930
587.351, 12.745
588.665, 47.816
589.980, 24.233
591.294, 5.978
592.608, 40.308
593.922, 29.593
595.236, 35.030
596.549, 60.888
597.862, 62.604
599.175, 14.599
600.488, 12.615
601.801, 10.382
603.113, 28.083
604.425, 4.106
605.737, 2.585
607.049, 21.314
608.361, 11.035
609.672, 52.785
610.983, 24.765
612.294, 12.791
613.605, 9.635
614.915, 53.607
616.225, 63.361
617.536, 26.151
618.845, 58.939
620.155, 9.570
621.464, 11.244
622.774, 66.793
624.083, 41.696
625.391, 46.193
626.700, 47.777
628.008, 29.001
629.317, 8.476
630.625, 63.306
631.932, 68.157
633.240, 41.982
634.547, 7.748
635.854, 76.533
637.161, 72.292
638.468, 47.056
639.774, 12.194
641.081, 2.398
642.387, 3.556
643.693, 9.821
644.998, 35.435
646.304, 57.060
647.609, 88.632
648.914, 43.211
650.219, 25.779
651.523, 52.575
652.828, 32.101
654.132, 56.282
655.436, 98.798
656.740, 80.282
658.043, 80.129
659.346, 51.410
660.650, 36.808
661.952, 114.356
663.255, 103.816
664.558, 50.308
665.860, 144.883
667.162, 130.329
668.464, 108.725
669.766, 152.244
671.067, 165.868
672.368, 75.426
673.669, 105.839
674.970, 123.419
676.271, 160.913
677.571, 230.442
678.871, 222.142
680.171, 238.664
681.471, 280.271
682.771, 274.914
684.070, 328.688
685.369, 280.388
686.668, 273.885
687.967, 319.662
689.266, 367.433
690.564, 330.983
691.862, 333.746
693.160, 393.469
694.458, 327.232
695.755, 315.989
697.053, 288.739
698.350, 340.484
699.646, 326.224
700.943, 305.960
702.240, 270.692
703.536, 238.418
704.832, 216.137
706.128, 209.850
707.423, 222.557
708.719, 161.257
710.014, 149.952
711.309, 69.640
712.604, 126.281
713.898, 56.944
715.193, 81.511
716.487, 108.177
717.781, 32.734
719.075, 35.229
720.368, 16.571
721.662, 21.203
722.955, 21.243
724.248, 24.561
725.541, 11.947
726.833, 10.212
728.125, 31.643
729.418, 30.394
730.709, 14.888
732.001, 34.700
733.293, 5.433
734.584, 18.239
735.875, 36.870
737.166, 28.717
738.457, 34.657
739.747, 43.590
741.037, 16.499
742.327, 8.512
743.617, 39.374
744.907, 42.589
746.196, 35.324
747.486, 4.028
748.775, 4.960
750.063, 7.598
751.352, 32.492
752.640, 45.576
753.929, 78.675
755.217, 38.579
756.504, 68.947
757.792, 53.425
759.079, 130.404
760.367, 59.153
761.654, 118.038
762.940, 78.008
764.227, 105.942
765.513, 103.056
766.799, 50.059
768.085, 113.017
769.371, 138.968
770.657, 115.110
771.942, 94.299
773.227, 119.338
774.512, 109.524
775.797, 113.275
777.081, 130.499
778.365, 126.734
779.650, 140.870
780.933, 162.032
782.217, 169.207
783.501, 114.308
784.784, 135.331
786.067, 132.588
787.350, 172.872
788.633, 132.052
789.915, 176.095
791.197, 174.432
792.479, 121.757
793.761, 165.982
795.043, 102.506
796.324, 185.558
797.606, 154.471
798.887, 196.567
800.167, 223.778
801.448, 210.894
802.728, 156.520
804.009, 196.790
805.289, 172.993
806.568, 138.315
807.848, 183.559
809.128, 152.912
810.407, 209.357
811.686, 155.804
812.965, 236.255
814.243, 180.617
815.522, 210.926
816.800, 219.385
818.078, 223.846
819.355, 265.234
820.633, 244.767
821.910, 282.172
823.188, 247.646
824.465, 232.123
825.741, 287.603
827.018, 290.085
828.294, 288.572
829.570, 329.064
830.846, 308.560
832.122, 395.059
833.398, 338.560
834.673, 373.063
835.948, 424.160
837.223, 390.669
838.498, 432.181
839.772, 523.791
841.047, 545.308
842.321, 564.827
843.595, 640.248
844.868, 679.773
846.142, 713.952
847.415, 758.381
848.688, 886.913
849.961, 910.447
851.234, 1017.014
852.507, 1054.702
853.779, 1199.728
855.051, 1317.293
856.323, 1463.830
857.595, 1621.394
858.866, 1792.959
860.137, 1980.527
861.409, 2243.121
862.679, 2527.123
863.950, 2871.264
865.221, 3235.851
866.491, 3682.442
867.761, 4154.034
869.031, 4730.632
870.301, 5267.231
871.570, 6160.836
872.839, 6980.449
874.109, 7950.019
875.377, 9178.420
876.646, 10538.034
877.915, 11866.263
879.183, 13055.856
880.451, 13785.449
881.719, 14553.312
882.987, 14621.373
884.254, 14291.015
885.521, 13338.731
886.788, 12317.971
888.055, 11156.588
889.322, 9524.206
890.588, 8262.280
891.855, 7280.039
893.121, 6077.322
894.387, 5393.038
895.652, 4491.199
896.918, 3816.928
898.183, 3290.310
899.448, 2813.053
900.713, 2451.472
901.978, 2187.214
903.242, 1857.624
904.506, 1703.412
905.771, 1515.208
907.034, 1381.010
908.298, 1256.607
909.562, 1119.635
910.825, 1064.470
912.088, 888.309
913.351, 836.156
914.613, 726.011
915.876, 707.874
917.138, 656.743
918.400, 594.618
919.662, 561.501
920.924, 498.392
922.185, 525.619
923.447, 453.522
924.708, 440.432
925.969, 461.349
927.229, 361.271
928.490, 362.201
929.750, 346.138
931.010, 402.082
932.270, 362.068
933.530, 340.987
934.789, 301.950
936.048, 294.919
937.308, 231.895
938.566, 227.877
939.825, 268.865
941.084, 222.859
942.342, 207.860
943.600, 267.866
944.858, 185.879
946.116, 186.897
947.373, 184.926
948.630, 161.961
949.888, 164.963
951.144, 160.053
952.401, 147.398
953.658, 164.460
954.914, 138.527
956.170, 202.599
957.426, 148.677
958.682, 161.761
959.937, 181.852
961.193, 113.947
962.448, 78.048
963.703, 75.153
964.957, 46.845
966.212, 73.380
967.466, 56.501
968.720, 81.628
969.974, 128.760
971.228, 39.898
972.482, 94.040
973.735, 60.188
974.988, 86.340
976.241, 31.498
977.494, 34.660
978.746, 32.491
979.999, 25.801
981.251, 42.978
982.503, 8.160
983.755, 36.346
985.006, 59.537
986.258, 18.267
987.509, 51.928
988.760, 27.127
990.011, 4.669
991.261, 29.541
992.512, 22.755
993.762, 25.023
995.012, 46.196
996.262, 19.581
997.511, 45.359
998.761, 22.850
1000.010, 7.064
1001.259, 1.717
1002.508, 6.494
1003.756, 14.964
1005.005, 19.261
1006.253, 3.865
1007.501, 32.886
1008.749, 6.124
1009.996, 42.366
1011.244, 59.547
1012.491, 8.948
1013.738, 4.052
1014.985, 59.313
1016.232, 29.635
1017.478, 47.961
1018.724, 52.251
1019.970, 28.627
1021.216, 76.967
1022.462, 23.385
1023.707, 5.694
1024.953, 64.490
1026.198, 30.815
1027.443, 58.153
1028.687, 26.519
1029.932, 55.890
1031.176, 95.298
1032.420, 3.891
1033.664, 75.521
1034.908, 63.037
1036.152, 64.466
1037.395, 95.901
1038.638, 35.384
1039.881, 37.325
1041.124, 24.792
1042.366, 36.270
1043.609, 90.762
1044.851, 43.258
1046.093, 74.478
1047.335, 28.384
1048.576, 86.929
1049.818, 78.452
1051.059, 89.044
1052.300, 2.422
1053.541, 63.150
1054.781, 34.036
1056.022, 76.593
1057.262, 57.153
1058.502, 10.715
1059.742, 50.328
1060.981, 54.431
1062.221, 19.000
1063.460, 57.621
1064.699, 33.228
1065.938, 11.802
1067.177, 89.378
1068.415, 56.004
1069.653, 91.583
1070.891, 6.837
1072.129, 42.741
1073.367, 90.321
1074.604, 48.904
1075.842, 77.488
1077.079, 97.073
1078.316, 56.407
1079.553, 134.295
1080.789, 28.883
1082.025, 11.592
1083.262, 66.181
1084.498, 60.771
1085.733, 117.365
1086.969, 106.961
1088.204, 73.557
1089.439, 27.154
1090.674, 46.752
1091.909, 95.349
1093.144, 27.947
1094.378, 3.590
1095.612, 72.279
1096.846, 30.878
1098.080, 102.476
1099.314, 42.075
1100.547, 22.327
1101.781, 92.305
1103.014, 43.891
1104.247, 35.478
1105.479, 53.065
1106.712, 81.652
1107.944, 87.239
1109.176, 90.824
1110.408, 62.410
1111.640, 52.995
1112.871, 8.580
1114.102, 8.164
1115.334, 39.747
1116.565, 38.331
1117.795, 79.003
1119.026, 71.498
1120.256, 29.166
1121.486, 61.841
1122.716, 38.420
1123.946, 27.001
1125.176, 40.579
1126.405, 1.155
1127.634, 8.255
1128.863, 36.311
1130.092, 33.876
1131.321, 33.439
1132.549, 30.001
1133.778, 44.834
1135.006, 57.531
1136.233, 75.088
1137.461, 55.643
1138.689, 64.558
1139.916, 47.109
1141.143, 34.475
1142.370, 30.123
1143.597, 27.848
1144.823, 83.620
1146.050, 40.260
1147.276, 44.822
1148.502, 66.410
1149.727, 37.911
1150.953, 18.708
1152.178, 49.330
1153.404, 11.156
1154.629, 18.651
1155.853, 44.859
1157.078, 15.376
1158.302, 12.071
1159.527, 1.510
1160.751, 10.351
1161.975, 24.925
1163.198, 6.790
1164.422, 9.813
1165.645, 25.483
1166.868, 7.466
1168.091, 12.182
1169.314, 12.307
1170.536, 42.385
1171.759, 33.792
1172.981, 31.746
1174.203, 56.280
1175.424, 38.042
1176.646, 41.861
1177.867, 30.792
1179.089, 4.406
1180.310, 81.737
1181.530, 16.443
1182.751, 89.189
1183.971, 71.614
1185.192, 29.104
1186.412, 3.754
1187.632, 55.094
1188.851, 79.545
1190.071, 55.018
1191.290, 59.397
1192.509, 65.771
1193.728, 18.197
1194.947, 37.198
1196.165, 77.713
1197.384, 29.069
1198.602, 54.428
1199.820, 39.480
1201.037, 12.307
1202.255, 68.712
1203.472, 56.052
1204.690, 51.452
1205.907, 39.828
1207.124, 7.173
1208.340, 74.532
1209.557, 40.751
1210.773, 44.987
1211.989, 97.193
1213.205, 64.495
1214.421, 42.812
1215.636, 81.086
1216.851, 104.783
1218.067, 114.379
1219.281, 69.543
1220.496, 94.860
1221.711, 127.071
1222.925, 83.233
1224.139, 46.375
1225.353, 118.515
1226.567, 100.648
1227.781, 30.828
1228.994, 140.948
1230.207, 69.061
1231.421, 113.976
1232.633, 103.179
1233.846, 63.473
1235.059, 78.558
1236.271, 101.636
1237.483, 71.705
1238.695, 102.771
1239.907, 53.830
1241.118, 42.885
1242.330, 93.936
1243.541, 93.981
1244.752, 129.021
1245.963, 86.057
1247.173, 54.840
1248.384, 115.865
1249.594, 126.888
1250.804, 102.062
1252.014, 100.073
1253.223, 84.077
1254.433, 98.077
1255.642, 87.082
1256.851, 82.092
1258.060, 107.076
1259.269, 94.066
1260.478, 91.121
1261.686, 113.097
1262.894, 49.053
1264.102, 113.004
1265.310, 77.949
1266.518, 48.888
1267.725, 98.908
1268.932, 71.836
1270.139, 89.798
1271.346, 115.713
1272.553, 69.487
1273.759, 116.699
1274.966, 79.568
1276.172, 85.429
1277.378, 75.281
1278.583, 81.114
1279.789, 122.946
1280.994, 122.718
1282.200, 83.480
1283.405, 19.315
1284.609, 92.058
1285.814, 6.792
1287.018, 98.516
1288.223, 121.235
1289.427, 61.956
1290.631, 80.651
1291.834, 71.323
1293.038, 64.987
1294.241, 92.686
1295.444, 88.716
1296.647, 93.939
1297.850, 98.299
1299.053, 87.075
1300.255, 70.385
1301.457, 68.410
1302.659, 59.445
1303.861, 49.244
1305.063, 39.676
1306.264, 23.400
1307.466, 6.043
1308.667, 24.554
1309.868, 31.967
1311.068, 13.480
1312.269, 27.904
1313.469, 57.375
1314.669, 27.747
1315.869, 19.222
1317.069, 38.271
1318.269, 19.237
1319.468, 54.802
1320.668, 15.926
1321.867, 41.678
1323.066, 28.676
1324.264, 50.628
1325.463, 20.980
1326.661, 18.220
1327.859, 55.549
1329.057, 38.868
1330.255, 23.138
1331.452, 70.952
1332.650, 43.304
1333.847, 37.585
1335.044, 57.858
1336.241, 58.122
1337.438, 44.378
1338.634, 4.504
1339.830, 29.729
1341.027, 56.958
1342.222, 2.884
1343.418, 0.326
1344.614, 26.497
1345.809, 38.353
1347.004, 52.527
1348.199, 37.693
1349.394, 40.851
1350.589, 46.952
1351.783, 40.552
1352.978, 94.681
1354.172, 66.754
1355.365, 83.358
1356.559, 47.948
1357.753, 90.052
1358.946, 68.102
1360.139, 77.195
1361.332, 111.284
1362.525, 25.380
1363.718, 19.460
1364.910, 58.535
1366.102, 68.606
1367.294, 77.674
1368.486, 80.866
1369.678, 91.932
1370.869, 59.997
1372.061, 91.942
1373.252, 88.044
1374.443, 1.115
1375.634, 48.164
1376.824, 32.074
1378.015, 82.919
1379.205, 122.682
1380.395, 92.373
1381.585, 119.658
1382.775, 93.303
1383.964, 109.821
1385.153, 83.330
1386.343, 72.792
1387.531, 73.295
1388.720, 104.780
1389.909, 63.257
1391.097, 78.725
1392.285, 73.182
1393.473, 38.529
1394.661, 147.963
1395.849, 77.280
1397.037, 115.689
1398.224, 72.073
1399.411, 69.473
1400.598, 86.863
1401.785, 72.243
1402.971, 55.615
1404.158, 72.427
1405.344, 106.784
1406.530, 87.039
1407.716, 115.329
1408.901, 99.576
1410.087, 53.887
1411.272, 112.201
1412.457, 65.463
1413.642, 135.558
1414.827, 113.240
1416.012, 84.244
1417.196, 86.473
1418.380, 103.231
1419.564, 77.986
1420.748, 91.341
1421.932, 54.002
1423.115, 67.697
1424.299, 91.116
1425.482, 37.475
1426.665, 56.827
1427.847, 88.641
1429.030, 67.317
1430.212, 81.882
1431.395, 52.565
1432.577, 63.708
1433.759, 87.128
1434.940, 62.601
1436.122, 38.965
1437.303, 77.381
1438.484, 51.150
1439.665, 56.774
1440.846, 86.530
1442.026, 48.306
1443.207, 94.967
1444.387, 48.577
1445.567, 59.292
1446.747, 57.884
1447.927, 63.564
1449.106, 52.459
1450.286, 61.689
1451.465, 36.302
1452.644, 77.890
1453.822, 142.445
1455.001, 40.965
1456.179, 94.358
1457.358, 58.799
1458.536, 27.853
1459.714, 34.217
1460.891, 55.467
1462.069, 0.281
1463.246, 70.738
1464.423, 63.950
1465.600, 56.116
1466.777, 80.010
1467.954, 79.968
1469.130, 102.046
1470.306, 67.159
1471.483, 59.286
1472.658, 136.532
1473.834, 22.687
1475.010, 79.071
1476.185, 138.437
1477.360, 88.419
1478.535, 69.346
1479.710, 104.753
1480.885, 33.302
1482.059, 94.828
1483.234, 77.384
1484.408, 53.930
1485.582, 34.497
1486.755, 57.942
1487.929, 85.540
1489.102, 120.073
1490.275, 132.074
1491.449, 96.844
1492.621, 136.946
1493.794, 109.575
1494.967, 62.259
1496.139, 92.997
1497.311, 36.787
1498.483, 57.244
1499.655, 53.110
1500.826, 87.013
1501.998, 104.858
1503.169, 35.837
1504.340, 94.810
1505.511, 133.894
1506.682, 57.071
1507.852, 75.470
1509.023, 10.015
1510.193, 55.644
1511.363, 67.480
1512.532, 56.357
1513.702, 40.640
1514.872, 65.236
1516.041, 10.013
1517.210, 68.554
1518.379, 21.995
1519.548, 38.858
1520.716, 0.000
##END=



