##NAMES=Hubnerite
##RRUFFID=R050069
##IDEAL CHEMISTRY=Mn^2+^W^6+^O_4_
##LOCALITY=Yaogangxian, Yizhang County, Hunan Province, China
##OWNER=RRUFF
##SOURCE=Rock Currier
##DESCRIPTION=Black colored prismatic single crystal
##STATUS=The identification of this mineral has been confirmed by X-ray diffraction and chemical analysis
##URL=rruff.info/R050069
##MEASURED CHEMISTRY=(Mn_0.68_Fe_0.32_)W_1.00_O_4_
##PIN_ID=L00211
##ORIENTATION=Laser parallel to a* (1 0 0). Fiducial mark perpendicular to laser is parallel to -b [0 -1 0]
151.324, 0.000
152.710, 9.412
154.096, 14.973
155.481, 96.324
156.866, 46.316
158.251, 94.904
159.636, 45.004
161.020, 59.679
162.405, 5.372
163.789, 32.112
165.172, 77.101
166.556, 133.674
167.939, 60.382
169.322, 38.828
170.705, 65.351
172.088, 84.572
173.470, 131.184
174.853, 75.408
176.234, 42.142
177.616, 137.036
178.998, 73.704
180.379, 50.551
181.760, 38.375
183.141, 51.369
184.521, 47.903
185.902, 35.837
187.282, 75.364
188.662, 87.563
190.042, 104.819
191.421, 72.587
192.800, 100.761
194.179, 195.778
195.558, 154.193
196.937, 273.346
198.315, 345.062
199.693, 357.598
201.071, 444.462
202.449, 483.108
203.826, 695.000
205.203, 799.382
206.580, 899.888
207.957, 1010.247
209.333, 1035.780
210.710, 1071.536
212.086, 1007.104
213.462, 847.961
214.837, 790.307
216.213, 590.219
217.588, 468.349
218.963, 442.656
220.337, 358.107
221.712, 218.252
223.086, 267.782
224.460, 218.539
225.834, 201.926
227.207, 217.778
228.581, 176.306
229.954, 187.248
231.327, 123.002
232.699, 98.012
234.072, 100.085
235.444, 61.615
236.816, 91.942
238.188, 45.567
239.559, 57.286
240.931, 84.076
242.302, 104.931
243.673, 24.828
245.043, 9.762
246.414, 30.718
247.784, 21.314
249.154, 51.649
250.523, 29.980
251.893, 16.421
253.262, 21.193
254.631, 30.888
256.000, 14.022
257.369, 21.943
258.737, 0.240
260.105, 12.646
261.473, 22.634
262.841, 54.073
264.208, 41.086
265.576, 71.461
266.943, 53.349
268.310, 57.543
269.676, 111.542
271.042, 48.695
272.409, 61.770
273.775, 51.765
275.140, 12.671
276.506, 67.484
277.871, 17.203
279.236, 14.834
280.601, 63.365
281.965, 24.217
283.330, 30.778
284.694, 20.691
286.058, 6.919
287.421, 16.874
288.785, 12.959
290.148, 14.142
291.511, 7.631
292.874, 45.414
294.236, 32.079
295.599, 10.698
296.961, 53.237
298.323, 44.525
299.684, 69.557
301.046, 58.457
302.407, 61.059
303.768, 32.485
305.129, 43.656
306.489, 28.611
307.850, 120.508
309.210, 111.625
310.570, 157.260
311.929, 141.827
313.289, 189.096
314.648, 223.410
316.007, 327.778
317.366, 395.974
318.724, 504.242
320.083, 601.374
321.441, 688.189
322.799, 846.639
324.156, 1053.736
325.514, 1167.682
326.871, 1267.545
328.228, 1414.836
329.585, 1395.859
330.941, 1364.032
332.298, 1237.752
333.654, 1101.947
335.010, 1057.188
336.365, 874.260
337.721, 806.615
339.076, 683.373
340.431, 551.639
341.786, 525.330
343.140, 519.454
344.495, 438.319
345.849, 391.891
347.203, 411.417
348.556, 278.761
349.910, 306.852
351.263, 261.095
352.616, 271.224
353.969, 287.268
355.321, 267.979
356.674, 269.674
358.026, 234.595
359.378, 233.165
360.729, 250.007
362.081, 225.699
363.432, 228.224
364.783, 258.628
366.134, 220.881
367.484, 241.995
368.835, 230.985
370.185, 200.862
371.535, 234.644
372.884, 270.339
374.234, 287.954
375.583, 272.487
376.932, 256.932
378.281, 229.294
379.630, 260.576
380.978, 291.725
382.326, 307.792
383.674, 257.758
385.022, 275.031
386.369, 329.320
387.717, 333.312
389.064, 392.177
390.411, 451.054
391.757, 514.699
393.104, 645.339
394.450, 792.549
395.796, 1042.519
397.141, 1256.486
398.487, 1484.026
399.832, 1655.885
401.177, 1567.168
402.522, 1406.601
403.867, 1202.329
405.211, 1004.208
406.555, 756.039
407.899, 621.425
409.243, 555.345
410.587, 430.902
411.930, 376.119
413.273, 259.969
414.616, 290.794
415.959, 225.415
417.301, 156.214
418.644, 170.139
419.986, 149.704
421.327, 195.457
422.669, 67.792
424.010, 84.345
425.351, 107.320
426.692, 64.180
428.033, 127.434
429.374, 74.591
430.714, 144.783
432.054, 41.763
433.394, 70.673
434.733, 57.956
436.073, 63.980
437.412, 36.338
438.751, 93.624
440.090, 63.087
441.428, 51.648
442.767, 21.697
444.105, 15.978
445.443, 72.904
446.780, 12.381
448.118, 69.447
449.455, 47.716
450.792, 45.888
452.129, 44.930
453.465, 56.130
454.802, 46.930
456.138, 63.097
457.474, 62.329
458.809, 60.275
460.145, 63.618
461.480, 49.312
462.815, 31.030
464.150, 13.688
465.485, 69.953
466.819, 57.701
468.153, 76.910
469.487, 48.880
470.821, 92.842
472.155, 84.325
473.488, 58.886
474.821, 90.135
476.154, 59.348
477.487, 51.043
478.819, 77.728
480.151, 96.714
481.483, 65.071
482.815, 110.334
484.147, 111.705
485.478, 100.057
486.809, 104.172
488.140, 117.316
489.471, 178.612
490.802, 117.755
492.132, 123.564
493.462, 172.711
494.792, 143.983
496.122, 155.936
497.451, 94.613
498.780, 143.587
500.109, 207.649
501.438, 145.823
502.767, 196.658
504.095, 170.192
505.423, 221.215
506.751, 202.894
508.079, 253.538
509.406, 267.833
510.734, 254.188
512.061, 303.323
513.388, 327.470
514.714, 269.655
516.041, 344.732
517.367, 280.789
518.693, 342.670
520.019, 382.519
521.344, 370.411
522.670, 366.174
523.995, 418.922
525.320, 454.772
526.644, 488.440
527.969, 491.172
529.293, 548.835
530.617, 558.350
531.941, 700.985
533.265, 725.747
534.588, 832.562
535.911, 865.292
537.234, 873.937
538.557, 958.446
539.880, 969.066
541.202, 1002.798
542.524, 1013.579
543.846, 1063.133
545.168, 1019.745
546.489, 983.515
547.811, 914.266
549.132, 943.000
550.453, 865.717
551.773, 892.418
553.094, 718.102
554.414, 671.772
555.734, 584.429
557.054, 539.072
558.374, 508.703
559.693, 418.321
561.012, 440.929
562.331, 358.525
563.650, 294.109
564.968, 293.679
566.287, 288.241
567.605, 211.795
568.923, 211.341
570.240, 194.887
571.558, 168.424
572.875, 164.850
574.192, 151.377
575.509, 141.674
576.825, 138.681
578.142, 114.759
579.458, 115.752
580.774, 93.944
582.090, 93.604
583.405, 115.333
584.721, 85.155
586.036, 71.794
587.351, 36.692
588.665, 34.774
589.980, 5.265
591.294, 62.221
592.608, 5.857
593.922, 31.433
595.236, 25.030
596.549, 0.594
597.862, 16.308
599.175, 2.473
600.488, 32.062
601.801, 23.380
603.113, 5.679
604.425, 8.453
605.737, 20.946
607.049, 28.639
608.361, 24.890
609.672, 57.736
610.983, 24.280
612.294, 26.879
613.605, 44.467
614.915, 16.145
616.225, 80.830
617.536, 2.495
618.845, 37.189
620.155, 2.811
621.464, 16.352
622.774, 27.797
624.083, 5.504
625.391, 18.861
626.700, 27.849
628.008, 14.436
629.317, 28.201
630.625, 31.926
631.932, 7.539
633.240, 45.276
634.547, 18.877
635.854, 9.437
637.161, 6.901
638.468, 15.491
639.774, 14.701
641.081, 17.843
642.387, 18.417
643.693, 14.789
644.998, 16.302
646.304, 20.054
647.609, 18.108
648.914, 12.434
650.219, 5.251
651.523, 2.910
652.828, 30.892
654.132, 13.306
655.436, 5.226
656.740, 2.042
658.043, 25.165
659.346, 9.550
660.650, 14.604
661.952, 4.804
663.255, 20.016
664.558, 19.827
665.860, 39.631
667.162, 46.428
668.464, 49.094
669.766, 78.007
671.067, 48.788
672.368, 70.563
673.669, 61.333
674.970, 145.099
676.271, 146.860
677.571, 176.617
678.871, 181.369
680.171, 154.118
681.471, 222.869
682.771, 173.615
684.070, 288.358
685.369, 307.099
686.668, 304.839
687.967, 346.575
689.266, 377.309
690.564, 354.039
691.862, 436.765
693.160, 411.488
694.458, 482.209
695.755, 459.930
697.053, 496.654
698.350, 444.380
699.646, 490.110
700.943, 464.836
702.240, 441.559
703.536, 446.279
704.832, 393.996
706.128, 360.709
707.423, 351.419
708.719, 289.125
710.014, 305.829
711.309, 299.533
712.604, 189.233
713.898, 180.931
715.193, 144.626
716.487, 170.319
717.781, 154.008
719.075, 147.696
720.368, 121.380
721.662, 101.063
722.955, 122.744
724.248, 31.422
725.541, 90.098
726.833, 114.772
728.125, 17.446
729.418, 72.118
730.709, 54.789
732.001, 82.458
733.293, 51.127
734.584, 56.797
735.875, 17.466
737.166, 66.081
738.457, 26.701
739.747, 45.373
741.037, 5.969
742.327, 40.516
743.617, 9.079
744.907, 41.319
746.196, 37.395
747.486, 37.920
748.775, 68.215
750.063, 51.625
751.352, 2.987
752.640, 48.303
753.929, 33.333
755.217, 34.856
756.504, 14.279
757.792, 4.674
759.079, 2.997
760.367, 4.930
761.654, 0.948
762.940, 16.192
764.227, 16.624
765.513, 25.562
766.799, 36.642
768.085, 33.102
769.371, 34.642
770.657, 41.070
771.942, 48.829
773.227, 57.036
774.512, 76.569
775.797, 92.966
777.081, 116.426
778.365, 100.940
779.650, 130.099
780.933, 63.594
782.217, 77.128
783.501, 92.612
784.784, 145.159
786.067, 87.727
787.350, 156.200
788.633, 135.837
789.915, 100.370
791.197, 142.871
792.479, 102.018
793.761, 134.745
795.043, 176.518
796.324, 110.137
797.606, 166.730
798.887, 194.516
800.167, 164.233
801.448, 177.757
802.728, 184.393
804.009, 163.323
805.289, 195.875
806.568, 194.266
807.848, 233.938
809.128, 193.851
810.407, 287.429
811.686, 216.884
812.965, 252.116
814.243, 272.945
815.522, 256.694
816.800, 294.059
818.078, 254.738
819.355, 234.422
820.633, 324.196
821.910, 312.127
823.188, 292.933
824.465, 331.741
825.741, 377.552
827.018, 387.366
828.294, 393.183
829.570, 368.003
830.846, 419.826
832.122, 401.652
833.398, 434.620
834.673, 427.376
835.948, 487.215
837.223, 591.233
838.498, 555.240
839.772, 585.410
841.047, 666.262
842.321, 680.116
843.595, 745.973
844.868, 716.833
846.142, 752.696
847.415, 846.977
848.688, 918.061
849.961, 941.506
851.234, 1049.819
852.507, 1115.943
853.779, 1183.826
855.051, 1406.711
856.323, 1452.600
857.595, 1621.493
858.866, 1733.388
860.137, 1976.288
861.409, 2134.191
862.679, 2399.098
863.950, 2635.622
865.221, 3006.534
866.491, 3362.455
867.761, 3803.378
869.031, 4350.303
870.301, 4921.234
871.570, 5732.167
872.839, 6499.104
874.109, 7608.195
875.377, 8818.138
876.646, 10308.087
877.915, 11848.040
879.183, 13697.998
880.451, 15198.551
881.719, 16478.521
882.987, 17538.498
884.254, 17438.484
885.521, 16618.467
886.788, 15358.451
888.055, 13428.443
889.322, 11478.442
890.588, 9648.442
891.855, 7978.449
893.121, 6484.458
894.387, 5331.473
895.652, 4441.492
896.918, 3569.106
898.183, 2977.135
899.448, 2492.170
900.713, 2081.210
901.978, 1843.256
903.242, 1513.306
904.506, 1348.238
905.771, 1186.298
907.034, 1061.731
908.298, 990.801
909.562, 777.876
910.825, 753.962
912.088, 657.936
913.351, 561.842
914.613, 528.897
915.876, 467.740
917.138, 416.123
918.400, 392.242
919.662, 374.366
920.924, 319.496
922.185, 325.629
923.447, 275.768
924.708, 213.910
925.969, 197.058
927.229, 167.594
928.490, 157.897
929.750, 148.528
931.010, 160.694
932.270, 166.866
933.530, 168.047
934.789, 153.233
936.048, 89.423
937.308, 113.617
938.566, 134.816
939.825, 104.018
941.084, 149.226
942.342, 120.438
943.600, 141.655
944.858, 110.878
946.116, 75.109
947.373, 159.347
948.630, 101.594
949.888, 93.849
951.144, 105.111
952.401, 85.382
953.658, 104.661
954.914, 112.949
956.170, 117.244
957.426, 90.543
958.682, 64.846
959.937, 73.154
961.193, 76.468
962.448, 116.787
963.703, 46.109
964.957, 74.442
966.212, 16.778
967.466, 71.251
968.720, 35.600
969.974, 84.951
971.228, 17.307
972.482, 4.335
973.735, 36.025
974.988, 53.388
976.241, 28.754
977.494, 45.123
978.746, 37.630
979.999, 5.005
981.251, 8.382
982.503, 22.762
983.755, 3.929
985.006, 20.544
986.258, 23.834
987.509, 4.784
988.760, 4.402
990.011, 7.985
991.261, 3.398
992.512, 7.782
993.762, 11.170
995.012, 10.560
996.262, 5.715
997.511, 9.653
998.761, 5.260
1000.010, 31.866
1001.259, 29.484
1002.508, 25.958
1003.756, 5.468
1005.005, 19.833
1006.253, 21.340
1007.501, 5.710
1008.749, 8.084
1009.996, 5.878
1011.244, 29.257
1012.491, 24.637
1013.738, 12.981
1014.985, 44.402
1016.232, 2.800
1017.478, 39.186
1018.724, 56.601
1019.970, 25.030
1021.216, 23.427
1022.462, 47.836
1023.707, 2.762
1024.953, 40.674
1026.198, 22.407
1027.443, 23.817
1028.687, 34.113
1029.932, 10.487
1031.176, 46.924
1032.420, 44.337
1033.664, 18.763
1034.908, 40.180
1036.152, 16.602
1037.395, 52.028
1038.638, 83.747
1039.881, 31.869
1041.124, 38.302
1042.366, 25.792
1043.609, 26.229
1044.851, 5.018
1046.093, 17.459
1047.335, 49.904
1048.576, 20.362
1049.818, 41.118
1051.059, 81.566
1052.300, 36.015
1053.541, 79.466
1054.781, 66.918
1056.022, 32.371
1057.262, 23.832
1058.502, 31.294
1059.742, 24.569
1060.981, 26.571
1062.221, 36.112
1063.460, 35.460
1064.699, 37.182
1065.938, 44.729
1067.177, 58.207
1068.415, 71.730
1069.653, 28.284
1070.891, 55.813
1072.129, 66.362
1073.367, 100.899
1074.604, 58.384
1075.842, 118.875
1077.079, 51.365
1078.316, 71.855
1079.553, 120.345
1080.789, 69.834
1082.025, 11.424
1083.262, 87.912
1084.498, 61.399
1085.733, 29.886
1086.969, 64.372
1088.204, 87.862
1089.439, 53.514
1090.674, 31.113
1091.909, 93.661
1093.144, 55.177
1094.378, 84.658
1095.612, 91.139
1096.846, 41.618
1098.080, 25.097
1099.314, 51.573
1100.547, 69.054
1101.781, 104.528
1103.014, 58.050
1104.247, 32.523
1105.479, 33.993
1106.712, 75.463
1107.944, 27.930
1109.176, 67.397
1110.408, 44.862
1111.640, 49.325
1112.871, 48.787
1114.102, 21.247
1115.334, 4.705
1116.565, 14.760
1117.795, 49.618
1119.026, 41.099
1120.256, 30.551
1121.486, 55.943
1122.716, 43.391
1123.946, 16.837
1125.176, 69.281
1126.405, 5.777
1127.634, 38.215
1128.863, 18.652
1130.092, 45.115
1131.321, 8.454
1132.549, 47.848
1133.778, 35.347
1135.006, 66.763
1136.233, 64.045
1137.461, 11.294
1138.689, 47.380
1139.916, 74.787
1141.143, 21.192
1142.370, 40.594
1143.597, 50.994
1144.823, 34.392
1146.050, 57.385
1147.276, 21.562
1148.502, 47.379
1149.727, 3.382
1150.953, 6.520
1152.178, 51.915
1153.404, 3.293
1154.629, 19.665
1155.853, 19.476
1157.078, 2.158
1158.302, 28.201
1159.527, 34.557
1160.751, 29.910
1161.975, 19.928
1163.198, 11.638
1164.422, 44.138
1165.645, 15.638
1166.868, 14.707
1168.091, 55.583
1169.314, 22.013
1170.536, 36.521
1171.759, 16.813
1172.981, 0.124
1174.203, 24.428
1175.424, 8.332
1176.646, 25.819
1177.867, 40.908
1179.089, 44.533
1180.310, 24.901
1181.530, 96.291
1182.751, 41.324
1183.971, 68.382
1185.192, 2.279
1186.412, 4.483
1187.632, 58.869
1188.851, 18.462
1190.071, 49.761
1191.290, 1.401
1192.509, 59.973
1193.728, 53.180
1194.947, 30.480
1196.165, 2.779
1197.384, 68.048
1198.602, 42.383
1199.820, 51.630
1201.037, 44.876
1202.255, 75.179
1203.472, 44.441
1204.690, 89.725
1205.907, 13.980
1207.124, 56.232
1208.340, 18.502
1209.557, 6.371
1210.773, 5.826
1211.989, 22.156
1213.205, 42.347
1214.421, 28.633
1215.636, 21.724
1216.851, 27.827
1218.067, 27.100
1219.281, 30.007
1220.496, 47.156
1221.711, 63.438
1222.925, 57.691
1224.139, 68.649
1225.353, 50.734
1226.567, 53.135
1227.781, 20.810
1228.994, 50.845
1230.207, 56.868
1231.421, 67.886
1232.633, 50.973
1233.846, 44.980
1235.059, 16.166
1236.271, 20.159
1237.483, 31.148
1238.695, 39.132
1239.907, 77.112
1241.118, 58.094
1242.330, 64.067
1243.541, 89.035
1244.752, 66.999
1245.963, 46.959
1247.173, 80.919
1248.384, 37.056
1249.594, 132.004
1250.804, 89.654
1252.014, 108.918
1253.223, 76.852
1254.433, 60.813
1255.642, 98.846
1256.851, 109.768
1258.060, 76.752
1259.269, 79.665
1260.478, 112.573
1261.686, 78.951
1262.894, 74.851
1264.102, 44.747
1265.310, 76.701
1266.518, 34.588
1267.725, 53.518
1268.932, 94.393
1270.139, 92.263
1271.346, 39.242
1272.553, 126.965
1273.759, 77.816
1274.966, 45.654
1276.172, 53.486
1277.378, 48.387
1278.583, 92.282
1279.789, 77.096
1280.994, 41.904
1282.200, 113.701
1283.405, 54.451
1284.609, 56.535
1285.814, 68.307
1287.018, 53.146
1288.223, 62.108
1289.427, 65.858
1290.631, 50.602
1291.834, 81.355
1293.038, 106.088
1294.241, 40.904
1295.444, 84.489
1296.647, 50.215
1297.850, 53.925
1299.053, 99.491
1300.255, 6.175
1301.457, 60.841
1302.659, 81.082
1303.861, 106.797
1305.063, 55.445
1306.264, 13.088
1307.466, 33.794
1308.667, 5.307
1309.868, 20.188
1311.068, 1.215
1312.269, 2.105
1313.469, 27.995
1314.669, 18.576
1315.869, 24.159
1317.069, 56.702
1318.269, 57.942
1319.468, 4.500
1320.668, 15.197
1321.867, 41.747
1323.066, 6.279
1324.264, 25.801
1325.463, 21.305
1326.661, 3.189
1327.859, 3.659
1329.057, 1.175
1330.255, 59.011
1331.452, 21.786
1332.650, 5.241
1333.847, 31.633
1335.044, 3.068
1336.241, 5.145
1337.438, 49.611
1338.634, 26.112
1339.830, 25.500
1341.027, 30.584
1342.222, 17.977
1343.418, 33.355
1344.614, 32.725
1345.809, 20.084
1347.004, 26.437
1348.199, 21.053
1349.394, 19.118
1350.589, 31.096
1351.783, 18.417
1352.978, 53.656
1354.172, 28.080
1355.365, 27.875
1356.559, 26.337
1357.753, 12.614
1358.946, 53.836
1360.139, 43.019
1361.332, 23.780
1362.525, 30.396
1363.718, 27.576
1364.910, 12.109
1366.102, 82.107
1367.294, 22.317
1368.486, 37.521
1369.678, 57.721
1370.869, 55.962
1372.061, 45.053
1373.252, 85.234
1374.443, 50.517
1375.634, 28.683
1376.824, 54.009
1378.015, 12.199
1379.205, 64.867
1380.395, 52.291
1381.585, 80.854
1382.775, 68.442
1383.964, 45.023
1385.153, 47.591
1386.343, 60.105
1387.531, 66.662
1388.720, 64.211
1389.909, 45.751
1391.097, 12.283
1392.285, 46.806
1393.473, 39.288
1394.661, 95.712
1395.849, 49.207
1397.037, 39.631
1398.224, 21.110
1399.411, 51.547
1400.598, 31.002
1401.785, 60.413
1402.971, 106.870
1404.158, 2.684
1405.344, 84.753
1406.530, 64.167
1407.716, 31.588
1408.901, 114.934
1410.087, 35.319
1411.272, 72.151
1412.457, 69.543
1413.642, 19.930
1414.827, 94.818
1416.012, 86.376
1417.196, 67.974
1418.380, 82.900
1419.564, 68.045
1420.748, 25.037
1421.932, 57.982
1423.115, 43.629
1424.299, 77.600
1425.482, 67.719
1426.665, 0.796
1427.847, 45.374
1429.030, 21.404
1430.212, 5.470
1431.395, 58.399
1432.577, 53.260
1433.759, 36.131
1434.940, 67.960
1436.122, 19.799
1437.303, 37.765
1438.484, 19.007
1439.665, 37.670
1440.846, 65.777
1442.026, 41.270
1443.207, 68.974
1444.387, 46.817
1445.567, 15.769
1446.747, 59.774
1447.927, 41.784
1449.106, 12.640
1450.286, 14.268
1451.465, 7.410
1452.644, 27.191
1453.822, 24.125
1455.001, 24.036
1456.179, 51.510
1457.358, 31.295
1458.536, 61.675
1459.714, 35.255
1460.891, 110.222
1462.069, 19.961
1463.246, 43.181
1464.423, 110.667
1465.600, 71.152
1466.777, 59.737
1467.954, 68.987
1469.130, 15.540
1470.306, 46.087
1471.483, 61.411
1472.658, 38.954
1473.834, 27.612
1475.010, 43.928
1476.185, 63.808
1477.360, 32.260
1478.535, 8.459
1479.710, 0.316
1480.885, 90.204
1482.059, 51.836
1483.234, 17.253
1484.408, 65.870
1485.582, 19.917
1486.755, 34.050
1487.929, 52.388
1489.102, 50.884
1490.275, 60.359
1491.449, 30.674
1492.621, 44.175
1493.794, 82.673
1494.967, 31.982
1496.139, 21.474
1497.311, 75.987
1498.483, 39.548
1499.655, 50.803
1500.826, 27.731
1501.998, 24.236
1503.169, 65.808
1504.340, 32.434
1505.511, 0.919
1506.682, 53.762
1507.852, 31.476
1509.023, 43.233
1510.193, 75.039
1511.363, 7.002
1512.532, 49.061
1513.702, 35.310
1514.872, 0.206
1516.041, 69.505
1517.210, 0.167
1518.379, 5.841
1519.548, 0.000
##END=



