##NAMES=Hubnerite
##RRUFFID=R050069
##IDEAL CHEMISTRY=Mn^2+^W^6+^O_4_
##LOCALITY=Yaogangxian, Yizhang County, Hunan Province, China
##OWNER=RRUFF
##SOURCE=Rock Currier
##DESCRIPTION=Black colored prismatic single crystal
##STATUS=The identification of this mineral has been confirmed by X-ray diffraction and chemical analysis
##URL=rruff.info/R050069
##MEASURED CHEMISTRY=(Mn_0.68_Fe_0.32_)W_1.00_O_4_
##PIN_ID=L00322
##ORIENTATION=Laser parallel to (-1 0 -1). Fiducial mark perpendicular to laser is parallel to -b [0 -1 0]
149.938, 0.000
151.324, 0.701
152.710, 56.141
154.096, 115.681
155.481, 155.622
156.866, 88.236
158.251, 94.788
159.636, 76.120
161.020, 60.848
162.405, 13.245
163.789, 78.947
165.172, 58.977
166.556, 59.010
167.939, 99.693
169.322, 61.016
170.705, 122.334
172.088, 97.599
173.470, 168.979
174.853, 78.469
176.234, 70.939
177.616, 65.962
178.998, 40.393
180.379, 106.656
181.760, 71.649
183.141, 2.514
184.521, 58.388
185.902, 84.988
187.282, 119.438
188.662, 163.395
190.042, 156.920
191.421, 210.313
192.800, 280.143
194.179, 294.893
195.558, 375.908
196.937, 450.741
198.315, 514.367
199.693, 582.098
201.071, 687.691
202.449, 787.708
203.826, 890.056
205.203, 1008.671
206.580, 1241.210
207.957, 1206.008
209.333, 1203.605
210.710, 1128.191
212.086, 1048.653
213.462, 813.863
214.837, 817.047
216.213, 625.136
217.588, 556.917
218.963, 506.848
220.337, 357.412
221.712, 360.772
223.086, 303.471
224.460, 268.066
225.834, 224.212
227.207, 233.296
228.581, 222.895
229.954, 200.168
231.327, 140.052
232.699, 125.951
234.072, 97.865
235.444, 132.966
236.816, 70.254
238.188, 61.693
239.559, 120.250
240.931, 20.897
242.302, 3.390
243.673, 24.629
245.043, 55.171
246.414, 96.990
247.784, 6.809
249.154, 25.278
250.523, 8.001
251.893, 57.219
253.262, 0.691
254.631, 4.126
256.000, 13.073
257.369, 42.282
258.737, 32.319
260.105, 9.113
261.473, 36.406
262.841, 13.025
264.208, 21.074
265.576, 16.696
266.943, 42.207
268.310, 59.299
269.676, 67.545
271.042, 34.842
272.409, 73.456
273.775, 60.953
275.140, 18.332
276.506, 43.586
277.871, 26.718
279.236, 63.688
280.601, 13.523
281.965, 29.905
283.330, 3.798
284.694, 31.366
286.058, 10.880
287.421, 7.318
288.785, 14.815
290.148, 85.929
291.511, 49.461
292.874, 32.474
294.236, 0.652
295.599, 53.612
296.961, 18.396
298.323, 48.635
299.684, 54.858
301.046, 94.682
302.407, 43.062
303.768, 87.943
305.129, 12.856
306.489, 85.687
307.850, 142.433
309.210, 157.205
310.570, 150.994
311.929, 157.631
313.289, 252.238
314.648, 395.634
316.007, 456.166
317.366, 526.553
318.724, 612.687
320.083, 759.440
321.441, 953.463
322.799, 1069.359
324.156, 1331.478
325.514, 1315.285
326.871, 1392.489
328.228, 1394.686
329.585, 1358.388
330.941, 1283.544
332.298, 1157.570
333.654, 1144.054
335.010, 998.549
336.365, 874.722
337.721, 805.141
339.076, 744.040
340.431, 648.460
341.786, 576.801
343.140, 570.520
344.495, 517.454
345.849, 449.001
347.203, 387.578
348.556, 411.604
349.910, 379.623
351.263, 347.589
352.616, 360.515
353.969, 307.197
355.321, 350.869
356.674, 333.609
358.026, 355.171
359.378, 335.778
360.729, 337.138
362.081, 328.334
363.432, 327.412
364.783, 332.177
366.134, 333.822
367.484, 356.313
368.835, 366.640
370.185, 348.809
371.535, 363.838
372.884, 347.747
374.234, 337.538
375.583, 377.221
376.932, 365.788
378.281, 383.248
379.630, 420.597
380.978, 381.837
382.326, 421.949
383.674, 413.238
385.022, 487.395
386.369, 500.208
387.717, 537.679
389.064, 639.895
390.411, 736.076
391.757, 771.136
393.104, 958.050
394.450, 1152.436
395.796, 1389.674
397.141, 1665.653
398.487, 1703.901
399.832, 1806.507
401.177, 1748.982
402.522, 1561.043
403.867, 1277.758
405.211, 1105.444
406.555, 909.783
407.899, 715.047
409.243, 638.766
410.587, 580.952
411.930, 497.631
413.273, 474.923
414.616, 459.183
415.959, 366.259
417.301, 380.752
418.644, 310.035
419.986, 363.007
421.327, 253.893
422.669, 220.333
424.010, 288.182
425.351, 230.310
426.692, 229.906
428.033, 223.622
429.374, 210.372
430.714, 183.937
432.054, 232.336
433.394, 197.202
434.733, 166.599
436.073, 217.829
437.412, 185.337
438.751, 199.243
440.090, 207.834
441.428, 135.900
442.767, 145.150
444.105, 212.710
445.443, 226.622
446.780, 153.198
448.118, 124.272
449.455, 143.949
450.792, 177.182
452.129, 142.430
453.465, 180.508
454.802, 211.020
456.138, 176.632
457.474, 172.305
458.809, 170.633
460.145, 152.676
461.480, 164.540
462.815, 143.489
464.150, 140.780
465.485, 132.590
466.819, 121.254
468.153, 116.984
469.487, 133.174
470.821, 115.248
472.155, 82.493
473.488, 160.533
474.821, 123.998
476.154, 90.000
477.487, 157.935
478.819, 142.054
480.151, 125.234
481.483, 171.496
482.815, 150.303
484.147, 138.214
485.478, 157.183
486.809, 152.115
488.140, 163.780
489.471, 183.776
490.802, 227.171
492.132, 230.853
493.462, 264.233
494.792, 265.630
496.122, 268.821
497.451, 221.823
498.780, 203.328
500.109, 270.258
501.438, 212.285
502.767, 333.305
504.095, 292.255
505.423, 269.060
506.751, 240.711
508.079, 309.031
509.406, 312.421
510.734, 374.631
512.061, 405.669
513.388, 359.723
514.714, 366.517
516.041, 377.458
517.367, 399.290
518.693, 379.177
520.019, 497.947
521.344, 475.688
522.670, 529.359
523.995, 531.995
525.320, 588.619
526.644, 606.220
527.969, 637.885
529.293, 747.566
530.617, 766.143
531.941, 775.757
533.265, 864.277
534.588, 897.729
535.911, 895.322
537.234, 973.489
538.557, 983.732
539.880, 1072.113
541.202, 1041.630
542.524, 1071.293
543.846, 1096.901
545.168, 972.607
546.489, 975.292
547.811, 913.955
549.132, 887.598
550.453, 806.221
551.773, 778.826
553.094, 660.412
554.414, 659.981
555.734, 558.535
557.054, 434.074
558.374, 418.597
559.693, 454.107
561.012, 364.604
562.331, 361.087
563.650, 317.560
564.968, 211.027
566.287, 284.496
567.605, 199.952
568.923, 229.396
570.240, 171.831
571.558, 190.258
572.875, 130.681
574.192, 89.092
575.509, 148.403
576.825, 143.786
578.142, 110.876
579.458, 82.187
580.774, 55.040
582.090, 88.762
583.405, 55.768
584.721, 63.543
586.036, 3.317
587.351, 11.936
588.665, 4.256
589.980, 5.303
591.294, 20.060
592.608, 7.667
593.922, 5.980
595.236, 14.662
596.549, 16.424
597.862, 21.025
599.175, 24.120
600.488, 25.178
601.801, 21.364
603.113, 26.017
604.425, 11.732
605.737, 7.139
607.049, 26.564
608.361, 1.807
609.672, 19.317
610.983, 44.269
612.294, 31.272
613.605, 18.036
614.915, 5.506
616.225, 33.027
617.536, 12.444
618.845, 0.967
620.155, 3.555
621.464, 33.985
622.774, 10.403
624.083, 60.783
625.391, 13.121
626.700, 7.437
628.008, 42.815
629.317, 56.887
630.625, 37.229
631.932, 23.667
633.240, 55.054
634.547, 13.965
635.854, 17.390
637.161, 0.332
638.468, 4.135
639.774, 27.243
641.081, 8.466
642.387, 2.253
643.693, 2.962
644.998, 8.298
646.304, 7.400
647.609, 42.972
648.914, 42.478
650.219, 55.947
651.523, 1.681
652.828, 17.704
654.132, 73.891
655.436, 5.684
656.740, 60.655
658.043, 25.215
659.346, 14.585
660.650, 20.123
661.952, 42.652
663.255, 50.171
664.558, 102.650
665.860, 55.153
667.162, 56.649
668.464, 80.138
669.766, 120.622
671.067, 112.101
672.368, 114.574
673.669, 156.044
674.970, 154.509
676.271, 176.968
677.571, 252.425
678.871, 257.876
680.171, 276.324
681.471, 289.769
682.771, 298.209
684.070, 352.646
685.369, 337.093
686.668, 371.535
687.967, 415.975
689.266, 410.411
690.564, 525.849
691.862, 419.285
693.160, 473.720
694.458, 388.152
695.755, 478.580
697.053, 476.015
698.350, 489.447
699.646, 529.875
700.943, 448.302
702.240, 445.725
703.536, 426.148
704.832, 403.567
706.128, 361.987
707.423, 339.357
708.719, 269.817
710.014, 285.230
711.309, 266.639
712.604, 256.045
713.898, 169.449
715.193, 211.851
716.487, 144.250
717.781, 141.646
719.075, 134.040
720.368, 109.432
721.662, 120.824
722.955, 80.213
724.248, 80.601
725.541, 77.986
726.833, 79.369
728.125, 89.751
729.418, 85.010
730.709, 46.100
732.001, 66.444
733.293, 29.774
734.584, 33.548
735.875, 41.057
737.166, 41.035
738.457, 61.163
739.747, 82.160
741.037, 61.197
742.327, 10.991
743.617, 19.199
744.907, 50.782
746.196, 12.608
747.486, 22.504
748.775, 42.643
750.063, 35.189
751.352, 7.935
752.640, 41.954
753.929, 91.871
755.217, 17.810
756.504, 46.763
757.792, 27.709
759.079, 32.684
760.367, 40.340
761.654, 85.520
762.940, 41.041
764.227, 79.950
765.513, 71.779
766.799, 149.519
768.085, 115.583
769.371, 164.614
770.657, 209.587
771.942, 158.685
773.227, 180.027
774.512, 239.908
775.797, 179.910
777.081, 196.049
778.365, 155.099
779.650, 243.370
780.933, 213.451
782.217, 191.519
783.501, 195.744
784.784, 159.753
786.067, 192.976
787.350, 228.152
788.633, 212.310
789.915, 221.720
791.197, 170.903
792.479, 241.956
793.761, 170.866
795.043, 214.121
796.324, 241.308
797.606, 181.333
798.887, 212.339
800.167, 224.559
801.448, 205.394
802.728, 220.780
804.009, 264.830
805.289, 261.133
806.568, 254.375
807.848, 250.776
809.128, 263.322
810.407, 279.319
811.686, 260.859
812.965, 303.261
814.243, 292.629
815.522, 249.031
816.800, 331.537
818.078, 349.085
819.355, 323.678
820.633, 391.267
821.910, 367.869
823.188, 334.476
824.465, 337.087
825.741, 390.704
827.018, 392.559
828.294, 459.185
829.570, 441.816
830.846, 448.572
832.122, 560.212
833.398, 476.858
834.673, 557.508
835.948, 614.164
837.223, 668.828
838.498, 630.707
839.772, 686.383
841.047, 711.070
842.321, 781.762
843.595, 828.123
844.868, 913.494
846.142, 940.670
847.415, 997.382
848.688, 1061.100
849.961, 1137.158
851.234, 1233.886
852.507, 1322.625
853.779, 1445.266
855.051, 1637.469
856.323, 1723.854
857.595, 1917.613
858.866, 2100.261
860.137, 2377.031
861.409, 2560.807
862.679, 2909.040
863.950, 3217.704
865.221, 3664.499
866.491, 4103.302
867.761, 4589.140
869.031, 5191.956
870.301, 5987.775
871.570, 6847.601
872.839, 7827.436
874.109, 8897.746
875.377, 10197.602
876.646, 11827.460
877.915, 13337.325
879.183, 14987.195
880.451, 16227.074
881.719, 17106.961
882.987, 17346.846
884.254, 17006.736
885.521, 16006.642
886.788, 14816.545
888.055, 13326.461
889.322, 11546.379
890.588, 9866.308
891.855, 8496.417
893.121, 6956.358
894.387, 6026.307
895.652, 4943.265
896.918, 4175.235
898.183, 3590.216
899.448, 3033.204
900.713, 2571.199
901.978, 2243.362
903.242, 1924.375
904.506, 1707.180
905.771, 1451.209
907.034, 1331.246
908.298, 1163.291
909.562, 1025.343
910.825, 936.402
912.088, 809.469
913.351, 768.544
914.613, 641.627
915.876, 648.320
917.138, 566.425
918.400, 505.537
919.662, 474.669
920.924, 474.809
922.185, 385.963
923.447, 454.125
924.708, 375.294
925.969, 298.473
927.229, 294.661
928.490, 270.856
929.750, 303.058
931.010, 347.267
932.270, 271.589
933.530, 291.704
934.789, 159.934
936.048, 195.170
937.308, 192.426
938.566, 114.688
939.825, 172.958
941.084, 144.246
942.342, 110.545
943.600, 171.850
944.858, 184.163
946.116, 60.485
947.373, 117.812
948.630, 53.222
949.888, 203.563
951.144, 109.912
952.401, 106.267
953.658, 172.630
954.914, 144.998
956.170, 126.383
957.426, 127.785
958.682, 126.195
959.937, 104.339
961.193, 78.038
962.448, 74.844
963.703, 46.280
964.957, 43.778
966.212, 107.224
967.466, 17.677
968.720, 61.134
969.974, 55.597
971.228, 32.064
972.482, 60.538
973.735, 6.016
974.988, 15.498
976.241, 2.984
977.494, 8.525
978.746, 25.967
979.999, 29.463
981.251, 5.036
982.503, 1.474
983.755, 45.981
985.006, 10.492
986.258, 15.007
987.509, 24.242
988.760, 65.602
990.011, 18.896
991.261, 3.609
992.512, 72.117
993.762, 30.371
995.012, 19.132
996.262, 12.361
997.511, 3.145
998.761, 26.684
1000.010, 48.802
1001.259, 28.695
1002.508, 9.715
1003.756, 8.779
1005.005, 0.728
1006.253, 14.762
1007.501, 16.788
1008.749, 19.699
1009.996, 33.809
1011.244, 59.645
1012.491, 7.806
1013.738, 44.726
1014.985, 18.155
1016.232, 53.432
1017.478, 0.016
1018.724, 35.537
1019.970, 2.094
1021.216, 38.653
1022.462, 21.272
1023.707, 9.372
1024.953, 27.354
1026.198, 6.919
1027.443, 60.554
1028.687, 28.170
1029.932, 70.741
1031.176, 27.325
1032.420, 39.950
1033.664, 11.540
1034.908, 14.036
1036.152, 41.726
1037.395, 22.322
1038.638, 25.921
1039.881, 27.654
1041.124, 1.695
1042.366, 53.931
1043.609, 119.534
1044.851, 30.627
1046.093, 78.323
1047.335, 54.931
1048.576, 80.615
1049.818, 67.225
1051.059, 41.898
1052.300, 39.027
1053.541, 91.660
1054.781, 36.295
1056.022, 57.931
1057.262, 19.569
1058.502, 9.250
1059.742, 25.890
1060.981, 87.541
1062.221, 36.244
1063.460, 73.889
1064.699, 8.364
1065.938, 14.338
1067.177, 70.069
1068.415, 77.048
1069.653, 114.694
1070.891, 62.056
1072.129, 80.848
1073.367, 73.495
1074.604, 39.141
1075.842, 97.800
1077.079, 78.445
1078.316, 80.147
1079.553, 90.790
1080.789, 85.492
1082.025, 72.013
1083.262, 77.816
1084.498, 73.386
1085.733, 75.139
1086.969, 82.776
1088.204, 81.412
1089.439, 101.046
1090.674, 40.678
1091.909, 84.375
1093.144, 103.105
1094.378, 19.837
1095.612, 94.466
1096.846, 6.092
1098.080, 34.716
1099.314, 52.338
1100.547, 61.967
1101.781, 24.586
1103.014, 78.204
1104.247, 85.820
1105.479, 29.433
1106.712, 71.043
1107.944, 79.652
1109.176, 83.258
1110.408, 32.139
1111.640, 69.441
1112.871, 10.019
1114.102, 57.593
1115.334, 44.252
1116.565, 29.821
1117.795, 53.766
1119.026, 72.330
1120.256, 50.258
1121.486, 57.816
1122.716, 75.370
1123.946, 45.922
1125.176, 54.412
1126.405, 30.781
1127.634, 34.322
1128.863, 41.860
1130.092, 19.275
1131.321, 32.031
1132.549, 52.397
1133.778, 39.920
1135.006, 2.561
1136.233, 1.025
1137.461, 26.267
1138.689, 11.936
1139.916, 55.608
1141.143, 58.258
1142.370, 68.416
1143.597, 45.905
1144.823, 51.985
1146.050, 16.530
1147.276, 28.984
1148.502, 63.392
1149.727, 18.115
1150.953, 38.761
1152.178, 43.062
1153.404, 47.829
1154.629, 14.976
1155.853, 40.523
1157.078, 62.228
1158.302, 2.736
1159.527, 23.292
1160.751, 51.290
1161.975, 5.844
1163.198, 3.236
1164.422, 64.409
1165.645, 36.758
1166.868, 54.143
1168.091, 36.642
1169.314, 7.929
1170.536, 3.603
1171.759, 9.720
1172.981, 44.739
1174.203, 20.133
1175.424, 25.417
1176.646, 67.930
1177.867, 62.677
1179.089, 30.999
1180.310, 72.867
1181.530, 50.171
1182.751, 44.752
1183.971, 62.135
1185.192, 66.464
1186.412, 17.753
1187.632, 32.076
1188.851, 38.147
1190.071, 64.485
1191.290, 4.127
1192.509, 24.323
1193.728, 51.644
1194.947, 28.822
1196.165, 117.993
1197.384, 36.369
1198.602, 5.722
1199.820, 52.405
1201.037, 86.633
1202.255, 77.984
1203.472, 66.273
1204.690, 41.526
1205.907, 53.840
1207.124, 50.019
1208.340, 38.381
1209.557, 52.521
1210.773, 28.648
1211.989, 38.355
1213.205, 31.430
1214.421, 12.488
1215.636, 59.851
1216.851, 2.901
1218.067, 25.443
1219.281, 86.481
1220.496, 90.490
1221.711, 55.493
1222.925, 60.487
1224.139, 45.572
1225.353, 75.552
1226.567, 45.525
1227.781, 39.584
1228.994, 114.644
1230.207, 133.595
1231.421, 75.538
1232.633, 104.555
1233.846, 80.514
1235.059, 97.433
1236.271, 63.405
1237.483, 47.309
1238.695, 39.641
1239.907, 39.042
1241.118, 90.698
1242.330, 67.577
1243.541, 67.374
1244.752, 97.241
1245.963, 63.666
1247.173, 105.521
1248.384, 71.510
1249.594, 77.354
1250.804, 80.190
1252.014, 107.019
1253.223, 85.908
1254.433, 87.770
1255.642, 82.580
1256.851, 74.075
1258.060, 81.971
1259.269, 90.733
1260.478, 45.517
1261.686, 143.347
1262.894, 16.118
1264.102, 95.263
1265.310, 17.017
1266.518, 71.865
1267.725, 90.600
1268.932, 103.325
1270.139, 72.026
1271.346, 73.715
1272.553, 99.382
1273.759, 112.147
1274.966, 68.799
1276.172, 58.436
1277.378, 65.073
1278.583, 78.702
1279.789, 83.564
1280.994, 63.444
1282.200, 69.397
1283.405, 20.994
1284.609, 53.368
1285.814, 29.942
1287.018, 64.505
1288.223, 64.067
1289.427, 48.607
1290.631, 49.136
1291.834, 72.626
1293.038, 21.167
1294.241, 58.761
1295.444, 11.741
1296.647, 25.230
1297.850, 16.772
1299.053, 16.229
1300.255, 36.980
1301.457, 29.417
1302.659, 36.115
1303.861, 31.985
1305.063, 1.635
1306.264, 26.244
1307.466, 24.243
1308.667, 19.877
1309.868, 63.227
1311.068, 60.097
1312.269, 31.969
1313.469, 47.286
1314.669, 67.536
1315.869, 52.043
1317.069, 34.169
1318.269, 41.451
1319.468, 72.654
1320.668, 21.867
1321.867, 27.882
1323.066, 53.345
1324.264, 2.523
1325.463, 54.727
1326.661, 14.923
1327.859, 33.106
1329.057, 44.281
1330.255, 52.565
1331.452, 42.585
1332.650, 59.679
1333.847, 35.790
1335.044, 8.916
1336.241, 65.546
1337.438, 33.562
1338.634, 67.659
1339.830, 67.673
1341.027, 24.253
1342.222, 25.024
1343.418, 3.976
1344.614, 44.334
1345.809, 22.361
1347.004, 28.378
1348.199, 33.386
1349.394, 23.674
1350.589, 47.384
1351.783, 18.355
1352.978, 53.268
1354.172, 54.284
1355.365, 21.134
1356.559, 63.021
1357.753, 101.869
1358.946, 26.536
1360.139, 62.384
1361.332, 3.582
1362.525, 59.342
1363.718, 108.242
1364.910, 93.135
1366.102, 100.008
1367.294, 41.297
1368.486, 80.114
1369.678, 83.985
1370.869, 42.274
1372.061, 40.052
1373.252, 80.914
1374.443, 71.729
1375.634, 44.462
1376.824, 56.144
1378.015, 90.808
1379.205, 48.342
1380.395, 118.643
1381.585, 6.789
1382.775, 54.127
1383.964, 19.456
1385.153, 83.762
1386.343, 65.064
1387.531, 79.356
1388.720, 1.636
1389.909, 74.917
1391.097, 31.197
1392.285, 74.371
1393.473, 71.207
1394.661, 81.036
1395.849, 48.263
1397.037, 53.561
1398.224, 80.685
1399.411, 48.824
1400.598, 40.988
1401.785, 58.135
1402.971, 83.950
1404.158, 51.843
1405.344, 76.962
1406.530, 9.909
1407.716, 97.690
1408.901, 39.209
1410.087, 98.609
1411.272, 99.086
1412.457, 106.894
1413.642, 71.494
1414.827, 89.898
1416.012, 31.479
1417.196, 88.201
1418.380, 100.051
1419.564, 67.764
1420.748, 87.603
1421.932, 9.705
1423.115, 92.668
1424.299, 68.012
1425.482, 51.556
1426.665, 89.194
1427.847, 59.822
1429.030, 54.002
1430.212, 73.638
1431.395, 94.979
1432.577, 82.595
1433.759, 49.866
1434.940, 41.130
1436.122, 28.406
1437.303, 99.598
1438.484, 85.837
1439.665, 33.522
1440.846, 89.101
1442.026, 2.223
1443.207, 91.396
1444.387, 34.824
1445.567, 62.415
1446.747, 65.619
1447.927, 83.178
1449.106, 70.503
1450.286, 76.918
1451.465, 58.981
1452.644, 57.050
1453.822, 23.879
1455.001, 51.072
1456.179, 52.116
1457.358, 60.428
1458.536, 119.563
1459.714, 54.706
1460.891, 88.743
1462.069, 44.624
1463.246, 85.623
1464.423, 85.748
1465.600, 67.526
1466.777, 70.590
1467.954, 40.732
1469.130, 42.597
1470.306, 70.714
1471.483, 8.106
1472.658, 51.254
1473.834, 58.365
1475.010, 89.471
1476.185, 94.597
1477.360, 71.772
1478.535, 40.555
1479.710, 90.706
1480.885, 57.679
1482.059, 62.650
1483.234, 54.699
1484.408, 62.862
1485.582, 103.004
1486.755, 102.163
1487.929, 65.021
1489.102, 65.196
1490.275, 18.366
1491.449, 51.550
1492.621, 109.763
1493.794, 72.018
1494.967, 17.288
1496.139, 117.880
1497.311, 40.178
1498.483, 71.490
1499.655, 78.825
1500.826, 53.190
1501.998, 98.664
1503.169, 75.174
1504.340, 81.738
1505.511, 83.891
1506.682, 34.537
1507.852, 2.367
1509.023, 54.413
1510.193, 58.274
1511.363, 1.771
1512.532, 107.274
1513.702, 70.499
1514.872, 51.161
1516.041, 30.339
1517.210, 45.213
1518.379, 1.188
1519.548, 0.000
##END=



