##NAMES=Hubnerite
##RRUFFID=R050139
##IDEAL CHEMISTRY=Mn^2+^W^6+^O_4_
##LOCALITY=Pasto Bueno District, Pallasca Province, Ancash Department, Peru
##OWNER=RRUFF
##SOURCE=Dave Bunk Minerals
##DESCRIPTION=Black tabular crystals associated with quartz
##STATUS=The identification of this mineral has been confirmed by X-ray diffraction and chemical analysis
##URL=rruff.info/R050139
##MEASURED CHEMISTRY=(Mn^2+^_0.79_Fe^2+^_0.20_)W_1.00_O4
##PIN_ID=L00188
##ORIENTATION=Laser parallel to -c* (0 0 -1). Fiducial mark perpendicular to laser is parallel to -a [-1 0 0]
77.525, 0.000
78.926, 16.735
80.327, 3.596
81.728, 199.218
83.128, 263.225
84.529, 237.771
85.929, 123.678
87.329, 58.697
88.728, 151.084
90.128, 250.334
91.527, 528.560
92.926, 474.550
94.324, 633.435
95.723, 556.509
97.121, 404.100
98.519, 564.221
99.917, 523.870
101.314, 602.187
102.712, 417.936
104.109, 390.082
105.505, 437.699
106.902, 479.925
108.298, 378.904
109.694, 411.645
111.090, 632.657
112.486, 830.161
113.881, 976.003
115.277, 1081.852
116.672, 1195.130
118.066, 1159.946
119.461, 1334.703
120.855, 1697.936
122.249, 2512.047
123.643, 3960.919
125.036, 5811.282
126.430, 8247.650
127.823, 9793.288
129.216, 10073.988
130.608, 9640.222
132.001, 7474.566
133.393, 5023.594
134.785, 3133.635
136.176, 2156.402
137.568, 1533.958
138.959, 1198.906
140.350, 914.341
141.741, 632.299
143.131, 505.092
144.521, 318.760
145.911, 275.272
147.301, 138.672
148.691, 71.163
150.080, 37.183
151.469, 18.809
152.858, 3.821
154.247, 28.005
155.635, 7.700
157.024, 25.746
158.411, 63.532
159.799, 108.530
161.187, 119.357
162.574, 162.828
163.961, 217.479
165.348, 102.495
166.734, 173.955
168.121, 147.221
169.507, 96.545
170.893, 98.704
172.278, 168.167
173.664, 100.104
175.049, 123.407
176.434, 154.969
177.819, 141.392
179.203, 132.225
180.587, 155.312
181.971, 125.140
183.355, 150.989
184.739, 191.385
186.122, 252.885
187.505, 186.201
188.888, 305.740
190.271, 347.408
191.653, 323.327
193.035, 467.456
194.417, 455.907
195.799, 534.143
197.180, 703.715
198.562, 945.901
199.943, 1103.662
201.324, 1450.002
202.704, 1871.946
204.084, 2126.501
205.465, 2383.653
206.844, 2399.407
208.224, 2292.756
209.603, 1849.711
210.983, 1574.289
212.362, 1216.495
213.740, 954.430
215.119, 661.928
216.497, 468.245
217.875, 422.411
219.253, 304.998
220.631, 258.248
222.008, 146.412
223.385, 59.294
224.762, 69.627
226.139, 47.559
227.515, 62.798
228.891, 47.175
230.267, 6.926
231.643, 65.240
233.018, 104.819
234.394, 88.694
235.769, 59.894
237.144, 69.463
238.518, 125.415
239.893, 81.766
241.267, 74.499
242.641, 148.614
244.014, 125.577
245.388, 57.798
246.761, 24.143
248.134, 28.544
249.507, 31.220
250.879, 53.208
252.252, 104.384
253.624, 131.400
254.996, 208.993
256.367, 266.159
257.739, 247.741
259.110, 352.673
260.481, 405.160
261.852, 422.941
263.222, 415.143
264.592, 448.603
265.962, 459.495
267.332, 468.670
268.702, 483.063
270.071, 485.486
271.440, 520.069
272.809, 519.355
274.178, 552.411
275.546, 589.782
276.915, 603.458
278.283, 598.790
279.650, 639.359
281.018, 565.167
282.385, 588.094
283.752, 655.306
285.119, 631.696
286.486, 707.396
287.852, 670.357
289.218, 688.893
290.584, 697.905
291.950, 721.055
293.316, 740.883
294.681, 743.877
296.046, 838.692
297.411, 900.805
298.775, 900.477
300.140, 886.003
301.504, 993.144
302.868, 950.093
304.231, 989.140
305.595, 1055.734
306.958, 1112.814
308.321, 1154.323
309.684, 1225.539
311.047, 1316.223
312.409, 1390.378
313.771, 1552.960
315.133, 1667.570
316.495, 1880.972
317.856, 2097.709
319.217, 2413.882
320.578, 2796.858
321.939, 3047.311
323.299, 3253.038
324.660, 3458.008
326.020, 3595.212
327.380, 3501.638
328.739, 3352.281
330.099, 3044.679
331.458, 2812.276
332.817, 2574.242
334.176, 2249.053
335.534, 2110.621
336.892, 1828.460
338.251, 1692.777
339.608, 1563.715
340.966, 1415.882
342.323, 1363.847
343.681, 1266.412
345.037, 1177.253
346.394, 1153.483
347.751, 1147.044
349.107, 1080.081
350.463, 1010.783
351.819, 1040.546
353.174, 988.538
354.530, 980.775
355.885, 987.712
357.240, 997.763
358.594, 1002.634
359.949, 993.081
361.303, 997.152
362.657, 969.154
364.011, 966.735
365.365, 973.621
366.718, 957.020
368.071, 998.262
369.424, 987.600
370.777, 1009.480
372.129, 1002.460
373.481, 1016.358
374.833, 999.172
376.185, 947.596
377.537, 1008.862
378.888, 968.841
380.239, 996.891
381.590, 1036.510
382.941, 1082.104
384.291, 1124.265
385.642, 1187.209
386.992, 1301.722
388.341, 1439.438
389.691, 1731.655
391.040, 1959.071
392.389, 2457.480
393.738, 3066.428
395.087, 3733.733
396.435, 4238.572
397.784, 4395.440
399.132, 4333.136
400.479, 3790.258
401.827, 3081.896
403.174, 2488.308
404.521, 1950.215
405.868, 1615.515
407.215, 1355.076
408.561, 1252.722
409.908, 1077.319
411.254, 976.474
412.599, 836.459
413.945, 833.752
415.290, 815.649
416.636, 736.718
417.980, 716.388
419.325, 683.372
420.670, 654.041
422.014, 583.443
423.358, 592.132
424.702, 544.741
426.045, 574.173
427.389, 542.621
428.732, 520.333
430.075, 448.951
431.417, 431.540
432.760, 490.680
434.102, 423.065
435.444, 440.248
436.786, 449.307
438.127, 401.557
439.469, 421.739
440.810, 419.871
442.151, 406.332
443.492, 413.836
444.832, 400.638
446.172, 423.435
447.512, 426.039
448.852, 439.855
450.192, 383.535
451.531, 359.312
452.870, 420.090
454.209, 362.474
455.548, 432.115
456.887, 349.552
458.225, 404.403
459.563, 402.479
460.901, 340.146
462.238, 343.314
463.576, 308.564
464.913, 317.498
466.250, 319.848
467.587, 342.044
468.923, 297.637
470.259, 263.312
471.596, 241.153
472.931, 242.373
474.267, 340.232
475.603, 355.570
476.938, 281.877
478.273, 343.480
479.608, 292.395
480.942, 338.352
482.276, 369.698
483.611, 316.232
484.944, 301.195
486.278, 277.333
487.612, 291.735
488.945, 357.150
490.278, 341.559
491.611, 351.594
492.943, 358.823
494.276, 341.594
495.608, 382.792
496.940, 372.198
498.271, 425.169
499.603, 333.180
500.934, 441.264
502.265, 344.228
503.596, 408.188
504.927, 395.147
506.257, 414.104
507.587, 452.019
508.917, 498.938
510.247, 503.604
511.577, 510.003
512.906, 579.555
514.235, 570.911
515.564, 540.251
516.892, 632.642
518.221, 612.087
519.549, 644.567
520.877, 724.017
522.205, 737.491
523.533, 846.852
524.860, 874.204
526.187, 1004.581
527.514, 1094.882
528.841, 1271.351
530.167, 1383.771
531.493, 1505.277
532.820, 1743.750
534.145, 2007.277
535.471, 2113.729
536.796, 2354.967
538.122, 2496.469
539.447, 2793.816
540.771, 2928.298
542.096, 2977.851
543.420, 3006.405
544.744, 2945.285
546.068, 2854.521
547.392, 2663.096
548.715, 2511.683
550.039, 2239.285
551.362, 2051.569
552.684, 1841.553
554.007, 1621.305
555.329, 1434.047
556.652, 1258.839
557.973, 1089.678
559.295, 1003.556
560.617, 869.475
561.938, 772.450
563.259, 721.469
564.580, 621.530
565.901, 517.653
567.221, 441.832
568.541, 392.760
569.861, 341.873
571.181, 324.584
572.501, 299.945
573.820, 262.938
575.139, 273.278
576.458, 230.700
577.777, 305.069
579.095, 266.673
580.414, 167.758
581.732, 252.804
583.049, 160.495
584.367, 162.393
585.685, 117.605
587.002, 29.661
588.319, 28.809
589.636, 14.853
590.952, 95.344
592.268, 38.955
593.585, 56.270
594.900, 87.112
596.216, 52.095
597.532, 56.981
598.847, 34.188
600.162, 36.915
601.477, 22.241
602.792, 19.211
604.106, 60.961
605.420, 57.842
606.734, 57.771
608.048, 29.794
609.361, 2.617
610.675, 2.627
611.988, 89.419
613.301, 21.262
614.614, 53.432
615.926, 29.295
617.238, 19.423
618.550, 22.422
619.862, 10.501
621.174, 16.464
622.485, 31.318
623.797, 8.755
625.108, 43.214
626.418, 32.690
627.729, 2.240
629.039, 22.057
630.349, 11.815
631.659, 15.392
632.969, 29.167
634.279, 12.140
635.588, 36.831
636.897, 20.532
638.206, 45.425
639.515, 54.118
640.823, 36.676
642.131, 23.446
643.439, 6.742
644.747, 24.140
646.055, 44.943
647.362, 35.464
648.669, 9.963
649.976, 53.537
651.283, 21.004
652.589, 5.523
653.896, 11.842
655.202, 12.820
656.508, 0.595
657.814, 2.846
659.119, 22.946
660.424, 10.610
661.729, 44.421
663.034, 77.242
664.339, 53.073
665.643, 72.914
666.947, 128.764
668.251, 112.626
669.555, 141.500
670.859, 258.386
672.162, 221.284
673.465, 265.195
674.768, 256.118
676.071, 322.054
677.373, 352.002
678.676, 389.962
679.978, 394.935
681.280, 413.920
682.581, 472.927
683.883, 508.947
685.184, 538.980
686.485, 578.026
687.786, 627.987
689.087, 684.156
690.387, 757.240
691.687, 825.336
692.987, 937.447
694.287, 956.573
695.586, 1078.713
696.886, 1157.865
698.185, 1184.031
699.484, 1132.216
700.783, 1091.417
702.081, 981.632
703.379, 956.866
704.677, 846.112
705.975, 767.375
707.273, 703.650
708.570, 519.938
709.868, 365.239
711.165, 374.552
712.462, 327.877
713.758, 236.214
715.055, 226.563
716.351, 165.924
717.647, 149.303
718.943, 159.694
720.238, 119.107
721.533, 136.531
722.829, 43.965
724.124, 49.417
725.418, 35.879
726.713, 64.352
728.007, 8.836
729.301, 7.671
730.595, 39.829
731.889, 9.340
733.182, 17.859
734.476, 23.389
735.769, 62.071
737.061, 2.549
738.354, 3.981
739.647, 36.480
740.939, 6.055
742.231, 16.425
743.523, 41.258
744.814, 0.099
746.106, 54.980
747.397, 7.535
748.688, 28.312
749.978, 8.987
751.269, 38.562
752.559, 61.262
753.849, 0.042
755.139, 43.268
756.429, 2.469
757.719, 15.250
759.008, 78.964
760.297, 28.378
761.586, 100.804
762.875, 94.253
764.163, 153.608
765.451, 167.872
766.739, 220.101
768.027, 252.755
769.315, 324.172
770.602, 348.746
771.890, 400.017
773.177, 402.331
774.463, 419.503
775.750, 368.771
777.036, 421.307
778.323, 366.929
779.609, 348.253
780.894, 339.971
782.180, 380.498
783.465, 380.087
784.750, 342.788
786.035, 294.469
787.320, 342.711
788.605, 308.450
789.889, 337.200
791.173, 317.641
792.457, 269.758
793.741, 310.833
795.024, 289.516
796.307, 238.009
797.591, 229.068
798.873, 272.948
800.156, 305.004
801.439, 330.158
802.721, 269.758
804.003, 249.739
805.285, 302.527
806.566, 333.777
807.848, 260.608
809.129, 279.241
810.410, 361.312
811.691, 269.354
812.971, 334.332
814.252, 363.437
815.532, 366.552
816.812, 399.658
818.092, 429.819
819.371, 427.968
820.651, 449.130
821.930, 473.303
823.209, 526.490
824.488, 495.688
825.766, 520.895
827.045, 582.113
828.323, 659.343
829.601, 634.582
830.878, 655.836
832.156, 717.100
833.433, 740.375
834.710, 707.662
835.987, 814.005
837.264, 866.313
838.540, 909.677
839.817, 1051.008
841.093, 1034.350
842.369, 1101.704
843.644, 1220.068
844.920, 1242.443
846.195, 1333.225
847.470, 1523.045
848.745, 1685.450
850.020, 2038.871
851.294, 2077.094
852.568, 2479.363
853.842, 2262.645
855.116, 2619.108
856.390, 2767.079
857.663, 3064.573
858.936, 3408.958
860.209, 3748.471
861.482, 4165.995
862.755, 4697.524
864.027, 5277.082
865.299, 5845.735
866.571, 6600.292
867.843, 7390.859
869.115, 8341.434
870.386, 9523.699
871.657, 11074.292
872.928, 12787.364
874.199, 15077.982
875.470, 17808.607
876.740, 21250.705
878.010, 25821.354
879.280, 31062.223
880.550, 36542.945
881.820, 42163.562
883.089, 46904.445
884.358, 49305.137
885.627, 48075.773
886.896, 44856.484
888.164, 39307.191
889.433, 32804.738
890.701, 27125.086
891.969, 21985.582
893.236, 17524.756
894.504, 14655.323
895.771, 11836.095
897.038, 9714.589
898.305, 8074.922
899.572, 6742.788
900.838, 5701.824
902.105, 4956.917
903.371, 4203.644
904.637, 3699.267
905.902, 3113.831
907.168, 2785.201
908.433, 2468.086
909.698, 2168.359
910.963, 1919.938
912.228, 1745.979
913.492, 1521.903
914.757, 1360.835
916.021, 1291.776
917.285, 1099.727
918.548, 1105.688
919.812, 969.659
921.075, 893.638
922.338, 842.626
923.601, 746.622
924.864, 693.627
926.126, 595.641
927.388, 623.666
928.650, 580.702
929.912, 537.746
931.174, 499.799
932.435, 512.860
933.697, 468.931
934.958, 429.240
936.218, 401.332
937.479, 343.455
938.739, 340.561
940.000, 355.678
941.260, 325.807
942.520, 289.943
943.779, 331.092
945.039, 333.251
946.298, 256.425
947.557, 257.615
948.816, 239.818
950.074, 281.033
951.333, 250.254
952.591, 223.485
953.849, 231.967
955.107, 224.294
956.365, 293.663
957.622, 204.942
958.879, 229.357
960.136, 234.653
961.393, 169.957
962.650, 198.385
963.906, 154.768
965.162, 195.089
966.418, 111.441
967.674, 124.035
968.930, 159.375
970.185, 117.721
971.441, 58.569
972.696, 82.967
973.950, 164.999
975.205, 25.364
976.459, 113.734
977.714, 40.108
978.968, 61.597
980.222, 16.981
981.475, 26.249
982.729, 60.696
983.982, 40.172
985.235, 103.745
986.488, 36.661
987.740, 53.024
988.993, 6.739
990.245, 28.360
991.497, 50.103
992.749, 50.753
994.000, 24.409
995.252, 65.966
996.503, 3.491
997.754, 3.997
999.005, 26.420
1000.256, 23.403
1001.506, 6.826
1002.756, 26.070
1004.006, 11.452
1005.256, 21.959
1006.506, 23.592
1007.755, 42.812
1009.005, 11.492
1010.254, 27.909
1011.502, 69.312
1012.751, 38.717
1014.000, 13.179
1015.248, 6.593
1016.496, 25.123
1017.744, 36.541
1018.991, 25.081
1020.239, 26.498
1021.486, 35.912
1022.733, 40.743
1023.980, 35.285
1025.227, 28.696
1026.473, 21.698
1027.719, 35.964
1028.965, 2.690
1030.211, 11.091
1031.457, 58.493
1032.702, 10.769
1033.948, 45.638
1035.193, 31.046
1036.438, 16.542
1037.682, 36.951
1038.927, 30.990
1040.171, 8.557
1041.415, 95.293
1042.659, 2.053
1043.903, 55.416
1045.146, 14.462
1046.390, 46.132
1047.633, 71.572
1048.876, 47.043
1050.118, 76.538
1051.361, 50.156
1052.603, 16.188
1053.845, 98.787
1055.087, 39.383
1056.329, 41.869
1057.571, 112.383
1058.812, 111.015
1060.053, 73.505
1061.294, 67.018
1062.535, 61.514
1063.775, 79.069
1065.016, 31.563
1066.256, 64.371
1067.496, 85.862
1068.736, 75.566
1069.975, 115.054
1071.214, 78.590
1072.454, 77.075
1073.693, 69.704
1074.931, 100.257
1076.170, 92.736
1077.408, 51.459
1078.647, 116.953
1079.885, 81.485
1081.122, 124.956
1082.360, 56.826
1083.597, 8.291
1084.835, 92.751
1086.072, 23.272
1087.308, 40.726
1088.545, 94.295
1089.781, 69.743
1091.018, 92.188
1092.254, 62.630
1093.490, 99.068
1094.725, 43.502
1095.961, 109.938
1097.196, 45.365
1098.431, 52.952
1099.666, 48.396
1100.900, 54.810
1102.135, 10.221
1103.369, 21.625
1104.603, 19.026
1105.837, 67.422
1107.071, 17.813
1108.304, 35.245
1109.538, 61.707
1110.771, 19.082
1112.004, 23.452
1113.236, 41.817
1114.469, 28.322
1115.701, 11.390
1116.933, 67.738
1118.165, 90.081
1119.397, 3.420
1120.629, 27.777
1121.860, 0.171
1123.091, 55.482
1124.322, 59.010
1125.553, 78.310
1126.783, 22.605
1128.014, 90.959
1129.244, 2.758
1130.474, 28.511
1131.704, 25.850
1132.933, 20.220
1134.163, 19.516
1135.392, 12.589
1136.621, 11.611
1137.850, 16.792
1139.079, 11.090
1140.307, 16.119
1141.535, 16.253
1142.763, 22.756
1143.991, 24.022
1145.219, 27.986
1146.446, 42.728
1147.674, 13.110
1148.901, 76.033
1150.128, 1.224
1151.354, 18.853
1152.581, 52.505
1153.807, 37.219
1155.033, 43.522
1156.259, 12.640
1157.485, 52.890
1158.710, 56.091
1159.936, 77.137
1161.161, 29.241
1162.386, 40.410
1163.611, 25.617
1164.835, 54.656
1166.060, 25.831
1167.284, 41.975
1168.508, 45.365
1169.732, 4.276
1170.955, 0.737
1172.179, 6.649
1173.402, 18.893
1174.625, 13.459
1175.848, 10.383
1177.070, 56.854
1178.293, 43.809
1179.515, 11.794
1180.737, 74.649
1181.959, 47.615
1183.181, 30.488
1184.402, 75.409
1185.624, 30.734
1186.845, 26.092
1188.066, 14.901
1189.286, 19.808
1190.507, 39.522
1191.727, 0.310
1192.947, 23.944
1194.167, 69.711
1195.387, 21.457
1196.607, 39.272
1197.826, 24.993
1199.045, 3.746
1200.264, 27.399
1201.483, 29.204
1202.702, 51.927
1203.920, 45.617
1205.138, 27.612
1206.356, 77.346
1207.574, 49.616
1208.792, 58.311
1210.009, 39.935
1211.227, 74.957
1212.444, 17.739
1213.661, 87.395
1214.877, 24.184
1216.094, 79.782
1217.310, 45.378
1218.526, 67.017
1219.742, 30.563
1220.958, 41.429
1222.173, 77.956
1223.389, 23.473
1224.604, 55.355
1225.819, 45.853
1227.034, 63.339
1228.248, 14.923
1229.463, 131.387
1230.677, 69.658
1231.891, 46.104
1233.105, 73.590
1234.318, 36.178
1235.532, 64.626
1236.745, 86.034
1237.958, 89.543
1239.171, 86.929
1240.384, 64.308
1241.596, 62.679
1242.809, 99.041
1244.021, 32.396
1245.233, 58.742
1246.444, 115.080
1247.656, 107.490
1248.867, 96.575
1250.079, 109.864
1251.290, 92.513
1252.500, 96.844
1253.711, 55.005
1254.921, 47.281
1256.132, 144.567
1257.342, 85.709
1258.552, 93.953
1259.761, 35.262
1260.971, 1.751
1262.180, 87.712
1263.389, 101.923
1264.598, 72.403
1265.807, 61.098
1267.015, 51.029
1268.223, 89.744
1269.432, 28.909
1270.640, 71.063
1271.847, 84.360
1273.055, 52.387
1274.262, 97.587
1275.470, 87.834
1276.677, 49.881
1277.883, 41.403
1279.090, 57.297
1280.296, 8.165
1281.503, 37.918
1282.709, 71.625
1283.915, 48.420
1285.120, 71.087
1286.326, 86.842
1287.531, 50.599
1288.736, 47.435
1289.941, 30.329
1291.146, 99.243
1292.350, 103.641
1293.555, 98.267
1294.759, 40.232
1295.963, 50.599
1297.167, 15.383
1298.370, 30.292
1299.574, 29.176
1300.777, 52.072
1301.980, 46.707
1303.183, 29.630
1304.386, 77.498
1305.588, 48.396
1306.790, 9.762
1307.993, 18.076
1309.195, 58.788
1310.396, 27.617
1311.598, 30.306
1312.799, 46.230
1314.000, 11.959
1315.201, 54.912
1316.402, 0.934
1317.603, 26.095
1318.803, 41.461
1320.003, 83.947
1321.203, 20.638
1322.403, 36.088
1323.603, 40.805
1324.802, 21.824
1326.002, 40.879
1327.201, 85.661
1328.400, 46.248
1329.599, 92.995
1330.797, 100.014
1331.995, 32.512
1333.194, 34.833
1334.392, 6.230
1335.589, 63.812
1336.787, 63.731
1337.985, 57.165
1339.182, 39.750
1340.379, 60.295
1341.576, 98.819
1342.772, 46.215
1343.969, 91.396
1345.165, 27.800
1346.361, 45.207
1347.557, 50.729
1348.753, 6.214
1349.949, 35.573
1351.144, 4.936
1352.339, 40.527
1353.534, 82.999
1354.729, 1.402
1355.924, 17.984
1357.118, 40.110
1358.312, 15.543
1359.506, 48.753
1360.700, 47.169
1361.894, 34.528
1363.088, 66.963
1364.281, 5.204
1365.474, 78.640
1366.667, 92.010
1367.860, 2.153
1369.052, 53.490
1370.245, 77.773
1371.437, 28.139
1372.629, 66.065
1373.821, 43.384
1375.013, 76.115
1376.204, 36.344
1377.395, 18.625
1378.586, 45.804
1379.777, 52.980
1380.968, 26.175
1382.159, 64.119
1383.349, 73.856
1384.539, 94.575
1385.729, 73.094
1386.919, 66.793
1388.109, 68.450
1389.298, 58.334
1390.487, 33.680
1391.676, 70.330
1392.865, 1.189
1394.054, 35.656
1395.242, 43.260
1396.431, 63.746
1397.619, 87.087
1398.807, 47.662
1399.995, 65.150
1401.182, 37.623
1402.370, 35.983
1403.557, 5.736
1404.744, 58.162
1405.931, 51.680
1407.118, 6.003
1408.304, 63.276
1409.490, 73.767
1410.676, 72.036
1411.862, 60.847
1413.048, 71.091
1414.234, 17.299
1415.419, 88.691
1416.604, 30.257
1417.789, 45.444
1418.974, 76.577
1420.159, 4.561
1421.343, 52.088
1422.528, 47.345
1423.712, 72.062
1424.896, 94.641
1426.079, 74.807
1427.263, 98.993
1428.446, 84.130
1429.629, 36.700
1430.812, 61.985
1431.995, 28.144
1433.178, 33.444
1434.360, 6.325
1435.543, 0.301
1436.725, 32.419
1437.907, 10.520
1439.088, 22.664
1440.270, 43.913
1441.451, 33.678
1442.632, 79.792
1443.813, 28.846
1444.994, 27.448
1446.175, 60.941
1447.355, 28.103
1448.535, 26.064
1449.715, 41.136
1450.895, 83.827
1452.075, 33.894
1453.255, 53.796
1454.434, 4.906
1455.613, 64.996
1456.792, 51.064
1457.971, 54.939
1459.149, 15.885
1460.328, 76.798
1461.506, 47.734
1462.684, 40.550
1463.862, 63.660
1465.040, 54.566
1466.217, 102.770
1467.395, 30.619
1468.572, 9.458
1469.749, 53.881
1470.925, 12.454
1472.102, 76.862
1473.278, 30.706
1474.455, 110.624
1475.631, 97.561
1476.807, 69.441
1477.982, 45.201
1479.158, 68.590
1480.333, 76.538
1481.508, 29.730
1482.683, 76.495
1483.858, 64.173
1485.033, 2.167
1486.207, 60.318
1487.381, 39.097
1488.555, 50.819
1489.729, 74.920
1490.903, 98.615
1492.076, 65.968
1493.250, 56.649
1494.423, 71.343
1495.596, 73.995
1496.769, 2.170
1497.941, 71.420
1499.114, 76.115
1500.286, 46.792
1501.458, 110.489
1502.630, 52.276
1503.802, 20.081
1504.973, 28.357
1506.145, 3.779
1507.316, 33.843
1508.487, 22.635
1509.657, 44.434
1510.828, 91.820
1511.999, 22.586
1513.169, 74.346
1514.339, 36.614
1515.509, 1.902
1516.678, 47.927
1517.848, 56.466
1519.017, 28.339
1520.187, 72.129
1521.356, 1.077
1522.524, 0.000
##END=



