##NAMES=Hughesite
##RRUFFID=R130080
##IDEAL CHEMISTRY=Na_3_AlV^5+^_10_O_28_&#183;22H_2_O
##LOCALITY=Sunday mine, Gypsum Valley, San Miguel County, Slick Rock District, Colorado, USA
##OWNER=National Museum of Natural History of the Smithsonian Institution
##SOURCE=John Rakovan
##DESCRIPTION=Orange to golden orange crystals in efflorescent crusts. Data from Rakovan et al (2011)
##STATUS=The identification of this mineral has been confirmed by X-ray diffraction and chemical analysis
##URL=rruff.info/R130080
##MEASURED CHEMISTRY=Na_2.99_Al_1.05_(V_10_O_28_)&#183;5.70H_2_O
##ORIENTATION=Laser parallel to a [1 0 0]. Fiducial mark perpendicular to laser is parallel to b [0 1 0]
139.6050, 0.0000000E+00
140.7170, 509.0469
141.8290, 1060.484
142.9410, 2421.094
144.0530, 2617.891
145.1650, 1725.578
146.2770, 2479.078
147.3880, 2103.578
148.4990, 1034.297
149.6100, 665.7969
150.7210, 66.01562
151.8310, 162.8750
152.9420, 48.00000
154.0520, 0.4375000
155.1620, 670.5469
156.2720, 1073.891
157.3820, 17.59375
158.4910, 360.9375
159.6010, 1393.047
160.7100, 2045.172
161.8190, 358.5938
162.9280, 52.48438
164.0360, 1842.984
165.1450, 2240.125
166.2530, 3817.922
167.3610, 5013.406
168.4690, 8256.594
169.5770, 12104.75
170.6840, 16749.20
171.7920, 22077.39
172.8990, 29361.81
174.0060, 35174.44
175.1130, 40438.12
176.2190, 44074.73
177.3260, 45034.22
178.4320, 43393.47
179.5380, 42859.27
180.6440, 42792.53
181.7500, 41552.08
182.8550, 41615.81
183.9610, 38657.66
185.0660, 33866.52
186.1710, 28667.25
187.2760, 22512.84
188.3810, 16791.19
189.4850, 13440.20
190.5890, 9906.828
191.6940, 7550.031
192.7980, 4770.766
193.9010, 4267.000
195.0050, 2323.719
196.1080, 1588.891
197.2120, 1318.453
198.3150, 348.5938
199.4170, 1269.266
200.5200, 218.5938
201.6230, 595.8281
202.7250, 161.4844
203.8270, 602.0781
204.9290, 1263.250
206.0310, 3579.656
207.1330, 5376.875
208.2340, 7092.438
209.3350, 8809.578
210.4360, 10134.12
211.5370, 9907.250
212.6380, 10573.50
213.7390, 9482.188
214.8390, 8322.375
215.9390, 7139.422
217.0390, 8975.297
218.1390, 7559.969
219.2390, 8022.469
220.3380, 9330.844
221.4370, 10751.05
222.5370, 12945.06
223.6360, 14387.91
224.7340, 15520.61
225.8330, 17488.19
226.9310, 16349.61
228.0300, 16659.89
229.1280, 15857.09
230.2250, 17225.19
231.3230, 16843.17
232.4210, 16899.06
233.5180, 16434.86
234.6150, 15355.59
235.7120, 14438.67
236.8090, 12872.05
237.9060, 12090.23
239.0020, 12406.34
240.0980, 12746.44
241.1940, 13270.48
242.2900, 15929.50
243.3860, 17557.47
244.4820, 19836.41
245.5770, 22874.34
246.6720, 24333.22
247.7670, 26218.06
248.8620, 27762.86
249.9570, 28704.62
251.0510, 30053.36
252.1460, 32253.05
253.2400, 34820.72
254.3340, 35983.33
255.4280, 39425.92
256.5210, 39033.48
257.6150, 39802.02
258.7080, 38448.52
259.8010, 37656.98
260.8940, 36666.41
261.9870, 35199.50
263.0790, 33954.73
264.1710, 32077.94
265.2640, 32580.45
266.3560, 30190.66
267.4480, 28560.16
268.5390, 26500.73
269.6310, 23360.55
270.7220, 19589.25
271.8130, 18046.56
272.9040, 15409.11
273.9950, 13235.22
275.0850, 10206.36
276.1760, 8793.859
277.2660, 7096.219
278.3560, 6852.688
279.4460, 5352.750
280.5360, 4860.891
281.6250, 5780.766
282.7150, 3763.219
283.8040, 5223.812
284.8930, 4384.844
285.9820, 4463.406
287.0710, 4781.094
288.1590, 5747.969
289.2470, 6821.781
290.3350, 6916.266
291.4230, 7097.391
292.5110, 7513.641
293.5990, 8654.000
294.6860, 9515.531
295.7740, 10531.09
296.8610, 11216.75
297.9480, 11867.53
299.0340, 12835.36
300.1210, 15085.30
301.2070, 16832.84
302.2930, 19109.83
303.3790, 21145.97
304.4650, 24300.23
305.5510, 27625.66
306.6360, 33286.17
307.7220, 37349.81
308.8070, 42501.55
309.8920, 49114.38
310.9770, 56276.31
312.0610, 62409.31
313.1460, 70465.41
314.2300, 74315.53
315.3140, 78796.78
316.3980, 81035.06
317.4820, 80844.41
318.5650, 78798.81
319.6490, 75870.25
320.7320, 71025.75
321.8150, 65004.28
322.8980, 58126.88
323.9810, 54113.50
325.0630, 48116.17
326.1460, 43499.88
327.2280, 39449.59
328.3100, 36553.38
329.3920, 33545.98
330.4730, 30823.45
331.5550, 28922.86
332.6360, 26408.97
333.7170, 24548.88
334.7980, 23045.77
335.8790, 20127.64
336.9590, 20520.52
338.0400, 19364.38
339.1200, 18358.20
340.2000, 17228.02
341.2800, 15938.81
342.3600, 15765.56
343.4390, 14543.30
344.5190, 13308.98
345.5980, 12276.66
346.6770, 11875.28
347.7560, 11049.88
348.8350, 10197.44
349.9130, 10636.98
350.9920, 9966.484
352.0700, 9321.969
353.1480, 9056.422
354.2260, 9359.844
355.3030, 9269.281
356.3810, 10693.66
357.4580, 10122.03
358.5350, 10395.36
359.6120, 10954.70
360.6890, 9315.000
361.7650, 9312.297
362.8420, 8489.578
363.9180, 7371.828
364.9940, 6346.062
366.0700, 4948.312
367.1460, 4909.531
368.2210, 3448.750
369.2970, 2377.969
370.3720, 2258.188
371.4470, 2389.375
372.5220, 2345.594
373.5970, 1587.797
374.6710, 1391.000
375.7460, 1678.188
376.8200, 1336.391
377.8940, 466.5781
378.9680, 602.7812
380.0410, 753.9844
381.1150, 1319.188
382.1880, 420.6094
383.2610, 1018.562
384.3340, 240.8281
385.4070, 654.7812
386.4800, 396.4062
387.5520, 226.0156
388.6240, 380.3594
389.6970, 1088.875
390.7680, 697.7344
391.8400, 26.00000
392.9120, 202.7656
393.9830, 959.6406
395.0540, 452.9688
396.1260, 333.9688
397.1960, 495.2500
398.2670, 255.0938
399.3380, 203.8125
400.4080, 969.4062
401.4780, 488.1250
402.5480, 304.8906
403.6180, 438.0625
404.6880, 172.7500
405.7580, 505.4375
406.8270, 158.9219
407.8960, 147.5156
408.9650, 180.2500
410.0340, 140.0781
411.1030, 576.0469
412.1710, 562.3281
413.2390, 604.9375
414.3080, 105.1250
415.3760, 450.7969
416.4430, 304.9688
417.5110, 11.31250
418.5780, 141.3281
419.6460, 795.9688
420.7130, 511.6875
421.7800, 524.4531
422.8470, 537.2500
423.9130, 604.0938
424.9800, 1215.000
426.0460, 2234.953
427.1120, 1773.969
428.1780, 852.0312
429.2440, 1799.125
430.3090, 1935.297
431.3750, 1805.531
432.4400, 1530.812
433.5050, 209.1562
434.5700, 1499.578
435.6350, 1305.031
436.6990, 2082.578
437.7640, 1934.172
438.8280, 2343.859
439.8920, 1848.578
440.9560, 1801.391
442.0190, 2670.250
443.0830, 1617.188
444.1460, 2829.219
445.2100, 3067.281
446.2730, 3261.422
447.3350, 2773.641
448.3980, 4153.922
449.4610, 3176.281
450.5230, 4177.703
451.5850, 5500.234
452.6470, 5645.797
453.7090, 5655.469
454.7710, 6343.203
455.8320, 7001.016
456.8930, 7389.906
457.9550, 7825.953
459.0160, 8107.344
460.0760, 9044.875
461.1370, 8860.609
462.1970, 9005.438
463.2580, 9859.344
464.3180, 10408.36
465.3780, 10368.42
466.4380, 10778.62
467.4970, 9218.891
468.5570, 9448.250
469.6160, 9731.703
470.6750, 8072.312
471.7340, 8158.047
472.7930, 7560.859
473.8510, 6793.781
474.9100, 6238.812
475.9680, 6097.938
477.0260, 6037.219
478.0840, 4660.609
479.1420, 4616.094
480.1990, 3642.688
481.2570, 4241.375
482.3140, 3592.203
483.3710, 3951.109
484.4280, 3673.125
485.4850, 3149.312
486.5410, 3642.609
487.5980, 3571.016
488.6540, 2673.547
489.7100, 2329.188
490.7660, 3303.938
491.8220, 3782.812
492.8770, 4094.797
493.9330, 3576.906
494.9880, 2615.156
496.0430, 3560.500
497.0980, 3577.969
498.1530, 2070.578
499.2070, 3098.312
500.2610, 3125.172
501.3160, 3562.156
502.3700, 3841.328
503.4240, 3377.609
504.4770, 3747.031
505.5310, 4109.578
506.5840, 4593.281
507.6370, 5011.094
508.6900, 3736.062
509.7430, 4423.203
510.7960, 4108.703
511.8480, 4830.047
512.9010, 5275.781
513.9530, 4432.531
515.0050, 5690.484
516.0570, 4575.984
517.1090, 5248.312
518.1600, 5610.969
519.2110, 4413.375
520.2630, 4253.781
521.3140, 4169.250
522.3640, 4348.734
523.4150, 5350.984
524.4660, 5349.984
525.5160, 4671.547
526.5660, 4879.625
527.6160, 5862.359
528.6660, 4699.781
529.7160, 5290.609
530.7650, 5517.984
531.8150, 4170.219
532.8640, 4672.703
533.9130, 4304.219
534.9610, 5074.938
536.0100, 4736.328
537.0590, 5116.625
538.1070, 5562.078
539.1550, 4572.891
540.2030, 5765.766
541.2510, 5236.562
542.2990, 6059.781
543.3460, 6112.297
544.3930, 6779.219
545.4410, 6984.062
546.4880, 7347.703
547.5340, 7787.578
548.5810, 7896.688
549.6280, 7707.031
550.6740, 8076.578
551.7200, 7772.375
552.7660, 8023.422
553.8120, 8670.703
554.8570, 8609.203
555.9030, 9807.938
556.9480, 8430.906
557.9930, 8886.125
559.0380, 9557.578
560.0830, 10031.25
561.1280, 9329.156
562.1720, 10227.31
563.2170, 10799.72
564.2610, 11259.34
565.3050, 9546.219
566.3490, 10770.33
567.3920, 11531.67
568.4360, 10637.27
569.4790, 11231.09
570.5220, 12091.16
571.5650, 13071.48
572.6080, 12125.03
573.6510, 13552.83
574.6930, 14407.86
575.7360, 15184.14
576.7780, 15775.66
577.8200, 17033.44
578.8620, 18344.45
579.9030, 18011.69
580.9450, 19450.19
581.9860, 19886.92
583.0270, 20913.91
584.0680, 21954.12
585.1090, 22547.59
586.1500, 23520.42
587.1900, 22993.39
588.2310, 22888.58
589.2710, 21885.03
590.3110, 22985.72
591.3510, 21818.12
592.3900, 22433.30
593.4300, 22252.70
594.4690, 21776.38
595.5080, 21419.17
596.5470, 21366.31
597.5860, 20012.72
598.6250, 19590.73
599.6630, 19030.61
600.7020, 19074.72
601.7400, 18923.59
602.7780, 17796.41
603.8160, 17461.27
604.8540, 15805.36
605.8910, 16484.69
606.9280, 15952.36
607.9660, 14106.19
609.0030, 14130.27
610.0390, 13369.28
611.0760, 12783.81
612.1130, 12514.61
613.1490, 12589.66
614.1850, 11755.91
615.2210, 11286.44
616.2570, 11614.19
617.2930, 11039.19
618.3280, 9867.438
619.3640, 9651.906
620.3990, 8801.656
621.4340, 9067.625
622.4690, 9671.828
623.5040, 9909.266
624.5380, 8507.953
625.5730, 8853.859
626.6070, 8850.812
627.6410, 8269.219
628.6750, 7336.859
629.7090, 7524.969
630.7420, 7895.078
631.7760, 6610.438
632.8090, 6760.047
633.8420, 6776.875
634.8750, 7205.656
635.9080, 6318.438
636.9400, 6839.797
637.9730, 6139.156
639.0050, 6218.859
640.0370, 6671.734
641.0690, 5348.984
642.1010, 5633.219
643.1320, 5304.922
644.1640, 5636.516
645.1950, 5860.422
646.2260, 5011.859
647.2570, 5837.672
648.2880, 5571.250
649.3190, 4973.734
650.3490, 4597.906
651.3790, 5084.469
652.4090, 4450.016
653.4390, 4249.188
654.4690, 4837.891
655.4990, 5035.406
656.5280, 3526.844
657.5580, 3795.641
658.5870, 3600.422
659.6160, 4112.938
660.6450, 3885.953
661.6730, 3843.438
662.7020, 3676.125
663.7300, 3550.203
664.7580, 2706.672
665.7860, 2882.703
666.8140, 3346.328
667.8420, 3742.312
668.8690, 4143.250
669.8970, 3032.812
670.9240, 4421.156
671.9510, 3149.031
672.9780, 2288.391
674.0050, 2823.062
675.0310, 2331.906
676.0580, 3720.000
677.0840, 1941.297
678.1100, 2876.750
679.1360, 2326.422
680.1610, 2165.297
681.1870, 1537.344
682.2120, 2637.594
683.2380, 2298.984
684.2630, 2914.562
685.2880, 1281.312
686.3130, 2234.234
687.3370, 2663.312
688.3620, 1727.578
689.3860, 2209.984
690.4100, 1919.562
691.4340, 2292.281
692.4580, 2407.172
693.4810, 1190.234
694.5050, 1200.453
695.5280, 1708.828
696.5510, 1257.344
697.5740, 1532.031
698.5970, 1353.859
699.6200, 1239.844
700.6420, 1389.969
701.6640, 721.2500
702.6870, 1062.672
703.7090, 809.2500
704.7300, 930.9844
705.7520, 640.8438
706.7740, 767.8438
707.7950, 1119.984
708.8160, 158.7031
709.8370, 791.6875
710.8580, 1722.234
711.8790, 1143.906
712.8990, 453.7188
713.9200, 114.3438
714.9400, 1027.719
715.9600, 256.9062
716.9800, 921.2188
718.0000, 526.3125
719.0190, 823.1094
720.0390, 853.6562
721.0580, 261.6562
722.0770, 689.0938
723.0960, 1371.953
724.1150, 342.0469
725.1330, 83.01562
726.1520, 304.0938
727.1700, 94.35938
728.1880, 1577.703
729.2060, 10.18750
730.2240, 561.7656
731.2420, 271.4531
732.2590, 362.7344
733.2770, 549.0469
734.2940, 1074.953
735.3110, 902.9688
736.3280, 205.0938
737.3440, 82.29688
738.3610, 153.6250
739.3770, 71.06250
740.3930, 742.5625
741.4100, 835.1875
742.4250, 20.90625
743.4410, 107.7031
744.4570, 593.5938
745.4720, 466.5781
746.4870, 768.6406
747.5020, 284.8125
748.5170, 305.9219
749.5320, 932.2812
750.5470, 889.5938
751.5610, 8.984375
752.5750, 182.4531
753.5900, 167.0000
754.6040, 25.60938
755.6170, 1265.312
756.6310, 480.9219
757.6440, 467.7188
758.6580, 480.5781
759.6710, 816.9688
760.6840, 206.4219
761.6970, 1042.172
762.7100, 1145.844
763.7220, 363.4375
764.7340, 357.8281
765.7470, 206.3594
766.7590, 274.8906
767.7710, 861.4844
768.7820, 344.8906
769.7940, 239.3906
770.8050, 205.9688
771.8160, 298.6406
772.8280, 131.4375
773.8390, 777.7031
774.8490, 97.09375
775.8600, 1.937500
776.8700, 420.2031
777.8810, 236.7656
778.8910, 829.7031
779.9010, 96.93750
780.9110, 275.4062
781.9200, 237.0938
782.9300, 527.3750
783.9390, 151.8438
784.9480, 213.8281
785.9570, 383.1094
786.9660, 462.2500
787.9750, 438.8594
788.9830, 947.1250
789.9920, 777.0156
791.0000, 341.3125
792.0080, 240.6406
793.0160, 527.2344
794.0240, 611.3281
795.0310, 723.5312
796.0390, 584.4531
797.0460, 1273.203
798.0530, 1178.125
799.0600, 1575.031
800.0670, 1605.766
801.0730, 1057.328
802.0800, 1004.203
803.0860, 2314.844
804.0920, 1734.984
805.0980, 1868.844
806.1040, 1660.578
807.1100, 2840.422
808.1160, 2176.266
809.1210, 1705.141
810.1260, 1242.156
811.1310, 1630.141
812.1360, 2408.203
813.1410, 1703.203
814.1450, 2367.203
815.1500, 2608.156
816.1540, 2590.094
817.1580, 1992.000
818.1620, 2531.906
819.1660, 3079.750
820.1700, 3096.594
821.1730, 2775.391
822.1760, 3156.156
823.1800, 3399.859
824.1830, 3904.578
825.1850, 3286.234
826.1880, 3788.875
827.1910, 3813.469
828.1930, 3833.031
829.1950, 5074.562
830.1970, 5027.938
831.1990, 5174.391
832.2010, 5502.781
833.2020, 6464.141
834.2040, 6061.469
835.2050, 7358.281
836.2060, 7527.531
837.2070, 8921.734
838.2080, 8758.891
839.2090, 9878.125
840.2090, 11038.19
841.2090, 11985.20
842.2100, 12869.81
843.2100, 14137.73
844.2090, 14730.62
845.2090, 16898.97
846.2090, 18272.53
847.2080, 22011.28
848.2070, 22715.97
849.2060, 23895.61
850.2050, 25487.09
851.2040, 26164.62
852.2030, 27727.12
853.2010, 25634.88
854.1990, 26816.27
855.1980, 24726.61
856.1960, 23545.89
857.1930, 21276.11
858.1910, 19610.28
859.1880, 17819.39
860.1860, 16149.45
861.1830, 13361.47
862.1800, 12723.41
863.1770, 11705.23
864.1740, 10419.06
865.1700, 9813.828
866.1670, 8680.531
867.1630, 8551.172
868.1590, 6202.766
869.1550, 6133.500
870.1510, 6522.953
871.1460, 5815.359
872.1420, 6073.469
873.1370, 4375.734
874.1320, 3624.938
875.1270, 3913.031
876.1220, 3320.125
877.1170, 3474.562
878.1110, 3209.516
879.1060, 2933.203
880.1000, 2226.016
881.0940, 3009.656
882.0880, 1510.359
883.0820, 4110.969
884.0750, 1350.078
885.0690, 514.1250
886.0620, 1617.516
887.0550, 1864.828
888.0480, 1453.094
889.0410, 2011.297
890.0340, 1206.891
891.0260, 1957.938
892.0180, 1643.594
893.0110, 1034.984
894.0030, 1183.844
894.9950, 1224.422
895.9860, 1067.609
896.9780, 513.2969
897.9690, 1425.219
898.9610, 1210.125
899.9520, 1094.234
900.9430, 1013.859
901.9330, 989.2188
902.9240, 855.3438
903.9150, 325.5938
904.9050, 1683.734
905.8950, 763.1875
906.8850, 14.76562
907.8750, 959.2188
908.8650, 263.1094
909.8540, 168.2031
910.8440, 750.7969
911.8330, 1113.266
912.8220, 850.1250
913.8110, 246.5781
914.8000, 648.6406
915.7880, 64.67188
916.7770, 349.2969
917.7650, 702.2031
918.7530, 137.1406
919.7410, 90.92188
920.7290, 861.5469
921.7170, 373.7344
922.7050, 550.2969
923.6920, 732.7969
924.6790, 455.2969
925.6660, 1531.250
926.6530, 904.7969
927.6400, 586.5156
928.6270, 2877.844
929.6130, 778.6719
930.5990, 1392.328
931.5860, 1423.719
932.5720, 1223.078
933.5570, 2590.766
934.5430, 1126.016
935.5290, 2595.266
936.5140, 2901.641
937.4990, 3324.938
938.4840, 2484.344
939.4690, 3130.781
940.4540, 2836.172
941.4390, 2827.594
942.4230, 4322.953
943.4070, 3030.047
944.3920, 4001.203
945.3760, 4887.422
946.3590, 5006.625
947.3430, 4649.828
948.3270, 5567.156
949.3100, 6159.594
950.2930, 6881.875
951.2760, 8372.125
952.2590, 8664.312
953.2420, 10142.50
954.2250, 11942.62
955.2070, 12156.69
956.1900, 14541.72
957.1720, 17832.69
958.1540, 20430.66
959.1360, 22991.75
960.1170, 26236.75
961.0990, 28959.75
962.0800, 31683.72
963.0610, 34546.59
964.0430, 38026.50
965.0230, 43208.34
966.0040, 49470.12
966.9850, 57979.84
967.9650, 68014.50
968.9460, 78047.09
969.9260, 86699.69
970.9060, 90710.19
971.8860, 90247.69
972.8650, 84739.16
973.8450, 77019.53
974.8240, 67626.84
975.8040, 57595.09
976.7830, 49336.34
977.7620, 41265.47
978.7410, 36377.59
979.7190, 30721.62
980.6980, 26819.62
981.6760, 23995.56
982.6540, 21744.44
983.6320, 20508.31
984.6100, 21366.06
985.5880, 20634.78
986.5650, 20717.44
987.5430, 21813.09
988.5200, 24167.72
989.4970, 27795.25
990.4740, 30015.75
991.4510, 35708.22
992.4280, 42057.62
993.4040, 51491.97
994.3810, 63707.25
995.3570, 80125.62
996.3330, 100167.9
997.3090, 120452.2
998.2840, 135897.5
999.2600, 138739.8
1000.240, 126747.0
1001.210, 106221.2
1002.190, 83136.44
1003.160, 65391.97
1004.140, 49171.16
1005.110, 38537.31
1006.090, 31384.38
1007.060, 25145.53
1008.030, 20403.69
1009.010, 16260.84
1009.980, 13211.03
1010.960, 11972.22
1011.930, 9621.344
1012.900, 8300.469
1013.880, 7265.562
1014.850, 6996.750
1015.820, 6046.812
1016.790, 4639.062
1017.770, 4649.844
1018.740, 4128.406
1019.710, 4134.594
1020.680, 2815.906
1021.660, 1731.875
1022.630, 2619.062
1023.600, 2171.844
1024.570, 1760.719
1025.540, 2574.062
1026.520, 2260.375
1027.490, 1191.562
1028.460, 1226.156
1029.430, 1977.062
1030.400, 1192.438
1031.370, 775.7188
1032.340, 64.00000
1033.310, 834.5625
1034.280, 1139.969
1035.250, 81.84375
1036.220, 985.2812
1037.190, 741.8750
1038.160, 143.8750
1039.130, 1108.438
1040.100, 193.8438
1041.070, 442.0938
1042.040, 82.96875
1043.010, 390.6562
1043.970, 310.5625
1044.940, 794.5312
1045.910, 321.5000
1046.880, 196.1875
1047.850, 929.7812
1048.810, 681.8750
1049.780, 189.9688
1050.750, 719.2500
1051.720, 184.7188
1052.680, 1140.938
1053.650, 555.3438
1054.620, 725.4062
1055.590, 846.6250
1056.550, 596.5938
1057.520, 547.9375
1058.490, 528.6250
1059.450, 370.8125
1060.420, 362.9062
1061.380, 796.4375
1062.350, 1135.219
1063.320, 809.4062
1064.280, 988.3750
1065.250, 563.9375
1066.210, 899.5312
1067.180, 1295.906
1068.140, 997.6562
1069.110, 1397.281
1070.070, 1864.406
1071.030, 1628.250
1072.000, 830.2812
1072.960, 1096.781
1073.930, 1935.719
1074.890, 1396.594
1075.850, 1548.562
1076.820, 2249.375
1077.780, 2034.000
1078.740, 1722.719
1079.710, 905.3125
1080.670, 2017.938
1081.630, 1958.469
1082.600, 2220.156
1083.560, 2677.562
1084.520, 1796.969
1085.480, 2315.312
1086.450, 3123.625
1087.410, 2967.875
1088.370, 2147.094
1089.330, 746.2500
1090.290, 1973.375
1091.250, 2215.438
1092.210, 1976.438
1093.180, 2338.406
1094.140, 1752.344
1095.100, 1071.219
1096.060, 1807.031
1097.020, 2179.844
1097.980, 2338.531
1098.940, 1807.250
1099.900, 2582.875
1100.860, 3586.469
1101.820, 829.0312
1102.780, 2181.500
1103.740, 3105.969
1104.700, 2418.375
1105.660, 1857.219
1106.610, 1716.531
1107.570, 2411.812
1108.530, 3038.062
1109.490, 2745.219
1110.450, 2885.344
1111.410, 2287.438
1112.360, 2861.500
1113.320, 1599.469
1114.280, 1359.406
1115.240, 2922.344
1116.190, 2261.188
1117.150, 2262.969
1118.110, 1067.750
1119.070, 2036.469
1120.020, 1659.188
1120.980, 2104.844
1121.940, 2080.406
1122.890, 1089.000
1123.850, 2679.500
1124.810, 1064.938
1125.760, 1234.344
1126.720, 1193.719
1127.670, 972.0312
1128.630, 1614.312
1129.580, 2495.531
1130.540, 1247.719
1131.490, 1308.844
1132.450, 500.9688
1133.400, 227.0312
1134.360, 1053.000
1135.310, 1169.906
1136.270, 533.7812
1137.220, 1302.625
1138.180, 1303.438
1139.130, 835.4688
1140.080, 878.5312
1141.040, 477.5625
1141.990, 368.5625
1142.940, 747.5312
1143.900, 1446.469
1144.850, 1751.656
1145.800, 391.1562
1146.750, 274.6875
1147.710, 728.6562
1148.660, 1100.156
1149.610, 303.6250
1150.560, 5.062500
1151.520, 1336.250
1152.470, 38.43750
1153.420, 420.9688
1154.370, 2.093750
1155.320, 591.1875
1156.270, 430.8438
1157.220, 70.43750
1158.180, 872.9688
1159.130, 310.7500
1160.080, 30.65625
1161.030, 638.5312
1161.980, 383.4062
1162.930, 975.5000
1163.880, 867.5000
1164.830, 274.0312
1165.780, 762.9375
1166.730, 272.7500
1167.680, 119.2500
1168.630, 505.3125
1169.580, 237.2188
1170.520, 283.6562
1171.470, 257.4688
1172.420, 695.1562
1173.370, 435.7812
1174.320, 35.46875
1175.270, 1750.156
1176.220, 253.6250
1177.160, 295.9375
1178.110, 532.7188
1179.060, 177.9375
1180.010, 494.6250
1180.950, 295.2188
1181.900, 10.18750
