##NAMES=Hughesite
##RRUFFID=R130080
##IDEAL CHEMISTRY=Na_3_AlV^5+^_10_O_28_&#183;22H_2_O
##LOCALITY=Sunday mine, Gypsum Valley, San Miguel County, Slick Rock District, Colorado, USA
##OWNER=National Museum of Natural History of the Smithsonian Institution
##SOURCE=John Rakovan
##DESCRIPTION=Orange to golden orange crystals in efflorescent crusts. Data from Rakovan et al (2011)
##STATUS=The identification of this mineral has been confirmed by X-ray diffraction and chemical analysis
##URL=rruff.info/R130080
##MEASURED CHEMISTRY=Na_2.99_Al_1.05_(V_10_O_28_)&#183;5.70H_2_O
##ORIENTATION=Laser parallel to a [1 0 0]. Fiducial mark perpendicular to laser is parallel to b [0 1 0]
140.7170, 0.0000000E+00
141.8290, 1784.375
142.9410, 2260.406
144.0530, 2393.688
145.1650, 4187.094
146.2770, 4924.375
147.3880, 4767.094
148.4990, 4317.562
149.6100, 5047.594
150.7210, 4919.250
151.8310, 4406.031
152.9420, 2917.719
154.0520, 2683.281
155.1620, 1600.812
156.2720, 627.9062
157.3820, 949.7500
158.4910, 1030.750
159.6010, 210.0938
160.7100, 413.8125
161.8190, 510.6875
162.9280, 1030.344
164.0360, 870.2188
165.1450, 2292.062
166.2530, 2844.031
167.3610, 3801.344
168.4690, 5706.375
169.5770, 8198.500
170.6840, 10753.16
171.7920, 13283.47
172.8990, 16409.50
174.0060, 19526.62
175.1130, 23369.56
176.2190, 26738.50
177.3260, 29072.91
178.4320, 31840.09
179.5380, 32938.41
180.6440, 37812.47
181.7500, 42865.84
182.8550, 47582.19
183.9610, 52690.22
185.0660, 59186.59
186.1710, 64630.12
187.2760, 71733.56
188.3810, 78106.81
189.4850, 82420.56
190.5890, 83020.69
191.6940, 81821.03
192.7980, 79783.50
193.9010, 75501.00
195.0050, 71291.31
196.1080, 66166.38
197.2120, 64208.09
198.3150, 60243.41
199.4170, 58340.31
200.5200, 56875.25
201.6230, 54852.09
202.7250, 51474.12
203.8270, 46131.69
204.9290, 41615.94
206.0310, 36810.66
207.1330, 31800.03
208.2340, 27783.44
209.3350, 25493.88
210.4360, 25976.50
211.5370, 25133.50
212.6380, 25875.31
213.7390, 27399.72
214.8390, 27163.81
215.9390, 27870.50
217.0390, 26970.69
218.1390, 28165.38
219.2390, 27031.09
220.3380, 26390.84
221.4370, 26802.66
222.5370, 27430.56
223.6360, 27945.53
224.7340, 30066.59
225.8330, 32965.78
226.9310, 35282.12
228.0300, 38395.56
229.1280, 42668.19
230.2250, 45288.00
231.3230, 47666.06
232.4210, 47795.38
233.5180, 49336.84
234.6150, 48724.59
235.7120, 46728.62
236.8090, 47470.94
237.9060, 46568.50
239.0020, 47555.34
240.0980, 48063.50
241.1940, 48901.91
242.2900, 51963.59
243.3860, 51247.59
244.4820, 52238.84
245.5770, 51683.38
246.6720, 52053.16
247.7670, 52087.25
248.8620, 50400.59
249.9570, 48427.19
251.0510, 46640.06
252.1460, 44921.25
253.2400, 44392.69
254.3340, 43466.41
255.4280, 42435.38
256.5210, 41050.66
257.6150, 41002.25
258.7080, 38669.28
259.8010, 38248.75
260.8940, 36152.97
261.9870, 34947.97
263.0790, 32561.53
264.1710, 30465.59
265.2640, 29586.31
266.3560, 28117.72
267.4480, 27545.31
268.5390, 26988.72
269.6310, 27930.41
270.7220, 27148.69
271.8130, 27578.31
272.9040, 26031.94
273.9950, 24782.75
275.0850, 22282.97
276.1760, 20650.84
277.2660, 18723.66
278.3560, 17113.03
279.4460, 14945.94
280.5360, 13182.00
281.6250, 12648.56
282.7150, 10484.34
283.8040, 10815.91
284.8930, 10056.97
285.9820, 9121.812
287.0710, 9043.969
288.1590, 9868.906
289.2470, 8506.281
290.3350, 8940.719
291.4230, 9278.812
292.5110, 8727.594
293.5990, 8272.875
294.6860, 8977.688
295.7740, 9055.719
296.8610, 9769.812
297.9480, 10623.12
299.0340, 11191.91
300.1210, 11985.47
301.2070, 14974.66
302.2930, 15270.28
303.3790, 17837.66
304.4650, 19294.84
305.5510, 22506.97
306.6360, 24913.00
307.7220, 30006.97
308.8070, 35184.16
309.8920, 39302.19
310.9770, 44171.59
312.0610, 50510.91
313.1460, 54039.94
314.2300, 58747.75
315.3140, 62371.28
316.3980, 64199.59
317.4820, 64407.59
318.5650, 64188.31
319.6490, 62299.75
320.7320, 58992.84
321.8150, 55675.62
322.8980, 51899.09
323.9810, 49417.22
325.0630, 45721.97
326.1460, 43475.44
327.2280, 41167.50
328.3100, 39219.22
329.3920, 37379.56
330.4730, 36233.56
331.5550, 34081.16
332.6360, 32057.31
333.7170, 30301.06
334.7980, 29339.25
335.8790, 27820.88
336.9590, 25970.94
338.0400, 24342.38
339.1200, 23580.19
340.2000, 23199.44
341.2800, 21433.00
342.3600, 20869.97
343.4390, 20085.38
344.5190, 17957.16
345.5980, 17614.34
346.6770, 18214.97
347.7560, 16171.97
348.8350, 17008.41
349.9130, 14548.25
350.9920, 14738.53
352.0700, 14630.25
353.1480, 14101.38
354.2260, 14468.94
355.3030, 13531.94
356.3810, 11597.41
357.4580, 12798.28
358.5350, 13124.59
359.6120, 13516.34
360.6890, 13453.56
361.7650, 14085.22
362.8420, 12523.31
363.9180, 13385.88
364.9940, 10774.88
366.0700, 9624.375
367.1460, 8361.281
368.2210, 7436.625
369.2970, 6810.469
370.3720, 5507.750
371.4470, 3477.500
372.5220, 2912.688
373.5970, 2418.312
374.6710, 1025.406
375.7460, 883.8438
376.8200, 38.34375
377.8940, 1650.656
378.9680, 621.9375
380.0410, 524.4688
381.1150, 1650.906
382.1880, 896.5625
383.2610, 1842.250
384.3340, 2182.188
385.4070, 1331.469
386.4800, 1622.906
387.5520, 1312.562
388.6240, 2530.500
389.6970, 1537.281
390.7680, 1604.750
391.8400, 2065.562
392.9120, 1473.031
393.9830, 948.1250
395.0540, 1237.562
396.1260, 338.7188
397.1960, 1933.188
398.2670, 192.0312
399.3380, 2351.531
400.4080, 113.3750
401.4780, 520.9375
402.5480, 579.5625
403.6180, 65.46875
404.6880, 597.5312
405.7580, 1257.906
406.8270, 867.6562
407.8960, 208.2500
408.9650, 439.8438
410.0340, 1252.188
411.1030, 1031.906
412.1710, 2267.000
413.2390, 2626.594
414.3080, 1849.688
415.3760, 2990.219
416.4430, 1644.219
417.5110, 2127.656
418.5780, 1965.562
419.6460, 2024.125
420.7130, 3576.125
421.7800, 2741.688
422.8470, 3132.781
423.9130, 3366.312
424.9800, 2197.406
426.0460, 3135.938
427.1120, 3988.938
428.1780, 2637.469
429.2440, 2716.406
430.3090, 3092.906
431.3750, 3621.844
432.4400, 4471.281
433.5050, 4189.250
434.5700, 4277.781
435.6350, 4356.781
436.6990, 3253.344
437.7640, 3951.375
438.8280, 4524.938
439.8920, 4785.031
440.9560, 4901.656
442.0190, 5283.812
443.0830, 4327.438
444.1460, 6126.625
445.2100, 7871.344
446.2730, 7028.594
447.3350, 8213.375
448.3980, 8800.688
449.4610, 9291.562
450.5230, 9692.938
451.5850, 9788.969
452.6470, 9827.594
453.7090, 10064.72
454.7710, 10723.44
455.8320, 11518.81
456.8930, 11432.75
457.9550, 12852.25
459.0160, 12447.59
460.0760, 14838.78
461.1370, 14438.50
462.1970, 14101.84
463.2580, 14622.81
464.3180, 15738.44
465.3780, 16659.84
466.4380, 15548.84
467.4970, 16541.38
468.5570, 15449.50
469.6160, 16198.19
470.6750, 15846.53
471.7340, 15393.72
472.7930, 15282.59
473.8510, 13286.31
474.9100, 14222.75
475.9680, 12650.91
477.0260, 11555.66
478.0840, 10634.03
479.1420, 10697.09
480.1990, 9431.906
481.2570, 10855.38
482.3140, 8742.438
483.3710, 8766.156
484.4280, 8747.562
485.4850, 9356.719
486.5410, 8949.500
487.5980, 7194.969
488.6540, 7142.375
489.7100, 8129.469
490.7660, 7053.219
491.8220, 7250.594
492.8770, 8002.656
493.9330, 8318.344
494.9880, 8163.656
496.0430, 8561.656
497.0980, 8844.281
498.1530, 8985.750
499.2070, 8123.688
500.2610, 8132.844
501.3160, 9333.500
502.3700, 8865.531
503.4240, 8096.594
504.4770, 8554.219
505.5310, 8361.344
506.5840, 8755.094
507.6370, 8054.375
508.6900, 8235.406
509.7430, 9626.188
510.7960, 9335.062
511.8480, 8745.125
512.9010, 8607.094
513.9530, 8822.344
515.0050, 9300.656
516.0570, 9599.156
517.1090, 9575.625
518.1600, 9955.562
519.2110, 8649.344
520.2630, 10675.09
521.3140, 9799.688
522.3640, 9071.062
523.4150, 9628.906
524.4660, 10372.69
525.5160, 9623.875
526.5660, 10469.75
527.6160, 10738.31
528.6660, 10233.53
529.7160, 10977.34
530.7650, 10032.72
531.8150, 10647.31
532.8640, 11240.34
533.9130, 9925.562
534.9610, 10515.16
536.0100, 11193.50
537.0590, 11679.78
538.1070, 11372.22
539.1550, 11995.22
540.2030, 10705.69
541.2510, 10753.28
542.2990, 10238.31
543.3460, 11902.38
544.3930, 11104.59
545.4410, 11064.50
546.4880, 11022.97
547.5340, 12175.69
548.5810, 11067.91
549.6280, 12444.84
550.6740, 12493.81
551.7200, 11368.94
552.7660, 12268.06
553.8120, 12635.78
554.8570, 13258.00
555.9030, 12303.59
556.9480, 13250.81
557.9930, 12972.34
559.0380, 13600.12
560.0830, 13176.88
561.1280, 14510.66
562.1720, 13700.47
563.2170, 13628.97
564.2610, 14594.47
565.3050, 15209.38
566.3490, 15275.34
567.3920, 15133.34
568.4360, 15375.38
569.4790, 16558.47
570.5220, 18310.59
571.5650, 17473.78
572.6080, 17817.06
573.6510, 17989.34
574.6930, 20467.72
575.7360, 20625.12
576.7780, 21748.66
577.8200, 22381.25
578.8620, 22595.88
579.9030, 24359.56
580.9450, 26698.44
581.9860, 25818.28
583.0270, 27219.56
584.0680, 29528.72
585.1090, 30068.50
586.1500, 28760.66
587.1900, 30455.00
588.2310, 31936.62
589.2710, 32015.03
590.3110, 32701.47
591.3510, 33560.19
592.3900, 33367.84
593.4300, 33166.62
594.4690, 32567.47
595.5080, 33445.84
596.5470, 32839.16
597.5860, 32119.72
598.6250, 31529.91
599.6630, 28983.59
600.7020, 29607.53
601.7400, 29659.12
602.7780, 27923.47
603.8160, 27983.38
604.8540, 27298.72
605.8910, 27347.69
606.9280, 24878.75
607.9660, 24481.38
609.0030, 22778.75
610.0390, 23177.44
611.0760, 21800.97
612.1130, 21764.94
613.1490, 22095.84
614.1850, 20243.28
615.2210, 20020.22
616.2570, 19763.31
617.2930, 16344.50
618.3280, 17416.88
619.3640, 16889.34
620.3990, 15979.91
621.4340, 15494.59
622.4690, 14701.62
623.5040, 13040.47
624.5380, 13631.56
625.5730, 13143.41
626.6070, 13345.84
627.6410, 11314.56
628.6750, 12529.47
629.7090, 12778.81
630.7420, 11969.38
631.7760, 10812.47
632.8090, 10831.12
633.8420, 9519.594
634.8750, 9880.750
635.9080, 8495.750
636.9400, 8406.781
637.9730, 8387.594
639.0050, 8605.219
640.0370, 9008.625
641.0690, 8237.125
642.1010, 7102.438
643.1320, 8157.594
644.1640, 7977.750
645.1950, 6374.719
646.2260, 6836.375
647.2570, 6651.781
648.2880, 5129.719
649.3190, 6484.594
650.3490, 5393.969
651.3790, 5640.375
652.4090, 6099.281
653.4390, 5102.500
654.4690, 3598.062
655.4990, 4303.062
656.5280, 4489.375
657.5580, 3823.906
658.5870, 4427.812
659.6160, 3823.188
660.6450, 2934.906
661.6730, 3033.000
662.7020, 4172.375
663.7300, 3704.000
664.7580, 2774.812
665.7860, 3121.844
666.8140, 2789.125
667.8420, 1888.625
668.8690, 2855.406
669.8970, 2632.625
670.9240, 2246.000
671.9510, 2386.750
672.9780, 1810.844
674.0050, 1034.156
675.0310, 882.6875
676.0580, 1932.438
677.0840, 3109.375
678.1100, 1448.500
679.1360, 2097.844
680.1610, 763.4375
681.1870, 1427.219
682.2120, 639.1875
683.2380, 1377.312
684.2630, 2020.688
685.2880, 851.2500
686.3130, 1156.969
687.3370, 885.9375
688.3620, 564.0938
689.3860, 943.4688
690.4100, 116.0000
691.4340, 866.7188
692.4580, 1163.688
693.4810, 1101.844
694.5050, 786.1875
695.5280, 167.7188
696.5510, 128.4688
697.5740, 304.4062
698.5970, 419.5938
699.6200, 385.0625
700.6420, 543.6562
701.6640, 132.7812
702.6870, 2055.438
703.7090, 548.6875
704.7300, 245.1250
705.7520, 41.81250
706.7740, 1643.562
707.7950, 1297.812
708.8160, 578.6562
709.8370, 125.7188
710.8580, 623.9375
711.8790, 480.1875
712.8990, 807.4062
713.9200, 220.7500
714.9400, 651.0312
715.9600, 133.0000
716.9800, 500.1875
718.0000, 282.4688
719.0190, 1188.031
720.0390, 699.8750
721.0580, 864.8125
722.0770, 828.9062
723.0960, 526.1250
724.1150, 50.40625
725.1330, 90.53125
726.1520, 174.5000
727.1700, 888.3438
728.1880, 576.6250
729.2060, 335.7500
730.2240, 191.8438
731.2420, 422.4062
732.2590, 444.9688
733.2770, 543.4688
734.2940, 308.8750
735.3110, 1222.188
736.3280, 415.8438
737.3440, 905.5000
738.3610, 111.0312
739.3770, 143.7500
740.3930, 32.37500
741.4100, 749.6875
742.4250, 1161.938
743.4410, 730.3438
744.4570, 895.0000
745.4720, 198.6250
746.4870, 169.8438
747.5020, 27.46875
748.5170, 2017.281
749.5320, 1265.281
750.5470, 832.4688
751.5610, 1685.812
752.5750, 597.3750
753.5900, 918.0625
754.6040, 1629.969
755.6170, 2024.062
756.6310, 1549.312
757.6440, 2794.750
758.6580, 1442.312
759.6710, 1603.094
760.6840, 1087.031
761.6970, 2146.094
762.7100, 2060.312
763.7220, 1702.719
764.7340, 3104.250
765.7470, 3060.875
766.7590, 1757.656
767.7710, 2476.625
768.7820, 2198.688
769.7940, 3510.844
770.8050, 3053.156
771.8160, 4209.594
772.8280, 3465.156
773.8390, 2747.781
774.8490, 3611.562
775.8600, 1734.469
776.8700, 3813.406
777.8810, 3396.469
778.8910, 4622.688
779.9010, 4276.969
780.9110, 2847.375
781.9200, 4040.312
782.9300, 3470.531
783.9390, 4005.250
784.9480, 3932.062
785.9570, 4585.906
786.9660, 5244.844
787.9750, 5368.906
788.9830, 4511.031
789.9920, 6745.844
791.0000, 4914.750
792.0080, 6266.156
793.0160, 5780.281
794.0240, 5289.812
795.0310, 6066.531
796.0390, 6244.438
797.0460, 5619.500
798.0530, 6427.688
799.0600, 6479.219
800.0670, 6113.844
801.0730, 5842.531
802.0800, 6165.406
803.0860, 6786.656
804.0920, 5478.219
805.0980, 5890.906
806.1040, 6219.781
807.1100, 5557.062
808.1160, 5049.562
809.1210, 5381.531
810.1260, 5590.719
811.1310, 6363.969
812.1360, 4764.375
813.1410, 6053.875
814.1450, 5675.469
815.1500, 6502.375
816.1540, 4860.375
817.1580, 5521.781
818.1620, 5012.531
819.1660, 6172.312
820.1700, 5300.188
821.1730, 5220.156
822.1760, 5611.188
823.1800, 5830.281
824.1830, 5610.500
825.1850, 5600.750
826.1880, 6466.656
827.1910, 5376.219
828.1930, 6330.156
829.1950, 6366.656
830.1970, 6906.938
831.1990, 6972.219
832.2010, 5697.312
833.2020, 5811.812
834.2040, 6110.438
835.2050, 6453.938
836.2060, 5726.656
837.2070, 5650.406
838.2080, 6519.219
839.2090, 5925.688
840.2090, 5371.281
841.2090, 6469.812
842.2100, 5856.844
843.2100, 6148.500
844.2090, 4874.125
845.2090, 5501.156
846.2090, 6479.625
847.2080, 6366.625
848.2070, 5393.375
849.2060, 3531.625
850.2050, 5638.938
851.2040, 4343.812
852.2030, 5398.094
853.2010, 5775.219
854.1990, 5149.719
855.1980, 5066.844
856.1960, 5426.188
857.1930, 5026.188
858.1910, 5547.781
859.1880, 5779.406
860.1860, 6949.094
861.1830, 6775.750
862.1800, 5730.469
863.1770, 8012.219
864.1740, 7057.969
865.1700, 8337.594
866.1670, 8531.562
867.1630, 8460.438
868.1590, 8826.688
869.1550, 10249.59
870.1510, 9970.500
871.1460, 11610.47
872.1420, 11605.44
873.1370, 12557.38
874.1320, 12517.38
875.1270, 12571.34
876.1220, 12749.34
877.1170, 12079.34
878.1110, 11632.38
879.1060, 9384.406
880.1000, 9339.406
881.0940, 7354.469
882.0880, 5907.469
883.0820, 5920.500
884.0750, 5278.531
885.0690, 3457.531
886.0620, 3024.531
887.0550, 2774.531
888.0480, 2964.531
889.0410, 1274.531
890.0340, 2598.500
891.0260, 2280.469
892.0180, 2304.375
893.0110, 129.3125
894.0030, 2666.219
894.9950, 994.0938
895.9860, 58.00000
896.9780, 1226.781
897.9690, 1490.562
898.9610, 599.3125
899.9520, 1123.062
900.9430, 162.2500
901.9330, 440.6875
902.9240, 521.6250
903.9150, 903.9688
904.9050, 92.25000
905.8950, 391.4688
906.8850, 1377.688
907.8750, 1909.844
908.8650, 191.0312
909.8540, 581.0625
910.8440, 1311.562
911.8330, 577.0000
912.8220, 512.7812
913.8110, 699.8438
914.8000, 663.5938
915.7880, 2145.406
916.7770, 1543.719
917.7650, 645.7500
918.7530, 361.5938
919.7410, 677.1250
920.7290, 327.7812
921.7170, 438.5938
922.7050, 1633.125
923.6920, 1449.281
924.6790, 2022.750
925.6660, 1941.438
926.6530, 3978.656
927.6400, 3542.031
928.6270, 3599.906
929.6130, 4882.875
930.5990, 4690.531
931.5860, 7109.750
932.5720, 7974.500
933.5570, 10261.03
934.5430, 10706.38
935.5290, 14448.16
936.5140, 17127.31
937.4990, 19244.00
938.4840, 22599.72
939.4690, 24394.19
940.4540, 24689.91
941.4390, 23921.31
942.4230, 25630.50
943.4070, 25957.88
944.3920, 25451.56
945.3760, 24526.91
946.3590, 24312.78
947.3430, 24263.09
948.3270, 24549.28
949.3100, 25332.38
950.2930, 28624.53
951.2760, 31542.62
952.2590, 33946.16
953.2420, 37797.16
954.2250, 39998.25
955.2070, 41576.22
956.1900, 42171.81
957.1720, 42266.59
958.1540, 41661.28
959.1360, 41605.16
960.1170, 42477.03
961.0990, 42820.47
962.0800, 43895.88
963.0610, 44360.66
964.0430, 47820.34
965.0230, 50744.34
966.0040, 54822.72
966.9850, 60839.88
967.9650, 65730.09
968.9460, 70692.12
969.9260, 71046.00
970.9060, 73313.81
971.8860, 74275.59
972.8650, 69914.12
973.8450, 70247.62
974.8240, 69540.16
975.8040, 67614.62
976.7830, 66634.91
977.7620, 64459.94
978.7410, 62339.88
979.7190, 60921.59
980.6980, 57857.09
981.6760, 56997.44
982.6540, 56571.59
983.6320, 56493.78
984.6100, 60774.75
985.5880, 61170.53
986.5650, 66515.16
987.5430, 71385.56
988.5200, 75524.81
989.4970, 79716.84
990.4740, 84591.69
991.4510, 88898.31
992.4280, 90595.69
993.4040, 91045.91
994.3810, 89897.88
995.3570, 88746.69
996.3330, 88659.25
997.3090, 89777.62
998.2840, 93181.75
999.2600, 99682.69
1000.240, 106542.4
1001.210, 114771.9
1002.190, 127125.2
1003.160, 135589.2
1004.140, 149201.1
1005.110, 159289.8
1006.090, 165370.2
1007.060, 165889.4
1008.030, 152085.4
1009.010, 122749.1
1009.980, 94273.62
1010.960, 71856.88
1011.930, 51990.97
1012.900, 38619.84
1013.880, 29767.53
1014.850, 23591.94
1015.820, 19704.09
1016.790, 15954.03
1017.770, 12518.75
1018.740, 9824.750
1019.710, 8957.375
1020.680, 8039.375
1021.660, 5772.188
1022.630, 4651.750
1023.600, 5047.062
1024.570, 4098.125
1025.540, 3710.000
1026.520, 2850.000
1027.490, 2388.812
1028.460, 1700.969
1029.430, 394.1875
1030.400, 458.9375
1031.370, 197.1250
1032.340, 413.9062
1033.310, 326.4688
1034.280, 449.5000
1035.250, 802.7500
1036.220, 1077.719
1037.190, 256.4375
1038.160, 652.2500
1039.130, 440.8438
1040.100, 784.3438
1041.070, 6.687500
1042.040, 684.0312
1043.010, 39.87500
1043.970, 1107.188
1044.940, 211.0938
1045.910, 746.9062
1046.880, 441.0938
1047.850, 607.1562
1048.810, 962.9375
1049.780, 481.6562
1050.750, 931.5625
1051.720, 635.1562
1052.680, 547.8125
1053.650, 1344.062
1054.620, 1330.344
1055.590, 316.5000
1056.550, 1324.781
1057.520, 1373.031
1058.490, 1039.625
1059.450, 264.8438
1060.420, 1173.969
1061.380, 964.9688
1062.350, 806.5625
1063.320, 469.5938
1064.280, 514.7812
1065.250, 1038.219
1066.210, 1929.375
1067.180, 1204.719
1068.140, 1155.844
1069.110, 1030.125
1070.070, 1173.844
1071.030, 1162.531
1072.000, 1289.906
1072.960, 2774.000
1073.930, 2798.844
1074.890, 2498.000
1075.850, 2703.375
1076.820, 1930.438
1077.780, 1696.250
1078.740, 2674.812
1079.710, 2848.125
1080.670, 1682.188
1081.630, 2971.938
1082.600, 1355.500
1083.560, 2421.750
1084.520, 3521.781
1085.480, 2745.500
1086.450, 3674.000
1087.410, 2182.250
1088.370, 2325.281
1089.330, 2357.031
1090.290, 1688.531
1091.250, 3292.781
1092.210, 2961.812
1093.180, 2388.562
1094.140, 3408.062
1095.100, 2933.344
1096.060, 3962.344
1097.020, 3373.094
1097.980, 4381.625
1098.940, 3311.938
1099.900, 3434.969
1100.860, 2775.781
1101.820, 4878.312
1102.780, 3685.656
1103.740, 4354.719
1104.700, 4010.562
1105.660, 3408.188
1106.610, 3636.562
1107.570, 3598.688
1108.530, 2919.625
1109.490, 3547.281
1110.450, 2968.719
1111.410, 2930.969
1112.360, 3700.938
1113.320, 4479.719
1114.280, 3579.250
1115.240, 4138.562
1116.190, 2573.625
1117.150, 1941.500
1118.110, 3550.156
1119.070, 2658.562
1120.020, 2950.750
1120.980, 2512.750
1121.940, 2624.531
1122.890, 2238.094
1123.850, 2650.406
1124.810, 2195.531
1125.760, 3708.469
1126.720, 3782.156
1127.670, 3076.656
1128.630, 2723.938
1129.580, 3695.094
1130.540, 2259.969
1131.490, 3445.688
1132.450, 2388.188
1133.400, 3369.469
1134.360, 2520.625
1135.310, 2658.688
1136.270, 2199.562
1137.220, 3217.250
1138.180, 1570.719
1139.130, 2177.000
1140.080, 2286.125
1141.040, 1519.031
1141.990, 1721.812
1142.940, 2802.594
1143.900, 1103.250
1144.850, 1042.812
1145.800, 2470.594
1146.750, 2242.031
1147.710, 474.2188
1148.660, 1221.625
1149.610, 1376.062
1150.560, 2067.500
1151.520, 1806.031
1152.470, 1639.219
1153.420, 770.0625
1154.370, 875.0625
1155.320, 1608.688
1156.270, 337.0938
1157.220, 269.5625
1158.180, 51.56250
1159.130, 964.8750
1160.080, 304.6250
1161.030, 483.9375
1161.980, 914.4375
1162.930, 28.00000
1163.880, 598.8125
1164.830, 439.3438
1165.780, 119.3438
1166.730, 555.3438
1167.680, 267.1875
1168.630, 1109.406
1169.580, 76.18750
1170.520, 367.7812
1171.470, 321.1250
1172.420, 1060.719
1173.370, 652.8438
1174.320, 70.50000
1175.270, 1125.438
1176.220, 925.5000
1177.160, 62.15625
1178.110, 178.1562
1179.060, 1114.031
1180.010, 69.06250
1180.950, 527.0312
1181.900, 14.31250
1182.850, 52.84375
