##NAMES=Humite
##RRUFFID=R040071
##IDEAL CHEMISTRY=Mg_7_(SiO_4_)_3_(F,OH)_2_
##LOCALITY=Tilly Foster mine, Brewster, Putnam County, New York, USA
##OWNER=RRUFF
##SOURCE=University of Arizona Mineral Museum
##DESCRIPTION=Red crystals
##STATUS=The identification of this mineral has been confirmed by X-ray diffraction and chemical analysis
##URL=rruff.info/R040071
##MEASURED CHEMISTRY=(Mg_0.91_Fe_0.09_)_7_(Si_0.99_Ti_0.01_O_4_)_3_(F_0.76_(OH)_0.24_)_2_
##PIN_ID=L00052
##ORIENTATION=Laser parallel to a* (1 0 0). Fiducial mark perpendicular to laser is parallel to -b [0 -1 0]
51.466, 0.000
52.866, 28.593
54.266, 59.478
55.666, 111.679
57.065, 83.554
58.464, 129.128
59.863, 165.060
61.262, 49.144
62.661, 21.000
64.059, 14.461
65.458, 8.652
66.856, 30.773
68.253, 31.841
69.651, 29.349
71.048, 88.709
72.445, 95.161
73.842, 315.631
75.239, 215.203
76.635, 307.343
78.031, 222.461
79.427, 283.355
80.823, 536.980
82.218, 777.295
83.614, 591.263
85.009, 453.851
86.404, 440.027
87.798, 543.764
89.193, 810.036
90.587, 919.821
91.981, 825.100
93.375, 828.854
94.768, 700.054
96.161, 665.666
97.554, 674.655
98.947, 703.995
100.340, 596.677
101.732, 590.709
103.124, 631.088
104.516, 883.803
105.908, 1036.840
107.300, 847.185
108.691, 750.828
110.082, 685.760
111.473, 705.972
112.864, 889.452
114.254, 1084.195
115.644, 1215.191
117.034, 1349.434
118.424, 1382.069
119.813, 1377.638
121.203, 1349.588
122.592, 1180.765
123.981, 1080.164
125.369, 911.784
126.758, 1043.622
128.146, 1088.675
129.534, 1209.943
130.922, 1214.424
132.309, 1189.115
133.696, 1159.014
135.083, 1289.088
136.470, 1313.233
137.857, 1368.379
139.243, 1422.667
140.630, 1443.926
142.016, 1454.195
143.401, 1484.205
144.787, 1370.854
146.172, 1488.306
147.557, 1417.970
148.942, 1352.964
150.327, 1392.281
151.711, 1319.816
153.096, 1326.941
154.480, 1378.435
155.863, 1318.426
157.247, 1269.507
158.630, 1258.680
160.013, 1223.944
161.396, 1321.303
162.779, 1311.770
164.161, 1252.369
165.544, 1138.083
166.926, 1139.894
168.308, 1135.802
169.689, 1169.808
171.070, 1238.913
172.452, 1214.116
173.833, 1195.418
175.213, 1162.819
176.594, 1217.318
177.974, 1316.917
179.354, 1365.614
180.734, 1453.409
182.114, 1446.303
183.493, 1586.296
184.872, 1635.390
186.251, 1840.589
187.630, 1831.894
189.008, 1941.304
190.387, 2095.820
191.765, 2201.447
193.143, 2221.187
194.520, 2224.042
195.898, 2295.014
197.275, 2132.108
198.652, 2193.324
200.029, 2049.663
201.405, 1792.128
202.782, 1754.720
204.158, 1708.438
205.534, 1742.281
206.909, 1594.249
208.285, 1581.342
209.660, 1538.556
211.035, 1380.891
212.410, 1461.344
213.784, 1414.914
215.159, 1460.598
216.533, 1526.396
217.907, 1515.015
219.281, 1473.412
220.654, 1485.575
222.027, 1582.573
223.400, 1489.185
224.773, 1511.756
226.146, 1363.314
227.518, 1352.251
228.891, 1305.177
230.263, 1323.120
231.634, 1284.268
233.006, 1294.034
234.377, 1217.590
235.748, 1274.441
237.119, 1136.450
238.490, 1197.611
239.860, 1156.453
241.231, 1259.877
242.601, 1248.103
243.970, 1252.260
245.340, 1274.794
246.709, 1224.046
248.079, 1345.909
249.448, 1276.426
250.816, 1347.527
252.185, 1369.172
253.553, 1357.104
254.921, 1382.343
256.289, 1358.675
257.657, 1383.580
259.024, 1381.588
260.391, 1368.698
261.758, 1426.907
263.125, 1452.214
264.492, 1443.617
265.858, 1355.114
267.224, 1381.705
268.590, 1325.388
269.956, 1340.160
271.321, 1321.021
272.687, 1364.438
274.052, 1295.636
275.416, 1442.194
276.781, 1429.396
278.146, 1388.679
279.510, 1448.043
280.874, 1335.486
282.237, 1461.008
283.601, 1348.608
284.964, 1292.284
286.327, 1366.035
287.690, 1349.860
289.053, 1290.759
290.416, 1342.729
291.778, 1239.771
293.140, 1194.884
294.502, 1206.065
295.863, 1079.315
297.225, 1073.634
298.586, 1062.018
299.947, 997.468
301.308, 981.350
302.668, 911.563
304.029, 910.209
305.389, 881.919
306.749, 858.695
308.108, 933.540
309.468, 915.451
310.827, 936.599
312.186, 960.372
313.545, 957.708
314.903, 981.004
316.262, 983.429
317.620, 983.002
318.978, 953.701
320.336, 977.527
321.693, 918.412
323.051, 978.354
324.408, 891.356
325.765, 960.465
327.121, 917.534
328.478, 904.116
329.834, 852.685
331.190, 872.408
332.546, 922.901
333.902, 1017.324
335.257, 1097.478
336.612, 1200.775
337.967, 1334.207
339.322, 1539.780
340.677, 1825.499
342.031, 1796.335
343.385, 1540.312
344.739, 1412.424
346.093, 1147.651
347.446, 1197.988
348.799, 1076.432
350.153, 1068.980
351.505, 953.634
352.858, 1014.372
354.210, 957.193
355.563, 914.081
356.915, 879.027
358.267, 886.024
359.618, 795.076
360.969, 822.175
362.321, 760.320
363.672, 730.503
365.022, 628.723
366.373, 693.977
367.723, 874.266
369.073, 949.589
370.423, 1316.945
371.773, 1576.335
373.122, 2075.755
374.471, 2581.206
375.821, 3315.687
377.169, 3239.500
378.518, 3586.736
379.866, 2982.304
381.215, 2515.914
382.563, 2072.567
383.910, 1952.266
385.258, 1765.008
386.605, 1706.797
387.952, 1312.633
389.299, 1388.514
390.646, 1126.444
391.992, 964.422
393.339, 872.452
394.685, 688.525
396.031, 565.646
397.376, 271.812
398.722, 193.016
400.067, 59.257
401.412, 25.465
402.757, 155.159
404.101, 145.865
405.446, 231.581
406.790, 257.340
408.134, 247.154
409.478, 93.020
410.821, 155.884
412.165, 117.766
413.508, 74.657
414.851, 154.542
416.193, 54.448
417.536, 53.346
418.878, 89.767
420.220, 79.904
421.562, 16.064
422.904, 142.249
424.245, 203.456
425.586, 132.685
426.927, 181.936
428.268, 121.208
429.609, 87.500
430.949, 47.812
432.289, 107.142
433.629, 43.509
434.969, 1.841
436.309, 68.795
437.648, 80.560
438.987, 71.931
440.326, 101.317
441.665, 78.718
443.003, 269.133
444.342, 243.562
445.680, 318.003
447.018, 427.457
448.355, 404.923
449.693, 440.399
451.030, 515.887
452.367, 621.384
453.704, 596.892
455.041, 710.408
456.377, 671.933
457.713, 773.466
459.049, 837.006
460.385, 896.554
461.721, 969.107
463.056, 930.667
464.391, 946.232
465.726, 1137.802
467.061, 1150.377
468.395, 1109.685
469.730, 1303.266
471.064, 1314.044
472.398, 1480.032
473.731, 1446.918
475.065, 1538.776
476.398, 1737.868
477.731, 1993.698
479.064, 1922.170
480.397, 2110.566
481.729, 2291.230
483.062, 2285.788
484.394, 2396.421
485.725, 2445.941
487.057, 2639.615
488.389, 2597.306
489.720, 2559.091
491.051, 2599.687
492.382, 2748.873
493.712, 2690.515
495.043, 2790.049
496.373, 2817.459
497.703, 2831.660
499.032, 2955.738
500.362, 2936.071
501.691, 2902.509
503.020, 2823.605
504.349, 2810.778
505.678, 2703.145
507.007, 2698.347
508.335, 2619.895
509.663, 2520.979
510.991, 2662.419
512.319, 2546.888
513.646, 2591.595
514.973, 2710.776
516.300, 2859.713
517.627, 3019.925
518.954, 3192.067
520.280, 3371.007
521.607, 3619.740
522.933, 3894.437
524.259, 4221.090
525.584, 4481.698
526.910, 4858.260
528.235, 5048.777
529.560, 5374.250
530.885, 5447.677
532.209, 5494.057
533.534, 5647.391
534.858, 5372.679
536.182, 5314.919
537.506, 5071.114
538.829, 4978.261
540.152, 4639.360
541.476, 4545.412
542.799, 4282.416
544.121, 4067.372
545.444, 3756.280
546.766, 3564.140
548.088, 3030.950
549.410, 2866.711
550.732, 2476.423
552.053, 2274.086
553.375, 2070.698
554.696, 1811.260
556.017, 1901.772
557.337, 1744.233
558.658, 1741.644
559.978, 1613.003
561.298, 1676.779
562.618, 1632.066
563.938, 1646.640
565.257, 1642.368
566.576, 1594.799
567.895, 1612.591
569.214, 1637.846
570.533, 1579.519
571.851, 1526.676
573.170, 1654.357
574.488, 1776.812
575.805, 1795.024
577.123, 1912.201
578.440, 2225.861
579.758, 2443.473
581.075, 2501.035
582.391, 2701.549
583.708, 2628.012
585.024, 2566.427
586.341, 2576.794
587.657, 2310.109
588.972, 2197.377
590.288, 1970.595
591.603, 1838.444
592.918, 1738.915
594.233, 1623.319
595.548, 1606.901
596.863, 1589.873
598.177, 1616.795
599.491, 1724.669
600.805, 1780.494
602.119, 1760.270
603.432, 1721.997
604.746, 1743.676
606.059, 1685.305
607.372, 1594.886
608.685, 1470.417
609.997, 1378.412
611.309, 1197.335
612.621, 1151.721
613.933, 994.059
615.245, 886.349
616.557, 875.590
617.868, 689.783
619.179, 693.928
620.490, 530.025
621.801, 400.075
623.111, 321.077
624.421, 370.031
625.731, 177.938
627.041, 237.788
628.351, 85.590
629.660, 36.311
630.970, 13.070
632.279, 61.577
633.588, 130.235
634.896, 207.079
636.205, 123.149
637.513, 139.399
638.821, 204.163
640.129, 220.676
641.437, 137.145
642.744, 68.445
644.051, 200.181
645.358, 250.131
646.665, 317.427
647.972, 268.784
649.278, 296.493
650.584, 242.461
651.890, 163.660
653.196, 244.045
654.502, 211.657
655.807, 244.478
657.113, 267.522
658.418, 160.800
659.722, 254.254
661.027, 242.932
662.331, 169.824
663.636, 154.892
664.940, 148.124
666.244, 144.514
667.547, 154.060
668.851, 78.762
670.154, 86.580
671.457, 18.515
672.760, 2.530
674.062, 26.386
675.365, 2.251
676.667, 24.055
677.969, 22.811
679.271, 116.521
680.572, 131.204
681.874, 175.480
683.175, 258.487
684.476, 259.090
685.777, 321.667
687.077, 371.221
688.378, 392.750
689.678, 472.257
690.978, 514.742
692.278, 503.205
693.577, 621.647
694.877, 690.069
696.176, 809.473
697.475, 930.274
698.774, 1077.225
700.072, 1209.574
701.371, 1275.041
702.669, 1452.226
703.967, 1437.529
705.265, 1643.818
706.562, 1753.094
707.860, 1817.358
709.157, 2046.609
710.454, 2187.849
711.751, 2468.079
713.047, 2638.300
714.344, 2896.510
715.640, 3110.713
716.936, 3343.188
718.232, 3622.100
719.527, 3871.309
720.823, 4123.535
722.118, 4481.793
723.413, 4851.091
724.708, 5182.427
726.002, 5855.775
727.297, 5956.145
728.591, 6937.531
729.885, 7404.928
731.179, 7739.350
732.472, 8320.778
733.766, 8995.221
735.059, 9445.663
736.352, 10087.107
737.645, 10662.557
738.937, 11309.010
740.230, 11999.470
741.522, 12851.929
742.814, 13994.959
744.106, 15834.872
745.397, 16727.352
746.689, 18219.846
747.980, 19995.340
749.271, 20848.863
750.562, 22564.387
751.853, 22836.938
753.143, 23875.506
754.433, 23368.076
755.723, 23139.664
757.013, 22750.268
758.303, 21438.883
759.592, 20342.514
760.881, 18734.162
762.170, 17520.822
763.459, 15777.504
764.748, 14101.201
766.036, 13066.915
767.325, 11266.646
768.613, 10300.401
769.901, 9119.176
771.188, 8193.970
772.476, 7697.793
773.763, 6957.637
775.050, 6897.512
776.337, 6609.409
777.624, 6541.332
778.910, 6680.278
780.196, 6785.249
781.482, 6629.531
782.768, 6322.572
784.054, 6297.462
785.339, 5781.185
786.625, 5187.044
787.910, 4743.975
789.195, 4326.730
790.479, 4015.792
791.764, 3539.263
793.048, 3045.855
794.332, 2890.219
795.616, 2546.728
796.900, 2386.207
798.183, 2115.854
799.467, 2007.393
800.750, 1955.979
802.033, 1869.510
803.316, 2020.274
804.598, 1872.483
805.880, 2041.327
807.163, 2104.315
808.445, 2087.494
809.726, 2362.939
811.008, 2464.565
812.289, 2600.004
813.570, 2948.386
814.851, 3252.155
816.132, 3689.916
817.413, 4267.542
818.693, 4920.391
819.973, 5745.958
821.253, 6753.028
822.533, 8226.775
823.813, 9383.531
825.092, 11216.083
826.371, 13401.211
827.650, 16177.637
828.929, 19678.859
830.208, 23330.152
831.486, 27198.809
832.764, 31190.707
834.042, 34846.707
835.320, 36993.805
836.598, 39004.016
837.875, 39950.340
839.152, 40684.770
840.429, 42364.289
841.706, 41746.926
842.983, 41483.652
844.259, 39846.516
845.536, 36460.473
846.812, 33072.543
848.088, 29284.691
849.363, 26553.949
850.639, 24167.311
851.914, 22300.791
853.189, 21698.377
854.464, 21924.066
855.739, 22737.869
857.013, 23784.783
858.288, 25170.797
859.562, 27037.902
860.836, 28184.113
862.110, 27488.418
863.383, 27178.832
864.656, 24733.342
865.930, 22223.957
867.203, 19488.672
868.475, 16897.490
869.748, 14213.402
871.020, 12682.411
872.292, 11056.507
873.564, 9677.706
874.836, 8745.992
876.108, 7929.378
877.379, 7273.854
878.650, 6703.419
879.922, 6030.084
881.192, 5277.839
882.463, 4818.685
883.733, 4146.621
885.004, 3744.646
886.274, 3389.761
887.544, 3094.966
888.813, 2753.261
890.083, 2569.646
891.352, 2380.120
892.621, 2010.685
893.890, 1995.340
895.159, 1683.085
896.427, 1611.920
897.695, 1568.846
898.964, 1344.862
900.232, 1294.969
901.499, 1251.166
902.767, 1217.454
904.034, 1144.832
905.301, 1169.300
906.568, 1324.859
907.835, 1316.509
909.102, 1348.865
910.368, 1384.449
911.634, 1436.370
912.900, 1437.382
914.166, 1668.483
915.432, 1670.676
916.697, 1627.958
917.962, 1960.331
919.227, 1968.794
920.492, 2214.676
921.757, 2452.319
923.021, 2930.053
924.285, 3454.113
925.550, 4059.129
926.813, 5093.403
928.077, 6624.495
929.341, 8371.678
930.604, 10076.945
931.867, 10924.304
933.130, 11090.856
934.393, 10402.857
935.655, 8558.492
936.918, 7210.702
938.180, 5803.400
939.442, 4678.233
940.703, 4057.686
941.965, 3482.472
943.226, 3000.738
944.488, 2734.260
945.749, 2508.486
947.009, 2482.104
948.270, 2454.577
949.530, 2562.470
950.791, 2787.952
952.051, 2993.554
953.311, 3185.494
954.570, 3661.244
955.830, 4067.078
957.089, 4882.920
958.348, 5545.658
959.607, 6742.448
960.866, 7606.255
962.124, 8787.021
963.383, 9899.384
964.641, 10513.051
965.899, 10382.013
967.156, 9752.068
968.414, 8487.140
969.671, 7267.661
970.928, 6009.814
972.185, 4976.594
973.442, 4259.703
974.699, 3430.945
975.955, 2919.299
977.211, 2570.154
978.468, 2270.476
979.723, 2081.271
980.979, 1769.700
982.234, 1842.341
983.490, 1517.896
984.745, 1562.276
986.000, 1461.165
987.254, 1318.068
988.509, 1311.505
989.763, 1244.760
991.017, 1271.630
992.271, 1163.818
993.525, 1235.276
994.779, 1269.539
996.032, 1183.921
997.285, 1231.360
998.538, 1052.320
999.791, 1333.152
1001.044, 1034.281
1002.296, 1256.460
1003.548, 1267.500
1004.800, 1238.814
1006.052, 1280.089
1007.304, 1173.488
1008.555, 1212.507
1009.807, 1140.287
1011.058, 1142.147
1012.309, 1153.144
1013.559, 1068.832
1014.810, 965.328
1016.060, 1105.705
1017.310, 1026.013
1018.560, 869.571
1019.810, 992.224
1021.060, 983.440
1022.309, 825.433
1023.558, 904.862
1024.807, 768.790
1026.056, 783.375
1027.305, 719.268
1028.553, 659.384
1029.801, 697.979
1031.049, 605.792
1032.297, 584.011
1033.545, 646.970
1034.793, 558.838
1036.040, 505.733
1037.287, 588.756
1038.534, 627.714
1039.781, 631.701
1041.027, 635.072
1042.274, 520.766
1043.520, 549.844
1044.766, 416.949
1046.012, 306.080
1047.257, 271.234
1048.503, 368.413
1049.748, 160.616
1050.993, 185.844
1052.238, 254.094
1053.483, 109.368
1054.727, 119.663
1055.971, 173.979
1057.216, 43.314
1058.459, 39.668
1059.703, 33.960
1060.947, 107.423
1062.190, 97.822
1063.433, 43.236
1064.676, 120.542
1065.919, 62.669
1067.162, 128.545
1068.404, 51.001
1069.646, 27.534
1070.888, 41.936
1072.130, 15.416
1073.372, 70.097
1074.613, 6.614
1075.855, 69.127
1077.096, 97.352
1078.337, 36.185
1079.578, 42.328
1080.818, 43.823
1082.059, 114.676
1083.299, 28.205
1084.539, 107.736
1085.779, 92.296
1087.018, 41.881
1088.258, 97.470
1089.497, 148.090
1090.736, 107.762
1091.975, 111.917
1093.213, 89.997
1094.452, 60.002
1095.690, 50.807
1096.928, 74.625
1098.166, 119.202
1099.404, 86.390
1100.642, 137.276
1101.879, 40.250
1103.116, 52.249
1104.353, 24.277
1105.590, 226.301
1106.827, 8.449
1108.063, 133.607
1109.299, 95.830
1110.536, 89.100
1111.771, 124.412
1113.007, 42.808
1114.243, 42.232
1115.478, 117.656
1116.713, 64.163
1117.948, 81.702
1119.183, 86.294
1120.418, 6.050
1121.652, 44.390
1122.886, 117.708
1124.120, 71.030
1125.354, 23.675
1126.588, 26.439
1127.821, 77.270
1129.055, 35.188
1130.288, 34.171
1131.521, 108.225
1132.753, 69.396
1133.986, 41.668
1135.218, 22.023
1136.450, 74.453
1137.682, 3.976
1138.914, 23.427
1140.146, 27.234
1141.377, 4.011
1142.609, 84.825
1143.840, 31.211
1145.071, 0.824
1146.301, 49.053
1147.532, 56.862
1148.762, 1.396
1149.992, 14.748
1151.222, 6.795
1152.452, 42.242
1153.682, 6.393
1154.911, 28.865
1156.140, 40.032
1157.369, 138.111
1158.598, 31.131
1159.827, 141.055
1161.055, 62.916
1162.284, 97.692
1163.512, 35.392
1164.740, 112.992
1165.967, 82.517
1167.195, 147.956
1168.422, 177.426
1169.650, 204.732
1170.877, 133.976
1172.103, 233.143
1173.330, 138.247
1174.557, 270.273
1175.783, 234.236
1177.009, 153.549
1178.235, 331.573
1179.461, 252.742
1180.686, 323.932
1181.912, 358.607
1183.137, 368.781
1184.362, 347.679
1185.587, 482.622
1186.811, 486.300
1188.036, 450.357
1189.260, 523.510
1190.484, 504.788
1191.708, 652.264
1192.932, 549.792
1194.155, 650.750
1195.378, 654.001
1196.602, 739.381
1197.825, 718.847
1199.047, 829.141
1200.270, 734.601
1201.492, 843.798
1202.715, 806.885
1203.937, 866.893
1205.159, 914.827
1206.380, 987.312
1207.602, 984.441
1208.823, 989.982
1210.044, 1095.404
1211.265, 1104.217
1212.486, 1194.914
1213.707, 1154.528
1214.927, 1228.055
1216.147, 1201.496
1217.367, 1228.854
1218.587, 1280.916
1219.807, 1303.698
1221.027, 1345.293
1222.246, 1305.654
1223.465, 1362.281
1224.684, 1493.499
1225.903, 1423.330
1227.121, 1540.769
1228.340, 1552.498
1229.558, 1635.273
1230.776, 1643.872
1231.994, 1600.736
1233.212, 1650.211
1234.429, 1632.920
1235.646, 1655.705
1236.864, 1662.387
1238.081, 1605.961
1239.297, 1788.951
1240.514, 1777.783
1241.730, 1846.135
1242.947, 1747.505
1244.163, 1744.717
1245.378, 1791.108
1246.594, 1866.505
1247.810, 1739.679
1249.025, 1813.141
1250.240, 1773.533
1251.455, 1810.601
1252.670, 1724.066
1253.885, 1827.817
1255.099, 1771.055
1256.313, 1765.776
1257.527, 1854.354
1258.741, 1845.083
1259.955, 1858.597
1261.168, 1755.005
1262.382, 1845.363
1263.595, 1840.684
1264.808, 1798.792
1266.021, 1833.007
1267.233, 1771.595
1268.446, 1866.306
1269.658, 1835.746
1270.870, 1857.318
1272.082, 1814.092
1273.294, 1886.976
1274.505, 1875.102
1275.716, 1890.039
1276.928, 1948.483
1278.139, 1916.964
1279.349, 2000.571
1280.560, 1908.939
1281.770, 1854.264
1282.981, 1867.491
1284.191, 1883.482
1285.401, 1807.353
1286.610, 1784.594
1287.820, 1797.439
1289.029, 1721.782
1290.239, 1704.618
1291.448, 1631.932
1292.656, 1613.018
1293.865, 1568.067
1295.073, 1501.102
1296.282, 1384.878
1297.490, 1360.356
1298.698, 1319.331
1299.906, 1206.604
1301.113, 1190.503
1302.320, 1112.093
1303.528, 1015.425
1304.735, 972.790
1305.942, 884.922
1307.148, 776.335
1308.355, 738.914
1309.561, 809.586
1310.767, 764.286
1311.973, 629.704
1313.179, 470.986
1314.384, 581.646
1315.590, 503.459
1316.795, 553.739
1318.000, 507.461
1319.205, 512.410
1320.410, 494.220
1321.614, 391.037
1322.819, 439.609
1324.023, 388.731
1325.227, 366.232
1326.431, 471.786
1327.634, 335.258
1328.838, 383.602
1330.041, 354.701
1331.244, 399.724
1332.447, 290.612
1333.650, 266.335
1334.852, 240.870
1336.055, 372.271
1337.257, 340.044
1338.459, 456.698
1339.661, 366.724
1340.862, 315.617
1342.064, 274.392
1343.265, 295.042
1344.466, 250.566
1345.667, 275.963
1346.868, 281.231
1348.068, 278.367
1349.269, 274.367
1350.469, 359.228
1351.669, 333.951
1352.869, 301.537
1354.069, 306.986
1355.268, 429.658
1356.468, 914.509
1357.667, 723.598
1358.866, 578.575
1360.065, 670.447
1361.263, 342.217
1362.462, 228.888
1363.660, 271.459
1364.858, 234.934
1366.056, 298.322
1367.254, 282.624
1368.451, 205.853
1369.649, 175.009
1370.846, 208.102
1372.043, 159.646
1373.240, 290.142
1374.436, 156.132
1375.633, 158.114
1376.829, 200.124
1378.025, 51.188
1379.221, 225.327
1380.417, 150.610
1381.613, 130.116
1382.808, 152.320
1384.003, 62.262
1385.199, 101.428
1386.393, 13.476
1387.588, 4.547
1388.783, 70.342
1389.977, 40.104
1391.171, 37.185
1392.365, 78.427
1393.559, 39.949
1394.753, 67.675
1395.946, 40.575
1397.140, 11.307
1398.333, 35.377
1399.526, 42.659
1400.719, 55.032
1401.911, 19.545
1403.104, 39.917
1404.296, 160.363
1405.488, 5.855
1406.680, 100.393
1407.872, 71.949
1409.063, 51.472
1410.255, 99.021
1411.446, 6.396
1412.637, 95.157
1413.828, 39.305
1415.018, 4.789
1416.209, 38.249
1417.399, 12.312
1418.589, 19.871
1419.779, 7.433
1420.969, 27.842
1422.159, 36.202
1423.348, 4.475
1424.537, 4.774
1425.726, 44.405
1426.915, 26.987
1428.104, 63.635
1429.293, 98.474
1430.481, 109.967
1431.669, 141.631
1432.857, 95.708
1434.045, 120.074
1435.233, 130.721
1436.420, 163.991
1437.608, 106.602
1438.795, 134.749
1439.982, 233.970
1441.169, 283.974
1442.355, 217.996
1443.542, 274.081
1444.728, 209.270
1445.914, 309.102
1447.100, 273.609
1448.286, 296.372
1449.472, 288.114
1450.657, 409.604
1451.842, 346.547
1453.027, 430.142
1454.212, 444.115
1455.397, 460.437
1456.581, 551.082
