##NAMES=Humite
##RRUFFID=R040071
##IDEAL CHEMISTRY=Mg_7_(SiO_4_)_3_(F,OH)_2_
##LOCALITY=Tilly Foster mine, Brewster, Putnam County, New York, USA
##OWNER=RRUFF
##SOURCE=University of Arizona Mineral Museum
##DESCRIPTION=Red crystals
##STATUS=The identification of this mineral has been confirmed by X-ray diffraction and chemical analysis
##URL=rruff.info/R040071
##MEASURED CHEMISTRY=(Mg_0.91_Fe_0.09_)_7_(Si_0.99_Ti_0.01_O_4_)_3_(F_0.76_(OH)_0.24_)_2_
##PIN_ID=L00052
##ORIENTATION=Laser parallel to a* (1 0 0). Fiducial mark perpendicular to laser is parallel to -b [0 -1 0]
51.466, 0.000
52.866, 6.186
54.266, 86.920
55.666, 178.719
57.065, 292.198
58.464, 353.915
59.863, 342.197
61.262, 168.535
62.661, 137.180
64.059, 34.968
65.458, 25.087
66.856, 15.382
68.253, 1.505
69.651, 9.494
71.048, 3.448
72.445, 30.419
73.842, 51.530
75.239, 39.339
76.635, 86.948
78.031, 65.317
79.427, 44.413
80.823, 153.198
82.218, 120.580
83.614, 282.698
85.009, 143.344
86.404, 203.547
87.798, 207.277
89.193, 392.508
90.587, 449.217
91.981, 375.383
93.375, 410.987
94.768, 358.005
96.161, 284.408
97.554, 366.161
98.947, 438.233
100.340, 311.627
101.732, 339.369
103.124, 366.479
104.516, 570.948
105.908, 735.755
107.300, 580.879
108.691, 588.303
110.082, 490.010
111.473, 553.987
112.864, 645.222
114.254, 828.701
115.644, 946.416
117.034, 942.356
118.424, 975.514
119.813, 982.881
121.203, 1071.451
122.592, 977.218
123.981, 925.178
125.369, 944.326
126.758, 1007.658
128.146, 1064.172
129.534, 1213.864
130.922, 1266.730
132.309, 1300.769
133.696, 1359.975
135.083, 1417.360
136.470, 1559.867
137.857, 1726.449
139.243, 1816.073
140.630, 1823.703
142.016, 1746.295
143.401, 1791.838
144.787, 1860.395
146.172, 1940.079
147.557, 1906.078
148.942, 1900.506
150.327, 1825.441
151.711, 1862.841
153.096, 1823.849
154.480, 1917.583
155.863, 1797.652
157.247, 1830.756
158.630, 1834.900
160.013, 1819.084
161.396, 1885.312
162.779, 1806.585
164.161, 1801.906
165.544, 1825.275
166.926, 1755.694
168.308, 1764.165
169.689, 1770.688
171.070, 1742.791
172.452, 1784.894
173.833, 1756.578
175.213, 1779.317
176.594, 1849.111
177.974, 1870.959
179.354, 1871.864
180.734, 1936.824
182.114, 2002.840
183.493, 2087.913
184.872, 2134.043
186.251, 2183.235
187.630, 2284.490
189.008, 2361.811
190.387, 2395.199
191.765, 2396.660
193.143, 2486.194
194.520, 2441.805
195.898, 2513.493
197.275, 2516.263
198.652, 2550.114
200.029, 2493.046
201.405, 2497.061
202.782, 2511.156
204.158, 2517.845
205.534, 2630.589
206.909, 2591.924
208.285, 2671.336
209.660, 2737.823
211.035, 2585.384
212.410, 2638.019
213.784, 2645.724
215.159, 2756.500
216.533, 2718.344
217.907, 2710.297
219.281, 2801.641
220.654, 2747.981
222.027, 2752.931
223.400, 2708.625
224.773, 2652.570
226.146, 2567.066
227.518, 2437.836
228.891, 2452.494
230.263, 2430.333
231.634, 2439.866
233.006, 2276.864
234.377, 2342.688
235.748, 2438.560
237.119, 2333.018
238.490, 2479.854
239.860, 2431.670
241.231, 2406.971
242.601, 2543.799
243.970, 2527.225
245.340, 2502.350
246.709, 2463.157
248.079, 2440.586
249.448, 2424.248
250.816, 2368.608
252.185, 2362.842
253.553, 2291.390
254.921, 2251.957
256.289, 2222.958
257.657, 2209.623
259.024, 2117.699
260.391, 2200.854
261.758, 2172.083
263.125, 2182.386
264.492, 2278.761
265.858, 2219.207
267.224, 2265.721
268.590, 2202.303
269.956, 2346.950
271.321, 2285.660
272.687, 2360.434
274.052, 2283.268
275.416, 2467.162
276.781, 2411.114
278.146, 2429.125
279.510, 2444.189
280.874, 2418.310
282.237, 2480.484
283.601, 2376.711
284.964, 2411.989
286.327, 2452.318
287.690, 2422.698
289.053, 2419.220
290.416, 2354.602
291.778, 2347.125
293.140, 2322.693
294.502, 2275.309
295.863, 2270.967
297.225, 2323.669
298.586, 2396.414
299.947, 2424.202
301.308, 2496.703
302.668, 2505.900
304.029, 2607.810
305.389, 2625.762
306.749, 2647.753
308.108, 2634.787
309.468, 2648.860
310.827, 2620.983
312.186, 2639.149
313.545, 2767.360
314.903, 2695.657
316.262, 2773.044
317.620, 2719.567
318.978, 2736.177
320.336, 2722.892
321.693, 2670.707
323.051, 2618.622
324.408, 2496.630
325.765, 2447.750
327.121, 2331.988
328.478, 2254.339
329.834, 2238.795
331.190, 2161.369
332.546, 2110.698
333.902, 2108.825
335.257, 1984.719
336.612, 1991.725
337.967, 1909.813
339.322, 1979.006
340.677, 2068.287
342.031, 2081.607
343.385, 2145.002
344.739, 2095.478
346.093, 2141.012
347.446, 2271.598
348.799, 2354.223
350.153, 2325.890
351.505, 2421.612
352.858, 2396.359
354.210, 2304.134
355.563, 2173.927
356.915, 2136.737
358.267, 1993.566
359.618, 1853.410
360.969, 1758.272
362.321, 1652.149
363.672, 1539.041
365.022, 1437.509
366.373, 1333.802
367.723, 1231.804
369.073, 1138.751
370.423, 1055.710
371.773, 972.682
373.122, 1025.665
374.471, 997.658
375.821, 889.662
377.169, 1021.675
378.518, 832.697
379.866, 779.729
381.215, 714.761
382.563, 674.810
383.910, 630.875
385.258, 527.959
386.605, 546.060
387.952, 426.184
389.299, 451.331
390.646, 337.503
391.992, 223.702
393.339, 202.931
394.685, 135.199
396.031, 115.499
397.376, 51.519
398.722, 17.175
400.067, 63.456
401.412, 111.094
402.757, 150.769
404.101, 202.501
405.446, 209.320
406.790, 251.229
408.134, 304.254
409.478, 200.422
410.821, 260.681
412.165, 256.065
413.508, 150.571
414.851, 153.149
416.193, 150.800
417.536, 30.524
418.878, 0.267
420.220, 106.987
421.562, 104.247
422.904, 166.514
424.245, 213.785
425.586, 303.062
426.927, 425.344
428.268, 392.630
429.609, 408.920
430.949, 382.213
432.289, 517.508
433.629, 472.806
434.969, 558.106
436.309, 553.408
437.648, 653.711
438.987, 728.015
440.326, 787.318
441.665, 804.623
443.003, 850.925
444.342, 989.228
445.680, 1138.528
447.018, 1230.828
448.355, 1180.125
449.693, 1253.420
451.030, 1365.712
452.367, 1485.000
453.704, 1484.286
455.041, 1723.568
456.377, 1678.845
457.713, 1874.117
459.049, 1960.385
460.385, 2026.647
461.721, 2194.904
463.056, 2154.156
464.391, 2159.402
465.726, 2404.640
467.061, 2436.873
468.395, 2458.098
469.730, 2686.315
471.064, 2657.036
472.398, 2996.661
473.731, 2898.276
475.065, 3153.261
476.398, 3170.388
477.731, 3399.257
479.064, 3624.975
480.397, 3804.919
481.729, 4079.135
483.062, 4187.778
484.394, 4395.493
485.725, 4479.012
487.057, 4830.521
488.389, 4797.572
489.720, 4927.234
491.051, 4957.653
492.382, 5003.928
493.712, 5069.542
495.043, 5219.656
496.373, 5230.978
497.703, 5362.354
499.032, 5495.272
500.362, 5381.640
501.691, 5462.722
503.020, 5268.995
504.349, 5375.268
505.678, 5108.532
507.007, 5035.150
508.335, 4863.950
509.663, 4757.155
510.991, 4743.040
512.319, 4670.795
513.646, 4803.057
514.973, 4873.426
516.300, 5079.754
517.627, 5453.044
518.954, 5657.303
520.280, 6006.501
521.607, 6357.670
522.933, 6733.798
524.259, 7256.888
525.584, 7659.934
526.910, 8414.941
528.235, 8618.906
529.560, 9338.830
530.885, 9391.716
532.209, 9371.560
533.534, 9840.360
534.858, 9401.124
536.182, 9318.844
537.506, 8809.523
538.829, 8668.162
540.152, 8219.761
541.476, 8130.317
542.799, 7867.833
544.121, 7854.307
545.444, 7360.741
546.766, 6840.133
548.088, 6254.484
549.410, 5598.792
550.732, 4721.062
552.053, 4280.289
553.375, 3663.475
554.696, 3163.619
556.017, 2930.721
557.337, 2616.782
558.658, 2448.800
559.978, 2248.855
561.298, 2127.253
562.618, 2001.277
563.938, 1957.130
565.257, 1838.444
566.576, 1768.115
567.895, 1665.317
569.214, 1663.764
570.533, 1571.435
571.851, 1395.270
573.170, 1429.289
574.488, 1300.049
575.805, 1194.842
577.123, 1107.252
578.440, 1097.048
579.758, 1098.478
581.075, 874.876
582.391, 1049.243
583.708, 936.577
585.024, 879.881
586.341, 1002.153
587.657, 899.395
588.972, 1013.604
590.288, 1014.782
591.603, 963.930
592.918, 1083.047
594.233, 1184.133
595.548, 1194.189
596.863, 1349.215
598.177, 1456.210
599.491, 1552.175
600.805, 1601.111
602.119, 1614.017
603.432, 1601.894
604.746, 1578.430
606.059, 1609.559
607.372, 1478.348
608.685, 1450.108
609.997, 1398.840
611.309, 1273.544
612.621, 1101.220
613.933, 1080.867
615.245, 1015.487
616.557, 968.080
617.868, 902.646
619.179, 769.184
620.490, 635.695
621.801, 697.180
623.111, 520.638
624.421, 444.070
625.731, 301.478
627.041, 293.858
628.351, 103.214
629.660, 145.526
630.970, 101.806
632.279, 79.956
633.588, 115.843
634.896, 288.874
636.205, 113.136
637.513, 182.538
638.821, 173.114
640.129, 166.218
641.437, 153.766
642.744, 216.828
644.051, 251.077
645.358, 230.528
646.665, 211.170
647.972, 257.990
649.278, 179.011
650.584, 267.191
651.890, 230.573
653.196, 253.136
654.502, 145.891
655.807, 237.778
657.113, 168.845
658.418, 0.051
659.722, 126.311
661.027, 162.685
662.331, 82.188
663.636, 57.779
664.940, 13.444
666.244, 24.157
667.547, 91.923
668.851, 38.229
670.154, 17.361
671.457, 86.467
672.760, 181.565
674.062, 180.655
675.365, 292.737
676.667, 314.813
677.969, 343.883
679.271, 381.947
680.572, 353.007
681.874, 545.063
683.175, 629.116
684.476, 628.167
685.777, 687.216
687.077, 639.265
688.378, 823.313
689.678, 892.363
690.978, 908.415
692.278, 871.468
693.577, 1180.525
694.877, 1194.587
696.176, 1272.654
697.475, 1397.728
698.774, 1546.807
700.072, 1600.894
701.371, 1824.989
702.669, 1867.094
703.967, 2148.208
705.265, 2388.332
706.562, 2482.469
707.860, 2607.617
709.157, 2866.777
710.454, 3085.952
711.751, 3399.141
713.047, 3649.343
714.344, 3963.562
715.640, 4197.798
716.936, 4506.536
718.232, 4727.379
719.527, 5154.747
720.823, 5470.185
722.118, 5899.694
723.413, 6246.287
724.708, 6690.979
726.002, 7802.745
727.297, 7756.598
728.591, 8985.538
729.885, 9665.547
731.179, 10184.618
732.472, 11213.756
733.766, 13777.928
735.059, 14343.131
736.352, 15324.363
737.645, 15403.621
738.937, 16830.906
740.230, 18339.219
741.522, 20243.559
742.814, 22387.928
744.106, 25044.326
745.397, 27024.758
746.689, 29324.217
747.980, 32427.703
749.271, 33905.227
750.562, 36762.789
751.853, 37499.379
753.143, 38829.996
754.433, 38241.648
755.723, 37853.344
757.013, 37302.062
758.303, 34931.828
759.592, 33172.625
760.881, 30213.457
762.170, 28385.328
763.459, 25106.236
764.748, 22231.186
766.036, 20086.170
767.325, 17107.195
768.613, 15289.265
769.901, 13138.370
771.188, 11396.519
772.476, 10202.707
773.763, 8905.943
775.050, 8201.215
776.337, 7550.534
777.624, 7075.896
778.910, 6922.301
780.196, 6850.754
781.482, 6469.249
782.768, 6307.792
784.054, 6092.873
785.339, 5729.096
786.625, 5264.371
787.910, 4953.317
789.195, 4449.167
790.479, 3991.322
791.764, 3611.681
793.048, 3101.863
794.332, 2934.815
795.616, 2431.423
796.900, 2205.010
798.183, 1808.842
799.467, 1642.726
800.750, 1548.129
802.033, 1420.971
803.316, 1530.112
804.598, 1437.446
805.880, 1692.499
807.163, 1723.098
808.445, 1748.573
809.726, 1978.041
811.008, 2161.006
812.289, 2527.596
813.570, 2852.522
814.851, 3226.303
816.132, 3911.137
817.413, 4529.037
818.693, 5479.660
819.973, 6691.177
821.253, 7868.340
822.533, 9494.803
823.813, 11085.576
825.092, 13806.823
826.371, 16881.600
827.650, 20141.312
828.929, 24801.717
830.208, 29852.213
831.486, 35184.809
832.764, 40006.523
834.042, 44605.371
835.320, 46025.359
836.598, 47080.441
837.875, 45877.656
839.152, 43901.980
840.429, 43337.414
841.706, 40586.012
842.983, 38638.746
844.259, 35946.629
845.536, 31378.670
846.812, 27932.844
848.088, 23701.148
849.363, 20603.592
850.639, 17827.160
851.914, 15177.858
853.189, 13505.695
854.464, 12515.635
855.739, 11700.720
857.013, 11140.916
858.288, 10769.241
859.562, 10698.684
860.836, 10614.242
862.110, 9816.911
863.383, 9474.682
864.656, 8380.566
865.930, 7554.560
867.203, 6660.647
868.475, 5772.849
869.748, 4860.147
871.020, 4606.544
872.292, 3981.041
873.564, 3627.636
874.836, 3322.327
876.108, 3045.114
877.379, 2973.995
878.650, 2793.969
879.922, 2381.039
881.192, 2140.201
882.463, 1870.455
883.733, 1657.801
885.004, 1448.239
886.274, 1322.769
887.544, 1171.389
888.813, 1104.102
890.083, 883.905
891.352, 823.800
892.621, 650.787
893.890, 558.865
895.159, 425.034
896.427, 302.295
897.695, 295.646
898.964, 190.089
900.232, 218.624
901.499, 127.250
902.767, 207.965
904.034, 214.457
905.301, 180.670
906.568, 308.660
907.835, 368.738
909.102, 436.642
910.368, 428.168
911.634, 545.518
912.900, 572.959
914.166, 681.490
915.432, 723.110
916.697, 639.820
917.962, 871.620
919.227, 846.509
920.492, 818.487
921.757, 926.554
923.021, 996.710
924.285, 1175.955
925.550, 1359.141
926.813, 1510.708
928.077, 1848.218
929.341, 2196.815
930.604, 2534.500
931.867, 2734.272
933.130, 2716.131
934.393, 2612.077
935.655, 2075.288
936.918, 2001.623
938.180, 1593.729
939.442, 1370.080
940.703, 1569.862
941.965, 1124.803
943.226, 946.611
944.488, 1017.513
945.749, 1153.995
947.009, 1185.954
948.270, 1284.997
949.530, 1481.068
950.791, 1614.775
952.051, 1714.858
953.311, 1990.961
954.570, 2371.283
955.830, 2651.266
957.089, 3290.878
958.348, 3833.022
959.607, 4713.509
960.866, 5439.821
962.124, 6455.977
963.383, 7464.875
964.641, 7969.648
965.899, 8024.192
967.156, 7449.689
968.414, 6823.651
969.671, 5963.479
970.928, 4951.345
972.185, 4217.384
973.442, 3590.585
974.699, 3075.895
975.955, 2532.280
977.211, 2193.421
978.468, 2151.395
979.723, 1882.625
980.979, 1685.036
982.234, 1811.666
983.490, 1512.862
984.745, 1638.575
986.000, 1606.874
987.254, 1564.119
988.509, 1580.065
989.763, 1595.838
991.017, 1582.518
992.271, 1572.799
993.525, 1693.105
994.779, 1695.079
996.032, 1763.901
997.285, 1729.795
998.538, 1730.549
999.791, 1704.076
1001.044, 1700.388
1002.296, 1688.944
1003.548, 1712.012
1004.800, 1693.819
1006.052, 1710.715
1007.304, 1636.610
1008.555, 1696.086
1009.807, 1635.786
1011.058, 1568.966
1012.309, 1661.507
1013.559, 1560.684
1014.810, 1494.711
1016.060, 1447.157
1017.310, 1458.722
1018.560, 1297.890
1019.810, 1309.042
1021.060, 1323.389
1022.309, 1185.767
1023.558, 1124.893
1024.807, 1132.965
1026.056, 1007.985
1027.305, 987.447
1028.553, 954.064
1029.801, 830.137
1031.049, 793.688
1032.297, 831.268
1033.545, 821.877
1034.793, 845.514
1036.040, 830.179
1037.287, 695.871
1038.534, 723.588
1039.781, 729.331
1041.027, 521.099
1042.274, 602.891
1043.520, 566.707
1044.766, 396.547
1046.012, 410.408
1047.257, 379.291
1048.503, 372.195
1049.748, 351.759
1050.993, 246.062
1052.238, 275.022
1053.483, 199.999
1054.727, 100.991
1055.971, 163.000
1057.216, 213.023
1058.459, 163.062
1059.703, 143.111
1060.947, 148.173
1062.190, 196.245
1063.433, 170.172
1064.676, 128.414
1065.919, 145.509
1067.162, 122.609
1068.404, 80.715
1069.646, 21.828
1070.888, 92.946
1072.130, 11.069
1073.372, 116.195
1074.613, 92.323
1075.855, 47.453
1077.096, 46.583
1078.337, 34.210
1079.578, 25.845
1080.818, 41.974
1082.059, 19.101
1083.299, 33.225
1084.539, 11.655
1085.779, 55.541
1087.018, 43.443
1088.258, 1.638
1089.497, 55.285
1090.736, 54.228
1091.975, 71.190
1093.213, 68.180
1094.452, 18.199
1095.690, 192.234
1096.928, 54.351
1098.166, 49.492
1099.404, 48.352
1100.642, 102.812
1101.879, 32.016
1103.116, 76.244
1104.353, 16.515
1105.590, 70.792
1106.827, 9.090
1108.063, 155.386
1109.299, 1.755
1110.536, 21.891
1111.771, 96.461
1113.007, 20.885
1114.243, 66.666
1115.478, 5.765
1116.713, 44.207
1117.948, 84.685
1119.183, 96.205
1120.418, 3.191
1121.652, 223.578
1122.886, 265.963
1124.120, 217.344
1125.354, 2.713
1126.588, 10.046
1127.821, 53.628
1129.055, 31.628
1130.288, 12.861
1131.521, 71.926
1132.753, 91.815
1133.986, 128.807
1135.218, 42.077
1136.450, 83.088
1137.682, 20.646
1138.914, 86.687
1140.146, 140.143
1141.377, 120.752
1142.609, 143.505
1143.840, 121.474
1145.071, 103.048
1146.301, 69.694
1147.532, 54.035
1148.762, 51.500
1149.992, 36.091
1151.222, 72.801
1152.452, 54.348
1153.682, 79.585
1154.911, 39.333
1156.140, 34.840
1157.369, 30.855
1158.598, 25.450
1159.827, 62.941
1161.055, 104.341
1162.284, 59.663
1163.512, 81.890
1164.740, 205.028
1165.967, 68.101
1167.195, 180.078
1168.422, 173.986
1169.650, 178.821
1170.877, 206.585
1172.103, 222.278
1173.330, 237.902
1174.557, 383.456
1175.783, 355.944
1177.009, 260.525
1178.235, 449.873
1179.461, 417.583
1180.686, 495.249
1181.912, 513.639
1183.137, 560.346
1184.362, 664.856
1185.587, 664.226
1186.811, 737.345
1188.036, 679.892
1189.260, 812.170
1190.484, 810.457
1191.708, 902.883
1192.932, 829.041
1194.155, 927.999
1195.378, 1057.152
1196.602, 1009.163
1197.825, 1080.677
1199.047, 1160.504
1200.270, 1120.830
1201.492, 1269.427
1202.715, 1160.805
1203.937, 1325.211
1205.159, 1368.753
1206.380, 1331.541
1207.602, 1299.546
1208.823, 1479.213
1210.044, 1610.948
1211.265, 1638.072
1212.486, 1579.179
1213.707, 1640.238
1214.927, 1713.649
1216.147, 1761.975
1217.367, 1834.340
1218.587, 1856.653
1219.807, 1903.646
1221.027, 1959.575
1222.246, 1910.521
1223.465, 1996.047
1224.684, 2105.917
1225.903, 2133.659
1227.121, 2071.248
1228.340, 2305.633
1229.558, 2217.242
1230.776, 2326.571
1231.994, 2262.900
1233.212, 2375.118
1234.429, 2415.547
1235.646, 2426.395
1236.864, 2520.525
1238.081, 2498.057
1239.297, 2527.474
1240.514, 2599.784
1241.730, 2616.653
1242.947, 2616.924
1244.163, 2701.570
1245.378, 2652.122
1246.594, 2676.553
1247.810, 2660.395
1249.025, 2649.093
1250.240, 2700.134
1251.455, 2658.613
1252.670, 2667.716
1253.885, 2718.497
1255.099, 2736.518
1256.313, 2595.578
1257.527, 2779.484
1258.741, 2756.627
1259.955, 2631.751
1261.168, 2696.322
1262.382, 2785.460
1263.595, 2715.122
1264.808, 2791.843
1266.021, 2729.375
1267.233, 2788.474
1268.446, 2803.604
1269.658, 2697.717
1270.870, 2734.678
1272.082, 2751.327
1273.294, 2864.647
1274.505, 2767.296
1275.716, 2758.633
1276.928, 2839.568
1278.139, 2928.706
1279.349, 3014.958
1280.560, 2908.496
1281.770, 2845.026
1282.981, 2914.935
1284.191, 2952.138
1285.401, 2874.554
1286.610, 2827.562
1287.820, 2947.766
1289.029, 2644.851
1290.239, 2703.613
1291.448, 2707.597
1292.656, 2571.598
1293.865, 2333.340
1295.073, 2348.178
1296.282, 2030.536
1297.490, 2108.229
1298.698, 1960.868
1299.906, 1833.389
1301.113, 1701.701
1302.320, 1605.921
1303.528, 1554.209
1304.735, 1451.691
1305.942, 1373.779
1307.148, 1327.199
1308.355, 1180.730
1309.561, 1095.969
1310.767, 1035.723
1311.973, 990.987
1313.179, 854.213
1314.384, 872.193
1315.590, 793.063
1316.795, 869.088
1318.000, 719.065
1319.205, 777.984
1320.410, 692.270
1321.614, 597.175
1322.819, 654.482
1324.023, 532.095
1325.227, 525.483
1326.431, 573.619
1327.634, 479.485
1328.838, 508.104
1330.041, 522.429
1331.244, 562.513
1332.447, 440.349
1333.650, 483.957
1334.852, 461.346
1336.055, 406.569
1337.257, 449.609
1338.459, 475.477
1339.661, 407.175
1340.862, 418.706
1342.064, 515.071
1343.265, 417.276
1344.466, 514.321
1345.667, 426.215
1346.868, 454.952
1348.068, 424.525
1349.269, 367.930
1350.469, 524.159
1351.669, 447.211
1352.869, 503.083
1354.069, 461.775
1355.268, 616.293
1356.468, 560.643
1357.667, 545.833
1358.866, 435.872
1360.065, 429.533
1361.263, 393.526
1362.462, 379.152
1363.660, 428.647
1364.858, 417.018
1366.056, 385.267
1367.254, 458.399
1368.451, 348.422
1369.649, 351.346
1370.846, 360.181
1372.043, 380.943
1373.240, 299.648
1374.436, 338.311
1375.633, 267.949
1376.829, 260.591
1378.025, 258.272
1379.221, 167.030
1380.417, 202.911
1381.613, 138.992
1382.808, 177.374
1384.003, 184.724
1385.199, 173.707
1386.393, 41.460
1387.588, 70.113
1388.783, 7.619
1389.977, 53.009
1391.171, 4.229
1392.365, 58.254
1393.559, 73.042
1394.753, 18.301
1395.946, 53.915
1397.140, 56.733
1398.333, 49.693
1399.526, 110.931
1400.719, 42.406
1401.911, 34.882
1403.104, 8.047
1404.296, 124.065
1405.488, 53.127
1406.680, 53.278
1407.872, 116.411
1409.063, 17.552
1410.255, 95.374
1411.446, 67.229
1412.637, 69.031
1413.828, 36.782
1415.018, 28.689
1416.209, 133.141
1417.399, 31.783
1418.589, 46.449
1419.779, 108.140
1420.969, 70.137
1422.159, 20.647
1423.348, 19.493
1424.537, 30.594
1425.726, 37.609
1426.915, 92.094
1428.104, 74.707
1429.293, 56.137
1430.481, 35.367
1431.669, 68.225
1432.857, 118.511
1434.045, 78.955
1435.233, 185.734
1436.420, 183.527
1437.608, 152.024
1438.795, 186.972
1439.982, 216.184
1441.169, 283.446
1442.355, 284.069
1443.542, 326.719
1444.728, 370.383
1445.914, 434.076
1447.100, 449.882
1448.286, 436.890
1449.472, 440.355
1450.657, 517.755
1451.842, 554.748
1453.027, 491.200
1454.212, 584.155
