##NAMES=Humite
##RRUFFID=R040071
##IDEAL CHEMISTRY=Mg_7_(SiO_4_)_3_(F,OH)_2_
##LOCALITY=Tilly Foster mine, Brewster, Putnam County, New York, USA
##OWNER=RRUFF
##SOURCE=University of Arizona Mineral Museum
##DESCRIPTION=Red crystals
##STATUS=The identification of this mineral has been confirmed by X-ray diffraction and chemical analysis
##URL=rruff.info/R040071
##MEASURED CHEMISTRY=(Mg_0.91_Fe_0.09_)_7_(Si_0.99_Ti_0.01_O_4_)_3_(F_0.76_(OH)_0.24_)_2_
##PIN_ID=L00333
##ORIENTATION=Laser parallel to -c* (0 0 -1). Fiducial mark perpendicular to laser is parallel to a [1 0 0]
133.003, 0.000
134.390, 4.479
135.777, 44.661
137.164, 7.286
138.550, 147.901
139.937, 190.295
141.323, 251.424
142.709, 226.892
144.094, 270.739
145.480, 212.251
146.865, 232.869
148.250, 239.134
149.635, 264.678
151.019, 258.219
152.403, 211.584
153.788, 194.611
155.171, 161.134
156.555, 141.991
157.939, 113.038
159.322, 142.423
160.705, 83.200
162.088, 199.109
163.470, 221.787
164.853, 214.161
166.235, 219.170
167.617, 93.836
168.998, 143.299
170.380, 154.582
171.761, 183.581
173.142, 237.195
174.523, 147.340
175.904, 239.939
177.284, 220.932
178.664, 291.267
180.044, 244.906
181.424, 327.815
182.803, 433.968
184.183, 456.341
185.562, 525.918
186.940, 703.681
188.319, 720.617
189.698, 849.714
191.076, 750.960
192.454, 872.346
193.831, 978.862
195.209, 994.497
196.586, 1157.245
197.963, 1051.107
199.340, 1139.231
200.717, 1221.042
202.093, 1272.159
203.470, 1291.942
204.846, 1364.843
206.221, 1437.020
207.597, 1637.012
208.972, 1708.797
210.347, 1462.382
211.722, 1254.778
213.097, 1075.990
214.472, 976.026
215.846, 988.883
217.220, 1019.535
218.594, 1120.021
219.967, 1064.368
221.341, 1116.596
222.714, 1216.720
224.087, 1110.752
225.460, 1100.707
226.832, 1119.591
228.204, 1043.418
229.577, 972.197
230.948, 975.936
232.320, 898.642
233.692, 917.323
235.063, 969.985
236.434, 874.633
237.805, 1002.271
239.175, 970.902
240.545, 1005.527
241.916, 1212.149
243.286, 1102.768
244.655, 1146.383
246.025, 1113.996
247.394, 1085.604
248.763, 1087.208
250.132, 1046.806
251.501, 1143.396
252.869, 959.979
254.237, 1020.550
255.605, 927.108
256.973, 870.654
258.340, 877.184
259.708, 895.696
261.075, 931.510
262.442, 975.165
263.808, 896.043
265.175, 966.003
266.541, 982.858
267.907, 1079.267
269.273, 1130.908
270.639, 1225.465
272.004, 1272.354
273.369, 1369.321
274.734, 1364.112
276.099, 1344.147
277.463, 1421.715
278.828, 1547.681
280.192, 1566.730
281.556, 1448.367
282.919, 1606.992
284.283, 1534.601
285.646, 1601.184
287.009, 1528.737
288.372, 1510.256
289.734, 1545.739
291.097, 1524.187
292.459, 1482.598
293.821, 1594.974
295.183, 1530.312
296.544, 1521.614
297.905, 1429.126
299.266, 1485.005
300.627, 1478.855
301.988, 1598.032
303.348, 1641.479
304.709, 1671.153
306.069, 1760.024
307.428, 1806.067
308.788, 1810.261
310.147, 1843.301
311.507, 1835.031
312.865, 1857.582
314.224, 1893.246
315.583, 1927.008
316.941, 2056.890
318.299, 2065.880
319.657, 2026.991
321.015, 2064.222
322.372, 1918.549
323.729, 1940.990
325.086, 1890.548
326.443, 1858.209
327.800, 1703.953
329.156, 1737.794
330.512, 1566.736
331.868, 1455.762
333.224, 1490.875
334.579, 1450.070
335.935, 1396.336
337.290, 1394.680
338.645, 1298.090
339.999, 1381.558
341.354, 1385.060
342.708, 1369.616
344.062, 1486.198
345.416, 1567.781
346.769, 1605.385
348.123, 1668.006
349.476, 1672.631
350.829, 1660.269
352.182, 1733.896
353.534, 1785.514
354.887, 1845.118
356.239, 1724.705
357.591, 1688.049
358.942, 1745.826
360.294, 1461.358
361.645, 1350.871
362.996, 1235.362
364.347, 1189.829
365.698, 1122.265
367.048, 1024.661
368.398, 984.014
369.748, 867.321
371.098, 756.583
372.448, 729.801
373.797, 704.974
375.146, 586.104
376.495, 576.191
377.844, 575.235
379.192, 458.237
380.540, 568.198
381.889, 413.119
383.236, 426.998
384.584, 390.837
385.932, 322.635
387.279, 173.394
388.626, 242.112
389.973, 206.789
391.319, 32.425
392.666, 184.009
394.012, 36.551
395.358, 32.040
396.704, 8.526
398.049, 20.157
399.394, 2.856
400.740, 108.621
402.084, 75.480
403.429, 170.424
404.774, 208.480
406.118, 158.658
407.462, 178.946
408.806, 230.350
410.150, 206.883
411.493, 210.541
412.836, 132.325
414.179, 74.215
415.522, 144.196
416.865, 12.288
418.207, 0.455
419.549, 87.303
420.891, 159.005
422.233, 179.656
423.575, 270.257
424.916, 290.809
426.257, 389.298
427.598, 456.709
428.939, 515.011
430.279, 633.176
431.619, 484.161
432.959, 580.929
434.299, 591.468
435.639, 655.778
436.978, 693.968
438.318, 786.921
439.657, 764.836
440.996, 803.706
442.334, 850.537
443.673, 952.333
445.011, 982.094
446.349, 1123.819
447.687, 1154.509
449.024, 1298.161
450.361, 1359.778
451.699, 1368.360
453.036, 1388.906
454.372, 1533.416
455.709, 1614.890
457.045, 1532.329
458.381, 1792.730
459.717, 1810.102
461.053, 1992.444
462.388, 1941.753
463.724, 2079.029
465.059, 2155.267
466.394, 2255.469
467.728, 2253.631
469.063, 2396.754
470.397, 2392.836
471.731, 2529.878
473.065, 2675.878
474.398, 2684.435
475.732, 2928.578
477.065, 2961.572
478.398, 3160.051
479.731, 3326.038
481.063, 3403.213
482.396, 3523.430
483.728, 3796.671
485.060, 3946.426
486.391, 4096.747
487.723, 4258.441
489.054, 4303.483
490.385, 4543.245
491.716, 4587.332
493.047, 4547.418
494.377, 4620.255
495.708, 4771.018
497.038, 4890.207
498.368, 4808.127
499.697, 4835.656
501.027, 4932.036
502.356, 4972.181
503.685, 4958.365
505.014, 4841.976
506.342, 4767.352
507.671, 4711.293
508.999, 4345.092
510.327, 4450.433
511.655, 4376.781
512.982, 4342.444
514.310, 4494.655
515.637, 4375.799
516.964, 4655.875
518.291, 4691.883
519.617, 5015.821
520.944, 5311.694
522.270, 5405.497
523.596, 5947.233
524.921, 6382.902
526.247, 6760.504
527.572, 7115.037
528.897, 7524.503
530.222, 8105.902
531.547, 8417.236
532.871, 8637.500
534.196, 8430.700
535.520, 8398.831
536.844, 8393.901
538.167, 7992.901
539.491, 7734.837
540.814, 7501.707
542.137, 7224.002
543.460, 7343.252
544.783, 6784.928
546.105, 6583.539
547.427, 6381.835
548.749, 5789.317
550.071, 5203.594
551.393, 4669.482
552.714, 4090.501
554.035, 3469.208
555.356, 3178.594
556.677, 2862.593
557.998, 2521.684
559.318, 2463.688
560.638, 2297.882
561.958, 2143.984
563.278, 1834.961
564.597, 1860.385
565.917, 1696.776
567.236, 1615.735
568.555, 1579.315
569.874, 1484.218
571.192, 1410.746
572.511, 1330.885
573.829, 1282.841
575.147, 1179.114
576.464, 1093.533
577.782, 1080.563
579.099, 989.257
580.416, 896.235
581.733, 799.395
583.050, 700.193
584.366, 760.021
585.683, 821.945
586.999, 618.822
588.315, 686.654
589.630, 824.441
590.946, 709.184
592.261, 816.884
593.576, 877.543
594.891, 883.161
596.206, 991.740
597.520, 1125.279
598.834, 1201.780
600.148, 1516.244
601.462, 1478.669
602.776, 1537.058
604.089, 1353.410
605.402, 1430.725
606.715, 1398.004
608.028, 1389.247
609.341, 1330.454
610.653, 1226.627
611.965, 1197.765
613.277, 1053.868
614.589, 1099.938
615.901, 880.973
617.212, 877.975
618.523, 832.943
619.834, 825.879
621.145, 674.783
622.456, 610.655
623.766, 517.495
625.076, 473.304
626.386, 368.082
627.696, 346.829
629.006, 170.546
630.315, 278.234
631.624, 22.893
632.933, 47.484
634.242, 69.978
635.551, 64.554
636.859, 139.238
638.167, 161.068
639.475, 101.055
640.783, 184.165
642.090, 211.440
643.398, 191.892
644.705, 121.508
646.012, 194.253
647.318, 225.160
648.625, 170.244
649.931, 205.786
651.237, 205.641
652.543, 176.422
653.849, 219.119
655.155, 186.980
656.460, 168.986
657.765, 91.124
659.070, 171.352
660.375, 80.708
661.679, 8.856
662.984, 76.609
664.288, 74.148
665.592, 24.754
666.895, 73.402
668.199, 19.888
669.502, 6.162
670.805, 51.414
672.108, 162.656
673.411, 130.889
674.713, 137.113
676.016, 244.329
677.318, 203.538
678.620, 300.739
679.921, 280.936
681.223, 345.126
682.524, 346.314
683.825, 406.498
685.126, 528.680
686.427, 642.860
687.727, 650.040
689.028, 692.220
690.328, 694.401
691.628, 757.584
692.927, 844.770
694.227, 933.959
695.526, 930.153
696.825, 1049.221
698.124, 1160.558
699.423, 1244.770
700.721, 1384.990
702.020, 1524.219
703.318, 1636.458
704.616, 1746.708
705.913, 1837.969
707.211, 2033.242
708.508, 2301.541
709.805, 2561.854
711.102, 2575.193
712.399, 3001.561
713.695, 2985.969
714.992, 3394.422
716.288, 3528.914
717.584, 3789.478
718.879, 4108.103
720.175, 4364.326
721.470, 4713.070
722.765, 5025.531
724.060, 5459.525
725.355, 5848.629
726.649, 6329.835
727.944, 6891.148
729.238, 7610.545
730.532, 8268.364
731.825, 8996.575
733.119, 9793.193
734.412, 10305.865
735.705, 11078.577
736.998, 12054.321
738.291, 12970.098
739.584, 14151.901
740.876, 15524.739
742.168, 17105.602
743.460, 18377.500
744.752, 20543.430
746.043, 22851.389
747.334, 25589.379
748.626, 27520.400
749.916, 29315.459
751.207, 31571.551
752.498, 33678.660
753.788, 34595.840
755.078, 34274.023
756.368, 34414.262
757.658, 33525.523
758.947, 32304.832
760.237, 30859.172
761.526, 28424.553
762.815, 26331.967
764.104, 24040.430
765.392, 21254.928
766.680, 19109.471
767.969, 16414.047
769.257, 14899.664
770.544, 12531.326
771.832, 11175.031
773.119, 9558.779
774.406, 8479.568
775.693, 7844.404
776.980, 6937.282
778.267, 6691.207
779.553, 6313.175
780.839, 6304.190
782.125, 6079.254
783.411, 6032.367
784.697, 5685.528
785.982, 5469.739
787.267, 5091.405
788.552, 4643.496
789.837, 4186.749
791.122, 3888.530
792.406, 3406.817
793.690, 3045.931
794.974, 2604.016
796.258, 2308.086
797.542, 1987.654
798.825, 1773.667
800.108, 1606.329
801.391, 1360.663
802.674, 1337.289
803.957, 1248.606
805.239, 1262.939
806.522, 1321.541
807.804, 1224.243
809.085, 1548.531
810.367, 1649.117
811.649, 1628.126
812.930, 1979.304
814.211, 2201.753
815.492, 2554.194
816.772, 3133.235
818.053, 3661.534
819.333, 4279.279
820.613, 4933.184
821.893, 6137.562
823.173, 7173.945
824.452, 8498.025
825.732, 10513.570
827.011, 12473.191
828.290, 14959.898
829.568, 18133.691
830.847, 22089.580
832.125, 26722.576
833.403, 31280.676
834.681, 34947.887
835.959, 37796.203
837.236, 38790.652
838.514, 38300.234
839.791, 37169.930
841.068, 35948.766
842.345, 34665.715
843.621, 33524.781
844.898, 31267.959
846.174, 28204.258
847.450, 25316.676
848.726, 21559.201
850.001, 18711.854
851.277, 15941.627
852.552, 13967.508
853.827, 12251.506
855.102, 10969.631
856.376, 10111.849
857.651, 9792.173
858.925, 9394.597
860.199, 9249.122
861.473, 9008.759
862.746, 8966.507
864.020, 8528.356
865.293, 7672.307
866.566, 7194.353
867.839, 6182.494
869.112, 5298.737
870.384, 4953.067
871.656, 4176.968
872.928, 3570.019
874.200, 3227.627
875.472, 2997.320
876.744, 2744.102
878.015, 2479.970
879.286, 2287.728
880.557, 2061.987
881.828, 1892.087
883.098, 1684.293
884.369, 1478.582
885.639, 1327.953
886.909, 1100.407
888.178, 970.944
889.448, 857.562
890.717, 853.263
891.987, 750.046
893.256, 631.912
894.524, 641.859
895.793, 451.888
897.061, 401.999
898.330, 326.191
899.598, 214.466
900.865, 241.822
902.133, 210.259
903.401, 110.778
904.668, 211.378
905.935, 288.060
907.202, 185.822
908.468, 306.667
909.735, 526.591
911.001, 516.596
912.267, 601.681
913.533, 837.848
914.799, 921.094
916.064, 883.421
917.330, 1117.827
918.595, 1023.313
919.860, 955.879
921.124, 943.524
922.389, 903.250
923.653, 788.054
924.918, 729.937
926.182, 707.899
927.445, 765.938
928.709, 685.056
929.972, 662.253
931.236, 590.527
932.499, 585.920
933.761, 793.863
935.024, 599.394
936.286, 576.151
937.549, 613.221
938.811, 453.118
940.073, 527.941
941.334, 427.395
942.596, 532.340
943.857, 552.458
945.118, 627.394
946.379, 673.353
947.640, 773.444
948.900, 930.816
950.161, 1043.793
951.421, 1173.594
952.681, 1320.865
953.940, 1517.889
955.200, 1785.170
956.459, 2010.938
957.719, 2435.357
958.978, 2992.987
960.236, 3581.669
961.495, 4350.572
962.753, 5330.150
964.012, 6029.827
965.270, 6762.756
966.527, 7005.739
967.785, 6738.065
969.043, 6308.118
970.300, 5454.938
971.557, 4601.880
972.814, 3994.988
974.071, 3326.097
975.327, 2828.236
976.583, 2507.440
977.840, 2199.708
979.095, 1899.035
980.351, 1682.662
981.607, 1609.890
982.862, 1469.372
984.117, 1363.302
985.372, 1534.493
986.627, 1296.572
987.882, 1406.478
989.136, 1443.341
990.390, 1291.594
991.644, 1430.811
992.898, 1318.909
994.152, 1410.977
995.405, 1439.245
996.659, 1413.864
997.912, 1447.835
999.165, 1554.390
1000.417, 1479.745
1001.670, 1379.520
1002.922, 1580.642
1004.174, 1367.566
1005.426, 1545.928
1006.678, 1490.614
1007.930, 1467.171
1009.181, 1472.206
1010.432, 1452.604
1011.683, 1501.586
1012.934, 1401.189
1014.185, 1429.381
1015.435, 1399.284
1016.685, 1298.041
1017.935, 1234.425
1019.185, 1187.938
1020.435, 1192.812
1021.684, 1070.938
1022.934, 1103.249
1024.183, 1014.595
1025.432, 978.930
1026.680, 953.421
1027.929, 810.809
1029.177, 829.632
1030.425, 782.696
1031.673, 799.786
1032.921, 797.899
1034.169, 767.479
1035.416, 758.302
1036.663, 711.379
1037.911, 685.584
1039.157, 631.810
1040.404, 553.056
1041.650, 532.322
1042.897, 571.608
1044.143, 433.913
1045.389, 494.237
1046.634, 358.580
1047.880, 348.940
1049.125, 339.317
1050.371, 277.710
1051.615, 267.118
1052.860, 210.541
1054.105, 200.979
1055.349, 159.431
1056.593, 120.894
1057.837, 54.368
1059.081, 78.594
1060.325, 131.348
1061.568, 135.853
1062.812, 87.367
1064.055, 134.889
1065.298, 101.419
1066.540, 101.956
1067.783, 114.499
1069.025, 40.049
1070.267, 120.602
1071.509, 14.159
1072.751, 140.718
1073.993, 141.278
1075.234, 126.839
1076.475, 46.400
1077.716, 123.961
1078.957, 50.522
1080.198, 46.082
1081.438, 28.639
1082.679, 32.805
1083.919, 1.741
1085.159, 11.718
1086.398, 23.877
1087.638, 50.660
1088.877, 44.152
1090.116, 58.791
1091.355, 39.189
1092.594, 66.733
1093.833, 57.301
1095.071, 52.765
1096.309, 22.513
1097.547, 26.147
1098.785, 37.797
1100.023, 74.458
1101.260, 79.154
1102.498, 23.891
1103.735, 48.648
1104.972, 32.436
1106.208, 62.237
1107.445, 61.075
1108.681, 37.939
1109.918, 72.818
1111.154, 94.723
1112.389, 23.680
1113.625, 106.649
1114.860, 70.686
1116.096, 55.763
1117.331, 30.884
1118.566, 28.964
1119.800, 3.177
1121.035, 2.324
1122.269, 31.523
1123.503, 240.355
1124.737, 274.194
1125.971, 177.040
1127.205, 113.892
1128.438, 12.723
1129.671, 25.471
1130.904, 25.722
1132.137, 45.010
1133.370, 61.368
1134.602, 71.812
1135.834, 81.343
1137.066, 108.961
1138.298, 95.684
1139.530, 123.532
1140.762, 54.500
1141.993, 82.544
1143.224, 18.695
1144.455, 52.920
1145.686, 71.247
1146.917, 13.688
1148.147, 55.220
1149.377, 58.864
1150.607, 13.624
1151.837, 23.477
1153.067, 59.433
1154.296, 62.487
1155.526, 45.338
1156.755, 19.114
1157.984, 56.802
1159.213, 8.417
1160.441, 0.933
1161.670, 49.347
1162.898, 86.679
1164.126, 66.940
1165.354, 113.124
1166.581, 72.240
1167.809, 166.278
1169.036, 72.257
1170.263, 209.154
1171.490, 212.995
1172.717, 227.777
1173.943, 209.504
1175.170, 239.170
1176.396, 190.779
1177.622, 367.323
1178.848, 383.812
1180.073, 359.342
1181.299, 502.713
1182.524, 429.167
1183.749, 442.417
1184.974, 620.729
1186.199, 635.923
1187.423, 580.052
1188.648, 650.187
1189.872, 694.219
1191.096, 628.392
1192.320, 715.575
1193.543, 816.725
1194.767, 883.829
1195.990, 944.401
1197.213, 843.676
1198.436, 1003.256
1199.659, 953.060
1200.881, 897.150
1202.104, 1089.700
1203.326, 1084.903
1204.548, 1202.375
1205.770, 1094.538
1206.991, 1264.769
1208.213, 1152.142
1209.434, 1272.325
1210.655, 1221.382
1211.876, 1332.535
1213.096, 1409.300
1214.317, 1527.373
1215.537, 1451.233
1216.757, 1499.953
1217.977, 1587.364
1219.197, 1598.767
1220.417, 1660.986
1221.636, 1635.076
1222.855, 1629.225
1224.074, 1743.439
1225.293, 1683.708
1226.512, 1833.634
1227.731, 1905.692
1228.949, 1821.926
1230.167, 1863.980
1231.385, 1919.020
1232.603, 2055.508
1233.820, 2054.953
1235.038, 2023.763
1236.255, 2022.757
1237.472, 2170.417
1238.689, 2150.646
1239.906, 2239.066
1241.122, 2154.159
1242.338, 2223.374
1243.555, 2198.480
1244.771, 2260.323
1245.986, 2228.407
1247.202, 2299.211
1248.417, 2317.206
1249.633, 2341.643
1250.848, 2370.671
1252.063, 2330.647
1253.277, 2385.680
1254.492, 2332.648
1255.706, 2300.195
1256.920, 2232.301
1258.134, 2338.182
1259.348, 2336.308
1260.562, 2372.874
1261.775, 2359.811
1262.988, 2264.288
1264.201, 2371.599
1265.414, 2333.496
1266.627, 2401.659
1267.839, 2407.822
1269.052, 2337.046
1270.264, 2365.540
1271.476, 2405.903
1272.688, 2300.134
1273.899, 2379.137
1275.111, 2394.729
1276.322, 2416.752
1277.533, 2487.297
1278.744, 2497.301
1279.955, 2453.375
1281.165, 2509.972
1282.376, 2494.557
1283.586, 2420.326
1284.796, 2457.308
1286.006, 2398.763
1287.215, 2420.516
1288.425, 2397.803
1289.634, 2354.235
1290.843, 2304.454
1292.052, 2281.712
1293.261, 2202.985
1294.469, 2135.575
1295.678, 2039.463
1296.886, 1933.444
1298.094, 1835.001
1299.302, 1734.402
1300.509, 1613.583
1301.717, 1556.063
1302.924, 1459.001
1304.131, 1390.454
1305.338, 1353.251
1306.545, 1196.358
1307.752, 1107.850
1308.958, 1142.602
1310.164, 1038.471
1311.370, 1008.685
1312.576, 971.401
1313.782, 822.380
1314.987, 806.729
1316.193, 661.854
1317.398, 696.867
1318.603, 689.828
1319.807, 702.574
1321.012, 636.323
1322.216, 560.489
1323.421, 553.252
1324.625, 525.842
1325.829, 600.254
1327.032, 514.450
1328.236, 549.390
1329.439, 517.114
1330.642, 528.560
1331.845, 527.439
1333.048, 508.862
1334.251, 515.744
1335.453, 464.417
1336.656, 443.896
1337.858, 433.171
1339.060, 425.248
1340.261, 467.175
1341.463, 411.967
1342.664, 492.615
1343.866, 419.138
1345.067, 330.534
1346.267, 439.797
1347.468, 501.930
1348.669, 416.929
1349.869, 469.789
1351.069, 432.504
1352.269, 377.070
1353.469, 400.482
1354.668, 408.737
1355.868, 363.834
1357.067, 433.776
1358.266, 337.570
1359.465, 365.222
1360.664, 375.739
1361.862, 426.128
1363.061, 404.397
1364.259, 424.554
1365.457, 431.600
1366.655, 393.540
1367.852, 353.375
1369.050, 316.109
1370.247, 373.747
1371.444, 317.297
1372.641, 250.773
1373.838, 375.185
1375.035, 241.552
1376.231, 312.883
1377.427, 242.200
1378.623, 207.524
1379.819, 191.888
1381.015, 153.326
1382.211, 146.889
1383.406, 116.641
1384.601, 168.686
1385.796, 156.378
1386.991, 157.432
1388.185, 80.849
1389.380, 17.153
1390.574, 67.378
1391.768, 88.495
1392.962, 80.497
1394.156, 80.865
1395.350, 5.957
1396.543, 41.645
1397.736, 21.875
1398.929, 31.625
1400.122, 59.600
1401.315, 18.828
1402.507, 40.310
1403.700, 3.951
1404.892, 42.729
1406.084, 9.543
1407.276, 19.380
1408.467, 89.188
1409.659, 80.012
1410.850, 83.858
1412.041, 4.666
1413.232, 90.424
1414.423, 90.146
1415.614, 89.814
1416.804, 8.504
1417.994, 39.176
1419.184, 8.182
1420.374, 85.475
1421.564, 5.154
1422.753, 38.137
1423.943, 18.618
1425.132, 32.435
1426.321, 17.692
1427.510, 30.150
1428.698, 66.435
1429.887, 57.777
1431.075, 3.048
1432.263, 9.506
1433.451, 43.333
1434.639, 92.875
1435.827, 136.573
1437.014, 118.521
1438.201, 152.603
1439.388, 91.556
1440.575, 219.816
1441.762, 301.370
1442.949, 339.498
1444.135, 267.044
1445.321, 275.461
1446.507, 297.664
1447.693, 308.230
1448.879, 336.504
1450.064, 375.905
1451.250, 387.891
1452.435, 417.435
1453.620, 431.694
1454.805, 516.518
1455.989, 601.960
1457.174, 641.103
1458.358, 563.982
1459.542, 608.311
1460.726, 713.738
1461.910, 694.211
1463.093, 827.358
1464.277, 716.871
1465.460, 724.292
1466.643, 802.922
1467.826, 755.905
1469.009, 831.951
1470.191, 757.625
1471.373, 873.494
1472.556, 875.829
1473.738, 877.291
1474.919, 880.178
1476.101, 876.545
1477.283, 894.558
1478.464, 884.652
1479.645, 940.954
1480.826, 956.683
1482.007, 1012.632
1483.187, 1052.740
1484.368, 1142.546
1485.548, 1156.324
1486.728, 1216.248
1487.908, 1326.017
1489.088, 1392.547
1490.268, 1592.136
1491.447, 1501.533
1492.626, 1562.723
1493.805, 1599.684
1494.984, 1793.615
1496.163, 1826.527
1497.341, 1819.510
1498.520, 1932.821
1499.698, 1801.262
1500.876, 1919.500
1502.054, 1805.257
1503.232, 1894.095
1504.409, 1942.462
1505.586, 1785.301
1506.763, 1885.675
1507.940, 1708.396
1509.117, 1560.527
1510.294, 1543.335
1511.470, 1483.296
1512.647, 1330.005
1513.823, 1260.018
1514.999, 1088.641
1516.174, 961.996
1517.350, 777.309
1518.526, 687.089
1519.701, 530.422
1520.876, 453.703
1522.051, 305.514
1523.226, 216.145
