##NAMES=Humite
##RRUFFID=R050665
##IDEAL CHEMISTRY=Mg_7_(SiO_4_)_3_(F,OH)_2_
##LOCALITY=Tilly Foster mine, Brewster, Putnam County, New York, USA
##OWNER=RRUFF
##SOURCE=University of Arizona Mineral Museum
##DESCRIPTION=Granular aggregate of reddish-orange crystals
##STATUS=The identification of this mineral has been confirmed by X-ray diffraction and chemical analysis
##URL=rruff.info/R050665
##MEASURED CHEMISTRY=(Mg_0.91_Fe^2+^_0.09_)_7_(Si_1.00_O_4_)_3_(F_0.56_(OH)_0.44_)_2_
##PIN_ID=M00589
##ORIENTATION=Laser parallel to b* (0 1 0). Fiducial mark perpendicular to laser is parallel to c [0 0 1]
161.8000, 0.0000000E+00
163.0300, 22.44446
164.2600, 41.16052
165.4900, 98.20312
166.7200, 32.69885
167.9500, 7.293335
169.1790, 1.332886
170.4080, 39.19409
171.6380, 79.00806
172.8670, 41.90186
174.0950, 43.71484
175.3240, 35.31885
176.5520, 43.61401
177.7810, 69.51843
179.0090, 102.9619
180.2370, 77.88806
181.4640, 95.25269
182.6920, 41.01489
183.9190, 113.1367
185.1460, 130.5845
186.3730, 116.3284
187.6000, 165.3418
188.8270, 181.6091
190.0530, 203.1221
191.2800, 281.8589
192.5060, 332.7996
193.7320, 390.9283
194.9580, 462.2301
196.1830, 559.6923
197.4090, 595.3188
198.6340, 564.1167
199.8590, 569.0703
201.0840, 514.1628
202.3090, 500.3809
203.5340, 471.7137
204.7580, 347.1516
205.9820, 255.6870
207.2060, 215.3127
208.4300, 172.8759
209.6540, 201.8121
210.8780, 191.6755
212.1010, 189.6094
213.3240, 266.6095
214.5470, 225.7195
215.7700, 296.0294
216.9930, 190.4274
218.2150, 227.8651
219.4380, 253.3420
220.6600, 265.8572
221.8820, 326.4100
223.1040, 375.0112
224.3260, 411.5277
225.5470, 472.8651
226.7680, 500.0337
227.9900, 588.7808
229.2110, 633.2649
230.4310, 705.2365
231.6520, 749.4545
232.8720, 777.7426
234.0930, 873.1416
235.3130, 852.5486
236.5330, 963.9287
237.7530, 940.2900
238.9720, 849.6311
240.1920, 869.9644
241.4110, 852.2983
242.6300, 855.6299
243.8490, 912.9619
245.0680, 857.2971
246.2860, 931.6367
247.5040, 879.9827
248.7230, 888.3357
249.9410, 840.6975
251.1590, 869.0688
252.3760, 827.4497
253.5940, 755.8418
254.8110, 676.2444
256.0280, 678.6587
257.2450, 696.0842
258.4620, 743.5215
259.6790, 705.2617
260.8950, 672.3589
262.1120, 647.9043
263.3280, 523.3887
264.5440, 488.8848
265.7600, 375.7437
266.9750, 377.0303
268.1910, 361.3042
269.4060, 281.6558
270.6210, 311.3562
271.8360, 248.8262
273.0510, 219.3120
274.2650, 216.8147
275.4800, 212.3350
276.6940, 220.8740
277.9080, 226.4324
279.1220, 216.0117
280.3360, 180.6125
281.5490, 131.2363
282.7630, 171.2727
283.9760, 115.9412
285.1890, 157.6345
286.4020, 119.3538
287.6150, 147.0989
288.8270, 115.8699
290.0400, 145.6667
291.2520, 134.4890
292.4640, 146.3364
293.6760, 140.2075
294.8870, 129.1023
296.0990, 111.0190
297.3100, 116.9568
298.5210, 117.9141
299.7320, 122.4524
300.9430, 151.3162
302.1540, 151.4028
303.3640, 164.3795
304.5750, 192.3981
305.7850, 221.0167
306.9950, 295.8595
308.2050, 350.5085
309.4140, 387.3325
310.6240, 494.2029
311.8330, 534.1855
313.0420, 618.1967
314.2510, 732.0227
315.4600, 857.1663
316.6680, 917.3989
317.8770, 1075.865
319.0850, 1184.300
320.2930, 1293.697
321.5010, 1323.140
322.7090, 1328.626
323.9160, 1405.153
325.1240, 1329.716
326.3310, 1291.315
327.5380, 1268.946
328.7450, 1266.609
329.9520, 1224.301
331.1580, 1171.020
332.3650, 1123.766
333.5710, 1063.536
334.7770, 1049.330
335.9830, 993.1453
337.1880, 951.7710
338.3940, 928.8391
339.5990, 869.7151
340.8040, 823.6094
342.0090, 799.5210
343.2140, 789.4492
344.4190, 801.3931
345.6230, 725.3513
346.8280, 633.3240
348.0320, 644.3098
349.2360, 572.3086
350.4400, 521.3193
351.6430, 443.3416
352.8470, 405.3750
354.0500, 357.4192
355.2530, 288.4734
356.4560, 256.0923
357.6590, 189.6106
358.8620, 181.6929
360.0640, 114.7832
361.2660, 93.88086
362.4680, 114.9854
363.6700, 105.0972
364.8720, 94.21594
366.0740, 89.87280
367.2750, 13.52332
368.4760, 55.61816
369.6770, 15.22974
370.8780, 49.06775
372.0790, 38.90576
373.2800, 28.72278
374.4800, 40.53174
375.6800, 28.32642
376.8800, 24.89038
378.0800, 9.856934
379.2800, 34.42346
380.4790, 44.72595
381.6790, 41.05737
382.8780, 95.42285
384.0770, 82.81409
385.2760, 118.2390
386.4750, 151.6921
387.6730, 178.1757
388.8720, 124.7073
390.0700, 159.2782
391.2680, 85.87585
392.4660, 84.50098
393.6630, 66.17078
394.8610, 99.88989
396.0580, 62.64294
397.2550, 51.44177
398.4520, 65.28296
399.6490, 74.16772
400.8460, 26.09058
402.0420, 10.95398
403.2390, 36.01892
404.4350, 39.02820
405.6310, 60.07446
406.8270, 63.15564
408.0220, 71.26172
409.2180, 83.39331
410.4130, 105.5056
411.6080, 170.7395
412.8030, 159.9366
413.9980, 202.1382
415.1920, 231.3527
416.3870, 192.5875
417.5810, 193.8381
418.7750, 178.0931
419.9690, 182.3497
421.1630, 202.6007
422.3570, 187.8456
423.5500, 189.0846
424.7430, 162.3169
425.9360, 145.4904
427.1290, 95.75842
428.3220, 92.96704
429.5150, 51.16797
430.7070, 14.36096
431.8990, 5.545654
433.0910, 0.2795410
434.2830, 40.11609
435.4750, 32.97485
436.6670, 60.85474
437.8580, 68.76331
439.0490, 16.70312
440.2400, 15.66101
441.4310, 23.63733
442.6220, 42.63843
443.8130, 11.30859
445.0030, 13.79846
446.1930, 17.05933
447.3830, 0.8800050
448.5730, 48.67578
449.7630, 28.45520
450.9520, 76.22278
452.1420, 19.98401
453.3310, 95.73657
454.5200, 20.48120
455.7090, 114.2161
456.8980, 80.94177
458.0860, 75.65918
459.2740, 33.36694
460.4630, 21.06409
461.6510, 24.83337
462.8380, 69.41724
464.0260, 54.07520
465.2140, 64.72107
466.4010, 106.3545
467.5880, 120.9750
468.7750, 169.5819
469.9620, 138.1754
471.1490, 182.7550
472.3350, 150.3201
473.5220, 164.8707
474.7080, 193.4066
475.8940, 182.0721
477.0800, 260.4321
478.2650, 212.9215
479.4510, 250.3948
480.6360, 307.8518
481.8210, 304.2924
483.0060, 347.7161
484.1910, 299.1226
485.3760, 300.5120
486.5600, 300.8838
487.7440, 307.2378
488.9290, 272.5737
490.1130, 191.8915
491.2960, 230.1908
492.4800, 155.4714
493.6630, 210.7332
494.8470, 279.9758
496.0300, 238.1992
497.2130, 182.4031
498.3960, 202.5873
499.5780, 231.7513
500.7610, 284.8955
501.9430, 259.0195
503.1250, 217.1367
504.3070, 219.2356
505.4890, 193.3959
506.6710, 188.6934
507.8520, 188.1818
509.0330, 191.4642
510.2140, 196.7054
511.3950, 209.7531
512.5760, 227.6956
513.7570, 211.5364
514.9370, 188.0272
516.1170, 192.9120
517.2980, 195.6113
518.4780, 177.2424
519.6570, 220.7089
520.8370, 215.4259
522.0160, 183.7605
523.1960, 196.6714
524.3750, 247.7852
525.5540, 232.9042
526.7320, 250.9221
527.9110, 219.5790
529.0890, 260.8230
530.2680, 323.2346
531.4460, 284.5415
532.6240, 281.9312
533.8010, 266.4189
534.9790, 313.0872
536.1560, 283.8013
537.3340, 296.9207
538.5110, 315.8505
539.6880, 297.9539
540.8650, 394.3643
542.0410, 326.5156
543.2180, 393.2861
544.3940, 444.6605
545.5700, 441.4429
546.7460, 590.2957
547.9220, 525.7200
549.0970, 587.7732
550.2730, 554.9683
551.4480, 528.1277
552.6230, 554.0576
553.7980, 564.7563
554.9730, 573.1597
556.1470, 590.6504
557.3210, 593.5525
558.4960, 610.6777
559.6700, 677.5599
560.8440, 623.9960
562.0170, 637.5605
563.1910, 623.0829
564.3640, 714.5625
565.5380, 639.9998
566.7110, 714.3944
567.8840, 720.7466
569.0560, 717.0563
570.2290, 773.3236
571.4010, 792.5485
572.5740, 836.7308
573.7460, 888.7896
574.9180, 972.5027
576.0890, 1007.711
577.2610, 1099.278
578.4320, 1132.008
579.6040, 1269.153
580.7750, 1357.479
581.9450, 1507.785
583.1160, 1640.505
584.2870, 1795.948
585.4570, 2027.544
586.6270, 2203.634
587.7980, 2505.248
588.9670, 2777.099
590.1370, 3209.661
591.3070, 3645.181
592.4760, 4155.663
593.6450, 4816.061
594.8140, 5460.461
595.9830, 6125.757
597.1520, 6952.079
598.3210, 7696.361
599.4890, 8639.603
600.6570, 9447.807
601.8250, 9935.797
602.9930, 10556.83
604.1610, 10792.92
605.3290, 10756.97
606.4960, 10207.97
607.6630, 9581.941
608.8300, 8853.871
609.9970, 7985.762
611.1640, 6881.614
612.3300, 5925.429
613.4970, 5193.207
614.6630, 4381.944
615.8290, 3790.643
616.9950, 3260.305
618.1610, 2784.930
619.3260, 2506.517
620.4920, 2148.066
621.6570, 1840.578
622.8220, 1742.053
623.9870, 1409.491
625.1520, 1278.892
626.3160, 1129.256
627.4810, 1011.584
628.6450, 903.8760
629.8090, 806.1313
630.9730, 668.3511
632.1370, 586.5347
633.3000, 549.6829
634.4640, 435.7957
635.6270, 417.8730
636.7900, 386.9154
637.9530, 285.9231
639.1160, 273.8960
640.2780, 234.8344
641.4410, 205.7386
642.6030, 188.6091
643.7650, 185.4451
644.9270, 163.1158
646.0890, 146.9601
647.2500, 143.7461
648.4120, 101.4430
649.5730, 107.1001
650.7340, 75.72058
651.8950, 65.29724
653.0560, 92.83020
654.2160, 10.66748
655.3770, 50.76392
656.5370, 9.151855
657.6970, 22.48157
658.8570, 61.24133
660.0170, 38.06348
661.1760, 14.97046
662.3360, 41.95044
663.4950, 63.01611
664.6540, 33.17749
665.8130, 65.41797
666.9720, 45.75317
668.1310, 57.17114
669.2890, 125.6770
670.4470, 94.30518
671.6050, 50.03833
672.7630, 53.85107
673.9210, 122.7449
675.0790, 141.7539
676.2360, 86.88745
677.3930, 134.1147
678.5510, 123.4590
679.7080, 130.9141
680.8640, 113.4817
682.0210, 94.15112
683.1770, 47.91089
684.3340, 115.7336
685.4900, 119.6545
686.6460, 115.6748
687.8020, 80.78979
688.9570, 85.98022
690.1130, 120.2471
691.2680, 119.6062
692.4230, 103.0554
693.5780, 69.58472
694.7330, 58.17480
695.8880, 83.81763
697.0420, 70.52515
698.1960, 30.28833
699.3510, 22.08423
700.5040, 15.09302
701.6580, 79.25684
702.8120, 91.40869
703.9650, 124.2324
705.1190, 167.6770
706.2720, 147.7949
707.4250, 172.9026
708.5780, 156.0007
709.7300, 249.0894
710.8830, 295.1692
712.0350, 378.2407
713.1870, 419.3057
714.3390, 542.3660
715.4910, 576.4326
716.6430, 658.5044
717.7940, 663.5889
718.9460, 802.6895
720.0970, 871.7927
721.2480, 950.8994
722.3990, 988.0117
723.5500, 1116.136
724.7000, 1140.259
725.8500, 1217.387
727.0010, 1339.514
728.1510, 1432.643
729.3010, 1558.772
730.4500, 1482.900
731.6000, 1604.028
732.7490, 1575.157
733.8980, 1624.288
735.0470, 1729.421
736.1960, 1868.555
737.3450, 1791.692
738.4940, 1932.833
739.6420, 2079.976
740.7900, 2068.125
741.9380, 2155.279
743.0860, 2301.438
744.2340, 2501.602
745.3810, 2645.772
746.5290, 2827.949
747.6760, 2959.133
748.8230, 3178.324
749.9700, 3307.414
751.1170, 3518.729
752.2630, 3591.944
753.4100, 3690.170
754.5560, 3819.404
755.7020, 3809.649
756.8480, 3797.905
757.9940, 3683.172
759.1390, 3609.449
760.2850, 3690.741
761.4300, 3541.044
762.5750, 3508.360
763.7200, 3443.690
764.8650, 3343.034
766.0100, 3315.393
767.1540, 3248.766
768.2980, 3214.155
769.4420, 3349.561
770.5860, 3288.981
771.7300, 3515.420
772.8740, 3624.875
774.0170, 3887.349
775.1610, 4179.841
776.3040, 4459.351
777.4470, 4718.880
778.5900, 5302.430
779.7320, 5565.000
780.8750, 5739.577
782.0170, 6005.172
783.1590, 6156.707
784.3010, 6077.186
785.4430, 5641.685
786.5850, 5345.736
787.7260, 4867.949
788.8680, 4469.607
790.0090, 4065.079
791.1500, 3566.264
792.2910, 3360.281
793.4310, 3095.602
794.5720, 3038.100
795.7120, 2812.477
796.8520, 2801.841
797.9920, 2771.799
799.1320, 2790.353
800.2720, 2813.362
801.4120, 2817.191
802.5510, 2794.047
803.6900, 2939.047
804.8290, 2983.452
805.9680, 3139.302
807.1070, 3307.024
808.2450, 3488.898
809.3840, 3621.720
810.5220, 3924.484
811.6600, 4020.096
812.7980, 4377.692
813.9360, 4861.908
815.0730, 5134.342
816.2110, 5745.624
817.3480, 6257.625
818.4850, 6950.903
819.6220, 7766.588
820.7590, 9021.383
821.8960, 10235.12
823.0320, 11860.82
824.1680, 13751.98
825.3040, 16095.55
826.4400, 19075.02
827.5760, 22344.55
828.7120, 26135.35
829.8470, 30788.40
830.9830, 36006.77
832.1180, 41813.06
833.2530, 47309.97
834.3880, 52901.95
835.5220, 56589.64
836.6570, 58707.09
837.7910, 58742.41
838.9250, 57641.80
840.0590, 56337.29
841.1930, 55864.82
842.3270, 54504.41
843.4600, 53699.07
844.5940, 51561.79
845.7270, 47900.55
846.8600, 43056.38
847.9930, 38338.28
849.1250, 33043.23
850.2580, 28842.24
851.3900, 25826.31
852.5230, 23305.43
853.6550, 21655.62
854.7870, 20595.86
855.9180, 20317.17
857.0500, 20369.53
858.1810, 20940.95
859.3130, 21799.43
860.4440, 22665.98
861.5750, 23668.57
862.7050, 24652.24
863.8360, 23851.96
864.9660, 22896.74
866.0970, 21045.58
867.2270, 19354.48
868.3570, 17315.44
869.4870, 15220.47
870.6160, 13334.55
871.7460, 11578.69
872.8750, 10231.90
874.0040, 8727.161
875.1330, 7800.486
876.2620, 6877.874
877.3910, 6034.329
878.5190, 5387.844
879.6470, 4818.421
880.7760, 4300.059
881.9040, 3835.758
883.0310, 3528.519
884.1590, 3138.340
885.2870, 2880.226
886.4140, 2668.173
887.5410, 2369.185
888.6680, 2278.257
889.7950, 2080.392
890.9220, 1938.587
892.0480, 1749.847
893.1750, 1596.170
894.3010, 1643.556
895.4270, 1473.008
896.5530, 1423.525
897.6790, 1400.105
898.8040, 1311.749
899.9300, 1222.454
901.0550, 1032.221
902.1800, 1040.050
903.3050, 889.9414
904.4300, 794.8950
905.5540, 730.9111
906.6790, 684.9919
907.8030, 701.1375
908.9270, 659.3457
910.0510, 628.6152
911.1750, 653.9482
912.2990, 630.3423
913.4220, 632.2373
914.5450, 676.3157
915.6690, 629.8950
916.7920, 650.5356
917.9140, 648.2383
919.0370, 523.0020
920.1600, 592.4258
921.2820, 486.3145
922.4040, 496.2671
923.5260, 494.2837
924.6480, 342.5496
925.7700, 401.3955
926.8910, 413.6428
928.0130, 492.8049
929.1340, 440.1357
930.2550, 435.7422
931.3760, 449.9910
932.4970, 570.8032
933.6170, 658.2070
934.7380, 711.9202
935.8580, 631.3711
936.9780, 724.2131
938.0980, 751.0017
939.2180, 775.0994
940.3370, 892.1235
941.4570, 1028.380
942.5760, 1020.687
943.6950, 1262.924
944.8140, 1281.912
945.9330, 1433.221
947.0520, 1615.424
948.1700, 1755.198
949.2890, 2053.243
950.4070, 2168.428
951.5250, 2347.323
952.6430, 2467.417
953.7600, 2611.042
954.8780, 2591.591
955.9950, 2801.155
957.1120, 3046.534
958.2290, 3512.735
959.3460, 4041.592
960.4630, 4851.587
961.5800, 5807.575
962.6960, 6851.467
963.8120, 8224.123
964.9280, 9147.322
966.0440, 9654.455
967.1600, 9874.202
968.2760, 9502.942
969.3910, 8504.652
970.5060, 7539.912
971.6210, 6477.323
972.7360, 5500.129
973.8510, 4687.432
974.9660, 3987.254
976.0800, 3499.032
977.1950, 3076.837
978.3090, 2702.474
979.4230, 2367.992
980.5370, 1994.699
981.6500, 1908.573
982.7640, 1492.350
983.8770, 1464.161
984.9900, 1343.068
986.1030, 1271.947
987.2160, 1080.894
988.3290, 1021.837
989.4420, 903.8130
990.5540, 900.8208
991.6660, 888.8601
992.7780, 817.3306
993.8900, 803.2517
995.0020, 736.5630
996.1140, 736.7241
997.2250, 716.9150
998.3360, 712.2249
999.4470, 698.4736
1000.558, 691.1316
1001.669, 692.0552
1002.780, 698.3877
1003.890, 711.7471
1005.001, 758.1333
1006.111, 707.5454
1007.221, 669.9839
1008.331, 665.4478
1009.440, 570.2222
1010.550, 599.8711
1011.659, 531.4084
1012.768, 528.0479
1013.877, 538.6323
1014.986, 555.2395
1016.095, 507.8691
1017.204, 490.5210
1018.312, 592.4878
1019.420, 556.3364
1020.528, 553.4297
1021.636, 546.1646
1022.744, 546.9189
1023.852, 519.6931
1024.959, 511.8840
1026.066, 462.9634
1027.173, 474.2627
1028.280, 452.6533
1029.387, 423.4736
1030.494, 413.4321
1031.600, 437.7476
1032.707, 437.6594
1033.813, 437.5618
1034.919, 434.3010
1036.025, 426.4839
1037.130, 406.7683
1038.236, 378.8328
1039.341, 354.4211
1040.446, 399.2031
1041.552, 429.3757
1042.656, 420.4077
1043.761, 349.8254
1044.866, 348.8787
1045.970, 247.9839
1047.074, 316.0566
1048.179, 262.2986
1049.282, 193.3894
1050.386, 138.4883
1051.490, 83.59473
1052.593, 26.41382
1053.697, 40.69995
1054.800, 72.63721
1055.903, 71.41309
1057.006, 62.32471
1058.108, 24.54053
1059.211, 55.75806
1060.313, 89.78027
1061.415, 28.36597
1062.517, 142.8855
1063.619, 83.05640
1064.721, 92.88281
1065.823, 117.9478
1066.924, 105.0859
1068.025, 72.27441
1069.126, 107.4985
1070.227, 144.7751
1071.328, 143.1270
1072.429, 99.55542
1073.529, 118.0398
1074.629, 146.5903
1075.729, 94.22461
1076.829, 102.9160
1077.929, 72.67090
1079.029, 67.47510
1080.128, 56.71582
1081.228, 58.22266
1082.327, 23.16455
1083.426, 49.13623
1084.525, 15.15186
1085.623, 38.19653
1086.722, 66.28296
1087.820, 31.42651
1088.919, 73.61108
1090.017, 60.85815
1091.115, 66.16431
1092.212, 90.53320
1093.310, 23.97876
1094.407, 51.46533
1095.505, 29.01074
1096.602, 41.40112
1097.699, 92.80615
1098.795, 22.80371
1099.892, 12.53857
1100.989, 39.84985
1102.085, 7.860107
1103.181, 74.38696
1104.277, 12.38232
1105.373, 34.19922
1106.469, 52.92480
1107.564, 58.02734
1108.660, 31.10889
1109.755, 126.1653
1110.850, 43.20435
1111.945, 80.21582
1113.040, 72.20996
1114.134, 88.18408
1115.229, 98.13843
1116.323, 82.51440
1117.417, 118.9871
1118.511, 88.88110
1119.605, 118.7549
1120.698, 198.6082
1121.792, 114.4475
1122.885, 126.2668
1123.978, 80.06885
1125.071, 167.8535
1126.164, 182.6160
1127.257, 112.3647
1128.349, 152.1016
1129.442, 106.8167
1130.534, 172.5076
1131.626, 170.1755
1132.718, 137.8206
1133.810, 190.4419
1134.901, 206.0403
1135.993, 192.4443
1137.084, 199.9072
1138.175, 162.7056
1139.266, 162.2197
1140.357, 115.7100
1141.448, 85.17285
1142.538, 154.6003
1143.628, 134.0024
1144.719, 151.3789
1145.809, 206.7305
1146.898, 172.0557
1147.988, 191.3577
1149.078, 130.6340
1150.167, 140.8809
1151.256, 130.0994
1152.345, 183.2874
1153.434, 168.4482
1154.523, 169.6086
1155.612, 145.7729
1156.700, 135.8501
1157.788, 135.8948
1158.877, 133.9749
1159.964, 117.8857
1161.052, 165.8623
1162.140, 144.7783
1163.227, 194.6584
1164.315, 247.5095
1165.402, 223.3313
1166.489, 223.1384
1167.576, 158.9268
1168.663, 177.6582
1169.749, 146.3589
1170.836, 139.0249
1171.922, 176.7644
1173.008, 211.3652
1174.094, 163.9360
1175.180, 203.4729
1176.265, 193.9795
1177.351, 214.4551
1178.436, 184.8999
1179.521, 222.3130
1180.606, 227.6951
1181.691, 240.0461
1182.776, 220.3667
1183.860, 192.0579
1184.944, 305.3145
1186.029, 239.5396
1187.113, 287.7336
1188.197, 174.7798
1189.280, 282.2134
1190.364, 217.7634
1191.447, 249.9639
1192.531, 255.0535
1193.614, 240.8911
1194.697, 229.0391
1195.779, 290.5591
1196.862, 239.3882
1197.945, 274.8420
1199.027, 213.1108
1200.109, 239.5842
1201.191, 235.2744
1202.273, 287.7300
1203.355, 226.7520
1204.436, 176.4604
1205.518, 276.2197
1206.599, 252.1565
1207.680, 234.4019
1208.761, 276.3284
1209.842, 273.5107
1210.922, 272.1182
1212.003, 260.5867
1213.083, 288.9124
1214.163, 280.6133
1215.243, 305.1880
1216.323, 285.2734
1217.402, 291.5496
1218.482, 205.8337
1219.561, 234.5623
1220.641, 232.7791
1221.720, 258.5476
1222.798, 247.7114
1223.877, 231.2915
1224.956, 215.6682
1226.034, 194.4517
1227.112, 237.8655
1228.191, 266.0383
1229.269, 234.8086
1230.346, 209.5730
1231.424, 230.3108
1232.501, 297.7766
1233.579, 255.8826
1234.656, 300.8792
1235.733, 190.4937
1236.810, 207.3242
1237.886, 221.0918
1238.963, 249.1143
1240.039, 198.3394
1241.116, 226.4443
1242.192, 254.8176
1243.268, 303.8059
1244.343, 184.6687
1245.419, 245.5325
1246.494, 209.3677
1247.570, 199.2627
1248.645, 205.2500
1249.720, 230.0935
1250.795, 212.3784
1251.869, 218.8723
1252.944, 172.9895
1254.018, 202.2998
1255.093, 208.9666
1256.167, 187.5352
1257.240, 203.6514
1258.314, 161.4524
1259.388, 235.9524
1260.461, 201.5869
1261.535, 168.1687
1262.608, 194.7266
1263.681, 163.3887
1264.753, 179.0027
1265.826, 125.0415
1266.899, 135.4878
1267.971, 150.2112
1269.043, 137.9355
1270.115, 172.2729
1271.187, 190.6594
1272.259, 182.1470
1273.330, 169.6309
1274.402, 159.2092
1275.473, 125.5486
1276.544, 145.4233
1277.615, 146.9768
1278.686, 173.9629
1279.756, 115.2197
1280.827, 132.0669
1281.897, 140.3892
1282.967, 82.68677
1284.037, 75.06812
1285.107, 120.9971
1286.177, 134.7026
1287.247, 145.3589
1288.316, 94.02930
1289.385, 77.29224
1290.454, 84.29248
1291.523, 132.9363
1292.592, 128.9834
1293.661, 90.01514
1294.729, 80.03589
1295.797, 77.10498
1296.866, 127.7847
1297.934, 131.6821
1299.001, 165.2546
1300.069, 55.04053
1301.137, 81.82300
1302.204, 103.7771
1303.271, 79.30908
1304.338, 90.20190
1305.405, 117.0383
1306.472, 114.9026
1307.539, 125.3528
1308.605, 134.5630
1309.671, 133.3464
1310.737, 139.1553
1311.803, 146.9507
1312.869, 134.5898
1313.935, 90.36255
1315.000, 90.12451
1316.066, 56.86865
1317.131, 74.31421
1318.196, 11.94702
1319.261, 81.78540
1320.326, 65.52588
1321.390, 131.2593
1322.455, 107.0159
1323.519, 52.78076
1324.583, 96.55713
1325.647, 62.35181
1326.711, 51.16211
1327.775, 2.980957
1328.838, 29.81567
