##NAMES=Humite
##RRUFFID=R040071
##IDEAL CHEMISTRY=Mg_7_(SiO_4_)_3_(F,OH)_2_
##LOCALITY=Tilly Foster mine, Brewster, Putnam County, New York, USA
##OWNER=RRUFF
##SOURCE=University of Arizona Mineral Museum
##DESCRIPTION=Red crystals
##STATUS=The identification of this mineral has been confirmed by X-ray diffraction and chemical analysis
##URL=rruff.info/R040071
##MEASURED CHEMISTRY=(Mg_0.91_Fe_0.09_)_7_(Si_0.99_Ti_0.01_O_4_)_3_(F_0.76_(OH)_0.24_)_2_
##PIN_ID=L00308
##ORIENTATION=Laser parallel to b* (0 1 0). Fiducial mark perpendicular to laser is parallel to c [0 0 1]
82.916, 0.000
84.311, 1.085
85.706, 153.129
87.101, 194.611
88.496, 147.360
89.890, 353.131
91.284, 492.683
92.678, 441.278
94.071, 429.662
95.465, 214.045
96.858, 195.043
98.251, 98.140
99.644, 22.744
101.036, 56.933
102.428, 43.112
103.820, 54.802
105.212, 249.887
106.604, 341.418
107.995, 275.834
109.387, 74.202
110.777, 112.205
112.168, 57.386
113.559, 262.726
114.949, 445.499
116.339, 387.826
117.729, 292.829
119.119, 144.069
120.508, 171.263
121.897, 233.529
123.286, 189.792
124.675, 190.321
126.063, 196.187
127.452, 206.646
128.840, 240.009
130.228, 241.209
131.615, 259.888
133.003, 264.240
134.390, 280.347
135.777, 273.129
137.164, 362.790
138.550, 361.240
139.937, 283.590
141.323, 227.869
142.709, 158.058
144.094, 172.517
145.480, 188.777
146.865, 261.461
148.250, 155.292
149.635, 159.061
151.019, 143.548
152.403, 90.497
153.788, 110.332
155.171, 44.142
156.555, 47.891
157.939, 41.063
159.322, 22.495
160.705, 18.083
162.088, 6.838
163.470, 10.022
164.853, 26.059
166.235, 48.366
167.617, 40.792
168.998, 58.360
170.380, 26.405
171.761, 55.246
173.142, 74.919
174.523, 13.477
175.904, 35.045
177.284, 28.636
178.664, 56.305
180.044, 15.035
181.424, 94.846
182.803, 113.737
184.183, 167.641
185.562, 210.512
186.940, 317.331
188.319, 400.068
189.698, 538.704
191.076, 751.384
192.454, 977.422
193.831, 1103.557
195.209, 1318.287
196.586, 1290.424
197.963, 1170.546
199.340, 963.812
200.717, 759.330
202.093, 528.756
203.470, 336.034
204.846, 231.133
206.221, 138.851
207.597, 98.233
208.972, 11.298
210.347, 13.509
211.722, 24.259
213.097, 2.870
214.472, 61.911
215.846, 123.882
217.220, 243.806
218.594, 317.700
219.967, 384.580
221.341, 494.446
222.714, 482.296
224.087, 483.125
225.460, 326.384
226.832, 306.569
228.204, 185.999
229.577, 211.172
230.948, 187.272
232.320, 127.336
233.692, 137.105
235.063, 109.458
236.434, 93.646
237.805, 8.257
239.175, 36.922
240.545, 14.652
241.916, 16.468
243.286, 36.099
244.655, 77.761
246.025, 75.765
247.394, 161.039
248.763, 219.327
250.132, 198.356
251.501, 329.790
252.869, 322.720
254.237, 374.136
255.605, 482.060
256.973, 553.396
258.340, 686.192
259.708, 749.531
261.075, 769.489
262.442, 893.856
263.808, 873.334
265.175, 793.957
266.541, 753.438
267.907, 591.375
269.273, 575.401
270.639, 483.906
272.004, 503.583
273.369, 489.148
274.734, 458.136
276.099, 573.274
277.463, 598.482
278.828, 637.628
280.192, 550.555
281.556, 654.687
282.919, 574.064
284.283, 552.385
285.646, 557.361
287.009, 617.972
288.372, 584.276
289.734, 560.794
291.097, 574.855
292.459, 537.102
293.821, 460.104
295.183, 526.250
296.544, 433.116
297.905, 421.166
299.266, 390.169
300.627, 383.866
301.988, 387.300
303.348, 347.423
304.709, 335.107
306.069, 276.432
307.428, 278.152
308.788, 233.952
310.147, 266.828
311.507, 214.077
312.865, 228.421
314.224, 192.744
315.583, 240.929
316.941, 269.553
318.299, 245.442
319.657, 242.402
321.015, 237.443
322.372, 234.357
323.729, 235.411
325.086, 220.246
326.443, 225.063
327.800, 248.052
329.156, 221.573
330.512, 262.054
331.868, 296.064
333.224, 285.031
334.579, 326.063
335.935, 315.357
337.290, 378.492
338.645, 435.588
339.999, 362.594
341.354, 407.715
342.708, 447.159
344.062, 540.118
345.416, 507.229
346.769, 518.554
348.123, 549.562
349.476, 595.813
350.829, 545.503
352.182, 563.516
353.534, 519.019
354.887, 522.554
356.239, 507.956
357.591, 517.338
358.942, 427.487
360.294, 419.509
361.645, 353.513
362.996, 323.250
364.347, 279.562
365.698, 261.422
367.048, 193.571
368.398, 142.263
369.748, 116.507
371.098, 148.393
372.448, 116.656
373.797, 173.663
375.146, 141.158
376.495, 132.005
377.844, 126.515
379.192, 131.555
380.540, 135.071
381.889, 169.899
383.236, 174.986
384.584, 208.506
385.932, 228.960
387.279, 180.397
388.626, 143.155
389.973, 158.801
391.319, 147.913
392.666, 90.102
394.012, 115.161
395.358, 160.939
396.704, 99.731
398.049, 102.470
399.394, 138.042
400.740, 85.960
402.084, 112.245
403.429, 74.334
404.774, 126.432
406.118, 193.723
407.462, 188.335
408.806, 357.011
410.150, 999.210
411.493, 394.724
412.836, 966.851
414.179, 629.594
415.522, 487.109
416.865, 495.584
418.207, 588.302
419.549, 527.034
420.891, 563.703
422.233, 555.046
423.575, 561.546
424.916, 521.717
426.257, 428.933
427.598, 376.141
428.939, 306.344
430.279, 174.378
431.619, 174.167
432.959, 106.871
434.299, 1.563
435.639, 30.063
436.978, 1.368
438.318, 52.261
439.657, 85.966
440.996, 17.768
442.334, 33.637
443.673, 15.423
445.011, 47.426
446.349, 84.375
447.687, 142.274
449.024, 94.124
450.361, 188.926
451.699, 163.685
453.036, 255.401
454.372, 279.081
455.709, 191.724
457.045, 267.329
458.381, 196.871
459.717, 205.333
461.053, 274.634
462.388, 162.881
463.724, 305.182
465.059, 217.213
466.394, 289.415
467.728, 310.264
469.063, 296.493
470.397, 290.559
471.731, 410.581
473.065, 360.735
474.398, 352.948
475.732, 462.943
477.065, 466.620
478.398, 448.472
479.731, 497.105
481.063, 515.284
482.396, 524.252
483.728, 546.982
485.060, 473.594
486.391, 517.438
487.723, 396.319
489.054, 390.944
490.385, 359.864
491.716, 295.395
493.047, 283.693
494.377, 292.885
495.708, 292.633
497.038, 309.918
498.368, 294.089
499.697, 299.164
501.027, 259.192
502.356, 289.757
503.685, 265.231
505.014, 254.480
506.342, 252.922
507.671, 205.430
508.999, 209.222
510.327, 219.787
511.655, 226.866
512.982, 259.744
514.310, 258.943
515.637, 293.862
516.964, 307.756
518.291, 359.275
519.617, 426.135
520.944, 402.195
522.270, 473.461
523.596, 541.996
524.921, 599.234
526.247, 663.052
527.572, 698.556
528.897, 760.670
530.222, 799.219
531.547, 815.098
532.871, 903.956
534.196, 817.863
535.520, 883.610
536.844, 818.295
538.167, 870.904
539.491, 833.490
540.814, 956.044
542.137, 1002.696
543.460, 999.320
544.783, 1178.034
546.105, 1112.783
547.427, 1064.279
548.749, 975.570
550.071, 798.879
551.393, 735.098
552.714, 586.030
554.035, 480.021
555.356, 462.160
556.677, 350.999
557.998, 352.805
559.318, 321.717
560.638, 291.371
561.958, 287.110
563.278, 281.649
564.597, 267.102
565.917, 266.320
567.236, 240.208
568.555, 215.470
569.874, 174.681
571.192, 224.839
572.511, 186.948
573.829, 213.002
575.147, 253.005
576.464, 254.956
577.782, 231.855
579.099, 227.702
580.416, 286.497
581.733, 230.242
583.050, 290.935
584.366, 262.580
585.683, 248.175
586.999, 232.720
588.315, 257.215
589.630, 299.229
590.946, 302.198
592.261, 380.841
593.576, 422.938
594.891, 532.202
596.206, 644.263
597.520, 681.428
598.834, 834.438
600.148, 1042.941
601.462, 1116.850
602.776, 1200.786
604.089, 1313.819
605.402, 1282.966
606.715, 1239.320
608.028, 1132.434
609.341, 1037.907
610.653, 910.238
611.965, 787.916
613.277, 671.589
614.589, 573.888
615.901, 505.521
617.212, 410.811
618.523, 360.102
619.834, 320.578
621.145, 236.623
622.456, 273.023
623.766, 188.229
625.076, 204.554
626.386, 106.843
627.696, 93.092
629.006, 127.303
630.315, 63.475
631.624, 60.607
632.933, 23.304
634.242, 0.291
635.551, 2.342
636.859, 49.460
638.167, 27.667
639.475, 6.050
640.783, 55.292
642.090, 6.725
643.398, 44.221
644.705, 13.800
646.012, 6.555
647.318, 17.145
648.625, 40.912
649.931, 51.757
651.237, 35.687
652.543, 90.692
653.849, 116.801
655.155, 82.027
656.460, 100.389
657.765, 80.864
659.070, 93.603
660.375, 94.097
661.679, 108.367
662.984, 113.531
664.288, 84.840
665.592, 123.460
666.895, 106.206
668.199, 53.034
669.502, 131.917
670.805, 75.805
672.108, 89.795
673.411, 139.747
674.713, 40.784
676.016, 80.672
677.318, 70.527
678.620, 76.455
679.921, 83.392
681.223, 67.978
682.524, 70.679
683.825, 45.889
685.126, 17.149
686.427, 10.442
687.727, 54.236
689.028, 14.896
690.328, 56.538
691.628, 45.163
692.927, 32.771
694.227, 82.364
695.526, 53.940
696.825, 109.503
698.124, 116.052
699.423, 109.585
700.721, 247.105
702.020, 212.610
703.318, 329.102
704.616, 328.580
705.913, 429.047
707.211, 554.503
708.508, 636.947
709.805, 663.383
711.102, 785.809
712.399, 805.225
713.695, 958.540
714.992, 1105.863
716.288, 1200.054
717.584, 1359.121
718.879, 1474.500
720.175, 1562.200
721.470, 1725.170
722.765, 1846.139
724.060, 1975.000
725.355, 2057.759
726.649, 2310.348
727.944, 2469.150
729.238, 2622.888
730.532, 2960.555
731.825, 2922.484
733.119, 3226.427
734.412, 3330.277
735.705, 3475.116
736.998, 3509.208
738.291, 3664.072
739.584, 4013.197
740.876, 4070.211
742.168, 4335.174
743.460, 4707.082
744.752, 4889.102
746.043, 5538.309
747.334, 5720.542
748.626, 6114.854
749.916, 6598.174
751.207, 6719.504
752.498, 7051.845
753.788, 7178.204
755.078, 7125.589
756.368, 7107.987
757.658, 6780.400
758.947, 6696.835
760.237, 6318.281
761.526, 5842.740
762.815, 5841.217
764.104, 5281.703
765.392, 5054.216
766.680, 4869.739
767.969, 4478.278
769.257, 4411.829
770.544, 4223.392
771.832, 4217.969
773.119, 4256.568
774.406, 4347.187
775.693, 4698.815
776.980, 4884.394
778.267, 5337.069
779.553, 5769.531
780.839, 5940.086
782.125, 6201.280
783.411, 5900.455
784.697, 5669.800
785.982, 5291.799
787.267, 4619.801
788.552, 4238.891
789.837, 3677.501
791.122, 3346.055
792.406, 3085.751
793.690, 2868.888
794.974, 2771.235
796.258, 2655.824
797.542, 2614.542
798.825, 2652.999
800.108, 2527.454
801.391, 2603.271
802.674, 2634.706
803.957, 2656.753
805.239, 2894.214
806.522, 2884.801
807.804, 2946.041
809.085, 2970.749
810.367, 3198.766
811.649, 3378.735
812.930, 3439.076
814.211, 3921.729
815.492, 4061.468
816.772, 4389.449
818.053, 4973.235
819.333, 5402.973
820.613, 6421.420
821.893, 7289.084
823.173, 8369.221
824.452, 9915.543
825.732, 11382.530
827.011, 13672.779
828.290, 16357.046
829.568, 19084.676
830.847, 23894.963
832.125, 28033.033
833.403, 32322.883
834.681, 36027.465
835.959, 37438.164
837.236, 39712.859
838.514, 40239.285
839.791, 42360.535
841.068, 46044.246
842.345, 45850.762
843.621, 46288.199
844.898, 43265.828
846.174, 38574.512
847.450, 34725.219
848.726, 30507.992
850.001, 28026.811
851.277, 25995.684
852.552, 24668.596
853.827, 25462.570
855.102, 25919.590
856.376, 28959.664
857.651, 31557.787
858.925, 34167.949
860.199, 38010.172
861.473, 39160.438
862.746, 38584.766
864.020, 36713.133
865.293, 32398.559
866.566, 28763.023
867.839, 24514.553
869.112, 20603.125
870.384, 18290.758
871.656, 15307.457
872.928, 14038.209
874.200, 12352.018
875.472, 11134.881
876.744, 10769.800
878.015, 9385.778
879.286, 8607.812
880.557, 7575.917
881.828, 6754.078
883.098, 6002.294
884.369, 5246.567
885.639, 4757.895
886.909, 4309.279
888.178, 3920.726
889.448, 3801.229
890.717, 3391.796
891.987, 3147.419
893.256, 3251.099
894.524, 2924.833
895.793, 2951.621
897.061, 2773.466
898.330, 2624.368
899.598, 2602.325
900.865, 2284.335
902.133, 2144.398
903.401, 1970.514
904.668, 1746.791
905.935, 1829.012
907.202, 1666.353
908.468, 1678.680
909.735, 1601.059
911.001, 1514.846
912.267, 1654.836
913.533, 1535.564
914.799, 1481.043
916.064, 1469.687
917.330, 1351.131
918.595, 1433.878
919.860, 1333.183
921.124, 1349.264
922.389, 1436.320
923.653, 1356.023
924.918, 1383.200
926.182, 1324.757
927.445, 1294.869
928.709, 1380.660
929.972, 1336.762
931.236, 1453.057
932.499, 1477.987
933.761, 1482.441
935.024, 1523.032
936.286, 1456.598
937.549, 1492.261
938.811, 1476.878
940.073, 1393.369
941.334, 1597.554
942.596, 1556.663
943.857, 1596.302
945.118, 1754.219
946.379, 1842.758
947.640, 2046.561
948.900, 2161.688
950.161, 2466.293
951.421, 2955.916
952.681, 3213.248
953.940, 3846.081
955.200, 4393.780
956.459, 4830.493
957.719, 5787.446
958.978, 6612.894
960.236, 7974.281
961.495, 9861.157
962.753, 10837.078
964.012, 12852.206
965.270, 13036.284
966.527, 12177.444
967.785, 11109.539
969.043, 8776.895
970.300, 7146.658
971.557, 5668.908
972.814, 4476.470
974.071, 3643.112
975.327, 2874.816
976.583, 2439.644
977.840, 2064.502
979.095, 1754.433
980.351, 1587.433
981.607, 1474.518
982.862, 1213.658
984.117, 1118.907
985.372, 873.176
986.627, 770.613
987.882, 683.049
989.136, 536.505
990.390, 598.553
991.644, 503.109
992.898, 466.709
994.152, 447.083
995.405, 387.761
996.659, 416.562
997.912, 330.326
999.165, 353.114
1000.417, 395.937
1001.670, 252.795
1002.922, 420.690
1004.174, 381.083
1005.426, 370.046
1006.678, 388.333
1007.930, 288.489
1009.181, 332.556
1010.432, 350.720
1011.683, 313.004
1012.934, 366.173
1014.185, 267.846
1015.435, 345.131
1016.685, 286.400
1017.935, 252.479
1019.185, 306.079
1020.435, 333.828
1021.684, 276.056
1022.934, 365.483
1024.183, 253.152
1025.432, 358.093
1026.680, 317.130
1027.929, 287.473
1029.177, 334.149
1030.425, 231.159
1031.673, 238.841
1032.921, 269.780
1034.169, 165.299
1035.416, 261.020
1036.663, 201.805
1037.911, 222.213
1039.157, 715.839
1040.404, 431.703
1041.650, 576.994
1042.897, 251.958
1044.143, 234.908
1045.389, 293.833
1046.634, 181.245
1047.880, 185.131
1049.125, 171.381
1050.371, 34.432
1051.615, 102.469
1052.860, 139.529
1054.105, 7.392
1055.349, 48.703
1056.593, 3.182
1057.837, 47.951
1059.081, 21.105
1060.325, 80.713
1061.568, 26.540
1062.812, 11.354
1064.055, 66.156
1065.298, 32.042
1066.540, 104.740
1067.783, 29.458
1069.025, 52.330
1070.267, 11.109
1071.509, 6.879
1072.751, 28.639
1073.993, 63.395
1075.234, 46.744
1076.475, 25.069
1077.716, 47.690
1078.957, 73.452
1080.198, 113.226
1081.438, 19.037
1082.679, 92.845
1083.919, 73.667
1085.159, 0.489
1086.398, 89.341
1087.638, 47.203
1088.877, 118.079
1090.116, 33.001
1091.355, 4.932
1092.594, 112.865
1093.833, 18.171
1095.071, 68.791
1096.309, 52.781
1097.547, 32.207
1098.785, 43.802
1100.023, 0.173
1101.260, 27.145
1102.498, 58.882
1103.735, 53.937
1104.972, 7.979
1106.208, 89.108
1107.445, 23.244
1108.681, 19.398
1109.918, 79.570
1111.154, 36.213
1112.389, 127.007
1113.625, 25.699
1114.860, 28.402
1116.096, 69.900
1117.331, 0.249
1118.566, 75.614
1119.800, 6.967
1121.035, 92.535
1122.269, 51.096
1123.503, 74.651
1124.737, 34.199
1125.971, 51.738
1127.205, 103.269
1128.438, 8.208
1129.671, 11.285
1130.904, 55.771
1132.137, 43.246
1133.370, 49.709
1134.602, 43.159
1135.834, 16.596
1137.066, 154.059
1138.298, 8.464
1139.530, 128.840
1140.762, 120.370
1141.993, 24.281
1143.224, 137.583
1144.455, 56.869
1145.686, 65.138
1146.917, 89.681
1148.147, 104.920
1149.377, 110.139
1150.607, 111.479
1151.837, 10.256
1153.067, 102.053
1154.296, 60.271
1155.526, 70.366
1156.755, 119.977
1157.984, 40.295
1159.213, 73.846
1160.441, 125.132
1161.670, 61.598
1162.898, 86.000
1164.126, 95.604
1165.354, 57.207
1166.581, 76.381
1167.809, 44.841
1169.036, 0.828
1170.263, 112.245
1171.490, 53.439
1172.717, 77.679
1173.943, 77.277
1175.170, 43.426
1176.396, 99.516
1177.622, 3.155
1178.848, 107.637
1180.073, 95.966
1181.299, 76.962
1182.524, 159.666
1183.749, 73.465
1184.974, 57.978
1186.199, 83.247
1187.423, 44.639
1188.648, 113.139
1189.872, 80.265
1191.096, 128.721
1192.320, 157.143
1193.543, 108.047
1194.767, 91.453
1195.990, 121.346
1197.213, 141.887
1198.436, 169.095
1199.659, 177.146
1200.881, 186.413
1202.104, 193.438
1203.326, 181.025
1204.548, 197.685
1205.770, 203.537
1206.991, 210.088
1208.213, 233.578
1209.434, 281.511
1210.655, 258.307
1211.876, 268.175
1213.096, 276.231
1214.317, 236.649
1215.537, 363.438
1216.757, 266.381
1217.977, 349.792
1219.197, 313.422
1220.417, 318.512
1221.636, 355.903
1222.855, 323.010
1224.074, 266.547
1225.293, 357.257
1226.512, 325.294
1227.731, 309.456
1228.949, 373.492
1230.167, 318.545
1231.385, 325.392
1232.603, 709.659
1233.820, 457.378
1235.038, 624.574
1236.255, 267.935
1237.472, 334.711
1238.689, 391.142
1239.906, 286.921
1241.122, 357.736
1242.338, 336.111
1243.555, 365.841
1244.771, 364.640
1245.986, 357.272
1247.202, 368.934
1248.417, 345.755
1249.633, 312.689
1250.848, 306.470
1252.063, 254.071
1253.277, 317.633
1254.492, 439.620
1255.706, 461.728
1256.920, 316.849
1258.134, 328.392
1259.348, 264.968
1260.562, 309.800
1261.775, 263.405
1262.988, 182.323
1264.201, 286.713
1265.414, 257.833
1266.627, 262.057
1267.839, 344.361
1269.052, 176.830
1270.264, 290.592
1271.476, 306.591
1272.688, 217.353
1273.899, 311.584
1275.111, 181.639
1276.322, 207.933
1277.533, 294.005
1278.744, 207.006
1279.955, 185.053
1281.165, 233.877
1282.376, 172.520
1283.586, 251.885
1284.796, 188.059
1286.006, 145.426
1287.215, 231.089
1288.425, 85.823
1289.634, 292.013
1290.843, 222.787
1292.052, 116.188
1293.261, 185.974
1294.469, 217.231
1295.678, 154.718
1296.886, 169.202
1298.094, 143.888
1299.302, 162.618
1300.509, 196.354
1301.717, 87.215
1302.924, 124.529
1304.131, 87.372
1305.338, 119.113
1306.545, 92.205
1307.752, 96.469
1308.958, 75.266
1310.164, 73.530
1311.370, 116.823
1312.576, 79.497
1313.782, 86.882
1314.987, 108.511
1316.193, 90.504
1317.398, 79.665
1318.603, 50.540
1319.807, 82.610
1321.012, 83.051
1322.216, 59.140
1323.421, 108.949
1324.625, 8.991
1325.829, 71.759
1327.032, 24.925
1328.236, 86.863
1329.439, 135.680
1330.642, 37.852
1331.845, 28.783
1333.048, 103.184
1334.251, 13.364
1335.453, 95.138
1336.656, 95.618
1337.858, 41.093
1339.060, 85.055
1340.261, 68.516
1341.463, 0.420
1342.664, 102.813
1343.866, 20.036
1345.067, 78.206
1346.267, 85.328
1347.468, 42.401
1348.669, 27.423
1349.869, 18.387
1351.069, 17.703
1352.269, 122.151
1353.469, 33.969
1354.668, 74.742
1355.868, 11.471
1357.067, 1.163
1358.266, 41.805
1359.465, 81.422
1360.664, 24.003
1361.862, 98.527
1363.061, 65.020
1364.259, 53.475
1365.457, 89.896
1366.655, 71.292
1367.852, 76.662
1369.050, 5.001
1370.247, 7.684
1371.444, 131.611
1372.641, 40.958
1373.838, 45.761
1375.035, 145.508
1376.231, 19.197
1377.427, 99.228
1378.623, 133.636
1379.819, 64.879
1381.015, 55.096
1382.211, 169.356
1383.406, 43.412
1384.601, 127.812
1385.796, 95.000
1386.991, 17.146
1388.185, 111.281
1389.380, 8.595
1390.574, 71.529
1391.768, 85.654
1392.962, 12.804
1394.156, 42.925
1395.350, 74.058
1396.543, 49.175
1397.736, 66.239
1398.929, 64.254
1400.122, 15.230
1401.315, 99.150
1402.507, 57.023
1403.700, 37.799
1404.892, 63.590
1406.084, 37.138
1407.276, 92.189
1408.467, 71.520
1409.659, 7.160
1410.850, 99.485
1412.041, 54.729
1413.232, 17.590
1414.423, 140.076
1415.614, 11.536
1416.804, 76.479
1417.994, 113.535
1419.184, 44.635
1420.374, 88.665
1421.564, 84.956
1422.753, 75.852
1423.943, 95.667
1425.132, 4.509
1426.321, 11.241
1427.510, 114.784
1428.698, 3.890
1429.887, 101.147
1431.075, 137.545
1432.263, 4.341
1433.451, 48.912
1434.639, 92.500
1435.827, 31.771
1437.014, 183.355
1438.201, 64.250
1439.388, 55.104
1440.575, 120.272
1441.762, 4.297
1442.949, 186.243
1444.135, 284.197
1445.321, 35.664
1446.507, 139.510
1447.693, 111.546
1448.879, 40.084
1450.064, 148.737
1451.250, 73.463
1452.435, 88.103
1453.620, 141.509
1454.805, 11.825
1455.989, 38.654
1457.174, 141.397
1458.358, 7.445
1459.542, 115.135
1460.726, 128.586
1461.910, 19.071
1463.093, 134.633
1464.277, 164.278
1465.460, 73.013
1466.643, 181.553
1467.826, 97.346
1469.009, 161.558
1470.191, 251.698
1471.373, 142.764
1472.556, 204.951
1473.738, 172.964
1474.919, 69.207
1476.101, 172.566
1477.283, 180.135
1478.464, 144.495
1479.645, 189.110
1480.826, 117.870
1482.007, 166.297
1483.187, 176.537
1484.368, 177.595
1485.548, 230.722
1486.728, 239.940
1487.908, 194.235
1489.088, 285.866
1490.268, 242.828
1491.447, 219.674
1492.626, 231.436
1493.805, 205.112
1494.984, 160.279
1496.163, 292.714
1497.341, 191.319
1498.520, 177.072
1499.698, 335.021
1500.876, 177.066
1502.054, 176.272
1503.232, 228.595
1504.409, 137.067
1505.586, 225.668
1506.763, 219.513
1507.940, 107.804
1509.117, 227.444
1510.294, 103.485
1511.470, 133.971
1512.647, 183.979
1513.823, 42.632
1514.999, 84.122
1516.174, 140.640
1517.350, 66.473
1518.526, 40.375
