##NAMES=Humite
##RRUFFID=R050665
##IDEAL CHEMISTRY=Mg_7_(SiO_4_)_3_(F,OH)_2_
##LOCALITY=Tilly Foster mine, Brewster, Putnam County, New York, USA
##OWNER=RRUFF
##SOURCE=University of Arizona Mineral Museum
##DESCRIPTION=Granular aggregate of reddish-orange crystals
##STATUS=The identification of this mineral has been confirmed by X-ray diffraction and chemical analysis
##URL=rruff.info/R050665
##MEASURED CHEMISTRY=(Mg_0.91_Fe^2+^_0.09_)_7_(Si_1.00_O_4_)_3_(F_0.56_(OH)_0.44_)_2_
##PIN_ID=M01318
##ORIENTATION=Laser parallel to c* (0 0 1). Fiducial mark perpendicular to laser is parallel to -a [-1 0 0]
159.3390, 0.0000000E+00
160.5690, 5.776611
161.8000, 81.54883
163.0300, 124.1235
164.2600, 107.4067
165.4900, 129.7004
166.7200, 14.37842
167.9500, 108.8789
169.1790, 129.2544
170.4080, 58.58105
171.6380, 153.7266
172.8670, 158.5823
174.0950, 103.0608
175.3240, 166.0894
176.5520, 124.6099
177.7810, 105.5737
179.0090, 100.9443
180.2370, 107.6838
181.4640, 149.7593
182.6920, 181.1399
183.9190, 140.7986
185.1460, 172.7112
186.3730, 251.8586
187.6000, 225.2266
188.8270, 269.7979
190.0530, 335.5564
191.2800, 258.4976
192.5060, 412.6116
193.7320, 406.8848
194.9580, 472.3176
196.1830, 475.9199
197.4090, 510.6765
198.6340, 450.5706
199.8590, 394.5874
201.0840, 349.7158
202.3090, 364.9480
203.5340, 263.2749
204.7580, 166.6907
205.9820, 180.1895
207.2060, 175.7656
208.4300, 160.4150
209.6540, 197.1340
210.8780, 170.9189
212.1010, 237.7783
213.3240, 177.7410
214.5470, 209.7705
215.7700, 189.8501
216.9930, 229.9775
218.2150, 162.1519
219.4380, 246.3716
220.6600, 232.6763
221.8820, 221.1003
223.1040, 338.6104
224.3260, 325.1543
225.5470, 375.7322
226.7680, 357.3438
227.9900, 438.9893
229.2110, 457.4358
230.4310, 548.8862
231.6520, 507.0969
232.8720, 561.3335
234.0930, 533.5537
235.3130, 597.7527
236.5330, 567.9229
237.7530, 585.0698
238.9720, 616.2109
240.1920, 560.3489
241.4110, 658.4866
242.6300, 619.6265
243.8490, 535.7705
245.0680, 606.9202
246.2860, 582.0767
247.5040, 649.2415
248.7230, 643.4941
249.9410, 629.4814
251.1590, 616.7942
252.3760, 595.0000
253.5940, 528.2173
254.8110, 521.4460
256.0280, 514.6870
257.2450, 485.9399
258.4620, 495.2056
259.6790, 567.4839
260.8950, 654.7744
262.1120, 494.0779
263.3280, 533.0813
264.5440, 491.8547
265.7600, 423.9170
266.9750, 416.5491
268.1910, 358.1653
269.4060, 307.5151
270.6210, 299.8789
271.8360, 236.2573
273.0510, 189.6516
274.2650, 267.0630
275.4800, 297.4946
276.6940, 292.9453
277.9080, 205.4158
279.1220, 220.9072
280.3360, 300.7212
281.5490, 184.9958
282.7630, 205.5227
283.9760, 223.5933
285.1890, 150.1992
286.4020, 199.7554
287.6150, 181.3367
288.8270, 138.9426
290.0400, 198.5725
291.2520, 181.2266
292.4640, 196.9031
293.6760, 127.6016
294.8870, 161.3213
296.0990, 207.0605
297.3100, 137.7141
298.5210, 144.5251
299.7320, 141.0625
300.9430, 116.4600
302.1540, 137.0686
303.3640, 187.1621
304.5750, 178.7800
305.7850, 218.9563
306.9950, 293.8975
308.2050, 296.8406
309.4140, 388.5837
310.6240, 391.4138
311.8330, 386.3208
313.0420, 496.8577
314.2510, 545.8960
315.4600, 580.9912
316.6680, 666.1394
317.8770, 672.3359
319.0850, 823.5781
320.2930, 800.8621
321.5010, 799.1851
322.7090, 841.5454
323.9160, 755.9404
325.1240, 801.3689
326.3310, 811.8279
327.5380, 781.3167
328.7450, 703.8333
329.9520, 659.3765
331.1580, 678.9448
332.3650, 661.5374
333.5710, 663.1533
334.7770, 609.7910
335.9830, 589.0930
337.1880, 579.1289
338.3940, 534.8276
339.5990, 501.5447
340.8040, 519.2795
342.0090, 542.0312
343.2140, 425.7988
344.4190, 445.5820
345.6230, 452.3799
346.8280, 356.1921
348.0320, 319.0178
349.2360, 415.8569
350.4400, 281.7085
351.6430, 310.5723
352.8470, 301.4478
354.0500, 216.3350
355.2530, 281.2327
356.4560, 146.1414
357.6590, 189.0605
358.8620, 226.9895
360.0640, 128.9282
361.2660, 79.87622
362.4680, 171.8328
363.6700, 139.7976
364.8720, 64.77075
366.0740, 100.7515
367.2750, 29.73926
368.4760, 26.26343
369.6770, 28.26221
370.8780, 0.2573240
372.0790, 2.246582
373.2800, 10.23022
374.4800, 11.20728
375.6800, 8.274170
376.8800, 70.86792
378.0800, 64.94922
379.2800, 93.06787
380.4790, 142.2085
381.6790, 92.39209
382.8780, 35.61230
384.0770, 101.8555
385.2760, 143.1270
386.4750, 37.44141
387.6730, 143.7930
388.8720, 188.3782
390.0700, 92.79395
391.2680, 118.2419
392.4660, 93.74146
393.6630, 85.25586
394.8610, 80.81274
396.0580, 55.88428
397.2550, 36.73706
398.4520, 15.67456
399.6490, 9.649658
400.8460, 29.94312
402.0420, 35.16064
403.2390, 29.59595
404.4350, 44.37793
405.6310, 77.80322
406.8270, 21.03076
408.0220, 1.097900
409.2180, 34.95044
410.4130, 64.87402
411.6080, 119.8198
412.8030, 81.77759
413.9980, 104.7451
415.1920, 95.73218
416.3870, 59.71802
417.5810, 174.7029
418.7750, 114.6980
419.9690, 138.6909
421.1630, 74.68115
422.3570, 105.6687
423.5500, 37.65308
424.7430, 78.63208
425.9360, 38.59375
427.1290, 26.55176
428.3220, 92.48535
429.5150, 78.41406
430.7070, 66.33862
431.8990, 37.25806
433.0910, 59.82690
434.2830, 21.93408
435.4750, 40.05347
436.6670, 18.19019
437.8580, 130.3389
439.0490, 67.52954
440.2400, 47.74634
441.4310, 38.99854
442.6220, 34.71729
443.8130, 34.61426
445.0030, 73.00146
446.1930, 25.61060
447.3830, 62.20166
448.5730, 149.7856
449.7630, 167.3650
450.9520, 182.9407
452.1420, 133.5122
453.3310, 203.0803
454.5200, 196.6445
455.7090, 166.2043
456.8980, 196.7656
458.0860, 139.3213
459.2740, 193.8716
460.4630, 255.4155
461.6510, 191.9529
462.8380, 267.4839
464.0260, 188.0076
465.2140, 226.5234
466.4010, 285.0317
467.5880, 223.5320
468.7750, 317.0239
469.9620, 265.5071
471.1490, 327.9812
472.3350, 244.4463
473.5220, 343.9016
474.7080, 208.3477
475.8940, 328.7837
477.0800, 221.2092
478.2650, 179.6243
479.4510, 249.0288
480.6360, 269.4226
481.8210, 252.8052
483.0060, 279.1763
484.1910, 248.5361
485.3760, 295.8843
486.5600, 229.2200
487.7440, 177.5442
488.9290, 268.8555
490.1130, 140.1548
491.2960, 263.4409
492.4800, 204.7144
493.6630, 180.9746
494.8470, 215.2217
496.0300, 112.4551
497.2130, 139.6750
498.3960, 126.8813
499.5780, 109.1060
500.7610, 148.3303
501.9430, 173.5950
503.1250, 156.7446
504.3070, 180.8794
505.4890, 195.0354
506.6710, 168.1404
507.8520, 88.23022
509.0330, 153.3047
510.2140, 194.9688
511.3950, 71.46289
512.5760, 91.03125
513.7570, 122.0654
514.9370, 58.10352
516.1170, 127.3467
517.2980, 159.5581
518.4780, 172.1479
519.6570, 169.9541
520.8370, 134.7480
522.0160, 141.7065
523.1960, 136.7100
524.3750, 149.1709
525.5540, 229.3354
526.7320, 160.7881
527.9110, 264.7891
529.0890, 190.1965
530.2680, 87.95630
531.4460, 248.0989
532.6240, 149.4548
533.8010, 139.4751
534.9790, 192.8198
536.1560, 184.5906
537.3340, 190.8420
538.5110, 190.6636
539.6880, 228.7952
540.8650, 268.1633
542.0410, 230.4236
543.2180, 191.2981
544.3940, 233.4121
545.5700, 306.2603
546.7460, 229.9468
547.9220, 315.7065
549.0970, 265.4292
550.2730, 202.5483
551.4480, 395.1248
552.6230, 287.8535
553.7980, 311.0378
554.9730, 346.1233
556.1470, 415.8760
557.3210, 403.9954
558.4960, 473.1177
559.6700, 462.4619
560.8440, 418.4846
562.0170, 522.4751
563.1910, 463.4326
564.3640, 481.3577
565.5380, 509.2502
566.7110, 590.1099
567.8840, 522.9373
569.0560, 654.7319
570.2290, 716.4941
571.4010, 634.2241
572.5740, 793.9211
573.7460, 849.5857
574.9180, 911.5183
576.0890, 862.7573
577.2610, 954.7881
578.4320, 1038.120
579.6040, 1157.342
580.7750, 1140.438
581.9450, 1281.708
583.1160, 1318.116
584.2870, 1453.493
585.4570, 1556.391
586.6270, 1716.705
587.7980, 1811.990
588.9670, 2080.244
590.1370, 2357.467
591.3070, 2531.661
592.4760, 2780.822
593.6450, 3297.955
594.8140, 3640.055
595.9830, 4020.125
597.1520, 4427.166
598.3210, 4953.176
599.4890, 5356.154
600.6570, 5721.104
601.8250, 5902.022
602.9930, 6010.911
604.1610, 5842.768
605.3290, 5812.596
606.4960, 5506.393
607.6630, 4987.161
608.8300, 4706.899
609.9970, 4161.605
611.1640, 3714.284
612.3300, 3188.932
613.4970, 2700.550
614.6630, 2318.139
615.8290, 2059.698
616.9950, 1783.228
618.1610, 1635.728
619.3260, 1385.199
620.4920, 1185.641
621.6570, 1030.054
622.8220, 1124.438
623.9870, 954.7925
625.1520, 874.1182
626.3160, 845.4160
627.4810, 714.6855
628.6450, 691.9258
629.8090, 541.1377
630.9730, 506.3218
632.1370, 409.4775
633.3000, 237.6060
634.4640, 325.7061
635.6270, 288.7788
636.7900, 184.8242
637.9530, 171.8418
639.1160, 154.8320
640.2780, 149.7944
641.4410, 134.7300
642.6030, 192.6367
643.7650, 210.5171
644.9270, 144.3701
646.0890, 198.1973
647.2500, 160.9980
648.4120, 180.7720
649.5730, 79.52100
650.7340, 123.2373
651.8950, 99.92969
653.0560, 128.5977
654.2160, 116.8491
655.3770, 79.85791
656.5370, 77.44629
657.6970, 3.993164
658.8570, 56.49121
660.0170, 73.52002
661.1760, 13.75098
662.3360, 95.48926
663.4950, 72.33105
664.6540, 21.26367
665.8130, 43.25928
666.9720, 101.3286
668.1310, 77.50098
669.2890, 11.23633
670.4470, 140.2891
671.6050, 65.71387
672.7630, 30.22021
673.9210, 116.8164
675.0790, 109.4888
676.2360, 55.26172
677.3930, 98.10596
678.5510, 89.04199
679.7080, 31.06445
680.8640, 83.14209
682.0210, 107.2993
683.1770, 53.58691
684.3340, 62.88867
685.4900, 110.2563
686.6460, 95.71582
687.8020, 115.2393
688.9570, 124.8530
690.1130, 69.70459
691.2680, 74.47656
692.4230, 36.31396
693.5780, 21.19531
694.7330, 66.11182
695.8880, 41.91455
697.0420, 6.928223
698.1960, 35.07471
699.3510, 13.88623
700.5040, 9.834961
701.6580, 84.77197
702.8120, 28.69775
703.9650, 47.61328
705.1190, 163.5181
706.2720, 151.4131
707.4250, 193.2988
708.5780, 229.1763
709.7300, 240.0439
710.8830, 360.9043
712.0350, 445.7559
713.1870, 467.6006
714.3390, 445.4546
715.4910, 536.3086
716.6430, 589.1685
717.7940, 681.0278
718.9460, 745.9175
720.0970, 856.8213
721.2480, 919.7354
722.3990, 953.6445
723.5500, 1050.058
724.7000, 1042.462
725.8500, 1188.371
727.0010, 1217.276
728.1510, 1262.181
729.3010, 1330.081
730.4500, 1296.980
731.6000, 1318.877
732.7490, 1382.134
733.8980, 1472.669
735.0470, 1512.563
736.1960, 1616.457
737.3450, 1698.352
738.4940, 1679.247
739.6420, 1813.144
740.7900, 1893.042
741.9380, 1988.941
743.0860, 2171.843
744.2340, 2222.747
745.3810, 2352.654
746.5290, 2566.565
747.6760, 2624.479
748.8230, 2780.396
749.9700, 2804.319
751.1170, 2997.246
752.2630, 2965.179
753.4100, 3042.117
754.5560, 3215.062
755.7020, 3119.013
756.8480, 3138.969
757.9940, 3063.935
759.1390, 3042.905
760.2850, 3011.885
761.4300, 2933.873
762.5750, 2916.870
763.7200, 2728.875
764.8650, 2748.889
766.0100, 2604.913
767.1540, 2624.949
768.2980, 2625.993
769.4420, 2709.048
770.5860, 2719.115
771.7300, 2945.192
772.8740, 3087.283
774.0170, 3158.386
775.1610, 3404.500
776.3040, 3674.628
777.4470, 3882.736
778.5900, 4131.846
779.7320, 4220.913
780.8750, 4412.095
782.0170, 4521.294
783.1590, 4440.471
784.3010, 4230.701
785.4430, 3974.944
786.5850, 3779.205
787.7260, 3304.878
788.8680, 3086.101
790.0090, 2834.185
791.1500, 2531.513
792.2910, 2446.828
793.4310, 2371.814
794.5720, 2227.853
795.7120, 2198.758
796.8520, 2060.456
797.9920, 2120.180
799.1320, 1985.747
800.2720, 1995.289
801.4120, 1999.392
802.5510, 2045.802
803.6900, 2159.958
804.8290, 2214.582
805.9680, 2158.812
807.1070, 2412.721
808.2450, 2430.263
809.3840, 2667.610
810.5220, 2707.301
811.6600, 2898.686
812.7980, 3159.669
813.9360, 3409.214
815.0730, 3830.216
816.2110, 4163.946
817.3480, 4682.448
818.4850, 5047.819
819.6220, 5927.826
820.7590, 6598.348
821.8960, 7541.427
823.0320, 8996.676
824.1680, 10299.01
825.3040, 11930.26
826.4400, 14161.06
827.5760, 16546.48
828.7120, 19283.76
829.8470, 22532.61
830.9830, 25828.57
832.1180, 28941.88
833.2530, 32207.83
834.3880, 34683.80
835.5220, 36315.57
836.6570, 37347.70
837.7910, 37763.89
838.9250, 37399.11
840.0590, 36884.38
841.1930, 35828.70
842.3270, 34986.05
843.4600, 33856.47
844.5940, 31810.94
845.7270, 29309.45
846.8600, 26605.01
847.9930, 23443.62
849.1250, 20840.28
850.2580, 18826.97
851.3900, 16752.72
852.5230, 15868.51
853.6550, 15050.34
854.7870, 14941.21
855.9180, 14716.14
857.0500, 15226.10
858.1810, 15826.11
859.3130, 16456.17
860.4440, 16810.27
861.5750, 17186.42
862.7050, 16994.61
863.8360, 16455.85
864.9660, 15636.13
866.0970, 14649.46
867.2270, 13173.84
868.3570, 11942.27
869.4870, 10387.74
870.6160, 9181.260
871.7460, 8195.826
872.8750, 7244.441
874.0040, 6354.102
875.1330, 5622.811
876.2620, 5123.573
877.3910, 4527.386
878.5190, 3956.247
879.6470, 3620.155
880.7760, 3218.110
881.9040, 2941.119
883.0310, 2594.174
884.1590, 2337.277
885.2870, 2053.431
886.4140, 2034.635
887.5410, 1863.903
888.6680, 1743.224
889.7950, 1525.592
890.9220, 1541.009
892.0480, 1391.472
893.1750, 1398.983
894.3010, 1333.544
895.4270, 1374.152
896.5530, 1249.808
897.6790, 1230.512
898.8040, 1318.265
899.9300, 972.0674
901.0550, 984.9180
902.1800, 925.8159
903.3050, 715.7622
904.4300, 758.7573
905.5540, 592.7993
906.6790, 616.8896
907.8030, 596.0308
908.9270, 623.2261
910.0510, 636.4702
911.1750, 628.7617
912.2990, 594.1011
913.4220, 684.4990
914.5450, 602.9482
915.6690, 627.4478
916.7920, 690.9951
917.9140, 601.5903
919.0370, 551.2339
920.1600, 515.9248
921.2820, 368.6626
922.4040, 352.4482
923.5260, 355.6855
924.6480, 313.8477
925.7700, 334.8335
926.8910, 302.5752
928.0130, 335.8906
929.1340, 214.5049
930.2550, 330.9014
931.3760, 386.8711
932.4970, 228.2573
933.6170, 303.7749
934.7380, 471.4204
935.8580, 457.0703
936.9780, 505.2202
938.0980, 467.9756
939.2180, 483.3301
940.3370, 456.2002
941.4570, 401.0894
942.5760, 648.8076
943.6950, 532.9199
944.8140, 681.9946
945.9330, 767.4082
947.0520, 841.7710
948.1700, 975.2349
949.2890, 1130.192
950.4070, 1350.542
951.5250, 1374.734
952.6430, 1443.014
953.7600, 1580.164
954.8780, 1439.092
955.9950, 1459.869
957.1120, 1441.624
958.2290, 1702.553
959.3460, 1959.536
960.4630, 2357.433
961.5800, 2680.564
962.6960, 3069.756
963.8120, 3439.827
964.9280, 3735.130
966.0440, 3863.246
967.1600, 3738.886
968.2760, 3597.379
969.3910, 3337.620
970.5060, 2832.379
971.6210, 2456.936
972.7360, 2199.520
973.8510, 1849.620
974.9660, 1529.800
976.0800, 1420.336
977.1950, 1225.874
978.3090, 1011.614
979.4230, 1014.288
980.5370, 787.9004
981.6500, 731.2549
982.7640, 675.1138
983.8770, 530.0005
984.9900, 411.9165
986.1030, 420.8608
987.2160, 490.8330
988.3290, 348.8335
989.4420, 413.8613
990.5540, 381.9170
991.6660, 311.9985
992.7780, 425.1079
993.8900, 381.2432
995.0020, 466.4048
996.1140, 382.5923
997.2250, 436.8052
998.3360, 419.0435
999.4470, 553.3071
1000.558, 581.4277
1001.669, 549.7402
1002.780, 570.3623
1003.890, 526.2031
1005.001, 610.1069
1006.111, 429.9771
1007.221, 398.4067
1008.331, 341.8594
1009.440, 417.9834
1010.550, 375.0542
1011.659, 393.8623
1012.768, 434.4019
1013.877, 466.9614
1014.986, 388.7886
1016.095, 359.3896
1017.204, 343.0112
1018.312, 363.5571
1019.420, 331.5171
1020.528, 383.2295
1021.636, 385.9287
1022.744, 453.6045
1023.852, 403.3374
1024.959, 449.0879
1026.066, 418.8550
1027.173, 353.8594
1028.280, 384.6602
1029.387, 432.4771
1030.494, 288.3091
1031.600, 265.5742
1032.707, 318.5352
1033.813, 187.4131
1034.919, 235.4062
1036.025, 260.3809
1037.130, 328.3013
1038.236, 154.2344
1039.341, 208.1816
1040.446, 132.5923
1041.552, 303.3223
1042.656, 242.3062
1043.761, 184.3013
1044.866, 168.3076
1045.970, 172.6348
1047.074, 148.3442
1048.179, 173.8892
1049.282, 134.0669
1050.386, 73.00000
1051.490, 61.06689
1052.593, 65.14160
1053.697, 13.22510
1054.800, 35.31738
1055.903, 67.58350
1057.006, 41.50000
1058.108, 114.2651
1059.211, 50.22852
1060.313, 79.20312
1061.415, 184.2026
1062.517, 162.2808
1063.619, 23.42725
1064.721, 51.57764
1065.823, 30.74512
1066.924, 69.92139
1068.025, 67.12451
1069.126, 32.35400
1070.227, 118.5957
1071.328, 53.89209
1072.429, 42.21191
1073.529, 92.55176
1074.629, 52.93652
1075.729, 57.03174
1076.829, 32.21289
1077.929, 57.22754
1079.029, 70.69971
1080.128, 135.2114
1081.228, 75.79541
1082.327, 112.4229
1083.426, 4.114746
1084.525, 3.817871
1085.623, 52.53320
1086.722, 11.28467
1087.820, 73.94775
1088.919, 3.824219
1090.017, 56.60986
1091.115, 33.56152
1092.212, 17.27100
1093.310, 32.87256
1094.407, 74.00928
1095.505, 63.85986
1096.602, 50.22021
1097.699, 10.70605
1098.795, 20.34082
1099.892, 30.62451
1100.989, 7.625977
1102.085, 63.65332
1103.181, 9.736328
1104.277, 89.15332
1105.373, 1.032715
1106.469, 20.88770
1107.564, 14.72607
1108.660, 2.063477
1109.755, 87.33545
1110.850, 17.11426
1111.945, 0.8735350
1113.040, 28.60352
1114.134, 175.3159
1115.229, 114.0376
1116.323, 156.7480
1117.417, 130.4468
1118.511, 113.1338
1119.605, 124.8086
1120.698, 261.4707
1121.792, 129.1206
1122.885, 226.7705
1123.978, 210.4077
1125.071, 213.0308
1126.164, 232.6431
1127.257, 209.0679
1128.349, 177.8306
1129.442, 157.4038
1130.534, 117.9639
1131.626, 40.50977
1132.718, 92.03271
1133.810, 62.55664
1134.901, 105.0625
1135.993, 104.5532
1137.084, 59.02832
1138.175, 119.4844
1139.266, 116.9321
1140.357, 30.36328
1141.448, 59.77197
1142.538, 73.16602
1143.628, 135.5420
1144.719, 133.8447
1145.809, 45.25537
1146.898, 124.5752
1147.988, 122.8813
1149.078, 58.17090
1150.167, 81.44434
1151.256, 4.303223
1152.345, 59.89600
1153.434, 169.0879
1154.523, 177.2612
1155.612, 157.4180
1156.700, 154.5571
1157.788, 94.67773
1158.877, 157.7769
1159.964, 132.8584
1161.052, 164.9219
1162.140, 89.96631
1163.227, 109.9873
1164.315, 130.9888
1165.402, 111.9707
1166.489, 116.9326
1167.576, 213.8745
1168.663, 134.7979
1169.749, 163.7017
1170.836, 97.58838
1171.922, 54.45117
1173.008, 153.2783
1174.094, 168.0850
1175.180, 151.8711
1176.265, 43.63721
1177.351, 93.36230
1178.436, 102.0610
1179.521, 161.7339
1180.606, 141.3862
1181.691, 167.0181
1182.776, 194.6279
1183.860, 151.2173
1184.944, 197.7852
1186.029, 240.3325
1187.113, 205.4570
1188.197, 126.6841
1189.280, 164.1133
1190.364, 207.8135
1191.447, 168.9658
1192.531, 221.8472
1193.614, 137.9746
1194.697, 208.5708
1195.779, 130.8071
1196.862, 134.9717
1197.945, 172.0527
1199.027, 186.1943
1200.109, 181.0762
1201.191, 208.0767
1202.273, 192.6245
1203.355, 234.7637
1204.436, 229.9419
1205.518, 223.3257
1206.599, 126.3882
1207.680, 205.5430
1208.761, 204.4019
1209.842, 171.3774
1210.922, 263.7373
1212.003, 156.2539
1213.083, 272.4199
1214.163, 186.7944
1215.243, 244.1201
1216.323, 282.6304
1217.402, 189.7466
1218.482, 186.7778
1219.561, 178.0708
1220.641, 227.0107
1221.720, 180.3828
1222.798, 226.4663
1223.877, 253.4155
1224.956, 212.5332
1226.034, 231.8086
1227.112, 216.6694
1228.191, 159.7476
1229.269, 342.3428
1230.346, 197.1021
1231.424, 238.4272
1232.501, 322.0615
1233.579, 179.1279
1234.656, 263.8833
1235.733, 261.1641
1236.810, 176.3838
1237.886, 266.2383
1238.963, 321.1074
1240.039, 248.7905
1241.116, 192.5566
1242.192, 237.3994
1243.268, 312.5146
1244.343, 272.9160
1245.419, 277.6938
1246.494, 245.4336
1247.570, 226.0190
1248.645, 200.6230
1249.720, 231.1812
1250.795, 236.8555
1251.869, 211.4087
1252.944, 133.9253
1254.018, 291.4277
1255.093, 197.3301
1256.167, 179.3765
1257.240, 262.8379
1258.314, 251.5884
1259.388, 105.0229
1260.461, 180.5811
1261.535, 133.1558
1262.608, 231.3320
1263.681, 165.4263
1264.753, 151.8843
1265.826, 225.2383
1266.899, 239.4033
1267.971, 151.2397
1269.043, 120.6948
1270.115, 251.1982
1271.187, 116.6450
1272.259, 256.9263
1273.330, 276.5073
1274.402, 251.7563
1275.473, 224.7461
1276.544, 214.8901
1277.615, 107.1006
1278.686, 251.5981
1279.756, 263.5947
1280.827, 175.8286
1281.897, 172.4727
1282.967, 194.6519
1284.037, 134.0825
1285.107, 225.2905
1286.177, 189.4072
1287.247, 88.29199
1288.316, 251.6050
1289.385, 176.7944
1290.454, 122.8745
1291.523, 157.5269
1292.592, 172.4873
1293.661, 182.5342
1294.729, 241.6431
1295.797, 259.6001
1296.866, 137.9443
1297.934, 229.9492
1299.001, 226.5879
1300.069, 281.1201
1301.137, 168.3354
1302.204, 253.2979
1303.271, 138.2495
1304.338, 107.1919
1305.405, 330.8135
1306.472, 105.0532
1307.539, 189.4575
1308.605, 123.3618
1309.671, 253.2500
1310.737, 173.1343
1311.803, 258.0078
1312.869, 146.8691
1313.935, 183.7241
1315.000, 272.5713
1316.066, 201.4238
1317.131, 161.1177
1318.196, 302.9858
1319.261, 261.8569
1320.326, 261.7378
1321.390, 231.6543
1322.455, 240.6006
1323.519, 215.0244
1324.583, 187.6680
1325.647, 180.4468
1326.711, 138.4043
