##NAMES=Humite
##RRUFFID=R040071
##IDEAL CHEMISTRY=Mg_7_(SiO_4_)_3_(F,OH)_2_
##LOCALITY=Tilly Foster mine, Brewster, Putnam County, New York, USA
##OWNER=RRUFF
##SOURCE=University of Arizona Mineral Museum
##DESCRIPTION=Red crystals
##STATUS=The identification of this mineral has been confirmed by X-ray diffraction and chemical analysis
##URL=rruff.info/R040071
##MEASURED CHEMISTRY=(Mg_0.91_Fe_0.09_)_7_(Si_0.99_Ti_0.01_O_4_)_3_(F_0.76_(OH)_0.24_)_2_
##PIN_ID=L00308
##ORIENTATION=Laser parallel to b* (0 1 0). Fiducial mark perpendicular to laser is parallel to c [0 0 1]
80.125, 0.000
81.521, 61.229
82.916, 1.362
84.311, 137.550
85.706, 38.007
87.101, 96.378
88.496, 190.448
89.890, 547.567
91.284, 467.569
92.678, 468.912
94.071, 484.106
95.465, 414.476
96.858, 355.566
98.251, 268.882
99.644, 132.711
101.036, 76.451
102.428, 138.681
103.820, 231.185
105.212, 351.842
106.604, 311.242
107.995, 225.152
109.387, 180.317
110.777, 182.053
112.168, 37.266
113.559, 382.521
114.949, 508.460
116.339, 424.126
117.729, 330.809
119.119, 289.442
120.508, 176.269
121.897, 276.191
123.286, 274.345
124.675, 214.864
126.063, 279.846
127.452, 273.214
128.840, 373.530
130.228, 347.045
131.615, 348.605
133.003, 272.067
134.390, 341.303
135.777, 349.673
137.164, 400.194
138.550, 387.638
139.937, 397.013
141.323, 306.486
142.709, 259.077
144.094, 231.264
145.480, 219.405
146.865, 256.170
148.250, 243.848
149.635, 231.820
151.019, 251.859
152.403, 136.010
153.788, 121.058
155.171, 106.250
156.555, 48.148
157.939, 36.887
159.322, 18.184
160.705, 44.330
162.088, 33.589
163.470, 11.354
164.853, 17.862
166.235, 15.633
167.617, 49.881
168.998, 28.923
170.380, 26.798
171.761, 49.535
173.142, 58.166
174.523, 26.725
175.904, 27.776
177.284, 26.674
178.664, 15.896
180.044, 31.546
181.424, 11.985
182.803, 9.551
184.183, 25.021
185.562, 67.911
186.940, 111.063
188.319, 162.953
189.698, 256.063
191.076, 320.920
192.454, 430.331
193.831, 630.107
195.209, 730.454
196.586, 772.976
197.963, 794.343
199.340, 1030.462
200.717, 548.442
202.093, 426.263
203.470, 364.893
204.846, 392.357
206.221, 324.641
207.597, 248.703
208.972, 184.556
210.347, 162.189
211.722, 225.670
213.097, 248.001
214.472, 279.186
215.846, 300.267
217.220, 344.276
218.594, 364.793
219.967, 380.759
221.341, 388.664
222.714, 413.531
224.087, 417.187
225.460, 400.924
226.832, 416.934
228.204, 410.479
229.577, 373.802
230.948, 424.985
232.320, 372.712
233.692, 351.595
235.063, 445.533
236.434, 463.682
237.805, 409.914
239.175, 452.552
240.545, 472.910
241.916, 471.101
243.286, 528.833
244.655, 509.514
246.025, 598.953
247.394, 621.441
248.763, 677.325
250.132, 667.882
251.501, 639.104
252.869, 628.729
254.237, 729.002
255.605, 720.796
256.973, 754.923
258.340, 677.765
259.708, 797.043
261.075, 778.065
262.442, 840.854
263.808, 798.952
265.175, 835.679
266.541, 809.663
267.907, 730.529
269.273, 760.431
270.639, 690.378
272.004, 704.921
273.369, 654.931
274.734, 634.551
276.099, 646.739
277.463, 678.395
278.828, 703.824
280.192, 595.683
281.556, 683.586
282.919, 656.496
284.283, 582.611
285.646, 614.804
287.009, 574.853
288.372, 601.522
289.734, 566.290
291.097, 541.045
292.459, 467.207
293.821, 470.644
295.183, 461.695
296.544, 440.522
297.905, 426.641
299.266, 399.201
300.627, 476.742
301.988, 417.468
303.348, 338.122
304.709, 438.793
306.069, 389.038
307.428, 415.860
308.788, 450.417
310.147, 473.831
311.507, 508.314
312.865, 475.080
314.224, 558.522
315.583, 587.120
316.941, 577.644
318.299, 686.983
319.657, 700.143
321.015, 748.321
322.372, 716.248
323.729, 715.579
325.086, 667.743
326.443, 601.668
327.800, 637.561
329.156, 567.064
330.512, 568.775
331.868, 499.378
333.224, 538.346
334.579, 513.488
335.935, 487.250
337.290, 437.568
338.645, 466.864
339.999, 483.962
341.354, 421.372
342.708, 557.231
344.062, 448.570
345.416, 505.184
346.769, 494.154
348.123, 419.511
349.476, 497.555
350.829, 435.586
352.182, 460.723
353.534, 487.674
354.887, 460.990
356.239, 508.635
357.591, 535.860
358.942, 468.084
360.294, 541.317
361.645, 567.561
362.996, 471.802
364.347, 432.892
365.698, 351.473
367.048, 282.812
368.398, 198.279
369.748, 148.448
371.098, 104.301
372.448, 82.818
373.797, 33.173
375.146, 80.956
376.495, 59.834
377.844, 31.839
379.192, 118.914
380.540, 107.173
381.889, 125.503
383.236, 78.884
384.584, 102.278
385.932, 133.758
387.279, 23.233
388.626, 70.615
389.973, 22.033
391.319, 36.391
392.666, 20.564
394.012, 48.083
395.358, 12.988
396.704, 53.015
398.049, 29.693
399.394, 36.334
400.740, 142.241
402.084, 79.059
403.429, 67.870
404.774, 13.186
406.118, 42.220
407.462, 12.487
408.806, 114.575
410.150, 144.578
411.493, 164.497
412.836, 148.334
414.179, 206.090
415.522, 198.768
416.865, 219.370
418.207, 275.897
419.549, 256.353
420.891, 301.739
422.233, 267.058
423.575, 226.310
424.916, 319.495
426.257, 245.617
427.598, 261.677
428.939, 243.677
430.279, 217.618
431.619, 168.499
432.959, 176.319
434.299, 126.079
435.639, 92.781
436.978, 121.425
438.318, 110.013
439.657, 110.005
440.996, 201.034
442.334, 134.463
443.673, 208.837
445.011, 270.162
446.349, 256.441
447.687, 370.679
449.024, 472.876
450.361, 584.035
451.699, 630.159
453.036, 603.247
454.372, 778.057
455.709, 829.853
457.045, 1016.587
458.381, 968.209
459.717, 991.753
461.053, 1077.159
462.388, 935.866
463.724, 1072.301
465.059, 1049.380
466.394, 1131.855
467.728, 1156.101
469.063, 1071.437
470.397, 1162.899
471.731, 1098.700
473.065, 1060.807
474.398, 1017.624
475.732, 929.767
477.065, 851.900
478.398, 731.089
479.731, 697.027
481.063, 644.689
482.396, 674.043
483.728, 628.258
485.060, 547.378
486.391, 544.626
487.723, 478.259
489.054, 442.528
490.385, 412.486
491.716, 403.051
493.047, 382.278
494.377, 304.853
495.708, 397.354
497.038, 289.666
498.368, 390.783
499.697, 371.657
501.027, 376.627
502.356, 353.792
503.685, 298.698
505.014, 303.798
506.342, 296.237
507.671, 326.685
508.999, 368.464
510.327, 268.132
511.655, 358.318
512.982, 336.277
514.310, 319.369
515.637, 361.693
516.964, 421.239
518.291, 421.721
519.617, 438.608
520.944, 480.586
522.270, 512.583
523.596, 484.556
524.921, 516.121
526.247, 494.433
527.572, 570.571
528.897, 552.385
530.222, 584.998
531.547, 560.612
532.871, 595.775
534.196, 542.602
535.520, 638.442
536.844, 548.256
538.167, 634.418
539.491, 575.000
540.814, 598.532
542.137, 668.964
543.460, 709.857
544.783, 789.719
546.105, 746.649
547.427, 764.048
548.749, 727.617
550.071, 619.909
551.393, 649.239
552.714, 559.424
554.035, 570.735
555.356, 611.340
556.677, 540.286
557.998, 612.242
559.318, 527.886
560.638, 615.086
561.958, 642.195
563.278, 679.949
564.597, 701.650
565.917, 739.483
567.236, 776.087
568.555, 837.131
569.874, 926.254
571.192, 1050.571
572.511, 1237.465
573.829, 1369.711
575.147, 1548.882
576.464, 1749.095
577.782, 2061.502
579.099, 2119.784
580.416, 2195.213
581.733, 2193.454
583.050, 2148.484
584.366, 2035.861
585.683, 1888.887
586.999, 1856.939
588.315, 1818.876
589.630, 1915.663
590.946, 2132.204
592.261, 2259.738
593.576, 2673.022
594.891, 2949.128
596.206, 3458.314
597.520, 4019.415
598.834, 4375.477
600.148, 5008.881
601.462, 5295.969
602.776, 5771.331
604.089, 5811.913
605.402, 5582.400
606.715, 5302.112
608.028, 4655.786
609.341, 4182.906
610.653, 3586.670
611.965, 2968.563
613.277, 2442.077
614.589, 2027.553
615.901, 1797.990
617.212, 1497.391
618.523, 1264.754
619.834, 1149.081
621.145, 947.370
622.456, 864.624
623.766, 715.843
625.076, 660.026
626.386, 562.174
627.696, 402.287
629.006, 359.364
630.315, 329.406
631.624, 285.412
632.933, 157.382
634.242, 150.312
635.551, 128.201
636.859, 50.049
638.167, 57.849
639.475, 74.602
640.783, 90.312
642.090, 107.981
643.398, 74.611
644.705, 48.200
646.012, 63.742
647.318, 2.758
648.625, 19.674
649.931, 24.950
651.237, 0.346
652.543, 31.422
653.849, 61.271
655.155, 43.259
656.460, 104.290
657.765, 59.438
659.070, 95.680
660.375, 93.032
661.679, 65.616
662.984, 120.292
664.288, 106.154
665.592, 129.031
666.895, 160.946
668.199, 107.408
669.502, 137.632
670.805, 78.109
672.108, 131.771
673.411, 169.410
674.713, 91.055
676.016, 115.798
677.318, 119.649
678.620, 74.609
679.921, 92.654
681.223, 56.791
682.524, 104.001
683.825, 108.307
685.126, 1.292
686.427, 66.144
687.727, 71.648
689.028, 116.222
690.328, 84.886
691.628, 68.623
692.927, 40.422
694.227, 27.733
695.526, 54.131
696.825, 1.954
698.124, 9.016
699.423, 73.057
700.721, 87.083
702.020, 131.095
703.318, 140.094
704.616, 184.081
705.913, 247.056
707.211, 234.020
708.508, 411.975
709.805, 428.919
711.102, 481.864
712.399, 636.803
713.695, 770.744
714.992, 875.683
716.288, 937.621
717.584, 1076.586
718.879, 1148.562
720.175, 1333.547
721.470, 1353.526
722.765, 1521.501
724.060, 1674.472
725.355, 1678.437
726.649, 1957.396
727.944, 2026.351
729.238, 2047.300
730.532, 2265.243
731.825, 2282.183
733.119, 2491.117
734.412, 2461.045
735.705, 2483.970
736.998, 2602.890
738.291, 2679.806
739.584, 2828.719
740.876, 2929.629
742.168, 3113.537
743.460, 3306.442
744.752, 3363.348
746.043, 3726.251
747.334, 3856.157
748.626, 4193.064
749.916, 4373.974
751.207, 4492.887
752.498, 4762.803
753.788, 4799.726
755.078, 4844.652
756.368, 4778.580
757.658, 4654.515
758.947, 4644.455
760.237, 4504.402
761.526, 4169.356
762.815, 4283.327
764.104, 3966.304
765.392, 3897.296
766.680, 3826.295
767.969, 3663.315
769.257, 3695.364
770.544, 3656.423
771.832, 3923.509
773.119, 3963.618
774.406, 4175.743
775.693, 4717.892
776.980, 5131.058
778.267, 5969.252
779.553, 5872.476
780.839, 6048.717
782.125, 6349.987
783.411, 5883.295
784.697, 5810.622
785.982, 5326.970
787.267, 4586.278
788.552, 4518.111
789.837, 3945.167
791.122, 3508.738
792.406, 3262.792
793.690, 3065.120
794.974, 2943.764
796.258, 2764.557
797.542, 2766.450
798.825, 2732.218
800.108, 2799.601
801.391, 2872.352
802.674, 2822.428
803.957, 2934.908
805.239, 3080.743
806.522, 3107.252
807.804, 3313.846
809.085, 3413.651
810.367, 3521.677
811.649, 3786.959
812.930, 3905.152
814.211, 4334.161
815.492, 4742.441
816.772, 4962.548
818.053, 5784.321
819.333, 6287.097
820.613, 7343.545
821.893, 8206.110
823.173, 9575.174
824.452, 11348.452
825.732, 13156.594
827.011, 15978.494
828.290, 18973.160
829.568, 22588.883
830.847, 28537.188
832.125, 33368.402
833.403, 38553.586
834.681, 42452.770
835.959, 42855.367
837.236, 44354.168
838.514, 42890.852
839.791, 43289.488
841.068, 45271.121
842.345, 44064.562
843.621, 43280.402
844.898, 40046.363
846.174, 35136.520
847.450, 31204.609
848.726, 26847.229
850.001, 24332.789
851.277, 21940.352
852.552, 20341.086
853.827, 20413.170
855.102, 20405.385
856.376, 21827.648
857.651, 23209.967
858.925, 24846.328
860.199, 27437.740
861.473, 28543.197
862.746, 28428.699
864.020, 27920.264
865.293, 24995.877
866.566, 22953.539
867.839, 20784.252
869.112, 18626.018
870.384, 17056.838
871.656, 14932.715
872.928, 14004.647
874.200, 12370.626
875.472, 10850.657
876.744, 9983.734
878.015, 8580.866
879.286, 7732.042
880.557, 6840.269
881.828, 6046.545
883.098, 5475.870
884.369, 4855.244
885.639, 4621.666
886.909, 4194.125
888.178, 3973.667
889.448, 3744.243
890.717, 3629.878
891.987, 3639.562
893.256, 3841.295
894.524, 3785.086
895.793, 4088.924
897.061, 4081.814
898.330, 3744.753
899.598, 3513.742
900.865, 2975.783
902.133, 2655.874
903.401, 2335.015
904.668, 2002.208
905.935, 1915.450
907.202, 1816.742
908.468, 1742.086
909.735, 1730.480
911.001, 1636.450
912.267, 1622.343
913.533, 1556.252
914.799, 1518.166
916.064, 1586.353
917.330, 1418.164
918.595, 1453.187
919.860, 1267.290
921.124, 1421.272
922.389, 1347.467
923.653, 1218.444
924.918, 1258.667
926.182, 1203.213
927.445, 1238.822
928.709, 1348.556
929.972, 1237.216
931.236, 1380.791
932.499, 1394.516
933.761, 1420.353
935.024, 1428.301
936.286, 1454.921
937.549, 1488.357
938.811, 1530.439
940.073, 1588.990
941.334, 1662.450
942.596, 1749.255
943.857, 1843.979
945.118, 2003.482
946.379, 2288.266
947.640, 2500.806
948.900, 2878.728
950.161, 3406.117
951.421, 4013.521
952.681, 4207.589
953.940, 4403.083
955.200, 4398.071
956.459, 4330.307
957.719, 4836.213
958.978, 5273.576
960.236, 6231.371
961.495, 7665.491
962.753, 8542.386
964.012, 10401.622
965.270, 10952.354
966.527, 10476.845
967.785, 9969.532
969.043, 8348.500
970.300, 7168.362
971.557, 5862.171
972.814, 4829.493
974.071, 4108.972
975.327, 3287.377
976.583, 2914.068
977.840, 2526.371
979.095, 2138.020
980.351, 1889.330
981.607, 1675.147
982.862, 1553.398
984.117, 1406.771
985.372, 1206.814
986.627, 1204.214
987.882, 1059.081
989.136, 918.330
990.390, 967.768
991.644, 811.270
992.898, 780.696
994.152, 790.463
995.405, 745.022
996.659, 742.645
997.912, 772.362
999.165, 806.093
1000.417, 798.042
1001.670, 811.392
1002.922, 819.578
1004.174, 799.790
1005.426, 797.717
1006.678, 778.860
1007.930, 697.852
1009.181, 750.878
1010.432, 790.128
1011.683, 704.219
1012.934, 789.342
1014.185, 658.011
1015.435, 695.219
1016.685, 622.068
1017.935, 633.314
1019.185, 779.776
1020.435, 728.763
1021.684, 731.518
1022.934, 774.302
1024.183, 599.147
1025.432, 744.567
1026.680, 616.565
1027.929, 606.274
1029.177, 557.781
1030.425, 587.680
1031.673, 452.240
1032.921, 560.831
1034.169, 444.460
1035.416, 539.100
1036.663, 490.729
1037.911, 486.417
1039.157, 579.574
1040.404, 545.222
1041.650, 436.052
1042.897, 498.835
1044.143, 479.846
1045.389, 523.700
1046.634, 348.697
1047.880, 388.586
1049.125, 340.502
1050.371, 156.647
1051.615, 204.604
1052.860, 124.580
1054.105, 101.578
1055.349, 79.594
1056.593, 18.628
1057.837, 32.679
1059.081, 39.746
1060.325, 15.167
1061.568, 24.070
1062.812, 30.960
1064.055, 76.840
1065.298, 26.727
1066.540, 69.579
1067.783, 14.438
1069.025, 92.288
1070.267, 126.152
1071.509, 14.050
1072.751, 120.940
1073.993, 84.863
1075.234, 46.806
1076.475, 87.753
1077.716, 46.723
1078.957, 102.700
1080.198, 98.693
1081.438, 39.717
1082.679, 98.745
1083.919, 116.799
1085.159, 51.897
1086.398, 46.009
1087.638, 7.865
1088.877, 157.252
1090.116, 62.430
1091.355, 63.632
1092.594, 113.859
1093.833, 34.131
1095.071, 56.418
1096.309, 49.729
1097.547, 53.940
1098.785, 23.388
1100.023, 0.727
1101.260, 33.933
1102.498, 56.405
1103.735, 6.773
1104.972, 31.851
1106.208, 38.525
1107.445, 64.077
1108.681, 13.323
1109.918, 16.739
1111.154, 9.829
1112.389, 13.610
1113.625, 67.937
1114.860, 31.520
1116.096, 14.006
1117.331, 30.491
1118.566, 12.018
1119.800, 10.449
1121.035, 15.092
1122.269, 47.659
1123.503, 66.727
1124.737, 29.105
1125.971, 15.478
1127.205, 115.832
1128.438, 1.177
1129.671, 52.494
1130.904, 9.198
1132.137, 32.077
1133.370, 77.335
1134.602, 12.583
1135.834, 6.804
1137.066, 168.140
1138.298, 20.318
1139.530, 52.737
1140.762, 130.882
1141.993, 59.989
1143.224, 114.137
1144.455, 87.281
1145.686, 68.468
1146.917, 170.692
1148.147, 62.681
1149.377, 213.648
1150.607, 79.736
1151.837, 36.666
1153.067, 163.549
1154.296, 71.464
1155.526, 121.405
1156.755, 96.979
1157.984, 76.113
1159.213, 222.391
1160.441, 97.818
1161.670, 2.861
1162.898, 97.390
1164.126, 69.269
1165.354, 164.181
1166.581, 32.415
1167.809, 45.144
1169.036, 84.520
1170.263, 31.399
1171.490, 86.866
1172.717, 161.028
1173.943, 86.734
1175.170, 102.201
1176.396, 176.805
1177.622, 100.779
1178.848, 139.355
1180.073, 162.764
1181.299, 133.145
1182.524, 190.581
1183.749, 86.402
1184.974, 151.041
1186.199, 110.641
1187.423, 62.243
1188.648, 137.448
1189.872, 165.047
1191.096, 87.404
1192.320, 154.807
1193.543, 144.712
1194.767, 216.570
1195.990, 279.239
1197.213, 144.750
1198.436, 310.016
1199.659, 241.774
1200.881, 215.416
1202.104, 344.597
1203.326, 192.960
1204.548, 266.819
1205.770, 283.815
1206.991, 260.423
1208.213, 332.039
1209.434, 304.962
1210.655, 274.673
1211.876, 438.871
1213.096, 357.327
1214.317, 369.242
1215.537, 368.721
1216.757, 352.240
1217.977, 438.764
1219.197, 375.439
1220.417, 356.276
1221.636, 420.393
1222.855, 301.783
1224.074, 381.753
1225.293, 396.570
1226.512, 292.125
1227.731, 375.087
1228.949, 426.586
1230.167, 357.205
1231.385, 410.612
1232.603, 310.616
1233.820, 355.667
1235.038, 490.519
1236.255, 319.050
1237.472, 436.782
1238.689, 394.665
1239.906, 358.629
1241.122, 415.429
1242.338, 314.535
1243.555, 398.361
1244.771, 391.808
1245.986, 277.789
1247.202, 415.504
1248.417, 306.240
1249.633, 265.753
1250.848, 401.721
1252.063, 239.133
1253.277, 342.708
1254.492, 381.935
1255.706, 242.026
1256.920, 370.381
1258.134, 313.296
1259.348, 266.303
1260.562, 328.633
1261.775, 313.148
1262.988, 281.728
1264.201, 317.766
1265.414, 240.063
1266.627, 323.137
1267.839, 254.949
1269.052, 247.810
1270.264, 336.941
1271.476, 280.747
1272.688, 287.928
1273.899, 338.672
1275.111, 239.817
1276.322, 247.945
1277.533, 222.335
1278.744, 221.793
1279.955, 255.023
1281.165, 223.262
1282.376, 157.313
1283.586, 295.139
1284.796, 128.443
1286.006, 216.019
1287.215, 273.364
1288.425, 173.361
1289.634, 165.591
1290.843, 151.781
1292.052, 138.945
1293.261, 255.459
1294.469, 238.349
1295.678, 159.383
1296.886, 223.403
1298.094, 64.131
1299.302, 188.721
1300.509, 177.353
1301.717, 82.131
1302.924, 106.175
1304.131, 120.649
1305.338, 88.348
1306.545, 128.593
1307.752, 72.641
1308.958, 146.101
1310.164, 130.897
1311.370, 88.280
1312.576, 156.583
1313.782, 68.194
1314.987, 110.021
1316.193, 200.045
1317.398, 72.748
1318.603, 116.864
1319.807, 165.385
1321.012, 10.167
1322.216, 77.124
1323.421, 117.725
1324.625, 11.581
1325.829, 150.385
1327.032, 130.122
1328.236, 75.831
1329.439, 87.527
1330.642, 88.135
1331.845, 83.252
1333.048, 138.854
1334.251, 22.222
1335.453, 96.615
1336.656, 84.758
1337.858, 55.970
1339.060, 192.134
1340.261, 12.281
1341.463, 61.377
1342.664, 78.214
1343.866, 40.201
1345.067, 44.141
1346.267, 74.033
1347.468, 55.878
1348.669, 106.671
1349.869, 81.420
1351.069, 33.123
1352.269, 87.777
1353.469, 41.388
1354.668, 39.956
1355.868, 27.479
1357.067, 73.032
1358.266, 49.391
1359.465, 68.780
1360.664, 8.130
1361.862, 69.452
1363.061, 39.758
1364.259, 43.028
1365.457, 95.285
1366.655, 35.524
1367.852, 63.737
1369.050, 67.668
1370.247, 36.880
1371.444, 70.284
1372.641, 19.449
1373.838, 9.396
1375.035, 106.765
1376.231, 62.034
1377.427, 79.248
1378.623, 12.475
1379.819, 10.259
1381.015, 120.941
1382.211, 61.156
1383.406, 3.375
1384.601, 152.578
1385.796, 46.741
1386.991, 16.868
1388.185, 152.969
1389.380, 18.042
1390.574, 34.087
1391.768, 67.100
1392.962, 46.080
1394.156, 55.036
1395.350, 115.961
1396.543, 18.884
1397.736, 167.777
1398.929, 84.631
1400.122, 25.461
1401.315, 124.273
1402.507, 0.953
1403.700, 87.632
1404.892, 113.026
1406.084, 0.642
1407.276, 136.005
1408.467, 113.385
1409.659, 7.175
1410.850, 149.151
1412.041, 110.542
1413.232, 74.483
1414.423, 2.594
1415.614, 107.122
1416.804, 169.603
1417.994, 191.088
1419.184, 49.857
1420.374, 115.722
1421.564, 81.514
1422.753, 26.670
1423.943, 201.403
1425.132, 74.042
1426.321, 53.521
1427.510, 180.141
1428.698, 19.420
1429.887, 303.350
1431.075, 214.182
1432.263, 168.718
1433.451, 217.404
1434.639, 104.878
1435.827, 35.047
1437.014, 148.299
1438.201, 130.906
1439.388, 102.121
1440.575, 218.939
1441.762, 36.235
1442.949, 137.920
1444.135, 131.503
1445.321, 27.457
1446.507, 154.307
1447.693, 153.721
1448.879, 9.908
1450.064, 127.742
1451.250, 71.903
1452.435, 78.691
1453.620, 196.559
1454.805, 32.879
1455.989, 93.282
1457.174, 190.292
1458.358, 10.248
1459.542, 200.927
1460.726, 138.248
1461.910, 99.926
1463.093, 218.416
1464.277, 149.192
1465.460, 37.968
1466.643, 266.404
1467.826, 154.128
1469.009, 172.244
1470.191, 169.750
1471.373, 74.583
1472.556, 86.202
1473.738, 154.572
1474.919, 32.402
1476.101, 268.972
1477.283, 170.685
1478.464, 130.158
1479.645, 184.315
1480.826, 110.553
1482.007, 191.404
1483.187, 182.625
1484.368, 151.645
1485.548, 122.765
1486.728, 244.792
1487.908, 132.816
1489.088, 256.127
1490.268, 159.894
1491.447, 94.605
1492.626, 188.249
1493.805, 164.658
1494.984, 175.347
1496.163, 224.042
1497.341, 162.711
1498.520, 192.362
1499.698, 272.316
1500.876, 65.238
1502.054, 218.442
1503.232, 200.988
1504.409, 107.854
1505.586, 277.862
1506.763, 214.164
1507.940, 95.749
1509.117, 274.690
1510.294, 111.086
