##NAMES=Humite
##RRUFFID=R040071
##IDEAL CHEMISTRY=Mg_7_(SiO_4_)_3_(F,OH)_2_
##LOCALITY=Tilly Foster mine, Brewster, Putnam County, New York, USA
##OWNER=RRUFF
##SOURCE=University of Arizona Mineral Museum
##DESCRIPTION=Red crystals
##STATUS=The identification of this mineral has been confirmed by X-ray diffraction and chemical analysis
##URL=rruff.info/R040071
##MEASURED CHEMISTRY=(Mg_0.91_Fe_0.09_)_7_(Si_0.99_Ti_0.01_O_4_)_3_(F_0.76_(OH)_0.24_)_2_
##PIN_ID=L00052
##ORIENTATION=Laser parallel to a* (1 0 0). Fiducial mark perpendicular to laser is parallel to -b [0 -1 0]
51.466, 0.000
52.866, 70.369
54.266, 216.618
55.666, 156.246
57.065, 88.807
58.464, 250.893
59.863, 85.023
61.262, 40.031
62.661, 2.437
64.059, 9.579
65.458, 60.573
66.856, 131.396
68.253, 223.659
69.651, 213.100
71.048, 284.863
72.445, 324.661
73.842, 348.530
75.239, 395.029
76.635, 380.447
78.031, 411.166
79.427, 354.795
80.823, 497.410
82.218, 468.215
83.614, 575.403
85.009, 520.389
86.404, 514.949
87.798, 586.048
89.193, 698.677
90.587, 666.882
91.981, 585.843
93.375, 592.337
94.768, 481.045
96.161, 544.578
97.554, 544.036
98.947, 326.262
100.340, 208.352
101.732, 192.926
103.124, 241.142
104.516, 209.634
105.908, 200.001
107.300, 231.996
108.691, 156.936
110.082, 144.568
111.473, 103.585
112.864, 246.501
114.254, 386.658
115.644, 483.639
117.034, 459.672
118.424, 354.754
119.813, 335.883
121.203, 294.055
122.592, 245.263
123.981, 101.504
125.369, 29.777
126.758, 78.083
128.146, 97.422
129.534, 225.795
130.922, 123.203
132.309, 101.646
133.696, 23.125
135.083, 100.658
136.470, 97.282
137.857, 91.300
139.243, 188.689
140.630, 118.419
142.016, 60.139
143.401, 102.893
144.787, 128.685
146.172, 111.515
147.557, 143.379
148.942, 116.713
150.327, 129.844
151.711, 64.160
153.096, 109.144
154.480, 79.155
155.863, 1.810
157.247, 79.751
158.630, 4.669
160.013, 14.565
161.396, 48.438
162.779, 51.259
164.161, 53.388
165.544, 47.506
166.926, 37.957
168.308, 51.349
169.689, 35.730
171.070, 23.895
172.452, 16.487
173.833, 9.868
175.213, 59.753
176.594, 134.373
177.974, 167.993
179.354, 191.618
180.734, 652.245
182.114, 566.878
183.493, 511.518
184.872, 1081.163
186.251, 867.818
187.630, 1140.450
189.008, 973.056
190.387, 1172.624
191.765, 1262.147
193.143, 1442.638
194.520, 1385.115
195.898, 1325.604
197.275, 1216.115
198.652, 1023.655
200.029, 870.226
201.405, 715.827
202.782, 579.051
204.158, 407.129
205.534, 353.831
206.909, 268.567
208.285, 199.337
209.660, 222.143
211.035, 183.980
212.410, 204.849
213.784, 221.749
215.159, 321.678
216.533, 467.636
217.907, 443.791
219.281, 512.544
220.654, 636.873
222.027, 603.864
223.400, 559.216
224.773, 557.524
226.146, 481.474
227.518, 454.055
228.891, 405.660
230.263, 339.931
231.634, 318.851
233.006, 248.137
234.377, 252.509
235.748, 228.034
237.119, 184.410
238.490, 206.425
239.860, 203.343
241.231, 226.722
242.601, 249.103
243.970, 256.484
245.340, 334.864
246.709, 344.231
248.079, 440.585
249.448, 443.931
250.816, 615.273
252.185, 608.614
253.553, 758.949
254.921, 815.268
256.289, 855.586
257.657, 945.904
259.024, 987.214
260.391, 1002.523
261.758, 1035.836
263.125, 1014.150
264.492, 975.468
265.858, 887.792
267.224, 861.120
268.590, 776.453
269.956, 712.840
271.321, 734.334
272.687, 715.945
274.052, 725.863
275.416, 743.048
276.781, 741.882
278.146, 790.023
279.510, 784.132
280.874, 759.887
282.237, 836.287
283.601, 755.831
284.964, 738.314
286.327, 778.630
287.690, 704.919
289.053, 703.931
290.416, 692.483
291.778, 644.363
293.140, 679.343
294.502, 643.520
295.863, 586.647
297.225, 581.704
298.586, 434.376
299.947, 460.464
301.308, 410.556
302.668, 357.639
304.029, 377.875
305.389, 310.104
306.749, 301.108
308.108, 353.310
309.468, 250.586
310.827, 244.873
312.186, 230.195
313.545, 266.535
314.903, 261.910
316.262, 259.151
317.620, 295.621
318.978, 328.035
320.336, 310.515
321.693, 262.513
323.051, 287.531
324.408, 264.206
325.765, 266.951
327.121, 263.610
328.478, 296.223
329.834, 301.292
331.190, 300.057
332.546, 359.572
333.902, 385.233
335.257, 428.905
336.612, 514.125
337.967, 458.666
339.322, 572.784
340.677, 573.058
342.031, 602.385
343.385, 628.764
344.739, 666.204
346.093, 631.696
347.446, 695.240
348.799, 665.842
350.153, 666.502
351.505, 610.217
352.858, 626.977
354.210, 526.780
355.563, 523.604
356.915, 461.466
358.267, 499.366
359.618, 356.287
360.969, 382.219
362.321, 294.158
363.672, 264.094
365.022, 179.028
366.373, 200.958
367.723, 230.882
369.073, 184.802
370.423, 184.715
371.773, 268.622
373.122, 343.523
374.471, 372.417
375.821, 436.303
377.169, 451.138
378.518, 440.100
379.866, 459.913
381.215, 391.757
382.563, 362.585
383.910, 350.397
385.258, 368.196
386.605, 325.983
387.952, 251.759
389.299, 312.524
390.646, 236.281
391.992, 218.260
393.339, 185.466
394.685, 129.517
396.031, 129.240
397.376, 41.951
398.722, 110.646
400.067, 37.327
401.412, 127.992
402.757, 106.642
404.101, 111.308
405.446, 173.145
406.790, 244.984
408.134, 206.834
409.478, 360.820
410.821, 352.657
412.165, 434.642
413.508, 479.671
414.851, 489.375
416.193, 552.264
417.536, 558.974
418.878, 637.932
420.220, 594.370
421.562, 550.791
422.904, 463.194
424.245, 486.578
425.586, 444.944
426.927, 383.290
428.268, 267.618
429.609, 222.926
430.949, 80.215
432.289, 52.482
433.629, 70.272
434.969, 60.087
436.309, 81.957
437.648, 78.894
438.987, 62.897
440.326, 61.716
441.665, 39.514
443.003, 33.241
444.342, 12.549
445.680, 30.314
447.018, 74.055
448.355, 83.772
449.693, 105.466
451.030, 142.137
452.367, 167.789
453.704, 172.419
455.041, 204.028
456.377, 180.613
457.713, 229.175
459.049, 154.714
460.385, 170.231
461.721, 236.725
463.056, 235.195
464.391, 264.642
465.726, 279.258
467.061, 269.984
468.395, 286.232
469.730, 304.372
471.064, 302.638
472.398, 483.822
473.731, 397.401
475.065, 497.932
476.398, 483.010
477.731, 615.967
479.064, 618.220
480.397, 653.226
481.729, 686.736
483.062, 646.518
484.394, 593.701
485.725, 648.285
487.057, 696.891
488.389, 566.659
489.720, 540.538
491.051, 498.349
492.382, 482.187
493.712, 478.145
495.043, 491.740
496.373, 492.884
497.703, 498.330
499.032, 509.416
500.362, 498.884
501.691, 527.281
503.020, 456.690
504.349, 475.999
505.678, 435.321
507.007, 464.731
508.335, 438.302
509.663, 467.972
510.991, 483.179
512.319, 434.670
513.646, 444.519
514.973, 498.400
516.300, 588.164
517.627, 642.987
518.954, 633.417
520.280, 759.965
521.607, 793.450
522.933, 925.353
524.259, 931.385
525.584, 1015.154
526.910, 1107.868
528.235, 1165.529
529.560, 1217.253
530.885, 1276.193
532.209, 1281.183
533.534, 1353.625
534.858, 1369.012
536.182, 1377.345
537.506, 1267.624
538.829, 1336.847
540.152, 1267.016
541.476, 1445.130
542.799, 1365.189
544.121, 1460.194
545.444, 1403.144
546.766, 1356.040
548.088, 1239.881
549.410, 1086.667
550.732, 873.400
552.053, 796.077
553.375, 662.700
554.696, 641.268
556.017, 595.782
557.337, 497.093
558.658, 461.497
559.978, 453.668
561.298, 439.965
562.618, 412.505
563.938, 366.394
565.257, 360.526
566.576, 352.601
567.895, 314.620
569.214, 344.582
570.533, 303.487
571.851, 287.335
573.170, 359.125
574.488, 308.860
575.805, 345.537
577.123, 280.159
578.440, 404.724
579.758, 445.236
581.075, 458.695
582.391, 522.101
583.708, 479.454
585.024, 510.755
586.341, 500.004
587.657, 518.201
588.972, 530.345
590.288, 545.313
591.603, 567.108
592.918, 664.664
594.233, 753.773
595.548, 881.427
596.863, 1001.082
598.177, 1081.879
599.491, 1270.563
600.805, 1421.565
602.119, 1551.886
603.432, 1525.028
604.746, 1602.192
606.059, 1495.490
607.372, 1379.776
608.685, 1316.103
609.997, 1120.459
611.309, 970.769
612.621, 828.032
613.933, 748.249
615.245, 626.858
616.557, 572.546
617.868, 457.625
619.179, 392.660
620.490, 346.650
621.801, 297.770
623.111, 235.496
624.421, 199.978
625.731, 125.158
627.041, 128.914
628.351, 43.618
629.660, 22.250
630.970, 55.801
632.279, 19.837
633.588, 46.329
634.896, 94.058
636.205, 52.926
637.513, 66.908
638.821, 61.012
640.129, 35.233
641.437, 75.556
642.744, 100.002
644.051, 54.582
645.358, 59.270
646.665, 79.069
647.972, 127.986
649.278, 51.047
650.584, 107.210
651.890, 111.502
653.196, 142.926
654.502, 118.494
655.807, 179.194
657.113, 204.055
658.418, 142.089
659.722, 145.261
661.027, 178.573
662.331, 150.039
663.636, 154.642
664.940, 176.384
666.244, 181.273
667.547, 177.312
668.851, 137.495
670.154, 130.800
671.457, 55.221
672.760, 120.718
674.062, 125.322
675.365, 59.034
676.667, 32.816
677.969, 19.654
679.271, 59.462
680.572, 10.554
681.874, 60.618
683.175, 57.659
684.476, 111.678
685.777, 110.676
687.077, 138.411
688.378, 166.608
689.678, 173.544
690.978, 146.462
692.278, 136.361
693.577, 178.414
694.877, 205.106
696.176, 275.953
697.475, 334.785
698.774, 397.601
700.072, 415.402
701.371, 537.190
702.669, 543.963
703.967, 681.725
705.265, 797.474
706.562, 844.211
707.860, 961.938
709.157, 1119.654
710.454, 1295.361
711.751, 1420.058
713.047, 1513.748
714.344, 1729.431
715.640, 1860.106
716.936, 1959.776
718.232, 2204.440
719.527, 2447.069
720.823, 2561.507
722.118, 2820.923
723.413, 2974.310
724.708, 3140.542
726.002, 3608.906
727.297, 3563.104
728.591, 4028.241
729.885, 4333.687
731.179, 4403.933
732.472, 4668.339
733.766, 5017.483
735.059, 5302.133
736.352, 5494.787
737.645, 5753.444
738.937, 6067.105
740.230, 7270.771
741.522, 7038.445
742.814, 7772.125
744.106, 8397.812
745.397, 8339.507
746.689, 8799.212
747.980, 9551.927
749.271, 9742.670
750.562, 10522.442
751.853, 10678.251
753.143, 11142.094
754.433, 11119.967
755.723, 10990.751
757.013, 10971.804
758.303, 10297.763
759.592, 9910.741
760.881, 9276.738
762.170, 8975.753
763.459, 8220.785
764.748, 7670.842
766.036, 7387.916
767.325, 7162.015
768.613, 6575.139
769.901, 6131.283
771.188, 6022.452
772.476, 6136.652
773.763, 5960.875
775.050, 6305.129
776.337, 6626.417
777.624, 6919.730
778.910, 7223.888
780.196, 7735.951
781.482, 7661.516
782.768, 7566.199
784.054, 7260.774
785.339, 6857.455
786.625, 6132.747
787.910, 5685.104
789.195, 5057.930
790.479, 4602.896
791.764, 4164.585
793.048, 3803.546
794.332, 3716.024
795.616, 3454.277
796.900, 3468.156
798.183, 3187.661
799.467, 3227.185
800.750, 3196.585
802.033, 3164.911
803.316, 3348.354
804.598, 3357.796
805.880, 3567.906
807.163, 3665.934
808.445, 3689.188
809.726, 3837.181
811.008, 3992.559
812.289, 4250.583
813.570, 4427.702
814.851, 4835.829
816.132, 5382.092
817.413, 5883.359
818.693, 6650.550
819.973, 7687.600
821.253, 8685.558
822.533, 10115.985
823.813, 11584.145
825.092, 13776.950
826.371, 16095.736
827.650, 19171.650
828.929, 22863.516
830.208, 27181.799
831.486, 31698.994
832.764, 35860.254
834.042, 40605.113
835.320, 43320.863
836.598, 46320.887
837.875, 48120.984
839.152, 50209.152
840.429, 53116.395
841.706, 53568.699
842.983, 54220.090
844.259, 52828.555
845.536, 48365.086
846.812, 44395.695
848.088, 39319.367
849.363, 36002.117
850.639, 33472.938
851.914, 31346.826
853.189, 31143.795
854.464, 32029.848
855.739, 34245.973
857.013, 36541.176
858.288, 39151.465
859.562, 42525.828
860.836, 44733.281
862.110, 44072.812
863.383, 43452.430
864.656, 39786.117
865.930, 35744.871
867.203, 31159.709
868.475, 26751.619
869.748, 22537.604
871.020, 19713.674
872.292, 16982.818
873.564, 14889.047
874.836, 13506.353
876.108, 12121.749
877.379, 11445.227
878.650, 10298.793
879.922, 9324.447
881.192, 8203.186
882.463, 7438.007
883.733, 6475.912
885.004, 5781.894
886.274, 5179.963
887.544, 4786.119
888.813, 4291.358
890.083, 3977.679
891.352, 3663.079
892.621, 3332.274
893.890, 3182.116
895.159, 2865.751
896.427, 2664.462
897.695, 2607.250
898.964, 2434.118
900.232, 2265.062
901.499, 2171.082
902.767, 2023.179
904.034, 1934.353
905.301, 1846.603
906.568, 1863.931
907.835, 1844.334
909.102, 1814.813
910.368, 1745.442
911.634, 1814.836
912.900, 1766.626
914.166, 1839.507
915.432, 1804.560
916.697, 1653.536
917.962, 1835.548
919.227, 1766.850
920.492, 1899.478
921.757, 1877.745
923.021, 1999.737
924.285, 2125.489
925.550, 2359.026
926.813, 2539.558
928.077, 3029.252
929.341, 3465.989
930.604, 3973.563
931.867, 4171.053
933.130, 4320.699
934.393, 4256.176
935.655, 3655.128
936.918, 3402.698
938.180, 2969.509
939.442, 2799.358
940.703, 2619.684
941.965, 2432.548
943.226, 2391.618
944.488, 2258.643
945.749, 2365.936
947.009, 2389.100
948.270, 2450.161
949.530, 2610.299
950.791, 3010.990
952.051, 3339.183
953.311, 3794.332
954.570, 4613.164
955.830, 5278.094
957.089, 6305.524
958.348, 7379.868
959.607, 8810.436
960.866, 10458.962
962.124, 11895.842
963.383, 13423.830
964.641, 14173.982
965.899, 14063.001
967.156, 12847.036
968.414, 11029.714
969.671, 9273.612
970.928, 7433.425
972.185, 6051.671
973.442, 4865.035
974.699, 4030.516
975.955, 3343.101
977.211, 2740.788
978.468, 2459.556
979.723, 2044.792
980.979, 1806.746
982.234, 1657.484
983.490, 1326.621
984.745, 1257.970
986.000, 1139.793
987.254, 951.274
988.509, 873.872
989.763, 775.269
991.017, 816.701
992.271, 655.029
993.525, 688.033
994.779, 681.254
996.032, 619.410
997.285, 591.579
998.538, 500.458
999.791, 611.251
1001.044, 524.281
1002.296, 479.358
1003.548, 574.332
1004.800, 506.073
1006.052, 512.033
1007.304, 507.891
1008.555, 491.017
1009.807, 486.581
1011.058, 488.848
1012.309, 474.452
1013.559, 444.062
1014.810, 463.191
1016.060, 411.705
1017.310, 473.114
1018.560, 353.563
1019.810, 454.053
1021.060, 412.030
1022.309, 419.374
1023.558, 390.903
1024.807, 424.318
1026.056, 423.137
1027.305, 367.270
1028.553, 337.990
1029.801, 301.076
1031.049, 262.324
1032.297, 301.927
1033.545, 333.825
1034.793, 317.759
1036.040, 351.138
1037.287, 295.731
1038.534, 360.682
1039.781, 417.806
1041.027, 319.450
1042.274, 330.719
1043.520, 320.176
1044.766, 263.378
1046.012, 234.625
1047.257, 147.034
1048.503, 181.678
1049.748, 91.992
1050.993, 192.407
1052.238, 109.773
1053.483, 27.164
1054.727, 106.582
1055.971, 33.023
1057.216, 36.485
1058.459, 73.970
1059.703, 2.525
1060.947, 43.002
1062.190, 3.469
1063.433, 4.918
1064.676, 12.351
1065.919, 49.769
1067.162, 47.819
1068.404, 53.576
1069.646, 59.970
1070.888, 3.636
1072.130, 31.742
1073.372, 80.117
1074.613, 13.502
1075.855, 61.881
1077.096, 68.269
1078.337, 38.666
1079.578, 82.067
1080.818, 98.482
1082.059, 117.925
1083.299, 69.404
1084.539, 96.901
1085.779, 105.427
1087.018, 42.985
1088.258, 83.553
1089.497, 69.149
1090.736, 75.767
1091.975, 84.414
1093.213, 100.094
1094.452, 71.818
1095.690, 102.574
1096.928, 78.375
1098.166, 75.696
1099.404, 100.092
1100.642, 87.021
1101.879, 63.980
1103.116, 124.967
1104.353, 33.016
1105.590, 110.082
1106.827, 70.213
1108.063, 104.374
1109.299, 99.599
1110.536, 49.888
1111.771, 65.215
1113.007, 46.584
1114.243, 21.982
1115.478, 87.397
1116.713, 7.879
1117.948, 10.623
1119.183, 2.895
1120.418, 147.556
1121.652, 254.997
1122.886, 323.422
1124.120, 233.846
1125.354, 223.251
1126.588, 71.640
1127.821, 15.011
1129.055, 25.351
1130.288, 21.336
1131.521, 61.927
1132.753, 56.169
1133.986, 44.395
1135.218, 60.591
1136.450, 31.764
1137.682, 43.223
1138.914, 72.003
1140.146, 49.080
1141.377, 36.122
1142.609, 35.123
1143.840, 66.082
1145.071, 70.014
1146.301, 88.417
1147.532, 116.784
1148.762, 90.625
1149.992, 93.441
1151.222, 23.226
1152.452, 76.951
1153.682, 74.638
1154.911, 34.285
1156.140, 77.873
1157.369, 54.419
1158.598, 27.913
1159.827, 108.343
1161.055, 54.734
1162.284, 98.070
1163.512, 127.363
1164.740, 431.728
1165.967, 207.663
1167.195, 302.984
1168.422, 64.949
1169.650, 115.232
1170.877, 82.471
1172.103, 121.053
1173.330, 57.470
1174.557, 104.050
1175.783, 90.277
1177.009, 59.744
1178.235, 110.860
1179.461, 138.304
1180.686, 97.957
1181.912, 202.790
1183.137, 91.581
1184.362, 117.645
1185.587, 109.648
1186.811, 141.367
1188.036, 166.824
1189.260, 142.901
1190.484, 186.532
1191.708, 281.476
1192.932, 227.788
1194.155, 209.166
1195.378, 196.071
1196.602, 295.503
1197.825, 229.381
1199.047, 336.827
1200.270, 404.432
1201.492, 414.474
1202.715, 355.957
1203.937, 384.069
1205.159, 355.406
1206.380, 407.353
1207.602, 444.190
1208.823, 463.639
1210.044, 488.672
1211.265, 452.384
1212.486, 496.204
1213.707, 468.073
1214.927, 432.967
1216.147, 538.099
1217.367, 552.372
1218.587, 540.436
1219.807, 546.936
1221.027, 554.905
1222.246, 564.669
1223.465, 551.890
1224.684, 646.890
1225.903, 567.601
1227.121, 622.783
1228.340, 641.821
1229.558, 601.117
1230.776, 637.230
1231.994, 634.375
1233.212, 640.403
1234.429, 657.021
1235.646, 656.291
1236.864, 654.485
1238.081, 637.794
1239.297, 637.591
1240.514, 656.183
1241.730, 632.159
1242.947, 613.626
1244.163, 625.027
1245.378, 718.652
1246.594, 675.477
1247.810, 716.641
1249.025, 669.581
1250.240, 708.186
1251.455, 692.230
1252.670, 625.683
1253.885, 652.378
1255.099, 653.017
1256.313, 563.058
1257.527, 592.471
1258.741, 606.659
1259.955, 599.704
1261.168, 633.015
1262.382, 612.818
1263.595, 606.035
1264.808, 592.648
1266.021, 617.416
1267.233, 558.082
1268.446, 615.353
1269.658, 536.144
1270.870, 613.235
1272.082, 609.750
1273.294, 547.109
1274.505, 627.393
1275.716, 582.281
1276.928, 529.914
1278.139, 602.222
1279.349, 571.675
1280.560, 591.307
1281.770, 667.992
1282.981, 524.751
1284.191, 618.724
1285.401, 596.177
1286.610, 535.717
1287.820, 593.726
1289.029, 502.498
1290.239, 477.886
1291.448, 483.674
1292.656, 517.968
1293.865, 484.898
1295.073, 460.141
1296.282, 363.876
1297.490, 434.714
1298.698, 372.839
1299.906, 415.755
1301.113, 310.552
1302.320, 348.219
1303.528, 317.787
1304.735, 300.788
1305.942, 310.999
1307.148, 276.007
1308.355, 267.227
1309.561, 235.575
1310.767, 231.750
1311.973, 203.870
1313.179, 187.939
1314.384, 212.506
1315.590, 174.691
1316.795, 160.643
1318.000, 155.656
1319.205, 127.229
1320.410, 159.426
1321.614, 124.001
1322.819, 152.129
1324.023, 111.259
1325.227, 91.977
1326.431, 76.633
1327.634, 38.667
1328.838, 117.224
1330.041, 115.526
1331.244, 139.412
1332.447, 73.063
1333.650, 91.152
1334.852, 104.573
1336.055, 2.768
1337.257, 65.180
1338.459, 58.485
1339.661, 79.586
1340.862, 113.391
1342.064, 72.481
1343.265, 98.429
1344.466, 80.379
1345.667, 52.259
1346.868, 79.066
1348.068, 106.804
1349.269, 79.471
1350.469, 111.066
1351.669, 107.590
1352.869, 72.044
1354.069, 80.433
1355.268, 85.756
1356.468, 70.017
1357.667, 72.214
1358.866, 67.355
1360.065, 124.436
1361.263, 67.466
1362.462, 40.445
1363.660, 119.368
1364.858, 85.243
1366.056, 119.079
1367.254, 115.870
1368.451, 89.626
1369.649, 142.352
1370.846, 18.047
1372.043, 127.719
1373.240, 61.383
1374.436, 119.048
1375.633, 48.713
1376.829, 20.393
1378.025, 28.102
1379.221, 49.845
1380.417, 24.654
1381.613, 50.687
1382.808, 43.637
1384.003, 63.005
1385.199, 58.307
1386.393, 30.613
1387.588, 47.921
1388.783, 28.197
1389.977, 56.458
1391.171, 44.287
1392.365, 20.015
1393.559, 10.749
1394.753, 18.545
1395.946, 46.634
1397.140, 50.250
1398.333, 27.793
1399.526, 9.735
1400.719, 4.396
1401.911, 17.584
1403.104, 48.815
1404.296, 50.334
1405.488, 10.503
1406.680, 41.915
1407.872, 3.376
1409.063, 50.123
1410.255, 8.439
1411.446, 63.934
1412.637, 44.739
1413.828, 83.564
1415.018, 14.857
1416.209, 23.147
1417.399, 0.425
1418.589, 4.462
1419.779, 12.867
1420.969, 5.756
1422.159, 20.167
1423.348, 4.346
1424.537, 32.933
1425.726, 10.347
1426.915, 21.091
1428.104, 48.915
1429.293, 84.430
1430.481, 46.385
1431.669, 40.879
1432.857, 23.226
1434.045, 41.337
1435.233, 5.544
1436.420, 88.849
1437.608, 21.582
1438.795, 62.102
1439.982, 59.655
1441.169, 43.133
1442.355, 37.195
1443.542, 91.995
1444.728, 48.345
1445.914, 53.564
1447.100, 103.190
1448.286, 37.787
1449.472, 87.396
1450.657, 136.510
1451.842, 161.561
1453.027, 178.066
1454.212, 101.556
1455.397, 143.861
1456.581, 105.714
1457.766, 202.245
1458.950, 139.234
1460.134, 207.384
1461.318, 183.066
1462.501, 199.651
1463.685, 196.775
1464.868, 194.851
1466.051, 180.681
1467.234, 198.163
1468.417, 170.794
1469.600, 204.729
1470.782, 256.479
1471.965, 249.740
1473.147, 240.292
1474.329, 259.811
1475.510, 264.474
1476.692, 254.935
1477.873, 274.152
1479.055, 246.772
1480.236, 346.465
1481.416, 356.696
1482.597, 348.686
1483.778, 416.812
1484.958, 373.056
1486.138, 338.784
