##NAMES=Humite
##RRUFFID=R050665
##IDEAL CHEMISTRY=Mg_7_(SiO_4_)_3_(F,OH)_2_
##LOCALITY=Tilly Foster mine, Brewster, Putnam County, New York, USA
##OWNER=RRUFF
##SOURCE=University of Arizona Mineral Museum
##DESCRIPTION=Granular aggregate of reddish-orange crystals
##STATUS=The identification of this mineral has been confirmed by X-ray diffraction and chemical analysis
##URL=rruff.info/R050665
##MEASURED CHEMISTRY=(Mg_0.91_Fe^2+^_0.09_)_7_(Si_1.00_O_4_)_3_(F_0.56_(OH)_0.44_)_2_
##PIN_ID=M01318
##ORIENTATION=Laser parallel to c* (0 0 1). Fiducial mark perpendicular to laser is parallel to -a [-1 0 0]
159.3390, 0.0000000E+00
160.5690, 66.47290
161.8000, 0.1533200
163.0300, 129.5168
164.2600, 105.7427
165.4900, 61.01953
166.7200, 38.19678
167.9500, 12.84546
169.1790, 35.64062
170.4080, 13.93506
171.6380, 45.23364
172.8670, 1.941650
174.0950, 16.17920
175.3240, 10.43506
176.5520, 55.19873
177.7810, 0.9367680
179.0090, 52.13916
180.2370, 24.40723
181.4640, 116.8484
182.6920, 52.44604
183.9190, 107.1853
185.1460, 26.05298
186.3730, 130.0376
187.6000, 99.12891
188.8270, 113.3191
190.0530, 220.6096
191.2800, 144.0273
192.5060, 183.5752
193.7320, 207.2378
194.9580, 227.0010
196.1830, 251.8533
197.4090, 218.7832
198.6340, 170.7812
199.8590, 206.8401
201.0840, 207.9529
202.3090, 229.1147
203.5340, 222.3213
204.7580, 155.5686
205.9820, 155.8533
207.2060, 77.17285
208.4300, 127.5247
209.6540, 104.9067
210.8780, 111.3174
212.1010, 97.75439
213.3240, 76.57080
214.5470, 122.7097
215.7700, 64.22412
216.9930, 80.76050
218.2150, 147.3179
219.4380, 156.9729
220.6600, 221.8694
221.8820, 112.0969
223.1040, 151.4275
224.3260, 133.8181
225.5470, 144.1865
226.7680, 182.5356
227.9900, 201.8669
229.2110, 153.1819
230.4310, 193.4819
231.6520, 187.7683
232.8720, 206.0403
234.0930, 221.2898
235.3130, 255.5195
236.5330, 246.5120
237.7530, 203.9346
238.9720, 228.1238
240.1920, 255.3035
241.4110, 235.4717
242.6300, 283.6338
243.8490, 330.7910
245.0680, 240.9443
246.2860, 268.0952
247.5040, 256.2441
248.7230, 226.5647
249.9410, 188.5381
251.1590, 226.6846
252.3760, 227.8308
253.5940, 281.9775
254.8110, 269.2690
256.0280, 193.2732
257.2450, 256.4229
258.4620, 243.5735
259.6790, 239.9214
260.8950, 385.8818
262.1120, 246.0396
263.3280, 173.2000
264.5440, 261.3635
265.7600, 183.5430
266.9750, 254.7126
268.1910, 159.9902
269.4060, 127.1675
270.6210, 148.3501
271.8360, 101.5391
273.0510, 159.7346
274.2650, 104.9373
275.4800, 150.1484
276.6940, 105.4763
277.9080, 183.2463
279.1220, 229.3772
280.3360, 242.0249
281.5490, 126.8894
282.7630, 184.8604
283.9760, 164.6702
285.1890, 142.6892
286.4020, 218.3457
287.6150, 114.8440
288.8270, 184.2612
290.0400, 184.0669
291.2520, 167.8809
292.4640, 187.8743
293.6760, 164.8789
294.8870, 134.8926
296.0990, 143.9150
297.3100, 130.9441
298.5210, 143.9802
299.7320, 149.0227
300.9430, 92.07129
302.1540, 173.1255
303.3640, 214.1851
304.5750, 180.2498
305.7850, 220.1550
306.9950, 178.9468
308.2050, 241.6252
309.4140, 277.4961
310.6240, 265.3962
311.8330, 260.3252
313.0420, 325.2786
314.2510, 351.2412
315.4600, 331.2300
316.6680, 427.2434
317.8770, 386.2800
319.0850, 405.3032
320.2930, 398.3813
321.5010, 439.2351
322.7090, 436.3494
323.9160, 388.4719
325.1240, 435.6177
326.3310, 356.7781
327.5380, 406.9519
328.7450, 372.1384
329.9520, 367.3369
331.1580, 369.5471
332.3650, 267.7681
333.5710, 351.9993
334.7770, 271.2400
335.9830, 224.4902
337.1880, 283.7490
338.3940, 283.0156
339.5990, 277.2896
340.8040, 285.5703
342.0090, 277.8579
343.2140, 292.1511
344.4190, 304.4502
345.6230, 253.7542
346.8280, 198.0630
348.0320, 175.3767
349.2360, 181.6948
350.4400, 166.0415
351.6430, 167.1729
352.8470, 185.6758
354.0500, 173.0144
355.2530, 193.3564
356.4560, 201.7095
357.6590, 175.5654
358.8620, 143.4526
360.0640, 127.8350
361.2660, 107.2231
362.4680, 90.61475
363.6700, 83.01489
364.8720, 77.86450
366.0740, 20.82349
367.2750, 85.22803
368.4760, 51.64233
369.6770, 64.06079
370.8780, 7.477539
372.0790, 45.90259
373.2800, 12.36133
374.4800, 0.1752930
375.6800, 18.29980
376.8800, 69.80322
378.0800, 43.33008
379.2800, 51.88135
380.4790, 83.44434
381.6790, 83.02246
382.8780, 108.6040
384.0770, 129.2041
385.2760, 61.83521
386.4750, 107.4849
387.6730, 119.1594
388.8720, 84.84912
390.0700, 105.5447
391.2680, 90.26782
392.4660, 42.02148
393.6630, 1.220459
394.8610, 7.441895
396.0580, 55.63916
397.2550, 36.16675
398.4520, 10.00488
399.6490, 50.13403
400.8460, 28.26221
402.0420, 82.39526
403.2390, 80.53784
404.4350, 57.68604
405.6310, 12.85474
406.8270, 8.984375
408.0220, 28.18140
409.2180, 54.64771
410.4130, 16.52612
411.6080, 33.70508
412.8030, 12.90088
413.9980, 87.89307
415.1920, 86.68213
416.3870, 100.4670
417.5810, 107.2468
418.7750, 92.02124
419.9690, 227.7905
421.1630, 289.5540
422.3570, 295.3062
423.5500, 280.0322
424.7430, 295.7346
425.9360, 432.3918
427.1290, 402.9958
428.3220, 348.5872
429.5150, 485.1616
430.7070, 388.8152
431.8990, 260.2444
433.0910, 306.7742
434.2830, 218.2981
435.4750, 165.8164
436.6670, 201.3289
437.8580, 142.8354
439.0490, 146.3352
440.2400, 152.8289
441.4310, 148.3162
442.6220, 197.7964
443.8130, 131.2700
445.0030, 212.7368
446.1930, 276.1960
447.3830, 270.6487
448.5730, 227.0935
449.7630, 245.5317
450.9520, 243.9641
452.1420, 199.3906
453.3310, 231.8101
454.5200, 202.2224
455.7090, 212.9580
456.8980, 257.0254
458.0860, 225.4155
459.2740, 263.7974
460.4630, 253.1714
461.6510, 266.5374
462.8380, 264.8945
464.0260, 218.2432
465.2140, 246.5840
466.4010, 308.9158
467.5880, 271.2383
468.7750, 290.5513
469.9620, 328.8545
471.1490, 255.1479
472.3350, 313.4314
473.5220, 301.7048
474.7080, 285.9683
475.8940, 284.2209
477.0800, 291.4629
478.2650, 319.6946
479.4510, 323.9153
480.6360, 360.1245
481.8210, 374.3230
483.0060, 427.5100
484.1910, 395.6853
485.3760, 452.8494
486.5600, 357.0017
487.7440, 421.1423
488.9290, 417.2710
490.1130, 427.3877
491.2960, 444.4922
492.4800, 395.6858
493.6630, 476.9133
494.8470, 411.9805
496.0300, 426.8152
497.2130, 393.9558
498.3960, 423.6804
499.5780, 484.4189
500.7610, 408.9690
501.9430, 454.1030
503.1250, 398.7605
504.3070, 381.9983
505.4890, 352.2852
506.6710, 391.5503
507.8520, 395.7351
509.0330, 304.8105
510.2140, 349.0908
511.3950, 334.1941
512.5760, 340.1182
513.7570, 386.0693
514.9370, 419.1816
516.1170, 402.2620
517.2980, 442.1582
518.4780, 409.9055
519.6570, 458.3442
520.8370, 438.1714
522.0160, 539.8118
523.1960, 567.2217
524.3750, 617.0166
525.5540, 633.2168
526.7320, 687.3877
527.9110, 728.6958
529.0890, 813.4736
530.2680, 826.7690
531.4460, 798.0864
532.6240, 895.3306
533.8010, 838.4875
534.9790, 837.3420
536.1560, 828.2158
537.3340, 828.8047
538.5110, 801.6929
539.6880, 810.1133
540.8650, 773.3682
542.0410, 739.9246
543.2180, 784.7952
544.3940, 650.4292
545.5700, 694.1484
546.7460, 635.5562
547.9220, 622.3271
549.0970, 635.5422
550.2730, 534.2173
551.4480, 504.5386
552.6230, 549.4460
553.7980, 546.9785
554.9730, 508.8777
556.1470, 477.9658
557.3210, 452.0845
558.4960, 528.1240
559.6700, 578.1389
560.8440, 521.1294
562.0170, 496.0955
563.1910, 476.0371
564.3640, 461.6001
565.5380, 486.8467
566.7110, 468.7148
567.8840, 497.5588
569.0560, 521.3789
570.2290, 432.1746
571.4010, 508.9468
572.5740, 481.6948
573.7460, 538.4192
574.9180, 533.1199
576.0890, 581.7969
577.2610, 636.4497
578.4320, 650.0789
579.6040, 678.6841
580.7750, 709.2656
581.9450, 695.8232
583.1160, 835.3572
584.2870, 754.8674
585.4570, 844.3538
586.6270, 823.8164
587.7980, 793.2554
588.9670, 883.6709
590.1370, 909.0620
591.3070, 954.4297
592.4760, 1053.774
593.6450, 1137.094
594.8140, 1324.391
595.9830, 1476.664
597.1520, 1559.914
598.3210, 1763.140
599.4890, 1807.343
600.6570, 1995.522
601.8250, 2124.677
602.9930, 2138.809
604.1610, 2199.918
605.3290, 2087.004
606.4960, 1939.066
607.6630, 1743.105
608.8300, 1665.121
609.9970, 1435.113
611.1640, 1284.083
612.3300, 1082.029
613.4970, 1064.953
614.6630, 902.8538
615.8290, 812.7314
616.9950, 697.5864
618.1610, 574.4189
619.3260, 561.2285
620.4920, 460.0159
621.6570, 485.7805
622.8220, 415.5225
623.9870, 362.2422
625.1520, 384.9399
626.3160, 353.6150
627.4810, 357.2686
628.6450, 307.8279
629.8090, 234.5090
630.9730, 212.0967
632.1370, 121.6621
633.3000, 109.2051
634.4640, 160.7251
635.6270, 49.22363
636.7900, 116.6931
637.9530, 20.14062
639.1160, 0.5502930
640.2780, 55.91357
641.4410, 31.25098
642.6030, 46.55566
643.7650, 73.83301
644.9270, 23.08716
646.0890, 64.30762
647.2500, 70.50391
648.4120, 83.67773
649.5730, 0.1704100
650.7340, 20.93872
651.8950, 104.0159
653.0560, 2.072510
654.2160, 96.91089
655.3770, 16.01440
656.5370, 17.09253
657.6970, 78.24707
658.8570, 58.48169
660.0170, 65.78516
661.1760, 16.16138
662.3360, 29.58301
663.4950, 11.94336
664.6540, 44.55957
665.8130, 93.12109
666.9720, 48.76611
668.1310, 73.47021
669.2890, 35.24609
670.4470, 5.072754
671.6050, 84.93335
672.7630, 100.8694
673.9210, 1.888184
675.0790, 70.93750
676.2360, 90.05054
677.3930, 65.23535
678.5510, 112.4651
679.7080, 80.77979
680.8640, 92.16113
682.0210, 13.60034
683.1770, 50.06055
684.3340, 67.54565
685.4900, 28.93555
686.6460, 52.57983
687.8020, 21.86279
688.9570, 22.70801
690.1130, 5.701660
691.2680, 18.90356
692.4230, 40.47241
693.5780, 3.848389
694.7330, 55.21704
695.8880, 9.574463
697.0420, 96.91992
698.1960, 98.25464
699.3510, 88.57837
700.5040, 159.8918
701.6580, 149.1953
702.8120, 180.4888
703.9650, 222.7727
705.1190, 233.4634
706.2720, 270.3123
707.4250, 297.5693
708.5780, 298.8171
709.7300, 354.0571
710.8830, 377.2891
712.0350, 388.5132
713.1870, 405.7300
714.3390, 514.9395
715.4910, 493.1421
716.6430, 588.3379
717.7940, 622.5276
718.9460, 671.7104
720.0970, 707.8879
721.2480, 852.0591
722.3990, 901.2253
723.5500, 1025.386
724.7000, 1025.542
725.8500, 1067.693
727.0010, 1191.840
728.1510, 1312.982
729.3010, 1263.121
730.4500, 1396.256
731.6000, 1481.388
732.7490, 1568.516
733.8980, 1623.641
735.0470, 1765.764
736.1960, 1896.885
737.3450, 1952.004
738.4940, 2148.121
739.6420, 2217.237
740.7900, 2345.351
741.9380, 2524.465
743.0860, 2765.577
744.2340, 2829.690
745.3810, 3240.803
746.5290, 3377.917
747.6760, 3747.030
748.8230, 4011.146
749.9700, 4152.262
751.1170, 4295.379
752.2630, 4529.500
753.4100, 4595.621
754.5560, 4523.746
755.7020, 4621.872
756.8480, 4567.001
757.9940, 4386.136
759.1390, 4151.272
760.2850, 3947.413
761.4300, 3769.559
762.5750, 3513.707
763.7200, 3256.862
764.8650, 2997.021
766.0100, 2829.185
767.1540, 2524.354
768.2980, 2408.529
769.4420, 2187.710
770.5860, 2040.797
771.7300, 1894.843
772.8740, 1834.043
774.0170, 1812.470
775.1610, 1872.587
776.3040, 1847.113
777.4470, 1872.621
778.5900, 2011.311
779.7320, 1949.413
780.8750, 2002.985
782.0170, 2061.975
783.1590, 2044.909
784.3010, 1940.861
785.4430, 1807.898
786.5850, 1712.042
787.7260, 1555.975
788.8680, 1394.090
790.0090, 1283.380
791.1500, 1161.640
792.2910, 1009.753
793.4310, 1001.901
794.5720, 915.1567
795.7120, 865.6375
796.8520, 761.4395
797.9920, 732.8511
799.1320, 660.4463
800.2720, 590.2944
801.4120, 735.7683
802.5510, 671.8420
803.6900, 649.9590
804.8290, 690.9382
805.9680, 649.4597
807.1070, 839.4678
808.2450, 807.4526
809.3840, 818.5366
810.5220, 1002.707
811.6600, 998.1782
812.7980, 1094.408
813.9360, 1185.542
815.0730, 1242.343
816.2110, 1478.290
817.3480, 1584.336
818.4850, 1973.775
819.6220, 2155.250
820.7590, 2543.540
821.8960, 2908.837
823.0320, 3541.856
824.1680, 4086.309
825.3040, 4848.379
826.4400, 5693.929
827.5760, 6803.022
828.7120, 7872.025
829.8470, 9404.304
830.9830, 10913.50
832.1180, 12538.83
833.2530, 14177.14
834.3880, 15392.55
835.5220, 16199.98
836.6570, 16605.44
837.7910, 16600.93
838.9250, 16596.44
840.0590, 16234.98
841.1930, 15820.55
842.3270, 15616.16
843.4600, 15131.80
844.5940, 14290.49
845.7270, 13148.21
846.8600, 11761.97
847.9930, 10342.75
849.1250, 9170.560
850.2580, 8291.402
851.3900, 7357.271
852.5230, 6718.169
853.6550, 6452.097
854.7870, 6246.055
855.9180, 6169.042
857.0500, 6423.060
858.1810, 6509.106
859.3130, 6826.184
860.4440, 7103.291
861.5750, 7244.428
862.7050, 7081.595
863.8360, 6971.792
864.9660, 6544.019
866.0970, 6157.278
867.2270, 5587.569
868.3570, 4947.904
869.4870, 4410.269
870.6160, 3826.673
871.7460, 3358.109
872.8750, 2928.597
874.0040, 2577.122
875.1330, 2269.596
876.2620, 2113.268
877.3910, 1803.901
878.5190, 1580.565
879.6470, 1424.277
880.7760, 1168.024
881.9040, 1110.820
883.0310, 959.3335
884.1590, 889.5439
885.2870, 784.4780
886.4140, 729.4580
887.5410, 690.4697
888.6680, 530.5342
889.7950, 507.6309
890.9220, 485.7593
892.0480, 566.9204
893.1750, 466.1216
894.3010, 564.3550
895.4270, 469.6343
896.5530, 478.9458
897.6790, 447.2905
898.8040, 418.6748
899.9300, 400.0913
901.0550, 272.5391
902.1800, 296.0269
903.3050, 210.5464
904.4300, 322.0986
905.5540, 177.6826
906.6790, 208.2988
907.8030, 378.9478
908.9270, 313.6284
910.0510, 431.3452
911.1750, 437.0947
912.2990, 518.8838
913.4220, 559.7178
914.5450, 656.5859
915.6690, 687.4922
916.7920, 682.4326
917.9140, 603.4072
919.0370, 663.4238
920.1600, 491.2725
921.2820, 341.4829
922.4040, 295.5938
923.5260, 304.2188
924.6480, 189.4102
925.7700, 201.7222
926.8910, 216.7261
928.0130, 219.3325
929.1340, 357.5029
930.2550, 341.0054
931.3760, 325.9004
932.4970, 521.4346
933.6170, 459.0215
934.7380, 425.1582
935.8580, 340.5718
936.9780, 279.7031
938.0980, 230.9927
939.2180, 302.8989
940.3370, 157.6958
941.4570, 251.7671
942.5760, 189.7417
943.6950, 233.8647
944.8140, 191.9331
945.9330, 290.0625
947.0520, 306.3984
948.1700, 316.2241
949.2890, 412.6226
950.4070, 421.9443
951.5250, 514.0874
952.6430, 681.7944
953.7600, 590.5928
954.8780, 589.1177
955.9950, 699.6855
957.1120, 828.2998
958.2290, 736.8750
959.3460, 1035.646
960.4630, 1204.459
961.5800, 1274.200
962.6960, 1603.966
963.8120, 1895.762
964.9280, 1917.583
966.0440, 1971.429
967.1600, 1996.327
968.2760, 1767.032
969.3910, 1680.947
970.5060, 1424.886
971.6210, 1256.848
972.7360, 1057.831
973.8510, 914.8374
974.9660, 747.8652
976.0800, 663.0708
977.1950, 593.7212
978.3090, 506.6875
979.4230, 507.0923
980.5370, 373.2266
981.6500, 319.4248
982.7640, 311.5996
983.8770, 324.7944
984.9900, 307.0088
986.1030, 324.2432
987.2160, 307.4966
988.3290, 268.7695
989.4420, 177.0615
990.5540, 202.3721
991.6660, 242.7012
992.7780, 190.0493
993.8900, 259.4150
995.0020, 258.7988
996.1140, 278.2007
997.2250, 312.7930
998.3360, 356.0566
999.4470, 342.5103
1000.558, 390.3984
1001.669, 374.6050
1002.780, 298.2500
1003.890, 313.2432
1005.001, 312.1841
1006.111, 350.3101
1007.221, 331.2202
1008.331, 309.8018
1009.440, 299.0640
1010.550, 225.1050
1011.659, 239.7295
1012.768, 219.9912
1013.877, 274.5288
1014.986, 209.0732
1016.095, 239.0742
1017.204, 225.7642
1018.312, 229.0581
1019.420, 247.1133
1020.528, 295.8374
1021.636, 301.3188
1022.744, 300.8940
1023.852, 312.9243
1024.959, 284.7192
1026.066, 239.5273
1027.173, 250.3115
1028.280, 241.0591
1029.387, 267.1152
1030.494, 257.0767
1031.600, 119.6094
1032.707, 243.4355
1033.813, 22.26953
1034.919, 156.7642
1036.025, 176.6133
1037.130, 130.4897
1038.236, 50.35254
1039.341, 177.2217
1040.446, 106.0967
1041.552, 95.97803
1042.656, 97.87207
1043.761, 61.76465
1044.866, 62.66260
1045.970, 73.56543
1047.074, 72.47266
1048.179, 121.3853
1049.282, 12.30127
1050.386, 71.22168
1051.490, 3.145508
1052.593, 56.92725
1053.697, 8.014160
1054.800, 70.89990
1055.903, 47.18262
1057.006, 61.72266
1058.108, 58.37012
1059.211, 50.48047
1060.313, 39.60693
1061.415, 27.74365
1062.517, 3.888672
1063.619, 78.03418
1064.721, 2.789063
1065.823, 17.61182
1066.924, 108.5649
1068.025, 61.79199
1069.126, 36.04541
1070.227, 73.31299
1071.328, 1.614746
1072.429, 60.92041
1073.529, 27.25488
1074.629, 67.39648
1075.729, 108.9512
1076.829, 81.64404
1077.929, 7.236816
1079.029, 2.173828
1080.128, 48.59180
1081.228, 55.94775
1082.327, 52.88477
1083.426, 48.02979
1084.525, 21.57275
1085.623, 2.134277
1086.722, 32.29492
1087.820, 21.47705
1088.919, 71.13330
1090.017, 11.45654
1091.115, 5.937500
1092.212, 29.67822
1093.310, 34.67871
1094.407, 26.02832
1095.505, 16.37012
1096.602, 35.70361
1097.699, 98.02979
1098.795, 6.653320
1099.892, 34.35547
1100.989, 44.90771
1102.085, 32.16260
1103.181, 39.40869
1104.277, 58.62939
1105.373, 43.87158
1106.469, 52.08936
1107.564, 1.702637
1108.660, 23.51709
1109.755, 27.36377
1110.850, 17.23535
1111.945, 44.83594
1113.040, 29.91016
1114.134, 100.9722
1115.229, 94.02441
1116.323, 155.0659
1117.417, 57.09668
1118.511, 96.11572
1119.605, 156.1235
1120.698, 141.1196
1121.792, 175.1040
1122.885, 204.0762
1123.978, 246.0361
1125.071, 111.9849
1126.164, 188.9209
1127.257, 104.8447
1128.349, 71.76953
1129.442, 138.6821
1130.534, 101.5815
1131.626, 37.46777
1132.718, 8.663574
1133.810, 51.16748
1134.901, 13.98291
1135.993, 42.77051
1137.084, 35.45898
1138.175, 19.25781
1139.266, 78.94775
1140.357, 38.62354
1141.448, 1.278809
1142.538, 92.89844
1143.628, 16.49609
1144.719, 36.06201
1145.809, 19.40234
1146.898, 25.89502
1147.988, 109.5596
1149.078, 45.00000
1150.167, 8.624023
1151.256, 93.70801
1152.345, 29.97559
1153.434, 76.28467
1154.523, 89.52734
1155.612, 84.77588
1156.700, 17.00830
1157.788, 141.2061
1158.877, 1.401855
1159.964, 73.55615
1161.052, 80.69141
1162.140, 26.80908
1163.227, 118.8955
1164.315, 142.9702
1165.402, 30.02881
1166.489, 103.0576
1167.576, 99.06934
1168.663, 157.0640
1169.749, 149.0430
1170.836, 129.0093
1171.922, 207.9590
1173.008, 107.8911
1174.094, 122.8066
1175.180, 113.7056
1176.265, 216.5874
1177.351, 155.4521
1178.436, 131.3003
1179.521, 167.1309
1180.606, 161.9448
1181.691, 179.7412
1182.776, 195.3262
1183.860, 173.4756
1184.944, 217.0884
1186.029, 194.8164
1187.113, 197.0557
1188.197, 179.7490
1189.280, 220.3359
1190.364, 162.2549
1191.447, 216.6221
1192.531, 217.4443
1193.614, 165.9634
1194.697, 142.1343
1195.779, 198.7046
1196.862, 241.2627
1197.945, 283.2974
1199.027, 245.0854
1200.109, 218.1753
1201.191, 190.1392
1202.273, 183.9268
1203.355, 180.4971
1204.436, 181.3721
1205.518, 211.5757
1206.599, 212.0132
1207.680, 253.4111
1208.761, 312.7930
1209.842, 243.9883
1210.922, 264.8062
1212.003, 221.0171
1213.083, 248.3398
1214.163, 284.8872
1215.243, 314.9087
1216.323, 268.9297
1217.402, 286.1934
1218.482, 357.4419
1219.561, 273.8579
1220.641, 391.1436
1221.720, 278.2603
1222.798, 363.3462
1223.877, 320.5234
1224.956, 274.7246
1226.034, 316.8735
1227.112, 348.0088
1228.191, 298.1299
1229.269, 321.2080
1230.346, 358.4888
1231.424, 385.5679
1232.501, 353.6709
1233.579, 388.7227
1234.656, 437.7603
1235.733, 351.7842
1236.810, 450.7949
1237.886, 423.6362
1238.963, 404.0400
1240.039, 469.1353
1241.116, 366.8003
1242.192, 404.7432
1243.268, 444.6299
1244.343, 462.7847
1245.419, 440.6875
1246.494, 427.5781
1247.570, 399.4561
1248.645, 366.3208
1249.720, 344.1924
1250.795, 412.0312
1251.869, 378.8574
1252.944, 380.6709
1254.018, 357.5195
1255.093, 346.3198
1256.167, 375.1470
1257.240, 441.1533
1258.314, 375.9419
1259.388, 379.6807
1260.461, 334.4062
1261.535, 480.7031
1262.608, 386.6846
1263.681, 394.2686
1264.753, 322.4727
1265.826, 419.7324
1266.899, 365.9316
1267.971, 431.2295
1269.043, 409.8604
1270.115, 402.8359
1271.187, 428.0923
1272.259, 344.6899
1273.330, 333.6533
1274.402, 321.3604
1275.473, 386.0459
1276.544, 398.2773
1277.615, 339.8232
1278.686, 426.7905
1279.756, 454.9746
1280.827, 320.4912
1281.897, 423.2529
1282.967, 315.6470
1284.037, 379.0928
1285.107, 328.5439
1286.177, 372.9839
1287.247, 367.6802
1288.316, 290.1821
1289.385, 345.3765
1290.454, 268.6665
1291.523, 366.4624
1292.592, 239.8901
1293.661, 363.3120
1294.729, 316.2720
1295.797, 336.7212
1296.866, 249.1011
1297.934, 337.5273
1299.001, 290.7959
1300.069, 268.1768
1301.137, 276.5508
1302.204, 236.9116
1303.271, 275.2725
1304.338, 228.6274
1305.405, 214.9761
1306.472, 310.3179
1307.539, 238.6543
1308.605, 272.9839
1309.671, 234.3081
1310.737, 289.6265
1311.803, 169.9404
1312.869, 174.2563
1313.935, 120.5674
1315.000, 167.8730
1316.066, 192.1812
1317.131, 166.4839
1318.196, 118.7915
1319.261, 242.1025
1320.326, 144.4150
1321.390, 164.7271
1322.455, 125.0352
1323.519, 134.3506
1324.583, 74.66113
1325.647, 87.96777
1326.711, 172.2935
