##NAMES=Humite
##RRUFFID=R040071
##IDEAL CHEMISTRY=Mg_7_(SiO_4_)_3_(F,OH)_2_
##LOCALITY=Tilly Foster mine, Brewster, Putnam County, New York, USA
##OWNER=RRUFF
##SOURCE=University of Arizona Mineral Museum
##DESCRIPTION=Red crystals
##STATUS=The identification of this mineral has been confirmed by X-ray diffraction and chemical analysis
##URL=rruff.info/R040071
##MEASURED CHEMISTRY=(Mg_0.91_Fe_0.09_)_7_(Si_0.99_Ti_0.01_O_4_)_3_(F_0.76_(OH)_0.24_)_2_
##PIN_ID=L00333
##ORIENTATION=Laser parallel to -c* (0 0 -1). Fiducial mark perpendicular to laser is parallel to a [1 0 0]
54.966, 0.000
56.365, 23.123
57.765, 100.340
59.164, 51.856
60.563, 81.651
61.962, 96.372
63.360, 139.179
64.758, 118.846
66.157, 143.148
67.554, 121.334
68.952, 211.083
70.349, 261.627
71.747, 280.731
73.144, 194.675
74.540, 184.754
75.937, 107.707
77.333, 55.939
78.729, 4.442
80.125, 18.209
81.521, 3.767
82.916, 1.496
84.311, 5.950
85.706, 43.262
87.101, 5.320
88.496, 29.176
89.890, 6.839
91.284, 81.683
92.678, 156.381
94.071, 90.248
95.465, 190.279
96.858, 129.468
98.251, 126.812
99.644, 173.304
101.036, 173.947
102.428, 187.747
103.820, 156.708
105.212, 223.484
106.604, 210.240
107.995, 333.432
109.387, 234.920
110.777, 249.520
112.168, 271.226
113.559, 225.034
114.949, 288.940
116.339, 441.941
117.729, 439.031
119.119, 497.210
120.508, 345.473
121.897, 285.818
123.286, 359.243
124.675, 356.747
126.063, 356.327
127.452, 378.983
128.840, 381.714
130.228, 443.520
131.615, 427.400
133.003, 462.354
134.390, 455.384
135.777, 507.488
137.164, 571.665
138.550, 646.921
139.937, 643.267
141.323, 707.688
142.709, 706.171
144.094, 717.721
145.480, 706.427
146.865, 716.265
148.250, 692.239
149.635, 688.963
151.019, 719.740
152.403, 676.073
153.788, 696.360
155.171, 709.597
156.555, 697.816
157.939, 625.052
159.322, 692.308
160.705, 685.586
162.088, 765.886
163.470, 760.211
164.853, 796.560
166.235, 805.936
167.617, 792.337
168.998, 751.766
170.380, 734.223
171.761, 800.708
173.142, 734.221
174.523, 788.763
175.904, 774.335
177.284, 754.937
178.664, 768.568
180.044, 761.229
181.424, 761.501
182.803, 813.642
184.183, 785.394
185.562, 829.176
186.940, 887.989
188.319, 958.831
189.698, 1000.705
191.076, 1065.000
192.454, 1128.116
193.831, 1169.527
195.209, 1238.541
196.586, 1272.595
197.963, 1285.689
199.340, 1381.828
200.717, 1305.012
202.093, 1375.242
203.470, 1277.522
204.846, 1370.851
206.221, 1382.230
207.597, 1487.662
208.972, 1544.144
210.347, 1317.677
211.722, 1006.260
213.097, 838.892
214.472, 761.573
215.846, 735.302
217.220, 696.077
218.594, 767.898
219.967, 732.674
221.341, 729.358
222.714, 766.041
224.087, 714.484
225.460, 785.772
226.832, 820.905
228.204, 836.864
229.577, 808.649
230.948, 833.447
232.320, 827.062
233.692, 896.884
235.063, 896.496
236.434, 898.787
237.805, 928.702
239.175, 934.406
240.545, 957.118
241.916, 977.843
243.286, 929.995
244.655, 966.426
246.025, 934.778
247.394, 961.837
248.763, 979.270
250.132, 920.789
251.501, 870.206
252.869, 860.238
254.237, 834.960
255.605, 866.374
256.973, 809.619
258.340, 757.042
259.708, 698.458
261.075, 735.960
262.442, 661.500
263.808, 738.078
265.175, 642.693
266.541, 643.344
267.907, 643.030
269.273, 592.752
270.639, 711.507
272.004, 577.296
273.369, 609.118
274.734, 684.972
276.099, 642.857
277.463, 572.774
278.828, 638.722
280.192, 594.700
281.556, 562.708
282.919, 615.745
284.283, 581.812
285.646, 584.907
287.009, 570.030
288.372, 530.180
289.734, 544.359
291.097, 517.564
292.459, 480.797
293.821, 527.055
295.183, 530.340
296.544, 517.650
297.905, 485.985
299.266, 494.345
300.627, 470.729
301.988, 507.139
303.348, 517.013
304.709, 591.027
306.069, 579.506
307.428, 657.008
308.788, 716.532
310.147, 808.077
311.507, 811.644
312.865, 886.231
314.224, 915.836
315.583, 918.461
316.941, 1025.104
318.299, 1065.771
319.657, 1106.461
321.015, 1188.202
322.372, 1159.995
323.729, 1191.851
325.086, 1129.762
326.443, 1120.734
327.800, 1002.778
329.156, 1072.882
330.512, 905.053
331.868, 913.289
333.224, 824.599
334.579, 867.980
335.935, 792.432
337.290, 805.960
338.645, 751.561
339.999, 656.241
341.354, 641.991
342.708, 640.825
344.062, 700.741
345.416, 717.718
346.769, 676.771
348.123, 655.896
349.476, 656.086
350.829, 614.339
352.182, 589.667
353.534, 618.047
354.887, 575.482
356.239, 505.942
357.591, 482.044
358.942, 489.948
360.294, 364.492
361.645, 378.068
362.996, 309.668
364.347, 297.280
365.698, 282.903
367.048, 289.538
368.398, 233.182
369.748, 231.638
371.098, 202.500
372.448, 197.173
373.797, 140.855
375.146, 127.545
376.495, 143.244
377.844, 129.950
379.192, 134.663
380.540, 140.383
381.889, 99.109
383.236, 71.843
384.584, 117.579
385.932, 24.318
387.279, 33.062
388.626, 73.809
389.973, 52.562
391.319, 9.319
392.666, 3.917
394.012, 34.151
395.358, 107.389
396.704, 89.663
398.049, 97.964
399.394, 33.295
400.740, 93.629
402.084, 127.991
403.429, 195.400
404.774, 71.889
406.118, 96.396
407.462, 98.927
408.806, 47.488
410.150, 23.053
411.493, 27.385
412.836, 120.836
414.179, 173.310
415.522, 235.795
416.865, 351.296
418.207, 427.806
419.549, 525.321
420.891, 677.841
422.233, 814.365
423.575, 942.893
424.916, 1068.424
426.257, 1201.958
427.598, 1286.495
428.939, 1208.034
430.279, 1254.576
431.619, 1038.119
432.959, 981.664
434.299, 814.209
435.639, 783.756
436.978, 653.304
438.318, 573.852
439.657, 496.400
440.996, 573.948
442.334, 528.496
443.673, 616.043
445.011, 642.590
446.349, 706.135
447.687, 694.678
449.024, 749.220
450.361, 672.760
451.699, 721.298
453.036, 624.833
454.372, 544.366
455.709, 607.896
457.045, 532.423
458.381, 544.946
459.717, 497.466
461.053, 444.981
462.388, 466.493
463.724, 536.000
465.059, 549.503
466.394, 497.002
467.728, 545.495
469.063, 538.983
470.397, 547.465
471.731, 556.942
473.065, 623.413
474.398, 612.878
475.732, 716.336
477.065, 734.789
478.398, 754.868
479.731, 828.196
481.063, 888.532
482.396, 939.667
483.728, 1011.116
485.060, 1119.423
486.391, 1059.107
487.723, 1147.425
489.054, 1096.235
490.385, 1168.369
491.716, 1265.010
493.047, 1231.986
494.377, 1204.415
495.708, 1329.677
497.038, 1309.281
498.368, 1334.035
499.697, 1327.391
501.027, 1349.588
502.356, 1346.071
503.685, 1383.260
505.014, 1342.396
506.342, 1358.352
507.671, 1374.733
508.999, 1319.296
510.327, 1342.045
511.655, 1304.499
512.982, 1259.877
514.310, 1365.769
515.637, 1256.448
516.964, 1414.308
518.291, 1374.869
519.617, 1521.489
520.944, 1603.944
522.270, 1600.665
523.596, 1843.437
524.921, 1946.178
526.247, 2080.887
527.572, 2228.565
528.897, 2321.211
530.222, 2545.825
531.547, 2533.407
532.871, 2749.958
534.196, 2673.476
535.520, 2592.962
536.844, 2655.416
538.167, 2537.837
539.491, 2478.227
540.814, 2372.583
542.137, 2295.908
543.460, 2275.200
544.783, 2243.460
546.105, 2108.687
547.427, 2169.882
548.749, 1973.044
550.071, 1852.174
551.393, 1723.271
552.714, 1649.181
554.035, 1519.089
555.356, 1468.451
556.677, 1429.690
557.998, 1389.423
559.318, 1442.167
560.638, 1441.000
561.958, 1460.845
563.278, 1356.409
564.597, 1380.176
565.917, 1287.604
567.236, 1128.834
568.555, 1152.617
569.874, 1035.395
571.192, 1030.023
572.511, 1102.623
573.829, 1063.192
575.147, 1080.731
576.464, 1178.241
577.782, 1226.721
579.099, 1313.172
580.416, 1368.267
581.733, 1456.982
583.050, 1473.344
584.366, 1532.675
585.683, 1580.977
586.999, 1587.250
588.315, 1584.492
589.630, 1883.706
590.946, 1906.890
592.261, 2184.044
593.576, 2453.170
594.891, 2700.267
596.206, 3138.333
597.520, 3538.371
598.834, 3962.380
600.148, 4335.361
601.462, 4639.313
602.776, 5027.234
604.089, 5010.128
605.402, 5028.994
606.715, 4777.830
608.028, 4561.639
609.341, 4065.419
610.653, 3500.171
611.965, 3011.895
613.277, 2600.592
614.589, 2203.260
615.901, 1871.901
617.212, 1610.515
618.523, 1387.101
619.834, 1213.661
621.145, 1043.193
622.456, 869.699
623.766, 762.178
625.076, 687.631
626.386, 552.058
627.696, 435.458
629.006, 322.833
630.315, 324.183
631.624, 200.507
632.933, 171.805
634.242, 149.079
635.551, 89.328
636.859, 77.543
638.167, 41.276
639.475, 39.185
640.783, 93.181
642.090, 60.291
643.398, 83.498
644.705, 126.813
646.012, 88.258
647.318, 110.812
648.625, 104.485
649.931, 143.273
651.237, 136.197
652.543, 135.251
653.849, 158.433
655.155, 146.755
656.460, 174.209
657.765, 141.808
659.070, 197.535
660.375, 192.418
661.679, 115.451
662.984, 178.595
664.288, 155.880
665.592, 145.292
666.895, 134.827
668.199, 180.475
669.502, 102.260
670.805, 113.139
672.108, 0.941
673.411, 22.531
674.713, 20.548
676.016, 24.301
677.318, 40.454
678.620, 15.659
679.921, 23.098
681.223, 34.840
682.524, 113.569
683.825, 110.287
685.126, 108.993
686.427, 146.688
687.727, 110.373
689.028, 130.048
690.328, 165.713
691.628, 206.368
692.927, 201.016
694.227, 241.655
695.526, 227.286
696.825, 271.690
698.124, 343.528
699.423, 364.139
700.721, 440.745
702.020, 517.345
703.318, 546.941
704.616, 669.532
705.913, 619.120
707.211, 763.704
708.508, 945.285
709.805, 1026.866
711.102, 1041.451
712.399, 1221.056
713.695, 1301.678
714.992, 1555.319
716.288, 1541.966
717.584, 1715.633
718.879, 1890.328
720.175, 2047.069
721.470, 2259.340
722.765, 2434.608
724.060, 2698.413
725.355, 2915.229
726.649, 3173.055
727.944, 3391.885
729.238, 3819.719
730.532, 3893.557
731.825, 4375.402
733.119, 4599.251
734.412, 4896.107
735.705, 5138.969
736.998, 5559.838
738.291, 5891.715
739.584, 6323.599
740.876, 6737.491
742.168, 7304.393
743.460, 7812.302
744.752, 8434.222
746.043, 9208.148
747.334, 10239.091
748.626, 10802.040
749.916, 11509.002
751.207, 12295.973
752.498, 12813.959
753.788, 13422.955
755.078, 13286.966
756.368, 13541.989
757.658, 13091.026
758.947, 12659.075
760.237, 12227.140
761.526, 11288.222
762.815, 10662.317
764.104, 9888.428
765.392, 8855.559
766.680, 8041.708
767.969, 7118.890
769.257, 6789.098
770.544, 5985.334
771.832, 5707.599
773.119, 5200.884
774.406, 5041.189
775.693, 4998.524
776.980, 4823.884
778.267, 5046.273
779.553, 5104.705
780.839, 5280.160
782.125, 5336.645
783.411, 5419.157
784.697, 5235.699
785.982, 4948.270
787.267, 4570.875
788.552, 4207.520
789.837, 3731.201
791.122, 3474.287
792.406, 3082.146
793.690, 2800.029
794.974, 2673.151
796.258, 2401.997
797.542, 2293.033
798.825, 2125.725
800.108, 2125.804
801.391, 2007.414
802.674, 2054.737
803.957, 2050.582
805.239, 2162.116
806.522, 2262.220
807.804, 2222.545
809.085, 2466.557
810.367, 2577.439
811.649, 2622.769
812.930, 3050.286
814.211, 3166.466
815.492, 3480.137
816.772, 3961.802
818.053, 4396.684
819.333, 5077.185
820.613, 5848.529
821.893, 6776.712
823.173, 7827.212
824.452, 9296.810
825.732, 11219.913
827.011, 13218.255
828.290, 15875.432
829.568, 19050.941
830.847, 22930.414
832.125, 27669.090
833.403, 32182.521
834.681, 35751.941
835.959, 38593.430
837.236, 40133.992
838.514, 40008.621
839.791, 39538.305
841.068, 38604.062
842.345, 38005.883
843.621, 37479.766
844.898, 35101.707
846.174, 32319.736
847.450, 29251.830
848.726, 25069.988
850.001, 21980.229
851.277, 19183.541
852.552, 17213.902
853.827, 15729.341
855.102, 14554.845
856.376, 14089.424
857.651, 14426.072
858.925, 14795.779
860.199, 15073.547
861.473, 15584.384
862.746, 16018.294
864.020, 15734.271
865.293, 14865.312
866.566, 13828.417
867.839, 12158.594
869.112, 10675.828
870.384, 9343.130
871.656, 7948.500
872.928, 6791.933
874.200, 5939.427
875.472, 5245.979
876.744, 4600.598
878.015, 4170.279
879.286, 3578.018
880.557, 3332.816
881.828, 3016.678
883.098, 2623.597
884.369, 2349.575
885.639, 2197.613
886.909, 2045.708
888.178, 1906.862
889.448, 1741.226
890.717, 1564.346
891.987, 1435.675
893.256, 1326.063
894.524, 1219.510
895.793, 1129.454
897.061, 1070.736
898.330, 1001.203
899.598, 973.884
900.865, 982.625
902.133, 926.424
903.401, 899.281
904.668, 947.197
905.935, 1017.172
907.202, 1055.206
908.468, 1155.298
909.735, 1292.448
911.001, 1511.657
912.267, 1679.925
913.533, 1997.282
914.799, 2219.692
916.064, 2543.223
917.330, 2721.013
918.595, 2534.130
919.860, 2370.682
921.124, 2067.643
922.389, 1650.928
923.653, 1430.358
924.918, 1270.354
926.182, 1116.617
927.445, 951.341
928.709, 1017.231
929.972, 782.303
931.236, 890.242
932.499, 822.690
933.761, 868.022
935.024, 835.257
936.286, 756.138
937.549, 793.284
938.811, 740.026
940.073, 868.158
941.334, 811.158
942.596, 811.375
943.857, 919.975
945.118, 975.927
946.379, 997.846
947.640, 1186.063
948.900, 1286.710
950.161, 1408.656
951.421, 1519.759
952.681, 1700.315
953.940, 1825.892
955.200, 1914.207
956.459, 2055.858
957.719, 2397.957
958.978, 2808.250
960.236, 3443.409
961.495, 4143.454
962.753, 5130.042
964.012, 6088.663
965.270, 6887.088
966.527, 7429.483
967.785, 7606.052
969.043, 7112.299
970.300, 6491.142
971.557, 5615.924
972.814, 4785.371
974.071, 4074.396
975.327, 3585.525
976.583, 3049.738
977.840, 2775.035
979.095, 2343.386
980.351, 2063.331
981.607, 1911.798
982.862, 1677.380
984.117, 1510.263
985.372, 1418.253
986.627, 1204.774
987.882, 1267.640
989.136, 1173.226
990.390, 1057.671
991.644, 1073.112
992.898, 1068.348
994.152, 1050.737
995.405, 1011.512
996.659, 996.262
997.912, 1013.995
999.165, 1003.823
1000.417, 999.959
1001.670, 976.835
1002.922, 1057.267
1004.174, 957.776
1005.426, 1032.217
1006.678, 946.165
1007.930, 1005.104
1009.181, 1002.051
1010.432, 951.839
1011.683, 945.857
1012.934, 995.155
1014.185, 928.980
1015.435, 972.343
1016.685, 880.512
1017.935, 837.221
1019.185, 857.857
1020.435, 858.685
1021.684, 757.141
1022.934, 801.251
1024.183, 841.373
1025.432, 690.417
1026.680, 800.708
1027.929, 676.167
1029.177, 659.102
1030.425, 588.995
1031.673, 534.754
1032.921, 546.630
1034.169, 511.514
1035.416, 564.332
1036.663, 572.169
1037.911, 524.026
1039.157, 502.900
1040.404, 494.792
1041.650, 424.701
1042.897, 525.628
1044.143, 416.571
1045.389, 418.531
1046.634, 338.509
1047.880, 295.502
1049.125, 248.510
1050.371, 258.532
1051.615, 206.567
1052.860, 116.615
1054.105, 156.675
1055.349, 101.747
1056.593, 62.831
1057.837, 47.926
1059.081, 44.033
1060.325, 21.781
1061.568, 17.979
1062.812, 0.412
1064.055, 1.556
1065.298, 6.294
1066.540, 20.138
1067.783, 32.979
1069.025, 100.822
1070.267, 83.884
1071.509, 63.570
1072.751, 89.464
1073.993, 9.379
1075.234, 20.293
1076.475, 64.209
1077.716, 38.140
1078.957, 67.079
1080.198, 123.035
1081.438, 13.035
1082.679, 65.037
1083.919, 35.060
1085.159, 49.093
1086.398, 27.142
1087.638, 83.201
1088.877, 68.287
1090.116, 82.401
1091.355, 64.549
1092.594, 26.726
1093.833, 72.915
1095.071, 87.128
1096.309, 88.381
1097.547, 123.322
1098.785, 59.251
1100.023, 19.262
1101.260, 2.051
1102.498, 75.764
1103.735, 33.718
1104.972, 17.194
1106.208, 1.672
1107.445, 120.158
1108.681, 34.712
1109.918, 11.712
1111.154, 97.871
1112.389, 14.515
1113.625, 24.167
1114.860, 35.848
1116.096, 20.435
1117.331, 42.297
1118.566, 64.066
1119.800, 4.109
1121.035, 14.266
1122.269, 87.423
1123.503, 291.566
1124.737, 302.703
1125.971, 218.837
1127.205, 47.971
1128.438, 8.091
1129.671, 74.176
1130.904, 3.246
1132.137, 1.274
1133.370, 13.740
1134.602, 3.796
1135.834, 6.885
1137.066, 0.027
1138.298, 22.784
1139.530, 25.745
1140.762, 13.288
1141.993, 32.974
1143.224, 27.632
1144.455, 4.749
1145.686, 18.189
1146.917, 35.300
1148.147, 20.258
1149.377, 40.112
1150.607, 54.434
1151.837, 31.714
1153.067, 35.942
1154.296, 6.902
1155.526, 53.460
1156.755, 88.704
1157.984, 100.188
1159.213, 16.854
1160.441, 55.840
1161.670, 45.727
1162.898, 59.840
1164.126, 102.590
1165.354, 56.298
1166.581, 90.951
1167.809, 87.556
1169.036, 46.114
1170.263, 125.608
1171.490, 129.061
1172.717, 138.471
1173.943, 86.956
1175.170, 122.317
1176.396, 164.685
1177.622, 180.912
1178.848, 118.382
1180.073, 201.793
1181.299, 208.112
1182.524, 341.671
1183.749, 303.856
1184.974, 271.296
1186.199, 283.243
1187.423, 277.465
1188.648, 281.449
1189.872, 295.690
1191.096, 307.416
1192.320, 336.311
1193.543, 358.281
1194.767, 403.481
1195.990, 408.297
1197.213, 375.167
1198.436, 435.841
1199.659, 510.365
1200.881, 457.113
1202.104, 513.828
1203.326, 451.521
1204.548, 529.017
1205.770, 557.796
1206.991, 597.280
1208.213, 568.758
1209.434, 657.233
1210.655, 626.508
1211.876, 658.677
1213.096, 658.775
1214.317, 695.486
1215.537, 698.891
1216.757, 672.874
1217.977, 730.456
1219.197, 758.771
1220.417, 748.050
1221.636, 844.891
1222.855, 788.222
1224.074, 886.053
1225.293, 774.809
1226.512, 836.650
1227.731, 938.333
1228.949, 837.759
1230.167, 854.150
1231.385, 899.695
1232.603, 995.727
1233.820, 930.467
1235.038, 991.545
1236.255, 910.460
1237.472, 1002.336
1238.689, 973.827
1239.906, 1008.400
1241.122, 996.632
1242.338, 986.437
1243.555, 1034.037
1244.771, 1006.691
1245.986, 1004.070
1247.202, 1007.303
1248.417, 1058.670
1249.633, 1039.552
1250.848, 987.234
1252.063, 1095.241
1253.277, 1049.650
1254.492, 1020.101
1255.706, 1075.049
1256.920, 994.610
1258.134, 1008.006
1259.348, 1016.827
1260.562, 1015.775
1261.775, 1004.962
1262.988, 971.782
1264.201, 1027.837
1265.414, 984.436
1266.627, 939.619
1267.839, 1035.104
1269.052, 1059.377
1270.264, 967.764
1271.476, 1047.824
1272.688, 1017.934
1273.899, 1008.326
1275.111, 1016.668
1276.322, 999.093
1277.533, 1035.983
1278.744, 1062.769
1279.955, 1033.740
1281.165, 1048.982
1282.376, 1047.014
1283.586, 1070.601
1284.796, 1041.422
1286.006, 1028.126
1287.215, 1109.999
1288.425, 1059.119
1289.634, 1035.096
1290.843, 992.102
1292.052, 902.611
1293.261, 917.919
1294.469, 935.015
1295.678, 864.289
1296.886, 876.805
1298.094, 778.431
1299.302, 766.020
1300.509, 739.848
1301.717, 690.970
1302.924, 639.961
1304.131, 611.857
1305.338, 604.511
1306.545, 585.869
1307.752, 488.698
1308.958, 495.960
1310.164, 452.397
1311.370, 412.266
1312.576, 432.190
1313.782, 354.319
1314.987, 394.972
1316.193, 408.759
1317.398, 394.917
1318.603, 270.813
1319.807, 285.863
1321.012, 272.608
1322.216, 312.804
1323.421, 226.948
1324.625, 228.170
1325.829, 239.190
1327.032, 178.074
1328.236, 253.935
1329.439, 177.635
1330.642, 283.241
1331.845, 205.762
1333.048, 218.168
1334.251, 230.445
1335.453, 183.625
1336.656, 162.721
1337.858, 154.677
1339.060, 154.794
1340.261, 215.338
1341.463, 189.050
1342.664, 222.681
1343.866, 245.231
1345.067, 177.703
1346.267, 172.096
1347.468, 163.407
1348.669, 196.635
1349.869, 136.778
1351.069, 170.832
1352.269, 157.797
1353.469, 148.673
1354.668, 169.461
1355.868, 181.163
1357.067, 167.783
1358.266, 197.325
1359.465, 190.792
1360.664, 186.193
1361.862, 182.534
1363.061, 166.822
1364.259, 139.053
1365.457, 120.234
1366.655, 162.354
1367.852, 169.418
1369.050, 145.438
1370.247, 102.414
1371.444, 146.358
1372.641, 102.290
1373.838, 118.196
1375.035, 109.095
1376.231, 90.993
1377.427, 91.908
1378.623, 26.856
1379.819, 69.870
1381.015, 86.988
1382.211, 105.268
1383.406, 55.802
1384.601, 6.222
1385.796, 26.085
1386.991, 23.401
1388.185, 54.707
1389.380, 55.723
1390.574, 58.517
1391.768, 25.262
1392.962, 56.322
1394.156, 31.668
1395.350, 41.725
1396.543, 6.843
1397.736, 9.998
1398.929, 15.281
1400.122, 6.690
1401.315, 12.292
1402.507, 50.881
1403.700, 1.567
1404.892, 4.315
1406.084, 28.900
1407.276, 30.926
1408.467, 0.802
1409.659, 24.732
1410.850, 71.650
1412.041, 2.443
1413.232, 32.487
1414.423, 44.411
1415.614, 62.343
1416.804, 4.297
1417.994, 2.756
1419.184, 7.198
1420.374, 47.838
1421.564, 4.131
1422.753, 25.115
1423.943, 54.346
1425.132, 11.492
1426.321, 1.651
1427.510, 0.474
1428.698, 92.462
1429.887, 0.773
1431.075, 38.164
1432.263, 10.823
1433.451, 9.119
1434.639, 56.915
1435.827, 74.148
1437.014, 53.639
1438.201, 63.150
1439.388, 107.345
1440.575, 57.609
1441.762, 79.264
1442.949, 136.088
1444.135, 64.075
1445.321, 89.952
1446.507, 152.154
1447.693, 149.081
1448.879, 183.297
1450.064, 139.639
1451.250, 194.982
1452.435, 185.771
1453.620, 197.473
1454.805, 158.626
1455.989, 277.240
1457.174, 234.526
1458.358, 271.903
1459.542, 320.235
1460.726, 243.967
1461.910, 258.826
1463.093, 329.512
1464.277, 317.802
1465.460, 254.981
1466.643, 310.146
1467.826, 279.769
1469.009, 313.061
1470.191, 308.032
1471.373, 293.244
1472.556, 318.822
1473.738, 335.754
1474.919, 259.082
1476.101, 284.658
1477.283, 309.408
1478.464, 376.925
1479.645, 387.694
