##NAMES=Humite
##RRUFFID=R050665
##IDEAL CHEMISTRY=Mg_7_(SiO_4_)_3_(F,OH)_2_
##LOCALITY=Tilly Foster mine, Brewster, Putnam County, New York, USA
##OWNER=RRUFF
##SOURCE=University of Arizona Mineral Museum
##DESCRIPTION=Granular aggregate of reddish-orange crystals
##STATUS=The identification of this mineral has been confirmed by X-ray diffraction and chemical analysis
##URL=rruff.info/R050665
##MEASURED CHEMISTRY=(Mg_0.91_Fe^2+^_0.09_)_7_(Si_1.00_O_4_)_3_(F_0.56_(OH)_0.44_)_2_
##PIN_ID=M00589
##ORIENTATION=Laser parallel to b* (0 1 0). Fiducial mark perpendicular to laser is parallel to c [0 0 1]
161.8000, 0.0000000E+00
163.0300, 16.40515
164.2600, 46.69397
165.4900, 25.12805
166.7200, 22.04419
167.9500, 2.448120
169.1790, 15.99060
170.4080, 34.14563
171.6380, 48.54700
172.8670, 4.162964
174.0950, 19.44202
175.3240, 1.708862
176.5520, 5.364746
177.7810, 11.41772
179.0090, 0.5992430
180.2370, 6.857178
181.4640, 14.01392
182.6920, 73.17993
183.9190, 57.61157
185.1460, 59.28320
186.3730, 89.17236
187.6000, 80.25952
188.8270, 81.52747
190.0530, 174.9620
191.2800, 208.5513
192.5060, 221.3032
193.7320, 282.2327
194.9580, 399.3275
196.1830, 356.5708
197.4090, 374.9485
198.6340, 349.4489
199.8590, 270.0585
201.0840, 370.7662
202.3090, 281.5621
203.5340, 254.4390
204.7580, 128.3904
205.9820, 140.4108
207.2060, 99.49597
208.4300, 117.6418
209.6540, 102.8450
210.8780, 114.1025
212.1010, 152.4117
213.3240, 186.7700
214.5470, 193.1755
215.7700, 213.1139
216.9930, 172.1201
218.2150, 207.6565
219.4380, 198.2338
220.6600, 154.9193
221.8820, 218.7825
223.1040, 213.9160
224.3260, 213.2517
225.5470, 203.6301
226.7680, 215.9614
227.9900, 224.3972
229.2110, 230.7892
230.4310, 249.1886
231.6520, 237.5961
232.8720, 260.4326
234.0930, 258.4387
235.3130, 292.8657
236.5330, 304.2722
237.7530, 319.6652
238.9720, 311.0494
240.1920, 287.4285
241.4110, 317.8053
242.6300, 311.1812
243.8490, 322.5588
245.0680, 335.9392
246.2860, 368.3252
247.5040, 401.7180
248.7230, 426.1191
249.9410, 453.5286
251.1590, 404.9476
252.3760, 406.3768
253.5940, 414.8162
254.8110, 410.2664
256.0280, 441.7278
257.2450, 437.2001
258.4620, 501.6838
259.6790, 513.3260
260.8950, 506.5220
262.1120, 516.2047
263.3280, 502.7356
264.5440, 390.2795
265.7600, 424.8367
266.9750, 445.4072
268.1910, 358.9919
269.4060, 391.5911
270.6210, 394.2046
271.8360, 344.5721
273.0510, 378.1045
274.2650, 271.1378
275.4800, 380.8157
276.6940, 333.5112
277.9080, 302.7476
279.1220, 319.2069
280.3360, 296.5750
281.5490, 345.6908
282.7630, 313.0569
283.9760, 347.7307
285.1890, 365.8392
286.4020, 295.2207
287.6150, 274.8013
288.8270, 280.4072
290.0400, 258.0388
291.2520, 259.4452
292.4640, 255.7579
293.6760, 253.0798
294.8870, 253.8057
296.0990, 240.5518
297.3100, 242.3536
298.5210, 223.0990
299.7320, 216.8986
300.9430, 197.7141
302.1540, 189.5457
303.3640, 197.2733
304.5750, 195.2534
305.7850, 217.1284
306.9950, 205.0166
308.2050, 207.9235
309.4140, 251.9606
310.6240, 273.0917
311.8330, 306.2977
313.0420, 272.5674
314.2510, 345.8937
315.4600, 292.2620
316.6680, 333.6790
317.8770, 340.1340
319.0850, 420.6307
320.2930, 383.1663
321.5010, 442.7135
322.7090, 447.2317
323.9160, 411.8685
325.1240, 421.5350
326.3310, 422.1316
327.5380, 365.8525
328.7450, 379.5985
329.9520, 334.3683
331.1580, 392.1606
332.3650, 328.9744
333.5710, 308.8087
334.7770, 335.6627
335.9830, 282.5358
337.1880, 289.4265
338.3940, 356.3350
339.5990, 242.2595
340.8040, 333.1997
342.0090, 272.1548
343.2140, 297.1240
344.4190, 291.1067
345.6230, 300.1024
346.8280, 286.1106
348.0320, 285.4988
349.2360, 265.1626
350.4400, 273.2056
351.6430, 276.2593
352.8470, 267.3235
354.0500, 293.3979
355.2530, 295.4824
356.4560, 305.5778
357.6590, 272.6838
358.8620, 286.8027
360.0640, 256.9337
361.2660, 255.0796
362.4680, 240.2427
363.6700, 211.4192
364.8720, 180.6105
366.0740, 171.8247
367.2750, 151.0516
368.4760, 116.3097
369.6770, 52.58411
370.8780, 40.87109
372.0790, 45.17163
373.2800, 40.48438
374.4800, 37.81506
375.6800, 74.15674
376.8800, 5.516968
378.0800, 10.89673
379.2800, 68.29492
380.4790, 34.71680
381.6790, 59.16394
382.8780, 99.63867
384.0770, 64.13843
385.2760, 87.66699
386.4750, 120.2251
387.6730, 59.81262
388.8720, 74.42175
390.0700, 32.06677
391.2680, 7.748047
392.4660, 24.54041
393.6630, 21.78040
394.8610, 21.99426
396.0580, 20.19067
397.2550, 21.39221
398.4520, 52.53247
399.6490, 14.69043
400.8460, 46.83337
402.0420, 24.95593
403.2390, 73.07239
404.4350, 60.18909
405.6310, 13.29285
406.8270, 22.38086
408.0220, 55.45679
409.2180, 5.475830
410.4130, 24.43042
411.6080, 56.40405
412.8030, 90.39417
413.9980, 80.39392
415.1920, 93.40332
416.3870, 118.4169
417.5810, 136.4390
418.7750, 107.4613
419.9690, 172.4811
421.1630, 158.4978
422.3570, 100.5043
423.5500, 170.4943
424.7430, 184.4679
425.9360, 112.4177
427.1290, 143.3425
428.3220, 138.2238
429.5150, 189.0892
430.7070, 148.9336
431.8990, 174.7744
433.0910, 112.6112
434.2830, 68.44385
435.4750, 107.2721
436.6670, 75.09570
437.8580, 50.91431
439.0490, 92.72778
440.2400, 123.5359
441.4310, 47.33850
442.6220, 94.13513
443.8130, 78.92554
445.0030, 141.7098
446.1930, 182.4877
447.3830, 217.2587
448.5730, 203.0227
449.7630, 251.7798
450.9520, 258.5294
452.1420, 337.2762
453.3310, 349.0193
454.5200, 409.7581
455.7090, 432.4919
456.8980, 477.2208
458.0860, 494.4280
459.2740, 543.6614
460.4630, 511.3721
461.6510, 538.0764
462.8380, 532.7739
464.0260, 489.4640
465.2140, 481.1466
466.4010, 487.8218
467.5880, 538.4889
468.7750, 587.1475
469.9620, 545.7980
471.1490, 593.4395
472.3350, 537.0717
473.5220, 509.6946
474.7080, 520.3076
475.8940, 497.9109
477.0800, 433.5039
478.2650, 405.0865
479.4510, 393.6587
480.6360, 368.2200
481.8210, 384.7701
483.0060, 339.3093
484.1910, 379.8368
485.3760, 409.3528
486.5600, 313.8567
487.7440, 351.3490
488.9290, 297.8286
490.1130, 297.2961
491.2960, 282.7510
492.4800, 292.1931
493.6630, 244.6222
494.8470, 267.0383
496.0300, 241.4916
497.2130, 263.9443
498.3960, 213.5289
499.5780, 223.2662
500.7610, 242.3638
501.9430, 232.4346
503.1250, 215.0864
504.3070, 196.3245
505.4890, 208.7638
506.6710, 207.5105
507.8520, 212.2108
509.0330, 223.7987
510.2140, 226.9459
511.3950, 173.7723
512.5760, 196.8375
513.7570, 196.0941
514.9370, 227.0905
516.1170, 220.3225
517.2980, 248.0643
518.4780, 243.4490
519.6570, 234.1636
520.8370, 273.5833
522.0160, 239.2787
523.1960, 247.3109
524.3750, 297.8706
525.5540, 332.8306
526.7320, 355.6997
527.9110, 330.7272
529.0890, 379.6646
530.2680, 402.8198
531.4460, 422.3418
532.6240, 364.9696
533.8010, 439.1998
534.9790, 372.9110
536.1560, 424.3374
537.3340, 427.6580
538.5110, 379.6079
539.6880, 387.4189
540.8650, 363.4636
542.0410, 421.2573
543.2180, 424.3529
544.3940, 441.0986
545.5700, 464.3555
546.7460, 453.1265
547.9220, 460.8414
549.0970, 436.9994
550.2730, 391.4042
551.4480, 373.9120
552.6230, 404.5907
553.7980, 424.7678
554.9730, 396.2411
556.1470, 335.7351
557.3210, 409.9963
558.4960, 452.2219
559.6700, 514.7811
560.8440, 400.9592
562.0170, 439.1062
563.1910, 444.2222
564.3640, 467.3066
565.5380, 579.3601
566.7110, 545.3826
567.8840, 509.3739
569.0560, 592.3345
570.2290, 674.2639
571.4010, 724.1628
572.5740, 747.0310
573.7460, 833.8684
574.9180, 846.6750
576.0890, 989.4510
577.2610, 1062.196
578.4320, 1105.911
579.6040, 1254.594
580.7750, 1317.248
581.9450, 1271.870
583.1160, 1282.461
584.2870, 1284.022
585.4570, 1266.552
586.6270, 1226.051
587.7980, 1195.519
588.9670, 1245.957
590.1370, 1338.365
591.3070, 1368.741
592.4760, 1541.087
593.6450, 1707.403
594.8140, 1871.688
595.9830, 2084.942
597.1520, 2343.166
598.3210, 2486.359
599.4890, 2799.522
600.6570, 3075.654
601.8250, 3254.755
602.9930, 3397.827
604.1610, 3517.868
605.3290, 3438.880
606.4960, 3400.860
607.6630, 3063.810
608.8300, 2765.731
609.9970, 2507.621
611.1640, 2235.481
612.3300, 1952.311
613.4970, 1716.112
614.6630, 1493.153
615.8290, 1235.623
616.9950, 1112.334
618.1610, 970.0160
619.3260, 832.6682
620.4920, 774.2909
621.6570, 674.8842
622.8220, 635.4485
623.9870, 510.9834
625.1520, 465.4893
626.3160, 427.9663
627.4810, 391.4143
628.6450, 313.8337
629.8090, 246.2244
630.9730, 184.5864
632.1370, 187.9202
633.3000, 200.2257
634.4640, 169.5027
635.6270, 145.7517
636.7900, 140.9722
637.9530, 111.3130
639.1160, 92.32593
640.2780, 67.45642
641.4410, 66.55188
642.6030, 42.61243
643.7650, 25.63293
644.9270, 45.60767
646.0890, 34.54395
647.2500, 4.560791
648.4120, 35.27563
649.5730, 45.92773
650.7340, 5.789673
651.8950, 18.45569
653.0560, 13.07727
654.2160, 16.65259
655.3770, 5.815918
656.5370, 18.66101
657.6970, 10.90344
658.8570, 17.52368
660.0170, 14.20227
661.1760, 35.93689
662.3360, 42.73792
663.4950, 52.60815
664.6540, 44.55176
665.8130, 60.56396
666.9720, 64.65198
668.1310, 64.81702
669.2890, 38.05835
670.4470, 93.36121
671.6050, 96.75342
672.7630, 76.23560
673.9210, 168.7964
675.0790, 84.47742
676.2360, 53.23401
677.3930, 48.04834
678.5510, 64.91699
679.7080, 33.84753
680.8640, 47.81506
682.0210, 97.83459
683.1770, 27.92358
684.3340, 51.04932
685.4900, 91.21094
686.6460, 62.43152
687.8020, 57.70569
688.9570, 78.02783
690.1130, 79.39929
691.2680, 67.57629
692.4230, 61.79077
693.5780, 36.86365
694.7330, 39.44165
695.8880, 22.05652
697.0420, 39.69824
698.1960, 11.37451
699.3510, 36.93042
700.5040, 46.22253
701.6580, 42.50244
702.8120, 35.77002
703.9650, 93.02612
705.1190, 91.27063
706.2720, 182.5042
707.4250, 206.7271
708.5780, 274.9395
709.7300, 280.1421
710.8830, 328.3350
712.0350, 352.5188
713.1870, 429.6936
714.3390, 542.8600
715.4910, 558.0181
716.6430, 632.1685
717.7940, 689.3113
718.9460, 733.4470
720.0970, 773.5757
721.2480, 864.6982
722.3990, 911.8146
723.5500, 1029.925
724.7000, 1098.030
725.8500, 1147.130
727.0010, 1194.226
728.1510, 1184.317
729.3010, 1339.404
730.4500, 1393.487
731.6000, 1495.567
732.7490, 1505.644
733.8980, 1617.719
735.0470, 1627.792
736.1960, 1646.862
737.3450, 1706.931
738.4940, 1712.998
739.6420, 1801.065
740.7900, 1918.131
741.9380, 1946.198
743.0860, 2094.264
744.2340, 2174.331
745.3810, 2370.399
746.5290, 2495.469
747.6760, 2637.472
748.8230, 2804.057
749.9700, 2920.687
751.1170, 3055.766
752.2630, 3170.846
753.4100, 3170.931
754.5560, 3216.020
755.7020, 3298.113
756.8480, 3221.210
757.9940, 3211.312
759.1390, 3191.420
760.2850, 3062.532
761.4300, 2940.652
762.5750, 2916.777
763.7200, 2717.909
764.8650, 2638.048
766.0100, 2621.195
767.1540, 2408.349
768.2980, 2495.511
769.4420, 2247.682
770.5860, 2264.862
771.7300, 2371.051
772.8740, 2319.248
774.0170, 2444.406
775.1610, 2617.560
776.3040, 2700.580
777.4470, 2840.445
778.5900, 3089.945
779.7320, 3238.470
780.8750, 3441.412
782.0170, 3519.765
783.1590, 3544.915
784.3010, 3393.756
785.4430, 3267.641
786.5850, 3028.637
787.7260, 2743.073
788.8680, 2404.830
790.0090, 2104.355
791.1500, 1976.696
792.2910, 1838.303
793.4310, 1706.692
794.5720, 1585.575
795.7120, 1495.837
796.8520, 1430.784
797.9920, 1388.036
799.1320, 1304.046
800.2720, 1227.735
801.4120, 1315.910
802.5510, 1398.709
803.6900, 1388.619
804.8290, 1312.384
805.9680, 1449.253
807.1070, 1474.922
808.2450, 1536.235
809.3840, 1693.460
810.5220, 1651.097
811.6600, 1791.048
812.7980, 1849.429
813.9360, 1980.903
815.0730, 2212.837
816.2110, 2392.852
817.3480, 2653.951
818.4850, 2941.318
819.6220, 3299.689
820.7590, 3669.594
821.8960, 4262.179
823.0320, 4918.391
824.1680, 5702.556
825.3040, 6605.172
826.4400, 7808.661
827.5760, 9065.229
828.7120, 10821.69
829.8470, 12685.68
830.9830, 14798.39
832.1180, 17369.10
833.2530, 19872.06
834.3880, 22561.08
835.5220, 24186.77
836.6570, 24976.88
837.7910, 25351.01
838.9250, 25277.19
840.0590, 25239.40
841.1930, 24987.65
842.3270, 25127.95
843.4600, 25079.29
844.5940, 23974.66
845.7270, 22280.09
846.8600, 19973.56
847.9930, 17811.07
849.1250, 15704.63
850.2580, 14225.24
851.3900, 12693.88
852.5230, 11920.56
853.6550, 11245.29
854.7870, 10957.05
855.9180, 11001.86
857.0500, 11296.70
858.1810, 11921.59
859.3130, 12610.52
860.4440, 13710.49
861.5750, 14182.50
862.7050, 14586.55
863.8360, 14363.65
864.9660, 13987.79
866.0970, 13147.97
867.2270, 11887.20
868.3570, 10880.47
869.4870, 9808.775
870.6160, 8943.129
871.7460, 8162.524
872.8750, 7273.963
874.0040, 6616.444
875.1330, 5968.968
876.2620, 5322.536
877.3910, 4646.147
878.5190, 4102.804
879.6470, 3702.504
880.7760, 3407.247
881.9040, 2906.034
883.0310, 2650.865
884.1590, 2260.746
885.2870, 2219.669
886.4140, 1955.636
887.5410, 1825.652
888.6680, 1679.709
889.7950, 1581.823
890.9220, 1563.980
892.0480, 1490.184
893.1750, 1473.434
894.3010, 1519.729
895.4270, 1599.066
896.5530, 1558.449
897.6790, 1620.875
898.8040, 1520.346
899.9300, 1331.861
901.0550, 1160.420
902.1800, 1080.026
903.3050, 879.6763
904.4300, 737.3701
905.5540, 703.1086
906.6790, 600.8916
907.8030, 588.7188
908.9270, 544.5903
910.0510, 583.5059
911.1750, 555.4663
912.2990, 471.4717
913.4220, 467.5239
914.5450, 533.6255
915.6690, 464.7749
916.7920, 527.9749
917.9140, 492.2322
919.0370, 513.5391
920.1600, 407.8975
921.2820, 486.3157
922.4040, 410.7852
923.5260, 322.3994
924.6480, 368.8560
925.7700, 419.7715
926.8910, 427.8604
928.0130, 395.4155
929.1340, 453.9663
930.2550, 506.5359
931.3760, 644.5798
932.4970, 612.3652
933.6170, 733.9827
934.7380, 721.4067
935.8580, 681.8152
936.9780, 621.5266
938.0980, 662.5044
939.2180, 670.4226
940.3370, 653.8440
941.4570, 610.2629
942.5760, 659.6072
943.6950, 724.4014
944.8140, 750.7688
945.9330, 877.1082
947.0520, 932.1543
948.1700, 1062.541
949.2890, 1251.548
950.4070, 1491.107
951.5250, 1614.777
952.6430, 1871.277
953.7600, 1974.866
954.8780, 2022.912
955.9950, 2147.225
957.1120, 2111.918
958.2290, 2318.062
959.3460, 2560.719
960.4630, 2928.985
961.5800, 3465.168
962.6960, 4098.011
963.8120, 4715.209
964.9280, 5075.561
966.0440, 5287.834
967.1600, 5172.417
968.2760, 4796.446
969.3910, 4337.848
970.5060, 3644.330
971.6210, 3093.943
972.7360, 2652.945
973.8510, 2228.055
974.9660, 1872.114
976.0800, 1603.760
977.1950, 1407.066
978.3090, 1193.528
979.4230, 1059.634
980.5370, 918.2402
981.6500, 835.4639
982.7640, 777.6455
983.8770, 668.9360
984.9900, 559.2378
986.1030, 581.5742
987.2160, 509.9265
988.3290, 408.3040
989.4420, 355.7061
990.5540, 363.1326
991.6660, 403.5830
992.7780, 385.0574
993.8900, 364.5557
995.0020, 405.0767
996.1140, 373.6926
997.2250, 363.2595
998.3360, 343.8491
999.4470, 414.9307
1000.558, 324.5642
1001.669, 433.4475
1002.780, 418.1238
1003.890, 430.8210
1005.001, 349.5393
1006.111, 396.2778
1007.221, 351.0361
1008.331, 399.8142
1009.440, 399.7192
1010.550, 380.5366
1011.659, 403.8950
1012.768, 358.7495
1013.877, 358.6226
1014.986, 318.5137
1016.095, 391.6155
1017.204, 345.6133
1018.312, 351.5569
1019.420, 319.6841
1020.528, 346.2668
1021.636, 322.2590
1022.744, 427.7080
1023.852, 372.8594
1024.959, 345.1750
1026.066, 333.9512
1027.173, 267.0188
1028.280, 280.1001
1029.387, 340.1953
1030.494, 315.3169
1031.600, 298.4385
1032.707, 251.6692
1033.813, 212.8545
1034.919, 222.5027
1036.025, 242.6731
1037.130, 215.8552
1038.236, 223.0486
1039.341, 240.3250
1040.446, 230.5398
1041.552, 253.7917
1042.656, 228.0264
1043.761, 188.2705
1044.866, 214.5239
1045.970, 162.8982
1047.074, 127.5317
1048.179, 139.8115
1049.282, 177.1663
1050.386, 59.36694
1051.490, 73.67017
1052.593, 70.98022
1053.697, 7.296875
1054.800, 12.87036
1055.903, 2.784424
1057.006, 54.31689
1058.108, 39.99976
1059.211, 41.62354
1060.313, 87.32446
1061.415, 24.05688
1062.517, 99.79443
1063.619, 70.57031
1064.721, 44.37109
1065.823, 142.1870
1066.924, 70.05811
1068.025, 48.96851
1069.126, 103.8711
1070.227, 71.85059
1071.328, 50.86304
1072.429, 50.90015
1073.529, 60.96216
1074.629, 33.05615
1075.729, 56.16943
1076.829, 46.31445
1077.929, 25.48706
1079.029, 69.67847
1080.128, 38.91187
1081.228, 30.17236
1082.327, 54.45605
1083.426, 19.77710
1084.525, 49.11841
1085.623, 48.49585
1086.722, 36.91016
1087.820, 27.65820
1088.919, 43.77930
1090.017, 15.25391
1091.115, 54.75244
1092.212, 13.29614
1093.310, 74.86328
1094.407, 35.48853
1095.505, 39.15137
1096.602, 6.854980
1097.699, 36.58350
1098.795, 7.353271
1099.892, 45.14966
1100.989, 0.9931640
1102.085, 0.8540040
1103.181, 17.26001
1104.277, 54.35596
1105.373, 37.44482
1106.469, 65.52197
1107.564, 19.58887
1108.660, 68.64648
1109.755, 33.69385
1110.850, 15.26929
1111.945, 33.72827
1113.040, 125.7092
1114.134, 3.677734
1115.229, 55.61523
1116.323, 69.54028
1117.417, 59.45190
1118.511, 74.35132
1119.605, 110.2375
1120.698, 91.11060
1121.792, 87.97070
1122.885, 124.8179
1123.978, 76.65063
1125.071, 82.47046
1126.164, 124.2759
1127.257, 68.06738
1128.349, 99.84375
1129.442, 98.60547
1130.534, 54.35352
1131.626, 111.0808
1132.718, 66.79248
1133.810, 129.4861
1134.901, 90.16357
1135.993, 108.8254
1137.084, 124.4709
1138.175, 104.1018
1139.266, 98.71582
1140.357, 83.31348
1141.448, 100.9048
1142.538, 67.47900
1143.628, 122.0322
1144.719, 137.5684
1145.809, 120.1162
1146.898, 86.61621
1147.988, 56.09644
1149.078, 142.5486
1150.167, 91.98242
1151.256, 74.39575
1152.345, 127.7847
1153.434, 28.15479
1154.523, 105.4849
1155.612, 77.80054
1156.700, 87.09106
1157.788, 128.3586
1158.877, 142.6064
1159.964, 121.8359
1161.052, 118.0513
1162.140, 161.2476
1163.227, 112.4243
1164.315, 118.5806
1165.402, 93.71582
1166.489, 140.8267
1167.576, 151.9170
1168.663, 132.9875
1169.749, 122.0374
1170.836, 159.0662
1171.922, 128.0737
1173.008, 181.0598
1174.094, 179.0251
1175.180, 163.9690
1176.265, 125.8918
1177.351, 110.7920
1178.436, 156.8508
1179.521, 132.7041
1180.606, 89.61401
1181.691, 175.6035
1182.776, 152.3828
1183.860, 152.1399
1184.944, 123.8752
1186.029, 144.5859
1187.113, 133.9509
1188.197, 160.0061
1189.280, 138.3835
1190.364, 156.8164
1191.447, 172.7273
1192.531, 165.5654
1193.614, 161.0515
1194.697, 163.6982
1195.779, 140.5679
1196.862, 129.3828
1197.945, 136.8484
1199.027, 123.1279
1200.109, 184.1965
1201.191, 171.2480
1202.273, 157.0786
1203.355, 212.0164
1204.436, 221.1553
1205.518, 149.6875
1206.599, 150.8701
1207.680, 176.4846
1208.761, 129.1738
1209.842, 164.2363
1210.922, 222.1028
1212.003, 149.4321
1213.083, 190.0979
1214.163, 183.7598
1215.243, 140.6692
1216.323, 189.4175
1217.402, 172.2139
1218.482, 189.3389
1219.561, 156.3000
1220.641, 171.6475
1221.720, 227.5154
1222.798, 292.1807
1223.877, 188.5969
1224.956, 175.4487
1226.034, 240.0215
1227.112, 234.3767
1228.191, 207.8621
1229.269, 195.1226
1230.346, 161.9399
1231.424, 206.1531
1232.501, 197.6350
1233.579, 177.8535
1234.656, 181.5671
1235.733, 176.5593
1236.810, 161.4136
1237.886, 163.2732
1238.963, 154.1096
1240.039, 152.8130
1241.116, 183.6255
1242.192, 179.0398
1243.268, 171.9016
1244.343, 178.6716
1245.419, 164.5808
1246.494, 173.2559
1247.570, 200.2830
1248.645, 145.9233
1249.720, 191.7622
1250.795, 209.5784
1251.869, 159.4797
1252.944, 156.0593
1254.018, 177.9324
1255.093, 185.5732
1256.167, 206.3931
1257.240, 188.0347
1258.314, 170.8022
1259.388, 202.5559
1260.461, 165.6006
1261.535, 222.1582
1262.608, 159.4346
1263.681, 176.9111
1264.753, 134.4780
1265.826, 113.9146
1266.899, 120.7573
1267.971, 135.1299
1269.043, 180.6047
1270.115, 144.7395
1271.187, 132.0686
1272.259, 89.37061
1273.330, 146.6711
1274.402, 67.95776
1275.473, 145.2302
1276.544, 155.3477
1277.615, 138.6111
1278.686, 97.84985
1279.756, 151.8997
1280.827, 101.4971
1281.897, 148.8152
1282.967, 172.6052
1284.037, 183.0144
1285.107, 73.59839
1286.177, 154.3872
1287.247, 84.51636
1288.316, 120.9246
1289.385, 97.31128
1290.454, 154.6711
1291.523, 96.84521
1292.592, 120.9417
1293.661, 156.0215
1294.729, 166.6814
1295.797, 158.7400
1296.866, 158.8311
1297.934, 114.9922
1299.001, 127.9670
1300.069, 95.95190
1301.137, 82.89795
1302.204, 95.89868
1303.271, 107.8489
1304.338, 111.7876
1305.405, 90.62183
1306.472, 32.17529
1307.539, 109.0793
1308.605, 46.90503
1309.671, 29.88428
1310.737, 79.75610
1311.803, 107.6169
1312.869, 65.46582
1313.935, 121.0544
1315.000, 82.96851
1316.066, 119.6548
1317.131, 62.47729
1318.196, 25.22632
1319.261, 35.04053
1320.326, 45.86255
1321.390, 12.67871
1322.455, 3.505615
1323.519, 27.33667
1324.583, 58.16797
1325.647, 20.01489
1326.711, 40.87793
1327.775, 30.71509
1328.838, 9.597412
