##NAMES=Humite
##RRUFFID=R050665
##IDEAL CHEMISTRY=Mg_7_(SiO_4_)_3_(F,OH)_2_
##LOCALITY=Tilly Foster mine, Brewster, Putnam County, New York, USA
##OWNER=RRUFF
##SOURCE=University of Arizona Mineral Museum
##DESCRIPTION=Granular aggregate of reddish-orange crystals
##STATUS=The identification of this mineral has been confirmed by X-ray diffraction and chemical analysis
##URL=rruff.info/R050665
##MEASURED CHEMISTRY=(Mg_0.91_Fe^2+^_0.09_)_7_(Si_1.00_O_4_)_3_(F_0.56_(OH)_0.44_)_2_
##PIN_ID=M01318
##ORIENTATION=Laser parallel to c* (0 0 1). Fiducial mark perpendicular to laser is parallel to -a [-1 0 0]
171.6380, 0.0000000E+00
172.8670, 0.2729490
174.0950, 38.41992
175.3240, 11.36084
176.5520, 4.887939
177.7810, 13.49268
179.0090, 14.86865
180.2370, 72.68848
181.4640, 67.75635
182.6920, 53.90210
183.9190, 19.97925
185.1460, 35.86206
186.3730, 110.4460
187.6000, 105.6626
188.8270, 175.4719
190.0530, 166.8247
191.2800, 208.6677
192.5060, 221.9482
193.7320, 244.6179
194.9580, 224.6340
196.1830, 280.9587
197.4090, 181.5593
198.6340, 297.4077
199.8590, 252.4795
201.0840, 261.7742
202.3090, 355.3560
203.5340, 264.2566
204.7580, 280.4431
205.9820, 247.8723
207.2060, 288.5066
208.4300, 228.3157
209.6540, 334.2727
210.8780, 292.3560
212.1010, 336.5481
213.3240, 414.8345
214.5470, 311.2046
215.7700, 341.6477
216.9930, 359.1562
218.2150, 378.7229
219.4380, 392.8176
220.6600, 409.6663
221.8820, 411.7158
223.1040, 423.4639
224.3260, 430.2483
225.5470, 401.0664
226.7680, 302.9160
227.9900, 332.8096
229.2110, 298.8813
230.4310, 313.4307
231.6520, 295.7092
232.8720, 349.5015
234.0930, 307.5808
235.3130, 307.6948
236.5330, 425.7229
237.7530, 343.6519
238.9720, 367.4851
240.1920, 450.2261
241.4110, 324.8801
242.6300, 463.4502
243.8490, 412.9397
245.0680, 360.3538
246.2860, 350.6987
247.5040, 446.9778
248.7230, 411.1899
249.9410, 383.3521
251.1590, 374.4697
252.3760, 330.5471
253.5940, 337.5884
254.8110, 333.5967
256.0280, 424.5745
257.2450, 363.5242
258.4620, 354.4482
259.6790, 478.3484
260.8950, 533.2256
262.1120, 487.0813
263.3280, 375.9172
264.5440, 306.7349
265.7600, 426.5366
266.9750, 363.3237
268.1910, 479.0981
269.4060, 404.8613
270.6210, 357.6152
271.8360, 433.3606
273.0510, 495.0991
274.2650, 535.8315
275.4800, 538.5588
276.6940, 505.2817
277.9080, 499.0002
279.1220, 542.7151
280.3360, 465.4258
281.5490, 486.1321
282.7630, 555.1897
283.9760, 497.4558
285.1890, 522.8193
286.4020, 563.5498
287.6150, 519.1267
288.8270, 483.8621
290.0400, 559.2612
291.2520, 628.9578
292.4640, 603.1248
293.6760, 623.9937
294.8870, 594.6704
296.0990, 601.1665
297.3100, 644.5317
298.5210, 576.9080
299.7320, 655.8645
300.9430, 710.5400
302.1540, 666.0132
303.3640, 645.4832
304.5750, 712.9468
305.7850, 762.4009
306.9950, 810.8438
308.2050, 793.2737
309.4140, 815.6912
310.6240, 819.3848
311.8330, 806.4851
313.0420, 821.8621
314.2510, 848.2251
315.4600, 860.5740
316.6680, 895.9089
317.8770, 812.6106
319.0850, 879.1484
320.2930, 853.7656
321.5010, 754.2773
322.7090, 864.9463
323.9160, 873.1426
325.1240, 778.9404
326.3310, 758.7910
327.5380, 753.6890
328.7450, 707.6289
329.9520, 729.6055
331.1580, 641.6155
332.3650, 660.6555
333.5710, 585.7222
334.7770, 574.8127
335.9830, 548.9246
337.1880, 581.0544
338.3940, 498.2014
339.5990, 555.3625
340.8040, 584.5366
342.0090, 661.7217
343.2140, 598.9167
344.4190, 665.1201
345.6230, 704.3311
346.8280, 643.5479
348.0320, 664.7700
349.2360, 661.9958
350.4400, 720.2332
351.6430, 747.4749
352.8470, 669.7244
354.0500, 734.9929
355.2530, 662.2693
356.4560, 716.5657
357.6590, 670.8833
358.8620, 613.2183
360.0640, 582.5776
361.2660, 585.9575
362.4680, 524.3550
363.6700, 480.7734
364.8720, 438.2024
366.0740, 479.6497
367.2750, 387.1226
368.4760, 382.6060
369.6770, 282.1221
370.8780, 273.6533
372.0790, 302.1865
373.2800, 287.7463
374.4800, 264.3196
375.6800, 210.9031
376.8800, 206.4954
378.0800, 187.0923
379.2800, 269.6987
380.4790, 248.3140
381.6790, 248.9236
382.8780, 189.5288
384.0770, 167.1306
385.2760, 199.7356
386.4750, 220.3257
387.6730, 160.8979
388.8720, 242.4570
390.0700, 171.9983
391.2680, 156.5298
392.4660, 92.04321
393.6630, 90.54028
394.8610, 123.0186
396.0580, 23.47876
397.2550, 6.082275
398.4520, 27.32983
399.6490, 23.27930
400.8460, 54.92041
402.0420, 30.60132
403.2390, 24.31592
404.4350, 115.0632
405.6310, 76.86719
406.8270, 85.71729
408.0220, 122.6172
409.2180, 98.57617
410.4130, 74.58838
411.6080, 23.64771
412.8030, 33.21973
413.9980, 21.87061
415.1920, 32.03418
416.3870, 34.23486
417.5810, 14.47314
418.7750, 8.871826
419.9690, 26.98364
421.1630, 34.62671
422.3570, 89.27563
423.5500, 132.9036
424.7430, 126.5112
425.9360, 166.0986
427.1290, 190.8098
428.3220, 164.2085
429.5150, 224.7151
430.7070, 242.1792
431.8990, 206.5747
433.0910, 264.8845
434.2830, 254.1018
435.4750, 299.2078
436.6670, 247.2427
437.8580, 211.2207
439.0490, 290.1377
440.2400, 263.0073
441.4310, 344.8486
442.6220, 342.6704
443.8130, 407.4741
445.0030, 395.2615
446.1930, 480.0334
447.3830, 505.7893
448.5730, 525.5291
449.7630, 511.2529
450.9520, 578.9609
452.1420, 616.6526
453.3310, 605.3281
454.5200, 621.9875
455.7090, 689.6304
456.8980, 731.2571
458.0860, 797.8672
459.2740, 718.4609
460.4630, 726.0383
461.6510, 797.5977
462.8380, 839.1406
464.0260, 836.6658
465.2140, 940.1738
466.4010, 968.6638
467.5880, 949.1379
468.7750, 985.5930
469.9620, 1081.029
471.1490, 1091.446
472.3350, 1084.843
473.5220, 1119.220
474.7080, 1235.576
475.8940, 1278.911
477.0800, 1301.226
478.2650, 1347.520
479.4510, 1302.793
480.6360, 1433.044
481.8210, 1448.273
483.0060, 1577.481
484.1910, 1627.667
485.3760, 1668.831
486.5600, 1748.972
487.7440, 1773.091
488.9290, 1745.213
490.1130, 1846.366
491.2960, 1806.563
492.4800, 1909.553
493.6630, 1953.364
494.8470, 1838.106
496.0300, 1943.567
497.2130, 1965.589
498.3960, 1969.645
499.5780, 1951.159
500.7610, 1935.846
501.9430, 1963.188
503.1250, 1892.735
504.3070, 1890.781
505.4890, 1915.547
506.6710, 1851.023
507.8520, 1926.291
509.0330, 1775.417
510.2140, 1802.066
511.3950, 1789.967
512.5760, 1851.645
513.7570, 1853.419
514.9370, 1827.890
516.1170, 1809.588
517.2980, 1918.962
518.4780, 1965.831
519.6570, 2163.191
520.8370, 2194.055
522.0160, 2433.792
523.1960, 2569.954
524.3750, 2597.432
525.5540, 2771.851
526.7320, 2988.908
527.9110, 3117.601
529.0890, 3266.817
530.2680, 3422.697
531.4460, 3523.788
532.6240, 3688.251
533.8010, 3643.276
534.9790, 3681.147
536.1560, 3546.819
537.3340, 3488.586
538.5110, 3317.539
539.6880, 3116.455
540.8650, 2949.361
542.0410, 2943.046
543.2180, 2820.669
544.3940, 2797.745
545.5700, 2636.140
546.7460, 2498.766
547.9220, 2335.718
549.0970, 2124.043
550.2730, 1828.984
551.4480, 1635.365
552.6230, 1475.184
553.7980, 1320.136
554.9730, 1148.422
556.1470, 1109.356
557.3210, 1032.589
558.4960, 1033.621
559.6700, 851.8320
560.8440, 773.3325
562.0170, 795.3083
563.1910, 795.3933
564.3640, 730.0984
565.5380, 705.0339
566.7110, 702.9102
567.8840, 661.9194
569.0560, 621.9995
570.2290, 618.9360
571.4010, 616.9922
572.5740, 555.0210
573.7460, 562.2434
574.9180, 573.9978
576.0890, 549.9468
577.2610, 542.8696
578.4320, 568.7673
579.6040, 524.1650
580.7750, 459.4873
581.9450, 441.3101
583.1160, 478.1084
584.2870, 399.8821
585.4570, 443.6313
586.6270, 410.3564
587.7980, 393.0571
588.9670, 452.7336
590.1370, 468.3860
591.3070, 419.0149
592.4760, 395.6194
593.6450, 431.2002
594.8140, 525.7576
595.9830, 488.2910
597.1520, 543.8013
598.3210, 595.2881
599.4890, 599.7512
600.6570, 608.1914
601.8250, 622.6079
602.9930, 630.1108
604.1610, 742.3728
605.3290, 653.7207
606.4960, 685.0464
607.6630, 702.3489
608.8300, 615.6289
609.9970, 579.8870
611.1640, 612.1223
612.3300, 479.3357
613.4970, 501.5273
614.6630, 450.6965
615.8290, 425.8442
616.9950, 393.9705
618.1610, 406.0752
619.3260, 397.1582
620.4920, 338.2207
621.6570, 261.2617
622.8220, 307.2817
623.9870, 304.2815
625.1520, 171.2617
626.3160, 156.2288
627.4810, 166.1760
628.6450, 141.1157
629.8090, 126.0356
630.9730, 108.0720
632.1370, 18.83325
633.3000, 49.68311
634.4640, 21.50781
635.6270, 25.70337
636.7900, 13.02490
637.9530, 37.28613
639.1160, 45.66211
640.2780, 32.10718
641.4410, 62.61304
642.6030, 49.62427
643.7650, 42.84863
644.9270, 55.56616
646.0890, 20.35474
647.2500, 50.19580
648.4120, 81.10352
649.5730, 27.09424
650.7340, 112.1382
651.8950, 46.27979
653.0560, 1.483643
654.2160, 93.72559
655.3770, 51.05298
656.5370, 47.44312
657.6970, 56.89282
658.8570, 50.40649
660.0170, 75.97974
661.1760, 75.62573
662.3360, 20.34229
663.4950, 27.10059
664.6540, 27.90283
665.8130, 55.74829
666.9720, 13.34888
668.1310, 35.42603
669.2890, 5.489746
670.4470, 93.53149
671.6050, 7.438477
672.7630, 91.56445
673.9210, 12.55542
675.0790, 93.53345
676.2360, 57.50171
677.3930, 135.4604
678.5510, 154.4128
679.7080, 134.3650
680.8640, 111.3118
682.0210, 142.2637
683.1770, 161.2292
684.3340, 158.2031
685.4900, 249.1836
686.6460, 204.1951
687.8020, 301.2280
688.9570, 296.2852
690.1130, 280.3770
691.2680, 326.4971
692.4230, 325.6401
693.5780, 328.7930
694.7330, 427.9587
695.8880, 462.1348
697.0420, 468.3242
698.1960, 501.5283
699.3510, 576.7419
700.5040, 585.9648
701.6580, 649.1890
702.8120, 667.4150
703.9650, 704.6401
705.1190, 772.3301
706.2720, 822.6145
707.4250, 894.3047
708.5780, 979.5222
709.7300, 1020.739
710.8830, 1134.954
712.0350, 1246.167
713.1870, 1298.380
714.3390, 1315.592
715.4910, 1479.804
716.6430, 1612.016
717.7940, 1603.227
718.9460, 1767.439
720.0970, 1847.652
721.2480, 1894.865
722.3990, 2042.081
723.5500, 2283.297
724.7000, 2343.515
725.8500, 2684.735
727.0010, 2842.957
728.1510, 3019.183
729.3010, 3119.411
730.4500, 3605.642
731.6000, 3761.876
732.7490, 4096.116
733.8980, 4406.357
735.0470, 4727.603
736.1960, 4986.854
737.3450, 5456.111
738.4940, 5796.372
739.6420, 6302.640
740.7900, 6914.914
741.9380, 7428.193
743.0860, 8280.480
744.2340, 8947.774
745.3810, 9866.076
746.5290, 10909.38
747.6760, 11746.70
748.8230, 12678.03
749.9700, 13375.36
751.1170, 13895.70
752.2630, 14681.05
753.4100, 14956.41
754.5560, 14979.78
755.7020, 14875.17
756.8480, 14494.56
757.9940, 14060.96
759.1390, 13442.37
760.2850, 12476.80
761.4300, 11643.23
762.5750, 10680.90
763.7200, 9734.922
764.8650, 8893.528
766.0100, 7891.685
767.1540, 6869.372
768.2980, 6070.919
769.4420, 5309.763
770.5860, 4628.889
771.7300, 4114.229
772.8740, 3654.031
774.0170, 3305.105
775.1610, 2935.609
776.3040, 2770.069
777.4470, 2586.064
778.5900, 2457.970
779.7320, 2405.025
780.8750, 2295.726
782.0170, 2211.391
783.1590, 2154.092
784.3010, 2083.074
785.4430, 1964.257
786.5850, 1831.826
787.7260, 1614.363
788.8680, 1501.904
790.0090, 1330.662
791.1500, 1153.316
792.2910, 1001.266
793.4310, 886.9839
794.5720, 767.0535
795.7120, 642.7085
796.8520, 585.5906
797.9920, 442.1189
799.1320, 356.7756
800.2720, 331.0039
801.4120, 343.9102
802.5510, 297.8813
803.6900, 257.2109
804.8290, 334.9009
805.9680, 327.0630
807.1070, 317.5571
808.2450, 372.8384
809.3840, 408.7422
810.5220, 471.0835
811.6600, 562.3008
812.7980, 605.7080
813.9360, 816.1465
815.0730, 911.6157
816.2110, 1116.125
817.3480, 1234.665
818.4850, 1615.241
819.6220, 1904.848
820.7590, 2245.490
821.8960, 2663.170
823.0320, 3222.881
824.1680, 3881.624
825.3040, 4529.403
826.4400, 5451.214
827.5760, 6401.056
828.7120, 7640.945
829.8470, 9079.864
830.9830, 10731.82
832.1180, 12578.84
833.2530, 14205.89
834.3880, 15580.99
835.5220, 16382.13
836.6570, 16586.30
837.7910, 16409.52
838.9250, 16002.77
840.0590, 15611.06
841.1930, 15001.39
842.3270, 14640.74
843.4600, 13677.14
844.5940, 12882.58
845.7270, 11640.05
846.8600, 10345.57
847.9930, 9108.117
849.1250, 7916.700
850.2580, 6981.947
851.3900, 6116.958
852.5230, 5383.684
853.6550, 4873.415
854.7870, 4366.176
855.9180, 4153.972
857.0500, 4020.803
858.1810, 3969.666
859.3130, 3956.564
860.4440, 3814.496
861.5750, 3733.900
862.7050, 3620.469
863.8360, 3445.509
864.9660, 3191.594
866.0970, 2950.715
867.2270, 2592.871
868.3570, 2208.069
869.4870, 1938.300
870.6160, 1652.588
871.7460, 1465.939
872.8750, 1383.344
874.0040, 1244.807
875.1330, 1011.322
876.2620, 1041.897
877.3910, 888.5215
878.5190, 746.1816
879.6470, 748.8872
880.7760, 552.6289
881.9040, 538.4072
883.0310, 446.2310
884.1590, 474.0947
885.2870, 314.0015
886.4140, 270.9556
887.5410, 285.9639
888.6680, 243.0249
889.7950, 186.1279
890.9220, 192.2803
892.0480, 108.4731
893.1750, 35.70312
894.3010, 7.972656
895.4270, 60.28027
896.5530, 64.62500
897.6790, 23.99463
898.8040, 93.58105
899.9300, 16.14307
901.0550, 133.6719
902.1800, 23.18701
903.3050, 114.6655
904.4300, 0.8730470
905.5540, 17.44775
906.6790, 48.93311
907.8030, 42.72021
908.9270, 56.41748
910.0510, 48.16943
911.1750, 59.96582
912.2990, 105.7295
913.4220, 187.7334
914.5450, 230.7031
915.6690, 244.7354
916.7920, 272.3564
917.9140, 242.9775
919.0370, 272.1880
920.1600, 252.4502
921.2820, 241.7710
922.4040, 250.1577
923.5260, 265.1411
924.6480, 283.6538
925.7700, 329.2231
926.8910, 296.8364
928.0130, 359.5171
929.1340, 442.2549
930.2550, 639.0469
931.3760, 709.8960
932.4970, 627.8003
933.6170, 713.2632
934.7380, 590.2896
935.8580, 567.3608
936.9780, 467.8247
938.0980, 401.9897
939.2180, 263.2085
940.3370, 206.4619
941.4570, 188.7466
942.5760, 264.0674
943.6950, 193.4180
944.8140, 348.8076
945.9330, 256.2275
947.0520, 302.8232
948.1700, 298.3882
949.2890, 329.8999
950.4070, 407.2378
951.5250, 451.5581
952.6430, 536.7285
953.7600, 622.0332
954.8780, 756.4224
955.9950, 892.2954
957.1120, 1096.009
958.2290, 1211.750
959.3460, 1489.434
960.4630, 1901.229
961.5800, 2096.053
962.6960, 2504.069
963.8120, 2788.946
964.9280, 2849.569
966.0440, 2768.420
967.1600, 2720.926
968.2760, 2508.487
969.3910, 2134.154
970.5060, 1813.185
971.6210, 1631.887
972.7360, 1286.393
973.8510, 1127.396
974.9660, 977.5234
976.0800, 863.6733
977.1950, 808.8462
978.3090, 673.5586
979.4230, 647.7769
980.5370, 689.8979
981.6500, 679.1602
982.7640, 602.4443
983.8770, 538.3589
984.9900, 507.9688
986.1030, 524.3159
987.2160, 523.6846
988.3290, 531.8931
989.4420, 499.4819
990.5540, 555.9106
991.6660, 501.3589
992.7780, 487.8271
993.8900, 378.4150
995.0020, 517.9214
996.1140, 457.6787
997.2250, 565.2227
998.3360, 545.1436
999.4470, 599.0854
1000.558, 609.6914
1001.669, 589.7573
1002.780, 609.3892
1003.890, 587.4854
1005.001, 586.3428
1006.111, 547.3286
1007.221, 559.4023
1008.331, 529.1665
1009.440, 499.7603
1010.550, 549.8555
1011.659, 528.6187
1012.768, 572.7993
1013.877, 433.8037
1014.986, 468.0825
1016.095, 478.0884
1017.204, 489.0410
1018.312, 495.6396
1019.420, 467.3604
1020.528, 444.5459
1021.636, 377.5923
1022.744, 402.9077
1023.852, 303.0981
1024.959, 373.2456
1026.066, 307.5669
1027.173, 319.5659
1028.280, 236.1533
1029.387, 249.6416
1030.494, 310.6924
1031.600, 259.5771
1032.707, 267.8247
1033.813, 267.6353
1034.919, 246.7686
1036.025, 217.3882
1037.130, 270.5054
1038.236, 309.8125
1039.341, 256.8042
1040.446, 114.5127
1041.552, 206.5977
1042.656, 228.5928
1043.761, 122.5996
1044.866, 188.6035
1045.970, 154.6113
1047.074, 98.62305
1048.179, 110.6377
1049.282, 127.6558
1050.386, 123.6758
1051.490, 105.7031
1052.593, 9.722168
1053.697, 25.74805
1054.800, 22.77490
1055.903, 64.19775
1057.006, 63.80762
1058.108, 36.81201
1059.211, 117.8164
1060.313, 29.82031
1061.415, 51.82227
1062.517, 54.82324
1063.619, 46.82275
1064.721, 84.82031
1065.823, 36.18506
1066.924, 16.79248
1068.025, 18.76709
1069.126, 51.26221
1070.227, 13.68359
1071.328, 19.62451
1072.429, 52.56104
1073.529, 27.49316
1074.629, 45.42041
1075.729, 89.34180
1076.829, 64.25879
1077.929, 24.16943
1079.029, 20.92529
1080.128, 3.961426
1081.228, 17.84082
1082.327, 31.28760
1083.426, 18.56152
1084.525, 14.59717
1085.623, 15.22705
1086.722, 7.956543
1087.820, 16.15625
1088.919, 48.62500
1090.017, 18.39795
1091.115, 8.836914
1092.212, 111.9102
1093.310, 48.65088
1094.407, 44.61768
1095.505, 32.07568
1096.602, 19.24072
1097.699, 85.58301
1098.795, 3.012695
1099.892, 46.40723
1100.989, 14.87061
1102.085, 90.64062
1103.181, 12.85938
1104.277, 24.38623
1105.373, 1.053223
1106.469, 61.47217
1107.564, 39.87988
1108.660, 68.27588
1109.755, 53.34033
1110.850, 77.99268
1111.945, 9.687500
1113.040, 100.6030
1114.134, 61.88037
1115.229, 18.85498
1116.323, 24.37354
1117.417, 59.58496
1118.511, 115.7832
1119.605, 146.4683
1120.698, 130.1396
1121.792, 182.2969
1122.885, 173.4404
1123.978, 113.5703
1125.071, 41.68555
1126.164, 149.7847
1127.257, 12.86914
1128.349, 62.92773
1129.442, 5.029297
1130.534, 38.98145
1131.626, 56.97314
1132.718, 12.95215
1133.810, 71.90820
1134.901, 42.15039
1135.993, 69.26172
1137.084, 32.43994
1138.175, 47.67285
1139.266, 25.96680
1140.357, 54.31299
1141.448, 13.72363
1142.538, 73.81982
1143.628, 2.348145
1144.719, 61.83740
1145.809, 51.30420
1146.898, 7.754883
1147.988, 32.16699
1149.078, 17.55176
1150.167, 2.096680
1151.256, 24.78809
1152.345, 21.96680
1153.434, 27.66357
1154.523, 7.168457
1155.612, 33.95605
1156.700, 64.05566
1157.788, 40.13379
1158.877, 55.18457
1159.964, 60.21094
1161.052, 86.21387
1162.140, 83.20410
1163.227, 51.17627
1164.315, 108.1387
1165.402, 53.08350
1166.489, 53.01318
1167.576, 81.91846
1168.663, 77.81201
1169.749, 110.6831
1170.836, 81.53516
1171.922, 99.44629
1173.008, 120.1821
1174.094, 116.9766
1175.180, 152.7515
1176.265, 178.5073
1177.351, 176.2446
1178.436, 196.9629
1179.521, 225.6611
1180.606, 132.3408
1181.691, 275.0015
1182.776, 220.6426
1183.860, 274.2637
1184.944, 317.8657
1186.029, 173.4487
1187.113, 316.4678
1188.197, 236.0117
1189.280, 337.5366
1190.364, 400.0420
1191.447, 368.5278
1192.531, 389.9941
1193.614, 411.5942
1194.697, 314.8691
1195.779, 434.2764
1196.862, 396.1670
1197.945, 380.5356
1199.027, 492.8853
1200.109, 399.8701
1201.191, 464.1807
1202.273, 551.4722
1203.355, 563.7441
1204.436, 502.9966
1205.518, 509.2305
1206.599, 485.4443
1207.680, 583.6392
1208.761, 580.8140
1209.842, 671.8271
1210.922, 667.8809
1212.003, 651.9985
1213.083, 662.7266
1214.163, 660.5889
1215.243, 624.4414
1216.323, 696.4834
1217.402, 698.7739
1218.482, 768.5898
1219.561, 747.2129
1220.641, 851.7153
1221.720, 703.7485
1222.798, 713.1055
1223.877, 699.0166
1224.956, 735.7441
1226.034, 743.6172
1227.112, 733.7539
1228.191, 756.6699
1229.269, 738.9395
1230.346, 844.1597
1231.424, 735.3730
1232.501, 776.1392
1233.579, 922.2407
1234.656, 809.5449
1235.733, 811.3594
1236.810, 853.0566
1237.886, 893.7920
1238.963, 898.4556
1240.039, 885.5864
1241.116, 828.2163
1242.192, 836.7808
1243.268, 825.3174
1244.343, 835.1270
1245.419, 806.0830
1246.494, 841.3481
1247.570, 786.8799
1248.645, 732.3965
1249.720, 896.8960
1250.795, 892.3804
1251.869, 835.8491
1252.944, 934.3022
1254.018, 837.7388
1255.093, 901.0591
1256.167, 893.4653
1257.240, 824.6230
1258.314, 845.9985
1259.388, 828.8506
1260.461, 900.8335
1261.535, 917.6992
1262.608, 856.1797
1263.681, 896.4800
1264.753, 857.1660
1265.826, 729.2227
1266.899, 867.0977
1267.971, 869.2119
1269.043, 759.3892
1270.115, 794.4282
1271.187, 887.2764
1272.259, 807.7466
1273.330, 862.5444
1274.402, 908.4863
1275.473, 870.1538
1276.544, 864.1982
1277.615, 900.3149
1278.686, 883.8682
1279.756, 870.9404
1280.827, 900.7026
1281.897, 881.6025
1282.967, 897.0112
1284.037, 849.7017
1285.107, 851.5200
1286.177, 826.1426
1287.247, 785.3540
1288.316, 826.7090
1289.385, 756.1606
1290.454, 845.7197
1291.523, 689.5474
1292.592, 734.8887
1293.661, 696.8755
1294.729, 734.0024
1295.797, 705.0981
1296.866, 585.7910
1297.934, 603.3911
1299.001, 609.3301
1300.069, 573.9531
1301.137, 452.8369
1302.204, 454.7666
1303.271, 401.6816
1304.338, 384.5967
1305.405, 335.5049
1306.472, 269.4087
1307.539, 303.3057
1308.605, 317.1963
1309.671, 291.0801
1310.737, 264.9575
1311.803, 198.8276
1312.869, 165.6890
1313.935, 187.5435
1315.000, 264.3906
1316.066, 151.2432
1317.131, 184.0884
1318.196, 223.9282
1319.261, 157.7607
1320.326, 166.5879
1321.390, 120.4082
1322.455, 135.2227
1323.519, 120.7002
1324.583, 63.83398
1325.647, 94.63867
1326.711, 168.4375
1327.775, 133.2310
1328.838, 167.0293
1329.902, 148.8237
1330.965, 92.61133
1332.028, 159.3911
1333.091, 134.1670
1334.153, 124.4546
1335.216, 116.7036
1336.279, 89.46533
1337.341, 123.2222
