##NAMES=Huntite
##RRUFFID=R040126
##IDEAL CHEMISTRY=CaMg_3_(CO_3_)_4_
##LOCALITY=Crestmore Quarry, Riverside County, California, USA
##OWNER=RRUFF
##SOURCE=University of Arizona Mineral Museum
##DESCRIPTION=White fine-grained massive
##STATUS=The identification of this mineral has been confirmed by X-ray diffraction and chemical analysis
##URL=rruff.info/R040126
##MEASURED CHEMISTRY=Ca_0.97_Mg_3.02_(CO_3_)_4_
##PIN_ID=M00404
116.427, 0.000
117.812, 232.456
119.197, 355.336
120.581, 476.209
121.966, 527.845
123.350, 380.695
124.734, 311.154
126.117, 243.047
127.501, 95.746
128.884, 81.569
130.267, 62.546
131.650, 4.514
133.033, 14.753
134.415, 4.718
135.797, 28.808
137.179, 4.358
138.561, 1.118
139.943, 28.971
141.324, 19.168
142.705, 79.684
144.086, 33.493
145.467, 137.576
146.847, 77.913
148.228, 122.489
149.608, 174.287
150.988, 229.293
152.367, 337.244
153.747, 559.875
155.126, 597.424
156.505, 797.960
157.884, 983.725
159.262, 941.473
160.641, 937.438
162.019, 723.540
163.397, 461.765
164.775, 302.106
166.152, 249.562
167.530, 240.130
168.907, 152.805
170.284, 232.581
171.660, 213.457
173.037, 157.433
174.413, 129.504
175.789, 155.667
177.165, 152.916
178.541, 36.246
179.916, 128.650
181.292, 13.126
182.667, 35.669
184.042, 54.274
185.416, 53.939
186.791, 42.959
188.165, 119.434
189.539, 13.258
190.912, 45.128
192.286, 70.043
193.659, 14.001
195.033, 31.999
196.406, 51.040
197.778, 113.120
199.151, 40.267
200.523, 13.509
201.895, 27.293
203.267, 37.949
204.639, 87.260
206.010, 44.578
207.381, 50.896
208.753, 64.225
210.123, 101.566
211.494, 53.918
212.864, 132.311
214.235, 162.809
215.605, 281.377
216.974, 82.019
218.344, 170.669
219.713, 132.334
221.083, 222.011
222.452, 224.696
223.820, 213.520
225.189, 271.384
226.557, 364.272
227.925, 503.226
229.293, 769.253
230.661, 833.293
232.029, 985.350
233.396, 1012.422
234.763, 1111.502
236.130, 966.584
237.496, 988.675
238.863, 995.762
240.229, 1326.857
241.595, 1583.949
242.961, 1898.039
244.327, 2373.131
245.692, 2758.224
247.057, 3103.322
248.422, 3328.424
249.787, 3253.524
251.152, 3368.622
252.516, 3313.723
253.880, 3458.822
255.244, 3673.919
256.608, 3529.012
257.972, 3434.101
259.335, 2989.188
260.698, 2574.275
262.061, 1979.357
263.424, 1524.437
264.786, 1351.541
266.149, 1109.637
267.511, 1322.727
268.873, 1493.812
270.234, 2069.892
271.596, 2525.062
272.957, 3330.135
274.318, 3935.209
275.679, 4210.490
277.040, 4175.722
278.400, 3620.895
279.760, 3278.524
281.120, 3062.234
282.480, 2711.508
283.840, 2485.410
285.199, 2219.414
286.558, 1903.784
287.917, 1408.181
289.276, 1005.393
290.635, 846.414
291.993, 621.731
293.351, 622.364
294.709, 509.992
296.067, 419.332
297.425, 283.569
298.782, 324.326
300.139, 297.495
301.496, 346.018
302.853, 303.748
304.209, 275.403
305.566, 360.245
306.922, 406.696
308.278, 579.684
309.633, 666.979
310.989, 743.555
312.344, 1076.859
313.699, 1364.667
315.054, 1884.083
316.409, 2158.918
317.763, 2404.040
319.118, 2608.953
320.472, 2444.190
321.826, 2349.471
323.179, 1854.444
324.533, 1439.459
325.886, 1019.346
327.239, 814.524
328.592, 699.774
329.944, 524.966
331.297, 327.878
332.649, 339.254
334.001, 239.180
335.353, 220.105
336.704, 229.271
338.056, 164.609
339.407, 155.994
340.758, 93.223
342.109, 151.963
343.459, 112.216
344.810, 158.419
346.160, 105.523
347.510, 170.471
348.860, 144.533
350.209, 168.291
351.559, 131.568
352.908, 134.543
354.257, 150.798
355.605, 161.282
356.954, 117.515
358.302, 322.081
359.650, 248.374
360.998, 284.987
362.346, 205.214
363.694, 368.913
365.041, 352.734
366.388, 328.621
367.735, 386.926
369.082, 394.798
370.428, 422.033
371.774, 425.129
373.121, 424.521
374.466, 385.490
375.812, 422.913
377.158, 400.038
378.503, 423.147
379.848, 431.942
381.193, 465.031
382.537, 447.038
383.882, 466.005
385.226, 464.443
386.570, 521.144
387.914, 526.063
389.258, 601.136
390.601, 696.022
391.944, 590.970
393.287, 675.646
394.630, 650.524
395.973, 635.429
397.315, 530.189
398.658, 525.100
400.000, 490.388
401.342, 395.180
402.683, 360.122
404.025, 344.681
405.366, 279.800
406.707, 344.439
408.048, 286.997
409.388, 277.251
410.729, 226.755
412.069, 177.448
413.409, 116.895
414.749, 75.845
416.088, 210.258
417.428, 164.923
418.767, 116.998
420.106, 134.545
421.445, 92.496
422.783, 104.383
424.122, 46.083
425.460, 93.891
426.798, 128.597
428.136, 94.184
429.473, 158.687
430.811, 103.792
432.148, 28.300
433.485, 62.536
434.821, 57.988
436.158, 122.272
437.494, 56.622
438.831, 21.486
440.167, 23.751
441.502, 30.899
442.838, 74.506
444.173, 89.781
445.508, 134.430
446.843, 28.731
448.178, 43.560
449.513, 32.549
450.847, 28.107
452.181, 176.172
453.515, 40.018
454.849, 54.264
456.183, 128.578
457.516, 73.053
458.849, 57.211
460.182, 11.144
461.515, 115.362
462.847, 89.546
464.180, 183.379
465.512, 77.277
466.844, 8.133
468.176, 56.010
469.507, 20.285
470.839, 102.143
472.170, 21.863
473.501, 155.514
474.831, 50.180
476.162, 143.397
477.492, 67.123
478.822, 121.037
480.152, 45.449
481.482, 39.889
482.812, 113.158
484.141, 107.358
485.470, 181.049
486.799, 74.596
488.128, 91.382
489.457, 58.269
490.785, 195.455
492.113, 38.613
493.441, 223.318
494.769, 18.827
496.096, 104.027
497.424, 72.742
498.751, 9.583
500.078, 93.344
501.405, 26.332
502.731, 89.254
504.058, 102.489
505.384, 4.296
506.710, 208.422
508.035, 71.444
509.361, 44.613
510.686, 87.300
512.012, 160.053
513.337, 92.510
514.661, 45.371
515.986, 98.336
517.310, 91.069
518.634, 83.785
519.958, 36.521
521.282, 99.149
522.606, 261.419
523.929, 65.168
525.252, 227.525
526.575, 80.198
527.898, 262.354
529.221, 94.481
530.543, 127.050
531.865, 79.111
533.187, 131.138
534.509, 53.397
535.831, 115.365
537.152, 118.147
538.473, 160.057
539.794, 151.932
541.115, 137.883
542.436, 145.642
543.756, 97.478
545.076, 139.280
546.396, 151.049
547.716, 112.785
549.036, 154.489
550.355, 138.191
551.674, 207.802
552.994, 149.410
554.312, 140.992
555.631, 172.541
556.949, 134.499
558.268, 55.543
559.586, 156.991
560.904, 118.408
562.221, 219.789
563.539, 71.137
564.856, 182.446
566.173, 93.723
567.490, 15.037
568.807, 206.141
570.123, 157.283
571.439, 218.393
572.755, 89.467
574.071, 220.503
575.387, 151.506
576.702, 62.473
578.018, 173.398
579.333, 74.289
580.648, 85.142
581.962, 125.958
583.277, 96.647
584.591, 117.388
585.905, 28.090
587.219, 158.749
588.533, 49.374
589.846, 149.957
591.160, 210.298
592.473, 30.761
593.786, 191.152
595.099, 171.620
596.411, 61.938
597.723, 72.057
599.036, 80.096
600.348, 90.190
601.659, 144.921
602.971, 65.670
604.282, 135.868
605.593, 45.752
606.904, 235.647
608.215, 83.016
609.526, 110.372
610.836, 210.888
612.146, 110.744
613.456, 90.636
614.766, 60.692
616.076, 120.628
617.385, 170.253
618.694, 104.068
620.003, 120.622
621.312, 200.249
622.621, 180.609
623.929, 50.454
625.237, 108.982
626.546, 208.726
627.853, 34.300
629.161, 97.589
630.468, 176.829
631.776, 46.206
633.083, 171.412
634.390, 130.816
635.696, 80.180
637.003, 29.494
638.309, 27.043
639.615, 217.798
640.921, 37.166
642.227, 106.316
643.532, 135.921
644.838, 45.013
646.143, 207.148
647.448, 51.333
648.752, 170.740
650.057, 1.867
651.361, 48.753
652.666, 237.514
653.969, 126.608
655.273, 118.893
656.577, 169.201
657.880, 148.025
659.183, 156.364
660.486, 75.050
661.789, 73.478
663.092, 180.445
664.394, 117.681
665.696, 75.963
666.998, 184.379
668.300, 164.153
669.602, 232.373
670.903, 137.231
672.205, 105.280
673.506, 153.395
674.806, 151.418
676.107, 139.032
677.408, 156.960
678.708, 304.921
680.008, 13.403
681.308, 201.095
682.608, 119.504
683.907, 257.352
685.206, 235.191
686.506, 122.606
687.804, 300.433
689.103, 337.707
690.402, 177.388
691.700, 284.332
692.998, 52.479
694.296, 450.269
695.594, 347.591
696.892, 431.112
698.189, 358.729
699.486, 342.969
700.783, 550.011
702.080, 577.014
703.377, 484.376
704.673, 701.771
705.969, 629.119
707.265, 576.727
708.561, 643.783
709.857, 612.258
711.152, 549.240
712.447, 586.634
713.743, 574.217
715.037, 610.672
716.332, 627.877
717.627, 661.963
718.921, 621.163
720.215, 767.312
721.509, 834.319
722.803, 930.525
724.096, 893.820
725.390, 1020.373
726.683, 1036.683
727.976, 1143.187
729.269, 1089.133
730.561, 1035.566
731.854, 731.693
733.146, 647.355
734.438, 723.495
735.730, 339.500
737.021, 535.506
738.313, 301.330
739.604, 447.238
740.895, 573.309
742.186, 518.766
743.476, 495.074
744.767, 560.224
746.057, 446.018
747.347, 427.269
748.637, 411.911
749.927, 401.441
751.216, 287.336
752.506, 252.399
753.795, 487.787
755.084, 242.943
756.373, 408.821
757.661, 124.588
758.950, 420.311
760.238, 295.591
761.526, 310.295
762.814, 176.501
764.101, 232.572
765.389, 127.643
766.676, 213.807
767.963, 208.801
769.250, 218.560
770.536, 203.317
771.823, 358.239
773.109, 36.253
774.395, 71.156
775.681, 323.679
776.967, 88.675
778.252, 163.530
779.538, 87.682
780.823, 142.170
782.108, 307.040
783.393, 187.841
784.677, 162.252
785.962, 347.465
787.246, 131.535
788.530, 216.186
789.814, 151.148
791.097, 205.346
792.381, 198.987
793.664, 92.660
794.947, 147.353
796.230, 181.031
797.513, 95.159
798.795, 139.372
800.077, 103.051
801.359, 97.548
802.641, 107.908
803.923, 10.942
805.205, 91.751
806.486, 101.453
807.767, 75.865
809.048, 220.258
810.329, 35.782
811.610, 98.326
812.890, 82.752
814.170, 106.840
815.450, 170.453
816.730, 54.028
818.010, 111.972
819.289, 141.751
820.569, 65.261
821.848, 0.927
823.126, 212.753
824.405, 83.331
825.684, 110.106
826.962, 143.362
828.240, 146.790
829.518, 250.176
830.796, 63.483
832.074, 136.907
833.351, 81.504
834.628, 143.613
835.905, 78.311
837.182, 101.377
838.459, 195.154
839.735, 198.934
841.011, 121.924
842.287, 195.361
843.563, 11.227
844.839, 271.881
846.115, 15.232
847.390, 67.693
848.665, 210.967
849.940, 75.617
851.215, 97.547
852.489, 89.316
853.764, 173.895
855.038, 216.920
856.312, 130.277
857.586, 73.248
858.859, 116.740
860.133, 29.652
861.406, 222.533
862.679, 4.607
863.952, 148.211
865.225, 71.016
866.497, 53.791
867.770, 66.539
869.042, 69.262
870.314, 181.957
871.585, 284.629
872.857, 227.371
874.128, 99.998
875.400, 192.598
876.671, 445.256
877.942, 687.826
879.212, 1170.395
880.483, 1502.939
881.753, 1305.461
883.023, 958.135
884.293, 460.611
885.563, 283.068
886.832, 365.504
888.101, 117.916
889.371, 120.326
890.640, 232.713
891.908, 135.080
893.177, 107.426
894.445, 29.746
895.714, 72.076
896.982, 194.379
898.250, 166.664
899.517, 71.070
900.785, 191.127
902.052, 46.691
903.319, 125.438
904.586, 237.543
905.853, 119.639
907.119, 211.715
908.386, 13.742
909.652, 95.779
910.918, 7.270
912.184, 219.258
913.449, 321.227
914.715, 33.180
915.980, 5.172
917.245, 266.684
918.510, 8.080
919.775, 309.816
921.039, 68.484
922.303, 153.180
923.568, 224.764
924.831, 76.529
926.095, 83.672
927.359, 128.613
928.622, 160.326
929.885, 271.371
931.148, 152.713
932.411, 193.727
933.674, 334.955
934.936, 56.611
936.199, 228.033
937.461, 39.338
938.723, 140.959
939.984, 362.104
941.246, 33.590
942.507, 234.785
943.769, 176.193
945.030, 127.568
946.290, 148.492
947.551, 219.629
948.811, 240.896
950.072, 221.793
951.332, 172.863
952.592, 173.773
953.851, 55.355
955.111, 295.508
956.370, 284.143
957.629, 94.926
958.888, 365.771
960.147, 46.498
961.406, 147.811
962.664, 295.002
963.922, 35.783
965.180, 116.486
966.438, 297.277
967.696, 148.326
968.953, 328.877
970.211, 101.268
971.468, 102.164
972.725, 372.729
973.982, 132.088
975.238, 303.252
976.495, 117.438
977.751, 128.150
979.007, 128.996
980.263, 149.846
981.518, 191.020
982.774, 101.506
984.029, 17.711
985.284, 282.822
986.539, 26.387
987.794, 134.113
989.048, 54.699
990.303, 45.668
991.557, 286.643
992.811, 257.289
994.065, 168.252
995.318, 236.979
996.572, 108.027
997.825, 268.115
999.078, 288.520
1000.331, 69.518
1001.584, 174.232
1002.836, 144.740
1004.089, 58.609
1005.341, 259.457
1006.593, 10.436
1007.845, 221.170
1009.096, 8.457
1010.348, 192.086
1011.599, 152.250
1012.850, 93.506
1014.101, 242.752
1015.352, 116.836
1016.602, 267.160
1017.853, 347.539
1019.103, 98.537
1020.353, 328.840
1021.603, 220.113
1022.852, 70.980
1024.102, 331.920
1025.351, 212.840
1026.600, 73.646
1027.849, 414.775
1029.098, 200.482
1030.346, 351.316
1031.595, 212.424
1032.843, 53.250
1034.091, 294.068
1035.339, 185.033
1036.586, 165.844
1037.834, 436.648
1039.081, 211.555
1040.328, 192.039
1041.575, 202.932
1042.822, 293.479
1044.068, 413.906
1045.314, 100.664
1046.561, 291.291
1047.807, 552.068
1049.052, 162.746
1050.298, 278.176
1051.544, 249.328
1052.789, 356.318
1054.034, 335.486
1055.279, 319.035
1056.523, 269.520
1057.768, 280.279
1059.012, 180.613
1060.257, 451.004
1061.501, 461.025
1062.744, 271.783
1063.988, 392.541
1065.231, 307.104
1066.475, 576.760
1067.718, 417.520
1068.961, 367.723
1070.203, 518.484
1071.446, 424.361
1072.688, 445.027
1073.931, 565.793
1075.173, 286.893
1076.414, 467.316
1077.656, 447.984
1078.898, 403.709
1080.139, 444.535
1081.380, 315.324
1082.621, 536.391
1083.862, 317.232
1085.102, 408.119
1086.343, 468.967
1087.583, 479.312
1088.823, 390.092
1090.063, 740.953
1091.302, 451.295
1092.542, 672.133
1093.781, 702.967
1095.020, 413.686
1096.259, 864.500
1097.498, 695.342
1098.737, 756.439
1099.975, 947.244
1101.213, 978.051
1102.451, 1118.867
1103.689, 1186.881
1104.927, 1167.033
1106.164, 1457.932
1107.402, 1508.443
1108.639, 1949.180
1109.876, 1869.502
1111.113, 2050.242
1112.349, 2481.619
1113.586, 2451.924
1114.822, 3052.574
1116.058, 3973.332
1117.294, 4774.035
1118.530, 6844.744
1119.765, 9205.363
1121.001, 14045.998
1122.236, 21986.744
1123.471, 29477.418
1124.706, 33798.102
1125.940, 30608.857
1127.175, 22559.551
1128.409, 15900.293
1129.643, 10240.992
1130.877, 6611.680
1132.111, 4722.441
1133.344, 2932.176
1134.578, 2372.857
1135.811, 1892.785
1137.044, 1063.463
1138.277, 1333.986
1139.510, 924.379
1140.742, 635.047
1141.974, 770.383
1143.206, 261.055
1144.438, 491.740
1145.670, 532.449
1146.902, 393.150
1148.133, 284.414
1149.365, 314.967
1150.596, 125.723
1151.827, 446.477
1153.057, 107.111
1154.288, 397.926
1155.518, 88.150
1156.748, 128.729
1157.978, 288.881
1159.208, 129.398
1160.438, 39.896
1161.667, 380.363
1162.897, 68.963
1164.126, 191.492
1165.355, 94.340
1166.583, 7.648
1167.812, 263.590
1169.040, 4.736
1170.269, 145.984
1171.497, 107.158
1172.725, 8.373
1173.952, 169.412
1175.180, 60.635
1176.407, 88.133
1177.634, 343.068
1178.861, 64.283
1180.088, 265.475
1181.315, 296.652
1182.541, 97.863
1183.767, 289.127
1184.994, 200.410
1186.220, 78.299
1187.445, 463.008
1188.671, 114.334
1189.896, 225.654
1191.121, 416.977
1192.346, 111.686
1193.571, 59.719
1194.796, 271.135
1196.021, 182.566
1197.245, 263.955
1198.469, 55.359
1199.693, 206.771
1200.917, 408.197
1202.140, 20.363
1203.364, 341.098
1204.587, 282.568
1205.810, 84.055
1207.033, 325.555
1208.256, 457.070
1209.479, 358.643
1210.701, 380.234
1211.923, 68.148
1213.145, 263.486
1214.367, 505.143
1215.589, 126.824
1216.810, 338.529
1218.032, 300.260
1219.253, 282.018
1220.474, 353.797
1221.695, 5.607
1222.915, 377.443
1224.136, 309.324
1225.356, 68.750
1226.576, 343.209
1227.796, 275.176
1229.016, 127.141
1230.235, 569.141
1231.455, 71.168
1232.674, 433.232
1233.893, 295.273
1235.112, 207.199
1236.331, 349.398
1237.549, 401.002
1238.767, 236.514
1239.986, 557.059
1241.204, 338.270
1242.421, 360.355
1243.639, 641.590
1244.857, 122.795
1246.074, 564.318
1247.291, 406.475
1248.508, 278.326
1249.725, 380.262
1250.941, 332.070
1252.158, 174.131
1253.374, 548.977
1254.590, 330.723
1255.806, 451.500
1257.022, 593.242
1258.237, 41.111
1259.453, 361.982
1260.668, 213.629
1261.883, 285.273
1263.098, 523.859
1264.312, 214.682
1265.527, 535.939
1266.741, 317.160
1267.955, 285.896
1269.169, 330.395
1270.383, 400.908
1271.597, 170.500
1272.810, 729.010
1274.024, 179.102
1275.237, 189.053
1276.450, 519.121
1277.662, 159.092
1278.875, 527.842
1280.087, 507.891
1281.300, 77.973
1282.512, 837.619
1283.724, 178.303
1284.935, 338.908
1286.147, 646.094
1287.358, 63.484
1288.569, 487.498
1289.780, 398.432
1290.991, 209.949
1292.202, 511.564
1293.412, 93.650
1294.623, 336.281
1295.833, 558.094
1297.043, 326.762
1298.253, 339.322
1299.462, 493.441
1300.672, 229.695
1301.881, 368.021
1303.090, 186.932
1304.299, 231.637
1305.508, 433.879
1306.716, 417.090
1307.925, 190.057
1309.133, 449.785
1310.341, 1.746
1311.549, 0.000
##END=



