##NAMES=Huntite
##RRUFFID=R040126
##IDEAL CHEMISTRY=CaMg_3_(CO_3_)_4_
##LOCALITY=Crestmore Quarry, Riverside County, California, USA
##OWNER=RRUFF
##SOURCE=University of Arizona Mineral Museum
##DESCRIPTION=White fine-grained massive
##STATUS=The identification of this mineral has been confirmed by X-ray diffraction and chemical analysis
##URL=rruff.info/R040126
##MEASURED CHEMISTRY=Ca_0.97_Mg_3.02_(CO_3_)_4_
##PIN_ID=M00404
116.427, 0.000
117.812, 138.660
119.197, 382.611
120.581, 512.047
121.966, 562.185
123.350, 370.524
124.734, 272.961
126.117, 246.512
127.501, 209.462
128.884, 139.876
130.267, 84.708
131.650, 14.020
133.033, 17.715
134.415, 23.375
135.797, 0.813
137.179, 41.637
138.561, 12.829
139.943, 26.519
141.324, 87.639
142.705, 17.850
144.086, 104.020
145.467, 128.218
146.847, 169.720
148.228, 146.503
149.608, 214.548
150.988, 344.836
152.367, 477.349
153.747, 548.072
155.126, 633.991
156.505, 849.095
157.884, 963.378
159.262, 1098.188
160.641, 927.267
162.019, 788.924
163.397, 486.717
164.775, 390.639
166.152, 211.684
167.530, 195.847
168.907, 195.121
170.284, 170.501
171.660, 171.984
173.037, 311.566
174.413, 122.242
175.789, 159.013
177.165, 160.873
178.541, 29.816
179.916, 152.839
181.292, 70.937
182.667, 70.105
184.042, 64.343
185.416, 37.646
186.791, 19.010
188.165, 27.613
189.539, 5.634
190.912, 59.438
192.286, 14.017
193.659, 54.642
195.033, 122.316
196.406, 83.074
197.778, 88.966
199.151, 79.916
200.523, 43.843
201.895, 32.229
203.267, 12.291
204.639, 26.648
206.010, 45.593
207.381, 82.553
208.753, 41.576
210.123, 143.635
211.494, 52.725
212.864, 92.826
214.235, 177.961
215.605, 250.195
216.974, 180.445
218.344, 243.717
219.713, 135.010
221.083, 195.322
222.452, 262.656
223.820, 240.030
225.189, 348.455
226.557, 426.926
227.925, 533.430
229.293, 699.954
230.661, 862.519
232.029, 1024.146
233.396, 999.817
234.763, 1083.495
236.130, 1118.192
237.496, 1081.897
238.863, 1160.608
240.229, 1280.329
241.595, 1595.054
242.961, 1952.780
244.327, 2367.517
245.692, 2692.269
247.057, 3187.032
248.422, 3271.810
249.787, 3396.601
251.152, 3301.400
252.516, 3396.203
253.880, 3571.007
255.244, 3775.811
256.608, 3650.613
257.972, 3435.419
259.335, 3010.233
260.698, 2535.048
262.061, 2009.863
263.424, 1527.675
264.786, 1280.498
266.149, 1151.314
267.511, 1338.128
268.873, 1633.944
270.234, 2148.758
271.596, 2563.615
272.957, 3368.692
274.318, 3865.098
275.679, 4300.767
277.040, 4119.566
278.400, 3656.297
279.760, 3272.328
281.120, 3025.532
282.480, 2878.855
283.840, 2592.366
285.199, 2166.014
286.558, 1831.252
287.917, 1475.095
289.276, 1186.920
290.635, 911.957
291.993, 717.979
293.351, 657.106
294.709, 546.385
296.067, 491.048
297.425, 493.890
298.782, 412.289
300.139, 382.604
301.496, 242.170
302.853, 383.364
304.209, 313.989
305.566, 412.678
306.922, 499.867
308.278, 467.607
309.633, 692.474
310.989, 789.745
312.344, 1053.407
313.699, 1460.998
315.054, 1835.806
316.409, 2150.704
317.763, 2515.696
319.118, 2640.688
320.472, 2435.600
321.826, 2390.599
323.179, 1835.547
324.533, 1480.455
325.886, 1085.361
327.239, 849.652
328.592, 745.686
329.944, 627.443
331.297, 468.145
332.649, 316.148
334.001, 242.857
335.353, 202.858
336.704, 166.622
338.056, 158.648
339.407, 137.653
340.758, 153.378
342.109, 129.914
343.459, 112.747
344.810, 120.521
346.160, 102.807
347.510, 137.531
348.860, 142.256
350.209, 82.331
351.559, 113.147
352.908, 66.820
354.257, 140.827
355.605, 213.866
356.954, 120.603
358.302, 233.540
359.650, 234.507
360.998, 445.588
362.346, 228.534
363.694, 284.342
365.041, 363.087
366.388, 311.607
367.735, 481.507
369.082, 406.167
370.428, 436.203
371.774, 390.319
373.121, 488.381
374.466, 455.781
375.812, 361.698
377.158, 452.785
378.503, 458.753
379.848, 463.925
381.193, 334.952
382.537, 387.087
383.882, 519.043
385.226, 393.942
386.570, 478.749
387.914, 543.415
389.258, 567.983
390.601, 612.486
391.944, 627.573
393.287, 623.852
394.630, 596.812
395.973, 611.843
397.315, 566.363
398.658, 592.146
400.000, 406.559
401.342, 391.326
402.683, 396.036
404.025, 290.949
405.366, 275.419
406.707, 289.788
408.048, 124.478
409.388, 200.629
410.729, 184.923
412.069, 179.271
413.409, 173.795
414.749, 144.054
416.088, 122.776
417.428, 97.588
418.767, 92.784
420.106, 97.033
421.445, 61.685
422.783, 135.942
424.122, 20.310
425.460, 175.203
426.798, 0.548
428.136, 3.978
429.473, 21.891
430.811, 7.055
432.148, 5.292
433.485, 18.737
434.821, 54.919
436.158, 22.111
437.494, 13.374
438.831, 11.575
440.167, 32.950
441.502, 17.182
442.838, 81.364
444.173, 85.325
445.508, 86.617
446.843, 15.035
448.178, 79.514
449.513, 73.497
450.847, 67.826
452.181, 211.908
453.515, 65.726
454.849, 39.904
456.183, 3.859
457.516, 57.837
458.849, 38.198
460.182, 4.315
461.515, 29.871
462.847, 16.240
464.180, 33.442
465.512, 26.986
466.844, 65.448
468.176, 29.383
469.507, 13.047
470.839, 13.056
472.170, 64.137
473.501, 99.254
474.831, 53.002
476.162, 36.215
477.492, 19.925
478.822, 23.240
480.152, 47.441
481.482, 31.634
482.812, 44.928
484.141, 59.392
485.470, 62.438
486.799, 15.555
488.128, 39.111
489.457, 27.519
490.785, 195.934
492.113, 30.673
493.441, 162.301
494.769, 13.969
496.096, 118.824
497.424, 2.190
498.751, 65.066
500.078, 158.050
501.405, 1.186
502.731, 15.961
504.058, 127.063
505.384, 80.098
506.710, 142.880
508.035, 185.756
509.361, 58.424
510.686, 121.447
512.012, 13.864
513.337, 76.955
514.661, 69.621
515.986, 142.686
517.310, 95.312
518.634, 87.582
519.958, 59.823
521.282, 92.430
522.606, 124.611
523.929, 27.517
525.252, 169.646
526.575, 102.395
527.898, 194.749
529.221, 7.042
530.543, 49.266
531.865, 61.300
533.187, 33.256
534.509, 65.187
535.831, 52.154
537.152, 9.128
538.473, 40.963
539.794, 62.761
541.115, 44.526
542.436, 76.848
543.756, 88.664
545.076, 109.679
546.396, 141.342
547.716, 162.976
549.036, 212.342
550.355, 46.156
551.674, 217.708
552.994, 109.228
554.312, 50.739
555.631, 162.216
556.949, 13.662
558.268, 245.099
559.586, 96.506
560.904, 107.878
562.221, 59.218
563.539, 160.521
564.856, 181.792
566.173, 103.031
567.490, 4.236
568.807, 195.391
570.123, 176.514
571.439, 217.603
572.755, 108.659
574.071, 99.681
575.387, 60.665
576.702, 31.612
578.018, 182.518
579.333, 83.391
580.648, 174.227
581.962, 145.031
583.277, 45.755
584.591, 166.484
585.905, 96.923
587.219, 187.449
588.533, 43.338
589.846, 22.937
591.160, 196.894
592.473, 2.778
593.786, 163.864
595.099, 132.510
596.411, 22.670
597.723, 51.838
599.036, 101.983
600.348, 112.021
601.659, 162.215
602.971, 12.377
604.282, 62.523
605.593, 41.212
606.904, 141.423
608.215, 61.599
609.526, 111.730
610.836, 171.993
612.146, 82.234
613.456, 131.959
614.766, 121.312
616.076, 121.360
617.385, 127.994
618.694, 57.558
620.003, 119.018
621.312, 147.010
622.621, 56.402
623.929, 115.721
625.237, 85.159
626.546, 144.724
627.853, 83.822
629.161, 58.220
630.468, 176.538
631.776, 86.116
633.083, 215.646
634.390, 84.790
635.696, 174.087
637.003, 23.815
638.309, 23.144
639.615, 153.191
640.921, 12.460
642.227, 241.255
643.532, 190.794
644.838, 79.482
646.143, 118.422
647.448, 84.542
648.752, 94.557
650.057, 180.495
651.361, 29.801
652.666, 206.387
653.969, 67.442
655.273, 175.188
656.577, 144.411
657.880, 104.583
659.183, 162.303
660.486, 109.535
661.789, 148.188
663.092, 90.467
664.394, 109.459
665.696, 164.084
666.998, 72.653
668.300, 261.562
669.602, 49.083
670.903, 137.271
672.205, 45.562
673.506, 134.098
674.806, 212.457
676.107, 220.936
677.408, 119.072
678.708, 297.035
680.008, 47.062
681.308, 264.439
682.608, 64.671
683.907, 153.790
685.206, 161.820
686.506, 168.581
687.804, 206.368
689.103, 233.856
690.402, 253.048
691.700, 260.522
692.998, 179.969
694.296, 326.599
695.594, 323.512
696.892, 310.961
698.189, 448.115
699.486, 431.924
700.783, 559.062
702.080, 496.399
703.377, 524.655
704.673, 662.439
705.969, 419.664
707.265, 549.144
708.561, 636.299
709.857, 549.305
711.152, 495.857
712.447, 613.233
713.743, 546.958
715.037, 644.146
716.332, 571.416
717.627, 642.800
718.921, 614.573
720.215, 741.297
721.509, 828.411
722.803, 824.814
724.096, 939.705
725.390, 1096.401
726.683, 1122.993
727.976, 1189.619
729.269, 1065.850
730.561, 952.003
731.854, 867.928
733.146, 753.415
734.438, 689.798
735.730, 416.164
737.021, 462.984
738.313, 389.169
739.604, 494.701
740.895, 511.636
742.186, 597.843
743.476, 514.296
744.767, 465.786
746.057, 488.296
747.347, 435.073
748.637, 458.788
749.927, 405.791
751.216, 401.537
752.506, 346.418
753.795, 382.294
755.084, 258.056
756.373, 385.709
757.661, 231.836
758.950, 283.649
760.238, 218.907
761.526, 200.029
762.814, 199.938
764.101, 195.682
765.389, 160.960
766.676, 146.969
767.963, 272.047
769.250, 247.500
770.536, 152.866
771.823, 268.352
773.109, 43.504
774.395, 1.419
775.681, 193.604
776.967, 248.744
778.252, 333.409
779.538, 345.298
780.823, 153.716
782.108, 278.688
783.393, 163.928
784.677, 103.528
785.962, 159.160
787.246, 114.202
788.530, 179.319
789.814, 114.310
791.097, 29.209
792.381, 113.165
793.664, 7.143
794.947, 102.320
796.230, 215.884
797.513, 40.761
798.795, 135.506
800.077, 129.752
801.359, 144.128
802.641, 8.789
803.923, 113.011
805.205, 87.581
806.486, 181.754
807.767, 13.619
809.048, 120.369
810.329, 24.782
811.610, 0.971
812.890, 73.155
814.170, 17.402
815.450, 91.407
816.730, 115.540
818.010, 69.448
819.289, 76.238
820.569, 68.359
821.848, 42.021
823.126, 156.229
824.405, 145.749
825.684, 103.537
826.962, 107.201
828.240, 90.961
829.518, 45.162
830.796, 89.188
832.074, 153.049
833.351, 12.986
834.628, 170.189
835.905, 15.758
837.182, 2.551
838.459, 151.014
839.735, 114.953
841.011, 78.498
842.287, 152.170
843.563, 14.004
844.839, 139.645
846.115, 16.734
847.390, 96.670
848.665, 290.221
849.940, 104.801
851.215, 138.299
852.489, 88.229
853.764, 175.176
855.038, 138.541
856.312, 2.088
857.586, 65.391
858.859, 221.072
860.133, 25.682
861.406, 257.521
862.679, 77.969
863.952, 195.131
865.225, 108.209
866.497, 108.742
867.770, 154.219
869.042, 37.156
870.314, 250.066
871.585, 142.949
872.857, 225.811
874.128, 118.648
875.400, 351.461
876.671, 354.250
877.942, 727.027
879.212, 1149.793
880.483, 1532.537
881.753, 1275.258
883.023, 837.957
884.293, 600.635
885.563, 263.295
886.832, 345.936
888.101, 88.555
889.371, 61.162
890.640, 173.740
891.908, 196.301
893.177, 8.838
894.445, 91.350
895.714, 113.879
896.982, 136.383
898.250, 188.885
899.517, 21.381
900.785, 193.852
902.052, 3.693
903.319, 188.734
904.586, 171.143
905.853, 43.537
907.119, 125.910
908.386, 21.740
909.652, 80.572
910.918, 107.143
912.184, 165.068
913.449, 237.193
914.715, 39.223
915.980, 21.230
917.245, 213.199
918.510, 55.004
919.775, 256.727
921.039, 128.795
922.303, 130.844
923.568, 92.533
924.831, 234.541
926.095, 105.666
927.359, 195.641
928.622, 167.432
929.885, 229.391
931.148, 21.336
932.411, 173.258
933.674, 274.842
934.936, 36.729
936.199, 258.318
937.461, 29.682
938.723, 71.252
939.984, 272.619
941.246, 64.242
942.507, 215.574
943.769, 396.438
945.030, 147.738
946.290, 48.189
947.551, 259.414
948.811, 221.105
950.072, 322.012
951.332, 173.342
952.592, 254.635
953.851, 55.979
955.111, 186.438
956.370, 337.621
957.629, 58.686
958.888, 380.129
960.147, 299.287
961.406, 280.447
962.664, 271.100
963.922, 131.033
965.180, 251.955
966.438, 262.502
967.696, 353.475
968.953, 194.537
970.211, 65.395
971.468, 20.566
972.725, 271.389
973.982, 292.080
975.238, 303.246
976.495, 244.357
977.751, 75.281
979.007, 296.211
980.263, 107.064
981.518, 287.711
982.774, 78.531
984.029, 149.605
985.284, 228.699
986.539, 99.824
987.794, 218.738
989.048, 128.479
990.303, 39.492
991.557, 160.342
992.811, 371.027
994.065, 102.016
995.318, 291.023
996.572, 131.936
997.825, 320.768
999.078, 231.482
1000.331, 17.346
1001.584, 203.369
1002.836, 304.215
1004.089, 118.525
1005.341, 379.850
1006.593, 70.666
1007.845, 380.646
1009.096, 48.859
1010.348, 262.189
1011.599, 201.441
1012.850, 27.527
1014.101, 287.309
1015.352, 118.645
1016.602, 259.230
1017.853, 262.148
1019.103, 133.385
1020.353, 273.658
1021.603, 194.617
1022.852, 175.400
1024.102, 226.342
1025.351, 347.832
1026.600, 198.756
1027.849, 409.674
1029.098, 164.082
1030.346, 374.984
1031.595, 296.623
1032.843, 227.719
1034.091, 308.607
1035.339, 279.938
1036.586, 290.801
1037.834, 411.648
1039.081, 134.900
1040.328, 105.188
1041.575, 306.676
1042.822, 207.500
1044.068, 407.506
1045.314, 197.439
1046.561, 278.043
1047.807, 518.625
1049.052, 310.016
1050.298, 380.109
1051.544, 250.895
1052.789, 380.801
1054.034, 541.574
1055.279, 243.463
1056.523, 393.639
1057.768, 274.156
1059.012, 272.785
1060.257, 343.107
1061.501, 376.395
1062.744, 297.201
1063.988, 347.941
1065.231, 188.551
1066.475, 538.621
1067.718, 419.355
1068.961, 309.736
1070.203, 620.465
1071.446, 310.988
1072.688, 451.520
1073.931, 441.891
1075.173, 222.611
1076.414, 503.043
1077.656, 353.770
1078.898, 490.879
1080.139, 521.602
1081.380, 341.697
1082.621, 542.486
1083.862, 373.205
1085.102, 363.389
1086.343, 524.105
1087.583, 464.244
1088.823, 354.746
1090.063, 645.465
1091.302, 485.756
1092.542, 596.477
1093.781, 527.201
1095.020, 407.852
1096.259, 968.098
1097.498, 738.826
1098.737, 710.355
1099.975, 921.080
1101.213, 861.805
1102.451, 1013.711
1103.689, 893.998
1104.927, 1094.730
1106.164, 1395.459
1107.402, 1525.768
1108.639, 1846.473
1109.876, 1857.180
1111.113, 1987.885
1112.349, 2498.596
1113.586, 2509.191
1114.822, 3179.881
1116.058, 4070.488
1117.294, 4581.102
1118.530, 6792.057
1119.765, 9332.303
1121.001, 13922.398
1122.236, 21793.021
1123.471, 29353.650
1124.706, 33834.277
1125.940, 30784.971
1127.175, 22445.307
1128.409, 16066.867
1129.643, 10357.344
1130.877, 6707.971
1132.111, 4558.338
1133.344, 2958.889
1134.578, 2269.445
1135.811, 1870.023
1137.044, 1260.588
1138.277, 1331.123
1139.510, 761.287
1140.742, 351.846
1141.974, 792.930
1143.206, 403.342
1144.438, 523.875
1145.670, 474.402
1146.902, 304.934
1148.133, 475.570
1149.365, 295.041
1150.596, 145.562
1151.827, 416.082
1153.057, 26.609
1154.288, 297.150
1155.518, 237.477
1156.748, 118.020
1157.978, 436.127
1159.208, 22.041
1160.438, 258.480
1161.667, 377.664
1162.897, 18.209
1164.126, 128.736
1165.355, 320.049
1166.583, 0.615
1167.812, 221.182
1169.040, 172.336
1170.269, 92.914
1171.497, 113.496
1172.725, 15.979
1173.952, 214.549
1175.180, 185.783
1176.407, 63.730
1177.634, 136.697
1178.861, 9.686
1180.088, 70.717
1181.315, 311.012
1182.541, 10.627
1183.767, 169.771
1184.994, 178.490
1186.220, 50.502
1187.445, 430.502
1188.671, 8.494
1189.896, 122.439
1191.121, 333.375
1192.346, 155.684
1193.571, 95.268
1194.796, 366.215
1196.021, 2.816
1197.245, 218.201
1198.469, 229.262
1199.693, 70.330
1200.917, 401.408
1202.140, 17.504
1203.364, 233.596
1204.587, 494.705
1205.810, 205.791
1207.033, 276.855
1208.256, 207.926
1209.479, 99.010
1210.701, 200.107
1211.923, 21.215
1213.145, 282.334
1214.367, 493.461
1215.589, 94.594
1216.810, 355.730
1218.032, 156.861
1219.253, 138.004
1220.474, 369.160
1221.695, 150.324
1222.915, 231.496
1224.136, 282.686
1225.356, 96.123
1226.576, 365.088
1227.796, 276.314
1229.016, 127.557
1230.235, 578.805
1231.455, 140.064
1232.674, 421.340
1233.893, 322.633
1235.112, 103.943
1236.331, 355.275
1237.549, 266.617
1238.767, 217.982
1239.986, 639.365
1241.204, 220.787
1242.421, 391.664
1243.639, 573.123
1244.857, 4.623
1246.074, 514.264
1247.291, 205.146
1248.508, 3.299
1249.725, 427.438
1250.941, 238.875
1252.158, 308.814
1253.374, 400.416
1254.590, 285.352
1255.806, 455.043
1257.022, 665.658
1258.237, 267.227
1259.453, 483.010
1260.668, 183.000
1261.883, 294.344
1263.098, 355.262
1264.312, 65.115
1265.527, 455.738
1266.741, 314.178
1267.955, 165.242
1269.169, 266.305
1270.383, 347.037
1271.597, 136.934
1272.810, 377.939
1274.024, 1.496
1275.237, 279.477
1276.450, 510.432
1277.662, 341.369
1278.875, 444.273
1280.087, 394.535
1281.300, 104.873
1282.512, 615.223
1283.724, 214.930
1284.935, 215.141
1286.147, 565.279
1287.358, 35.344
1288.569, 312.586
1289.780, 318.244
1290.991, 227.891
1292.202, 567.457
1293.412, 127.143
1294.623, 316.750
1295.833, 496.449
1297.043, 156.787
1298.253, 275.523
1299.462, 565.836
1300.672, 236.076
1301.881, 415.895
1303.090, 301.023
1304.299, 9.191
1305.508, 371.371
1306.716, 260.809
1307.925, 211.346
1309.133, 458.322
1310.341, 29.012
1311.549, 569.947
1312.757, 380.123
1313.964, 61.268
1315.172, 572.613
1316.379, 374.100
1317.586, 341.285
1318.793, 612.266
1320.000, 63.516
1321.206, 612.551
1322.412, 491.500
1323.619, 11.670
1324.825, 776.131
1326.030, 399.152
1327.236, 137.531
1328.442, 275.094
1329.647, 0.000
##END=



