##NAMES=Hydroxylbastnasite-(Ce)
##RRUFFID=R060283
##IDEAL CHEMISTRY=CeCO_3_(OH)
##LOCALITY=Trimouns, Luzenac, France
##OWNER=RRUFF
##SOURCE=Herb Obodda
##DESCRIPTION=Brown hexagonal tablet
##STATUS=The identification of this mineral has been confirmed by X-ray diffraction and chemical analysis
##URL=rruff.info/R060283
##MEASURED CHEMISTRY=(Ce_0.50_Nd_0.24_(La,Pr)_0.23_Y_0.03_)_Σ=1_CO_3_((OH)_0.65_F_0.35_)_Σ=1_
##PIN_ID=M00330
##ORIENTATION=Laser parallel to a* (1 0 0). Fiducial mark perpendicular to laser is parallel to c [0 0 1]
41.83100, 0.0000000E+00
43.08100, 16.54083
44.32900, 0.5982670
45.57800, 30.62955
46.82700, 47.15601
48.07500, 62.60892
49.32300, 68.84674
50.57100, 90.35297
51.81900, 104.8429
53.06700, 137.3879
54.31400, 136.6543
55.56200, 199.6457
56.80900, 226.3445
58.05600, 246.6645
59.30200, 279.1196
60.54900, 283.1161
61.79500, 319.9604
63.04200, 304.4968
64.28800, 338.3405
65.53300, 371.2620
66.77900, 448.1061
68.02500, 512.5302
69.27000, 607.6726
70.51500, 673.0981
71.76000, 694.3728
73.00500, 643.6213
74.24900, 582.0975
75.49400, 533.2673
76.73800, 504.1350
77.98200, 425.7039
79.22600, 375.9763
80.46900, 338.9478
81.71300, 265.6050
82.95600, 214.9317
84.19900, 153.9087
85.44200, 122.5160
86.68500, 82.73132
87.92800, 36.53159
89.17000, 19.10345
90.41200, 57.19263
91.65500, 92.75830
92.89600, 122.8317
94.13800, 145.4434
95.38000, 176.6072
96.62100, 179.3208
97.86200, 184.5807
99.10300, 211.3844
100.3440, 185.7293
101.5850, 129.6134
102.8250, 102.0349
104.0650, 2.007385
105.3050, 167.5145
106.5450, 447.4873
107.7850, 737.9263
109.0250, 1110.832
110.2640, 1567.203
111.5030, 2206.041
112.7420, 2949.344
113.9810, 3978.112
115.2200, 5096.344
116.4580, 6113.028
117.6970, 6493.121
118.9350, 6948.596
120.1730, 6926.434
121.4100, 6911.614
122.6480, 6849.116
123.8850, 6995.921
125.1230, 7124.009
126.3600, 7479.371
127.5960, 7927.995
128.8330, 8362.862
130.0700, 9123.955
131.3060, 9660.241
132.5420, 10017.73
133.7780, 10469.41
135.0140, 10687.30
136.2500, 10607.40
137.4850, 10355.70
138.7200, 10289.17
139.9550, 10238.78
141.1900, 9952.445
142.4250, 9755.114
143.6600, 9634.779
144.8940, 9754.459
146.1280, 9949.224
147.3620, 10026.23
148.5960, 10262.56
149.8300, 10408.18
151.0630, 10471.17
152.2960, 10720.46
153.5300, 10828.07
154.7620, 10901.99
155.9950, 10930.23
157.2280, 10613.79
158.4600, 10432.66
159.6920, 9957.849
160.9250, 9519.350
162.1560, 9239.163
163.3880, 9023.287
164.6200, 8914.721
165.8510, 8900.943
167.0820, 8890.514
168.3130, 9112.871
169.5440, 9406.531
170.7750, 9672.500
172.0050, 9881.769
173.2350, 10034.34
174.4650, 10248.21
175.6950, 10123.38
176.9250, 9984.846
178.1550, 10015.61
179.3840, 9697.664
180.6130, 9486.012
181.8420, 9229.650
183.0710, 9212.580
184.3000, 9237.793
185.5280, 9292.293
186.7570, 9422.366
187.9850, 9605.379
189.2130, 9821.533
190.4400, 10112.77
191.6680, 10455.90
192.8960, 10789.89
194.1230, 10920.89
195.3500, 11067.85
196.5770, 11113.67
197.8030, 11070.41
199.0300, 10962.07
200.2560, 10762.63
201.4830, 10506.92
202.7090, 10206.56
203.9340, 9746.921
205.1600, 9263.125
206.3860, 8655.201
207.6110, 7909.305
208.8360, 7451.378
210.0610, 6864.519
211.2860, 6502.602
212.5100, 6200.699
213.7350, 5729.616
214.9590, 5336.295
216.1830, 5162.595
217.4070, 5066.662
218.6310, 5166.487
219.8540, 5075.272
221.0780, 5181.225
222.3010, 5236.408
223.5240, 5577.882
224.7470, 5695.701
225.9690, 5915.546
227.1920, 6044.582
228.4140, 6481.906
229.6360, 6682.040
230.8580, 6910.119
232.0800, 7042.735
233.3020, 7297.460
234.5230, 7409.870
235.7440, 7518.368
236.9650, 7661.784
238.1860, 7946.008
239.4070, 7765.169
240.6280, 7961.630
241.8480, 8122.839
243.0680, 8086.247
244.2880, 8244.590
245.5080, 8453.697
246.7280, 8368.208
247.9470, 8542.404
249.1660, 8903.187
250.3860, 9112.243
251.6040, 9185.197
252.8230, 9319.405
254.0420, 9627.828
255.2600, 9783.453
256.4790, 9639.285
257.6970, 9589.314
258.9150, 9532.543
260.1320, 9442.967
261.3500, 9376.584
262.5670, 9141.396
263.7840, 9049.396
265.0010, 8815.585
266.2180, 8830.963
267.4350, 8787.525
268.6510, 8621.274
269.8680, 8477.209
271.0840, 8604.321
272.3000, 8503.620
273.5160, 8457.095
274.7310, 8393.751
275.9470, 8660.587
277.1620, 8479.601
278.3770, 8602.789
279.5920, 8285.156
280.8070, 8325.695
282.0210, 7946.412
283.2360, 7801.303
284.4500, 7486.371
285.6640, 7130.606
286.8780, 6858.015
288.0920, 6559.596
289.3050, 6219.352
290.5180, 6142.277
291.7320, 5865.378
292.9450, 5770.649
294.1570, 5680.091
295.3700, 5436.704
296.5830, 5444.485
297.7950, 5397.435
299.0070, 5628.551
300.2190, 5563.829
301.4310, 5680.272
302.6420, 5935.877
303.8540, 5944.643
305.0650, 6290.566
306.2760, 6510.649
307.4870, 6714.888
308.6980, 6878.280
309.9080, 7160.828
311.1190, 7464.528
312.3290, 7419.379
313.5390, 7655.378
314.7490, 7875.527
315.9580, 8160.822
317.1680, 8355.264
318.3770, 8574.851
319.5860, 8736.578
320.7950, 8922.446
322.0040, 8932.455
323.2130, 9266.604
324.4210, 9332.890
325.6290, 9667.311
326.8380, 9830.870
328.0460, 9986.560
329.2530, 10247.38
330.4610, 10509.56
331.6680, 10599.82
332.8760, 10802.72
334.0830, 11026.36
335.2890, 11088.34
336.4960, 11414.63
337.7030, 11501.33
338.9090, 11744.85
340.1150, 11927.63
341.3210, 11859.95
342.5270, 12073.96
343.7330, 11924.04
344.9380, 12016.12
346.1440, 12119.20
347.3490, 11796.08
348.5540, 11684.10
349.7590, 11514.82
350.9630, 11108.75
352.1680, 10847.24
353.3720, 10686.18
354.5760, 10164.69
355.7800, 9892.682
356.9840, 9576.692
358.1870, 9300.196
359.3910, 9030.678
360.5940, 8676.264
361.7970, 8380.772
363.0000, 7996.040
364.2030, 7970.678
365.4050, 7537.820
366.6080, 7454.268
367.8100, 7309.706
369.0120, 7158.999
370.2140, 7029.143
371.4150, 6948.517
372.6170, 6718.165
373.8180, 6623.524
375.0190, 6431.790
376.2200, 6446.395
377.4210, 6379.635
378.6220, 6193.964
379.8220, 5995.534
381.0230, 5769.146
382.2230, 5692.851
383.4230, 5542.970
384.6220, 5417.808
385.8220, 5335.423
387.0220, 5203.736
388.2210, 5200.445
389.4200, 5105.564
390.6190, 4909.570
391.8180, 4696.392
393.0160, 4642.396
394.2150, 4605.646
395.4130, 4478.536
396.6110, 4361.959
397.8090, 4335.414
399.0060, 4182.505
400.2040, 4022.676
401.4010, 3869.925
402.5980, 3858.249
403.7950, 3607.648
404.9920, 3505.123
406.1890, 3505.670
407.3860, 3337.289
408.5820, 3195.979
409.7780, 3088.740
410.9740, 2800.569
412.1700, 2690.466
413.3650, 2507.431
414.5610, 2218.460
415.7560, 2175.555
416.9510, 1915.713
418.1460, 1861.935
419.3410, 1617.218
420.5360, 1435.562
421.7300, 1378.967
422.9240, 1248.430
424.1180, 1177.950
425.3120, 1024.528
426.5060, 970.1621
427.7000, 843.8506
428.8930, 771.5928
430.0860, 759.3882
431.2790, 729.2354
432.4720, 556.1338
433.6650, 552.0820
434.8580, 496.0791
436.0500, 548.1245
437.2420, 502.2168
438.4340, 465.3550
439.6260, 614.5386
440.8180, 593.7661
442.0090, 431.0371
443.2010, 537.3501
444.3920, 509.7046
445.5830, 449.0986
446.7740, 383.5327
447.9640, 459.0049
449.1550, 389.5146
450.3450, 414.0610
451.5350, 390.6431
452.7250, 326.2603
453.9150, 343.9106
455.1050, 402.5942
456.2940, 358.3096
457.4830, 376.0566
458.6720, 358.8340
459.8610, 292.6406
461.0500, 251.4756
462.2390, 242.3384
463.4270, 240.2280
464.6150, 163.1436
465.8040, 214.0850
466.9910, 136.0503
468.1790, 148.0391
469.3670, 133.0503
470.5540, 20.08350
471.7410, 53.13672
472.9280, 9.789551
474.1150, 5.701172
475.3020, 69.59912
476.4890, 84.50000
477.6750, 60.41064
478.8610, 88.32520
480.0470, 68.25488
481.2330, 123.1943
482.4190, 102.1689
483.6040, 163.1714
484.7900, 151.2319
485.9750, 146.3472
487.1600, 103.5176
488.3450, 115.7261
489.5290, 105.9805
490.7140, 120.9531
491.8980, 215.6294
493.0820, 162.0815
494.2660, 216.6113
495.4500, 218.2476
496.6340, 170.9937
497.8170, 241.8291
499.0010, 116.7910
500.1840, 170.8198
501.3670, 198.9453
502.5500, 195.1831
503.7320, 239.5337
504.9150, 213.0205
506.0970, 145.6343
507.2790, 234.3423
508.4610, 183.1919
509.6430, 229.1587
510.8250, 119.2681
512.0060, 137.4678
513.1870, 170.7690
514.3680, 162.1899
515.5490, 169.7280
516.7300, 112.3882
517.9110, 216.1450
519.0910, 103.0508
520.2710, 49.05127
521.4510, 117.1221
522.6310, 62.29834
523.8110, 76.55469
524.9910, 10.89990
526.1700, 150.3027
527.3490, 117.8340
528.5280, 137.4790
529.7070, 32.75098
530.8860, 6.062012
532.0650, 6.1523002E-02
533.2430, 43.87695
534.4210, 8.899902
535.5990, 46.00830
536.7770, 58.87207
537.9550, 114.6963
539.1320, 79.49609
540.3100, 193.2612
541.4870, 169.0093
542.6640, 259.7388
543.8410, 212.4502
545.0170, 296.1431
546.1940, 406.8179
547.3700, 402.4731
548.5470, 515.1089
549.7230, 452.7256
550.8980, 582.3223
552.0740, 633.8984
553.2500, 706.4541
554.4250, 755.9893
555.6000, 837.5029
556.7750, 923.2207
557.9500, 1005.783
559.1250, 1109.916
560.2990, 1190.343
561.4730, 1277.747
562.6480, 1358.128
563.8220, 1449.742
564.9950, 1576.823
566.1690, 1636.135
567.3430, 1768.423
568.5160, 1870.688
569.6890, 2035.928
570.8620, 2062.145
572.0350, 2153.335
573.2070, 2234.502
574.3800, 2245.643
575.5520, 2328.759
576.7240, 2335.850
577.8960, 2362.915
579.0680, 2412.954
580.2400, 2408.967
581.4110, 2476.954
582.5830, 2389.915
583.7540, 2367.849
584.9250, 2249.756
586.0950, 2208.636
587.2660, 2226.489
588.4370, 2173.315
589.6070, 2123.113
590.7770, 1957.885
591.9470, 1863.628
593.1170, 1811.344
594.2860, 1702.032
595.4560, 1680.692
596.6250, 1553.325
597.7940, 1427.928
598.9630, 1323.504
600.1320, 1364.051
601.3000, 1133.570
602.4690, 1201.061
603.6370, 1037.522
604.8050, 914.9556
605.9730, 935.3599
607.1410, 804.7358
608.3090, 838.0825
609.4760, 750.4004
610.6430, 792.6895
611.8100, 699.9492
612.9770, 592.1802
614.1440, 568.1597
615.3110, 591.1548
616.4770, 508.6250
617.6430, 482.4419
618.8090, 510.0303
619.9750, 449.4185
621.1410, 471.4941
622.3070, 452.8496
623.4720, 429.0850
624.6370, 411.8833
625.8020, 444.1182
626.9670, 418.4771
628.1320, 385.8047
629.2970, 429.3281
630.4610, 446.1719
631.6250, 490.9844
632.7890, 462.2256
633.9530, 449.3535
635.1170, 473.0659
636.2810, 436.4414
637.4440, 438.8145
638.6070, 458.8921
639.7700, 412.5342
640.9330, 407.8032
642.0960, 381.2109
643.2590, 409.6255
644.4210, 358.2432
645.5830, 405.2109
646.7450, 328.9282
647.9070, 432.2554
649.0690, 283.3906
650.2310, 373.6514
651.3920, 427.1787
652.5530, 406.4756
653.7140, 471.6562
654.8750, 566.1948
656.0360, 614.1470
657.1970, 720.3164
658.3570, 818.2578
659.5170, 930.6851
660.6770, 953.1401
661.8370, 1087.479
662.9970, 1201.899
664.1570, 1333.365
665.3160, 1330.552
666.4750, 1381.228
667.6340, 1353.157
668.7930, 1342.615
669.9520, 1370.832
671.1110, 1372.900
672.2690, 1367.041
673.4270, 1439.650
674.5850, 1454.219
675.7430, 1553.661
676.9010, 1510.567
678.0590, 1718.043
679.2160, 1950.590
680.3730, 2006.583
681.5300, 2321.599
682.6870, 2642.625
683.8440, 3025.671
685.0010, 3559.730
686.1570, 3953.798
687.3130, 4432.877
688.4690, 4895.976
689.6250, 5324.086
690.7810, 5635.207
691.9370, 5906.339
693.0920, 6010.482
694.2470, 6119.638
695.4020, 5933.812
696.5570, 5527.003
697.7120, 5159.205
698.8670, 4753.417
700.0210, 4281.636
701.1750, 3909.864
702.3290, 3510.103
703.4830, 3298.351
704.6370, 3060.607
705.7910, 2888.874
706.9440, 2703.150
708.0970, 2575.436
709.2510, 2254.729
710.4030, 2063.034
711.5560, 1998.348
712.7090, 1921.672
713.8610, 1919.006
715.0140, 1814.351
716.1660, 1857.705
717.3180, 1994.071
718.4690, 2222.447
719.6210, 2545.834
720.7730, 2849.233
721.9240, 3332.642
723.0750, 3766.063
724.2260, 4268.496
725.3770, 4609.939
726.5270, 4994.394
727.6780, 4933.863
728.8280, 5076.343
729.9780, 4824.835
731.1280, 4348.339
732.2780, 3919.856
733.4280, 3591.387
734.5770, 3238.706
735.7260, 2928.487
736.8760, 2703.057
738.0250, 2474.641
739.1730, 2307.295
740.3220, 2063.849
741.4700, 2009.473
742.6190, 1963.112
743.7670, 1868.765
744.9150, 1750.433
746.0630, 1790.115
747.2100, 1702.812
748.3580, 1704.524
749.5050, 1554.252
750.6520, 1681.996
751.7990, 1483.754
752.9460, 1526.531
754.0930, 1514.046
755.2390, 1434.868
756.3860, 1486.784
757.5320, 1454.663
758.6780, 1514.854
759.8240, 1624.295
760.9690, 1731.759
762.1150, 1884.300
763.2600, 1984.433
764.4060, 2079.359
765.5510, 2070.621
766.6950, 2326.709
767.8400, 2375.160
768.9850, 2617.377
770.1290, 2631.887
771.2730, 2799.296
772.4170, 2920.526
773.5610, 3010.109
774.7050, 3155.721
775.8480, 3340.515
776.9920, 3421.270
778.1350, 3479.543
779.2780, 3660.329
780.4210, 3773.312
781.5640, 3682.415
782.7060, 3850.616
783.8490, 3787.792
784.9910, 3968.032
786.1330, 3957.381
787.2750, 3974.237
788.4170, 4005.773
789.5580, 3964.136
790.7000, 3847.104
791.8410, 3778.170
792.9820, 3610.019
794.1230, 3699.389
795.2640, 3479.335
796.4040, 3624.054
797.5450, 3299.990
798.6850, 3328.762
799.8250, 3203.294
800.9650, 3057.504
802.1050, 2906.914
803.2450, 2948.369
804.3840, 2796.249
805.5230, 2589.671
806.6630, 2523.195
807.8020, 2299.615
808.9400, 2201.074
810.0790, 2034.252
811.2170, 1967.188
812.3560, 1944.784
813.4940, 1601.493
814.6320, 1546.318
815.7700, 1536.469
816.9070, 1252.490
818.0450, 1246.418
819.1820, 1003.292
820.3190, 1006.309
821.4560, 1042.371
822.5930, 853.6436
823.7300, 820.2881
824.8670, 781.0586
826.0030, 579.9839
827.1390, 613.5264
828.2750, 501.2842
829.4110, 527.6699
830.5470, 580.5859
831.6820, 438.9883
832.8180, 632.7329
833.9530, 690.4497
835.0880, 769.5610
836.2230, 776.4575
837.3580, 871.3618
838.4920, 895.7598
839.6270, 1070.678
840.7610, 1264.634
841.8950, 1370.879
843.0290, 1603.818
844.1630, 2010.763
845.2960, 2213.716
846.4300, 2503.674
847.5630, 2788.639
848.6960, 2927.610
849.8290, 3125.586
850.9620, 3204.569
852.0940, 3170.634
853.2270, 2964.629
854.3590, 2870.629
855.4910, 2771.635
856.6230, 2503.645
857.7550, 2333.661
858.8870, 2292.683
860.0180, 2026.708
861.1500, 1885.739
862.2810, 1841.774
863.4120, 1909.814
864.5430, 1983.858
865.6730, 2177.907
866.8040, 2350.960
867.9340, 2647.016
869.0640, 2929.077
870.1940, 3083.142
871.3240, 2982.209
872.4540, 2918.280
873.5830, 2596.354
874.7130, 2058.432
875.8420, 1769.512
876.9710, 1345.595
878.1000, 1083.681
879.2290, 862.7690
880.3570, 622.8589
881.4860, 447.9517
882.6140, 345.0459
883.7420, 298.2715
884.8700, 131.3696
885.9980, 105.4688
887.1250, 131.5698
888.2530, 83.67188
889.3800, 48.13623
890.5070, 18.97070
891.6340, 68.94238
892.7610, 98.35791
893.8880, 13.58350
895.0140, 13.52979
896.1400, 122.3018
897.2670, 19.31201
898.3930, 94.27637
899.5180, 89.09961
900.6440, 28.14453
901.7700, 72.26855
902.8950, 60.43066
904.0200, 22.62402
905.1450, 89.83154
906.2700, 47.91162
907.3950, 97.34912
908.5190, 9.335449
909.6440, 26.01562
910.7680, 68.30957
911.8920, 38.32324
913.0160, 56.04932
914.1400, 14.45996
915.2630, 21.11279
916.3870, 31.32129
917.5100, 10.21680
918.6330, 64.74707
919.7560, 72.26904
920.8790, 33.78271
922.0010, 19.28711
923.1240, 15.21777
924.2460, 20.74756
925.3680, 3.694824
926.4900, 59.87842
927.6120, 38.50146
928.7340, 28.87891
929.8550, 38.13965
930.9760, 1.429199
932.0980, 0.3017580
933.2190, 12.05664
934.3390, 14.15918
935.4600, 15.64258
936.5810, 34.52637
937.7010, 35.67969
938.8210, 53.18359
939.9410, 44.10205
941.0610, 3.929688
942.1810, 25.06445
943.3010, 88.10107
944.4200, 114.2031
945.5390, 2.604492
946.6580, 6.618164
947.7770, 73.12549
948.8960, 24.13818
950.0150, 28.44727
951.1330, 47.19678
952.2510, 23.18066
953.3690, 11.40137
954.4870, 23.04541
955.6050, 9.460449
956.7230, 37.93555
957.8400, 21.71924
958.9580, 16.18506
960.0750, 16.19775
961.1920, 29.55176
962.3090, 22.88037
963.4250, 41.19678
964.5420, 20.49023
965.6580, 6.245117
966.7740, 4.977051
967.8900, 30.16309
969.0060, 75.32227
970.1220, 134.4604
971.2380, 139.4541
972.3530, 53.68848
973.4680, 147.7754
974.5830, 104.8428
975.6980, 71.88965
976.8130, 202.9146
977.9280, 186.9204
979.0420, 127.9165
980.1560, 186.8926
981.2710, 217.8555
982.3850, 197.7983
983.4980, 144.7251
984.6120, 205.6313
985.7260, 110.5166
986.8390, 212.3804
987.9520, 154.2244
989.0650, 274.0488
990.1780, 192.8599
991.2910, 224.6523
992.4030, 242.4250
993.5160, 191.1770
994.6280, 251.9077
995.7400, 308.6279
996.8520, 287.3274
997.9640, 298.0046
999.0750, 301.6611
1000.187, 272.2959
1001.298, 260.9094
1002.409, 233.5085
1003.520, 283.0862
1004.631, 333.6416
1005.741, 271.1763
1006.852, 265.6882
1007.962, 290.1787
1009.072, 190.6465
1010.182, 232.0935
1011.292, 313.5188
1012.402, 160.9216
1013.511, 256.3018
1014.621, 174.6599
1015.730, 191.9958
1016.839, 129.3091
1017.948, 191.6011
1019.056, 213.8704
1020.165, 243.1167
1021.273, 176.3467
1022.382, 141.5537
1023.490, 157.0181
1024.598, 229.1785
1025.706, 116.2512
1026.813, 201.3728
1027.921, 187.1899
1029.028, 124.9688
1030.135, 166.3301
1031.242, 143.8340
1032.349, 107.7908
1033.456, 133.0015
1034.562, 153.9062
1035.668, 181.0122
1036.775, 202.7754
1037.881, 238.7925
1038.987, 240.5425
1040.092, 210.4448
1041.198, 241.5830
1042.303, 248.4043
1043.408, 261.2578
1044.514, 368.9604
1045.618, 382.7622
1046.723, 351.0752
1047.828, 436.9204
1048.932, 368.6191
1050.037, 324.2788
1051.141, 494.8794
1052.245, 557.6216
1053.349, 587.3301
1054.452, 600.9570
1055.556, 629.5117
1056.659, 705.7358
1057.762, 855.5063
1058.865, 926.7139
1059.968, 1062.957
1061.071, 1156.664
1062.174, 1205.626
1063.276, 1248.053
1064.378, 1439.773
1065.480, 1575.320
1066.582, 1777.053
1067.684, 2073.072
1068.786, 2648.275
1069.887, 3493.477
1070.988, 4915.746
1072.090, 7341.560
1073.191, 11006.17
1074.291, 16194.58
1075.392, 22590.01
1076.493, 30156.74
1077.593, 37506.45
1078.693, 43357.38
1079.793, 46931.91
1080.893, 48349.45
1081.993, 48646.55
1083.092, 47660.46
1084.192, 47652.33
1085.291, 48031.39
1086.390, 48676.42
1087.489, 48932.27
1088.588, 46887.10
1089.686, 43949.70
1090.785, 39918.96
1091.883, 36524.38
1092.981, 34965.31
1094.079, 34920.60
1095.177, 37130.30
1096.275, 40084.76
1097.373, 42496.81
1098.470, 44389.24
1099.567, 44151.31
1100.664, 41905.48
1101.761, 37535.16
1102.858, 31498.74
1103.954, 25228.54
1105.051, 19022.81
1106.147, 13678.66
1107.243, 9455.593
1108.339, 6288.150
1109.435, 4277.982
1110.531, 2792.365
1111.626, 1949.143
1112.722, 1403.593
1113.817, 1165.343
1114.912, 896.9282
1116.007, 806.6509
1117.101, 740.3594
1118.196, 610.0186
1119.290, 492.8296
1120.385, 600.7554
1121.479, 403.0786
1122.573, 383.2515
1123.666, 421.0918
1124.760, 333.8379
1125.853, 316.4390
1126.947, 291.6016
1128.040, 334.1763
1129.133, 301.7378
1130.226, 281.4258
1131.318, 240.0098
1132.411, 210.5322
1133.503, 337.8350
1134.596, 267.3315
1135.688, 288.2266
1136.780, 270.4736
1137.871, 243.9321
1138.963, 280.3779
1140.054, 223.8799
1141.146, 150.5537
1142.237, 129.9629
1143.328, 153.4604
1144.419, 118.8730
1145.509, 231.3438
1146.600, 155.7959
1147.690, 174.1445
1148.780, 86.93311
1149.870, 158.2583
1150.960, 190.5718
1152.050, 86.33154
1153.139, 203.7261
1154.229, 177.9160
1155.318, 153.2559
1156.407, 100.5332
1157.496, 137.5894
1158.585, 100.9351
1159.674, 109.1846
1160.762, 162.2451
1161.850, 85.50439
1162.939, 82.31543
1164.027, 76.20996
1165.114, 91.34375
1166.202, 148.1714
1167.290, 130.4482
1168.377, 99.72949
1169.464, 144.0044
1170.551, 115.0669
1171.638, 69.38330
1172.725, 98.64941
1173.812, 71.93213
1174.898, 159.2041
1175.984, 103.4854
1177.071, 122.7559
1178.157, 93.03271
1179.242, 91.36035
1180.328, 64.62256
1181.414, 124.6265
1182.499, 56.88086
1183.584, 64.75293
1184.669, 101.9868
1185.754, 68.21191
1186.839, 64.42773
1187.924, 81.64160
1189.008, 79.85498
1190.092, 51.06201
1191.177, 19.27930
1192.260, 115.4995
1193.344, 150.7222
1194.428, 101.9375
1195.512, 66.14795
1196.595, 79.35498
1197.678, 65.56152
1198.761, 1.238281
1199.844, 77.95557
1200.927, 43.14209
1202.009, 62.32031
1203.092, 11.51074
1204.174, 27.70801
1205.256, 51.90137
1206.338, 26.89941
1207.420, 46.30078
1208.502, 87.52930
1209.583, 15.75732
1210.665, 27.01562
1211.746, 54.18359
1212.827, 23.38965
1213.908, 61.60156
1214.988, 7.191895
1216.069, 57.01074
1217.149, 89.21240
1218.230, 52.42139
1219.310, 57.62939
1220.390, 46.83301
1221.470, 5.032715
1222.549, 106.2358
1223.629, 57.43750
1224.708, 48.36426
1225.787, 53.80078
1226.866, 18.96191
1227.945, 69.11914
1229.024, 54.28271
