##NAMES=Hydroxylbastnasite-(Ce)
##RRUFFID=R060283
##IDEAL CHEMISTRY=CeCO_3_(OH)
##LOCALITY=Trimouns, Luzenac, France
##OWNER=RRUFF
##SOURCE=Herb Obodda
##DESCRIPTION=Brown hexagonal tablet
##STATUS=The identification of this mineral has been confirmed by X-ray diffraction and chemical analysis
##URL=rruff.info/R060283
##MEASURED CHEMISTRY=(Ce_0.50_Nd_0.24_(La,Pr)_0.23_Y_0.03_)_Σ=1_CO_3_((OH)_0.65_F_0.35_)_Σ=1_
##PIN_ID=M00326
##ORIENTATION=Laser parallel to -c* (0 0 -1). Fiducial mark perpendicular to laser is parallel to a [1 0 0]
41.83100, 0.0000000E+00
43.08100, 0.7677000
44.32900, 43.43402
45.57800, 5.092896
46.82700, 15.04150
48.07500, 35.98132
49.32300, 65.46313
50.57100, 72.95453
51.81900, 115.5803
53.06700, 124.8427
54.31400, 133.2238
55.56200, 158.4578
56.80900, 197.7765
58.05600, 222.0909
59.30200, 239.7405
60.54900, 264.9340
61.79500, 269.8997
63.04200, 281.7780
64.28800, 311.5723
65.53300, 336.0076
66.77900, 397.9153
68.02500, 482.4062
69.27000, 560.5486
70.51500, 637.9330
71.76000, 644.6372
73.00500, 576.8074
74.24900, 531.0026
75.49400, 497.7507
76.73800, 464.0531
77.98200, 398.9111
79.22600, 348.3256
80.46900, 310.2943
81.71300, 219.8091
82.95600, 203.8579
84.19900, 147.4254
85.44200, 105.4949
86.68500, 66.04779
87.92800, 21.06433
89.17000, 17.47290
90.41200, 25.57977
91.65500, 72.27612
92.89600, 98.58893
94.13800, 139.5465
95.38000, 164.1578
96.62100, 186.4201
97.86200, 169.3306
99.10300, 160.8865
100.3440, 137.0858
101.5850, 73.92639
102.8250, 6.406738
104.0650, 124.4745
105.3050, 272.7183
106.5450, 500.3254
107.7850, 805.2966
109.0250, 1091.633
110.2640, 1570.333
111.5030, 2058.398
112.7420, 2832.828
113.9810, 3948.622
115.2200, 5273.780
116.4580, 6543.301
117.6970, 7472.175
118.9350, 7963.377
120.1730, 7818.885
121.4100, 7181.677
122.6480, 6693.737
123.8850, 6411.040
125.1230, 6261.573
126.3600, 6428.322
127.5960, 6789.278
128.8330, 7542.422
130.0700, 8199.736
131.3060, 8958.193
132.5420, 9687.797
133.7780, 10184.55
135.0140, 10492.46
136.2500, 10444.53
137.4850, 10326.74
138.7200, 10185.07
139.9550, 10008.48
141.1900, 9761.932
142.4250, 9291.360
143.6600, 8951.720
144.8940, 8628.044
146.1280, 8429.444
147.3620, 8351.070
148.5960, 8443.949
149.8300, 8654.089
151.0630, 8927.479
152.2960, 9547.127
153.5300, 9901.025
154.7620, 10374.18
155.9950, 10623.58
157.2280, 10555.25
158.4600, 10250.15
159.6920, 9835.311
160.9250, 9206.719
162.1560, 8751.379
163.3880, 8315.284
164.6200, 7893.437
165.8510, 7597.835
167.0820, 7460.477
168.3130, 7371.366
169.5440, 7487.498
170.7750, 7652.873
172.0050, 7900.490
173.2350, 8123.346
174.4650, 8697.442
175.6950, 8933.778
176.9250, 9233.353
178.1550, 9328.162
179.3840, 9121.208
180.6130, 8805.486
181.8420, 8471.999
183.0710, 8282.746
184.3000, 8039.718
185.5280, 7958.922
186.7570, 7991.352
187.9850, 8215.008
189.2130, 8357.888
190.4400, 8607.814
191.6680, 8713.563
192.8960, 8947.184
194.1230, 8878.615
195.3500, 9024.906
196.5770, 8930.113
197.8030, 8852.226
199.0300, 8752.151
200.2560, 8423.062
201.4830, 8289.865
202.7090, 7919.496
203.9340, 7406.955
205.1600, 6849.268
206.3860, 6395.450
207.6110, 5960.668
208.8360, 5573.698
210.0610, 5222.767
211.2860, 4878.802
212.5100, 4628.812
213.7350, 4267.560
214.9590, 4002.124
216.1830, 3863.406
217.4070, 3773.276
218.6310, 3747.969
219.8540, 3782.659
221.0780, 3933.466
222.3010, 3947.464
223.5240, 3984.740
224.7470, 4158.255
225.9690, 4207.862
227.1920, 4362.538
228.4140, 4425.382
229.6360, 4587.743
230.8580, 4563.489
232.0800, 4769.875
233.3020, 4736.965
234.5230, 4908.589
235.7440, 4853.067
236.9650, 4871.192
238.1860, 4976.776
239.4070, 4866.376
240.6280, 4961.276
241.8480, 4989.540
243.0680, 5033.151
244.2880, 5190.247
245.5080, 5220.293
246.7280, 5424.741
247.9470, 5798.536
249.1660, 5903.142
250.3860, 6164.499
251.6040, 6712.145
252.8230, 6901.971
254.0420, 6994.963
255.2600, 7197.121
256.4790, 7409.443
257.6970, 7379.924
258.9150, 7374.567
260.1320, 7284.366
261.3500, 6937.323
262.5670, 6737.435
263.7840, 6430.700
265.0010, 6064.119
266.2180, 5716.688
267.4350, 5323.406
268.6510, 5117.277
269.8680, 4797.293
271.0840, 4436.457
272.3000, 4143.767
273.5160, 3815.224
274.7310, 3692.825
275.9470, 3346.572
277.1620, 3125.462
278.3770, 3091.495
279.5920, 2839.672
280.8070, 2874.992
282.0210, 2704.453
283.2360, 2496.056
284.4500, 2444.800
285.6640, 2393.686
286.8780, 2427.710
288.0920, 2418.877
289.3050, 2440.678
290.5180, 2466.340
291.7320, 2504.222
292.9450, 2529.953
294.1570, 2556.825
295.3700, 2608.836
296.5830, 2805.985
297.7950, 2856.273
299.0070, 2900.698
300.2190, 3231.257
301.4310, 3382.951
302.6420, 3664.779
303.8540, 3909.739
305.0650, 4156.832
306.2760, 4481.053
307.4870, 4797.404
308.6980, 5092.884
309.9080, 5394.492
311.1190, 5607.225
312.3290, 5959.084
313.5390, 6262.068
314.7490, 6383.175
315.9580, 6736.405
317.1680, 6984.754
318.3770, 7253.224
319.5860, 7326.813
320.7950, 7428.523
322.0040, 7625.349
323.2130, 7972.290
324.4210, 8187.348
325.6290, 8339.521
326.8380, 8567.806
328.0460, 8695.203
329.2530, 8875.712
330.4610, 8842.330
331.6680, 9233.061
332.8760, 9105.896
334.0830, 9242.842
335.2890, 9396.892
336.4960, 9393.047
337.7030, 9516.306
338.9090, 9633.033
340.1150, 9612.532
341.3210, 9643.770
342.5270, 9634.420
343.7330, 9612.796
344.9380, 9527.957
346.1440, 9581.697
347.3490, 9447.772
348.5540, 9422.581
349.7590, 9238.131
350.9630, 9143.914
352.1680, 8982.832
353.3720, 8790.851
354.5760, 8748.001
355.7800, 8493.467
356.9840, 8102.281
358.1870, 7971.619
359.3910, 7746.656
360.5940, 7435.685
361.7970, 7199.955
363.0000, 6800.067
364.2030, 6638.410
365.4050, 6437.104
366.6080, 6219.679
367.8100, 6080.782
369.0120, 5815.099
370.2140, 5710.058
371.4150, 5502.271
372.6170, 5419.194
373.8180, 5148.590
375.0190, 5020.309
376.2200, 4985.515
377.4210, 4726.390
378.6220, 4634.223
379.8220, 4475.078
381.0230, 4347.709
382.2230, 4199.321
383.4230, 4048.739
384.6220, 3939.945
385.8220, 3777.382
387.0220, 3637.931
388.2210, 3508.427
389.4200, 3388.054
390.6190, 3248.717
391.8180, 3189.995
393.0160, 3104.907
394.2150, 3029.801
395.4130, 3072.862
396.6110, 2850.083
397.8090, 2834.895
399.0060, 2713.727
400.2040, 2579.822
401.4010, 2624.799
402.5980, 2595.847
403.7950, 2436.964
404.9920, 2463.152
406.1890, 2349.409
407.3860, 2210.559
408.5820, 2062.125
409.7780, 1897.583
410.9740, 1968.107
412.1700, 1801.696
413.3650, 1821.350
414.5610, 1719.065
415.7560, 1642.844
416.9510, 1508.686
418.1460, 1459.589
419.3410, 1285.552
420.5360, 1237.574
421.7300, 1198.656
422.9240, 1060.797
424.1180, 942.9946
425.3120, 1003.250
426.5060, 798.5610
427.7000, 830.9277
428.8930, 745.3491
430.0860, 794.8242
431.2790, 700.3530
432.4720, 603.9341
433.6650, 713.5674
434.8580, 626.2520
436.0500, 635.9868
437.2420, 553.7715
438.4340, 598.6055
439.6260, 520.4873
440.8180, 466.4170
442.0090, 575.3936
443.2010, 546.4160
444.3920, 606.4839
445.5830, 457.5967
446.7740, 461.7537
447.9640, 500.9539
449.1550, 454.1973
450.3450, 443.4824
451.5350, 466.8088
452.7250, 414.1760
453.9150, 358.5835
455.1050, 355.0300
456.2940, 386.5151
457.4830, 365.0386
458.6720, 364.5994
459.8610, 313.1970
461.0500, 365.8311
462.2390, 275.5002
463.4270, 278.2046
464.6150, 232.9431
465.8040, 239.7156
466.9910, 277.5208
468.1790, 209.3584
469.3670, 138.2278
470.5540, 59.12842
471.7410, 193.0601
472.9280, 102.0215
474.1150, 141.0122
475.3020, 103.0317
476.4890, 101.0796
477.6750, 43.15527
478.8610, 106.2581
480.0470, 21.38770
481.2330, 15.45752
482.4190, 65.28394
483.6040, 27.10938
484.7900, 45.92188
485.9750, 59.72876
487.1600, 101.5371
488.3450, 88.36621
489.5290, 70.21216
490.7140, 118.0693
491.8980, 89.95996
493.0820, 107.7957
494.2660, 123.8201
495.4500, 120.8086
496.6340, 136.8396
497.8170, 137.9221
499.0010, 158.0583
500.1840, 126.2593
501.3670, 188.5120
502.5500, 217.8479
503.7320, 200.2837
504.9150, 140.8120
506.0970, 175.4058
507.2790, 211.0837
508.4610, 117.8647
509.6430, 277.7056
510.8250, 140.6853
512.0060, 198.7393
513.1870, 164.8965
514.3680, 173.1426
515.5490, 211.4829
516.7300, 144.9373
517.9110, 132.4751
519.0910, 70.09131
520.2710, 101.7563
521.4510, 98.48730
522.6310, 159.2834
523.8110, 138.1763
524.9910, 97.15625
526.1700, 175.2046
527.3490, 141.3608
528.5280, 16.60913
529.7070, 11.89087
530.8860, 44.20459
532.0650, 47.56641
533.2430, 33.97925
534.4210, 42.43726
535.5990, 20.94580
536.7770, 15.50488
537.9550, 14.93091
539.1320, 95.33105
540.3100, 168.7307
541.4870, 88.13159
542.6640, 137.5295
543.8410, 211.9285
545.0170, 256.3286
546.1940, 297.8633
547.3700, 324.1311
548.5470, 352.5325
549.7230, 377.9343
550.8980, 373.3359
552.0740, 459.6130
553.2500, 592.1382
554.4250, 633.5383
555.6000, 770.9375
556.7750, 884.3352
557.9500, 962.6138
559.1250, 1058.127
560.2990, 1130.521
561.4730, 1284.912
562.6480, 1331.300
563.8220, 1470.687
564.9950, 1698.071
566.1690, 1749.452
567.3430, 1968.831
568.5160, 2018.205
569.6890, 2243.577
570.8620, 2291.945
572.0350, 2459.309
573.2070, 2613.669
574.3800, 2688.025
575.5520, 2737.376
576.7240, 2795.724
577.8960, 2853.836
579.0680, 2944.404
580.2400, 2979.737
581.4110, 3002.949
582.5830, 3005.387
583.7540, 2992.703
584.9250, 2979.549
586.0950, 2950.120
587.2660, 2886.620
588.4370, 2874.914
589.6070, 2749.202
590.7770, 2700.483
591.9470, 2680.758
593.1170, 2453.027
594.2860, 2390.289
595.4560, 2352.544
596.6250, 2119.792
597.7940, 1998.034
598.9630, 1957.269
600.1320, 1853.496
601.3000, 1713.716
602.4690, 1583.929
603.6370, 1406.135
604.8050, 1281.333
605.9730, 1162.523
607.1410, 1068.706
608.3090, 909.8816
609.4760, 852.0488
610.6430, 831.2085
611.8100, 653.3601
612.9770, 607.5039
614.1440, 589.6399
615.3110, 481.7673
616.4770, 425.8875
617.6430, 330.9990
618.8090, 374.1023
619.9750, 432.2000
621.1410, 390.2898
622.3070, 320.0139
623.4720, 313.0664
624.6370, 254.4346
625.8020, 344.1104
626.9670, 255.1169
628.1320, 241.9507
629.2970, 358.3198
630.4610, 254.4673
631.6250, 245.9976
632.7890, 277.8943
633.9530, 308.6624
635.1170, 273.3997
636.2810, 248.1445
637.4440, 262.8635
638.6070, 272.3816
639.7700, 235.6570
640.9330, 241.5173
642.0960, 289.7871
643.2590, 236.1748
644.4210, 304.4368
645.5830, 282.9663
646.7450, 250.3816
647.9070, 311.5667
649.0690, 233.9829
650.2310, 317.9861
651.3920, 365.8867
652.5530, 360.2656
653.7140, 407.5068
654.8750, 479.1472
656.0360, 545.2090
657.1970, 647.5259
658.3570, 754.2637
659.5170, 893.4712
660.6770, 1025.846
661.8370, 1181.340
662.9970, 1325.199
664.1570, 1387.229
665.3160, 1350.600
666.4750, 1509.336
667.6340, 1331.005
668.7930, 1352.716
669.9520, 1187.656
671.1110, 1208.799
672.2690, 1169.723
673.4270, 1355.375
674.5850, 1348.537
675.7430, 1496.837
676.9010, 1478.070
678.0590, 1620.241
679.2160, 1577.922
680.3730, 1739.683
681.5300, 1778.290
682.6870, 1883.124
683.8440, 2339.998
685.0010, 2665.907
686.1570, 2877.855
687.3130, 3293.832
688.4690, 3668.831
689.6250, 4070.854
690.7810, 4310.895
691.9370, 4456.974
693.0920, 4614.077
694.2470, 4610.573
695.4020, 4569.348
696.5570, 4412.516
697.7120, 4132.701
698.8670, 3802.906
700.0210, 3421.130
701.1750, 3267.376
702.3290, 3047.639
703.4830, 2974.921
704.6370, 2780.221
705.7910, 2755.541
706.9440, 2507.879
708.0970, 2300.235
709.2510, 2096.608
710.4030, 1900.000
711.5560, 1710.409
712.7090, 1531.837
713.8610, 1362.282
715.0140, 1278.745
716.1660, 1203.747
717.3180, 1152.726
718.4690, 1185.243
719.6210, 1212.778
720.7730, 1289.332
721.9240, 1361.904
723.0750, 1421.696
724.2260, 1498.103
725.3770, 1581.730
726.5270, 1685.375
727.6780, 1800.039
728.8280, 1805.721
729.9780, 1866.422
731.1280, 1706.142
732.2780, 1667.879
733.4280, 1516.636
734.5770, 1527.411
735.7260, 1512.205
736.8760, 1404.017
738.0250, 1421.849
739.1730, 1379.699
740.3220, 1326.568
741.4700, 1267.456
742.6190, 1288.864
743.7670, 1352.290
744.9150, 1367.234
746.0630, 1391.198
747.2100, 1491.182
748.3580, 1517.185
749.5050, 1469.207
750.6520, 1487.249
751.7990, 1407.312
752.9460, 1442.397
754.0930, 1554.501
755.2390, 1574.625
756.3860, 1525.768
757.5320, 1686.367
758.6780, 1671.552
759.8240, 1780.758
760.9690, 1869.685
762.1150, 2049.950
763.2600, 2047.575
764.4060, 2180.228
765.5510, 2350.658
766.6950, 2441.737
767.8400, 2516.815
768.9850, 2713.150
770.1290, 2824.446
771.2730, 2977.001
772.4170, 3142.611
773.5610, 3264.286
774.7050, 3449.984
775.8480, 3556.383
776.9920, 3613.542
778.1350, 3737.405
779.2780, 3898.500
780.4210, 3903.484
781.5640, 3901.127
782.7060, 4091.326
783.8490, 4025.515
784.9910, 4117.942
786.1330, 4213.285
787.2750, 3989.671
788.4170, 3992.630
789.5580, 3917.595
790.7000, 3893.773
791.8410, 3771.572
792.9820, 3710.219
794.1230, 3523.691
795.2640, 3505.854
796.4040, 3273.252
797.5450, 3191.069
798.6850, 2998.576
799.8250, 2922.633
800.9650, 2778.641
802.1050, 2674.583
803.2450, 2453.752
804.3840, 2248.795
805.5230, 2168.902
806.6630, 2007.263
807.8020, 1938.916
808.9400, 1833.695
810.0790, 1677.622
811.2170, 1668.594
812.3560, 1523.009
813.4940, 1372.124
814.6320, 1349.934
815.7700, 1243.659
816.9070, 1141.338
818.0450, 1006.708
819.1820, 934.0386
820.3190, 924.7979
821.4560, 807.0540
822.5930, 782.5586
823.7300, 776.7417
824.8670, 708.8296
826.0030, 701.9336
827.1390, 588.0537
828.2750, 553.3887
829.4110, 553.5457
830.5470, 509.7937
831.6820, 562.1260
832.8180, 563.8174
833.9530, 684.9287
835.0880, 714.3572
836.2230, 770.3948
837.3580, 835.9041
838.4920, 928.8149
839.6270, 1023.959
840.7610, 1287.107
841.8950, 1558.202
843.0290, 1792.191
844.1630, 2212.036
845.2960, 2560.882
846.4300, 2897.731
847.5630, 3199.582
848.6960, 3336.436
849.8290, 3474.839
850.9620, 3628.147
852.0940, 3493.005
853.2270, 3390.865
854.3590, 3233.726
855.4910, 2910.588
856.6230, 2898.450
857.7550, 2584.313
858.8870, 2375.176
860.0180, 2256.040
861.1500, 1988.904
862.2810, 1729.767
863.4120, 1769.630
864.5430, 1628.492
865.6730, 1547.354
866.8040, 1874.214
867.9340, 2203.074
869.0640, 2870.932
870.1940, 3379.789
871.3240, 3643.644
872.4540, 3535.497
873.5830, 3240.348
874.7130, 2887.196
875.8420, 2478.042
876.9710, 1969.886
878.1000, 1670.726
879.2290, 1296.563
880.3570, 927.3975
881.4860, 691.2280
882.6140, 599.0547
883.7420, 468.0669
884.8700, 287.8855
885.9980, 306.7539
887.1250, 149.2192
888.2530, 161.2832
889.3800, 99.26562
890.5070, 65.11230
891.6340, 12.90161
892.7610, 20.31470
893.8880, 11.17456
895.0140, 19.34985
896.1400, 25.28101
897.2670, 23.12427
898.3930, 83.83569
899.5180, 82.63965
900.6440, 1.107910
901.7700, 70.07837
902.8950, 36.48413
904.0200, 54.83618
905.1450, 20.30225
906.2700, 35.21313
907.3950, 25.72021
908.5190, 24.21704
909.6440, 63.70361
910.7680, 32.82007
911.8920, 11.62720
913.0160, 63.06250
914.1400, 7.486084
915.2630, 83.89624
916.3870, 5.705811
917.5100, 31.67236
918.6330, 52.03711
919.7560, 12.61157
920.8790, 51.71387
922.0010, 68.02515
923.1240, 4.323242
924.2460, 12.39844
925.3680, 3.849609
926.4900, 43.07471
927.6120, 16.71826
928.7340, 27.54639
929.8550, 68.41724
930.9760, 70.18042
932.0980, 27.35376
933.2190, 68.40015
934.3390, 43.51343
935.4600, 56.68042
936.5810, 53.70728
937.7010, 39.69067
938.8210, 67.54736
939.9410, 2.963135
941.0610, 69.41699
942.1810, 24.94409
943.3010, 25.52148
944.4200, 106.1438
945.5390, 25.86011
946.6580, 15.62891
947.7770, 6.554688
948.8960, 14.92017
950.0150, 1.183350
951.1330, 2.110840
952.2510, 39.07446
953.3690, 40.09424
954.4870, 46.13208
955.6050, 37.32935
956.7230, 40.54443
957.8400, 2.824951
958.9580, 18.84766
960.0750, 19.48389
961.1920, 83.08325
962.3090, 34.34424
963.4250, 21.16699
964.5420, 19.65479
965.6580, 69.11084
966.7740, 44.55518
967.8900, 96.96704
969.0060, 66.35083
970.1220, 109.7039
971.2380, 63.03101
972.3530, 131.3262
973.4680, 102.5955
974.5830, 103.8369
975.6980, 112.0532
976.8130, 126.2417
977.9280, 165.4092
979.0420, 176.5510
980.1560, 184.6667
981.2710, 187.7566
982.3850, 192.1448
983.4980, 224.8640
984.6120, 199.8806
985.7260, 224.8704
986.8390, 242.8335
987.9520, 224.7700
989.0650, 242.6799
990.1780, 237.2175
991.2910, 233.4187
992.4030, 241.2478
993.5160, 276.0496
994.6280, 300.8259
995.7400, 291.5911
996.8520, 343.3284
997.9640, 308.0376
999.0750, 319.7197
1000.187, 356.3733
1001.298, 295.0083
1002.409, 314.6157
1003.520, 359.2014
1004.631, 399.7585
1005.741, 306.2876
1006.852, 310.7888
1007.962, 312.2610
1009.072, 297.7043
1010.182, 303.1294
1011.292, 249.5261
1012.402, 234.8960
1013.511, 229.2371
1014.621, 314.5493
1015.730, 228.8335
1016.839, 164.0891
1017.948, 244.3140
1019.056, 198.5100
1020.165, 106.6826
1021.273, 154.8210
1022.382, 170.9363
1023.490, 203.0210
1024.598, 224.0757
1025.706, 219.1118
1026.813, 104.6807
1027.921, 140.6521
1029.028, 117.3042
1030.135, 111.2729
1031.242, 154.6670
1032.349, 127.1714
1033.456, 189.6445
1034.562, 172.3403
1035.668, 269.3994
1036.775, 192.5708
1037.881, 233.4165
1038.987, 216.3032
1040.092, 301.0747
1041.198, 295.6733
1042.303, 273.2278
1043.408, 396.7927
1044.514, 400.5303
1045.618, 379.9404
1046.723, 447.4792
1047.828, 378.7964
1048.932, 424.2595
1050.037, 442.0872
1051.141, 522.4727
1052.245, 566.8867
1053.349, 585.1440
1054.452, 648.5894
1055.556, 655.1929
1056.659, 710.1499
1057.762, 828.9529
1058.865, 957.5435
1059.968, 1033.550
1061.071, 1103.750
1062.174, 1177.178
1063.276, 1273.946
1064.378, 1329.600
1065.480, 1357.784
1066.582, 1548.346
1067.684, 1741.535
1068.786, 1945.692
1069.887, 2252.865
1070.988, 2823.250
1072.090, 3743.482
1073.191, 5202.599
1074.291, 7666.629
1075.392, 11704.25
1076.493, 17538.26
1077.593, 25340.79
1078.693, 33628.32
1079.793, 40586.43
1080.893, 43933.84
1081.993, 44439.74
1083.092, 42988.44
1084.192, 42017.70
1085.291, 43621.32
1086.390, 46604.49
1087.489, 49993.16
1088.588, 51170.28
1089.686, 48821.12
1090.785, 44201.26
1091.883, 38823.50
1092.981, 34787.71
1094.079, 33910.99
1095.177, 36067.69
1096.275, 40041.93
1097.373, 44696.36
1098.470, 48167.44
1099.567, 48746.05
1100.664, 46178.06
1101.761, 41304.92
1102.858, 34462.29
1103.954, 27504.90
1105.051, 20673.14
1106.147, 15106.27
1107.243, 10428.04
1108.339, 6988.009
1109.435, 4596.591
1110.531, 3177.891
1111.626, 2176.053
1112.722, 1586.388
1113.817, 1279.227
1114.912, 1047.297
1116.007, 903.9321
1117.101, 794.0022
1118.196, 672.1443
1119.290, 603.8315
1120.385, 580.2954
1121.479, 529.3467
1122.573, 476.4121
1123.666, 447.4666
1124.760, 403.7522
1125.853, 374.7263
1126.947, 355.2825
1128.040, 317.7520
1129.133, 325.9705
1130.226, 284.8984
1131.318, 301.6230
1132.411, 302.5083
1133.503, 282.3828
1134.596, 311.5042
1135.688, 237.2615
1136.780, 215.9165
1137.871, 253.6951
1138.963, 245.3423
1140.054, 294.9172
1141.146, 263.8376
1142.237, 232.5137
1143.328, 153.5212
1144.419, 137.0693
1145.509, 219.6121
1146.600, 257.3481
1147.690, 200.9185
1148.780, 145.2314
1149.870, 177.7834
1150.960, 165.5356
1152.050, 157.4963
1153.139, 181.4929
1154.229, 138.8196
1155.318, 165.1033
1156.407, 170.9424
1157.496, 154.0767
1158.585, 164.3657
1159.674, 136.9343
1160.762, 155.6047
1161.850, 148.2837
1162.939, 141.3892
1164.027, 134.6567
1165.114, 159.3320
1166.202, 117.3779
1167.290, 91.56177
1168.377, 108.7014
1169.464, 119.0283
1170.551, 79.23438
1171.638, 115.4246
1172.725, 159.6155
1173.812, 105.7766
1174.898, 81.92651
1175.984, 102.1636
1177.071, 89.29053
1178.157, 91.77563
1179.242, 92.92725
1180.328, 98.50391
1181.414, 80.62695
1182.499, 82.68701
1183.584, 71.73315
1184.669, 57.02490
1185.754, 26.79395
1186.839, 46.80103
1187.924, 88.79590
1189.008, 130.7849
1190.092, 120.7642
1191.177, 118.7317
1192.260, 109.6956
1193.344, 107.9514
1194.428, 74.63428
1195.512, 93.28052
1196.595, 82.26709
1197.678, 45.26538
1198.761, 73.26758
1199.844, 114.2783
1200.927, 12.29834
1202.009, 70.32104
1203.092, 128.3560
1204.174, 51.38794
1205.256, 81.43311
1206.338, 11.51880
1207.420, 40.51880
1208.502, 34.58008
1209.583, 31.64331
1210.665, 31.70679
1211.746, 7.830566
1212.827, 56.81348
1213.908, 17.14014
1214.988, 13.11035
1216.069, 27.91455
1217.149, 38.94751
1218.230, 48.99072
1219.310, 53.04248
1220.390, 53.10425
1221.470, 49.37378
1222.549, 48.22241
1223.629, 22.27441
1224.708, 3.683838
1225.787, 41.64014
1226.866, 14.62817
1227.945, 58.63330
1229.024, 26.31763
1230.103, 65.26123
