##NAMES=Hydroxylbastnasite-(Ce)
##RRUFFID=R060283
##IDEAL CHEMISTRY=CeCO_3_(OH)
##LOCALITY=Trimouns, Luzenac, France
##OWNER=RRUFF
##SOURCE=Herb Obodda
##DESCRIPTION=Brown hexagonal tablet
##STATUS=The identification of this mineral has been confirmed by X-ray diffraction and chemical analysis
##URL=rruff.info/R060283
##MEASURED CHEMISTRY=(Ce_0.50_Nd_0.24_(La,Pr)_0.23_Y_0.03_)_Σ=1_CO_3_((OH)_0.65_F_0.35_)_Σ=1_
##PIN_ID=M00326
##ORIENTATION=Laser parallel to -c* (0 0 -1). Fiducial mark perpendicular to laser is parallel to a [1 0 0]
41.83100, 0.0000000E+00
43.08100, 14.45862
44.32900, 6.140381
45.57800, 1.112183
46.82700, 41.72253
48.07500, 103.6718
49.32300, 213.9022
50.57100, 200.9583
51.81900, 228.1956
53.06700, 248.1937
54.31400, 201.4650
55.56200, 243.4186
56.80900, 286.2905
58.05600, 319.4678
59.30200, 333.7887
60.54900, 344.9905
61.79500, 353.1256
63.04200, 364.0831
64.28800, 371.8695
65.53300, 419.6298
66.77900, 488.7911
68.02500, 623.6667
69.27000, 676.4341
70.51500, 733.7169
71.76000, 768.9897
73.00500, 667.9855
74.24900, 667.5342
75.49400, 625.6089
76.73800, 553.2099
77.98200, 461.3373
79.22600, 400.9918
80.46900, 339.1758
81.71300, 261.8876
82.95600, 235.1194
84.19900, 175.8582
85.44200, 133.0879
86.68500, 98.78912
87.92800, 32.94098
89.17000, 12.47595
90.41200, 33.48010
91.65500, 73.09314
92.89600, 95.34558
94.13800, 126.2676
95.38000, 145.8707
96.62100, 175.1522
97.86200, 158.1088
99.10300, 159.7375
100.3440, 134.0363
101.5850, 82.00250
102.8250, 5.634399
104.0650, 60.06934
105.3050, 202.1101
106.5450, 420.4890
107.7850, 718.2068
109.0250, 970.2637
110.2640, 1245.661
111.5030, 1853.398
112.7420, 2487.475
113.9810, 3473.892
115.2200, 4757.647
116.4580, 5950.764
117.6970, 7065.282
118.9350, 7716.162
120.1730, 7460.381
121.4100, 7127.913
122.6480, 6467.732
123.8850, 6274.811
125.1230, 6093.126
126.3600, 6232.658
127.5960, 6637.391
128.8330, 7168.302
130.0700, 7975.367
131.3060, 8654.559
132.5420, 9389.871
133.7780, 9744.311
135.0140, 9940.881
136.2500, 9919.566
137.4850, 9966.364
138.7200, 9924.260
139.9550, 9637.197
141.1900, 9239.116
142.4250, 8924.970
143.6600, 8598.723
144.8940, 8295.403
146.1280, 8058.098
147.3620, 8093.984
148.5960, 7960.113
149.8300, 8241.480
151.0630, 8720.086
152.2960, 9187.934
153.5300, 9473.021
154.7620, 9972.343
155.9950, 10149.91
157.2280, 10444.71
158.4600, 9997.742
159.6920, 9610.016
160.9250, 9072.523
162.1560, 8510.266
163.3880, 7983.243
164.6200, 7568.447
165.8510, 7252.886
167.0820, 7123.556
168.3130, 7030.455
169.5440, 7053.584
170.7750, 7385.941
172.0050, 7599.525
173.2350, 7867.336
174.4650, 8207.374
175.6950, 8490.638
176.9250, 8694.122
178.1550, 8838.829
179.3840, 8623.761
180.6130, 8422.908
181.8420, 8268.281
183.0710, 7887.868
184.3000, 7750.673
185.5280, 7731.692
186.7570, 7686.926
187.9850, 7784.373
189.2130, 7973.034
190.4400, 8230.083
191.6680, 8464.789
192.8960, 8656.120
194.1230, 8578.104
195.3500, 8625.068
196.5770, 8567.923
197.8030, 8695.575
199.0300, 8583.021
200.2560, 8268.259
201.4830, 8164.321
202.7090, 7649.113
203.9340, 7314.693
205.1600, 6876.042
206.3860, 6277.189
207.6110, 6129.149
208.8360, 5686.948
210.0610, 5253.581
211.2860, 4978.064
212.5100, 4634.360
213.7350, 4407.381
214.9590, 4101.065
216.1830, 3865.578
217.4070, 3718.510
218.6310, 3651.092
219.8540, 3624.643
221.0780, 3740.117
222.3010, 3881.963
223.5240, 3890.999
224.7470, 4044.106
225.9690, 4127.156
227.1920, 4216.170
228.4140, 4401.141
229.6360, 4443.788
230.8580, 4636.639
232.0800, 4486.167
233.3020, 4634.508
234.5230, 4646.701
235.7440, 4787.225
236.9650, 4770.036
238.1860, 4778.454
239.4070, 4772.291
240.6280, 4749.612
241.8480, 4814.862
243.0680, 4835.735
244.2880, 4938.624
245.5080, 5072.575
246.7280, 5208.924
247.9470, 5447.852
249.1660, 5689.842
250.3860, 5985.098
251.6040, 6357.114
252.8230, 6295.507
254.0420, 6563.059
255.2600, 6893.765
256.4790, 6919.622
257.6970, 6898.633
258.9150, 6957.792
260.1320, 6948.103
261.3500, 6514.559
262.5670, 6178.162
263.7840, 5859.908
265.0010, 5561.798
266.2180, 5294.830
267.4350, 4937.002
268.6510, 4740.314
269.8680, 4357.764
271.0840, 4014.352
272.3000, 3838.076
273.5160, 3531.937
274.7310, 3306.932
275.9470, 3138.062
277.1620, 2832.325
278.3770, 2730.724
279.5920, 2623.255
280.8070, 2510.920
282.0210, 2393.717
283.2360, 2340.646
284.4500, 2286.103
285.6640, 2250.899
286.8780, 2214.224
288.0920, 2207.680
289.3050, 2124.269
290.5180, 2133.991
291.7320, 2217.846
292.9450, 2211.835
294.1570, 2304.956
295.3700, 2293.209
296.5830, 2431.593
297.7950, 2575.107
299.0070, 2726.750
300.2190, 2922.531
301.4310, 3135.420
302.6420, 3371.444
303.8540, 3549.594
305.0650, 3845.868
306.2760, 4220.266
307.4870, 4464.784
308.6980, 4675.424
309.9080, 4922.187
311.1190, 5336.068
312.3290, 5569.068
313.5390, 5941.185
314.7490, 6055.418
315.9580, 6159.768
317.1680, 6604.232
318.3770, 6705.811
319.5860, 6921.503
320.7950, 7036.306
322.0040, 7195.221
323.2130, 7436.245
324.4210, 7599.379
325.6290, 7778.621
326.8380, 7894.972
328.0460, 8167.424
329.2530, 8224.989
330.4610, 8403.655
331.6680, 8539.423
332.8760, 8643.296
334.0830, 8896.271
335.2890, 8842.433
336.4960, 8954.598
337.7030, 8921.853
338.9090, 9060.801
340.1150, 9142.053
341.3210, 9087.662
342.5270, 9040.118
343.7330, 9195.232
344.9380, 9035.463
346.1440, 9046.791
347.3490, 8946.376
348.5540, 8849.457
349.7590, 8812.003
350.9630, 8726.008
352.1680, 8564.825
353.3720, 8202.551
354.5760, 8160.701
355.7800, 7785.489
356.9840, 7765.298
358.1870, 7488.475
359.3910, 7267.033
360.5940, 6922.030
361.7970, 6827.941
363.0000, 6494.047
364.2030, 6178.912
365.4050, 5915.612
366.6080, 5875.095
367.8100, 5687.527
369.0120, 5442.067
370.2140, 5239.971
371.4150, 5117.289
372.6170, 4922.892
373.8180, 4749.148
375.0190, 4696.668
376.2200, 4485.781
377.4210, 4527.607
378.6220, 4271.989
379.8220, 4241.734
381.0230, 4007.279
382.2230, 3887.968
383.4230, 3782.643
384.6220, 3691.038
385.8220, 3510.348
387.0220, 3297.523
388.2210, 3189.554
389.4200, 3178.388
390.6190, 3003.434
391.8180, 2954.673
393.0160, 2871.492
394.2150, 2818.980
395.4130, 2723.881
396.6110, 2622.119
397.8090, 2558.202
399.0060, 2464.759
400.2040, 2390.273
401.4010, 2330.083
402.5980, 2248.847
403.7950, 2181.679
404.9920, 2124.578
406.1890, 2052.545
407.3860, 1995.161
408.5820, 1908.670
409.7780, 1881.830
410.9740, 1780.054
412.1700, 1732.340
413.3650, 1655.688
414.5610, 1584.098
415.7560, 1535.568
416.9510, 1395.099
418.1460, 1292.688
419.3410, 1261.337
420.5360, 1166.043
421.7300, 1134.808
422.9240, 1066.628
424.1180, 915.5054
425.3120, 830.4375
426.5060, 793.7043
427.7000, 741.4653
428.8930, 750.5596
430.0860, 726.7068
431.2790, 721.9062
432.4720, 637.1567
433.6650, 588.4585
434.8580, 601.8101
436.0500, 571.2114
437.2420, 556.6614
438.4340, 487.1594
439.6260, 531.7051
440.8180, 479.2974
442.0090, 496.9360
443.2010, 455.6199
444.3920, 421.3489
445.5830, 383.1221
446.7740, 462.9387
447.9640, 460.7983
449.1550, 451.7002
450.3450, 463.6443
451.5350, 448.6289
452.7250, 454.6543
453.9150, 417.7192
455.1050, 376.8237
456.2940, 355.9668
457.4830, 335.7500
458.6720, 332.3662
459.8610, 310.6216
461.0500, 327.9133
462.2390, 313.2407
463.4270, 301.6033
464.6150, 227.0005
465.8040, 262.4312
466.9910, 186.8955
468.1790, 254.3926
469.3670, 169.9221
470.5540, 174.4834
471.7410, 122.0757
472.9280, 182.6987
474.1150, 93.35156
475.3020, 63.03394
476.4890, 103.7456
477.6750, 0.4855960
478.8610, 29.25073
480.0470, 17.04297
481.2330, 25.13818
482.4190, 58.30249
483.6040, 3.537842
484.7900, 76.59863
485.9750, 64.74146
487.1600, 62.88647
488.3450, 120.0342
489.5290, 40.21167
490.7140, 106.3855
491.8980, 165.5857
493.0820, 132.8413
494.2660, 88.13916
495.4500, 100.4595
496.6340, 103.8110
497.8170, 111.1958
499.0010, 125.6189
500.1840, 128.0894
501.3670, 167.6089
502.5500, 206.1978
503.7320, 183.3745
504.9150, 216.6355
506.0970, 156.4929
507.2790, 149.4209
508.4610, 159.4172
509.6430, 136.5508
510.8250, 186.6257
512.0060, 154.8540
513.1870, 158.1597
514.3680, 210.5454
515.5490, 218.0386
516.7300, 150.6443
517.9110, 157.3306
519.0910, 183.1018
520.2710, 137.9717
521.4510, 157.9199
522.6310, 116.9568
523.8110, 150.0637
524.9910, 112.2578
526.1700, 49.52124
527.3490, 62.82568
528.5280, 38.41309
529.7070, 50.56738
530.8860, 25.00098
532.0650, 25.46777
533.2430, 11.03076
534.4210, 3.510742
535.5990, 6.031982
536.7770, 27.39697
537.9550, 47.81274
539.1320, 56.22192
540.3100, 121.6272
541.4870, 112.0371
542.6640, 174.4514
543.8410, 234.8701
545.0170, 263.2930
546.1940, 295.7200
547.3700, 330.1506
548.5470, 389.5847
549.7230, 409.0225
550.8980, 473.4631
552.0740, 420.9070
553.2500, 613.3535
554.4250, 632.8025
555.6000, 691.2544
556.7750, 855.7085
557.9500, 920.1643
559.1250, 1133.622
560.2990, 1169.082
561.4730, 1255.542
562.6480, 1420.005
563.8220, 1546.468
564.9950, 1655.932
566.1690, 1799.720
567.3430, 1929.863
568.5160, 2048.328
569.6890, 2208.794
570.8620, 2324.260
572.0350, 2327.725
573.2070, 2534.191
574.3800, 2592.656
575.5520, 2617.120
576.7240, 2794.583
577.8960, 2813.044
579.0680, 2798.506
580.2400, 2971.966
581.4110, 2902.423
582.5830, 2950.880
583.7540, 2891.335
584.9250, 2826.789
586.0950, 2837.239
587.2660, 2864.689
588.4370, 2666.135
589.6070, 2721.579
590.7770, 2553.021
591.9470, 2390.460
593.1170, 2456.897
594.2860, 2284.331
595.4560, 2118.761
596.6250, 1999.189
597.7940, 1923.614
598.9630, 1810.036
600.1320, 1764.453
601.3000, 1605.868
602.4690, 1417.280
603.6370, 1366.687
604.8050, 1283.091
605.9730, 1036.491
607.1410, 968.8882
608.3090, 876.2803
609.4760, 769.6689
610.6430, 747.0537
611.8100, 617.4341
612.9770, 639.8108
614.1440, 481.1831
615.3110, 477.5510
616.4770, 413.9153
617.6430, 486.2744
618.8090, 302.5417
619.9750, 335.8940
621.1410, 252.2444
622.3070, 310.0112
623.4720, 260.5791
624.6370, 255.8916
625.8020, 235.4541
626.9670, 240.4561
628.1320, 236.8401
629.2970, 252.4495
630.4610, 249.3027
631.6250, 248.7681
632.7890, 266.8647
633.9530, 253.7766
635.1170, 256.6323
636.2810, 263.8491
637.4440, 267.7449
638.6070, 304.1025
639.7700, 280.7659
640.9330, 227.7275
642.0960, 250.6289
643.2590, 227.1992
644.4210, 216.9631
645.5830, 221.7634
646.7450, 229.8420
647.9070, 229.9785
649.0690, 266.6167
650.2310, 284.4172
651.3920, 291.2212
652.5530, 283.7742
653.7140, 356.7031
654.8750, 398.0981
656.0360, 488.6460
657.1970, 623.0459
658.3570, 683.9639
659.5170, 747.2937
660.6770, 923.1968
661.8370, 1112.877
662.9970, 1241.910
664.1570, 1371.953
665.3160, 1432.167
666.4750, 1288.814
667.6340, 1323.712
668.7930, 1238.899
669.9520, 1162.403
671.1110, 1156.275
672.2690, 1212.098
673.4270, 1166.888
674.5850, 1257.258
675.7430, 1292.611
676.9010, 1425.638
678.0590, 1429.958
679.2160, 1449.542
680.3730, 1536.764
681.5300, 1654.024
682.6870, 1878.312
683.8440, 2155.629
685.0010, 2561.971
686.1570, 2815.346
687.3130, 3268.754
688.4690, 3666.187
689.6250, 4017.660
690.7810, 4293.159
691.9370, 4648.685
693.0920, 4811.242
694.2470, 4834.824
695.4020, 4804.425
696.5570, 4399.046
697.7120, 4263.690
698.8670, 3815.353
700.0210, 3565.036
701.1750, 3329.742
702.3290, 3064.468
703.4830, 2931.213
704.6370, 2837.977
705.7910, 2535.760
706.9440, 2394.562
708.0970, 2378.385
709.2510, 2092.226
710.4030, 1957.085
711.5560, 1812.964
712.7090, 1547.863
713.8610, 1392.780
715.0140, 1255.716
716.1660, 1207.672
717.3180, 1239.646
718.4690, 1224.640
719.6210, 1290.653
720.7730, 1297.345
721.9240, 1332.736
723.0750, 1373.807
724.2260, 1443.897
725.3770, 1548.006
726.5270, 1552.135
727.6780, 1695.283
728.8280, 1688.450
729.9780, 1662.636
731.1280, 1701.842
732.2780, 1513.068
733.4280, 1492.313
734.5770, 1361.577
735.7260, 1402.861
736.8760, 1419.165
738.0250, 1363.487
739.1730, 1254.830
740.3220, 1328.191
741.4700, 1337.573
742.6190, 1342.974
743.7670, 1383.395
744.9150, 1397.835
746.0630, 1391.295
747.2100, 1456.775
748.3580, 1385.274
749.5050, 1359.793
750.6520, 1378.332
751.7990, 1401.890
752.9460, 1367.468
754.0930, 1475.067
755.2390, 1435.685
756.3860, 1443.324
757.5320, 1543.172
758.6780, 1575.258
759.8240, 1683.206
760.9690, 1814.545
762.1150, 1979.347
763.2600, 1966.362
764.4060, 2033.767
765.5510, 2282.626
766.6950, 2308.392
767.8400, 2518.983
768.9850, 2627.730
770.1290, 2652.832
771.2730, 2858.401
772.4170, 2924.500
773.5610, 3120.662
774.7050, 3208.845
775.8480, 3295.137
776.9920, 3536.468
778.1350, 3532.794
779.2780, 3602.212
780.4210, 3697.651
781.5640, 3736.279
782.7060, 3953.825
783.8490, 3837.633
784.9910, 3959.495
786.1330, 3937.320
787.2750, 3885.457
788.4170, 3980.382
789.5580, 3736.901
790.7000, 3765.048
791.8410, 3649.379
792.9820, 3635.498
794.1230, 3470.960
795.2640, 3382.693
796.4040, 3215.188
797.5450, 3032.607
798.6850, 2940.955
799.8250, 2813.914
800.9650, 2732.658
802.1050, 2510.828
803.2450, 2430.407
804.3840, 2143.464
805.5230, 2208.854
806.6630, 2009.604
807.8020, 1970.205
808.9400, 1763.458
810.0790, 1648.193
811.2170, 1505.711
812.3560, 1393.378
813.4940, 1310.273
814.6320, 1238.025
815.7700, 1168.061
816.9070, 1094.350
818.0450, 1063.295
819.1820, 955.5476
820.3190, 914.1509
821.4560, 852.4128
822.5930, 876.7852
823.7300, 805.0120
824.8670, 632.5996
826.0030, 691.6736
827.1390, 609.9746
828.2750, 568.3267
829.4110, 548.4795
830.5470, 561.5361
831.6820, 544.0366
832.8180, 667.8091
833.9530, 650.0874
835.0880, 776.6597
836.2230, 860.1748
837.3580, 802.0391
838.4920, 872.6072
839.6270, 984.8643
840.7610, 1152.045
841.8950, 1501.229
843.0290, 1762.475
844.1630, 2104.813
845.2960, 2441.003
846.4300, 2755.195
847.5630, 3106.387
848.6960, 3296.583
849.8290, 3369.778
850.9620, 3472.974
852.0940, 3424.171
853.2270, 3347.369
854.3590, 3208.567
855.4910, 2959.765
856.6230, 2766.964
857.7550, 2560.161
858.8870, 2306.359
860.0180, 2217.556
861.1500, 1952.752
862.2810, 1804.947
863.4120, 1724.141
864.5430, 1553.333
865.6730, 1663.524
866.8040, 1711.713
867.9340, 2088.900
869.0640, 2696.084
870.1940, 3304.267
871.3240, 3740.447
872.4540, 3436.624
873.5830, 3137.798
874.7130, 2735.969
875.8420, 2412.136
876.9710, 2052.301
878.1000, 1536.461
879.2290, 1160.617
880.3570, 960.7693
881.4860, 722.9170
882.6140, 561.0603
883.7420, 475.1987
884.8700, 293.3328
885.9980, 246.4614
887.1250, 123.5854
888.2530, 134.7522
889.3800, 99.96948
890.5070, 105.0825
891.6340, 115.3799
892.7610, 8.293457
893.8880, 16.17041
895.0140, 82.09741
896.1400, 70.86743
897.2670, 44.76294
898.3930, 46.73779
899.5180, 17.77271
900.6440, 72.85718
901.7700, 21.98633
902.8950, 81.13452
904.0200, 34.33374
905.1450, 5.440186
906.2700, 27.79712
907.3950, 66.94043
908.5190, 32.66797
909.6440, 51.38501
910.7680, 27.09253
911.8920, 15.21094
913.0160, 56.46265
914.1400, 39.12500
915.2630, 95.77441
916.3870, 32.41187
917.5100, 80.03540
918.6330, 27.64575
919.7560, 31.24268
920.8790, 48.82373
922.0010, 22.38989
923.1240, 57.93896
924.2460, 8.472168
925.3680, 47.98413
926.4900, 36.47827
927.6120, 31.04614
928.7340, 44.38550
929.8550, 28.79810
930.9760, 14.81030
932.0980, 27.45654
933.2190, 72.14844
934.3390, 79.91040
935.4600, 58.74707
936.5810, 63.64893
937.7010, 20.61865
938.8210, 58.63525
939.9410, 1.281494
941.0610, 50.83765
942.1810, 47.02075
943.3010, 24.26001
944.4200, 46.55151
945.5390, 57.90747
946.6580, 47.98975
947.7770, 56.82617
948.8960, 42.38159
950.0150, 45.99976
951.1330, 44.68530
952.2510, 31.43726
953.3690, 0.7534180
954.4870, 4.099365
955.6050, 25.00635
956.7230, 14.92285
957.8400, 11.90088
958.9580, 18.06982
960.0750, 39.99731
961.1920, 29.86865
962.3090, 4.699707
963.4250, 7.513672
964.5420, 46.22803
965.6580, 94.94946
966.7740, 69.64404
967.8900, 125.3088
969.0060, 91.94751
970.1220, 100.5581
971.2380, 68.15405
972.3530, 97.71924
973.4680, 140.2556
974.5830, 207.7668
975.6980, 179.2522
976.8130, 149.7153
977.9280, 133.1519
979.0420, 218.5610
980.1560, 186.9448
981.2710, 286.3030
982.3850, 240.6375
983.4980, 267.9465
984.6120, 228.2300
985.7260, 228.4883
986.8390, 265.7207
987.9520, 221.9272
989.0650, 310.1077
990.1780, 289.2622
991.2910, 358.3914
992.4030, 298.4941
993.5160, 337.5708
994.6280, 357.6206
995.7400, 368.6450
996.8520, 371.6421
997.9640, 396.6130
999.0750, 332.5566
1000.187, 373.4734
1001.298, 407.3672
1002.409, 451.2341
1003.520, 373.0798
1004.631, 351.9009
1005.741, 411.6948
1006.852, 407.4617
1007.962, 399.5513
1009.072, 386.9136
1010.182, 369.5996
1011.292, 336.2722
1012.402, 311.9167
1013.511, 246.5339
1014.621, 231.1377
1015.730, 318.7139
1016.839, 252.2629
1017.948, 228.7837
1019.056, 264.2900
1020.165, 213.7681
1021.273, 203.2234
1022.382, 190.6506
1023.490, 215.0557
1024.598, 170.4331
1025.706, 162.7939
1026.813, 209.9375
1027.921, 242.8350
1029.028, 167.8684
1030.135, 185.5295
1031.242, 196.7346
1032.349, 202.7759
1033.456, 229.4146
1034.562, 217.5454
1035.668, 221.7744
1036.775, 233.6260
1037.881, 266.4619
1038.987, 277.3892
1040.092, 310.8801
1041.198, 324.5884
1042.303, 335.8923
1043.408, 368.1594
1044.514, 411.0984
1045.618, 461.9832
1046.723, 456.8613
1047.828, 449.6396
1048.932, 519.5186
1050.037, 554.2017
1051.141, 516.0068
1052.245, 604.0410
1053.349, 668.5803
1054.452, 644.2627
1055.556, 715.8027
1056.659, 761.3762
1057.762, 835.3977
1058.865, 922.8523
1059.968, 1102.135
1061.071, 1171.890
1062.174, 1218.310
1063.276, 1300.519
1064.378, 1324.992
1065.480, 1445.564
1066.582, 1536.227
1067.684, 1722.290
1068.786, 1959.535
1069.887, 2247.595
1070.988, 2740.018
1072.090, 3699.180
1073.191, 5056.949
1074.291, 7564.519
1075.392, 11533.58
1076.493, 17089.43
1077.593, 24663.82
1078.693, 32991.55
1079.793, 39927.78
1080.893, 43478.33
1081.993, 44031.02
1083.092, 42323.06
1084.192, 41346.24
1085.291, 42296.70
1086.390, 45595.62
1087.489, 48596.20
1088.588, 50106.95
1089.686, 48128.51
1090.785, 44069.52
1091.883, 38561.95
1092.981, 34549.05
1094.079, 33125.75
1095.177, 34973.53
1096.275, 38716.82
1097.373, 43000.54
1098.470, 46380.26
1099.567, 47302.57
1100.664, 45214.21
1101.761, 40511.60
1102.858, 34661.15
1103.954, 27667.21
1105.051, 21098.60
1106.147, 15398.38
1107.243, 10646.00
1108.339, 7269.222
1109.435, 4878.770
1110.531, 3317.169
1111.626, 2302.858
1112.722, 1680.431
1113.817, 1276.515
1114.912, 1072.169
1116.007, 978.8599
1117.101, 808.4634
1118.196, 756.2344
1119.290, 797.7109
1120.385, 697.2427
1121.479, 752.7959
1122.573, 770.4146
1123.666, 638.9558
1124.760, 532.4219
1125.853, 582.8635
1126.947, 437.3882
1128.040, 413.8020
1129.133, 365.2251
1130.226, 337.4453
1131.318, 250.8782
1132.411, 269.0120
1133.503, 240.2935
1134.596, 207.9089
1135.688, 292.7031
1136.780, 226.9768
1137.871, 224.1895
1138.963, 166.4377
1140.054, 189.6836
1141.146, 254.1553
1142.237, 252.4468
1143.328, 200.5571
1144.419, 210.7410
1145.509, 206.1785
1146.600, 216.2668
1147.690, 205.9092
1148.780, 193.4346
1149.870, 192.6172
1150.960, 153.5349
1152.050, 152.7107
1153.139, 136.6582
1154.229, 157.1736
1155.318, 135.1614
1156.407, 140.8538
1157.496, 139.7793
1158.585, 129.5535
1159.674, 121.0457
1160.762, 103.6475
1161.850, 101.7593
1162.939, 91.06348
1164.027, 94.96240
1165.114, 137.7480
1166.202, 132.6611
1167.290, 126.4417
1168.377, 158.3108
1169.464, 133.0930
1170.551, 143.0107
1171.638, 171.7737
1172.725, 80.52295
1173.812, 33.25806
1174.898, 77.97656
1175.984, 85.68115
1177.071, 93.40796
1178.157, 135.0911
1179.242, 78.81738
1180.328, 115.5479
1181.414, 84.19214
1182.499, 12.82324
1183.584, 119.4382
1184.669, 79.04175
1185.754, 46.72144
1186.839, 98.29980
1187.924, 99.86597
1189.008, 88.42383
1190.092, 97.98975
1191.177, 42.61890
1192.260, 52.15381
1193.344, 45.91138
1194.428, 48.22217
1195.512, 51.79688
1196.595, 55.30664
1197.678, 60.82983
1198.761, 75.36865
1199.844, 27.91846
1200.927, 90.47949
1202.009, 37.04272
1203.092, 54.61694
1204.174, 23.18701
1205.256, 15.23413
1206.338, 73.34058
1207.420, 70.91968
1208.502, 41.50879
1209.583, 53.11108
1210.665, 23.27612
1211.746, 9.332764
1212.827, 79.94946
1213.908, 47.57812
1214.988, 0.7824710
1216.069, 43.85913
1217.149, 9.499512
1218.230, 92.13306
1219.310, 6.238525
1220.390, 18.38599
1221.470, 66.01318
1222.549, 23.63770
1223.629, 60.27295
1224.708, 29.90356
1225.787, 16.46582
1226.866, 37.84473
1227.945, 5.746582
1229.024, 26.32739
