##NAMES=Ilvaite
##RRUFFID=R050040
##IDEAL CHEMISTRY=CaFe^2+^_2_Fe^3+^OSi_2_O_7_(OH)
##LOCALITY=Capo Calamita, Isle of Elba, Italy
##OWNER=RRUFF
##SOURCE=University of Arizona Mineral Museum
##DESCRIPTION=Brown fragment
##STATUS=The identification of this mineral has been confirmed by X-ray diffraction and chemical analysis
##URL=rruff.info/R050040
##MEASURED CHEMISTRY=Ca_1.00_(Fe^2+^_1.89_Mn_0.10_Mg_0.01_)_Î£=2_Fe^3+^_1.00_OSi_2.00_O_7_(OH); trace amounts of Al; OH estimated by charge balance
##PIN_ID=M00123
##ORIENTATION=Laser parallel to (1 0 1). Fiducial mark perpendicular to laser is parallel to b [0 1 0]
159.6920, 0.0000000E+00
160.9250, 9.390625
162.1560, 117.3984
163.3880, 640.6172
164.6200, 558.3945
165.8510, 707.9570
167.0820, 891.7383
168.3130, 1121.020
169.5440, 1081.262
170.7750, 1488.109
172.0050, 1302.012
173.2350, 833.2578
174.4650, 976.0703
175.6950, 1063.926
176.9250, 1382.262
178.1550, 1456.488
179.3840, 887.4141
180.6130, 826.7422
181.8420, 691.0195
183.0710, 802.1016
184.3000, 1299.129
185.5280, 1755.875
186.7570, 2267.008
187.9850, 2051.602
189.2130, 2380.223
190.4400, 3128.727
191.6680, 3974.949
192.8960, 3991.000
194.1230, 3995.836
195.3500, 4378.812
196.5770, 4548.211
197.8030, 4662.246
199.0300, 4903.148
200.2560, 5374.941
201.4830, 5649.766
202.7090, 6081.480
203.9340, 4548.094
205.1600, 3388.602
206.3860, 2339.152
207.6110, 2930.441
208.8360, 2172.160
210.0610, 2225.660
211.2860, 2376.383
212.5100, 2807.305
213.7350, 3239.859
214.9590, 2844.078
216.1830, 2677.391
217.4070, 2647.629
218.6310, 2352.008
219.8540, 2648.137
221.0780, 2781.457
222.3010, 2608.668
223.5240, 2665.363
224.7470, 2632.477
225.9690, 2658.172
227.1920, 2783.805
228.4140, 2460.027
229.6360, 2898.617
230.8580, 2036.750
232.0800, 1966.410
233.3020, 1573.836
234.5230, 1484.449
235.7440, 1542.680
236.9650, 1014.512
238.1860, 627.3008
239.4070, 692.5117
240.6280, 501.1094
241.8480, 296.0625
243.0680, 191.3477
244.2880, 436.6953
245.5080, 123.6992
246.7280, 55.14062
247.9470, 106.9922
249.1660, 349.0625
250.3860, 148.8555
251.6040, 211.4648
252.8230, 284.7148
254.0420, 8.203125
255.2600, 373.3555
256.4790, 86.13281
257.6970, 65.88672
258.9150, 76.51172
260.1320, 45.67969
261.3500, 86.19531
262.5670, 137.8867
263.7840, 215.3906
265.0010, 62.58203
266.2180, 212.5195
267.4350, 178.5391
268.6510, 272.4297
269.8680, 127.1641
271.0840, 85.85547
272.3000, 95.49219
273.5160, 357.7930
274.7310, 619.2227
275.9470, 822.0117
277.1620, 631.5039
278.3770, 827.6523
279.5920, 804.0820
280.8070, 710.1172
282.0210, 732.7188
283.2360, 704.1250
284.4500, 583.3203
285.6640, 474.0391
286.8780, 378.0352
288.0920, 257.4297
289.3050, 89.32812
290.5180, 248.2461
291.7320, 20.21875
292.9450, 199.2461
294.1570, 295.3398
295.3700, 252.5156
296.5830, 89.67188
297.7950, 135.1055
299.0070, 41.12891
300.2190, 285.3867
301.4310, 209.4648
302.6420, 208.6289
303.8540, 148.2852
305.0650, 91.74609
306.2760, 347.3945
307.4870, 86.22266
308.6980, 228.7969
309.9080, 417.3945
311.1190, 191.1523
312.3290, 319.8906
313.5390, 504.5508
314.7490, 722.0938
315.9580, 605.4844
317.1680, 867.6992
318.3770, 985.7148
319.5860, 1352.496
320.7950, 1563.023
322.0040, 1827.293
323.2130, 1974.309
324.4210, 2327.074
325.6290, 2727.590
326.8380, 2791.855
328.0460, 2996.820
329.2530, 3371.434
330.4610, 3371.672
331.6680, 3576.535
332.8760, 3601.039
334.0830, 3376.203
335.2890, 3571.055
336.4960, 3295.621
337.7030, 3133.309
338.9090, 2911.973
340.1150, 2649.793
341.3210, 2454.383
342.5270, 2215.766
343.7330, 1907.941
344.9380, 1798.898
346.1440, 1778.605
347.3490, 1197.977
348.5540, 1217.281
349.7590, 1284.195
350.9630, 1364.230
352.1680, 1094.449
353.3720, 1549.012
354.5760, 1105.133
355.7800, 1433.973
356.9840, 1064.922
358.1870, 1294.000
359.3910, 1388.359
360.5940, 1355.512
361.7970, 814.4805
363.0000, 929.5352
364.2030, 781.6719
365.4050, 623.1055
366.6080, 830.5586
367.8100, 363.5547
369.0120, 745.5156
370.2140, 463.5586
371.4150, 599.5781
372.6170, 682.5977
373.8180, 435.4570
375.0190, 407.2383
376.2200, 464.9180
377.4210, 639.6953
378.6220, 519.3867
379.8220, 543.0469
381.0230, 381.4883
382.2230, 401.6641
383.4230, 346.2305
384.6220, 254.2656
385.8220, 107.0820
387.0220, 232.7695
388.2210, 268.6484
389.4200, 230.5703
390.6190, 432.4805
391.8180, 265.4688
393.0160, 316.0742
394.2150, 60.84375
395.4130, 165.5078
396.6110, 196.5664
397.8090, 265.3555
399.0060, 4.847656
400.2040, 35.71094
401.4010, 206.9102
402.5980, 10.69141
403.7950, 280.6055
404.9920, 231.2695
406.1890, 338.6953
407.3860, 365.8086
408.5820, 427.1953
409.7780, 434.9414
410.9740, 601.5742
412.1700, 790.7305
413.3650, 535.1953
414.5610, 814.1445
415.7560, 750.1875
416.9510, 750.3281
418.1460, 821.9297
419.3410, 834.7656
420.5360, 999.5273
421.7300, 1056.570
422.9240, 1022.465
424.1180, 1277.398
425.3120, 1200.027
426.5060, 1412.848
427.7000, 1425.637
428.8930, 1249.020
430.0860, 1479.043
431.2790, 1451.762
432.4720, 1491.066
433.6650, 1351.109
434.8580, 1585.574
436.0500, 1471.141
437.2420, 1625.883
438.4340, 1603.812
439.6260, 1799.641
440.8180, 1600.496
442.0090, 1461.719
443.2010, 1607.438
444.3920, 1941.812
445.5830, 1542.359
446.7740, 1530.625
447.9640, 2063.703
449.1550, 1797.582
450.3450, 1825.730
451.5350, 2368.691
452.7250, 1921.477
453.9150, 2176.117
455.1050, 1984.820
456.2940, 1954.160
457.4830, 2040.324
458.6720, 2200.797
459.8610, 2247.258
461.0500, 1975.699
462.2390, 2268.137
463.4270, 2028.566
464.6150, 2339.020
465.8040, 2297.496
466.9910, 2530.027
468.1790, 2449.566
469.3670, 2705.164
470.5540, 2824.809
471.7410, 2510.305
472.9280, 2941.457
474.1150, 3238.254
475.3020, 3407.902
476.4890, 3069.508
477.6750, 3387.160
478.8610, 3441.898
480.0470, 3485.953
481.2330, 3896.094
482.4190, 3631.719
483.6040, 4035.977
484.7900, 4173.422
485.9750, 4433.031
487.1600, 4493.430
488.3450, 4904.664
489.5290, 5131.906
490.7140, 5383.188
491.8980, 5735.484
493.0820, 5942.832
494.2660, 6252.242
495.4500, 6497.086
496.6340, 6809.246
497.8170, 7041.832
499.0010, 7358.469
500.1840, 7780.199
501.3670, 7965.961
502.5500, 8076.758
503.7320, 8219.621
504.9150, 7842.625
506.0970, 7730.734
507.2790, 7620.902
508.4610, 7154.109
509.6430, 7242.406
510.8250, 6863.754
512.0060, 6854.133
513.1870, 6673.754
514.3680, 6886.277
515.5490, 6591.289
516.7300, 6727.293
517.9110, 6619.902
519.0910, 6286.555
520.2710, 6671.234
521.4510, 6345.270
522.6310, 6801.023
523.8110, 6516.621
524.9910, 6755.434
526.1700, 6652.277
527.3490, 6697.645
528.5280, 6644.926
529.7070, 6486.039
530.8860, 6425.961
532.0650, 6207.859
533.2430, 6051.227
534.4210, 6275.672
535.5990, 5916.188
536.7770, 6074.723
537.9550, 5683.195
539.1320, 5604.234
540.3100, 5570.906
541.4870, 5843.047
542.6640, 5454.391
543.8410, 5665.840
545.0170, 5373.363
546.1940, 5076.953
547.3700, 4814.625
548.5470, 4831.391
549.7230, 4789.195
550.8980, 4908.043
552.0740, 4637.938
553.2500, 4585.871
554.4250, 4464.914
555.6000, 4376.023
556.7750, 4273.098
557.9500, 4237.250
559.1250, 4311.441
560.2990, 4153.652
561.4730, 4325.895
562.6480, 4269.148
563.8220, 3756.414
564.9950, 3729.703
566.1690, 3527.004
567.3430, 3847.324
568.5160, 3533.652
569.6890, 3749.992
570.8620, 3650.352
572.0350, 3995.730
573.2070, 3537.125
574.3800, 3518.539
575.5520, 3422.977
576.7240, 3391.430
577.8960, 3526.910
579.0680, 3416.406
580.2400, 3441.512
581.4110, 3438.520
582.5830, 3368.652
583.7540, 3215.328
584.9250, 3114.016
586.0950, 2834.719
587.2660, 2685.219
588.4370, 2541.305
589.6070, 2333.855
590.7770, 1958.473
591.9470, 1834.145
593.1170, 1649.875
594.2860, 1623.875
595.4560, 1509.746
596.6250, 1441.695
597.7940, 1291.172
598.9630, 1079.590
600.1320, 975.8047
601.3000, 855.0508
602.4690, 786.4023
603.6370, 735.1133
604.8050, 698.4766
605.9730, 745.1680
607.1410, 550.1250
608.3090, 646.1875
609.4760, 511.4023
610.6430, 574.4805
611.8100, 281.6641
612.9770, 530.7812
614.1440, 418.9102
615.3110, 375.3320
616.4770, 477.9766
617.6430, 547.0859
618.8090, 318.9336
619.9750, 359.8125
621.1410, 319.4766
622.3070, 377.3594
623.4720, 365.5391
624.6370, 491.9570
625.8020, 341.7852
626.9670, 462.8789
628.1320, 388.2266
629.2970, 221.0703
630.4610, 587.0898
631.6250, 229.5820
632.7890, 226.0703
633.9530, 338.6523
635.1170, 197.0703
636.2810, 348.5078
637.4440, 295.6562
638.6070, 392.3281
639.7700, 235.8203
640.9330, 90.94141
642.0960, 154.8086
643.2590, 285.7109
644.4210, 509.8789
645.5830, 198.7422
646.7450, 201.2695
647.9070, 319.3594
649.0690, 175.3047
650.2310, 163.3984
651.3920, 214.1719
652.5530, 124.7109
653.7140, 278.2656
654.8750, 63.89453
656.0360, 68.52344
657.1970, 187.9766
658.3570, 278.4297
659.5170, 228.8359
660.6770, 111.1992
661.8370, 4.496094
662.9970, 79.25000
664.1570, 194.9062
665.3160, 157.9883
666.4750, 86.97266
667.6340, 0.1132810
668.7930, 2.265625
669.9520, 69.48047
671.1110, 53.69141
672.2690, 325.8359
673.4270, 334.4102
674.5850, 213.9336
675.7430, 319.4023
676.9010, 60.81641
678.0590, 199.1680
679.2160, 35.53906
680.3730, 238.6641
681.5300, 329.8047
682.6870, 267.8906
683.8440, 590.9141
685.0010, 263.8789
686.1570, 427.7812
687.3130, 630.6211
688.4690, 672.3984
689.6250, 893.1133
690.7810, 956.7695
691.9370, 1193.359
693.0920, 1551.891
694.2470, 1703.355
695.4020, 1748.754
696.5570, 2372.090
697.7120, 2416.359
698.8670, 3034.562
700.0210, 3180.703
701.1750, 3302.781
702.3290, 3773.785
703.4830, 3501.727
704.6370, 3607.602
705.7910, 3235.406
706.9440, 3218.148
708.0970, 3106.824
709.2510, 2454.430
710.4030, 2262.969
711.5560, 1827.445
712.7090, 1531.848
713.8610, 1301.184
715.0140, 1088.453
716.1660, 929.6523
717.3180, 740.7812
718.4690, 577.7695
719.6210, 481.2773
720.7730, 141.1016
721.9240, 265.1484
723.0750, 312.9492
724.2260, 288.5977
725.3770, 23.80078
726.5270, 35.59375
727.6780, 54.18750
728.8280, 150.1836
729.9780, 38.89844
731.1280, 310.0586
732.2780, 202.4688
733.4280, 8.902344
734.5770, 312.5703
735.7260, 145.5195
736.8760, 144.6602
738.0250, 168.0039
739.1730, 151.5977
740.3220, 136.5703
741.4700, 83.54688
742.6190, 49.08984
743.7670, 22.87891
744.9150, 186.7891
746.0630, 39.09375
747.2100, 184.1289
748.3580, 86.55859
749.5050, 14.85156
750.6520, 15.15625
751.7990, 97.64062
752.9460, 7.609375
754.0930, 91.69531
755.2390, 147.9336
756.3860, 1.363281
757.5320, 257.9062
758.6780, 16.69531
759.8240, 136.3984
760.9690, 11.57812
762.1150, 63.32812
763.2600, 215.8438
764.4060, 78.23828
765.5510, 83.77734
766.6950, 87.53125
767.8400, 2.234375
768.9850, 150.9062
770.1290, 61.03125
771.2730, 96.09375
772.4170, 111.3086
773.5610, 116.3125
774.7050, 79.12891
775.8480, 41.71094
776.9920, 152.4102
778.1350, 188.7148
779.2780, 33.77734
780.4210, 54.23828
781.5640, 363.3711
782.7060, 201.7852
783.8490, 71.39453
784.9910, 60.87500
786.1330, 194.9258
787.2750, 8.906250
788.4170, 209.0234
789.5580, 133.1094
790.7000, 72.55078
791.8410, 330.0508
792.9820, 140.1328
794.1230, 442.2070
795.2640, 59.63672
796.4040, 48.01172
797.5450, 182.3320
798.6850, 292.2695
799.8250, 324.8984
800.9650, 291.8086
802.1050, 431.9023
803.2450, 546.9609
804.3840, 587.4766
805.5230, 815.4258
806.6630, 725.2422
807.8020, 610.2070
808.9400, 913.7266
810.0790, 1185.770
811.2170, 1381.488
812.3560, 1505.156
813.4940, 1340.730
814.6320, 1547.441
815.7700, 1605.648
816.9070, 1654.133
818.0450, 1913.719
819.1820, 1880.074
820.3190, 1898.414
821.4560, 2004.719
822.5930, 1858.977
823.7300, 1872.199
824.8670, 1780.434
826.0030, 1735.523
827.1390, 1506.625
828.2750, 1522.688
829.4110, 1281.715
830.5470, 690.7031
831.6820, 589.6562
832.8180, 585.5742
833.9530, 479.4570
835.0880, 556.3047
836.2230, 454.1172
837.3580, 759.9023
838.4920, 713.2930
839.6270, 607.2578
840.7610, 803.0547
841.8950, 369.7148
843.0290, 344.3398
844.1630, 380.9414
845.2960, 372.5078
846.4300, 420.0508
847.5630, 544.5664
848.6960, 598.0547
849.8290, 451.5156
850.9620, 676.9609
852.0940, 641.3711
853.2270, 656.7617
854.3590, 750.1250
855.4910, 929.4688
856.6230, 588.7930
857.7550, 1279.582
858.8870, 861.8633
860.0180, 935.1289
861.1500, 1029.375
862.2810, 885.8711
863.4120, 1148.777
864.5430, 970.2500
865.6730, 1026.648
866.8040, 915.9883
867.9340, 866.3750
869.0640, 896.2617
870.1940, 782.3867
871.3240, 837.4258
872.4540, 762.9336
873.5830, 827.0273
874.7130, 920.2422
875.8420, 1022.930
876.9710, 956.5586
878.1000, 1083.785
879.2290, 1253.355
880.3570, 1238.590
881.4860, 1018.555
882.6140, 1235.406
883.7420, 1333.586
884.8700, 1103.926
885.9980, 1385.645
887.1250, 1272.422
888.2530, 1286.188
889.3800, 1275.660
890.5070, 1305.902
891.6340, 1236.676
892.7610, 1193.707
893.8880, 1190.770
895.0140, 743.0430
896.1400, 1057.098
897.2670, 922.8555
898.3930, 1079.375
899.5180, 608.4805
900.6440, 970.3242
901.7700, 609.9180
902.8950, 854.0117
904.0200, 673.9570
905.1450, 846.3477
906.2700, 935.5703
907.3950, 950.6133
908.5190, 676.8555
909.6440, 784.9570
910.7680, 736.3281
911.8920, 684.0859
913.0160, 832.5000
914.1400, 610.9844
915.2630, 1002.297
916.3870, 1035.441
917.5100, 855.3438
918.6330, 722.5430
919.7560, 946.1719
920.8790, 917.8828
922.0010, 940.4492
923.1240, 1211.520
924.2460, 1211.973
925.3680, 1477.695
926.4900, 1086.441
927.6120, 1248.125
928.7340, 1315.875
929.8550, 1169.691
930.9760, 1584.566
932.0980, 1305.508
933.2190, 1371.504
934.3390, 1219.582
935.4600, 1181.770
936.5810, 1214.035
937.7010, 1196.367
938.8210, 1318.797
939.9410, 1386.328
941.0610, 1344.930
942.1810, 1281.617
943.3010, 1155.426
944.4200, 1474.301
945.5390, 1084.309
946.6580, 1199.379
947.7770, 1498.516
948.8960, 1477.723
950.0150, 1403.988
951.1330, 1344.324
952.2510, 1419.742
953.3690, 1295.227
954.4870, 1490.770
955.6050, 1659.383
956.7230, 1951.062
957.8400, 1900.809
958.9580, 1784.625
960.0750, 1920.508
961.1920, 2040.461
962.3090, 2321.484
963.4250, 2387.574
964.5420, 2384.730
965.6580, 2660.965
966.7740, 2573.266
967.8900, 2800.645
969.0060, 3309.090
970.1220, 3477.668
971.2380, 3496.320
972.3530, 4120.043
973.4680, 3996.840
974.5830, 4124.715
975.6980, 4733.660
976.8130, 4923.684
977.9280, 5191.781
979.0420, 5592.953
980.1560, 5456.199
981.2710, 5922.523
982.3850, 5717.926
983.4980, 5850.902
984.6120, 5796.957
985.7260, 5867.586
986.8390, 5784.297
987.9520, 5631.090
989.0650, 5541.961
990.1780, 5414.457
991.2910, 5278.727
992.4030, 5085.051
993.5160, 4974.242
994.6280, 4635.512
995.7400, 4389.863
996.8520, 4557.367
997.9640, 3926.961
999.0750, 3806.672
1000.187, 3543.590
1001.298, 3655.617
1002.409, 3465.867
1003.520, 3371.266
1004.631, 3097.789
1005.741, 2900.508
1006.852, 3010.371
1007.962, 2813.383
1009.072, 2608.477
1010.182, 2735.691
1011.292, 2504.004
1012.402, 2594.453
1013.511, 2624.016
1014.621, 2464.703
1015.730, 2314.555
1016.839, 2594.496
1017.948, 2512.656
1019.056, 2274.941
1020.165, 2307.391
1021.273, 2227.938
1022.382, 2363.625
1023.490, 2347.406
1024.598, 2344.199
1025.706, 2631.395
1026.813, 2360.242
1027.921, 2218.262
1029.028, 2240.715
1030.135, 2442.254
1031.242, 2474.895
1032.349, 2817.625
1033.456, 2660.523
1034.562, 2384.555
1035.668, 2622.723
1036.775, 2819.977
1037.881, 2599.387
1038.987, 2856.832
1040.092, 2802.398
1041.198, 2771.898
1042.303, 2658.734
1043.408, 2629.938
1044.514, 2572.828
1045.618, 2519.168
1046.723, 2547.949
1047.828, 2509.363
1048.932, 2646.863
1050.037, 2523.602
1051.141, 2217.402
1052.245, 2586.645
1053.349, 2464.938
1054.452, 2605.090
1055.556, 2803.387
1056.659, 2525.336
1057.762, 2578.418
1058.865, 2640.863
1059.968, 2750.555
1061.071, 2422.656
1062.174, 2503.500
1063.276, 2346.426
1064.378, 2329.660
1065.480, 2486.734
1066.582, 2590.309
1067.684, 2382.426
1068.786, 2611.730
1069.887, 2354.105
1070.988, 2279.555
1072.090, 2453.586
1073.191, 2508.309
1074.291, 2381.695
1075.392, 2292.070
1076.493, 2400.883
1077.593, 2326.312
1078.693, 2370.246
1079.793, 2194.828
1080.893, 2326.910
1081.993, 1996.062
1083.092, 1972.277
1084.192, 2743.562
1085.291, 2233.914
1086.390, 2230.328
1087.489, 2262.809
1088.588, 2023.051
1089.686, 2472.969
1090.785, 1806.645
1091.883, 1911.379
1092.981, 1731.188
1094.079, 1765.852
1095.177, 2040.234
1096.275, 2180.266
1097.373, 2193.184
1098.470, 1698.102
1099.567, 1859.602
1100.664, 1757.816
1101.761, 1658.699
1102.858, 1912.301
1103.954, 1491.457
1105.051, 1739.371
1106.147, 1720.430
1107.243, 1823.715
1108.339, 1662.508
1109.435, 1583.066
1110.531, 1768.320
1111.626, 1807.141
1112.722, 1615.703
1113.817, 1727.117
1114.912, 1297.637
1116.007, 1342.902
1117.101, 1593.082
1118.196, 1415.680
1119.290, 1532.246
1120.385, 1536.727
1121.479, 1031.906
1122.573, 1413.430
1123.666, 1411.523
1124.760, 1016.250
1125.853, 1367.211
1126.947, 1026.262
1128.040, 941.2969
1129.133, 1033.320
1130.226, 931.6250
1131.318, 1150.223
1132.411, 1059.801
1133.503, 949.1562
1134.596, 762.8906
1135.688, 652.4727
1136.780, 401.0234
1137.871, 730.0195
1138.963, 814.0586
1140.054, 482.1328
1141.146, 771.3867
1142.237, 687.4180
1143.328, 324.2539
1144.419, 375.4766
1145.509, 186.4492
1146.600, 253.7578
1147.690, 456.0742
1148.780, 496.2109
1149.870, 509.5938
1150.960, 354.5625
1152.050, 312.0039
1153.139, 278.4805
1154.229, 155.9805
1155.318, 60.50781
1156.407, 361.0547
1157.496, 317.3672
1158.585, 43.86719
1159.674, 855.6484
1160.762, 202.1875
1161.850, 116.7461
1162.939, 159.3281
1164.027, 174.2539
1165.114, 87.98047
1166.202, 219.8008
1167.290, 59.68750
1168.377, 180.6133
1169.464, 34.05078
1170.551, 10.42578
1171.638, 72.87500
1172.725, 73.11328
1173.812, 171.1055
1174.898, 8.441406
1175.984, 232.5703
1177.071, 55.74219
1178.157, 67.50000
1179.242, 482.1914
1180.328, 42.10156
1181.414, 63.60156
1182.499, 336.6875
1183.584, 7.109375
1184.669, 61.38281
1185.754, 212.9688
1186.839, 226.4375
1187.924, 169.9336
1189.008, 190.4883
1190.092, 10.87500
1191.177, 58.75000
1192.260, 34.60547
1193.344, 86.96094
1194.428, 51.67578
1195.512, 111.6602
1196.595, 112.0000
1197.678, 208.8008
1198.761, 90.83984
1199.844, 256.0703
1200.927, 294.1289
1202.009, 175.8984
1203.092, 10.53516
1204.174, 66.41797
1205.256, 154.2070
1206.338, 124.5508
1207.420, 271.7891
1208.502, 0.4609380
1209.583, 5.753906
1210.665, 211.7109
1211.746, 241.5078
1212.827, 153.2930
1213.908, 50.07031
1214.988, 114.8477
1216.069, 108.6172
1217.149, 358.3750
1218.230, 306.1250
1219.310, 61.87109
1220.390, 235.0859
1221.470, 103.7188
1222.549, 396.0430
1223.629, 61.75000
1224.708, 327.4453
1225.787, 355.1250
1226.866, 350.7930
1227.945, 342.4531
1229.024, 42.10156
1230.103, 429.7305
1231.181, 185.6562
1232.259, 315.8281
1233.337, 185.4961
1234.415, 141.7461
1235.493, 227.1875
1236.571, 136.6133
1237.648, 195.0273
1238.726, 362.4180
1239.803, 161.7930
1240.880, 192.1562
1241.957, 427.5000
1243.034, 207.8320
1244.110, 417.1367
1245.187, 714.4297
1246.263, 238.6992
1247.339, 82.95312
1248.415, 153.1914
1249.491, 140.3984
1250.566, 132.5898
1251.642, 94.76562
1252.717, 149.2852
1253.793, 126.0391
1254.868, 137.1445
1255.943, 190.2266
1257.017, 68.71484
1258.092, 188.2461
1259.166, 172.1836
1260.241, 155.9023
1261.315, 206.8594
1262.389, 13.39844
1263.462, 134.2617
1264.536, 51.89844
1265.610, 55.48438
1266.683, 221.0234
1267.756, 292.5352
1268.829, 219.0234
1269.902, 37.51172
1270.975, 34.85156
1272.048, 42.84375
1273.120, 183.3789
1274.192, 65.57422
1275.264, 183.7188
1276.336, 256.8320
1277.408, 134.0742
1278.480, 239.8594
1279.551, 96.23047
1280.623, 319.5391
1281.694, 435.2852
1282.765, 280.0039
1283.836, 293.6875
1284.907, 362.3516
1285.977, 381.9883
1287.048, 329.9062
1288.118, 342.8086
1289.188, 347.3594
1290.258, 264.3750
1291.328, 437.3984
1292.398, 123.8711
1293.467, 109.3047
1294.537, 88.69922
1295.606, 193.1016
1296.675, 417.4141
1297.744, 315.6602
1298.813, 116.1016
1299.882, 394.3203
1300.950, 98.70312
1302.018, 106.8438
1303.086, 343.8320
1304.155, 8.718750
1305.222, 355.6992
1306.290, 90.19531
1307.358, 633.0898
1308.425, 258.2578
1309.492, 545.9648
1310.559, 314.7773
1311.626, 614.2617
1312.693, 101.7773
1313.760, 668.5391
1314.826, 610.2109
1315.893, 457.2852
1316.959, 606.2852
1318.025, 450.0117
1319.091, 424.6953
1320.157, 409.7344
1321.222, 639.3906
1322.288, 314.8555
1323.353, 523.0586
1324.418, 519.4648
1325.483, 460.4258
1326.548, 403.8789
