##NAMES=Ilvaite
##RRUFFID=R050040
##IDEAL CHEMISTRY=CaFe^2+^_2_Fe^3+^OSi_2_O_7_(OH)
##LOCALITY=Capo Calamita, Isle of Elba, Italy
##OWNER=RRUFF
##SOURCE=University of Arizona Mineral Museum
##DESCRIPTION=Brown fragment
##STATUS=The identification of this mineral has been confirmed by X-ray diffraction and chemical analysis
##URL=rruff.info/R050040
##MEASURED CHEMISTRY=Ca_1.00_(Fe^2+^_1.89_Mn_0.10_Mg_0.01_)_Î£=2_Fe^3+^_1.00_OSi_2.00_O_7_(OH); trace amounts of Al; OH estimated by charge balance
##PIN_ID=M00423
##ORIENTATION=Laser parallel to -c* (0 0 -1). Fiducial mark perpendicular to laser is parallel to a [1 0 0]
136.2500, 0.0000000E+00
137.4850, 454.6445
138.7200, 1235.996
139.9550, 1472.105
141.1900, 359.3047
142.4250, 53.14844
143.6600, 377.3711
144.8940, 266.5938
146.1280, 617.9062
147.3620, 897.7461
148.5960, 899.8164
149.8300, 1589.113
151.0630, 2538.609
152.2960, 2242.105
153.5300, 1986.340
154.7620, 2156.195
155.9950, 1176.469
157.2280, 1086.062
158.4600, 937.0859
159.6920, 571.1641
160.9250, 946.8555
162.1560, 1338.176
163.3880, 1798.398
164.6200, 2204.820
165.8510, 2451.180
167.0820, 2863.766
168.3130, 2809.691
169.5440, 2676.316
170.7750, 2711.086
172.0050, 2422.395
173.2350, 1751.324
174.4650, 1865.629
175.6950, 1497.113
176.9250, 1618.617
178.1550, 1044.285
179.3840, 921.1172
180.6130, 864.7148
181.8420, 1162.043
183.0710, 882.8477
184.3000, 1275.438
185.5280, 1645.902
186.7570, 1957.281
187.9850, 2253.383
189.2130, 2612.062
190.4400, 3036.043
191.6680, 3534.312
192.8960, 3889.984
194.1230, 4223.770
195.3500, 4356.773
196.5770, 4452.609
197.8030, 4128.758
199.0300, 4851.836
200.2560, 5687.695
201.4830, 5468.266
202.7090, 4733.496
203.9340, 3461.398
205.1600, 1622.980
206.3860, 759.2656
207.6110, 656.2578
208.8360, 444.9883
210.0610, 574.6641
211.2860, 777.8516
212.5100, 630.4609
213.7350, 1525.328
214.9590, 817.0742
216.1830, 551.5977
217.4070, 1355.922
218.6310, 1453.918
219.8540, 1038.414
221.0780, 682.4766
222.3010, 810.3086
223.5240, 1238.184
224.7470, 1156.441
225.9690, 1279.125
227.1920, 1189.203
228.4140, 1346.215
229.6360, 1537.316
230.8580, 1374.777
232.0800, 1142.262
233.3020, 1222.742
234.5230, 1072.230
235.7440, 919.7109
236.9650, 607.1680
238.1860, 438.5508
239.4070, 216.8164
240.6280, 205.9570
241.8480, 38.98047
243.0680, 381.1172
244.2880, 226.3359
245.5080, 409.7773
246.7280, 600.9688
247.9470, 498.9375
249.1660, 323.1328
250.3860, 280.5547
251.6040, 305.6719
252.8230, 142.8047
254.0420, 231.1641
255.2600, 268.9180
256.4790, 693.1875
257.6970, 2690.156
258.9150, 2288.918
260.1320, 2530.922
261.3500, 2569.969
262.5670, 2005.539
263.7840, 1796.441
265.0010, 1896.461
266.2180, 2193.551
267.4350, 2460.961
268.6510, 2686.934
269.8680, 3212.793
271.0840, 3275.648
272.3000, 3397.512
273.5160, 3733.383
274.7310, 4210.262
275.9470, 4579.152
277.1620, 4801.051
278.3770, 4511.969
279.5920, 4157.895
280.8070, 3859.840
282.0210, 3768.789
283.2360, 3352.121
284.4500, 2878.664
285.6640, 2663.203
286.8780, 2143.207
288.0920, 1868.941
289.3050, 1819.566
290.5180, 1321.008
291.7320, 796.8203
292.9450, 769.7578
294.1570, 391.4023
295.3700, 148.7344
296.5830, 53.74609
297.7950, 35.59375
299.0070, 221.6953
300.2190, 473.6250
301.4310, 418.1914
302.6420, 73.37500
303.8540, 174.8594
305.0650, 77.53125
306.2760, 10.53125
307.4870, 8.078125
308.6980, 94.67188
309.9080, 2.816406
311.1190, 117.4023
312.3290, 65.20703
313.5390, 235.9648
314.7490, 122.0078
315.9580, 268.6719
317.1680, 619.9609
318.3770, 436.7070
319.5860, 1138.863
320.7950, 1016.578
322.0040, 1352.961
323.2130, 1672.980
324.4210, 1799.648
325.6290, 2245.371
326.8380, 2811.535
328.0460, 2884.414
329.2530, 2936.086
330.4610, 3644.531
331.6680, 3730.750
332.8760, 3763.715
334.0830, 3624.320
335.2890, 4079.477
336.4960, 3560.652
337.7030, 3675.629
338.9090, 3517.598
340.1150, 3160.762
341.3210, 3268.539
342.5270, 2930.180
343.7330, 3159.789
344.9380, 2687.371
346.1440, 2518.930
347.3490, 2294.574
348.5540, 1821.953
349.7590, 1719.430
350.9630, 1496.969
352.1680, 1326.684
353.3720, 1086.312
354.5760, 794.7148
355.7800, 952.4883
356.9840, 1019.219
358.1870, 996.2617
359.3910, 625.7695
360.5940, 707.5469
361.7970, 603.9883
363.0000, 498.2812
364.2030, 647.2695
365.4050, 325.8555
366.6080, 466.4531
367.8100, 422.6172
369.0120, 465.6992
370.2140, 324.4023
371.4150, 227.8320
372.6170, 137.7891
373.8180, 83.39062
375.0190, 96.93750
376.2200, 405.5625
377.4210, 148.3633
378.6220, 337.5117
379.8220, 378.0508
381.0230, 302.9766
382.2230, 131.7656
383.4230, 525.9531
384.6220, 318.6406
385.8220, 462.2422
387.0220, 603.9375
388.2210, 600.7344
389.4200, 867.4492
390.6190, 1191.070
391.8180, 1050.926
393.0160, 1048.469
394.2150, 563.3242
395.4130, 705.2578
396.6110, 537.3828
397.8090, 682.6250
399.0060, 704.5273
400.2040, 566.1250
401.4010, 1194.668
402.5980, 1218.418
403.7950, 1059.160
404.9920, 1431.895
406.1890, 1304.926
407.3860, 2021.359
408.5820, 1459.105
409.7780, 1320.871
410.9740, 1659.652
412.1700, 1434.465
413.3650, 1293.293
414.5610, 1594.156
415.7560, 1599.035
416.9510, 1376.941
418.1460, 1613.879
419.3410, 1468.840
420.5360, 1561.824
421.7300, 1417.832
422.9240, 1599.867
424.1180, 1626.766
425.3120, 1630.012
426.5060, 1695.125
427.7000, 1879.164
428.8930, 1681.125
430.0860, 1979.027
431.2790, 1974.863
432.4720, 1839.637
433.6650, 1794.379
434.8580, 1752.902
436.0500, 1717.961
437.2420, 1668.734
438.4340, 1710.848
439.6260, 1670.898
440.8180, 1657.820
442.0090, 1604.684
443.2010, 1376.766
444.3920, 1437.055
445.5830, 1260.082
446.7740, 1086.258
447.9640, 1319.422
449.1550, 1149.660
450.3450, 1094.523
451.5350, 1274.906
452.7250, 1349.348
453.9150, 1225.570
455.1050, 1250.840
456.2940, 1319.531
457.4830, 1373.371
458.6720, 1048.309
459.8610, 1151.586
461.0500, 1290.586
462.2390, 1193.895
463.4270, 1506.211
464.6150, 1323.125
465.8040, 1404.473
466.9910, 1646.816
468.1790, 1218.219
469.3670, 1783.656
470.5540, 1397.129
471.7410, 1545.652
472.9280, 1419.168
474.1150, 1741.738
475.3020, 1717.309
476.4890, 1860.871
477.6750, 1939.258
478.8610, 1849.000
480.0470, 1961.574
481.2330, 2071.145
482.4190, 1973.734
483.6040, 2206.340
484.7900, 1915.957
485.9750, 2068.598
487.1600, 2344.254
488.3450, 2221.938
489.5290, 2213.648
490.7140, 2055.375
491.8980, 2672.133
493.0820, 2643.902
494.2660, 2869.711
495.4500, 3100.578
496.6340, 3076.543
497.8170, 3424.172
499.0010, 3432.461
500.1840, 3520.457
501.3670, 3532.707
502.5500, 3518.082
503.7320, 3496.891
504.9150, 3463.422
506.0970, 3518.664
507.2790, 3649.719
508.4610, 3471.492
509.6430, 3627.227
510.8250, 3175.613
512.0060, 3416.254
513.1870, 3327.828
514.3680, 3347.629
515.5490, 3455.117
516.7300, 3336.445
517.9110, 3420.316
519.0910, 3480.016
520.2710, 3465.812
521.4510, 3418.457
522.6310, 3415.020
523.8110, 3502.523
524.9910, 3137.172
526.1700, 3497.539
527.3490, 3366.828
528.5280, 3644.461
529.7070, 3311.934
530.8860, 3079.836
532.0650, 3582.059
533.2430, 3694.734
534.4210, 3702.418
535.5990, 3357.258
536.7770, 3875.594
537.9550, 2806.648
539.1320, 2973.270
540.3100, 3330.594
541.4870, 3058.543
542.6640, 3074.484
543.8410, 3399.844
545.0170, 2816.465
546.1940, 3217.859
547.3700, 3436.273
548.5470, 3349.242
549.7230, 2604.145
550.8980, 3579.609
552.0740, 2693.086
553.2500, 2738.582
554.4250, 2708.094
555.6000, 2436.617
556.7750, 2709.156
557.9500, 2610.711
559.1250, 2546.281
560.2990, 2459.867
561.4730, 2612.465
562.6480, 2466.078
563.8220, 2505.828
564.9950, 2032.340
566.1690, 2417.984
567.3430, 2249.645
568.5160, 2027.316
569.6890, 2482.000
570.8620, 2482.695
572.0350, 2171.398
573.2070, 1664.117
574.3800, 1956.848
575.5520, 1983.590
576.7240, 1933.766
577.8960, 1703.668
579.0680, 2138.223
580.2400, 1757.664
581.4110, 1936.215
582.5830, 1167.105
583.7540, 904.1875
584.9250, 930.4023
586.0950, 978.8438
587.2660, 659.6367
588.4370, 815.6875
589.6070, 821.9766
590.7770, 759.0977
591.9470, 754.7383
593.1170, 635.7891
594.2860, 657.6719
595.4560, 489.3711
596.6250, 561.0508
597.7940, 393.6016
598.9630, 557.6797
600.1320, 379.4453
601.3000, 173.0039
602.4690, 484.5820
603.6370, 734.0898
604.8050, 502.6992
605.9730, 773.2930
607.1410, 252.7188
608.3090, 509.5000
609.4760, 628.3633
610.6430, 546.7734
611.8100, 352.2031
612.9770, 314.4570
614.1440, 150.4414
615.3110, 207.9375
616.4770, 245.1445
617.6430, 286.8594
618.8090, 155.8359
619.9750, 432.8477
621.1410, 186.3242
622.3070, 642.8008
623.4720, 483.2148
624.6370, 88.19922
625.8020, 408.8359
626.9670, 42.82812
628.1320, 88.71484
629.2970, 141.9688
630.4610, 84.60547
631.6250, 209.4336
632.7890, 69.34766
633.9530, 50.68359
635.1170, 177.7070
636.2810, 74.05078
637.4440, 54.02734
638.6070, 97.62500
639.7700, 232.6328
640.9330, 251.0859
642.0960, 204.8203
643.2590, 324.0977
644.4210, 377.5117
645.5830, 158.7070
646.7450, 83.46875
647.9070, 235.0391
649.0690, 44.25391
650.2310, 212.6445
651.3920, 137.3086
652.5530, 23.54688
653.7140, 234.6562
654.8750, 292.7539
656.0360, 186.3828
657.1970, 536.1172
658.3570, 63.16797
659.5170, 268.1875
660.6770, 369.1914
661.8370, 0.1757810
662.9970, 10.87109
664.1570, 93.94922
665.3160, 10.91797
666.4750, 90.75000
667.6340, 154.4453
668.7930, 95.73047
669.9520, 132.9141
671.1110, 95.52734
672.2690, 102.9023
673.4270, 171.5938
674.5850, 55.94531
675.7430, 45.45312
676.9010, 152.8047
678.0590, 60.11719
679.2160, 163.3867
680.3730, 29.61719
681.5300, 50.20312
682.6870, 428.9102
683.8440, 136.9766
685.0010, 375.0039
686.1570, 282.9883
687.3130, 263.9258
688.4690, 616.8203
689.6250, 789.6758
690.7810, 851.4844
691.9370, 1038.250
693.0920, 984.9688
694.2470, 1088.652
695.4020, 1289.879
696.5570, 1555.867
697.7120, 1813.406
698.8670, 1842.035
700.0210, 2303.484
701.1750, 2550.891
702.3290, 2410.246
703.4830, 2550.562
704.6370, 2641.820
705.7910, 2461.039
706.9440, 2263.207
708.0970, 1804.332
709.2510, 1641.406
710.4030, 1232.438
711.5560, 1230.414
712.7090, 715.3438
713.8610, 740.2266
715.0140, 523.0547
716.1660, 116.8398
717.3180, 252.5703
718.4690, 231.2578
719.6210, 495.8867
720.7730, 280.4648
721.9240, 222.9961
723.0750, 60.52734
724.2260, 152.8438
725.3770, 76.16016
726.5270, 352.4180
727.6780, 216.6016
728.8280, 325.7734
729.9780, 42.87109
731.1280, 36.09375
732.2780, 24.16016
733.4280, 35.32422
734.5770, 96.58984
735.7260, 140.2812
736.8760, 83.55859
738.0250, 284.2578
739.1730, 168.1914
740.3220, 215.3047
741.4700, 372.3984
742.6190, 134.4219
743.7670, 10.00000
744.9150, 65.97266
746.0630, 231.1289
747.2100, 72.62891
748.3580, 96.91797
749.5050, 128.8594
750.6520, 93.36719
751.7990, 153.1172
752.9460, 64.83594
754.0930, 97.25391
755.2390, 214.4805
756.3860, 147.8711
757.5320, 137.9414
758.6780, 311.8203
759.8240, 383.8359
760.9690, 241.7656
762.1150, 160.9375
763.2600, 211.6094
764.4060, 123.2305
765.5510, 145.6680
766.6950, 18.28516
767.8400, 196.7031
768.9850, 50.06250
770.1290, 123.3516
771.2730, 15.58594
772.4170, 3.734375
773.5610, 113.2070
774.7050, 3.695313
775.8480, 38.49219
776.9920, 41.21875
778.1350, 85.15234
779.2780, 106.1758
780.4210, 60.69531
781.5640, 198.0195
782.7060, 274.9258
783.8490, 221.0664
784.9910, 107.4648
786.1330, 28.04297
787.2750, 74.80078
788.4170, 38.50391
789.5580, 4.917969
790.7000, 241.4609
791.8410, 384.9844
792.9820, 440.0938
794.1230, 142.1523
795.2640, 299.9883
796.4040, 274.7461
797.5450, 242.3125
798.6850, 464.1289
799.8250, 216.5742
800.9650, 433.3945
802.1050, 461.9336
803.2450, 578.3086
804.3840, 511.1367
805.5230, 494.0781
806.6630, 663.7734
807.8020, 735.4375
808.9400, 646.8633
810.0790, 488.9688
811.2170, 614.2070
812.3560, 516.8711
813.4940, 827.4766
814.6320, 904.4688
815.7700, 741.0234
816.9070, 834.9531
818.0450, 825.2734
819.1820, 659.6016
820.3190, 864.5000
821.4560, 606.1094
822.5930, 946.9258
823.7300, 630.6953
824.8670, 692.4219
826.0030, 692.1094
827.1390, 587.7578
828.2750, 482.3594
829.4110, 593.9297
830.5470, 491.6836
831.6820, 511.9375
832.8180, 429.3906
833.9530, 302.8047
835.0880, 10.89453
836.2230, 233.9180
837.3580, 363.5273
838.4920, 404.7148
839.6270, 92.88672
840.7610, 236.8281
841.8950, 198.0703
843.0290, 151.7734
844.1630, 359.7734
845.2960, 99.07422
846.4300, 302.9766
847.5630, 321.3516
848.6960, 424.5859
849.8290, 479.6914
850.9620, 476.5742
852.0940, 590.4180
853.2270, 469.6758
854.3590, 425.4531
855.4910, 506.1172
856.6230, 515.8359
857.7550, 683.5234
858.8870, 393.0469
860.0180, 670.4336
861.1500, 451.5898
862.2810, 734.3906
863.4120, 500.9375
864.5430, 601.2617
865.6730, 676.7539
866.8040, 844.1914
867.9340, 814.8633
869.0640, 1042.141
870.1940, 718.1445
871.3240, 748.1992
872.4540, 556.4180
873.5830, 861.1172
874.7130, 774.1328
875.8420, 763.3047
876.9710, 805.5625
878.1000, 830.8359
879.2290, 847.0000
880.3570, 1193.172
881.4860, 805.4922
882.6140, 1123.445
883.7420, 894.3125
884.8700, 956.6211
885.9980, 1169.898
887.1250, 1098.344
888.2530, 1122.176
889.3800, 1139.246
890.5070, 993.7070
891.6340, 975.6641
892.7610, 835.3438
893.8880, 930.9883
895.0140, 966.1641
896.1400, 945.3828
897.2670, 939.5312
898.3930, 1007.355
899.5180, 944.3945
900.6440, 1106.074
901.7700, 930.8516
902.8950, 691.2539
904.0200, 828.2656
905.1450, 470.0781
906.2700, 578.1289
907.3950, 845.1094
908.5190, 717.7109
909.6440, 523.9883
910.7680, 686.6289
911.8920, 546.6406
913.0160, 873.2422
914.1400, 758.3867
915.2630, 738.2461
916.3870, 668.5586
917.5100, 917.7305
918.6330, 601.1289
919.7560, 715.9648
920.8790, 807.9883
922.0010, 602.3633
923.1240, 639.5742
924.2460, 876.5000
925.3680, 981.8555
926.4900, 725.3438
927.6120, 641.8516
928.7340, 786.3789
929.8550, 753.6992
930.9760, 701.2734
932.0980, 854.8633
933.2190, 798.5039
934.3390, 817.1680
935.4600, 741.8555
936.5810, 721.5703
937.7010, 740.9023
938.8210, 909.1172
939.9410, 818.9297
941.0610, 827.7969
942.1810, 945.7148
943.3010, 763.6523
944.4200, 788.6523
945.5390, 809.7109
946.6580, 727.8008
947.7770, 877.9297
948.8960, 723.0938
950.0150, 522.2812
951.1330, 982.5586
952.2510, 632.8711
953.3690, 864.2109
954.4870, 1121.621
955.6050, 811.1094
956.7230, 1208.641
957.8400, 939.2109
958.9580, 938.8125
960.0750, 1103.438
961.1920, 1262.105
962.3090, 1175.801
963.4250, 1401.523
964.5420, 1279.332
965.6580, 1369.168
966.7740, 1502.043
967.8900, 1424.965
969.0060, 1609.922
970.1220, 1805.785
971.2380, 1897.816
972.3530, 1818.883
973.4680, 1831.984
974.5830, 1879.121
975.6980, 1989.293
976.8130, 2115.504
977.9280, 2274.750
979.0420, 2127.035
980.1560, 2070.355
981.2710, 2292.719
982.3850, 2014.109
983.4980, 2072.551
984.6120, 2233.027
985.7260, 2207.551
986.8390, 2030.105
987.9520, 2028.703
989.0650, 1886.344
990.1780, 1367.027
991.2910, 1644.750
992.4030, 1525.512
993.5160, 1929.316
994.6280, 1345.191
995.7400, 992.1094
996.8520, 1154.070
997.9640, 1294.078
999.0750, 1140.121
1000.187, 1308.211
1001.298, 1037.348
1002.409, 724.5547
1003.520, 860.8203
1004.631, 1040.223
1005.741, 700.7383
1006.852, 791.4219
1007.962, 923.1875
1009.072, 515.0859
1010.182, 716.1211
1011.292, 802.2773
1012.402, 838.6484
1013.511, 861.8984
1014.621, 435.7500
1015.730, 744.4180
1016.839, 731.2344
1017.948, 601.1367
1019.056, 804.1719
1020.165, 537.3086
1021.273, 493.4961
1022.382, 516.7930
1023.490, 523.1367
1024.598, 517.5352
1025.706, 567.2891
1026.813, 588.5156
1027.921, 618.4141
1029.028, 672.7695
1030.135, 605.4297
1031.242, 609.0430
1032.349, 642.7930
1033.456, 666.5898
1034.562, 547.4258
1035.668, 706.3203
1036.775, 539.2695
1037.881, 601.2656
1038.987, 746.5273
1040.092, 675.6211
1041.198, 693.7773
1042.303, 756.9961
1043.408, 677.3242
1044.514, 647.6953
1045.618, 948.1367
1046.723, 711.6367
1047.828, 955.6836
1048.932, 788.3594
1050.037, 763.0820
1051.141, 831.5000
1052.245, 842.4688
1053.349, 780.5625
1054.452, 828.1016
1055.556, 770.5078
1056.659, 813.8242
1057.762, 768.1875
1058.865, 696.6172
1059.968, 779.9023
1061.071, 884.0039
1062.174, 871.5625
1063.276, 755.5391
1064.378, 726.1797
1065.480, 1074.777
1066.582, 704.5000
1067.684, 716.2656
1068.786, 1061.074
1069.887, 930.9258
1070.988, 691.8164
1072.090, 855.7539
1073.191, 762.7305
1074.291, 638.7461
1075.392, 788.8047
1076.493, 855.0547
1077.593, 904.8867
1078.693, 956.0625
1079.793, 774.2891
1080.893, 849.5430
1081.993, 862.8359
1083.092, 1004.891
1084.192, 852.2578
1085.291, 837.6602
1086.390, 836.6758
1087.489, 808.3594
1088.588, 837.8594
1089.686, 823.4062
1090.785, 819.6914
1091.883, 927.6094
1092.981, 796.2617
1094.079, 748.9492
1095.177, 685.6797
1096.275, 930.6680
1097.373, 683.4609
1098.470, 821.4648
1099.567, 827.6406
1100.664, 714.8086
1101.761, 597.7266
1102.858, 843.6797
1103.954, 925.6641
1105.051, 723.6797
1106.147, 561.7266
1107.243, 599.4336
1108.339, 435.4844
1109.435, 634.9141
1110.531, 741.0039
1111.626, 758.7812
1112.722, 423.5586
1113.817, 544.2227
1114.912, 483.1445
1116.007, 413.6953
1117.101, 598.6016
1118.196, 314.8867
1119.290, 495.8242
1120.385, 491.3125
1121.479, 572.6055
1122.573, 469.2344
1123.666, 422.6719
1124.760, 559.9922
1125.853, 595.5469
1126.947, 471.1289
1128.040, 557.1055
1129.133, 267.2656
1130.226, 307.2539
1131.318, 489.5859
1132.411, 374.5352
1133.503, 464.0195
1134.596, 475.6602
1135.688, 147.6680
1136.780, 429.2656
1137.871, 451.7305
1138.963, 185.5195
1140.054, 437.7617
1141.146, 216.2227
1142.237, 159.3867
1143.328, 245.8242
1144.419, 193.3594
1145.509, 345.6211
1146.600, 338.3047
1147.690, 352.8438
1148.780, 342.4023
1149.870, 436.7188
1150.960, 388.7344
1152.050, 348.7617
1153.139, 330.4375
1154.229, 207.4883
1155.318, 356.5391
1156.407, 354.2422
1157.496, 240.3203
1158.585, 117.6016
1159.674, 240.5469
1160.762, 57.92969
1161.850, 49.08984
1162.939, 197.8945
1164.027, 270.8789
1165.114, 368.9180
1166.202, 401.9141
1167.290, 203.9180
1168.377, 121.9219
1169.464, 54.06250
1170.551, 296.3633
1171.638, 9.371094
1172.725, 181.3828
1173.812, 2.390625
1174.898, 323.4062
1175.984, 143.7109
1177.071, 222.4062
1178.157, 23.53906
1179.242, 163.4766
1180.328, 225.4922
1181.414, 53.49219
1182.499, 28.50391
1183.584, 122.5000
1184.669, 106.5000
1185.754, 21.67969
1186.839, 182.4766
1187.924, 293.2383
1189.008, 315.6523
1190.092, 14.94531
1191.177, 110.2773
1192.260, 52.83203
1193.344, 12.11328
1194.428, 177.2617
1195.512, 102.0312
1196.595, 83.25781
1197.678, 83.08203
1198.761, 167.7656
1199.844, 68.64844
1200.927, 26.30469
1202.009, 167.8164
1203.092, 207.5078
1204.174, 87.21094
1205.256, 177.2773
1206.338, 108.5234
1207.420, 64.57812
1208.502, 121.6328
1209.583, 10.45312
1210.665, 103.7422
1211.746, 119.1523
1212.827, 219.3711
1213.908, 72.57031
1214.988, 343.1133
1216.069, 77.35938
1217.149, 171.8867
1218.230, 49.12500
1219.310, 257.7969
1220.390, 198.1055
1221.470, 39.39844
1222.549, 321.6797
1223.629, 419.9492
1224.708, 217.2109
1225.787, 146.5430
1226.866, 44.59766
1227.945, 27.72656
1229.024, 16.16016
1230.103, 3.917969
1231.181, 74.96484
1232.259, 135.0000
1233.337, 173.6094
1234.415, 143.2305
1235.493, 145.0117
1236.571, 93.99219
1237.648, 125.2031
1238.726, 148.0547
1239.803, 129.8242
1240.880, 210.7344
1241.957, 115.6328
1243.034, 76.51172
1244.110, 26.37891
1245.187, 80.21875
1246.263, 386.0391
1247.339, 80.83984
1248.415, 353.6250
1249.491, 178.3906
1250.566, 36.14062
1251.642, 413.8633
1252.717, 248.5703
1253.793, 223.2578
1254.868, 290.9297
1255.943, 257.5820
1257.017, 297.2148
1258.092, 466.8281
1259.166, 166.4258
1260.241, 618.0000
1261.315, 247.5586
1262.389, 187.0938
1263.462, 93.61328
1264.536, 169.8906
1265.610, 74.53516
1266.683, 185.2734
1267.756, 136.8359
1268.829, 106.9258
1269.902, 49.00391
1270.975, 102.9844
1272.048, 162.0508
1273.120, 93.13672
1274.192, 31.49219
1275.264, 36.82812
1276.336, 35.23047
1277.408, 84.28906
1278.480, 118.2109
1279.551, 229.1641
1280.623, 237.5195
1281.694, 51.85547
1282.765, 383.1484
1283.836, 222.4258
1284.907, 20.32031
1285.977, 223.8633
1287.048, 408.0273
1288.118, 300.8320
1289.188, 48.68359
1290.258, 266.4688
1291.328, 389.9570
1292.398, 425.9570
1293.467, 108.9453
1294.537, 247.7383
1295.606, 203.8320
1296.675, 152.4180
1297.744, 355.3047
1298.813, 88.31250
1299.882, 287.1250
1300.950, 300.4414
1302.018, 398.6250
1303.086, 312.9727
1304.155, 284.0859
1305.222, 439.0352
1306.290, 492.1719
