##NAMES=Ilvaite
##RRUFFID=R050040
##IDEAL CHEMISTRY=CaFe^2+^_2_Fe^3+^OSi_2_O_7_(OH)
##LOCALITY=Capo Calamita, Isle of Elba, Italy
##OWNER=RRUFF
##SOURCE=University of Arizona Mineral Museum
##DESCRIPTION=Brown fragment
##STATUS=The identification of this mineral has been confirmed by X-ray diffraction and chemical analysis
##URL=rruff.info/R050040
##MEASURED CHEMISTRY=Ca_1.00_(Fe^2+^_1.89_Mn_0.10_Mg_0.01_)_Î£=2_Fe^3+^_1.00_OSi_2.00_O_7_(OH); trace amounts of Al; OH estimated by charge balance
##PIN_ID=M00410
##ORIENTATION=Laser parallel to b* (0 1 0). Fiducial mark perpendicular to laser is parallel to c [0 0 1]
127.5960, 0.0000000E+00
128.8330, 107.4609
130.0700, 172.7734
131.3060, 24.86719
132.5420, 218.3281
133.7780, 286.3906
135.0140, 692.1875
136.2500, 899.8711
137.4850, 1245.445
138.7200, 1143.984
139.9550, 1423.449
141.1900, 941.6602
142.4250, 628.0312
143.6600, 755.7031
144.8940, 1041.348
146.1280, 1472.996
147.3620, 1449.488
148.5960, 1711.340
149.8300, 2071.871
151.0630, 2414.465
152.2960, 1952.203
153.5300, 2309.684
154.7620, 1856.430
155.9950, 1498.359
157.2280, 2582.922
158.4600, 1163.203
159.6920, 1311.875
160.9250, 1801.984
162.1560, 2299.910
163.3880, 2348.648
164.6200, 2633.414
165.8510, 2410.762
167.0820, 2693.578
168.3130, 2893.727
169.5440, 3141.238
170.7750, 3195.758
172.0050, 2800.766
173.2350, 2826.461
174.4650, 3019.281
175.6950, 3331.406
176.9250, 3817.590
178.1550, 4007.930
179.3840, 3873.965
180.6130, 3881.684
181.8420, 4070.625
183.0710, 4433.574
184.3000, 4709.949
185.5280, 5047.516
186.7570, 5176.121
187.9850, 5501.883
189.2130, 5397.059
190.4400, 5985.852
191.6680, 5994.367
192.8960, 6045.266
194.1230, 6397.711
195.3500, 6329.914
196.5770, 6002.191
197.8030, 5926.730
199.0300, 6184.445
200.2560, 6642.574
201.4830, 6194.523
202.7090, 5097.977
203.9340, 3648.863
205.1600, 2011.164
206.3860, 1354.852
207.6110, 1117.641
208.8360, 831.5273
210.0610, 750.3164
211.2860, 840.9688
212.5100, 958.8164
213.7350, 809.5078
214.9590, 473.0469
216.1830, 355.1641
217.4070, 423.0156
218.6310, 194.5508
219.8540, 62.36719
221.0780, 130.2656
222.3010, 364.8828
223.5240, 9.761719
224.7470, 261.5586
225.9690, 58.11719
227.1920, 153.5742
228.4140, 244.9062
229.6360, 29.10547
230.8580, 192.1328
232.0800, 246.0391
233.3020, 93.57812
234.5230, 597.9648
235.7440, 93.13672
236.9650, 112.0898
238.1860, 277.1719
239.4070, 208.6406
240.6280, 29.32812
241.8480, 225.3828
243.0680, 190.4336
244.2880, 15.53516
245.5080, 228.5078
246.7280, 286.9570
247.9470, 175.4023
249.1660, 166.1523
250.3860, 221.3711
251.6040, 147.6836
252.8230, 312.7344
254.0420, 34.03125
255.2600, 283.8008
256.4790, 441.3594
257.6970, 234.8555
258.9150, 495.9062
260.1320, 567.8828
261.3500, 629.7773
262.5670, 953.9180
263.7840, 796.3008
265.0010, 1115.832
266.2180, 1124.504
267.4350, 1211.500
268.6510, 1227.246
269.8680, 1444.812
271.0840, 1452.676
272.3000, 1554.422
273.5160, 1832.121
274.7310, 2097.852
275.9470, 2230.086
277.1620, 2279.680
278.3770, 2181.453
279.5920, 2377.730
280.8070, 2263.766
282.0210, 2312.516
283.2360, 2218.945
284.4500, 1992.035
285.6640, 1697.758
286.8780, 1337.105
288.0920, 1351.055
289.3050, 1181.590
290.5180, 818.7031
291.7320, 810.3633
292.9450, 558.5781
294.1570, 537.3438
295.3700, 277.6562
296.5830, 296.5039
297.7950, 573.8750
299.0070, 245.7656
300.2190, 379.1484
301.4310, 369.0312
302.6420, 316.4023
303.8540, 214.2383
305.0650, 680.5273
306.2760, 239.2773
307.4870, 180.5000
308.6980, 1083.223
309.9080, 640.4922
311.1190, 716.3203
312.3290, 632.7344
313.5390, 818.7188
314.7490, 465.2266
315.9580, 982.2344
317.1680, 1404.793
318.3770, 1365.816
319.5860, 1367.285
320.7950, 1837.102
322.0040, 1871.316
323.2130, 2003.980
324.4210, 2556.160
325.6290, 2694.820
326.8380, 2863.758
328.0460, 2953.309
329.2530, 3151.191
330.4610, 3262.410
331.6680, 3251.570
332.8760, 2813.770
334.0830, 3013.945
335.2890, 3249.488
336.4960, 2786.383
337.7030, 3040.020
338.9090, 2607.453
340.1150, 2467.719
341.3210, 2376.855
342.5270, 2418.879
343.7330, 1867.805
344.9380, 1962.648
346.1440, 1462.422
347.3490, 1709.129
348.5540, 1431.766
349.7590, 1541.328
350.9630, 1467.816
352.1680, 1660.234
353.3720, 1397.609
354.5760, 1027.457
355.7800, 1265.574
356.9840, 950.3789
358.1870, 932.6992
359.3910, 1113.035
360.5940, 693.3164
361.7970, 668.0391
363.0000, 853.5391
364.2030, 647.3867
365.4050, 362.0938
366.6080, 579.3672
367.8100, 189.9805
369.0120, 454.2422
370.2140, 309.4062
371.4150, 259.5625
372.6170, 289.4688
373.8180, 5.265625
375.0190, 211.3789
376.2200, 336.6797
377.4210, 348.6406
378.6220, 15.67969
379.8220, 160.5469
381.0230, 109.9805
382.2230, 52.22656
383.4230, 235.3555
384.6220, 61.35938
385.8220, 133.3906
387.0220, 124.3281
388.2210, 205.2773
389.4200, 109.3867
390.6190, 57.02344
391.8180, 191.1016
393.0160, 227.1211
394.2150, 98.53516
395.4130, 183.9531
396.6110, 114.2773
397.8090, 28.30078
399.0060, 53.78906
400.2040, 131.9609
401.4010, 310.1016
402.5980, 369.2656
403.7950, 540.8906
404.9920, 324.1445
406.1890, 538.7734
407.3860, 424.7617
408.5820, 497.0742
409.7780, 542.7344
410.9740, 483.4414
412.1700, 564.8438
413.3650, 662.7344
414.5610, 662.8672
415.7560, 626.0273
416.9510, 715.1719
418.1460, 862.3086
419.3410, 627.3125
420.5360, 846.1914
421.7300, 777.9414
422.9240, 797.5781
424.1180, 890.1602
425.3120, 878.4727
426.5060, 1033.734
427.7000, 1010.879
428.8930, 1170.898
430.0860, 1189.801
431.2790, 1222.184
432.4720, 1083.496
433.6650, 1034.992
434.8580, 1160.852
436.0500, 1245.570
437.2420, 1286.117
438.4340, 1141.480
439.6260, 1189.840
440.8180, 1244.266
442.0090, 1102.473
443.2010, 1102.297
444.3920, 1244.184
445.5830, 1248.926
446.7740, 1263.438
447.9640, 1079.477
449.1550, 1201.684
450.3450, 1266.113
451.5350, 1127.031
452.7250, 1395.797
453.9150, 1129.664
455.1050, 1688.805
456.2940, 1263.555
457.4830, 1388.031
458.6720, 1588.000
459.8610, 1591.094
461.0500, 1554.902
462.2390, 1572.512
463.4270, 1324.074
464.6150, 1740.695
465.8040, 1861.266
466.9910, 1551.801
468.1790, 2020.367
469.3670, 1816.676
470.5540, 1874.082
471.7410, 1829.133
472.9280, 1901.727
474.1150, 2140.297
475.3020, 2163.824
476.4890, 1869.320
477.6750, 2323.828
478.8610, 2301.375
480.0470, 2213.895
481.2330, 2424.391
482.4190, 2359.863
483.6040, 2326.312
484.7900, 2374.020
485.9750, 2402.188
487.1600, 2348.590
488.3450, 2503.551
489.5290, 2529.293
490.7140, 2676.672
491.8980, 2846.980
493.0820, 2991.273
494.2660, 2960.551
495.4500, 2881.809
496.6340, 3094.066
497.8170, 3107.621
499.0010, 3639.879
500.1840, 3432.180
501.3670, 3503.723
502.5500, 3827.773
503.7320, 3415.445
504.9150, 3603.746
506.0970, 3473.910
507.2790, 3622.320
508.4610, 3549.125
509.6430, 3413.777
510.8250, 3434.543
512.0060, 3349.008
513.1870, 3203.883
514.3680, 3348.566
515.5490, 3229.242
516.7300, 3362.676
517.9110, 3320.637
519.0910, 3219.691
520.2710, 3209.914
521.4510, 3092.141
522.6310, 3335.867
523.8110, 3387.453
524.9910, 3213.047
526.1700, 3407.508
527.3490, 2937.027
528.5280, 3106.551
529.7070, 2971.758
530.8860, 3178.574
532.0650, 3292.203
533.2430, 3301.824
534.4210, 2954.766
535.5990, 3071.750
536.7770, 2998.297
537.9550, 2917.879
539.1320, 3097.828
540.3100, 2795.098
541.4870, 2972.402
542.6640, 2959.152
543.8410, 3034.406
545.0170, 2925.465
546.1940, 2872.266
547.3700, 3006.445
548.5470, 3036.273
549.7230, 2901.836
550.8980, 2983.703
552.0740, 2677.242
553.2500, 2711.512
554.4250, 2892.891
555.6000, 2766.973
556.7750, 2852.332
557.9500, 2857.215
559.1250, 2496.391
560.2990, 2658.051
561.4730, 2637.453
562.6480, 2389.848
563.8220, 2647.242
564.9950, 2492.637
566.1690, 2465.016
567.3430, 2703.383
568.5160, 2585.746
569.6890, 2274.102
570.8620, 2275.449
572.0350, 2203.797
573.2070, 1920.133
574.3800, 1997.465
575.5520, 2169.793
576.7240, 2269.133
577.8960, 1718.477
579.0680, 1593.176
580.2400, 1451.535
581.4110, 1472.922
582.5830, 1416.324
583.7540, 1198.738
584.9250, 1134.016
586.0950, 1030.887
587.2660, 1183.891
588.4370, 862.6172
589.6070, 986.0156
590.7770, 945.7852
591.9470, 605.9297
593.1170, 730.7969
594.2860, 419.8711
595.4560, 697.4688
596.6250, 771.1367
597.7940, 513.7656
598.9630, 365.1875
600.1320, 682.9531
601.3000, 476.6445
602.4690, 421.4219
603.6370, 430.1797
604.8050, 322.8945
605.9730, 609.0391
607.1410, 411.5508
608.3090, 498.9102
609.4760, 324.6914
610.6430, 513.1328
611.8100, 502.6797
612.9770, 570.9180
614.1440, 632.2617
615.3110, 358.7969
616.4770, 423.3281
617.6430, 415.8359
618.8090, 251.3711
619.9750, 476.0352
621.1410, 465.5273
622.3070, 324.0078
623.4720, 533.4805
624.6370, 250.8789
625.8020, 424.3242
626.9670, 349.7617
628.1320, 241.1914
629.2970, 472.6016
630.4610, 273.0078
631.6250, 397.5273
632.7890, 403.9023
633.9530, 365.9531
635.1170, 388.2500
636.2810, 484.6836
637.4440, 355.8164
638.6070, 196.1445
639.7700, 230.4570
640.9330, 67.51172
642.0960, 396.8047
643.2590, 57.08984
644.4210, 305.3672
645.5830, 170.6602
646.7450, 420.5859
647.9070, 81.15234
649.0690, 70.22656
650.2310, 147.4375
651.3920, 36.65234
652.5530, 55.20312
653.7140, 78.40625
654.8750, 129.5977
656.0360, 9.789063
657.1970, 28.71875
658.3570, 189.5312
659.5170, 6.289063
660.6770, 63.86719
661.8370, 147.0273
662.9970, 154.1758
664.1570, 114.3203
665.3160, 307.4609
666.4750, 195.5430
667.6340, 75.27344
668.7930, 99.81250
669.9520, 179.1133
671.1110, 235.1406
672.2690, 15.30859
673.4270, 145.4961
674.5850, 12.77734
675.7430, 228.9180
676.9010, 104.5898
678.0590, 112.2461
679.2160, 299.8984
680.3730, 107.5312
681.5300, 240.1523
682.6870, 233.7578
683.8440, 83.66016
685.0010, 16.15234
686.1570, 170.3047
687.3130, 382.7500
688.4690, 6.843750
689.6250, 243.5234
690.7810, 285.8711
691.9370, 525.1875
693.0920, 228.4766
694.2470, 412.7383
695.4020, 476.9727
696.5570, 477.1797
697.7120, 491.3594
698.8670, 776.5117
700.0210, 930.6367
701.1750, 1041.730
702.3290, 1154.816
703.4830, 1200.664
704.6370, 826.8906
705.7910, 1099.871
706.9440, 840.8320
708.0970, 452.7617
709.2510, 791.6641
710.4030, 545.5391
711.5560, 353.3867
712.7090, 285.2031
713.8610, 374.0000
715.0140, 257.7578
716.1660, 215.4961
717.3180, 61.20312
718.4690, 287.8789
719.6210, 209.5234
720.7730, 162.1445
721.9240, 197.7344
723.0750, 45.70703
724.2260, 46.21875
725.3770, 126.1953
726.5270, 66.42188
727.6780, 6.878906
728.8280, 33.05469
729.9780, 102.6914
731.1280, 97.61328
732.2780, 52.64062
733.4280, 27.74609
734.5770, 45.27344
735.7260, 6.828125
736.8760, 72.46875
738.0250, 11.86328
739.1730, 6.691406
740.3220, 82.18750
741.4700, 83.26953
742.6190, 91.09766
743.7670, 17.50391
744.9150, 41.13281
746.0630, 245.8477
747.2100, 188.9531
748.3580, 247.4648
749.5050, 88.01953
750.6520, 151.3477
751.7990, 12.19141
752.9460, 244.6875
754.0930, 388.1484
755.2390, 139.4141
756.3860, 188.1055
757.5320, 24.05469
758.6780, 162.1758
759.8240, 247.2656
760.9690, 347.2578
762.1150, 61.63281
763.2600, 426.3203
764.4060, 132.2500
765.5510, 94.14844
766.6950, 175.0234
767.8400, 133.8711
768.9850, 51.69141
770.1290, 293.4805
771.2730, 29.23828
772.4170, 275.9688
773.5610, 52.67188
774.7050, 2.343750
775.8480, 158.9766
776.9920, 254.5781
778.1350, 15.84375
779.2780, 163.4023
780.4210, 293.9062
781.5640, 59.05469
782.7060, 74.49609
783.8490, 69.12500
784.9910, 50.16406
786.1330, 33.96094
787.2750, 121.8828
788.4170, 166.7070
789.5580, 18.17578
790.7000, 216.5781
791.8410, 213.3984
792.9820, 148.4141
794.1230, 276.8984
795.2640, 18.43750
796.4040, 147.4648
797.5450, 118.6016
798.6850, 337.2109
799.8250, 232.1445
800.9650, 107.0781
802.1050, 113.8281
803.2450, 253.7148
804.3840, 77.58203
805.5230, 276.3008
806.6630, 364.9023
807.8020, 284.1797
808.9400, 58.83984
810.0790, 351.2305
811.2170, 406.3359
812.3560, 637.7344
813.4940, 338.4531
814.6320, 303.9375
815.7700, 264.4414
816.9070, 143.1055
818.0450, 514.5586
819.1820, 546.1875
820.3190, 478.8047
821.4560, 336.9883
822.5930, 313.8086
823.7300, 291.9648
824.8670, 232.9336
826.0030, 286.0703
827.1390, 294.6016
828.2750, 230.1172
829.4110, 498.6172
830.5470, 309.1055
831.6820, 70.58594
832.8180, 572.0547
833.9530, 267.5117
835.0880, 305.9609
836.2230, 9.398438
837.3580, 302.8203
838.4920, 85.76953
839.6270, 209.6055
840.7610, 1.968750
841.8950, 269.3281
843.0290, 155.6719
844.1630, 472.0117
845.2960, 251.3438
846.4300, 115.6680
847.5630, 250.9844
848.6960, 118.2969
849.8290, 147.5977
850.9620, 404.8945
852.0940, 273.1797
853.2270, 378.4648
854.3590, 318.3945
855.4910, 182.6719
856.6230, 313.9375
857.7550, 594.1992
858.8870, 425.4570
860.0180, 508.3516
861.1500, 92.21875
862.2810, 440.4141
863.4120, 252.4297
864.5430, 300.7852
865.6730, 605.7773
866.8040, 560.4219
867.9340, 652.3633
869.0640, 723.0977
870.1940, 447.3203
871.3240, 583.4844
872.4540, 417.6992
873.5830, 374.1328
874.7130, 506.2422
875.8420, 420.4492
876.9710, 794.5312
878.1000, 548.6562
879.2290, 431.8281
880.3570, 688.5664
881.4860, 774.9414
882.6140, 615.4766
883.7420, 685.6016
884.8700, 586.0625
885.9980, 794.5586
887.1250, 570.0977
888.2530, 492.6797
889.3800, 625.0664
890.5070, 554.0469
891.6340, 676.8945
892.7610, 592.2969
893.8880, 809.5820
895.0140, 767.0430
896.1400, 791.5273
897.2670, 625.0312
898.3930, 504.6133
899.5180, 571.1562
900.6440, 737.7188
901.7700, 737.3008
902.8950, 802.5977
904.0200, 760.5273
905.1450, 787.0508
906.2700, 661.7148
907.3950, 504.7227
908.5190, 475.4297
909.6440, 541.1250
910.7680, 456.0898
911.8920, 493.7188
913.0160, 587.6875
914.1400, 536.7812
915.2630, 446.6523
916.3870, 513.5430
917.5100, 421.4531
918.6330, 302.3750
919.7560, 825.6719
920.8790, 561.6641
922.0010, 521.5508
923.1240, 334.6172
924.2460, 697.7188
925.3680, 861.5039
926.4900, 1042.668
927.6120, 1071.516
928.7340, 752.0781
929.8550, 1026.328
930.9760, 792.4023
932.0980, 865.5508
933.2190, 740.8945
934.3390, 633.2812
935.4600, 525.6953
936.5810, 429.1445
937.7010, 475.6367
938.8210, 473.1602
939.9410, 382.7188
941.0610, 460.7812
942.1810, 258.9727
943.3010, 482.7266
944.4200, 522.1680
945.5390, 411.3633
946.6580, 712.4648
947.7770, 446.4922
948.8960, 524.5703
950.0150, 610.6914
951.1330, 453.8438
952.2510, 549.0273
953.3690, 628.2891
954.4870, 489.5859
955.6050, 634.9180
956.7230, 684.3047
957.8400, 682.7422
958.9580, 733.2148
960.0750, 636.7695
961.1920, 672.3789
962.3090, 780.0234
963.4250, 649.7031
964.5420, 794.4219
965.6580, 747.1719
966.7740, 746.9570
967.8900, 726.7969
969.0060, 866.6680
970.1220, 1023.582
971.2380, 998.5625
972.3530, 1100.465
973.4680, 997.6172
974.5830, 1140.734
975.6980, 1097.871
976.8130, 1063.066
977.9280, 1078.297
979.0420, 1222.602
980.1560, 868.9414
981.2710, 1135.504
982.3850, 1335.551
983.4980, 1439.184
984.6120, 1451.523
985.7260, 1099.152
986.8390, 1217.844
987.9520, 1147.809
989.0650, 1070.082
990.1780, 1255.188
991.2910, 956.1133
992.4030, 1137.180
993.5160, 1126.621
994.6280, 1203.859
995.7400, 1091.230
996.8520, 1037.301
997.9640, 1173.430
999.0750, 1204.473
1000.187, 1070.238
1001.298, 1153.508
1002.409, 848.4922
1003.520, 884.3242
1004.631, 1067.270
1005.741, 943.0000
1006.852, 1030.062
1007.962, 1036.742
1009.072, 677.7695
1010.182, 954.8477
1011.292, 956.9141
1012.402, 676.6172
1013.511, 932.0430
1014.621, 691.4766
1015.730, 627.5938
1016.839, 698.1328
1017.948, 628.8516
1019.056, 779.0156
1020.165, 717.9805
1021.273, 611.8750
1022.382, 713.6094
1023.490, 604.3633
1024.598, 372.1680
1025.706, 538.0586
1026.813, 501.0508
1027.921, 711.0859
1029.028, 475.1719
1030.135, 343.4258
1031.242, 407.5859
1032.349, 652.8242
1033.456, 737.0977
1034.562, 976.4102
1035.668, 565.4336
1036.775, 623.8281
1037.881, 482.2578
1038.987, 686.7383
1040.092, 740.2461
1041.198, 633.8047
1042.303, 716.4023
1043.408, 791.4180
1044.514, 608.1367
1045.618, 345.3242
1046.723, 667.0859
1047.828, 198.9023
1048.932, 674.7578
1050.037, 625.6484
1051.141, 390.5781
1052.245, 660.5781
1053.349, 537.6406
1054.452, 696.1367
1055.556, 406.2773
1056.659, 792.7031
1057.762, 742.9180
1058.865, 1077.180
1059.968, 996.1914
1061.071, 443.5273
1062.174, 711.9023
1063.276, 608.3125
1064.378, 601.7656
1065.480, 895.2500
1066.582, 634.8906
1067.684, 775.4453
1068.786, 685.8984
1069.887, 626.5234
1070.988, 823.1836
1072.090, 784.2695
1073.191, 652.0000
1074.291, 962.7734
1075.392, 773.0117
1076.493, 928.2227
1077.593, 651.0938
1078.693, 930.2422
1079.793, 930.1797
1080.893, 819.2109
1081.993, 822.3164
1083.092, 1024.242
1084.192, 624.3047
1085.291, 738.9258
1086.390, 794.0469
1087.489, 522.1992
1088.588, 674.3867
1089.686, 386.5938
1090.785, 661.8398
1091.883, 827.8750
1092.981, 719.9414
1094.079, 518.2695
1095.177, 764.6250
1096.275, 458.0078
1097.373, 709.4180
1098.470, 548.8594
1099.567, 884.4023
1100.664, 593.8945
1101.761, 542.4102
1102.858, 779.9531
1103.954, 615.5508
1105.051, 610.8516
1106.147, 604.4883
1107.243, 536.5859
1108.339, 682.2695
1109.435, 668.9766
1110.531, 585.3984
1111.626, 754.1484
1112.722, 544.9297
1113.817, 749.7266
1114.912, 532.5508
1116.007, 794.3906
1117.101, 682.2617
1118.196, 548.4688
1119.290, 651.3750
1120.385, 715.3086
1121.479, 692.8008
1122.573, 682.8359
1123.666, 744.8320
1124.760, 944.8438
1125.853, 360.8789
1126.947, 631.0039
1128.040, 423.0781
1129.133, 518.3477
1130.226, 401.2891
1131.318, 254.4180
1132.411, 241.6328
1133.503, 217.1602
1134.596, 278.2344
1135.688, 253.7422
1136.780, 263.2617
1137.871, 385.2344
1138.963, 252.5000
1140.054, 355.8750
1141.146, 339.1680
1142.237, 327.4766
1143.328, 113.8047
1144.419, 202.1367
1145.509, 44.51172
1146.600, 328.6133
1147.690, 47.60156
1148.780, 272.3125
1149.870, 259.7773
1150.960, 299.1719
1152.050, 347.5664
1153.139, 1.976563
1154.229, 274.2773
1155.318, 133.7031
1156.407, 391.1328
1157.496, 73.61719
1158.585, 236.0625
1159.674, 175.6016
1160.762, 49.63672
1161.850, 56.81641
1162.939, 273.2734
1164.027, 167.7383
1165.114, 51.21094
1166.202, 32.30859
1167.290, 54.16016
1168.377, 10.63672
1169.464, 223.1250
1170.551, 132.6094
1171.638, 92.09766
1172.725, 78.58984
1173.812, 46.90625
1174.898, 0.4335940
1175.984, 86.93359
1177.071, 46.52344
1178.157, 40.21875
1179.242, 69.19141
1180.328, 96.92188
1181.414, 184.3867
1182.499, 303.8594
1183.584, 178.3320
1184.669, 38.19531
1185.754, 127.2617
1186.839, 33.27734
1187.924, 226.1992
1189.008, 351.6484
1190.092, 18.90625
1191.177, 319.5273
1192.260, 286.9609
1193.344, 106.3945
1194.428, 550.8281
1195.512, 549.2617
1196.595, 40.30469
1197.678, 99.10156
1198.761, 14.49609
1199.844, 53.10156
1200.927, 89.25391
1202.009, 21.38281
1203.092, 329.9648
1204.174, 89.30078
1205.256, 124.3633
1206.338, 17.09766
1207.420, 264.1523
1208.502, 100.6055
1209.583, 75.57812
1210.665, 78.23828
1211.746, 48.88672
1212.827, 193.0117
1213.908, 206.1367
1214.988, 163.7461
1216.069, 108.2695
1217.149, 97.28125
1218.230, 347.2812
1219.310, 219.2812
1220.390, 219.2734
1221.470, 176.7383
1222.549, 27.85938
1223.629, 66.98828
1224.708, 197.8281
1225.787, 66.66016
1226.866, 212.4883
1227.945, 122.3047
1229.024, 27.87891
1230.103, 196.8906
1231.181, 54.66016
1232.259, 60.41797
1233.337, 153.8320
1234.415, 17.18750
1235.493, 370.4258
1236.571, 30.02734
1237.648, 179.6172
1238.726, 122.1953
1239.803, 111.2344
1240.880, 222.2500
1241.957, 225.7305
1243.034, 91.19531
1244.110, 150.6484
1245.187, 69.09375
1246.263, 171.5352
1247.339, 45.95703
1248.415, 148.3750
1249.491, 244.7695
1250.566, 40.16016
1251.642, 76.46484
1252.717, 84.83984
1253.793, 248.1250
1254.868, 270.7930
1255.943, 72.66797
1257.017, 368.9258
1258.092, 65.16797
1259.166, 131.6016
1260.241, 146.5312
1261.315, 86.35547
1262.389, 122.6797
1263.462, 98.69922
1264.536, 22.70703
1265.610, 89.69141
1266.683, 86.66406
1267.756, 159.8125
1268.829, 88.76172
1269.902, 150.6914
1270.975, 416.6094
1272.048, 195.5195
1273.120, 276.4141
1274.192, 144.3984
1275.264, 27.45312
1276.336, 81.70703
1277.408, 12.21484
1278.480, 12.50781
1279.551, 213.7617
1280.623, 343.5312
1281.694, 381.9844
1282.765, 55.65234
1283.836, 200.3633
1284.907, 156.2930
1285.977, 104.4727
1287.048, 315.4258
1288.118, 42.12109
1289.188, 248.8711
1290.258, 262.8320
1291.328, 365.6211
1292.398, 278.4805
1293.467, 249.9766
1294.537, 411.4492
1295.606, 467.0469
1296.675, 357.9805
1297.744, 466.2773
1298.813, 186.1836
