##NAMES=Ilvaite
##RRUFFID=R050040
##IDEAL CHEMISTRY=CaFe^2+^_2_Fe^3+^OSi_2_O_7_(OH)
##LOCALITY=Capo Calamita, Isle of Elba, Italy
##OWNER=RRUFF
##SOURCE=University of Arizona Mineral Museum
##DESCRIPTION=Brown fragment
##STATUS=The identification of this mineral has been confirmed by X-ray diffraction and chemical analysis
##URL=rruff.info/R050040
##MEASURED CHEMISTRY=Ca_1.00_(Fe^2+^_1.89_Mn_0.10_Mg_0.01_)_Î£=2_Fe^3+^_1.00_OSi_2.00_O_7_(OH); trace amounts of Al; OH estimated by charge balance
##PIN_ID=M00423
##ORIENTATION=Laser parallel to -c* (0 0 -1). Fiducial mark perpendicular to laser is parallel to a [1 0 0]
143.6600, 0.0000000E+00
144.8940, 5.824219
146.1280, 145.0117
147.3620, 289.3945
148.5960, 289.8945
149.8300, 478.1289
151.0630, 477.6445
152.2960, 517.3516
153.5300, 353.4844
154.7620, 547.5078
155.9950, 160.3398
157.2280, 158.4062
158.4600, 232.1445
159.6920, 373.1406
160.9250, 652.0430
162.1560, 1261.750
163.3880, 1538.363
164.6200, 1802.234
165.8510, 2017.652
167.0820, 2127.594
168.3130, 2175.793
169.5440, 2116.656
170.7750, 2144.730
172.0050, 1821.535
173.2350, 1976.719
174.4650, 1645.777
175.6950, 1420.199
176.9250, 1435.035
178.1550, 1414.086
179.3840, 1215.195
180.6130, 1256.273
181.8420, 1250.930
183.0710, 1271.414
184.3000, 1377.617
185.5280, 1872.246
186.7570, 2036.430
187.9850, 2250.383
189.2130, 2866.297
190.4400, 3236.555
191.6680, 3319.930
192.8960, 3896.262
194.1230, 4497.520
195.3500, 5113.625
196.5770, 5433.711
197.8030, 5827.742
199.0300, 5773.195
200.2560, 6233.176
201.4830, 6229.559
202.7090, 5905.168
203.9340, 4380.062
205.1600, 2989.223
206.3860, 2164.754
207.6110, 2059.750
208.8360, 2032.328
210.0610, 2269.590
211.2860, 2834.863
212.5100, 2818.609
213.7350, 2970.871
214.9590, 2840.637
216.1830, 2930.676
217.4070, 2863.027
218.6310, 2769.305
219.8540, 2934.191
221.0780, 3068.176
222.3010, 3265.129
223.5240, 3264.047
224.7470, 3360.270
225.9690, 3384.648
227.1920, 2981.754
228.4140, 2677.164
229.6360, 2734.789
230.8580, 2149.605
232.0800, 1799.594
233.3020, 1833.730
234.5230, 1483.000
235.7440, 1207.383
236.9650, 925.8555
238.1860, 596.4141
239.4070, 697.0430
240.6280, 370.7344
241.8480, 322.4805
243.0680, 82.25391
244.2880, 242.9688
245.5080, 81.20703
246.7280, 110.5117
247.9470, 381.8359
249.1660, 156.8477
250.3860, 26.03125
251.6040, 15.65234
252.8230, 298.5352
254.0420, 153.3242
255.2600, 192.3281
256.4790, 238.9297
257.6970, 29.25000
258.9150, 291.9922
260.1320, 86.50781
261.3500, 67.97656
262.5670, 36.03516
263.7840, 45.25391
265.0010, 69.37891
266.2180, 91.70703
267.4350, 149.9062
268.6510, 46.46875
269.8680, 154.5547
271.0840, 116.4688
272.3000, 55.52344
273.5160, 148.4492
274.7310, 52.31250
275.9470, 162.0000
277.1620, 193.0234
278.3770, 132.8281
279.5920, 161.6602
280.8070, 187.7773
282.0210, 61.72266
283.2360, 211.2891
284.4500, 0.2968750
285.6640, 38.95703
286.8780, 52.49609
288.0920, 8.238281
289.3050, 177.9023
290.5180, 155.7656
291.7320, 114.1367
292.9450, 153.7070
294.1570, 34.35547
295.3700, 200.0039
296.5830, 145.7695
297.7950, 234.8750
299.0070, 387.0781
300.2190, 517.9648
301.4310, 618.7031
302.6420, 499.2969
303.8540, 419.7617
305.0650, 499.2266
306.2760, 203.0312
307.4870, 444.8789
308.6980, 739.5156
309.9080, 419.9453
311.1190, 568.1719
312.3290, 587.1953
313.5390, 621.0273
314.7490, 822.6719
315.9580, 903.1172
317.1680, 957.2812
318.3770, 1253.199
319.5860, 1388.824
320.7950, 1655.180
322.0040, 1833.262
323.2130, 2050.094
324.4210, 2455.676
325.6290, 2290.023
326.8380, 2659.156
328.0460, 2995.086
329.2530, 2939.820
330.4610, 3009.254
331.6680, 3331.762
332.8760, 2919.992
334.0830, 2888.070
335.2890, 3174.012
336.4960, 2829.496
337.7030, 2655.469
338.9090, 2391.910
340.1150, 2239.793
341.3210, 1681.293
342.5270, 1996.055
343.7330, 1844.488
344.9380, 1440.316
346.1440, 1675.598
347.3490, 1483.434
348.5540, 1212.961
349.7590, 1174.297
350.9630, 1245.461
352.1680, 1274.543
353.3720, 1136.465
354.5760, 1167.797
355.7800, 1261.020
356.9840, 1052.648
358.1870, 989.2617
359.3910, 872.7969
360.5940, 1023.281
361.7970, 1063.730
363.0000, 1130.188
364.2030, 855.6367
365.4050, 774.0664
366.6080, 680.6953
367.8100, 590.5625
369.0120, 493.4297
370.2140, 542.9336
371.4150, 544.4453
372.6170, 554.9805
373.8180, 410.5430
375.0190, 639.1211
376.2200, 478.7227
377.4210, 458.3594
378.6220, 645.0117
379.8220, 497.6875
381.0230, 607.3945
382.2230, 535.7305
383.4230, 534.7500
384.6220, 393.2539
385.8220, 473.7383
387.0220, 515.8438
388.2210, 393.1211
389.4200, 439.2852
390.6190, 464.8203
391.8180, 231.8750
393.0160, 533.1875
394.2150, 296.9062
395.4130, 214.1211
396.6110, 230.2031
397.8090, 391.9023
399.0060, 269.0000
400.2040, 257.9336
401.4010, 437.2422
402.5980, 61.99609
403.7950, 125.5547
404.9920, 595.3008
406.1890, 362.5078
407.3860, 432.1836
408.5820, 423.3984
409.7780, 395.3867
410.9740, 816.1992
412.1700, 527.3984
413.3650, 408.2891
414.5610, 223.4570
415.7560, 591.0117
416.9510, 540.7148
418.1460, 604.2812
419.3410, 782.7578
420.5360, 761.9023
421.7300, 794.0625
422.9240, 882.6484
424.1180, 931.0195
425.3120, 1075.754
426.5060, 940.8555
427.7000, 1003.074
428.8930, 964.2852
430.0860, 1310.863
431.2790, 1313.180
432.4720, 1418.141
433.6650, 1300.777
434.8580, 1298.125
436.0500, 1112.449
437.2420, 1179.984
438.4340, 1035.086
439.6260, 995.8633
440.8180, 994.3984
442.0090, 1024.344
443.2010, 1212.934
444.3920, 1342.082
445.5830, 1292.090
446.7740, 1257.551
447.9640, 1173.328
449.1550, 1093.457
450.3450, 991.3633
451.5350, 1312.297
452.7250, 1088.680
453.9150, 1253.574
455.1050, 1335.004
456.2940, 1284.461
457.4830, 1399.961
458.6720, 1222.516
459.8610, 1598.109
461.0500, 1401.758
462.2390, 1325.434
463.4270, 1656.184
464.6150, 1720.004
465.8040, 1495.867
466.9910, 1543.746
468.1790, 1649.715
469.3670, 1844.754
470.5540, 1738.824
471.7410, 2108.004
472.9280, 1911.242
474.1150, 2224.562
475.3020, 2421.906
476.4890, 2337.605
477.6750, 2499.730
478.8610, 2377.156
480.0470, 2547.699
481.2330, 2699.312
482.4190, 2773.977
483.6040, 2991.711
484.7900, 3099.516
485.9750, 3197.422
487.1600, 3383.367
488.3450, 3773.414
489.5290, 3872.500
490.7140, 4243.633
491.8980, 4541.906
493.0820, 4781.699
494.2660, 5130.605
495.4500, 5338.102
496.6340, 5481.672
497.8170, 5710.336
499.0010, 6225.047
500.1840, 6314.836
501.3670, 6257.711
502.5500, 6634.645
503.7320, 6190.715
504.9150, 6620.910
506.0970, 6032.172
507.2790, 6124.484
508.4610, 5668.914
509.6430, 5579.441
510.8250, 5401.031
512.0060, 5436.672
513.1870, 5116.363
514.3680, 5321.102
515.5490, 5069.895
516.7300, 5115.742
517.9110, 5080.633
519.0910, 5256.582
520.2710, 5172.375
521.4510, 5074.613
522.6310, 5139.762
523.8110, 5094.898
524.9910, 5171.090
526.1700, 5236.062
527.3490, 5472.844
528.5280, 5357.070
529.7070, 5303.746
530.8860, 5214.250
532.0650, 5042.188
533.2430, 5371.703
534.4210, 4971.566
535.5990, 4876.625
536.7770, 5452.820
537.9550, 4518.117
539.1320, 4662.500
540.3100, 4584.055
541.4870, 4576.738
542.6640, 4382.562
543.8410, 4486.535
545.0170, 4332.598
546.1940, 4283.824
547.3700, 3927.156
548.5470, 4081.594
549.7230, 3835.098
550.8980, 3768.691
552.0740, 3805.387
553.2500, 3692.137
554.4250, 3548.941
555.6000, 3486.812
556.7750, 3404.738
557.9500, 3361.766
559.1250, 2981.875
560.2990, 3381.035
561.4730, 3409.258
562.6480, 3040.523
563.8220, 3258.844
564.9950, 3170.258
566.1690, 3091.719
567.3430, 3237.227
568.5160, 3285.805
569.6890, 3188.430
570.8620, 2805.105
572.0350, 2966.844
573.2070, 2961.625
574.3800, 3114.457
575.5520, 2823.332
576.7240, 3309.242
577.8960, 3287.203
579.0680, 3108.203
580.2400, 3274.254
581.4110, 3655.344
582.5830, 3021.477
583.7540, 2984.645
584.9250, 2850.094
586.0950, 2371.465
587.2660, 2147.602
588.4370, 2039.684
589.6070, 1853.820
590.7770, 1853.879
591.9470, 1658.277
593.1170, 1506.711
594.2860, 1213.027
595.4560, 1123.426
596.6250, 1020.805
597.7940, 986.2422
598.9630, 867.4922
600.1320, 773.5273
601.3000, 790.7734
602.4690, 596.8398
603.6370, 600.4844
604.8050, 625.2734
605.9730, 557.5273
607.1410, 597.1641
608.3090, 579.9141
609.4760, 618.2070
610.6430, 679.1367
611.8100, 534.5039
612.9770, 716.8164
614.1440, 493.2070
615.3110, 333.0859
616.4770, 414.6133
617.6430, 481.0156
618.8090, 106.3984
619.9750, 104.9219
621.1410, 140.5625
622.3070, 124.6250
623.4720, 16.35547
624.6370, 197.3906
625.8020, 588.1758
626.9670, 261.5898
628.1320, 450.4844
629.2970, 404.7695
630.4610, 262.7812
631.6250, 456.9844
632.7890, 168.3789
633.9530, 371.6055
635.1170, 246.0117
636.2810, 292.6523
637.4440, 151.6328
638.6070, 42.65625
639.7700, 113.1914
640.9330, 356.4297
642.0960, 287.3516
643.2590, 344.4844
644.4210, 222.0742
645.5830, 133.0039
646.7450, 186.0703
647.9070, 39.61328
649.0690, 93.24219
650.2310, 182.8555
651.3920, 242.8164
652.5530, 347.7617
653.7140, 320.6953
654.8750, 314.6172
656.0360, 383.0508
657.1970, 216.9492
658.3570, 207.8320
659.5170, 180.6953
660.6770, 57.55078
661.8370, 86.60547
662.9970, 213.1953
664.1570, 263.9805
665.3160, 8.757813
666.4750, 13.48828
667.6340, 194.7539
668.7930, 106.1133
669.9520, 95.48438
671.1110, 189.0547
672.2690, 247.6133
673.4270, 161.1484
674.5850, 203.6641
675.7430, 272.1602
676.9010, 186.6328
678.0590, 455.0820
679.2160, 585.5078
680.3730, 366.9102
681.5300, 568.2891
682.6870, 733.6328
683.8440, 350.9570
685.0010, 595.2539
686.1570, 348.5234
687.3130, 432.7617
688.4690, 555.9688
689.6250, 884.1523
690.7810, 1005.297
691.9370, 951.4141
693.0920, 1367.504
694.2470, 1360.559
695.4020, 1739.578
696.5570, 1908.566
697.7120, 2381.523
698.8670, 2738.449
700.0210, 2999.332
701.1750, 3453.188
702.3290, 3723.004
703.4830, 3827.789
704.6370, 3676.535
705.7910, 3601.250
706.9440, 3219.922
708.0970, 2904.555
709.2510, 2431.152
710.4030, 2011.715
711.5560, 1778.238
712.7090, 1421.730
713.8610, 1229.176
715.0140, 756.5820
716.1660, 634.9531
717.3180, 778.2812
718.4690, 488.5703
719.6210, 291.8164
720.7730, 178.0234
721.9240, 133.1914
723.0750, 32.90625
724.2260, 61.39844
725.3770, 12.43359
726.5270, 140.4141
727.6780, 295.3594
728.8280, 36.25781
729.9780, 217.1094
731.1280, 122.9180
732.2780, 44.31641
733.4280, 22.35547
734.5770, 36.01953
735.7260, 72.97266
736.8760, 105.0664
738.0250, 64.76953
739.1730, 110.5781
740.3220, 12.51562
741.4700, 179.5312
742.6190, 132.7188
743.7670, 37.04688
744.9150, 64.53125
746.0630, 207.9414
747.2100, 140.5977
748.3580, 42.59766
749.5050, 278.2695
750.6520, 85.35547
751.7990, 133.5664
752.9460, 152.0742
754.0930, 27.66797
755.2390, 4.125000
756.3860, 32.68750
757.5320, 163.9688
758.6780, 85.75000
759.8240, 10.65625
760.9690, 119.6523
762.1150, 58.78516
763.2600, 166.0312
764.4060, 65.55859
765.5510, 171.9062
766.6950, 257.4570
767.8400, 221.7734
768.9850, 219.9531
770.1290, 37.12500
771.2730, 124.8594
772.4170, 95.98828
773.5610, 36.24609
774.7050, 89.73828
775.8480, 206.9062
776.9920, 51.62109
778.1350, 47.26172
779.2780, 5.003906
780.4210, 253.8125
781.5640, 229.8359
782.7060, 2.941406
783.8490, 99.64062
784.9910, 183.6992
786.1330, 138.2148
787.2750, 22.12109
788.4170, 142.3984
789.5580, 336.6289
790.7000, 212.8164
791.8410, 391.9609
792.9820, 19.06641
794.1230, 144.1055
795.2640, 163.1094
796.4040, 312.0625
797.5450, 551.9766
798.6850, 530.8047
799.8250, 533.6914
800.9650, 629.4102
802.1050, 458.1641
803.2450, 559.8672
804.3840, 766.3242
805.5230, 598.0820
806.6630, 726.4180
807.8020, 915.9688
808.9400, 1029.480
810.0790, 1312.957
811.2170, 1175.391
812.3560, 1188.789
813.4940, 1347.148
814.6320, 1628.469
815.7700, 1610.754
816.9070, 2081.008
818.0450, 2134.223
819.1820, 2589.402
820.3190, 2080.539
821.4560, 1799.652
822.5930, 1866.727
823.7300, 1762.762
824.8670, 1871.770
826.0030, 1422.742
827.1390, 1439.680
828.2750, 1198.586
829.4110, 855.4570
830.5470, 806.3008
831.6820, 993.1133
832.8180, 982.8906
833.9530, 875.6367
835.0880, 875.6953
836.2230, 577.0469
837.3580, 608.7031
838.4920, 658.3398
839.6270, 394.9414
840.7610, 532.5156
841.8950, 469.5469
843.0290, 422.4180
844.1630, 430.0742
845.2960, 562.5391
846.4300, 441.2852
847.5630, 528.9258
848.6960, 613.7891
849.8290, 662.1523
850.9620, 771.4922
852.0940, 827.3438
853.2270, 840.7969
854.3590, 938.3711
855.4910, 861.6172
856.6230, 854.8398
857.7550, 901.0195
858.8870, 944.7031
860.0180, 988.1328
861.1500, 1107.133
862.2810, 1093.699
863.4120, 900.4805
864.5430, 1056.559
865.6730, 1058.336
866.8040, 924.3750
867.9340, 1133.402
869.0640, 969.0664
870.1940, 770.6289
871.3240, 927.0938
872.4540, 817.1367
873.5830, 1057.078
874.7130, 1021.449
875.8420, 1066.152
876.9710, 782.3516
878.1000, 1111.277
879.2290, 923.0664
880.3570, 875.7891
881.4860, 1292.379
882.6140, 879.2500
883.7420, 922.2891
884.8700, 837.3125
885.9980, 934.6094
887.1250, 904.9688
888.2530, 876.4062
889.3800, 939.6289
890.5070, 868.2852
891.6340, 883.6172
892.7610, 945.9844
893.8880, 676.2344
895.0140, 600.3711
896.1400, 613.1211
897.2670, 576.5391
898.3930, 637.0977
899.5180, 717.1953
900.6440, 771.6680
901.7700, 867.4102
902.8950, 506.3438
904.0200, 741.3555
905.1450, 250.1875
906.2700, 844.8477
907.3950, 378.6875
908.5190, 768.3633
909.6440, 917.8203
910.7680, 688.9531
911.8920, 720.0547
913.0160, 764.6562
914.1400, 767.5898
915.2630, 999.8750
916.3870, 635.9961
917.5100, 818.6875
918.6330, 1072.066
919.7560, 835.3242
920.8790, 875.1211
922.0010, 1027.844
923.1240, 1065.336
924.2460, 1003.512
925.3680, 1408.480
926.4900, 841.9609
927.6120, 936.4727
928.7340, 953.4844
929.8550, 1291.059
930.9760, 1257.660
932.0980, 1186.293
933.2190, 1288.961
934.3390, 1469.656
935.4600, 1429.418
936.5810, 1236.211
937.7010, 1100.031
938.8210, 1222.887
939.9410, 1345.766
941.0610, 1135.742
942.1810, 1180.766
943.3010, 1331.820
944.4200, 1293.930
945.5390, 1042.070
946.6580, 1281.246
947.7770, 1156.453
948.8960, 1343.711
950.0150, 1119.074
951.1330, 1176.469
952.2510, 1197.926
953.3690, 1239.438
954.4870, 1088.977
955.6050, 1133.984
956.7230, 1327.211
957.8400, 1157.898
958.9580, 1455.613
960.0750, 1626.371
961.1920, 1410.164
962.3090, 1668.074
963.4250, 1767.047
964.5420, 1800.055
965.6580, 2000.105
966.7740, 2293.254
967.8900, 2092.457
969.0060, 2259.738
970.1220, 2341.102
971.2380, 2654.508
972.3530, 2727.004
973.4680, 3107.547
974.5830, 3319.137
975.6980, 3573.770
976.8130, 3631.441
977.9280, 3797.156
979.0420, 3891.914
980.1560, 3846.711
981.2710, 3928.551
982.3850, 4132.430
983.4980, 4007.371
984.6120, 3963.348
985.7260, 3869.375
986.8390, 3655.438
987.9520, 3644.551
989.0650, 3568.703
990.1780, 3178.910
991.2910, 3150.164
992.4030, 3187.461
993.5160, 2857.500
994.6280, 2519.188
995.7400, 2446.621
996.8520, 1981.102
997.9640, 1831.633
999.0750, 1856.207
1000.187, 1664.828
1001.298, 1486.492
1002.409, 1443.207
1003.520, 1042.988
1004.631, 1571.824
1005.741, 1166.727
1006.852, 1174.707
1007.962, 831.7734
1009.072, 1084.922
1010.182, 1021.152
1011.292, 907.4531
1012.402, 729.8555
1013.511, 1181.355
1014.621, 635.9258
1015.730, 936.5508
1016.839, 732.2891
1017.948, 761.1289
1019.056, 620.0156
1020.165, 802.0430
1021.273, 835.1562
1022.382, 786.3711
1023.490, 494.6289
1024.598, 942.9531
1025.706, 686.3477
1026.813, 836.4883
1027.921, 644.0547
1029.028, 834.4297
1030.135, 767.1484
1031.242, 961.9570
1032.349, 831.8555
1033.456, 764.8555
1034.562, 700.4258
1035.668, 892.5898
1036.775, 819.8633
1037.881, 897.1172
1038.987, 916.4883
1040.092, 890.9141
1041.198, 901.6367
1042.303, 1013.047
1043.408, 858.7305
1044.514, 1029.504
1045.618, 1045.316
1046.723, 979.5742
1047.828, 857.8125
1048.932, 978.7305
1050.037, 801.8555
1051.141, 940.1836
1052.245, 918.5234
1053.349, 876.7422
1054.452, 1089.051
1055.556, 1207.355
1056.659, 1236.645
1057.762, 910.1719
1058.865, 1043.195
1059.968, 993.0352
1061.071, 934.4609
1062.174, 1133.922
1063.276, 859.4336
1064.378, 1053.262
1065.480, 1062.203
1066.582, 1154.750
1067.684, 1067.098
1068.786, 1031.668
1069.887, 1181.613
1070.988, 1228.984
1072.090, 1115.137
1073.191, 806.7227
1074.291, 868.0234
1075.392, 837.3789
1076.493, 687.4375
1077.593, 1141.855
1078.693, 877.3047
1079.793, 970.8008
1080.893, 1153.191
1081.993, 938.6289
1083.092, 983.2305
1084.192, 908.3789
1085.291, 585.2969
1086.390, 872.0039
1087.489, 1006.375
1088.588, 740.1445
1089.686, 856.4414
1090.785, 932.2812
1091.883, 916.1523
1092.981, 815.0586
1094.079, 924.9727
1095.177, 761.7461
1096.275, 974.7578
1097.373, 998.8008
1098.470, 809.6602
1099.567, 941.4453
1100.664, 512.3359
1101.761, 729.1914
1102.858, 841.8047
1103.954, 878.9297
1105.051, 547.7188
1106.147, 675.3984
1107.243, 618.5859
1108.339, 554.2734
1109.435, 746.8008
1110.531, 466.4961
1111.626, 654.5039
1112.722, 655.5938
1113.817, 742.2812
1114.912, 646.2422
1116.007, 605.0859
1117.101, 749.1211
1118.196, 790.5586
1119.290, 670.7734
1120.385, 763.0195
1121.479, 479.1250
1122.573, 525.0312
1123.666, 714.3906
1124.760, 604.0508
1125.853, 699.8008
1126.947, 717.0625
1128.040, 377.6562
1129.133, 658.6250
1130.226, 671.3203
1131.318, 408.5781
1132.411, 668.3477
1133.503, 443.6016
1134.596, 391.8125
1135.688, 470.2539
1136.780, 412.9727
1137.871, 569.6641
1138.963, 280.8047
1140.054, 424.6836
1141.146, 419.5859
1142.237, 239.4961
1143.328, 484.4258
1144.419, 411.3633
1145.509, 445.3125
1146.600, 392.2734
1147.690, 351.9844
1148.780, 315.2344
1149.870, 300.2305
1150.960, 252.2383
1152.050, 313.2500
1153.139, 129.2773
1154.229, 493.3125
1155.318, 241.4570
1156.407, 253.6953
1157.496, 68.25000
1158.585, 84.30859
1159.674, 185.6367
1160.762, 418.3477
1161.850, 10.33594
1162.939, 427.3281
1164.027, 248.3281
1165.114, 79.66797
1166.202, 166.3125
1167.290, 307.6992
1168.377, 182.1445
1169.464, 168.9883
1170.551, 304.8398
1171.638, 261.9922
1172.725, 253.9570
1173.812, 123.8789
1174.898, 153.7266
1175.984, 8.578125
1177.071, 80.57422
1178.157, 113.7578
1179.242, 122.3555
1180.328, 68.65234
1181.414, 68.67578
1182.499, 60.66406
1183.584, 88.29688
1184.669, 69.92969
1185.754, 340.5625
1186.839, 180.1797
1187.924, 218.7930
1189.008, 241.4062
1190.092, 16.99219
1191.177, 333.5938
1192.260, 28.83203
1193.344, 58.72266
1194.428, 197.2695
1195.512, 31.19531
1196.595, 50.31250
1197.678, 81.18359
1198.761, 29.26172
1199.844, 31.69922
1200.927, 62.12109
1202.009, 63.53906
1203.092, 71.05859
1204.174, 226.2969
1205.256, 21.63672
1206.338, 63.03906
1207.420, 188.2344
1208.502, 137.4961
1209.583, 264.7461
1210.665, 44.01953
1211.746, 233.8281
1212.827, 94.21484
1213.908, 81.85156
1214.988, 12.00781
1216.069, 98.21875
1217.149, 47.87891
1218.230, 166.9688
1219.310, 11.19531
1220.390, 271.6055
1221.470, 195.3906
1222.549, 288.1562
1223.629, 268.8477
1224.708, 40.65234
1225.787, 90.65625
1226.866, 132.8867
1227.945, 180.6953
1229.024, 34.97266
1230.103, 73.42969
1231.181, 119.5430
1232.259, 90.60156
1233.337, 171.6367
1234.415, 34.28125
1235.493, 53.24219
1236.571, 157.7305
1237.648, 76.92969
1238.726, 53.35547
1239.803, 215.0586
1240.880, 274.1289
1241.957, 171.9219
1243.034, 281.7344
1244.110, 12.69531
1245.187, 76.04297
1246.263, 282.7812
1247.339, 189.7656
1248.415, 302.8438
1249.491, 337.3906
1250.566, 15.20703
1251.642, 313.3398
1252.717, 343.1680
1253.793, 97.50391
1254.868, 374.3359
1255.943, 166.6016
1257.017, 131.7812
1258.092, 227.1172
1259.166, 186.7383
1260.241, 360.2656
1261.315, 327.6875
1262.389, 276.6641
1263.462, 305.9766
1264.536, 107.5781
1265.610, 331.5898
1266.683, 267.0195
1267.756, 345.8477
1268.829, 457.1797
1269.902, 319.5430
1270.975, 445.4297
1272.048, 162.6094
1273.120, 221.7227
1274.192, 243.9922
1275.264, 484.8203
1276.336, 203.8984
1277.408, 253.4219
1278.480, 443.6406
1279.551, 436.9453
1280.623, 512.5469
1281.694, 344.4258
1282.765, 405.2148
1283.836, 75.65625
1284.907, 46.60547
1285.977, 442.5117
1287.048, 98.70703
1288.118, 375.5664
1289.188, 240.6758
1290.258, 175.4922
1291.328, 241.2852
1292.398, 212.0625
1293.467, 218.8164
1294.537, 145.0273
1295.606, 161.7461
1296.675, 143.1953
1297.744, 183.0391
1298.813, 169.7031
1299.882, 93.33984
1300.950, 100.9570
1302.018, 246.5469
1303.086, 300.1250
1304.155, 432.6836
1305.222, 392.2266
1306.290, 423.3828
1307.358, 39.60938
1308.425, 528.1875
1309.492, 424.6719
1310.559, 121.0625
1311.626, 271.4805
1312.693, 314.8789
