##NAMES=Ilvaite
##RRUFFID=R050040
##IDEAL CHEMISTRY=CaFe^2+^_2_Fe^3+^OSi_2_O_7_(OH)
##LOCALITY=Capo Calamita, Isle of Elba, Italy
##OWNER=RRUFF
##SOURCE=University of Arizona Mineral Museum
##DESCRIPTION=Brown fragment
##STATUS=The identification of this mineral has been confirmed by X-ray diffraction and chemical analysis
##URL=rruff.info/R050040
##MEASURED CHEMISTRY=Ca_1.00_(Fe^2+^_1.89_Mn_0.10_Mg_0.01_)_Î£=2_Fe^3+^_1.00_OSi_2.00_O_7_(OH); trace amounts of Al; OH estimated by charge balance
##PIN_ID=M00123
##ORIENTATION=Laser parallel to (1 0 1). Fiducial mark perpendicular to laser is parallel to b [0 1 0]
144.8940, 0.0000000E+00
146.1280, 8.699219
147.3620, 877.4102
148.5960, 483.0234
149.8300, 992.3242
151.0630, 1908.289
152.2960, 1960.949
153.5300, 1532.223
154.7620, 1749.547
155.9950, 1370.531
157.2280, 528.6797
158.4600, 759.3555
159.6920, 886.4883
160.9250, 618.3047
162.1560, 1075.367
163.3880, 1363.988
164.6200, 1347.516
165.8510, 1577.117
167.0820, 1665.574
168.3130, 1636.375
169.5440, 1633.059
170.7750, 1909.242
172.0050, 1415.770
173.2350, 1153.551
174.4650, 975.0039
175.6950, 1106.875
176.9250, 1089.598
178.1550, 1204.039
179.3840, 904.6211
180.6130, 1234.293
181.8420, 1556.773
183.0710, 2056.320
184.3000, 2653.312
185.5280, 3265.848
186.7570, 3525.242
187.9850, 4139.332
189.2130, 4380.871
190.4400, 5192.586
191.6680, 5913.129
192.8960, 6347.645
194.1230, 6586.621
195.3500, 6994.059
196.5770, 7556.633
197.8030, 7868.172
199.0300, 9537.680
200.2560, 7986.094
201.4830, 7701.387
202.7090, 7094.473
203.9340, 5275.707
205.1600, 3074.102
206.3860, 2687.656
207.6110, 1098.359
208.8360, 584.1836
210.0610, 419.1289
211.2860, 115.1992
212.5100, 127.3984
213.7350, 241.7383
214.9590, 81.22266
216.1830, 30.14062
217.4070, 352.3477
218.6310, 462.2812
219.8540, 353.5977
221.0780, 359.0742
222.3010, 249.4375
223.5240, 142.9609
224.7470, 390.8594
225.9690, 1041.207
227.1920, 156.9766
228.4140, 900.1172
229.6360, 491.5938
230.8580, 339.3711
232.0800, 535.4141
233.3020, 401.6992
234.5230, 716.2031
235.7440, 515.8984
236.9650, 788.7305
238.1860, 497.6289
239.4070, 504.5781
240.6280, 252.5742
241.8480, 322.6211
243.0680, 97.70703
244.2880, 60.83984
245.5080, 90.00000
246.7280, 120.8281
247.9470, 127.6250
249.1660, 502.3867
250.3860, 390.1562
251.6040, 982.9297
252.8230, 176.1797
254.0420, 430.3359
255.2600, 69.15625
256.4790, 44.16797
257.6970, 1044.699
258.9150, 789.5664
260.1320, 1001.824
261.3500, 1190.613
262.5670, 1065.422
263.7840, 1206.344
265.0010, 1430.797
266.2180, 1660.945
267.4350, 1652.184
268.6510, 1963.652
269.8680, 2397.789
271.0840, 2638.516
272.3000, 2702.074
273.5160, 2867.133
274.7310, 2659.145
275.9470, 2806.332
277.1620, 2764.688
278.3770, 2818.215
279.5920, 2174.922
280.8070, 2339.793
282.0210, 2226.844
283.2360, 2133.066
284.4500, 2235.465
285.6640, 2008.039
286.8780, 1734.785
288.0920, 1814.707
289.3050, 1807.801
290.5180, 1840.062
291.7320, 1920.789
292.9450, 1903.398
294.1570, 2099.090
295.3700, 1917.414
296.5830, 2043.664
297.7950, 2088.770
299.0070, 2265.684
300.2190, 2072.375
301.4310, 1965.793
302.6420, 1892.914
303.8540, 2169.723
305.0650, 2285.211
306.2760, 2341.391
307.4870, 2432.270
308.6980, 2254.820
309.9080, 2434.973
311.1190, 2308.625
312.3290, 2488.969
313.5390, 2847.617
314.7490, 2973.047
315.9580, 3498.148
317.1680, 4007.949
318.3770, 4410.438
319.5860, 4978.645
320.7950, 5268.602
322.0040, 6335.336
323.2130, 7182.770
324.4210, 7645.566
325.6290, 8649.977
326.8380, 8803.602
328.0460, 9456.734
329.2530, 10106.60
330.4610, 10412.88
331.6680, 10631.16
332.8760, 10876.39
334.0830, 10696.61
335.2890, 10152.84
336.4960, 9812.109
337.7030, 9173.438
338.9090, 8346.789
340.1150, 8011.133
341.3210, 7200.355
342.5270, 6534.328
343.7330, 5833.633
344.9380, 5234.098
346.1440, 4630.500
347.3490, 4199.051
348.5540, 3768.723
349.7590, 3423.254
350.9630, 3195.977
352.1680, 2996.441
353.3720, 2950.410
354.5760, 2821.145
355.7800, 2899.992
356.9840, 2777.965
358.1870, 2425.141
359.3910, 2471.797
360.5940, 2275.312
361.7970, 2000.172
363.0000, 1856.516
364.2030, 1880.668
365.4050, 1497.340
366.6080, 1278.344
367.8100, 1073.906
369.0120, 712.2734
370.2140, 765.3789
371.4150, 715.2500
372.6170, 772.5000
373.8180, 463.1875
375.0190, 491.2266
376.2200, 527.2695
377.4210, 661.0469
378.6220, 283.1562
379.8220, 281.2500
381.0230, 419.3359
382.2230, 51.07031
383.4230, 255.4727
384.6220, 173.2266
385.8220, 406.6172
387.0220, 382.8789
388.2210, 314.2930
389.4200, 26.53906
390.6190, 130.5898
391.8180, 106.0000
393.0160, 600.2188
394.2150, 215.1250
395.4130, 387.6250
396.6110, 272.9648
397.8090, 243.2773
399.0060, 273.0273
400.2040, 272.9570
401.4010, 412.9375
402.5980, 402.8359
403.7950, 369.8516
404.9920, 380.9883
406.1890, 303.2500
407.3860, 461.6250
408.5820, 489.1211
409.7780, 411.7305
410.9740, 502.4531
412.1700, 659.3008
413.3650, 524.2617
414.5610, 858.3438
415.7560, 844.5469
416.9510, 982.8711
418.1460, 1692.316
419.3410, 1571.941
420.5360, 2087.566
421.7300, 1895.371
422.9240, 1949.297
424.1180, 2332.332
425.3120, 2487.492
426.5060, 2416.770
427.7000, 2878.164
428.8930, 3116.676
430.0860, 2893.297
431.2790, 2625.043
432.4720, 2936.895
433.6650, 2598.863
434.8580, 2404.941
436.0500, 2013.078
437.2420, 1981.266
438.4340, 1844.508
439.6260, 1906.797
440.8180, 1604.141
442.0090, 1494.535
443.2010, 1449.543
444.3920, 1266.484
445.5830, 1277.043
446.7740, 1218.664
447.9640, 1031.336
449.1550, 1014.070
450.3450, 930.1367
451.5350, 1202.727
452.7250, 961.6523
453.9150, 1111.684
455.1050, 1429.875
456.2940, 1398.227
457.4830, 1488.750
458.6720, 1434.418
459.8610, 1167.230
461.0500, 1347.160
462.2390, 1402.102
463.4270, 1348.293
464.6150, 1699.633
465.8040, 1537.086
466.9910, 1478.746
468.1790, 1887.512
469.3670, 1712.375
470.5540, 1742.363
471.7410, 1910.488
472.9280, 2321.758
474.1150, 1897.199
475.3020, 2495.855
476.4890, 2972.734
477.6750, 2498.781
478.8610, 2602.047
480.0470, 3316.477
481.2330, 3198.023
482.4190, 3750.750
483.6040, 3854.609
484.7900, 4105.625
485.9750, 4070.789
487.1600, 5015.109
488.3450, 5227.438
489.5290, 5749.746
490.7140, 6308.059
491.8980, 6771.027
493.0820, 7434.176
494.2660, 7897.512
495.4500, 8409.344
496.6340, 8749.508
497.8170, 9286.387
499.0010, 9817.199
500.1840, 10058.20
501.3670, 10296.37
502.5500, 10493.71
503.7320, 9926.230
504.9150, 10080.96
506.0970, 9524.969
507.2790, 9736.266
508.4610, 9203.293
509.6430, 8521.301
510.8250, 8260.355
512.0060, 7998.602
513.1870, 7990.898
514.3680, 7784.914
515.5490, 7901.547
516.7300, 7527.250
517.9110, 7500.473
519.0910, 7273.297
520.2710, 7304.098
521.4510, 7406.332
522.6310, 7369.281
523.8110, 7463.863
524.9910, 7410.547
526.1700, 7578.930
527.3490, 7422.484
528.5280, 7436.168
529.7070, 7355.730
530.8860, 7304.496
532.0650, 7158.387
533.2430, 7094.168
534.4210, 6955.301
535.5990, 6818.574
536.7770, 7007.078
537.9550, 6719.781
539.1320, 6741.566
540.3100, 6567.430
541.4870, 6593.375
542.6640, 6501.406
543.8410, 6154.520
545.0170, 6488.707
546.1940, 6297.969
547.3700, 6095.297
548.5470, 5580.695
549.7230, 5893.164
550.8980, 5327.695
552.0740, 5411.297
553.2500, 5182.965
554.4250, 4905.699
555.6000, 4864.496
556.7750, 4686.359
557.9500, 4587.281
559.1250, 4586.273
560.2990, 4219.320
561.4730, 4062.430
562.6480, 4271.602
563.8220, 3859.832
564.9950, 3957.121
566.1690, 3697.465
567.3430, 3843.078
568.5160, 3802.551
569.6890, 4167.828
570.8620, 3951.398
572.0350, 3964.012
573.2070, 4278.684
574.3800, 4428.410
575.5520, 4756.176
576.7240, 4962.680
577.8960, 5485.867
579.0680, 5420.820
580.2400, 5540.520
581.4110, 5779.773
582.5830, 5565.832
583.7540, 5777.938
584.9250, 5792.090
586.0950, 5387.289
587.2660, 4985.531
588.4370, 4579.824
589.6070, 4155.883
590.7770, 3550.539
591.9470, 3301.957
593.1170, 2798.414
594.2860, 2373.895
595.4560, 2221.641
596.6250, 1931.812
597.7940, 1703.391
598.9630, 1564.512
600.1320, 1408.414
601.3000, 1296.211
602.4690, 1189.078
603.6370, 1029.598
604.8050, 1049.090
605.9730, 884.8125
607.1410, 862.8906
608.3090, 644.5117
609.4760, 547.9688
610.6430, 393.8438
611.8100, 277.5703
612.9770, 252.3867
614.1440, 459.9648
615.3110, 278.6367
616.4770, 349.6328
617.6430, 442.0039
618.8090, 242.3047
619.9750, 207.1836
621.1410, 167.9141
622.3070, 348.4297
623.4720, 513.9414
624.6370, 180.2539
625.8020, 841.8359
626.9670, 278.1094
628.1320, 335.8672
629.2970, 284.2227
630.4610, 277.7852
631.6250, 326.7305
632.7890, 52.13281
633.9530, 442.1250
635.1170, 388.5820
636.2810, 213.7461
637.4440, 11.36719
638.6070, 272.9766
639.7700, 94.47266
640.9330, 85.81250
642.0960, 129.7188
643.2590, 44.50391
644.4210, 135.7422
645.5830, 228.4766
646.7450, 126.5273
647.9070, 19.13281
649.0690, 4.492188
650.2310, 58.11328
651.3920, 4.687500
652.5530, 65.22656
653.7140, 46.27344
654.8750, 71.82422
656.0360, 111.4336
657.1970, 96.22656
658.3570, 166.8867
659.5170, 52.75000
660.6770, 0.3203130
661.8370, 71.64844
662.9970, 4.437500
664.1570, 98.22266
665.3160, 39.09766
666.4750, 181.0703
667.6340, 162.3711
668.7930, 363.1445
669.9520, 25.00781
671.1110, 278.7031
672.2690, 405.0977
673.4270, 23.37109
674.5850, 297.6953
675.7430, 309.0156
676.9010, 309.5195
678.0590, 676.0156
679.2160, 367.8672
680.3730, 728.3984
681.5300, 821.9297
682.6870, 632.2031
683.8440, 655.9531
685.0010, 346.6445
686.1570, 753.2812
687.3130, 632.8633
688.4690, 820.3867
689.6250, 1121.855
690.7810, 1168.266
691.9370, 1651.617
693.0920, 1891.914
694.2470, 2218.148
695.4020, 2770.328
696.5570, 3447.445
697.7120, 4034.500
698.8670, 4672.500
700.0210, 5093.430
701.1750, 5744.301
702.3290, 6075.109
703.4830, 6171.855
704.6370, 6135.539
705.7910, 6003.160
706.9440, 5320.719
708.0970, 4898.211
709.2510, 4272.641
710.4030, 3627.000
711.5560, 3204.301
712.7090, 2273.531
713.8610, 2566.695
715.0140, 1720.793
716.1660, 1407.828
717.3180, 1427.789
718.4690, 1096.688
719.6210, 1133.516
720.7730, 1770.277
721.9240, 661.9688
723.0750, 535.5938
724.2260, 1023.145
725.3770, 518.6289
726.5270, 1229.047
727.6780, 1105.391
728.8280, 152.6641
729.9780, 259.8672
731.1280, 166.9961
732.2780, 28.94922
733.4280, 254.0352
734.5770, 227.0312
735.7260, 247.6484
736.8760, 174.8750
738.0250, 121.9727
739.1730, 23.26953
740.3220, 70.72266
741.4700, 137.6562
742.6190, 94.05469
743.7670, 239.9492
744.9150, 340.1133
746.0630, 37.41016
747.2100, 151.8125
748.3580, 0.1250000
749.5050, 44.69922
750.6520, 19.69141
751.7990, 114.8281
752.9460, 313.1719
754.0930, 286.1562
755.2390, 132.7539
756.3860, 306.9023
757.5320, 61.35938
758.6780, 61.01562
759.8240, 167.7227
760.9690, 43.30859
762.1150, 85.77344
763.2600, 11.03906
764.4060, 86.45703
765.5510, 79.05469
766.6950, 73.54688
767.8400, 77.79297
768.9850, 100.9258
770.1290, 125.2500
771.2730, 183.7773
772.4170, 145.4688
773.5610, 156.6289
774.7050, 243.7148
775.8480, 165.5195
776.9920, 29.45703
778.1350, 110.2812
779.2780, 49.98047
780.4210, 345.6055
781.5640, 27.04297
782.7060, 332.0273
783.8490, 556.6758
784.9910, 654.0195
786.1330, 242.7461
787.2750, 487.7695
788.4170, 469.9805
789.5580, 441.2383
790.7000, 778.5977
791.8410, 439.8984
792.9820, 768.9102
794.1230, 829.1719
795.2640, 1012.129
796.4040, 926.9180
797.5450, 1050.273
798.6850, 1418.504
799.8250, 1383.094
800.9650, 1570.262
802.1050, 1642.527
803.2450, 1745.734
804.3840, 1917.801
805.5230, 2206.781
806.6630, 2254.910
807.8020, 2652.891
808.9400, 3129.812
810.0790, 3208.688
811.2170, 3399.500
812.3560, 4106.266
813.4940, 4098.977
814.6320, 4601.641
815.7700, 4683.250
816.9070, 5097.809
818.0450, 5268.316
819.1820, 5214.773
820.3190, 5770.184
821.4560, 5163.543
822.5930, 4668.855
823.7300, 4629.117
824.8670, 3706.336
826.0030, 3432.508
827.1390, 2975.637
828.2750, 2749.719
829.4110, 2348.754
830.5470, 2318.750
831.6820, 1722.699
832.8180, 1853.602
833.9530, 1463.473
835.0880, 1667.297
836.2230, 1350.078
837.3580, 1073.820
838.4920, 1519.523
839.6270, 1367.191
840.7610, 1344.816
841.8950, 1250.410
843.0290, 1508.957
844.1630, 1376.477
845.2960, 1446.957
846.4300, 1798.406
847.5630, 1998.820
848.6960, 1858.199
849.8290, 2055.543
850.9620, 2219.859
852.0940, 2297.141
853.2270, 2495.395
854.3590, 2647.613
855.4910, 2679.809
856.6230, 2773.969
857.7550, 2869.105
858.8870, 2926.215
860.0180, 2872.297
861.1500, 2758.348
862.2810, 2611.375
863.4120, 2434.379
864.5430, 2440.359
865.6730, 1981.301
866.8040, 2355.234
867.9340, 2479.145
869.0640, 2039.051
870.1940, 1839.711
871.3240, 1858.969
872.4540, 1797.828
873.5830, 1519.168
874.7130, 1294.750
875.8420, 1644.449
876.9710, 1546.105
878.1000, 1296.125
879.2290, 1272.195
880.3570, 1202.051
881.4860, 1174.859
882.6140, 1191.062
883.7420, 1307.754
884.8700, 1190.539
885.9980, 1238.488
887.1250, 1097.984
888.2530, 814.5039
889.3800, 794.5625
890.5070, 722.3281
891.6340, 741.7305
892.7610, 803.2227
893.8880, 821.1562
895.0140, 747.2656
896.1400, 853.6016
897.2670, 647.9609
898.3930, 653.7305
899.5180, 828.8672
900.6440, 559.5234
901.7700, 490.7070
902.8950, 500.3125
904.0200, 378.7305
905.1450, 590.7773
906.2700, 582.3945
907.3950, 848.4375
908.5190, 660.0312
909.6440, 858.9336
910.7680, 479.1719
911.8920, 665.3945
913.0160, 576.2930
914.1400, 865.4648
915.2630, 963.7852
916.3870, 832.6953
917.5100, 1195.258
918.6330, 702.8281
919.7560, 1093.438
920.8790, 1358.141
922.0010, 1227.891
923.1240, 1569.680
924.2460, 1339.516
925.3680, 1310.395
926.4900, 1618.324
927.6120, 1814.301
928.7340, 1751.336
929.8550, 1768.441
930.9760, 1819.605
932.0980, 1792.891
933.2190, 1825.898
934.3390, 1736.664
935.4600, 1823.141
936.5810, 1925.727
937.7010, 1869.398
938.8210, 1904.121
939.9410, 1805.992
941.0610, 1735.945
942.1810, 2064.137
943.3010, 1600.379
944.4200, 1831.676
945.5390, 1593.047
946.6580, 1683.496
947.7770, 1842.004
948.8960, 1654.582
950.0150, 1928.215
951.1330, 1838.906
952.2510, 1859.668
953.3690, 1933.488
954.4870, 2044.371
955.6050, 1889.312
956.7230, 2043.320
957.8400, 2223.414
958.9580, 2498.566
960.0750, 2349.789
961.1920, 2512.074
962.3090, 2725.422
963.4250, 2691.824
964.5420, 3115.312
965.6580, 3070.871
966.7740, 3487.500
967.8900, 3561.191
969.0060, 3929.008
970.1220, 4304.332
971.2380, 4466.844
972.3530, 5083.871
973.4680, 5416.965
974.5830, 5722.133
975.6980, 6563.383
976.8130, 7579.695
977.9280, 8953.105
979.0420, 8515.574
980.1560, 8657.160
981.2710, 7998.812
982.3850, 8492.543
983.4980, 8008.332
984.6120, 7434.188
985.7260, 7589.117
986.8390, 7211.113
987.9520, 6948.414
989.0650, 6706.371
990.1780, 6393.613
991.2910, 5598.938
992.4030, 5244.336
993.5160, 4889.805
994.6280, 4745.348
995.7400, 4165.965
996.8520, 3587.660
997.9640, 3166.422
999.0750, 3052.258
1000.187, 2516.172
1001.298, 2774.152
1002.409, 3088.207
1003.520, 2197.383
1004.631, 2149.742
1005.741, 1478.262
1006.852, 1529.961
1007.962, 1512.828
1009.072, 1615.867
1010.182, 1381.023
1011.292, 1230.301
1012.402, 1194.707
1013.511, 1204.211
1014.621, 1068.480
1015.730, 1184.762
1016.839, 928.7695
1017.948, 846.8633
1019.056, 878.0977
1020.165, 1032.453
1021.273, 697.9180
1022.382, 760.5234
1023.490, 698.7500
1024.598, 689.7266
1025.706, 634.8398
1026.813, 744.1484
1027.921, 808.8086
1029.028, 848.4062
1030.135, 764.0078
1031.242, 950.7773
1032.349, 843.6758
1033.456, 805.6797
1034.562, 862.8203
1035.668, 433.0820
1036.775, 924.4766
1037.881, 656.9961
1038.987, 469.5078
1040.092, 786.6250
1041.198, 836.5664
1042.303, 646.5859
1043.408, 991.5156
1044.514, 833.3789
1045.618, 787.9141
1046.723, 933.2422
1047.828, 574.1406
1048.932, 980.6758
1050.037, 764.1523
1051.141, 698.8125
1052.245, 551.5781
1053.349, 611.5000
1054.452, 563.3867
1055.556, 766.8906
1056.659, 734.9297
1057.762, 779.0273
1058.865, 823.4805
1059.968, 797.8438
1061.071, 873.4062
1062.174, 800.7773
1063.276, 913.2070
1064.378, 979.2188
1065.480, 838.1562
1066.582, 585.7852
1067.684, 745.4766
1068.786, 806.1211
1069.887, 1078.707
1070.988, 990.4727
1072.090, 835.1211
1073.191, 916.1211
1074.291, 656.4492
1075.392, 677.5625
1076.493, 829.7305
1077.593, 638.0508
1078.693, 805.9219
1079.793, 637.2617
1080.893, 927.8984
1081.993, 905.3438
1083.092, 791.8398
1084.192, 799.3242
1085.291, 628.6680
1086.390, 970.3242
1087.489, 700.0312
1088.588, 762.1680
1089.686, 571.1875
1090.785, 740.0469
1091.883, 988.8633
1092.981, 562.8203
1094.079, 604.8320
1095.177, 801.8984
1096.275, 515.1719
1097.373, 595.3281
1098.470, 860.5664
1099.567, 939.9453
1100.664, 872.3906
1101.761, 475.7344
1102.858, 615.7461
1103.954, 525.3203
1105.051, 675.7891
1106.147, 533.1328
1107.243, 705.1289
1108.339, 722.7500
1109.435, 808.4922
1110.531, 766.1719
1111.626, 749.9414
1112.722, 925.7031
1113.817, 818.8711
1114.912, 809.7031
1116.007, 685.5703
1117.101, 688.4805
1118.196, 665.4258
1119.290, 828.4023
1120.385, 624.1133
1121.479, 967.4922
1122.573, 872.2188
1123.666, 675.2109
1124.760, 669.3672
1125.853, 708.5547
1126.947, 280.8594
1128.040, 493.2422
1129.133, 585.5156
1130.226, 617.9375
1131.318, 148.2773
1132.411, 366.6445
1133.503, 271.0391
1134.596, 294.6641
1135.688, 501.5430
1136.780, 552.0234
1137.871, 524.6602
1138.963, 502.2656
1140.054, 400.4609
1141.146, 376.3086
1142.237, 250.9023
1143.328, 4.367188
1144.419, 228.0039
1145.509, 392.6562
1146.600, 78.33203
1147.690, 315.9844
1148.780, 302.0039
1149.870, 254.8516
1150.960, 223.5859
1152.050, 212.3359
1153.139, 465.0977
1154.229, 35.12891
1155.318, 107.6523
1156.407, 329.4453
1157.496, 178.2461
1158.585, 69.95312
1159.674, 222.8477
1160.762, 68.96094
1161.850, 173.4766
1162.939, 69.29688
1164.027, 190.1367
1165.114, 87.96484
1166.202, 46.79688
1167.290, 155.6602
1168.377, 36.49609
1169.464, 46.66016
1170.551, 21.83203
1171.638, 111.9922
1172.725, 50.81641
1173.812, 236.6680
1174.898, 67.57031
1175.984, 237.4062
1177.071, 280.0625
1178.157, 185.3789
1179.242, 5.207031
1180.328, 67.13672
1181.414, 150.3086
1182.499, 132.5352
1183.584, 259.1680
1184.669, 17.74219
1185.754, 27.69141
1186.839, 159.8125
1187.924, 27.36328
1189.008, 23.35938
1190.092, 190.5273
1191.177, 257.8633
1192.260, 94.93359
1193.344, 234.7578
1194.428, 166.3984
1195.512, 92.92578
1196.595, 186.0859
1197.678, 36.28516
1198.761, 242.0742
1199.844, 142.0469
1200.927, 98.89844
1202.009, 198.1758
1203.092, 178.6367
1204.174, 347.5664
1205.256, 264.0273
1206.338, 40.60156
1207.420, 64.83594
1208.502, 88.32812
1209.583, 136.1055
1210.665, 61.47266
1211.746, 250.8828
1212.827, 46.22266
1213.908, 33.45703
1214.988, 11.18359
1216.069, 76.05078
1217.149, 40.26562
1218.230, 0.4609380
1219.310, 77.38672
1220.390, 364.6914
1221.470, 20.25000
1222.549, 251.7539
1223.629, 301.1016
1224.708, 63.05859
1225.787, 65.00391
1226.866, 115.8516
1227.945, 4.683594
1229.024, 53.47266
1230.103, 184.7695
1231.181, 147.8398
1232.259, 13.57812
1233.337, 31.94922
1234.415, 96.43359
1235.493, 21.92188
1236.571, 3.632813
1237.648, 43.78906
1238.726, 26.83594
1239.803, 214.3672
1240.880, 118.3906
1241.957, 152.7266
1243.034, 77.81641
1244.110, 433.8750
1245.187, 127.9219
1246.263, 257.9453
1247.339, 263.9375
1248.415, 27.10547
1249.491, 29.77344
1250.566, 98.59375
1251.642, 34.37891
1252.717, 82.23828
1253.793, 169.8008
1254.868, 82.46094
1255.943, 82.08203
1257.017, 82.68750
1258.092, 484.1914
1259.166, 134.6914
1260.241, 400.1602
1261.315, 270.5898
1262.389, 265.9922
1263.462, 41.36328
1264.536, 60.67188
1265.610, 247.9258
1266.683, 74.14453
1267.756, 48.30859
1268.829, 60.58984
1269.902, 150.3984
1270.975, 224.3438
1272.048, 20.26562
1273.120, 438.0859
1274.192, 216.8984
1275.264, 207.6758
1276.336, 10.57812
1277.408, 57.89453
1278.480, 11.35156
1279.551, 292.3438
1280.623, 326.4609
1281.694, 635.9961
1282.765, 524.3711
1283.836, 479.2812
1284.907, 615.5859
1285.977, 691.8594
1287.048, 607.1133
1288.118, 352.0664
1289.188, 489.2266
1290.258, 352.3516
1291.328, 358.4375
1292.398, 219.0508
1293.467, 413.5117
1294.537, 288.4922
1295.606, 153.4375
1296.675, 284.4453
1297.744, 503.1992
1298.813, 262.1641
1299.882, 568.6250
1300.950, 305.4805
1302.018, 310.0938
1303.086, 382.9336
1304.155, 408.5781
1305.222, 395.1875
1306.290, 606.7617
1307.358, 649.8008
1308.425, 253.2891
1309.492, 634.8672
1310.559, 660.3359
1311.626, 389.2656
1312.693, 659.5586
1313.760, 458.8164
