##NAMES=Inderite
##RRUFFID=R050195
##IDEAL CHEMISTRY=MgB_3_O_3_(OH)_5_&#183;5H_2_O
##LOCALITY=Boron, Kern County, California, USA
##OWNER=RRUFF
##SOURCE=Dave Bunk Minerals
##DESCRIPTION=Colorless prismatic crystal
##STATUS=The identification of this mineral has been confirmed by X-ray diffraction and chemical analysis
##URL=rruff.info/R050195
##MEASURED CHEMISTRY=Mg_1.00_B_3.00_O_3_(OH)_5_Â·5H_2_O ; Mg measured, only
##PIN_ID=L00296
##ORIENTATION=Laser parallel to c* (0 0 1). Fiducial mark perpendicular to laser is parallel to a [1 0 0]
107.995, 0.000
109.387, 9.168
110.777, 528.144
112.168, 552.562
113.559, 1196.372
114.949, 981.732
116.339, 644.790
117.729, 564.138
119.119, 189.455
120.508, 384.861
121.897, 646.066
123.286, 1763.045
124.675, 2879.344
126.063, 4577.055
127.452, 7061.596
128.840, 8380.721
130.228, 9379.365
131.615, 7670.836
133.003, 5871.731
134.390, 4380.703
135.777, 3669.706
137.164, 2292.731
138.550, 1275.035
139.937, 1311.833
141.323, 1062.306
142.709, 1399.602
144.094, 1844.850
145.480, 2239.167
146.865, 3189.655
148.250, 3610.855
149.635, 4331.591
151.019, 4454.998
152.403, 3948.979
153.788, 3534.253
155.171, 2827.633
156.555, 2715.515
157.939, 2438.988
159.322, 2919.326
160.705, 3353.953
162.088, 3918.016
163.470, 5080.996
164.853, 6004.908
166.235, 7669.762
167.617, 8191.570
168.998, 9268.341
170.380, 8394.079
171.761, 7498.791
173.142, 6205.471
174.523, 4372.109
175.904, 3378.701
177.284, 2189.251
178.664, 1769.779
180.044, 1152.301
181.424, 809.830
182.803, 659.378
184.183, 377.949
185.562, 382.544
186.940, 61.169
188.319, 45.478
189.698, 190.191
191.076, 131.225
192.454, 150.680
193.831, 48.249
195.209, 39.698
196.586, 66.379
197.963, 39.745
199.340, 52.930
200.717, 150.940
202.093, 88.194
203.470, 142.468
204.846, 56.001
206.221, 22.604
207.597, 6.658
208.972, 18.795
210.347, 180.812
211.722, 206.282
213.097, 6.516
214.472, 294.774
215.846, 267.138
217.220, 418.560
218.594, 542.037
219.967, 531.571
221.341, 812.163
222.714, 831.808
224.087, 1109.508
225.460, 1206.265
226.832, 1434.076
228.204, 1602.942
229.577, 1788.862
230.948, 1883.836
232.320, 1588.857
233.692, 1543.909
235.063, 1342.909
236.434, 1071.781
237.805, 893.460
239.175, 925.959
240.545, 994.428
241.916, 878.806
243.286, 1078.166
244.655, 1156.624
246.025, 1149.260
247.394, 1469.081
248.763, 1304.014
250.132, 1588.155
251.501, 1303.527
252.869, 1405.070
254.237, 1344.753
255.605, 1204.509
256.973, 1250.322
258.340, 793.194
259.708, 1188.123
261.075, 536.109
262.442, 268.153
263.808, 342.253
265.175, 13.410
266.541, 104.623
267.907, 212.107
269.273, 130.783
270.639, 137.458
272.004, 358.229
273.369, 46.673
274.734, 345.683
276.099, 107.004
277.463, 116.924
278.828, 14.444
280.192, 62.949
281.556, 100.176
282.919, 175.714
284.283, 36.286
285.646, 173.785
287.009, 156.910
288.372, 158.070
289.734, 296.253
291.097, 230.450
292.459, 552.660
293.821, 603.877
295.183, 885.090
296.544, 1013.267
297.905, 1112.383
299.266, 1366.430
300.627, 1268.414
301.988, 1500.346
303.348, 1300.232
304.709, 1493.080
306.069, 1399.896
307.428, 1368.685
308.788, 1752.451
310.147, 1560.198
311.507, 2096.931
312.865, 2165.650
314.224, 2300.350
315.583, 2360.988
316.941, 2166.424
318.299, 2261.619
319.657, 1532.463
321.015, 1415.025
322.372, 1192.514
323.729, 747.759
325.086, 745.985
326.443, 485.239
327.800, 575.521
329.156, 465.832
330.512, 328.174
331.868, 614.544
333.224, 352.944
334.579, 756.375
335.935, 359.836
337.290, 715.328
338.645, 804.851
339.999, 967.404
341.354, 1250.990
342.708, 1445.606
344.062, 1793.256
345.416, 1896.938
346.769, 1727.649
348.123, 1900.394
349.476, 1575.170
350.829, 1900.976
352.182, 1480.705
353.534, 1494.336
354.887, 1423.800
356.239, 1320.084
357.591, 1713.799
358.942, 1282.862
360.294, 1756.734
361.645, 1942.484
362.996, 1973.602
364.347, 2280.764
365.698, 2324.051
367.048, 2833.117
368.398, 2733.789
369.748, 3317.445
371.098, 3592.561
372.448, 3874.082
373.797, 4617.600
375.146, 4653.443
376.495, 5527.219
377.844, 5449.068
379.192, 5988.336
380.540, 6516.590
381.889, 6163.326
383.236, 6454.162
384.584, 5908.549
385.932, 5910.699
387.279, 5664.902
388.626, 5021.750
389.973, 5340.293
391.319, 4608.270
392.666, 4837.461
394.012, 4566.074
395.358, 4403.490
396.704, 4550.336
398.049, 3934.881
399.394, 4624.934
400.740, 4297.020
402.084, 4750.203
403.429, 4983.420
404.774, 4926.672
406.118, 5507.961
407.462, 5641.281
408.806, 6309.635
410.150, 6938.023
411.493, 7612.443
412.836, 8866.896
414.179, 9475.379
415.522, 11007.893
416.865, 12149.434
418.207, 13628.000
419.549, 15107.605
420.891, 15739.227
422.233, 17122.885
423.575, 16704.570
424.916, 16251.277
426.257, 15652.020
427.598, 14129.785
428.939, 13567.582
430.279, 11817.330
431.619, 11707.277
432.959, 11046.891
434.299, 10610.748
435.639, 10724.848
436.978, 10897.656
438.318, 11869.430
439.657, 12107.660
440.996, 13159.684
442.334, 13494.086
443.673, 12384.359
445.011, 11855.438
446.349, 9414.254
447.687, 8485.367
449.024, 6937.500
450.361, 5757.648
451.699, 5384.816
453.036, 4291.000
454.372, 4367.199
455.709, 3815.418
457.045, 3450.650
458.381, 3272.902
459.717, 2879.170
461.053, 2963.455
462.388, 2370.758
463.724, 2479.082
465.059, 2610.424
466.394, 2441.781
467.728, 2777.160
469.063, 2587.559
470.397, 2731.977
471.731, 2962.412
473.065, 3034.869
474.398, 3643.346
475.732, 3572.840
477.065, 4378.357
478.398, 4924.895
479.731, 5323.453
481.063, 6333.035
482.396, 7398.641
483.728, 9144.273
485.060, 10697.934
486.391, 13589.621
487.723, 16801.332
489.054, 19952.072
490.385, 25270.840
491.716, 27322.633
493.047, 30114.445
494.377, 30189.293
495.708, 26874.164
497.038, 23651.059
498.368, 18917.982
499.697, 15582.930
501.027, 12300.906
502.356, 9619.902
503.685, 8079.930
505.014, 6396.980
506.342, 5487.055
507.671, 4495.154
508.999, 3777.281
510.327, 3550.430
511.655, 2645.607
512.982, 2547.809
514.310, 2135.035
515.637, 1608.287
516.964, 1696.568
518.291, 1216.885
519.617, 1069.240
520.944, 704.658
522.270, 935.135
523.596, 736.670
524.921, 484.291
526.247, 494.980
527.572, 275.750
528.897, 256.580
530.222, 436.445
531.547, 62.352
532.871, 307.307
534.196, 40.650
535.520, 218.404
536.844, 4.309
538.167, 208.572
539.491, 14.518
540.814, 226.902
542.137, 25.457
543.460, 213.443
544.783, 55.305
546.105, 77.236
547.427, 239.779
548.749, 60.402
550.071, 191.100
551.393, 151.572
552.714, 116.174
554.035, 226.334
555.356, 309.188
556.677, 26.148
557.998, 186.883
559.318, 603.559
560.638, 234.184
561.958, 775.887
563.278, 814.604
564.597, 848.328
565.917, 1298.070
567.236, 937.822
568.555, 1589.588
569.874, 1388.365
571.192, 1737.158
572.511, 1811.959
573.829, 1567.773
575.147, 2260.602
576.464, 1993.439
577.782, 2293.293
579.099, 2681.158
580.416, 2551.035
581.733, 2704.924
583.050, 2676.826
584.366, 2946.744
585.683, 2682.670
586.999, 2528.611
588.315, 2387.564
589.630, 1971.584
590.946, 1986.648
592.261, 1748.764
593.576, 1266.977
594.891, 1311.217
596.206, 1005.557
597.520, 1259.932
598.834, 916.348
600.148, 951.777
601.462, 1127.232
602.776, 815.725
604.089, 1197.229
605.402, 976.752
606.715, 1043.287
608.028, 1168.834
609.341, 1049.395
610.653, 1517.967
611.965, 1599.549
613.277, 1794.145
614.589, 2114.752
615.901, 2411.373
617.212, 2834.006
618.523, 3075.648
619.834, 3406.305
621.145, 3832.973
622.456, 4371.648
623.766, 4941.340
625.076, 5489.645
626.386, 6519.756
627.696, 6757.480
629.006, 7455.217
630.315, 8249.969
631.624, 8663.723
632.933, 9226.496
634.242, 9894.281
635.551, 9924.074
636.859, 10776.879
638.167, 10242.699
639.475, 10792.527
640.783, 10549.361
642.090, 10075.215
643.398, 10088.076
644.705, 9501.949
646.012, 9122.836
647.318, 8463.730
648.625, 7929.639
649.931, 7708.555
651.237, 6888.486
652.543, 6439.426
653.849, 6190.377
655.155, 5527.340
656.460, 5300.311
657.765, 4323.293
659.070, 4221.287
660.375, 3929.293
661.679, 3403.305
662.984, 3408.332
664.288, 2816.371
665.592, 2982.416
666.895, 2411.475
668.199, 2145.541
669.502, 2017.619
670.805, 1915.709
672.108, 1612.809
673.411, 1459.918
674.713, 1226.037
676.016, 1377.166
677.318, 871.303
678.620, 981.451
679.921, 861.609
681.223, 515.775
682.524, 721.947
683.825, 435.131
685.126, 544.322
686.427, 482.521
687.727, 114.729
689.028, 445.943
690.328, 149.164
691.628, 188.961
692.927, 50.500
694.227, 101.672
695.526, 134.469
696.825, 113.676
698.124, 134.301
699.423, 119.967
700.721, 162.268
702.020, 13.277
703.318, 133.312
704.616, 386.998
705.913, 29.445
707.211, 239.297
708.508, 54.607
709.805, 387.867
711.102, 222.211
712.399, 39.002
713.695, 471.467
714.992, 120.480
716.288, 226.562
717.584, 48.291
718.879, 60.156
720.175, 44.031
721.470, 299.932
722.765, 113.846
724.060, 249.801
725.355, 469.781
726.649, 409.775
727.944, 984.791
729.238, 803.848
730.532, 1497.922
731.825, 1790.096
733.119, 1856.281
734.412, 2848.525
735.705, 3092.779
736.998, 3830.043
738.291, 5129.379
739.584, 6065.725
740.876, 7656.129
742.168, 8390.559
743.460, 9095.000
744.752, 9174.512
746.043, 8684.035
747.334, 7914.566
748.626, 6873.166
749.916, 5760.775
751.207, 4901.393
752.498, 3885.023
753.788, 3469.664
755.078, 2823.314
756.368, 2105.975
757.658, 1751.645
758.947, 1616.324
760.237, 1437.012
761.526, 1111.711
762.815, 930.422
764.104, 1018.141
765.392, 570.869
766.680, 1043.607
767.969, 653.354
769.257, 441.111
770.544, 782.879
771.832, 395.666
773.119, 517.463
774.406, 460.268
775.693, 347.084
776.980, 320.910
778.267, 193.746
779.553, 367.590
780.839, 417.447
782.125, 428.340
783.411, 416.246
784.697, 192.160
785.982, 291.113
787.267, 338.078
788.552, 211.051
789.837, 355.031
791.122, 369.023
792.406, 23.027
793.690, 663.043
794.974, 365.068
796.258, 392.148
797.542, 588.887
798.825, 452.379
800.108, 822.531
801.391, 485.693
802.674, 781.865
803.957, 672.045
805.239, 797.236
806.522, 1257.463
807.804, 996.697
809.085, 1057.939
810.367, 1292.191
811.649, 1020.451
812.930, 1482.764
814.211, 1513.082
815.492, 1418.414
816.772, 1214.791
818.053, 1322.178
819.333, 1301.588
820.613, 1071.004
821.893, 1134.428
823.173, 1156.871
824.452, 1027.324
825.732, 877.785
827.011, 818.254
828.290, 680.734
829.568, 637.219
830.847, 342.715
832.125, 520.217
833.403, 513.729
834.681, 263.246
835.959, 258.773
837.236, 402.309
838.514, 270.852
839.791, 448.400
841.068, 308.957
842.345, 323.523
843.621, 133.098
844.898, 349.680
846.174, 338.275
847.450, 293.066
848.726, 714.680
850.001, 575.346
851.277, 697.480
852.552, 734.770
853.827, 707.518
855.102, 920.518
856.376, 1001.363
857.651, 835.191
858.925, 1047.604
860.199, 724.107
861.473, 1144.369
862.746, 1008.406
864.020, 933.730
865.293, 1452.994
866.566, 1371.148
867.839, 1345.951
869.112, 1652.143
870.384, 1825.783
871.656, 2011.010
872.928, 2402.256
874.200, 2554.217
875.472, 2853.500
876.744, 3271.588
878.015, 3437.432
879.286, 3658.768
880.557, 3948.664
881.828, 3962.602
883.098, 3604.236
884.369, 3628.914
885.639, 3183.334
886.909, 3097.980
888.178, 2982.430
889.448, 2646.893
890.717, 2529.539
891.987, 2278.029
893.256, 2139.625
894.524, 2050.857
895.793, 1793.387
897.061, 1591.258
898.330, 1459.809
899.598, 1250.373
900.865, 1219.838
902.133, 1104.664
903.401, 1213.260
904.668, 1070.865
905.935, 1182.482
907.202, 1178.107
908.468, 859.744
909.735, 951.391
911.001, 826.045
912.267, 1068.711
913.533, 803.385
914.799, 796.070
916.064, 726.764
917.330, 1011.469
918.595, 817.180
919.860, 730.902
921.124, 939.635
922.389, 742.375
923.653, 837.152
924.918, 729.908
926.182, 864.676
927.445, 891.549
928.709, 952.336
929.972, 1101.127
931.236, 1254.984
932.499, 1158.791
933.761, 1462.734
935.024, 1345.559
936.286, 1654.389
937.549, 2100.727
938.811, 2381.574
940.073, 2506.424
941.334, 2971.281
942.596, 3346.148
943.857, 4158.959
945.118, 4381.838
946.379, 5012.723
947.640, 5144.434
948.900, 5567.328
950.161, 5697.889
951.421, 5756.414
952.681, 5686.326
953.940, 5284.244
955.200, 4829.164
956.459, 4617.508
957.719, 4117.652
958.978, 3840.584
960.236, 3287.518
961.495, 3056.457
962.753, 2609.662
964.012, 2852.727
965.270, 2410.971
966.527, 2177.434
967.785, 2211.729
969.043, 1908.680
970.300, 1980.410
971.557, 1711.365
972.814, 1585.320
974.071, 1301.287
975.327, 1242.242
976.583, 1027.201
977.840, 831.158
979.095, 869.113
980.351, 701.799
981.607, 524.027
982.862, 531.982
984.117, 537.938
985.372, 398.893
986.627, 433.848
987.882, 421.803
989.136, 334.758
990.390, 321.713
991.644, 407.664
992.898, 459.619
994.152, 596.570
995.405, 357.568
996.659, 746.564
997.912, 629.559
999.165, 939.562
1000.417, 985.561
1001.670, 883.559
1002.922, 979.619
1004.174, 659.725
1005.426, 837.924
1006.678, 709.176
1007.930, 462.439
1009.181, 499.830
1010.432, 433.324
1011.683, 592.838
1012.934, 568.467
1014.185, 172.092
1015.435, 341.820
1016.685, 357.609
1017.935, 89.410
1019.185, 424.375
1020.435, 22.666
1021.684, 260.330
1022.934, 394.348
1024.183, 40.639
1025.432, 445.340
1026.680, 103.688
1027.929, 34.781
1029.177, 77.113
1030.425, 32.998
1031.673, 80.141
1032.921, 10.342
1034.169, 312.564
1035.416, 306.031
1036.663, 150.381
1037.911, 123.113
1039.157, 175.596
1040.404, 194.928
1041.650, 114.426
1042.897, 144.229
1044.143, 25.980
1045.389, 103.230
1046.634, 193.566
1047.880, 375.516
1049.125, 508.586
1050.371, 172.354
1051.615, 320.592
1052.860, 283.531
1054.105, 204.459
1055.349, 407.381
1056.593, 270.291
1057.837, 547.195
1059.081, 394.088
1060.325, 146.973
1061.568, 404.844
1062.812, 320.709
1064.055, 233.568
1065.298, 498.414
1066.540, 128.252
1067.783, 501.078
1069.025, 244.896
1070.267, 156.703
1071.509, 293.502
1072.751, 0.291
1073.993, 180.047
1075.234, 323.791
1076.475, 113.527
1077.716, 358.248
1078.957, 202.957
1080.198, 129.668
1081.438, 392.350
1082.679, 75.982
1083.919, 317.607
1085.159, 391.186
1086.398, 64.250
1087.638, 626.238
1088.877, 396.713
1090.116, 441.178
1091.355, 460.623
1092.594, 35.053
1093.833, 485.459
1095.071, 173.848
1096.309, 128.779
1097.547, 470.484
1098.785, 109.268
1100.023, 57.746
1101.260, 887.871
1102.498, 203.980
1103.735, 344.074
1104.972, 84.148
1106.208, 35.793
1107.445, 368.199
1108.681, 548.174
1109.918, 593.135
1111.154, 121.078
1112.389, 95.998
1113.625, 115.826
1114.860, 81.633
1116.096, 82.586
1117.331, 235.107
1118.566, 6.783
1119.800, 331.500
1121.035, 238.115
1122.269, 21.711
1123.503, 490.271
1124.737, 304.814
1125.971, 224.340
1127.205, 637.848
1128.438, 249.342
1129.671, 588.818
1130.904, 643.279
1132.137, 390.725
1133.370, 716.154
1134.602, 636.570
1135.834, 540.973
1137.066, 1172.623
1138.298, 340.998
1139.530, 534.357
1140.762, 1135.781
1141.993, 447.113
1143.224, 1383.404
1144.455, 695.727
1145.686, 838.025
1146.917, 1184.766
1148.147, 864.039
1149.377, 1222.301
1150.607, 995.801
1151.837, 853.037
1153.067, 1300.969
1154.296, 950.172
1155.526, 1140.359
1156.755, 1261.953
1157.984, 1220.109
1159.213, 1552.307
1160.441, 1516.693
1161.670, 1220.793
1162.898, 1854.156
1164.126, 1348.549
1165.354, 1612.592
1166.581, 1799.344
1167.809, 1422.354
1169.036, 1861.975
1170.263, 1959.619
1171.490, 1705.576
1172.717, 2115.816
1173.943, 1886.189
1175.170, 1837.309
1176.396, 2156.787
1177.622, 1479.660
1178.848, 1983.973
1180.073, 2046.652
1181.299, 1444.229
1182.524, 2193.760
1183.749, 1641.184
1184.974, 1990.746
1186.199, 2265.508
1187.423, 1623.254
1188.648, 2078.816
1189.872, 2062.535
1191.096, 1914.148
1192.320, 2215.125
1193.543, 1684.805
1194.767, 2436.139
1195.990, 2338.797
1197.213, 2112.438
1198.436, 2429.934
1199.659, 2459.555
1200.881, 1969.164
1202.104, 2663.766
1203.326, 1700.359
1204.548, 1986.947
1205.770, 1757.529
1206.991, 1417.100
1208.213, 1776.672
1209.434, 1339.234
1210.655, 1266.793
1211.876, 1495.344
1213.096, 1253.895
1214.317, 1235.439
1215.537, 1180.979
1216.757, 840.516
1217.977, 1177.953
1219.197, 1003.387
1220.417, 617.783
1221.636, 1297.162
1222.855, 467.334
1224.074, 874.396
1225.293, 1034.371
1226.512, 242.211
1227.731, 736.982
1228.949, 876.795
1230.167, 426.367
1231.385, 919.988
1232.603, 465.594
1233.820, 499.678
1235.038, 1098.186
1236.255, 232.674
1237.472, 941.143
1238.689, 953.584
1239.906, 272.068
1241.122, 1194.471
1242.338, 571.855
1243.555, 428.395
1244.771, 1039.738
1245.986, 41.400
1247.202, 1088.076
1248.417, 471.350
1249.633, 320.602
1250.848, 1163.826
1252.063, 446.602
1253.277, 598.555
1254.492, 1259.693
1255.706, 343.803
1256.920, 813.883
1258.134, 1126.676
1259.348, 304.596
1260.562, 795.328
1261.775, 795.830
1262.988, 512.496
1264.201, 1052.508
1265.414, 165.742
1266.627, 760.750
1267.839, 1093.764
1269.052, 224.770
1270.264, 1079.793
1271.476, 554.826
1272.688, 312.875
1273.899, 1284.941
1275.111, 308.035
1276.322, 698.494
1277.533, 985.658
1278.744, 215.867
1279.955, 883.990
1281.165, 811.318
1282.376, 119.721
1283.586, 1136.752
1284.796, 253.320
1286.006, 165.910
1287.215, 702.617
1288.425, 155.656
1289.634, 625.455
1290.843, 465.139
1292.052, 78.461
1293.261, 457.760
1294.469, 476.002
1295.678, 47.980
1296.886, 781.928
1298.094, 342.279
1299.302, 252.375
1300.509, 598.994
1301.717, 290.465
1302.924, 201.012
1304.131, 174.408
1305.338, 177.201
1306.545, 466.215
1307.752, 121.604
1308.958, 110.041
1310.164, 459.656
1311.370, 137.654
1312.576, 252.082
1313.782, 237.912
1314.987, 73.188
1316.193, 815.832
1317.398, 236.900
1318.603, 84.018
1319.807, 968.121
1321.012, 63.789
1322.216, 408.287
1323.421, 478.350
1324.625, 97.393
1325.829, 846.426
1327.032, 398.438
1328.236, 45.451
1329.439, 1006.471
1330.642, 552.484
1331.845, 646.480
1333.048, 1416.539
1334.251, 383.650
1335.453, 1336.852
1336.656, 1501.066
1337.858, 880.305
1339.060, 2151.578
1340.261, 1662.004
1341.463, 1599.258
1342.664, 2886.867
1343.866, 2169.508
1345.067, 2713.262
1346.267, 3574.055
1347.468, 2902.961
1348.669, 3764.996
1349.869, 3787.203
1351.069, 3034.371
1352.269, 4225.766
1353.469, 3321.246
1354.668, 3681.785
1355.868, 3644.391
1357.067, 2546.059
1358.266, 3053.781
1359.465, 2761.059
1360.664, 1815.742
1361.862, 2338.957
1363.061, 1744.496
1364.259, 1280.168
1365.457, 2129.961
1366.655, 821.449
1367.852, 1082.172
1369.050, 1702.340
1370.247, 355.805
1371.444, 1295.664
1372.641, 1092.375
1373.838, 162.805
1375.035, 1484.070
1376.231, 492.688
1377.427, 420.102
1378.623, 1270.395
1379.819, 180.398
1381.015, 921.344
1382.211, 1272.449
1383.406, 892.133
1384.601, 1433.688
1385.796, 1113.102
1386.991, 326.352
1388.185, 1384.441
1389.380, 630.340
1390.574, 883.004
1391.768, 2075.410
1392.962, 961.516
1394.156, 1519.277
1395.350, 1535.668
1396.543, 460.621
1397.736, 1774.117
1398.929, 1469.855
1400.122, 585.281
1401.315, 1869.133
1402.507, 861.777
1403.700, 950.828
1404.892, 2033.031
1406.084, 488.582
1407.276, 1095.883
1408.467, 1452.426
1409.659, 442.238
1410.850, 1651.355
1412.041, 1065.852
1413.232, 263.840
1414.423, 1509.477
1415.614, 605.977
1416.804, 354.621
1417.994, 1361.617
1419.184, 19.883
1420.374, 846.430
1421.564, 815.367
1422.753, 20.027
1423.943, 1296.641
1425.132, 596.820
1426.321, 57.977
1427.510, 1170.516
1428.698, 293.316
1429.887, 655.391
1431.075, 1211.719
1432.263, 2.379
1433.451, 0.000
##END=



