##NAMES=Inderite
##RRUFFID=R050195
##IDEAL CHEMISTRY=MgB_3_O_3_(OH)_5_&#183;5H_2_O
##LOCALITY=Boron, Kern County, California, USA
##OWNER=RRUFF
##SOURCE=Dave Bunk Minerals
##DESCRIPTION=Colorless prismatic crystal
##STATUS=The identification of this mineral has been confirmed by X-ray diffraction and chemical analysis
##URL=rruff.info/R050195
##MEASURED CHEMISTRY=Mg_1.00_B_3.00_O_3_(OH)_5_Â·5H_2_O ; Mg measured, only
##PIN_ID=L00380
##ORIENTATION=Laser parallel to -b* (0 -1 0). Fiducial mark perpendicular to laser is parallel to -c [0 0 -1]
87.101, 0.000
88.496, 746.479
89.890, 2524.675
91.284, 6785.326
92.678, 11913.307
94.071, 18096.461
95.465, 19412.486
96.858, 18926.574
98.251, 16509.117
99.644, 13199.445
101.036, 9324.636
102.428, 5148.678
103.820, 3172.635
105.212, 2572.586
106.604, 3290.570
107.995, 2984.156
109.387, 1888.281
110.777, 1049.158
112.168, 91.555
113.559, 169.814
114.949, 437.898
116.339, 637.316
117.729, 479.293
119.119, 586.593
120.508, 2019.394
121.897, 4251.229
123.286, 7231.209
124.675, 8054.520
126.063, 8746.878
127.452, 7660.892
128.840, 6868.109
130.228, 5269.996
131.615, 3095.281
133.003, 2037.619
134.390, 1298.888
135.777, 1451.474
137.164, 2183.111
138.550, 3524.092
139.937, 4454.669
141.323, 3877.066
142.709, 3297.473
144.094, 2555.714
145.480, 3359.671
146.865, 4248.046
148.250, 5942.594
149.635, 6595.334
151.019, 6574.498
152.403, 7638.049
153.788, 5849.377
155.171, 5578.971
156.555, 5772.991
157.939, 6181.159
159.322, 8011.520
160.705, 9533.983
162.088, 13095.513
163.470, 17163.090
164.853, 23179.740
166.235, 28315.480
167.617, 31001.297
168.998, 31377.197
170.380, 26963.127
171.761, 22869.223
173.142, 17744.764
174.523, 13880.866
175.904, 10825.613
177.284, 9113.692
178.664, 9005.088
180.044, 8942.313
181.424, 10336.472
182.803, 10938.923
184.183, 11714.361
185.562, 11264.305
186.940, 10194.760
188.319, 9256.678
189.698, 7871.021
191.076, 6642.758
192.454, 5020.848
193.831, 3361.268
195.209, 2164.986
196.586, 1204.981
197.963, 686.230
199.340, 42.695
200.717, 146.704
202.093, 475.040
203.470, 655.361
204.846, 798.694
206.221, 796.047
207.597, 626.421
208.972, 769.419
210.347, 540.731
211.722, 611.333
213.097, 397.437
214.472, 369.393
215.846, 491.277
217.220, 210.291
218.594, 334.714
219.967, 95.190
221.341, 170.703
222.714, 8.747
224.087, 185.162
225.460, 163.537
226.832, 461.622
228.204, 671.838
229.577, 998.092
230.948, 1401.724
232.320, 1860.773
233.692, 2475.291
235.063, 3044.387
236.434, 3744.283
237.805, 3975.261
239.175, 4321.447
240.545, 4059.032
241.916, 3942.854
243.286, 4034.919
244.655, 3758.022
246.025, 3789.152
247.394, 3338.296
248.763, 2859.450
250.132, 2425.611
251.501, 1859.780
252.869, 1717.221
254.237, 1392.296
255.605, 1299.752
256.973, 862.125
258.340, 686.585
259.708, 589.559
261.075, 378.669
262.442, 344.661
263.808, 167.329
265.175, 219.494
266.541, 60.614
267.907, 131.985
269.273, 47.526
270.639, 30.905
272.004, 149.625
273.369, 146.106
274.734, 295.501
276.099, 404.803
277.463, 587.005
278.828, 1048.491
280.192, 891.223
281.556, 1477.014
282.919, 1431.493
284.283, 1854.578
285.646, 2168.230
287.009, 2409.443
288.372, 2910.248
289.734, 3029.671
291.097, 3979.738
292.459, 4658.475
293.821, 5540.896
295.183, 7005.026
296.544, 7687.877
297.905, 9132.448
299.266, 9776.744
300.627, 10300.770
301.988, 10167.542
303.348, 9187.072
304.709, 8785.366
306.069, 7422.439
307.428, 7167.297
308.788, 6635.488
310.147, 6438.287
311.507, 6738.416
312.865, 6516.089
314.224, 6848.531
315.583, 6387.035
316.941, 6078.681
318.299, 5456.676
319.657, 4308.211
321.015, 3591.600
322.372, 2756.974
323.729, 2371.334
325.086, 1791.678
326.443, 1262.005
327.800, 978.316
329.156, 751.611
330.512, 654.882
331.868, 504.120
333.224, 437.314
334.579, 501.454
335.935, 268.544
337.290, 554.552
338.645, 349.511
339.999, 576.324
341.354, 671.931
342.708, 715.169
344.062, 803.126
345.416, 861.922
346.769, 1005.669
348.123, 803.384
349.476, 983.061
350.829, 1067.702
352.182, 1026.306
353.534, 1291.868
354.887, 1173.390
356.239, 1594.865
357.591, 1734.296
358.942, 1743.680
360.294, 2189.014
361.645, 2193.298
362.996, 2537.593
364.347, 2577.717
365.698, 2721.016
367.048, 2911.564
368.398, 2883.031
369.748, 3241.759
371.098, 3246.244
372.448, 3722.942
373.797, 3789.924
375.146, 4342.402
376.495, 4741.209
377.844, 4888.507
379.192, 5582.869
380.540, 5555.591
381.889, 5823.063
383.236, 5891.309
384.584, 5692.136
385.932, 5781.657
387.279, 5132.117
388.626, 5154.587
389.973, 5001.607
391.319, 4655.322
392.666, 4514.448
394.012, 4121.878
395.358, 4282.681
396.704, 3797.449
398.049, 3901.172
399.394, 4071.719
400.740, 3982.361
402.084, 4459.863
403.429, 4058.641
404.774, 4522.396
406.118, 4456.125
407.462, 4588.830
408.806, 5132.512
410.150, 5140.166
411.493, 5796.796
412.836, 5977.399
414.179, 6528.979
415.522, 7098.555
416.865, 7426.088
418.207, 8479.560
419.549, 8571.954
420.891, 9205.262
422.233, 9159.477
423.575, 8752.591
424.916, 8261.354
426.257, 7543.002
427.598, 7101.349
428.939, 6308.521
430.279, 5805.214
431.619, 5424.537
432.959, 5192.486
434.299, 5412.104
435.639, 5169.031
436.978, 5899.658
438.318, 6450.113
439.657, 6911.899
440.996, 7856.585
442.334, 7211.188
443.673, 6932.684
445.011, 6009.068
446.349, 4795.352
447.687, 4538.525
449.024, 3341.598
450.361, 3163.572
451.699, 2576.443
453.036, 2233.217
454.372, 2318.896
455.709, 2071.478
457.045, 2110.965
458.381, 1847.357
459.717, 1866.662
461.053, 1946.872
462.388, 1658.995
463.724, 2082.029
465.059, 1876.974
466.394, 2346.834
467.728, 2409.607
469.063, 2382.297
470.397, 2835.904
471.731, 2936.435
473.065, 3486.897
474.398, 3754.299
475.732, 4075.644
477.065, 4751.936
478.398, 5266.178
479.731, 6409.375
481.063, 6898.529
482.396, 9035.645
483.728, 10523.711
485.060, 12467.742
486.391, 16387.727
487.723, 19257.672
489.054, 24642.566
490.385, 29590.398
491.716, 32571.695
493.047, 33607.695
494.377, 33452.703
495.708, 31640.453
497.038, 26834.625
498.368, 22685.570
499.697, 19996.590
501.027, 16624.859
502.356, 15232.887
503.685, 13074.561
505.014, 11457.217
506.342, 9968.266
507.671, 7715.607
508.999, 6375.107
510.327, 4893.379
511.655, 3931.615
512.982, 3050.820
514.310, 2338.990
515.637, 2150.125
516.964, 1537.229
518.291, 1313.303
519.617, 1029.357
520.944, 755.402
522.270, 603.553
523.596, 328.488
524.921, 357.678
526.247, 200.086
527.572, 198.738
528.897, 154.738
530.222, 9.994
531.547, 11.518
532.871, 98.684
534.196, 134.412
535.520, 155.531
536.844, 220.119
538.167, 169.654
539.491, 262.088
540.814, 192.547
542.137, 316.938
543.460, 482.404
544.783, 108.037
546.105, 298.701
547.427, 234.551
548.749, 332.545
550.071, 296.771
551.393, 65.207
552.714, 118.736
554.035, 252.982
555.356, 160.178
556.677, 33.297
557.998, 202.371
559.318, 174.410
560.638, 202.414
561.958, 439.379
563.278, 571.316
564.597, 677.223
565.917, 999.102
567.236, 978.949
568.555, 1344.768
569.874, 1307.559
571.192, 1923.318
572.511, 2031.051
573.829, 2429.752
575.147, 2891.424
576.464, 2921.066
577.782, 3653.682
579.099, 3904.266
580.416, 4830.820
581.733, 5046.350
583.050, 5392.848
584.366, 5603.328
585.683, 5104.811
586.999, 4991.291
588.315, 4381.809
589.630, 3916.412
590.946, 3564.059
592.261, 3042.773
593.576, 2890.506
594.891, 2447.266
596.206, 2414.027
597.520, 2300.775
598.834, 2003.500
600.148, 2095.201
601.462, 1916.879
602.776, 2277.537
604.089, 2244.172
605.402, 2320.785
606.715, 2669.379
608.028, 2640.951
609.341, 2935.504
610.653, 3409.035
611.965, 3528.547
613.277, 4040.041
614.589, 4196.516
615.901, 4947.973
617.212, 5452.412
618.523, 5760.832
619.834, 6618.234
621.145, 7022.621
622.456, 8247.984
623.766, 8771.340
625.076, 9690.676
626.386, 10883.996
627.696, 11129.301
629.006, 12487.588
630.315, 12813.863
631.624, 13907.119
632.933, 14809.363
634.242, 14803.590
635.551, 15860.809
636.859, 15584.008
638.167, 15511.885
639.475, 15513.055
640.783, 14875.221
642.090, 14669.785
643.398, 13513.916
644.705, 13172.031
646.012, 12360.137
647.318, 11028.227
648.625, 10758.311
649.931, 9512.396
651.237, 9027.494
652.543, 8367.613
653.849, 7245.748
655.155, 6859.932
656.460, 6184.127
657.765, 5455.357
659.070, 5272.596
660.375, 4448.836
661.679, 4216.070
662.984, 3866.299
664.288, 3456.520
665.592, 3195.727
666.895, 2762.926
668.199, 2709.117
669.502, 2296.682
670.805, 2246.850
672.108, 2105.111
673.411, 1872.258
674.713, 1878.590
676.016, 1637.861
677.318, 1426.492
678.620, 1588.406
679.921, 1237.432
681.223, 1479.057
682.524, 1183.613
683.825, 1136.049
685.126, 1222.285
686.427, 1171.271
687.727, 1130.045
689.028, 1174.795
690.328, 1095.479
691.628, 1034.795
692.927, 917.293
694.227, 933.621
695.526, 762.564
696.825, 942.752
698.124, 815.807
699.423, 851.639
700.721, 861.615
702.020, 620.434
703.318, 592.299
704.616, 504.303
705.913, 623.408
707.211, 483.652
708.508, 587.010
709.805, 270.010
711.102, 384.605
712.399, 426.176
713.695, 381.748
714.992, 574.451
716.288, 513.020
717.584, 638.682
718.879, 610.027
720.175, 868.350
721.470, 881.646
722.765, 939.924
724.060, 1150.178
725.355, 1397.408
726.649, 1792.615
727.944, 2139.803
729.238, 2172.965
730.532, 3202.104
731.825, 3515.223
733.119, 4349.316
734.412, 5371.391
735.705, 6606.445
736.998, 7925.473
738.291, 9732.482
739.584, 12255.465
740.876, 14094.430
742.168, 15746.371
743.460, 16872.287
744.752, 16318.186
746.043, 15680.059
747.334, 13498.912
748.626, 12119.738
749.916, 10298.541
751.207, 8525.322
752.498, 7372.078
753.788, 6394.812
755.078, 5253.520
756.368, 4834.203
757.658, 3923.863
758.947, 3690.500
760.237, 3169.113
761.526, 2684.703
762.815, 2890.270
764.104, 2494.811
765.392, 2307.332
766.680, 2353.826
767.969, 2107.297
769.257, 1995.748
770.544, 1865.174
771.832, 1707.576
773.119, 1606.057
774.406, 1436.312
775.693, 1347.646
776.980, 1159.955
778.267, 960.242
779.553, 925.506
780.839, 787.746
782.125, 810.965
783.411, 595.158
784.697, 615.332
785.982, 430.482
787.267, 393.609
788.552, 567.715
789.837, 395.795
791.122, 398.857
792.406, 182.895
793.690, 414.902
794.974, 344.889
796.258, 246.852
797.542, 552.787
798.825, 383.732
800.108, 433.676
801.391, 525.598
802.674, 479.500
803.957, 564.381
805.239, 396.242
806.522, 700.092
807.804, 595.920
809.085, 591.725
810.367, 769.506
811.649, 491.307
812.930, 712.086
814.211, 893.838
815.492, 629.629
816.772, 638.393
818.053, 734.135
819.333, 542.893
820.613, 646.627
821.893, 465.336
823.173, 251.023
824.452, 476.684
825.732, 318.318
827.011, 360.932
828.290, 57.521
829.568, 9.076
830.847, 28.418
832.125, 16.980
833.403, 118.393
834.681, 175.266
835.959, 188.068
837.236, 117.025
838.514, 353.094
839.791, 81.398
841.068, 240.797
842.345, 245.355
843.621, 422.084
844.898, 261.047
846.174, 365.146
847.450, 450.438
848.726, 141.945
850.001, 134.520
851.277, 223.131
852.552, 137.846
853.827, 83.584
855.102, 10.273
856.376, 48.023
857.651, 27.387
858.925, 190.793
860.199, 214.277
861.473, 350.830
862.746, 416.396
864.020, 306.586
865.293, 580.240
866.566, 555.879
867.839, 577.510
869.112, 715.125
870.384, 849.727
871.656, 987.432
872.928, 1617.883
874.200, 1395.438
875.472, 1740.973
876.744, 2082.490
878.015, 2058.992
879.286, 2447.479
880.557, 2476.949
881.828, 2524.402
883.098, 2534.842
884.369, 2642.264
885.639, 2287.672
886.909, 2222.062
888.178, 2240.439
889.448, 1943.803
890.717, 1859.148
891.987, 1697.480
893.256, 1750.801
894.524, 1601.104
895.793, 1456.393
897.061, 1475.670
898.330, 1442.930
899.598, 1175.178
900.865, 1450.410
902.133, 1064.631
903.401, 1083.838
904.668, 980.029
905.935, 817.209
907.202, 939.377
908.468, 981.531
909.735, 758.672
911.001, 917.801
912.267, 681.914
913.533, 506.018
914.799, 621.107
916.064, 640.186
917.330, 715.250
918.595, 643.305
919.860, 655.408
921.124, 580.377
922.389, 603.395
923.653, 676.404
924.918, 683.260
926.182, 623.914
927.445, 527.375
928.709, 585.352
929.972, 436.316
931.236, 688.312
932.499, 389.297
933.761, 722.271
935.024, 544.238
936.286, 852.197
937.549, 969.146
938.811, 1221.084
940.073, 1755.010
941.334, 1361.934
942.596, 1321.844
943.857, 1890.744
945.118, 1864.949
946.379, 2170.828
947.640, 2229.703
948.900, 2323.156
950.161, 2561.365
951.421, 2541.049
952.681, 2232.898
953.940, 2381.375
955.200, 1848.213
956.459, 1779.506
957.719, 1674.457
958.978, 1359.270
960.236, 1180.074
961.495, 1272.871
962.753, 736.879
964.012, 1088.658
965.270, 851.432
966.527, 756.326
967.785, 716.078
969.043, 667.822
970.300, 944.939
971.557, 474.674
972.814, 713.396
974.071, 508.111
975.327, 435.434
976.583, 552.135
977.840, 465.734
979.095, 506.430
980.351, 450.922
981.607, 330.484
982.862, 484.668
984.117, 313.553
985.372, 498.307
986.627, 686.217
987.882, 467.316
989.136, 769.861
990.390, 621.588
991.644, 746.416
992.898, 745.244
994.152, 878.797
995.405, 797.326
996.659, 1218.984
997.912, 1166.139
999.165, 1577.977
1000.417, 1720.215
1001.670, 1699.973
1002.922, 1743.215
1004.174, 1340.855
1005.426, 1630.076
1006.678, 1746.945
1007.930, 1307.828
1009.181, 1264.617
1010.432, 1224.152
1011.683, 1476.818
1012.934, 1398.920
1014.185, 1139.031
1015.435, 1516.137
1016.685, 1310.268
1017.935, 1416.410
1019.185, 1761.570
1020.435, 1559.736
1021.684, 1885.916
1022.934, 1854.105
1024.183, 1554.303
1025.432, 1730.846
1026.680, 1752.010
1027.929, 1798.033
1029.177, 1759.395
1030.425, 2001.768
1031.673, 1392.150
1032.921, 1176.543
1034.169, 817.949
1035.416, 1276.395
1036.663, 683.848
1037.911, 1012.309
1039.157, 766.783
1040.404, 456.268
1041.650, 691.760
1042.897, 303.262
1044.143, 488.773
1045.389, 730.291
1046.634, 450.818
1047.880, 747.350
1049.125, 800.885
1050.371, 488.424
1051.615, 981.967
1052.860, 1023.516
1054.105, 1090.066
1055.349, 1145.623
1056.593, 1334.184
1057.837, 1616.744
1059.081, 1464.309
1060.325, 1483.869
1061.568, 1647.430
1062.812, 1285.988
1064.055, 1384.541
1065.298, 1404.096
1066.540, 995.645
1067.783, 1292.189
1069.025, 934.729
1070.267, 910.262
1071.509, 984.791
1072.751, 594.068
1073.993, 698.582
1075.234, 741.088
1076.475, 629.924
1077.716, 805.414
1078.957, 494.893
1080.198, 702.738
1081.438, 638.199
1082.679, 453.002
1083.919, 876.086
1085.159, 554.359
1086.398, 260.154
1087.638, 684.594
1088.877, 127.047
1090.116, 547.764
1091.355, 695.250
1092.594, 142.754
1093.833, 528.221
1095.071, 219.701
1096.309, 237.654
1097.547, 487.156
1098.785, 178.324
1100.023, 146.381
1101.260, 212.012
1102.498, 30.674
1103.735, 453.707
1104.972, 22.896
1106.208, 80.408
1107.445, 222.010
1108.681, 211.445
1109.918, 176.711
1111.154, 227.820
1112.389, 45.623
1113.625, 179.311
1114.860, 289.207
1116.096, 149.549
1117.331, 47.008
1118.566, 212.518
1119.800, 374.648
1121.035, 168.121
1122.269, 37.607
1123.503, 388.814
1124.737, 38.336
1125.971, 345.412
1127.205, 397.963
1128.438, 170.529
1129.671, 620.756
1130.904, 168.371
1132.137, 525.025
1133.370, 733.807
1134.602, 477.512
1135.834, 673.951
1137.066, 1027.812
1138.298, 509.732
1139.530, 910.736
1140.762, 1106.873
1141.993, 551.812
1143.224, 1472.492
1144.455, 915.910
1145.686, 1282.166
1146.917, 1348.133
1148.147, 1209.920
1149.377, 1833.465
1150.607, 1566.922
1151.837, 1608.928
1153.067, 2269.762
1154.296, 1811.883
1155.526, 2348.660
1156.755, 2326.293
1157.984, 2446.379
1159.213, 2921.709
1160.441, 2839.193
1161.670, 2942.416
1162.898, 3431.287
1164.126, 2964.684
1165.354, 3890.525
1166.581, 3665.670
1167.809, 3669.820
1169.036, 3871.078
1170.263, 3821.852
1171.490, 4102.027
1172.717, 4015.756
1173.943, 3855.957
1175.170, 3915.172
1176.396, 3737.629
1177.622, 3422.859
1178.848, 3808.566
1180.073, 3257.854
1181.299, 3187.094
1182.524, 3170.631
1183.749, 2539.814
1184.974, 2941.002
1186.199, 2815.957
1187.423, 2171.021
1188.648, 2846.922
1189.872, 2356.762
1191.096, 2393.656
1192.320, 2353.516
1193.543, 1730.916
1194.767, 2617.141
1195.990, 1996.252
1197.213, 1791.240
1198.436, 2259.186
1199.659, 1918.076
1200.881, 1662.895
1202.104, 1844.637
1203.326, 1347.191
1204.548, 1618.688
1205.770, 1217.576
1206.991, 1127.330
1208.213, 1243.793
1209.434, 780.129
1210.655, 902.305
1211.876, 749.312
1213.096, 558.164
1214.317, 796.871
1215.537, 657.432
1216.757, 577.840
1217.977, 638.076
1219.197, 102.135
1220.417, 420.047
1221.636, 756.828
1222.855, 18.518
1224.074, 367.006
1225.293, 432.418
1226.512, 113.096
1227.731, 323.121
1228.949, 203.299
1230.167, 133.445
1231.385, 86.646
1232.603, 200.043
1233.820, 322.385
1235.038, 726.766
1236.255, 49.180
1237.472, 588.639
1238.689, 378.117
1239.906, 311.873
1241.122, 553.648
1242.338, 6.621
1243.555, 583.824
1244.771, 473.352
1245.986, 37.771
1247.202, 879.699
1248.417, 10.135
1249.633, 342.117
1250.848, 841.541
1252.063, 80.008
1253.277, 627.498
1254.492, 678.000
1255.706, 129.516
1256.920, 847.078
1258.134, 559.684
1259.348, 284.271
1260.562, 413.838
1261.775, 270.316
1262.988, 682.812
1264.201, 441.322
1265.414, 64.840
1266.627, 683.049
1267.839, 378.127
1269.052, 204.156
1270.264, 900.152
1271.476, 41.145
1272.688, 499.119
1273.899, 852.084
1275.111, 29.959
1276.322, 972.918
1277.533, 480.646
1278.744, 384.223
1279.955, 813.773
1281.165, 256.223
1282.376, 487.658
1283.586, 874.082
1284.796, 84.504
1286.006, 418.906
1287.215, 253.334
1288.425, 86.215
1289.634, 662.264
1290.843, 268.777
1292.052, 372.328
1293.261, 474.947
1294.469, 162.645
1295.678, 334.436
1296.886, 544.332
1298.094, 363.654
1299.302, 953.088
1300.509, 40.918
1301.717, 31.424
1302.924, 603.715
1304.131, 58.146
1305.338, 216.256
1306.545, 461.795
1307.752, 312.725
1308.958, 435.287
1310.164, 328.682
1311.370, 184.303
1312.576, 598.947
1313.782, 281.732
1314.987, 370.367
1316.193, 887.451
1317.398, 37.562
1318.603, 547.037
1319.807, 668.238
1321.012, 240.785
1322.216, 834.688
1323.421, 447.668
1324.625, 337.523
1325.829, 941.203
1327.032, 41.764
1328.236, 687.713
1329.439, 708.922
1330.642, 398.078
1331.845, 884.166
1333.048, 1024.557
1334.251, 332.072
1335.453, 1322.752
1336.656, 830.420
1337.858, 824.168
1339.060, 1669.162
1340.261, 974.010
1341.463, 1332.732
1342.664, 1879.236
1343.866, 1299.314
1345.067, 1990.699
1346.267, 1835.893
1347.468, 2017.826
1348.669, 2608.039
1349.869, 1844.070
1351.069, 2176.766
1352.269, 2306.633
1353.469, 1545.793
1354.668, 2220.469
1355.868, 1505.672
1357.067, 1085.098
1358.266, 1932.266
1359.465, 1057.965
1360.664, 860.781
1361.862, 963.156
1363.061, 344.555
1364.259, 693.727
1365.457, 1062.969
1366.655, 69.121
1367.852, 521.809
1369.050, 650.992
1370.247, 12.633
1371.444, 824.680
1372.641, 156.809
1373.838, 106.434
1375.035, 993.297
1376.231, 0.000
##END=



