##NAMES=Inderite
##RRUFFID=R050195
##IDEAL CHEMISTRY=MgB_3_O_3_(OH)_5_&#183;5H_2_O
##LOCALITY=Boron, Kern County, California, USA
##OWNER=RRUFF
##SOURCE=Dave Bunk Minerals
##DESCRIPTION=Colorless prismatic crystal
##STATUS=The identification of this mineral has been confirmed by X-ray diffraction and chemical analysis
##URL=rruff.info/R050195
##MEASURED CHEMISTRY=Mg_1.00_B_3.00_O_3_(OH)_5_Â·5H_2_O ; Mg measured, only
##PIN_ID=L00373
##ORIENTATION=Laser parallel to (1 0 1). Fiducial mark perpendicular to laser is parallel to b [0 1 0]
92.678, 0.000
94.071, 802.790
95.465, 2620.922
96.858, 3019.367
98.251, 2696.691
99.644, 1283.547
101.036, 634.848
102.428, 694.761
103.820, 1711.938
105.212, 4492.357
106.604, 7579.484
107.995, 12000.686
109.387, 11801.012
110.777, 9737.550
112.168, 6623.120
113.559, 3852.852
114.949, 2400.927
116.339, 1169.367
117.729, 1064.347
119.119, 891.351
120.508, 2450.260
121.897, 4959.330
123.286, 8550.852
124.675, 14773.320
126.063, 19172.172
127.452, 26011.072
128.840, 30266.387
130.228, 31491.889
131.615, 28078.967
133.003, 19497.746
134.390, 12698.709
135.777, 7165.448
137.164, 4141.661
138.550, 1997.402
139.937, 1184.955
141.323, 862.989
142.709, 865.759
144.094, 1653.562
145.480, 2658.663
146.865, 5093.295
148.250, 7238.662
149.635, 10111.934
151.019, 11462.960
152.403, 9964.728
153.788, 8442.345
155.171, 5476.902
156.555, 3802.045
157.939, 2160.852
159.322, 1636.395
160.705, 1529.965
162.088, 1867.462
163.470, 3008.951
164.853, 3415.656
166.235, 5076.436
167.617, 5981.492
168.998, 6273.877
170.380, 5429.594
171.761, 3806.652
173.142, 2648.974
174.523, 1232.813
175.904, 718.475
177.284, 39.613
178.664, 106.549
180.044, 53.612
181.424, 139.576
182.803, 252.265
184.183, 294.916
185.562, 856.982
186.940, 1392.103
188.319, 2434.793
189.698, 3861.874
191.076, 4868.324
192.454, 6585.115
193.831, 6305.229
195.209, 5976.637
196.586, 4731.315
197.963, 3619.240
199.340, 2713.382
200.717, 1536.715
202.093, 1191.260
203.470, 506.057
204.846, 417.080
206.221, 115.216
207.597, 2.443
208.972, 201.750
210.347, 149.117
211.722, 282.520
213.097, 109.937
214.472, 309.362
215.846, 445.792
217.220, 579.208
218.594, 1072.558
219.967, 1084.747
221.341, 1302.766
222.714, 885.664
224.087, 664.442
225.460, 512.103
226.832, 95.649
228.204, 183.087
229.577, 261.517
230.948, 128.076
232.320, 230.731
233.692, 187.579
235.063, 75.445
236.434, 100.217
237.805, 336.067
239.175, 244.404
240.545, 589.690
241.916, 728.909
243.286, 825.969
244.655, 1246.565
246.025, 1022.633
247.394, 1318.274
248.763, 972.738
250.132, 867.107
251.501, 561.389
252.869, 213.582
254.237, 110.691
255.605, 404.295
256.973, 232.590
258.340, 600.988
259.708, 588.021
261.075, 667.531
262.442, 702.403
263.808, 421.153
265.175, 694.043
266.541, 443.384
267.907, 471.288
269.273, 430.898
270.639, 353.320
272.004, 443.622
273.369, 144.901
274.734, 193.141
276.099, 76.598
277.463, 143.338
278.828, 318.060
280.192, 745.741
281.556, 791.356
282.919, 1183.882
284.283, 1353.298
285.646, 1766.590
287.009, 2365.740
288.372, 2587.740
289.734, 3535.582
291.097, 3961.264
292.459, 5163.770
293.821, 6158.064
295.183, 7362.151
296.544, 9394.033
297.905, 10461.713
299.266, 12696.180
300.627, 13036.335
301.988, 13480.021
303.348, 13283.396
304.709, 11715.468
306.069, 10708.244
307.428, 8832.743
308.788, 8176.422
310.147, 7003.924
311.507, 6418.674
312.865, 6215.201
314.224, 5482.437
315.583, 5956.942
316.941, 5173.607
318.299, 4960.025
319.657, 4210.255
321.015, 3694.297
322.372, 3462.156
323.729, 2896.842
325.086, 2911.276
326.443, 2701.082
327.800, 2973.262
329.156, 3092.977
330.512, 3153.547
331.868, 3866.992
333.224, 4116.316
334.579, 5152.520
335.935, 5923.605
337.290, 7101.555
338.645, 9142.015
339.999, 10634.731
341.354, 13518.500
342.708, 15514.098
344.062, 17966.154
345.416, 19905.191
346.769, 19663.857
348.123, 19888.086
349.476, 17392.123
350.829, 15886.106
352.182, 13522.055
353.534, 11871.965
354.887, 10823.840
356.239, 9028.677
357.591, 8469.477
358.942, 7355.270
360.294, 6803.984
361.645, 6189.654
362.996, 5435.135
364.347, 5137.068
365.698, 4292.449
367.048, 4291.217
368.398, 3609.664
369.748, 3458.070
371.098, 3464.707
372.448, 2938.218
373.797, 3100.072
375.146, 2854.607
376.495, 2960.069
377.844, 2983.110
379.192, 2784.621
380.540, 3114.080
381.889, 2860.754
383.236, 3153.748
384.584, 2933.506
385.932, 2916.223
387.279, 3167.163
388.626, 2944.936
389.973, 3348.311
391.319, 3002.385
392.666, 3372.969
394.012, 3509.789
395.358, 3559.029
396.704, 3992.846
398.049, 3928.566
399.394, 4350.592
400.740, 4496.934
402.084, 4814.395
403.429, 5812.684
404.774, 6020.932
406.118, 7124.145
407.462, 7695.320
408.806, 8761.466
410.150, 10466.577
411.493, 11633.662
412.836, 14364.714
414.179, 16219.739
415.522, 19783.828
416.865, 23683.506
418.207, 27055.875
419.549, 33800.949
420.891, 36540.816
422.233, 41786.293
423.575, 42709.496
424.916, 40724.188
426.257, 39351.164
427.598, 32601.648
428.939, 29331.461
430.279, 23852.119
431.619, 20406.910
432.959, 17716.143
434.299, 15089.295
435.639, 15228.772
436.978, 14186.805
438.318, 15569.942
439.657, 17646.816
440.996, 19187.990
442.334, 21787.834
443.673, 20613.605
445.011, 19609.307
446.349, 16368.949
447.687, 13193.521
449.024, 10478.027
450.361, 8197.941
451.699, 6311.850
453.036, 4687.167
454.372, 3688.421
455.709, 2955.615
457.045, 2158.749
458.381, 1883.825
459.717, 1180.844
461.053, 1084.805
462.388, 751.713
463.724, 510.567
465.059, 346.372
466.394, 186.538
467.728, 221.835
469.063, 44.496
470.397, 67.091
471.731, 88.630
473.065, 150.876
474.398, 190.456
475.732, 52.748
477.065, 304.990
478.398, 600.195
479.731, 670.365
481.063, 1376.500
482.396, 1413.603
483.728, 2230.672
485.060, 3187.711
486.391, 4163.720
487.723, 6099.702
489.054, 7850.658
490.385, 10963.596
491.716, 13486.514
493.047, 15801.408
494.377, 17726.285
495.708, 16631.143
497.038, 16014.987
498.368, 13604.809
499.697, 10929.619
501.027, 9460.417
502.356, 7053.208
503.685, 6138.008
505.014, 4564.811
506.342, 3723.664
507.671, 3083.525
508.999, 2133.395
510.327, 1834.275
511.655, 1149.170
512.982, 1089.073
514.310, 678.989
515.637, 431.919
516.964, 298.860
518.291, 13.816
519.617, 110.781
520.944, 19.775
522.270, 87.218
523.596, 79.163
524.921, 201.112
526.247, 81.087
527.572, 17.024
528.897, 31.803
530.222, 25.171
531.547, 95.115
532.871, 72.360
534.196, 355.012
535.520, 223.455
536.844, 168.823
538.167, 217.189
539.491, 143.534
540.814, 260.795
542.137, 71.103
543.460, 67.349
544.783, 139.579
546.105, 1.829
547.427, 101.001
548.749, 115.819
550.071, 39.693
551.393, 30.603
552.714, 388.655
554.035, 121.816
555.356, 503.112
556.677, 577.534
557.998, 729.053
559.318, 1016.676
560.638, 1159.328
561.958, 1795.016
563.278, 1992.732
564.597, 2668.480
565.917, 3394.258
567.236, 3602.066
568.555, 4818.905
569.874, 5003.775
571.192, 5919.678
572.511, 6934.610
573.829, 7354.574
575.147, 9088.584
576.464, 9295.648
577.782, 11010.907
579.099, 12360.315
580.416, 13455.968
581.733, 15813.860
583.050, 16572.016
584.366, 17927.445
585.683, 18629.088
586.999, 17326.996
588.315, 17590.119
589.630, 15618.462
590.946, 14228.019
592.261, 12960.768
593.576, 11216.735
594.891, 11055.846
596.206, 9112.115
597.520, 8828.469
598.834, 8203.904
600.148, 7803.389
601.462, 7768.912
602.776, 7292.475
604.089, 7725.077
605.402, 7689.719
606.715, 7973.400
608.028, 8586.122
609.341, 8533.884
610.653, 9593.687
611.965, 9958.529
613.277, 10577.416
614.589, 12079.343
615.901, 12291.312
617.212, 14255.323
618.523, 15188.378
619.834, 16138.476
621.145, 18740.619
622.456, 19145.807
623.766, 22064.029
625.076, 23727.299
626.386, 25771.617
627.696, 28832.525
629.006, 29824.402
630.315, 33847.840
631.624, 34990.305
632.933, 36817.840
634.242, 40481.824
635.551, 39757.453
636.859, 43377.141
638.167, 42334.852
639.475, 43283.648
640.783, 43179.465
642.090, 40839.336
643.398, 41975.250
644.705, 38874.219
646.012, 37887.230
647.318, 37071.289
648.625, 33585.410
649.931, 32907.559
651.237, 30281.766
652.543, 28182.020
653.849, 27445.322
655.155, 24420.672
656.460, 24108.070
657.765, 21715.520
659.070, 20726.014
660.375, 19430.555
661.679, 17541.150
662.984, 17000.793
664.288, 15462.478
665.592, 14629.216
666.895, 13978.000
668.199, 12535.834
669.502, 12186.721
670.805, 10856.658
672.108, 10362.656
673.411, 10178.698
674.713, 8831.800
676.016, 8970.954
677.318, 7858.496
678.620, 7614.850
679.921, 7243.809
681.223, 6346.337
682.524, 6415.857
683.825, 5650.693
685.126, 5473.092
686.427, 5280.854
687.727, 4650.436
689.028, 4863.033
690.328, 4139.430
691.628, 4223.175
692.927, 3832.100
694.227, 3474.378
695.526, 3514.454
696.825, 3002.979
698.124, 3004.030
699.423, 2894.663
700.721, 2289.225
702.020, 2544.050
703.318, 2049.782
704.616, 1921.637
705.913, 1704.056
707.211, 1390.993
708.508, 1572.962
709.805, 1229.961
711.102, 1302.988
712.399, 1176.046
713.695, 992.131
714.992, 1300.243
716.288, 919.385
717.584, 1296.552
718.879, 1116.744
720.175, 1270.964
721.470, 1511.209
722.765, 1520.480
724.060, 1780.775
725.355, 2095.098
726.649, 2241.443
727.944, 3007.813
729.238, 3058.207
730.532, 4070.626
731.825, 4633.066
733.119, 5522.529
734.412, 7273.018
735.705, 8144.525
736.998, 10581.055
738.291, 13110.602
739.584, 15030.163
740.876, 19398.742
742.168, 21685.338
743.460, 24092.947
744.752, 26525.570
746.043, 24124.205
747.334, 23822.848
748.626, 20538.502
749.916, 17663.162
751.207, 15954.832
752.498, 12466.510
753.788, 11364.190
755.078, 9295.880
756.368, 8004.572
757.658, 7186.270
758.947, 5787.975
760.237, 5421.682
761.526, 4695.393
762.815, 4387.107
764.104, 4203.824
765.392, 3696.545
766.680, 3795.269
767.969, 3238.993
769.257, 3148.721
770.544, 3116.449
771.832, 2378.180
773.119, 2640.084
774.406, 2093.816
775.693, 1910.548
776.980, 1745.279
778.267, 1439.011
779.553, 1406.740
780.839, 1110.470
782.125, 1103.196
783.411, 1135.934
784.697, 696.672
785.982, 833.410
787.267, 777.207
788.552, 512.000
789.837, 718.795
791.122, 451.586
792.406, 604.374
793.690, 438.154
794.974, 270.932
796.258, 656.702
797.542, 256.466
798.825, 387.226
800.108, 438.977
801.391, 200.722
802.674, 552.458
803.957, 207.187
805.239, 555.908
806.522, 499.620
807.804, 437.324
809.085, 750.018
810.367, 586.702
811.649, 726.377
812.930, 784.040
814.211, 629.693
815.492, 966.334
816.772, 871.965
818.053, 873.583
819.333, 808.189
820.613, 530.783
821.893, 790.888
823.173, 498.578
824.452, 431.131
825.732, 492.193
827.011, 97.102
828.290, 385.526
829.568, 93.477
830.847, 32.631
832.125, 140.600
833.403, 248.804
834.681, 20.446
835.959, 161.898
837.236, 347.159
838.514, 116.700
839.791, 258.600
841.068, 247.850
842.345, 211.753
843.621, 384.945
844.898, 172.379
846.174, 401.039
847.450, 67.129
848.726, 223.090
850.001, 324.661
851.277, 33.468
852.552, 111.315
853.827, 62.684
855.102, 130.631
856.376, 95.441
857.651, 277.345
858.925, 171.112
860.199, 309.840
861.473, 452.534
862.746, 396.194
864.020, 798.819
865.293, 688.408
866.566, 667.964
867.839, 1081.484
869.112, 927.970
870.384, 1382.419
871.656, 1474.833
872.928, 1588.212
874.200, 1831.555
875.472, 2104.861
876.744, 2347.132
878.015, 2832.367
879.286, 2854.564
880.557, 3370.726
881.828, 3495.852
883.098, 3439.939
884.369, 4044.992
885.639, 3646.006
886.909, 4136.984
888.178, 3702.927
889.448, 3643.830
890.717, 3878.699
891.987, 3276.529
893.256, 3469.322
894.524, 3251.079
895.793, 2995.799
897.061, 3089.480
898.330, 2659.126
899.598, 2751.733
900.865, 2463.303
902.133, 2097.836
903.401, 2440.331
904.668, 1824.788
905.935, 1817.209
907.202, 1741.592
908.468, 1385.936
909.735, 1637.243
911.001, 1117.514
912.267, 1113.745
913.533, 1115.939
914.799, 716.098
916.064, 957.217
917.330, 662.299
918.595, 604.344
919.860, 696.350
921.124, 392.319
922.389, 537.251
923.653, 505.146
924.918, 279.002
926.182, 469.819
927.445, 597.600
928.709, 493.342
929.972, 407.047
931.236, 348.714
932.499, 404.275
933.761, 399.939
935.024, 432.495
936.286, 827.015
937.549, 542.495
938.811, 1032.939
940.073, 1158.346
941.334, 1155.715
942.596, 1540.046
943.857, 1429.341
945.118, 1872.598
946.379, 2220.817
947.640, 2152.001
948.900, 2802.146
950.161, 2340.255
951.421, 2624.326
952.681, 2655.359
953.940, 2278.357
955.200, 2299.316
956.459, 1918.241
957.719, 1580.128
958.978, 1715.979
960.236, 1059.792
961.495, 1209.568
962.753, 931.309
964.012, 679.013
965.270, 806.680
966.527, 590.311
967.785, 671.906
969.043, 515.465
970.300, 313.988
971.557, 452.476
972.814, 180.927
974.071, 119.337
975.327, 339.699
976.583, 59.026
977.840, 208.292
979.095, 76.519
980.351, 47.310
981.607, 197.749
982.862, 150.535
984.117, 62.317
985.372, 84.290
986.627, 184.996
987.882, 131.751
989.136, 269.240
990.390, 174.596
991.644, 117.451
992.898, 358.067
994.152, 93.405
995.405, 441.952
996.659, 224.292
997.912, 60.589
999.165, 228.115
1000.417, 121.996
1001.670, 196.681
1002.922, 26.594
1004.174, 422.575
1005.426, 135.838
1006.678, 209.846
1007.930, 425.701
1009.181, 224.576
1010.432, 603.945
1011.683, 449.813
1012.934, 425.670
1014.185, 963.514
1015.435, 642.346
1016.685, 870.202
1017.935, 1071.046
1019.185, 950.880
1020.435, 1376.710
1021.684, 1208.531
1022.934, 1469.344
1024.183, 1715.152
1025.432, 1427.951
1026.680, 1580.252
1027.929, 1828.525
1029.177, 1346.301
1030.425, 1772.092
1031.673, 1459.877
1032.921, 1542.655
1034.169, 1538.467
1035.416, 1304.273
1036.663, 1679.074
1037.911, 1522.898
1039.157, 1511.720
1040.404, 1956.583
1041.650, 1606.442
1042.897, 2096.299
1044.143, 2217.159
1045.389, 2119.016
1046.634, 2653.869
1047.880, 2649.724
1049.125, 2888.576
1050.371, 3385.428
1051.615, 3344.278
1052.860, 3795.130
1054.105, 4018.982
1055.349, 4135.834
1056.593, 4917.689
1057.837, 4482.547
1059.081, 4991.406
1060.325, 5092.268
1061.568, 4572.131
1062.812, 4959.998
1064.055, 4291.870
1065.298, 4197.744
1066.540, 4002.621
1067.783, 3137.509
1069.025, 3182.397
1070.267, 2965.291
1071.509, 2370.187
1072.751, 2681.086
1073.993, 2017.989
1075.234, 1975.723
1076.475, 1933.634
1077.716, 1396.553
1078.957, 1842.477
1080.198, 1432.406
1081.438, 1320.345
1082.679, 1375.288
1083.919, 1082.236
1085.159, 1365.190
1086.398, 1372.151
1087.638, 999.117
1088.877, 1401.089
1090.116, 1062.068
1091.355, 1062.054
1092.594, 1232.047
1093.833, 1054.046
1095.071, 1070.058
1096.309, 1070.075
1097.547, 860.101
1098.785, 1298.130
1100.023, 980.161
1101.260, 1109.196
1102.498, 1192.233
1103.735, 1047.275
1104.972, 1560.321
1106.208, 1542.371
1107.445, 1338.426
1108.681, 1969.486
1109.918, 1517.553
1111.154, 1979.626
1112.389, 2206.705
1113.625, 1992.791
1114.860, 2630.886
1116.096, 2633.989
1117.331, 2732.103
1118.566, 3380.229
1119.800, 3091.368
1121.035, 3862.522
1122.269, 4560.170
1123.503, 4376.240
1124.737, 5550.452
1125.971, 5530.162
1127.205, 5934.037
1128.438, 6881.400
1129.671, 6692.246
1130.904, 7507.157
1132.137, 8057.724
1133.370, 7898.936
1134.602, 9153.340
1135.834, 8910.562
1137.066, 9308.591
1138.298, 10072.824
1139.530, 9338.377
1140.762, 9723.210
1141.993, 9456.619
1143.224, 9098.270
1144.455, 9063.040
1145.686, 8689.056
1146.917, 8174.416
1148.147, 8117.645
1149.377, 7223.441
1150.607, 7566.390
1151.837, 7105.400
1153.067, 6406.522
1154.296, 6762.696
1155.526, 6175.914
1156.755, 6095.227
1157.984, 6211.017
1159.213, 5435.411
1160.441, 6297.846
1161.670, 5615.318
1162.898, 5353.834
1164.126, 5957.207
1165.354, 5479.805
1166.581, 5454.445
1167.809, 5821.527
1169.036, 5083.253
1170.263, 5777.021
1171.490, 5391.187
1172.717, 5117.043
1173.943, 5584.947
1175.170, 4673.898
1176.396, 5027.896
1177.622, 4849.273
1178.848, 4157.369
1180.073, 4574.514
1181.299, 4026.787
1182.524, 3684.033
1183.749, 3975.334
1184.974, 3143.296
1186.199, 3336.705
1187.423, 3189.108
1188.648, 2505.626
1189.872, 2798.200
1191.096, 2323.834
1192.320, 1981.522
1193.543, 2293.268
1194.767, 1608.071
1195.990, 1754.936
1197.213, 1821.859
1198.436, 1220.846
1199.659, 1744.893
1200.881, 1241.004
1202.104, 1192.171
1203.326, 1469.403
1204.548, 887.700
1205.770, 1115.938
1206.991, 1159.215
1208.213, 505.554
1209.434, 1100.932
1210.655, 719.375
1211.876, 636.781
1213.096, 1026.250
1214.317, 342.494
1215.537, 842.753
1216.757, 848.821
1217.977, 445.927
1219.197, 827.035
1220.417, 614.174
1221.636, 464.339
1222.855, 967.525
1224.074, 412.445
1225.293, 638.656
1226.512, 749.877
1227.731, 389.926
1228.949, 963.146
1230.167, 653.326
1231.385, 714.521
1232.603, 1193.738
1233.820, 562.978
1235.038, 997.189
1236.255, 1063.415
1237.472, 864.688
1238.689, 1194.872
1239.906, 1090.061
1241.122, 942.376
1242.338, 1579.578
1243.555, 1046.426
1244.771, 1339.937
1245.986, 1519.142
1247.202, 1068.396
1248.417, 1432.700
1249.633, 1680.053
1250.848, 947.459
1252.063, 1749.917
1253.277, 1375.429
1254.492, 1204.994
1255.706, 1780.616
1256.920, 1264.299
1258.134, 1630.054
1259.348, 1500.899
1260.562, 1234.874
1261.775, 1756.035
1262.988, 1183.415
1264.201, 1308.088
1265.414, 1770.115
1266.627, 1042.526
1267.839, 1398.374
1269.052, 1647.626
1270.264, 1044.130
1271.476, 1579.715
1272.688, 1453.382
1273.899, 1140.129
1275.111, 1764.948
1276.322, 1263.850
1277.533, 1218.785
1278.744, 1590.755
1279.955, 874.786
1281.165, 1650.889
1282.376, 1178.061
1283.586, 801.314
1284.796, 1366.582
1286.006, 846.873
1287.215, 816.186
1288.425, 1031.490
1289.634, 412.731
1290.843, 918.035
1292.052, 721.399
1293.261, 398.833
1294.469, 964.333
1295.678, 344.900
1296.886, 532.531
1298.094, 675.229
1299.302, 83.994
1300.509, 386.825
1301.717, 511.725
1302.924, 31.319
1304.131, 533.722
1305.338, 120.848
1306.545, 25.060
1307.752, 599.351
1308.958, 183.272
1310.164, 424.193
1311.370, 466.760
1312.576, 56.568
1313.782, 586.213
1314.987, 58.107
1316.193, 49.896
1317.398, 532.238
1318.603, 16.541
1319.807, 146.025
1321.012, 476.694
1322.216, 107.444
1323.421, 310.614
1324.625, 186.875
1325.829, 155.662
1327.032, 527.999
1328.236, 12.842
1329.439, 104.157
1330.642, 387.984
1331.845, 164.737
1333.048, 281.681
1334.251, 361.242
1335.453, 6.949
1336.656, 485.808
1337.858, 396.822
1339.060, 103.001
1340.261, 665.357
1341.463, 302.899
1342.664, 461.635
1343.866, 690.571
1345.067, 159.716
1346.267, 753.601
1347.468, 654.146
1348.669, 436.923
1349.869, 1026.202
1351.069, 676.253
1352.269, 619.642
1353.469, 1077.754
1354.668, 490.337
1355.868, 718.921
1357.067, 973.955
1358.266, 58.527
1359.465, 764.707
1360.664, 573.983
1361.862, 182.127
1363.061, 651.099
1364.259, 227.658
1365.457, 205.320
1366.655, 707.895
1367.852, 15.202
1369.050, 464.957
1370.247, 436.928
1371.444, 5.332
1372.641, 662.479
1373.838, 189.051
1375.035, 276.194
1376.231, 604.998
1377.427, 118.440
1378.623, 259.396
1379.819, 620.181
1381.015, 57.044
1382.211, 508.507
1383.406, 637.358
1384.601, 3.385
1385.796, 706.882
1386.991, 245.264
1388.185, 0.000
##END=



