##NAMES=Inderite
##RRUFFID=R050195
##IDEAL CHEMISTRY=MgB_3_O_3_(OH)_5_&#183;5H_2_O
##LOCALITY=Boron, Kern County, California, USA
##OWNER=RRUFF
##SOURCE=Dave Bunk Minerals
##DESCRIPTION=Colorless prismatic crystal
##STATUS=The identification of this mineral has been confirmed by X-ray diffraction and chemical analysis
##URL=rruff.info/R050195
##MEASURED CHEMISTRY=Mg_1.00_B_3.00_O_3_(OH)_5_Â·5H_2_O ; Mg measured, only
##PIN_ID=L00488
##ORIENTATION=Laser parallel to a* (1 0 0). Fiducial mark perpendicular to laser is parallel to b [0 1 0]
107.995, 0.000
109.387, 16.059
110.777, 68.251
112.168, 293.902
113.559, 786.598
114.949, 1211.408
116.339, 1897.158
117.729, 2673.375
119.119, 2026.699
120.508, 3322.944
121.897, 4906.494
123.286, 8050.543
124.675, 10054.690
126.063, 9496.414
127.452, 7701.082
128.840, 5020.627
130.228, 3262.327
131.615, 1735.703
133.003, 1014.778
134.390, 571.108
135.777, 412.878
137.164, 917.157
138.550, 1099.127
139.937, 1996.355
141.323, 2138.325
142.709, 2508.434
144.094, 2530.017
145.480, 2904.361
146.865, 4282.715
148.250, 5272.291
149.635, 6907.277
151.019, 6968.838
152.403, 6561.127
153.788, 5782.288
155.171, 5276.447
156.555, 5072.719
157.939, 4530.449
159.322, 5319.479
160.705, 5934.437
162.088, 7486.279
163.470, 9618.941
164.853, 11591.612
166.235, 14818.810
167.617, 16520.822
168.998, 18628.000
170.380, 17348.289
171.761, 15372.694
173.142, 12429.211
174.523, 9695.829
175.904, 8329.540
177.284, 6773.319
178.664, 6585.143
180.044, 6850.013
181.424, 7937.939
182.803, 9378.931
184.183, 10420.987
185.562, 11846.115
186.940, 11444.308
188.319, 11696.567
189.698, 10981.897
191.076, 9892.308
192.454, 9078.815
193.831, 6955.507
195.209, 5577.412
196.586, 3729.545
197.963, 2734.908
199.340, 1868.502
200.717, 1088.318
202.093, 725.350
203.470, 285.588
204.846, 223.021
206.221, 33.367
207.597, 44.589
208.972, 14.659
210.347, 105.586
211.722, 56.382
213.097, 244.054
214.472, 129.609
215.846, 331.057
217.220, 398.411
218.594, 312.701
219.967, 444.962
221.341, 310.884
222.714, 384.160
224.087, 192.272
225.460, 0.702
226.832, 162.952
228.204, 614.556
229.577, 719.055
230.948, 1457.596
232.320, 1998.183
233.692, 2933.813
235.063, 3839.488
236.434, 4633.208
237.805, 5347.975
239.175, 4933.785
240.545, 4536.524
241.916, 3557.150
243.286, 3042.584
244.655, 2516.783
246.025, 1953.663
247.394, 1879.268
248.763, 1409.727
250.132, 1427.336
251.501, 1226.210
252.869, 1149.317
254.237, 1117.548
255.605, 1037.832
256.973, 1205.169
258.340, 982.559
259.708, 998.001
261.075, 970.497
262.442, 849.048
263.808, 877.650
265.175, 642.309
266.541, 744.019
267.907, 623.781
269.273, 709.600
270.639, 712.470
272.004, 775.394
273.369, 1094.318
274.734, 940.149
276.099, 1316.359
277.463, 1349.363
278.828, 1729.959
280.192, 2063.010
281.556, 2146.411
282.919, 2524.079
284.283, 2811.961
285.646, 3351.006
287.009, 3700.178
288.372, 4276.428
289.734, 5348.723
291.097, 5918.039
292.459, 7289.366
293.821, 8268.689
295.183, 10310.006
296.544, 12008.309
297.905, 13679.592
299.266, 15524.820
300.627, 15383.952
301.988, 16097.934
303.348, 14605.766
304.709, 13254.463
306.069, 11726.044
307.428, 10015.519
308.788, 9408.897
310.147, 8178.191
311.507, 8060.406
312.865, 7603.553
314.224, 7564.637
315.583, 7400.664
316.941, 6635.643
318.299, 6212.574
319.657, 5127.465
321.015, 4128.316
322.372, 3536.929
323.729, 2533.281
325.086, 2090.249
326.443, 1454.727
327.800, 1034.550
329.156, 807.722
330.512, 392.380
331.868, 361.010
333.224, 32.676
334.579, 154.366
335.935, 145.906
337.290, 179.204
338.645, 45.534
339.999, 151.862
341.354, 22.783
342.708, 157.550
344.062, 6.089
345.416, 4.745
346.769, 141.585
348.123, 253.064
349.476, 219.747
350.829, 458.467
352.182, 586.221
353.534, 966.010
354.887, 1151.834
356.239, 1350.693
357.591, 1783.586
358.942, 1845.514
360.294, 2439.473
361.645, 2497.464
362.996, 2634.486
364.347, 2765.541
365.698, 2723.625
367.048, 3097.739
368.398, 2970.883
369.748, 3304.906
371.098, 3521.351
372.448, 3642.797
373.797, 4181.653
375.146, 4287.715
376.495, 5025.108
377.844, 5111.793
379.192, 5593.951
380.540, 6042.724
381.889, 5918.904
383.236, 6505.938
384.584, 6123.020
385.932, 6238.577
387.279, 5906.685
388.626, 5434.225
389.973, 5458.146
391.319, 4762.307
392.666, 4968.036
394.012, 4519.543
395.358, 4042.265
396.704, 4025.180
398.049, 3654.419
399.394, 3429.690
400.740, 2978.995
402.084, 3132.333
403.429, 2953.703
404.774, 2870.109
406.118, 2906.549
407.462, 2642.026
408.806, 2504.539
410.150, 2560.092
411.493, 2426.685
412.836, 2491.316
414.179, 2218.986
415.522, 2434.692
416.865, 2316.436
418.207, 2410.214
419.549, 2678.029
420.891, 2484.880
422.233, 2698.768
423.575, 2383.689
424.916, 2053.647
426.257, 2071.642
427.598, 1459.672
428.939, 1333.736
430.279, 878.835
431.619, 785.969
432.959, 633.138
434.299, 371.341
435.639, 609.574
436.978, 387.842
438.318, 399.131
439.657, 454.441
440.996, 396.767
442.334, 474.106
443.673, 343.459
445.011, 362.823
446.349, 350.197
447.687, 406.580
449.024, 527.972
450.361, 490.371
451.699, 649.779
453.036, 568.196
454.372, 723.620
455.709, 813.053
457.045, 929.493
458.381, 1106.102
459.717, 1246.748
461.053, 1445.864
462.388, 1624.340
463.724, 1769.824
465.059, 2015.320
466.394, 2252.747
467.728, 2587.346
469.063, 2874.877
470.397, 3248.420
471.731, 3721.978
473.065, 3871.549
474.398, 4803.133
475.732, 5168.734
477.065, 6224.350
478.398, 6878.978
479.731, 7937.623
481.063, 9726.282
482.396, 10982.959
483.728, 13447.651
485.060, 16585.363
486.391, 20519.096
487.723, 25461.852
489.054, 31125.635
490.385, 38200.434
491.716, 42681.277
493.047, 48217.152
494.377, 47490.754
495.708, 44286.684
497.038, 40655.379
498.368, 33782.059
499.697, 29858.219
501.027, 26050.809
502.356, 22946.395
503.685, 20958.803
505.014, 18087.596
506.342, 16020.382
507.671, 13287.120
508.999, 10373.500
510.327, 8460.933
511.655, 6327.449
512.982, 5276.016
514.310, 4090.633
515.637, 3120.319
516.964, 2662.045
518.291, 2110.842
519.617, 1994.680
520.944, 1619.607
522.270, 1111.651
523.596, 1051.764
524.921, 848.008
526.247, 756.308
527.572, 511.724
528.897, 200.244
530.222, 340.843
531.547, 160.616
532.871, 312.464
534.196, 20.474
535.520, 187.630
536.844, 20.945
538.167, 257.592
539.491, 100.055
540.814, 196.362
542.137, 251.580
543.460, 151.719
544.783, 287.776
546.105, 327.809
547.427, 204.881
548.749, 177.984
550.071, 183.130
551.393, 281.320
552.714, 130.604
554.035, 190.908
555.356, 50.262
556.677, 31.395
557.998, 53.080
559.318, 97.797
560.638, 39.543
561.958, 398.320
563.278, 280.127
564.597, 306.963
565.917, 546.828
567.236, 466.723
568.555, 870.646
569.874, 829.598
571.192, 1096.578
572.511, 1539.586
573.829, 1629.623
575.147, 2214.687
576.464, 2361.778
577.782, 2854.896
579.099, 3304.043
580.416, 3644.215
581.733, 4163.414
583.050, 4560.639
584.366, 4769.892
585.683, 4945.169
586.999, 4402.473
588.315, 4355.801
589.630, 3680.154
590.946, 3418.535
592.261, 2932.939
593.576, 2640.367
594.891, 2659.819
596.206, 2198.298
597.520, 2080.799
598.834, 2094.323
600.148, 1961.873
601.462, 2016.445
602.776, 1976.040
604.089, 2231.658
605.402, 2520.302
606.715, 2685.967
608.028, 3098.654
609.341, 3269.366
610.653, 3685.101
611.965, 4016.855
613.277, 4502.633
614.589, 5123.434
615.901, 5378.256
617.212, 6351.102
618.523, 6809.969
619.834, 7611.854
621.145, 8681.765
622.456, 9384.697
623.766, 10536.650
625.076, 11442.623
626.386, 12711.621
627.696, 13625.635
629.006, 14837.674
630.315, 16149.730
631.624, 16667.811
632.933, 17945.906
634.242, 18583.029
635.551, 18828.168
636.859, 19561.326
638.167, 18944.506
639.475, 19169.707
640.783, 18152.924
642.090, 17767.164
643.398, 17211.420
644.705, 15534.691
646.012, 15117.988
647.318, 13870.301
648.625, 12542.631
649.931, 11781.982
651.237, 10681.348
652.543, 9546.750
653.849, 8955.168
655.155, 7825.994
656.460, 7440.574
657.765, 6417.559
659.070, 5906.266
660.375, 5450.721
661.679, 4808.928
662.984, 4354.783
664.288, 3995.898
665.592, 3414.990
666.895, 3268.578
668.199, 2994.938
669.502, 2780.533
670.805, 2420.361
672.108, 2278.148
673.411, 2367.996
674.713, 1855.430
676.016, 1944.969
677.318, 1730.883
678.620, 1648.967
679.921, 1688.219
681.223, 1530.055
682.524, 1397.852
683.825, 1364.309
685.126, 1444.730
686.427, 1320.146
687.727, 1409.576
689.028, 1413.789
690.328, 1214.311
691.628, 1238.822
692.927, 1357.492
694.227, 1305.316
695.526, 1201.939
696.825, 1216.643
698.124, 1201.127
699.423, 1072.799
700.721, 913.758
702.020, 1080.898
703.318, 930.627
704.616, 989.371
705.913, 971.553
707.211, 632.428
708.508, 793.758
709.805, 723.336
711.102, 723.727
712.399, 784.945
713.695, 610.865
714.992, 858.777
716.288, 891.682
717.584, 800.572
718.879, 970.457
720.175, 998.330
721.470, 1067.193
722.765, 1313.047
724.060, 1481.891
725.355, 1837.723
726.649, 2001.543
727.944, 2565.352
729.238, 2872.148
730.532, 3538.938
731.825, 4241.711
733.119, 5306.473
734.412, 6476.225
735.705, 7634.961
736.998, 9858.688
738.291, 11857.398
739.584, 14288.102
740.876, 17478.783
742.168, 19613.461
743.460, 21660.119
744.752, 21770.768
746.043, 20398.396
747.334, 19038.016
748.626, 16275.617
749.916, 14100.207
751.207, 12086.781
752.498, 10172.344
753.788, 8842.887
755.078, 7367.418
756.368, 6700.932
757.658, 6041.430
758.947, 4918.914
760.237, 4462.381
761.526, 4195.832
762.815, 3886.268
764.104, 3776.688
765.392, 3579.090
766.680, 3339.475
767.969, 3257.844
769.257, 3024.195
770.544, 2902.529
771.832, 2679.850
773.119, 2475.148
774.406, 2231.432
775.693, 1918.699
776.980, 1999.949
778.267, 1688.176
779.553, 1418.389
780.839, 1396.582
782.125, 995.758
783.411, 1024.914
784.697, 1033.051
785.982, 697.172
787.267, 854.271
788.552, 576.355
789.837, 671.418
791.122, 701.461
792.406, 418.486
793.690, 673.490
794.974, 325.475
796.258, 509.443
797.542, 552.389
798.825, 299.318
800.108, 547.229
801.391, 304.119
802.674, 287.016
803.957, 394.893
805.239, 172.754
806.522, 348.598
807.804, 246.418
809.085, 97.225
810.367, 274.004
811.649, 3.238
812.930, 282.469
814.211, 81.156
815.492, 19.191
816.772, 299.391
818.053, 80.047
819.333, 30.594
820.613, 27.779
821.893, 129.900
823.173, 28.287
824.452, 6.424
825.732, 56.504
827.011, 78.473
828.290, 66.586
829.568, 55.256
830.847, 137.943
832.125, 236.281
833.403, 63.811
834.681, 296.441
835.959, 9.291
837.236, 243.211
838.514, 195.324
839.791, 11.393
841.068, 339.947
842.345, 13.469
843.621, 247.172
844.898, 232.004
846.174, 92.021
847.450, 175.146
848.726, 109.428
850.001, 75.770
851.277, 88.193
852.552, 13.514
853.827, 19.816
855.102, 103.299
856.376, 207.818
857.651, 297.395
858.925, 522.990
860.199, 530.602
861.473, 588.229
862.746, 831.898
864.020, 844.572
865.293, 883.266
866.566, 848.951
867.839, 1038.615
869.112, 1219.260
870.384, 1268.887
871.656, 1439.492
872.928, 1552.078
874.200, 1576.648
875.472, 2083.197
876.744, 1942.727
878.015, 2327.236
879.286, 2466.730
880.557, 2342.205
881.828, 2754.664
883.098, 2613.104
884.369, 2884.527
885.639, 2788.932
886.909, 2558.320
888.178, 2536.689
889.448, 2511.045
890.717, 2324.381
891.987, 2252.705
893.256, 2155.010
894.524, 2105.299
895.793, 2011.035
897.061, 1959.654
898.330, 1859.076
899.598, 1781.305
900.865, 1743.518
902.133, 1496.719
903.401, 1602.902
904.668, 1573.072
905.935, 1325.230
907.202, 1483.373
908.468, 1489.504
909.735, 1237.621
911.001, 1126.723
912.267, 1233.812
913.533, 1055.891
914.799, 1246.955
916.064, 1066.010
917.330, 1072.051
918.595, 1052.080
919.860, 891.096
921.124, 1021.105
922.389, 672.100
923.653, 947.082
924.918, 968.057
926.182, 812.020
927.445, 792.973
928.709, 851.914
929.972, 716.846
931.236, 838.770
932.499, 676.680
933.761, 795.586
935.024, 662.480
936.286, 655.365
937.549, 717.244
938.811, 644.115
940.073, 937.975
941.334, 842.830
942.596, 659.676
943.857, 835.514
945.118, 604.348
946.379, 774.172
947.640, 801.988
948.900, 682.801
950.161, 764.527
951.421, 592.326
952.681, 570.117
953.940, 536.047
955.200, 417.773
956.459, 466.711
957.719, 331.711
958.978, 362.477
960.236, 511.939
961.495, 318.361
962.753, 181.119
964.012, 494.328
965.270, 171.068
966.527, 453.094
967.785, 331.070
969.043, 145.805
970.300, 548.018
971.557, 130.617
972.814, 375.732
974.071, 137.090
975.327, 208.223
976.583, 481.137
977.840, 283.104
979.095, 292.023
980.351, 426.369
981.607, 555.623
982.862, 403.512
984.117, 598.244
985.372, 578.824
986.627, 739.830
987.882, 671.891
989.136, 865.303
990.390, 1166.764
991.644, 1091.250
992.898, 1419.736
994.152, 1549.451
995.405, 1548.928
996.659, 2057.424
997.912, 1910.777
999.165, 2466.016
1000.417, 2773.457
1001.670, 2862.096
1002.922, 3156.035
1004.174, 3175.750
1005.426, 3029.584
1006.678, 2976.684
1007.930, 2791.836
1009.181, 2997.045
1010.432, 2850.277
1011.683, 2908.531
1012.934, 3046.865
1014.185, 2891.223
1015.435, 3061.604
1016.685, 3116.012
1017.935, 2926.447
1019.185, 3228.953
1020.435, 3101.482
1021.684, 3316.039
1022.934, 3449.643
1024.183, 3340.270
1025.432, 3369.924
1026.680, 3136.605
1027.929, 3099.312
1029.177, 2892.051
1030.425, 2617.812
1031.673, 2717.602
1032.921, 2457.457
1034.169, 1907.342
1035.416, 1963.252
1036.663, 1766.193
1037.911, 1688.168
1039.157, 1603.188
1040.404, 1216.240
1041.650, 1398.322
1042.897, 1074.439
1044.143, 1146.586
1045.389, 1136.760
1046.634, 911.969
1047.880, 1135.205
1049.125, 1117.477
1050.371, 1009.785
1051.615, 1487.121
1052.860, 1170.492
1054.105, 1300.893
1055.349, 1514.324
1056.593, 1404.789
1057.837, 1574.287
1059.081, 1552.814
1060.325, 1441.373
1061.568, 1610.961
1062.812, 1454.582
1064.055, 1319.230
1065.298, 1490.910
1066.540, 974.617
1067.783, 1176.355
1069.025, 937.123
1070.267, 803.924
1071.509, 886.756
1072.751, 614.613
1073.993, 725.504
1075.234, 698.422
1076.475, 488.371
1077.716, 563.348
1078.957, 260.354
1080.198, 520.389
1081.438, 573.453
1082.679, 314.545
1083.919, 543.695
1085.159, 389.875
1086.398, 145.084
1087.638, 562.322
1088.877, 158.584
1090.116, 425.877
1091.355, 293.197
1092.594, 146.545
1093.833, 322.916
1095.071, 161.311
1096.309, 109.729
1097.547, 311.172
1098.785, 69.365
1100.023, 71.109
1101.260, 58.607
1102.498, 244.881
1103.735, 126.611
1104.972, 80.869
1106.208, 24.322
1107.445, 32.262
1108.681, 57.139
1109.918, 106.492
1111.154, 6.160
1112.389, 180.135
1113.625, 106.611
1114.860, 25.396
1116.096, 52.773
1117.331, 336.904
1118.566, 57.162
1119.800, 241.848
1121.035, 186.928
1122.269, 294.061
1123.503, 606.293
1124.737, 493.578
1125.971, 389.924
1127.205, 797.346
1128.438, 425.818
1129.671, 679.367
1130.904, 556.965
1132.137, 489.664
1133.370, 972.533
1134.602, 835.436
1135.834, 664.477
1137.066, 1178.885
1138.298, 837.115
1139.530, 1308.104
1140.762, 1141.889
1141.993, 967.443
1143.224, 1603.115
1144.455, 1135.867
1145.686, 1596.723
1146.917, 1683.000
1148.147, 1439.047
1149.377, 1984.186
1150.607, 1980.904
1151.837, 2011.203
1153.067, 2450.959
1154.296, 2156.371
1155.526, 2664.826
1156.755, 2965.309
1157.984, 2650.846
1159.213, 3207.629
1160.441, 3567.084
1161.670, 3473.742
1162.898, 4143.613
1164.126, 3784.076
1165.354, 4185.859
1166.581, 4649.607
1167.809, 4513.473
1169.036, 4900.379
1170.263, 5126.141
1171.490, 4603.129
1172.717, 5435.164
1173.943, 4934.781
1175.170, 4892.900
1176.396, 4963.602
1177.622, 4359.809
1178.848, 4668.059
1180.073, 4204.973
1181.299, 3909.316
1182.524, 4189.707
1183.749, 3461.299
1184.974, 3399.771
1186.199, 3617.920
1187.423, 3157.609
1188.648, 3319.225
1189.872, 3000.039
1191.096, 2492.748
1192.320, 2949.504
1193.543, 2426.967
1194.767, 2405.803
1195.990, 2410.848
1197.213, 1959.373
1198.436, 2290.105
1199.659, 2155.615
1200.881, 1688.430
1202.104, 2068.281
1203.326, 1714.914
1204.548, 1674.732
1205.770, 1558.406
1206.991, 1220.750
1208.213, 1313.291
1209.434, 1111.861
1210.655, 772.361
1211.876, 1207.871
1213.096, 857.391
1214.317, 730.928
1215.537, 964.301
1216.757, 567.656
1217.977, 805.920
1219.197, 608.150
1220.417, 279.576
1221.636, 809.734
1222.855, 408.588
1224.074, 574.652
1225.293, 595.666
1226.512, 320.875
1227.731, 634.793
1228.949, 507.658
1230.167, 76.057
1231.385, 593.850
1232.603, 417.715
1233.820, 149.215
1235.038, 629.846
1236.255, 197.689
1237.472, 529.211
1238.689, 409.678
1239.906, 141.723
1241.122, 770.516
1242.338, 327.092
1243.555, 201.994
1244.771, 619.105
1245.986, 165.082
1247.202, 498.342
1248.417, 508.799
1249.633, 334.238
1250.848, 589.432
1252.063, 283.389
1253.277, 242.133
1254.492, 619.988
1255.706, 163.207
1256.920, 460.408
1258.134, 460.434
1259.348, 107.543
1260.562, 631.732
1261.775, 443.004
1262.988, 27.648
1264.201, 687.781
1265.414, 33.285
1266.627, 414.863
1267.839, 581.500
1269.052, 132.143
1270.264, 524.783
1271.476, 450.422
1272.688, 228.113
1273.899, 528.859
1275.111, 197.658
1276.322, 386.428
1277.533, 535.180
1278.744, 72.916
1279.955, 605.682
1281.165, 386.375
1282.376, 30.082
1283.586, 561.803
1284.796, 0.562
1286.006, 29.355
1287.215, 589.137
1288.425, 198.096
1289.634, 135.695
1290.843, 365.459
1292.052, 83.758
1293.261, 422.055
1294.469, 313.891
1295.678, 49.746
1296.886, 586.615
1298.094, 88.518
1299.302, 213.443
1300.509, 445.404
1301.717, 90.598
1302.924, 484.447
1304.131, 166.539
1305.338, 160.320
1306.545, 630.871
1307.752, 195.123
1308.958, 29.434
1310.164, 544.816
1311.370, 116.723
1312.576, 362.709
1313.782, 480.221
1314.987, 27.180
1316.193, 613.523
1317.398, 459.350
1318.603, 169.314
1319.807, 578.449
1321.012, 185.783
1322.216, 428.352
1323.421, 686.025
1324.625, 64.143
1325.829, 523.789
1327.032, 459.789
1328.236, 151.107
1329.439, 678.215
1330.642, 35.391
1331.845, 176.631
1333.048, 568.938
1334.251, 189.314
1335.453, 527.762
1336.656, 447.168
1337.858, 272.986
1339.060, 736.930
1340.261, 409.609
1341.463, 160.643
1342.664, 961.424
1343.866, 259.047
1345.067, 516.189
1346.267, 853.631
1347.468, 247.861
1348.669, 772.203
1349.869, 722.979
1351.069, 253.150
1352.269, 910.605
1353.469, 426.711
1354.668, 534.533
1355.868, 829.297
1357.067, 423.580
1358.266, 638.539
1359.465, 763.203
1360.664, 165.303
1361.862, 979.010
1363.061, 488.158
1364.259, 289.586
1365.457, 834.844
1366.655, 181.199
1367.852, 498.850
1369.050, 682.607
1370.247, 266.043
1371.444, 470.605
1372.641, 557.230
1373.838, 50.547
1375.035, 643.793
1376.231, 286.783
1377.427, 147.381
1378.623, 842.768
1379.819, 240.881
1381.015, 408.920
1382.211, 854.865
1383.406, 186.508
1384.601, 544.809
1385.796, 566.402
1386.991, 51.877
1388.185, 572.389
1389.380, 223.055
1390.574, 0.926
1391.768, 0.000
##END=



