##NAMES=Inyoite
##RRUFFID=R040161
##IDEAL CHEMISTRY=CaB_3_O_3_(OH)_5_&#183;4H_2_O
##LOCALITY=Kramer deposit, Boron, Kern County, California, USA
##OWNER=RRUFF
##SOURCE=University of Arizona Mineral Museum
##DESCRIPTION=Group of colorless indistinct rounded crystals
##STATUS=The identification of this mineral has been confirmed by X-ray diffraction and chemical analysis
##URL=rruff.info/R040161
##MEASURED CHEMISTRY=Ca_1.00_B_3.00_O_3_(OH)_5_Â·4H_2_O
##PIN_ID=L00113
##ORIENTATION=Laser parallel to b* (0 1 0). Fiducial mark perpendicular to laser is parallel to c [0 0 1]
99.34400, 0.0000000E+00
100.5810, 57.91211
101.8190, 13.98633
103.0560, 217.3926
104.2930, 207.0781
105.5290, 285.2100
106.7660, 589.7725
108.0020, 725.2871
109.2390, 738.6836
110.4750, 564.7090
111.7110, 652.6660
112.9460, 712.3574
114.1820, 950.8633
115.4170, 1157.393
116.6530, 1441.320
117.8880, 1738.092
119.1230, 1975.206
120.3580, 2031.231
121.5920, 2128.807
122.8270, 2790.650
124.0610, 2698.752
125.2950, 3057.127
126.5290, 2856.580
127.7630, 2536.842
128.9970, 2040.678
130.2300, 1886.908
131.4640, 1437.507
132.6970, 1047.422
133.9300, 975.4814
135.1630, 876.3887
136.3950, 789.0566
137.6280, 913.4111
138.8600, 1163.343
140.0920, 1215.797
141.3240, 1555.732
142.5560, 1817.117
143.7880, 2143.923
145.0190, 2645.126
146.2510, 3310.322
147.4820, 3859.823
148.7130, 4721.224
149.9440, 5447.094
151.1750, 5932.791
152.4050, 6325.692
153.6360, 6112.492
154.8660, 6142.205
156.0960, 6036.846
157.3260, 6082.431
158.5560, 6032.971
159.7850, 5420.479
161.0150, 4583.959
162.2440, 4198.424
163.4730, 3980.771
164.7020, 3720.109
165.9310, 3899.184
167.1590, 4217.697
168.3880, 4884.625
169.6160, 5499.865
170.8440, 6541.123
172.0720, 7529.402
173.3000, 8260.119
174.5280, 9145.121
175.7550, 9222.996
176.9820, 9496.805
178.2100, 9580.582
179.4370, 9863.352
180.6630, 9396.141
181.8900, 9427.965
183.1170, 8852.836
184.3430, 8159.764
185.5690, 7779.762
186.7950, 7003.840
188.0210, 6480.002
189.2470, 6053.256
190.4720, 5610.602
191.6970, 4961.086
192.9230, 4771.844
194.1480, 4402.232
195.3730, 4159.246
196.5970, 3561.645
197.8220, 3122.064
199.0460, 2686.580
200.2700, 2311.383
201.4940, 2042.688
202.7180, 1580.199
203.9420, 1164.930
205.1660, 1142.426
206.3890, 932.0430
207.6120, 729.7773
208.8350, 722.6230
210.0580, 685.5801
211.2810, 612.6445
212.5040, 560.6230
213.7260, 479.0820
214.9480, 398.4492
216.1700, 243.9160
217.3920, 139.4746
218.6140, 160.1270
219.8360, 24.86523
221.0570, 116.6875
222.2790, 8.582031
223.5000, 63.53906
224.7210, 12.55859
225.9410, 74.36328
227.1620, 100.7715
228.3820, 202.9629
229.6030, 148.2090
230.8230, 61.51172
232.0430, 73.13281
233.2630, 14.72266
234.4820, 50.73633
235.7020, 40.25000
236.9210, 5.216797
238.1400, 23.36914
239.3590, 177.9922
240.5780, 100.6445
241.7970, 145.3418
243.0150, 123.0840
244.2340, 82.87305
245.4520, 1.289063
246.6700, 107.6055
247.8880, 10.04688
249.1060, 198.5195
250.3230, 319.1113
251.5400, 291.4492
252.7580, 476.4082
253.9750, 328.8945
255.1920, 456.8398
256.4080, 760.1875
257.6250, 751.8906
258.8410, 743.9121
260.0580, 948.2207
261.2740, 808.8047
262.4900, 699.6250
263.7050, 783.6719
264.9210, 757.9355
266.1360, 606.4160
267.3520, 464.1348
268.5670, 413.0742
269.7820, 652.2676
270.9960, 374.6289
272.2110, 598.1406
273.4250, 338.8398
274.6400, 275.7344
275.8540, 143.7910
277.0680, 269.9844
278.2810, 263.2656
279.4950, 283.6328
280.7090, 153.0723
281.9220, 12.31836
283.1350, 52.75195
284.3480, 117.1367
285.5610, 189.4941
286.7730, 231.7520
287.9860, 284.0996
289.1980, 278.5840
290.4100, 159.8457
291.6220, 225.8691
292.8340, 179.7773
294.0460, 134.1777
295.2570, 169.5938
296.4690, 233.0352
297.6800, 149.8770
298.8910, 50.39258
300.1020, 123.9180
301.3120, 132.4668
302.5230, 47.03906
303.7330, 154.6191
304.9440, 199.7715
306.1540, 29.82422
307.3630, 286.5723
308.5730, 138.9824
309.7830, 305.3809
310.9920, 243.7930
312.2010, 414.1914
313.4100, 366.5977
314.6190, 646.0117
315.8280, 639.4434
317.0370, 795.8887
318.2450, 821.3516
319.4530, 867.8223
320.6610, 901.3105
321.8690, 1121.814
323.0770, 1128.332
324.2850, 1133.873
325.4920, 1618.428
326.6990, 1601.000
327.9060, 2705.590
329.1130, 2654.910
330.3200, 2754.820
331.5270, 2753.461
332.7330, 1938.115
333.9390, 1286.787
335.1450, 1470.473
336.3510, 1285.174
337.5570, 1484.848
338.7630, 1567.420
339.9680, 1788.816
341.1740, 1966.066
342.3790, 2031.180
343.5840, 2358.191
344.7890, 2652.074
345.9930, 2788.896
347.1980, 3388.656
348.4020, 3425.375
349.6060, 3806.090
350.8100, 3870.832
352.0140, 4374.594
353.2180, 3958.377
354.4210, 3703.184
355.6250, 3796.008
356.8280, 3102.852
358.0310, 3003.717
359.2340, 2648.605
360.4360, 2330.508
361.6390, 2034.430
362.8410, 1744.371
364.0430, 1489.328
365.2450, 1319.305
366.4470, 1453.297
367.6490, 1385.305
368.8510, 1406.330
370.0520, 1276.373
371.2530, 1526.842
372.4540, 1197.916
373.6550, 1495.004
374.8560, 1304.107
376.0560, 1547.227
377.2570, 1570.744
378.4570, 1619.305
379.6570, 2008.467
380.8570, 2095.641
382.0570, 2217.504
383.2560, 2485.709
384.4560, 2768.926
385.6550, 3033.158
386.8540, 3298.402
388.0530, 3470.660
389.2520, 3348.930
390.4510, 3356.969
391.6490, 3110.303
392.8470, 2810.678
394.0450, 2668.092
395.2430, 2326.541
396.4410, 2262.020
397.6390, 1953.521
398.8360, 1878.049
400.0340, 1793.600
401.2310, 1794.168
402.4280, 1836.756
403.6250, 1796.359
404.8210, 1771.873
406.0180, 1960.555
407.2140, 1803.672
408.4100, 1574.711
409.6060, 1670.758
410.8020, 1495.195
411.9980, 1293.844
413.1930, 1193.633
414.3890, 954.0840
415.5840, 852.7969
416.7790, 636.0684
417.9740, 699.6348
419.1680, 464.9121
420.3630, 473.2266
421.5570, 418.7773
422.7510, 347.7930
423.9450, 330.4805
425.1390, 270.0293
426.3330, 284.3613
427.5270, 326.5703
428.7200, 383.7559
429.9130, 253.1250
431.1060, 367.2539
432.2990, 288.4141
433.4920, 255.7559
434.6840, 11.78125
435.8770, 166.0117
437.0690, 233.1250
438.2610, 445.4375
439.4530, 284.8828
440.6450, 122.8379
441.8360, 370.0938
443.0280, 314.2637
444.2190, 586.6641
445.4100, 490.5586
446.6010, 464.6641
447.7920, 655.2812
448.9820, 714.8223
450.1730, 865.5742
451.3630, 1181.117
452.5530, 1297.660
453.7430, 1501.199
454.9330, 2160.742
456.1230, 2443.281
457.3120, 3149.822
458.5010, 3817.361
459.6910, 4549.902
460.8800, 5566.441
462.0680, 6712.982
463.2570, 7505.521
464.4460, 8344.062
465.6340, 8790.602
466.8220, 8225.141
468.0100, 7403.684
469.1980, 6337.223
470.3860, 5241.762
471.5730, 4196.301
472.7600, 3601.840
473.9480, 2915.383
475.1350, 2201.924
476.3210, 2269.467
477.5080, 1805.008
478.6950, 1451.551
479.8810, 1266.092
481.0670, 1275.635
482.2530, 975.1777
483.4390, 887.7227
484.6250, 763.2676
485.8100, 801.8164
486.9960, 502.3652
488.1810, 593.9199
489.3660, 314.4785
490.5510, 636.0391
491.7360, 384.6035
492.9200, 426.1758
494.1050, 455.7480
495.2890, 314.3281
496.4730, 511.9102
497.6570, 525.5039
498.8400, 612.1055
500.0240, 793.7070
501.2070, 763.3145
502.3910, 768.9258
503.5740, 839.5430
504.7570, 822.9453
505.9400, 926.7930
507.1220, 831.4258
508.3050, 784.0586
509.4870, 729.6953
510.6690, 769.3340
511.8510, 735.9746
513.0330, 625.6191
514.2140, 616.2773
515.3960, 726.9375
516.5770, 747.5996
517.7580, 576.2676
518.9390, 807.9375
520.1200, 495.6230
521.3010, 898.3105
522.4810, 882.0020
523.6610, 925.6953
524.8420, 893.3906
526.0220, 933.0859
527.2010, 1191.781
528.3810, 1210.479
529.5610, 1268.176
530.7400, 1368.852
531.9190, 1443.568
533.0980, 1416.268
534.2770, 1275.967
535.4560, 1190.666
536.6340, 1159.365
537.8120, 1047.062
538.9910, 1094.758
540.1690, 842.4531
541.3460, 729.1465
542.5240, 288.8379
543.7020, 326.5312
544.8790, 272.2227
546.0560, 14.06445
547.2330, 136.6074
548.4100, 10.27539
549.5870, 23.07422
550.7630, 74.46484
551.9400, 224.8887
553.1160, 196.4570
554.2920, 358.1582
555.4680, 98.07422
556.6440, 47.05469
557.8190, 229.0801
558.9950, 292.2168
560.1700, 192.5332
561.3450, 129.9824
562.5200, 65.53711
563.6950, 41.46875
564.8690, 210.5938
566.0440, 62.16016
567.2180, 100.6172
568.3920, 150.1953
569.5660, 118.7988
570.7400, 246.4531
571.9130, 491.0625
573.0870, 390.8145
574.2600, 505.6309
575.4330, 449.5137
576.6060, 685.1172
577.7790, 671.6523
578.9520, 753.7188
580.1240, 835.8184
581.2960, 884.9570
582.4690, 1073.510
583.6410, 1212.746
584.8120, 1232.000
585.9840, 1479.285
587.1560, 1370.607
588.3270, 1703.949
589.4980, 1678.332
590.6690, 1805.711
591.8400, 1888.107
593.0110, 2022.504
594.1810, 2351.904
595.3510, 2524.307
596.5220, 2673.703
597.6920, 3183.096
598.8610, 3465.484
600.0310, 4150.912
601.2010, 4625.449
602.3700, 5369.002
603.5390, 6252.559
604.7080, 7499.115
605.8770, 9019.664
607.0460, 10709.22
608.2140, 12699.77
609.3830, 14996.38
610.5510, 17603.01
611.7190, 20604.67
612.8870, 22897.40
614.0550, 25736.16
615.2220, 27207.91
616.3900, 27351.68
617.5570, 26165.44
618.7240, 23629.20
619.8910, 20171.95
621.0580, 16838.70
622.2240, 13617.44
623.3910, 11263.17
624.5570, 9193.895
625.7230, 7304.615
626.8890, 6173.328
628.0550, 5182.033
629.2200, 4160.730
630.3860, 3495.420
631.5510, 3239.102
632.7160, 2377.777
633.8810, 2126.439
635.0460, 1907.309
636.2100, 1529.957
637.3750, 1675.754
638.5390, 1265.385
639.7030, 1211.008
640.8670, 1239.953
642.0310, 1258.617
643.1950, 1205.521
644.3580, 1289.434
645.5210, 1118.549
646.6850, 1099.113
647.8480, 1036.668
649.0100, 1231.211
650.1730, 989.7461
651.3350, 716.2715
652.4980, 920.7832
653.6600, 848.3496
654.8220, 880.8398
655.9840, 924.3203
657.1450, 702.2461
658.3070, 692.7031
659.4680, 784.1484
660.6300, 547.5820
661.7910, 466.0039
662.9510, 633.4141
664.1120, 479.8105
665.2730, 596.1953
666.4330, 527.5684
667.5930, 787.9258
668.7530, 412.2715
669.9130, 671.6055
671.0730, 443.9277
672.2320, 527.2324
673.3920, 707.5273
674.5510, 843.8066
675.7100, 651.0742
676.8690, 750.3262
678.0280, 335.5645
679.1860, 651.7871
680.3450, 497.0020
681.5030, 407.1973
682.6610, 579.4141
683.8190, 520.5820
684.9770, 664.5625
686.1340, 739.9375
687.2920, 597.2188
688.4490, 668.5391
689.6060, 796.3867
690.7630, 580.1641
691.9200, 641.0488
693.0760, 542.3555
694.2330, 579.9492
695.3890, 687.6211
696.5450, 588.8906
697.7010, 492.1504
698.8570, 521.8047
700.0130, 483.4395
701.1680, 644.2344
702.3230, 538.2402
703.4780, 495.9688
704.6330, 463.8555
705.7880, 613.0449
706.9430, 674.1816
708.0970, 853.6309
709.2520, 817.8809
710.4060, 755.0117
711.5600, 674.0566
712.7140, 713.9023
713.8670, 1014.734
715.0210, 843.6133
716.1740, 1168.668
717.3270, 991.8555
718.4800, 1196.662
719.6330, 1560.451
720.7860, 1424.508
721.9380, 2005.283
723.0910, 2161.039
724.2430, 2729.777
725.3950, 3261.498
726.5470, 3666.219
727.6980, 4329.906
728.8500, 5174.568
730.0010, 5649.334
731.1530, 5685.959
732.3040, 5433.727
733.4550, 5095.369
734.6050, 4517.934
735.7560, 3914.482
736.9060, 3215.010
738.0560, 2624.254
739.2060, 2224.850
740.3560, 1661.896
741.5060, 1333.162
742.6560, 1203.117
743.8050, 998.8242
744.9540, 954.7383
746.1030, 504.0859
747.2520, 854.7773
748.4010, 519.3145
749.5500, 414.3398
750.6980, 571.2988
751.8460, 314.7070
752.9950, 473.1934
754.1420, 388.6777
755.2900, 211.9863
756.4380, 228.1016
757.5850, 197.0469
758.7330, 303.1055
759.8800, 503.1367
761.0270, 523.1426
762.1730, 440.3477
763.3200, 470.2949
764.4670, 333.2129
765.6130, 289.1055
766.7590, 370.9668
767.9050, 473.8008
769.0510, 431.6094
770.1960, 375.3867
771.3420, 340.1367
772.4870, 162.8574
773.6320, 213.5469
774.7770, 16.20703
775.9220, 276.8203
777.0670, 335.4062
778.2110, 148.9609
779.3560, 196.4844
780.5000, 151.9785
781.6440, 58.43945
782.7880, 124.8613
783.9320, 317.2480
785.0750, 286.6074
786.2180, 282.9355
787.3620, 254.2344
788.5050, 280.5059
789.6480, 214.7480
790.7900, 198.9609
791.9330, 377.1445
793.0750, 249.2988
794.2170, 48.42188
795.3590, 305.5039
796.5010, 320.5566
797.6430, 237.5820
798.7850, 355.5742
799.9260, 398.5430
801.0670, 323.4766
802.2080, 799.3848
803.3490, 587.2617
804.4900, 1023.107
805.6310, 826.9277
806.7710, 815.7168
807.9110, 653.4746
809.0510, 590.5449
810.1910, 760.9062
811.3310, 487.5801
812.4710, 635.2227
813.6100, 653.8359
814.7490, 316.4199
815.8880, 259.9746
817.0270, 349.4980
818.1660, 256.9941
819.3050, 69.46094
820.4430, 281.8887
821.5820, 35.71289
822.7200, 181.6113
823.8580, 162.9258
824.9950, 16.21094
826.1330, 71.46094
827.2710, 88.30859
828.4080, 27.85742
829.5450, 158.0508
830.6820, 98.28125
831.8190, 30.41211
832.9560, 10.85938
834.0920, 106.8887
835.2280, 111.3281
836.3650, 188.6055
837.5010, 209.0859
838.6360, 71.10156
839.7720, 137.7344
840.9080, 55.69531
842.0430, 175.2656
843.1780, 32.80078
844.3130, 1.937500
845.4480, 48.12891
846.5830, 39.60938
847.7170, 161.3008
848.8520, 204.9648
849.9860, 217.6016
851.1200, 106.7930
852.2540, 38.70703
853.3870, 29.16797
854.5210, 247.5859
855.6540, 259.9727
856.7880, 138.5586
857.9210, 402.8906
859.0540, 223.1914
860.1860, 243.4688
861.3190, 305.7109
862.4510, 49.92969
863.5840, 428.1094
864.7160, 305.2578
865.8480, 39.38672
866.9790, 332.4688
868.1110, 1.531250
869.2420, 41.53906
870.3740, 195.5117
871.5050, 261.4570
872.6360, 453.3711
873.7660, 120.7383
874.8970, 397.9648
876.0280, 39.44141
877.1580, 4.007813
878.2880, 82.41016
879.4180, 107.7852
880.5480, 7.089844
881.6770, 192.4258
882.8070, 198.2969
883.9360, 101.1758
885.0650, 62.15234
886.1940, 285.2070
887.3230, 70.40625
888.4520, 99.30859
889.5800, 42.00391
890.7090, 124.6211
891.8370, 351.2148
892.9650, 26.80078
894.0930, 211.3398
895.2200, 390.8594
896.3480, 315.3594
897.4750, 96.83594
898.6020, 733.2852
899.7290, 555.7148
900.8560, 1011.117
901.9830, 1072.500
903.1090, 1050.859
904.2360, 1050.199
905.3620, 1337.516
906.4880, 1268.820
907.6140, 1557.098
908.7400, 1679.148
909.8650, 1555.387
910.9900, 1798.457
912.1160, 1860.656
913.2410, 1657.844
914.3660, 1817.676
915.4900, 1768.770
916.6150, 1691.590
917.7390, 1429.371
918.8640, 1519.930
919.9880, 1599.008
921.1120, 1634.074
922.2350, 1628.113
923.3590, 1613.145
924.4820, 1763.156
925.6060, 1566.156
926.7290, 1647.066
927.8520, 1817.031
928.9740, 1737.980
930.0970, 1814.453
931.2190, 1464.375
932.3420, 1517.277
933.4640, 1432.164
934.5860, 1533.035
935.7080, 1163.891
936.8290, 1184.738
937.9510, 1039.566
939.0720, 1154.383
940.1930, 1265.188
941.3140, 980.9766
942.4350, 885.7578
943.5560, 918.5195
944.6760, 886.2734
945.7960, 902.0117
946.9170, 969.7344
948.0370, 1313.449
949.1560, 1148.152
950.2760, 1402.844
951.3960, 1339.520
952.5150, 1136.188
953.6340, 1477.844
954.7530, 1386.453
955.8720, 1323.086
956.9910, 1230.879
958.1090, 1222.355
959.2280, 1191.203
960.3460, 1101.496
961.4640, 1173.117
962.5820, 1090.621
963.6990, 1053.613
964.8170, 756.9922
965.9340, 870.9180
967.0510, 698.1055
968.1690, 592.7773
969.2850, 803.1562
970.4020, 726.1836
971.5190, 605.6523
972.6350, 611.6055
973.7510, 524.0117
974.8670, 472.6680
975.9830, 465.2422
977.0990, 527.6250
978.2150, 612.6445
979.3300, 435.5977
980.4450, 294.6641
981.5600, 243.9062
982.6750, 275.2188
983.7900, 277.7148
984.9050, 295.7031
986.0190, 199.6289
987.1340, 312.8945
988.2480, 411.0156
989.3620, 349.7461
990.4750, 114.0273
991.5890, 153.1484
992.7020, 114.5898
993.8160, 53.03516
994.9290, 197.4766
996.0420, 75.91797
997.1550, 314.3398
998.2670, 282.7812
999.3800, 428.2227
1000.492, 819.5391
1001.604, 740.9844
1002.716, 872.2656
1003.828, 674.6523
1004.940, 707.0938
1006.051, 438.5430
1007.163, 413.9883
1008.274, 556.6992
1009.385, 390.0352
1010.496, 237.9062
1011.606, 300.5430
1012.717, 361.4688
1013.827, 284.6211
1014.937, 470.5547
1016.047, 639.0352
1017.157, 519.1523
1018.267, 319.4102
1019.377, 684.1641
1020.486, 517.4570
1021.595, 674.7891
1022.704, 527.0273
1023.813, 634.2461
1024.922, 265.6250
1026.030, 151.0469
1027.139, 223.7539
1028.247, 576.3281
1029.355, 315.1953
1030.463, 441.8242
1031.571, 262.2734
1032.678, 413.0898
1033.786, 201.0273
1034.893, 243.0664
1036.000, 287.1680
1037.107, 124.3711
1038.214, 268.6836
1039.321, 134.0508
1040.427, 117.4766
1041.533, 372.9062
1042.639, 127.3711
1043.745, 214.8477
1044.851, 191.3438
1045.957, 188.8555
1047.062, 229.3789
1048.168, 599.9141
1049.273, 447.4688
1050.378, 570.0352
1051.482, 471.6250
1052.587, 528.2227
1053.692, 323.8438
1054.796, 744.4766
1055.900, 731.1172
1057.004, 613.7773
1058.108, 508.4492
1059.212, 259.1328
1060.315, 459.8320
1061.418, 766.5469
1062.522, 647.2734
1063.625, 894.0273
1064.728, 833.7969
1065.830, 699.5781
1066.933, 628.3711
1068.035, 710.1836
1069.137, 674.0117
1070.239, 404.8516
1071.341, 693.7070
1072.443, 555.5781
1073.545, 621.4688
1074.646, 771.3672
1075.747, 588.2812
1076.848, 522.2188
1077.949, 648.1719
1079.050, 579.1367
1080.150, 668.1172
1081.251, 860.1172
1082.351, 680.1289
1083.451, 776.1602
1084.551, 701.2109
1085.651, 846.2734
1086.750, 870.3477
1087.850, 833.4492
1088.949, 795.2617
1090.048, 669.7227
1091.147, 501.8945
1092.246, 626.7383
1093.345, 337.9531
1094.443, 283.1914
1095.541, 462.8242
1096.639, 699.0117
1097.737, 405.3438
1098.835, 343.4922
1099.933, 271.8828
1101.030, 84.29688
1102.128, 539.7734
1103.225, 426.2617
1104.322, 543.7695
1105.419, 235.3594
1106.515, 476.9688
1107.612, 409.6445
1108.708, 397.3711
1109.804, 284.1055
1110.900, 265.8828
1111.996, 580.6875
1113.092, 317.5391
1114.187, 562.4023
1115.283, 257.2930
1116.378, 490.1953
1117.473, 569.1211
1118.568, 362.1016
1119.662, 652.1016
1120.757, 596.1250
1121.851, 713.1680
1122.946, 533.0039
1124.040, 399.0859
1125.134, 543.1797
1126.227, 422.2969
1127.321, 263.4258
1128.414, 197.5703
1129.508, 357.7422
1130.601, 300.6797
1131.693, 269.1367
1132.786, 398.3672
1133.879, 382.6133
1134.971, 382.8828
1136.064, 148.1875
1137.156, 188.4961
1138.248, 270.8281
1139.339, 143.1797
1140.431, 249.5859
1141.522, 269.1289
1142.614, 25.71094
1143.705, 98.32031
1144.796, 124.9492
1145.887, 156.5977
1146.977, 99.26953
1148.068, 184.9609
1149.158, 246.7266
1150.248, 221.5508
1151.338, 268.5820
1152.428, 56.29297
1153.518, 102.2148
1154.607, 8.152344
1155.696, 338.1289
1156.785, 81.87109
1157.874, 35.12109
1158.963, 418.1367
1160.052, 20.82812
1161.141, 273.6133
1162.229, 307.0078
1163.317, 114.5078
1164.405, 175.1992
1165.493, 297.6445
1166.581, 276.8398
1167.668, 517.8438
1168.756, 150.8398
1169.843, 539.2500
1170.930, 590.2734
1172.017, 617.4336
1173.103, 280.5195
1174.190, 509.6992
1175.276, 550.8789
1176.363, 584.0742
1177.449, 535.2656
1178.535, 176.4688
1179.620, 148.6797
1180.706, 321.8906
1181.791, 158.9570
1182.877, 432.3477
1183.962, 211.5820
1185.047, 480.8242
1186.131, 622.0703
1187.216, 327.3242
1188.300, 399.5859
1189.385, 419.8555
1190.469, 383.1328
1191.553, 429.7266
1192.637, 544.6953
1193.720, 468.9844
1194.804, 539.2852
1195.887, 598.5898
1196.970, 749.9023
1198.053, 536.2227
1199.136, 304.5469
1200.219, 447.8789
1201.301, 739.2148
1202.383, 558.5547
1203.465, 536.8984
1204.547, 452.2500
1205.629, 414.6055
1206.711, 254.9688
1207.792, 504.3398
1208.874, 486.7109
1209.955, 353.0859
1211.036, 454.4727
1212.117, 446.9336
1213.198, 394.2578
1214.278, 474.6602
1215.359, 415.0625
1216.439, 235.4766
1217.519, 351.8867
1218.599, 86.30078
1219.678, 65.72266
1220.758, 235.1445
1221.837, 23.57422
1222.917, 280.0000
1223.996, 55.42969
1225.075, 8.859375
1226.153, 73.71875
1227.232, 65.65234
1228.310, 17.96875
1229.389, 348.3789
1230.467, 116.7344
1231.545, 456.0938
1232.622, 191.4531
1233.700, 274.8203
1234.777, 296.1797
1235.855, 256.5469
1236.932, 348.9141
1238.009, 242.2852
1239.086, 352.6562
1240.162, 396.0312
1241.239, 493.4062
1242.315, 475.7852
1243.391, 536.2852
1244.467, 346.5469
1245.543, 596.9258
1246.619, 560.3047
1247.694, 580.6875
1248.769, 347.0703
1249.844, 308.4531
1250.919, 839.8359
1251.994, 473.2227
1253.069, 898.6250
1254.144, 424.0273
1255.218, 758.4297
1256.292, 609.8281
1257.366, 656.2305
1258.440, 530.6289
1259.514, 442.0312
1260.587, 452.4375
1261.661, 400.8438
1262.734, 616.2422
1263.807, 485.6484
1264.880, 623.0586
1265.952, 656.4609
1267.025, 683.8633
1268.097, 516.2656
1269.170, 322.6719
1270.242, 556.0742
1271.314, 189.4805
1272.385, 394.8828
1273.457, 729.2852
1274.528, 492.6875
1275.600, 611.0859
1276.671, 347.4883
1277.742, 470.8828
