##NAMES=Inyoite
##RRUFFID=R040161
##IDEAL CHEMISTRY=CaB_3_O_3_(OH)_5_&#183;4H_2_O
##LOCALITY=Kramer deposit, Boron, Kern County, California, USA
##OWNER=RRUFF
##SOURCE=University of Arizona Mineral Museum
##DESCRIPTION=Group of colorless indistinct rounded crystals
##STATUS=The identification of this mineral has been confirmed by X-ray diffraction and chemical analysis
##URL=rruff.info/R040161
##MEASURED CHEMISTRY=Ca_1.00_B_3.00_O_3_(OH)_5_Â·4H_2_O
##PIN_ID=L00092
##ORIENTATION=Laser parallel to (1 0 1). Fiducial mark perpendicular to laser is parallel to b [0 1 0]
93.15500, 0.0000000E+00
94.39300, 162.0146
95.63100, 44.04492
96.86900, 34.92188
98.10600, 16.41309
99.34400, 36.39941
100.5810, 48.56445
101.8190, 158.3438
103.0560, 337.8311
104.2930, 225.5537
105.5290, 457.3486
106.7660, 445.2842
108.0020, 513.6055
109.2390, 371.7080
110.4750, 531.0859
111.7110, 353.3174
112.9460, 550.0352
114.1820, 403.9102
115.4170, 531.6436
116.6530, 646.9795
117.8880, 599.6973
119.1230, 615.6152
120.3580, 775.5781
121.5920, 821.4590
122.8270, 937.1396
124.0610, 1219.513
125.2950, 1301.477
126.5290, 1252.943
127.7630, 984.8301
128.9970, 1037.061
130.2300, 1122.563
131.4640, 1321.235
132.6970, 1384.965
133.9300, 1497.669
135.1630, 1816.279
136.3950, 1738.744
137.6280, 2170.011
138.8600, 2811.044
140.0920, 3122.806
141.3240, 3880.278
142.5560, 4790.455
143.7880, 5476.337
145.0190, 6942.924
146.2510, 8522.219
147.4820, 10709.22
148.7130, 13075.89
149.9440, 15011.22
151.1750, 16084.16
152.4050, 15099.71
153.6360, 12742.82
154.8660, 9903.475
156.0960, 7539.660
157.3260, 6001.364
158.5560, 4950.575
159.7850, 4359.275
161.0150, 3873.449
162.2440, 3984.078
163.4730, 4208.145
164.7020, 4549.633
165.9310, 5278.529
167.1590, 6300.711
168.3880, 7808.818
169.6160, 9543.863
170.8440, 11360.94
172.0720, 13807.08
173.3000, 15963.32
174.5280, 18568.70
175.7550, 21251.20
176.9820, 23979.88
178.2100, 27027.72
179.4370, 29454.74
180.6630, 30498.96
181.8900, 29943.36
183.1170, 27843.97
184.3430, 24139.80
185.5690, 20518.81
186.7950, 17071.11
188.0210, 14440.79
189.2470, 12681.84
190.4720, 11373.27
191.6970, 10617.26
192.9230, 10026.71
194.1480, 9607.711
195.3730, 8854.144
196.5970, 8000.092
197.8220, 7078.613
199.0460, 6082.495
200.2700, 5150.746
201.4940, 4385.359
202.7180, 3768.156
203.9420, 3333.081
205.1660, 3062.131
206.3890, 2607.311
207.6120, 2540.614
208.8350, 2284.042
210.0580, 2144.596
211.2810, 1988.273
212.5040, 1709.073
213.7260, 1356.996
214.9480, 1246.040
216.1700, 871.2188
217.3920, 888.5586
218.6140, 661.0566
219.8360, 502.8457
221.0570, 457.9277
222.2790, 269.1514
223.5000, 310.5576
224.7210, 366.0645
225.9410, 99.66797
227.1620, 146.3691
228.3820, 176.1631
229.6030, 319.0518
230.8230, 162.0322
232.0430, 195.1025
233.2630, 364.2637
234.4820, 375.5117
235.7020, 204.8447
236.9210, 420.2637
238.1400, 516.7656
239.3590, 287.3496
240.5780, 355.3643
241.7970, 328.7207
243.0150, 339.3818
244.2340, 308.2949
245.4520, 523.6514
246.6700, 691.6836
247.8880, 701.3242
249.1060, 890.5195
250.3230, 1002.221
251.5400, 1294.390
252.7580, 1569.993
253.9750, 1785.002
255.1920, 2199.394
256.4080, 2653.142
257.6250, 2798.227
258.8410, 2986.632
260.0580, 3256.340
261.2740, 3114.336
262.4900, 2983.605
263.7050, 2948.137
264.9210, 2759.921
266.1360, 2620.946
267.3520, 2311.203
268.5670, 2164.683
269.7820, 2003.374
270.9960, 1701.273
272.2110, 1838.371
273.4250, 1443.660
274.6400, 1383.134
275.8540, 1267.788
277.0680, 1063.613
278.2810, 971.6074
279.4950, 900.7959
280.7090, 605.7637
281.9220, 658.5840
283.1350, 542.0840
284.3480, 535.5977
285.5610, 323.9023
286.7730, 322.2021
287.9860, 259.5498
289.1980, 380.5059
290.4100, 333.1855
291.6220, 235.8008
292.8340, 351.4395
294.0460, 272.5322
295.2570, 451.0771
296.4690, 466.4072
297.6800, 524.0195
298.8910, 614.3086
300.1020, 521.2109
301.3120, 709.2852
302.5230, 849.4395
303.7330, 872.6162
304.9440, 1087.185
306.1540, 1277.772
307.3630, 1445.889
308.5730, 1714.367
309.7830, 1934.955
310.9920, 2102.438
312.2010, 2494.584
313.4100, 2767.801
314.6190, 3140.090
315.8280, 3554.452
317.0370, 4133.885
318.2450, 4482.393
319.4530, 4957.970
320.6610, 5337.618
321.8690, 5982.336
323.0770, 6518.127
324.2850, 7370.982
325.4920, 7505.910
326.6990, 7699.900
327.9060, 7730.961
329.1130, 7571.086
330.3200, 7014.273
331.5270, 6433.527
332.7330, 5734.840
333.9390, 4843.216
335.1450, 4176.650
336.3510, 3503.141
337.5570, 2938.602
338.7630, 2483.199
339.9680, 2056.168
341.1740, 1706.862
342.3790, 1501.739
343.5840, 1259.033
344.7890, 1318.684
345.9930, 1169.820
347.1980, 1076.877
348.4020, 1105.613
349.6060, 1015.863
350.8100, 1180.602
352.0140, 1021.637
353.2180, 1077.703
354.4210, 1183.804
355.6250, 1149.935
356.8280, 964.0957
358.0310, 850.2871
359.2340, 653.5098
360.4360, 766.7617
361.6390, 739.0410
362.8410, 616.3486
364.0430, 908.6836
365.2450, 594.0449
366.4470, 509.4297
367.6490, 510.8398
368.8510, 703.2725
370.0520, 580.7266
371.2530, 674.2051
372.4540, 776.7031
373.6550, 851.2227
374.8560, 844.7646
376.0560, 831.3262
377.2570, 982.9092
378.4570, 976.5098
379.6570, 1075.132
380.8570, 1056.772
382.0570, 1213.430
383.2560, 1148.107
384.4560, 1300.803
385.6550, 1317.180
386.8540, 1603.414
388.0530, 1375.338
389.2520, 1560.340
390.4510, 1583.408
391.6490, 1428.541
392.8470, 1149.732
394.0450, 1147.982
395.2430, 845.2910
396.4410, 802.6523
397.6390, 1006.066
398.8360, 655.5293
400.0340, 782.0410
401.2310, 897.5977
402.4280, 1035.201
403.6250, 1157.850
404.8210, 1192.537
406.0180, 1276.229
407.2140, 1462.035
408.4100, 1319.842
409.6060, 1363.688
410.8020, 1302.566
411.9980, 948.4824
413.1930, 714.4297
414.3890, 549.4102
415.5840, 389.4238
416.7790, 279.4688
417.9740, 253.5410
419.1680, 87.64453
420.3630, 177.7773
421.5570, 73.93359
422.7510, 160.8789
423.9450, 76.75000
425.1390, 68.64258
426.3330, 132.5527
427.5270, 52.51367
428.7200, 43.48828
429.9130, 242.4746
431.1060, 255.5684
432.2990, 153.7773
433.4920, 181.0527
434.6840, 120.4102
435.8770, 276.8223
437.0690, 263.3672
438.2610, 5.962891
439.4530, 310.7090
440.6450, 137.5352
441.8360, 268.4297
443.0280, 292.4590
444.2190, 206.6406
445.4100, 78.92383
446.6010, 76.25781
447.7920, 135.6367
448.9820, 133.0938
450.1730, 121.6270
451.3630, 107.2305
452.5530, 96.10156
453.7430, 110.2246
454.9330, 201.8008
456.1230, 310.1680
457.3120, 342.5488
458.5010, 501.9395
459.6910, 670.3398
460.8800, 1057.754
462.0680, 1308.178
463.2570, 1533.609
464.4460, 1588.055
465.6340, 1608.809
466.8220, 1475.971
468.0100, 1383.441
469.1980, 1200.922
470.3860, 925.4102
471.5730, 826.9062
472.7600, 567.4102
473.9480, 545.9219
475.1350, 406.7988
476.3210, 232.9824
477.5080, 227.5273
478.6950, 137.0762
479.8810, 46.63672
481.0670, 168.1777
482.2530, 20.27539
483.4390, 148.2305
484.6250, 45.74023
485.8100, 90.75977
486.9960, 129.3418
488.1810, 119.0254
489.3660, 79.20508
490.5510, 93.42773
491.7360, 24.69531
492.9200, 21.06641
494.1050, 176.1211
495.2890, 294.3359
496.4730, 471.5547
497.6570, 582.7773
498.8400, 737.0059
500.0240, 901.2559
501.2070, 1132.512
502.3910, 1287.770
503.5740, 1247.035
504.7570, 1512.299
505.9400, 1617.572
507.1220, 1528.846
508.3050, 1668.131
509.4870, 1686.422
510.6690, 1610.715
511.8510, 1482.023
513.0330, 1579.344
514.2140, 1400.701
515.3960, 1468.070
516.5770, 1315.445
517.7580, 1288.822
518.9390, 1473.197
520.1200, 1479.578
521.3010, 1447.984
522.4810, 1299.391
523.6610, 1601.799
524.8420, 1550.211
526.0220, 1460.639
527.2010, 1235.070
528.3810, 1481.545
529.5610, 1464.043
530.7400, 1506.562
531.9190, 1294.092
533.0980, 1415.625
534.2770, 1474.199
535.4560, 1293.867
536.6340, 1404.531
537.8120, 1250.213
538.9910, 1157.895
540.1690, 1017.576
541.3460, 847.2520
542.5240, 900.9375
543.7020, 919.6387
544.8790, 1050.338
546.0560, 566.0430
547.2330, 789.7441
548.4100, 776.4766
549.5870, 540.2031
550.7630, 673.9297
551.9400, 755.6758
553.1160, 751.4199
554.2920, 917.1602
555.4680, 994.8984
556.6440, 1120.635
557.8190, 1280.369
558.9950, 1242.133
560.1700, 1214.896
561.3450, 1458.668
562.5200, 1514.432
563.6950, 1240.232
564.8690, 1226.000
566.0440, 1399.152
567.2180, 1281.613
568.3920, 1350.541
569.5660, 1234.598
570.7400, 1135.002
571.9130, 1333.543
573.0870, 1233.164
574.2600, 1149.305
575.4330, 1292.844
576.6060, 1222.578
577.7790, 1252.408
578.9520, 1409.900
580.1240, 1460.047
581.2960, 1574.520
582.4690, 1613.814
583.6410, 1609.535
584.8120, 1774.742
585.9840, 1918.877
587.1560, 1784.029
588.3270, 1978.250
589.4980, 2289.172
590.6690, 2348.166
591.8400, 2657.715
593.0110, 2751.986
594.1810, 3193.822
595.3510, 3691.664
596.5220, 3919.512
597.6920, 4694.369
598.8610, 5191.230
600.0310, 6129.098
601.2010, 6918.973
602.3700, 8052.852
603.5390, 9442.738
604.7080, 11157.63
605.8770, 13208.53
607.0460, 15601.43
608.2140, 18302.34
609.3830, 21470.25
610.5510, 25124.16
611.7190, 29021.09
612.8870, 32387.03
614.0550, 35489.96
615.2220, 36900.44
616.3900, 37149.39
617.5570, 35233.95
618.7240, 31562.92
619.8910, 26942.88
621.0580, 22564.93
622.2240, 18337.90
623.3910, 15152.09
624.5570, 12322.07
625.7230, 9911.342
626.8890, 8338.818
628.0550, 6915.984
629.2200, 5814.955
630.3860, 5043.801
631.5510, 4329.633
632.7160, 3651.936
633.8810, 3434.758
635.0460, 2744.086
636.2100, 2522.121
637.3750, 2457.160
638.5390, 2208.203
639.7030, 2151.131
640.8670, 2063.186
642.0310, 1934.564
643.1950, 1788.703
644.3580, 1735.771
645.5210, 1661.578
646.6850, 1534.449
647.8480, 1606.604
649.0100, 1502.691
650.1730, 1504.150
651.3350, 1427.750
652.4980, 1505.789
653.6600, 1558.863
654.8220, 1412.668
655.9840, 1280.320
657.1450, 1292.432
658.3070, 1520.549
659.4680, 1460.668
660.6300, 1529.301
661.7910, 1388.604
662.9510, 1489.729
664.1120, 1448.857
665.2730, 1504.676
666.4330, 1401.525
667.5930, 1545.533
668.7530, 1469.180
669.9130, 1607.035
671.0730, 1736.281
672.2320, 1633.119
673.3920, 1877.023
674.5510, 1850.262
675.7100, 1907.395
676.8690, 2013.328
678.0280, 1869.471
679.1860, 1931.197
680.3450, 2169.383
681.5030, 2102.854
682.6610, 2274.832
683.8190, 2349.945
684.9770, 2049.266
686.1340, 2231.373
687.2920, 1973.818
688.4490, 2133.477
689.6060, 1958.596
690.7630, 2083.770
691.9200, 2091.857
693.0760, 2008.461
694.2330, 2014.535
695.3890, 2041.918
696.5450, 1987.844
697.7010, 1938.969
698.8570, 1765.928
700.0130, 1871.666
701.1680, 1709.178
702.3230, 1661.779
703.4780, 1820.771
704.6330, 1831.537
705.7880, 1790.783
706.9430, 1688.277
708.0970, 1556.979
709.2520, 1565.172
710.4060, 1373.324
711.5600, 1300.537
712.7140, 1394.809
713.8670, 1210.117
715.0210, 1527.541
716.1740, 1567.924
717.3270, 1606.572
718.4800, 1444.084
719.6330, 1551.602
720.7860, 1839.195
721.9380, 1808.826
723.0910, 2347.523
724.2430, 2241.293
725.3950, 2787.119
726.5470, 3177.965
727.6980, 3598.836
728.8500, 3985.742
730.0010, 4139.684
731.1530, 4267.662
732.3040, 4079.668
733.4550, 3874.668
734.6050, 3395.658
735.7560, 2716.641
736.9060, 2119.613
738.0560, 1982.578
739.2060, 1590.531
740.3560, 1288.477
741.5060, 1021.412
742.6560, 656.3359
743.8050, 688.2520
744.9540, 499.1582
746.1030, 498.0527
747.2520, 576.9395
748.4010, 427.8145
749.5500, 455.6797
750.6980, 141.5645
751.8460, 389.4082
752.9950, 14.75586
754.1420, 245.0508
755.2900, 3.847656
756.4380, 257.6230
757.5850, 181.3906
758.7330, 224.1484
759.8800, 115.9082
761.0270, 10.66602
762.1730, 213.4336
763.3200, 9.806641
764.4670, 216.9336
765.6130, 88.72070
766.7590, 21.45312
767.9050, 227.3906
769.0510, 169.7676
770.1960, 173.9629
771.3420, 61.69922
772.4870, 67.55078
773.6320, 229.1387
774.7770, 179.8145
775.9220, 112.4824
777.0670, 58.86328
778.2110, 121.7305
779.3560, 40.31250
780.5000, 78.88281
781.6440, 125.4375
782.7880, 32.97852
783.9320, 74.50195
785.0750, 10.99023
786.2180, 130.4844
787.3620, 40.94531
788.5050, 16.60938
789.6480, 7.201172
790.7900, 102.8281
791.9330, 2.541016
793.0750, 34.71680
794.2170, 228.9531
795.3590, 123.1777
796.5010, 143.3887
797.6430, 61.41406
798.7850, 69.72070
799.9260, 152.8379
801.0670, 191.9414
802.2080, 30.97070
803.3490, 32.07031
804.4900, 112.9102
805.6310, 59.03320
806.7710, 46.11914
807.9110, 4.314453
809.0510, 36.45508
810.1910, 125.7969
811.3310, 322.1484
812.4710, 160.2969
813.6100, 30.27148
814.7490, 116.1094
815.8880, 45.47656
817.0270, 104.8203
818.1660, 10.15234
819.3050, 46.54688
820.4430, 163.6953
821.5820, 4.078125
822.7200, 199.1113
823.8580, 85.71289
824.9950, 52.38281
826.1330, 116.4609
827.2710, 65.47852
828.4080, 203.5137
829.5450, 56.49023
830.6820, 25.44727
831.8190, 74.37891
832.9560, 33.29492
834.0920, 96.81250
835.2280, 30.99414
836.3650, 11.22070
837.5010, 62.51953
838.6360, 120.7559
839.7720, 27.86914
840.9080, 11.52734
842.0430, 18.96680
843.1780, 68.54688
844.3130, 54.04492
845.4480, 109.5215
846.5830, 131.9805
847.7170, 183.4258
848.8520, 246.8555
849.9860, 180.2676
851.1200, 2.333984
852.2540, 189.0254
853.3870, 91.36719
854.5210, 260.6914
855.6540, 264.0000
856.7880, 169.2871
857.9210, 302.5605
859.0540, 397.8145
860.1860, 211.0508
861.3190, 335.2695
862.4510, 506.4688
863.5840, 298.6602
864.7160, 381.8359
865.8480, 523.9961
866.9790, 269.1328
868.1110, 193.2539
869.2420, 270.6309
870.3740, 270.7188
871.5050, 371.7871
872.6360, 512.8438
873.7660, 187.8809
874.8970, 342.8984
876.0280, 334.8965
877.1580, 419.8770
878.2880, 368.8418
879.4180, 449.2949
880.5480, 448.7285
881.6770, 494.6445
882.8070, 394.5684
883.9360, 241.4707
885.0650, 341.3633
886.1940, 15.23633
887.3230, 339.0801
888.4520, 253.9062
889.5800, 119.1699
890.7090, 405.9590
891.8370, 385.1367
892.9650, 436.9336
894.0930, 446.1836
895.2200, 241.9648
896.3480, 515.5391
897.4750, 362.7637
898.6020, 610.5039
899.7290, 638.8027
900.8560, 769.0918
901.9830, 967.8145
903.1090, 928.2383
904.2360, 1012.895
905.3620, 1055.908
906.4880, 994.5312
907.6140, 1320.033
908.7400, 1109.322
909.8650, 1353.896
910.9900, 1391.455
912.1160, 1716.000
913.2410, 1681.650
914.3660, 1779.164
915.4900, 2231.342
916.6150, 2174.752
917.7390, 2270.219
918.8640, 2427.254
919.9880, 2959.588
921.1120, 3153.941
922.2350, 3200.352
923.3590, 3863.381
924.4820, 3841.256
925.6060, 4429.680
926.7290, 4453.062
927.8520, 4671.703
928.9740, 4830.484
930.0970, 4828.797
931.2190, 4454.094
932.3420, 4170.379
933.4640, 3953.141
934.5860, 3531.223
935.7080, 3341.471
936.8290, 3124.709
937.9510, 2947.242
939.0720, 2769.742
940.1930, 2517.848
941.3140, 2290.744
942.4350, 1986.205
943.5560, 1932.264
944.6760, 1591.721
945.7960, 1363.102
946.9170, 1406.137
948.0370, 1159.270
949.1560, 1173.590
950.2760, 1010.691
951.3960, 1048.199
952.5150, 936.2363
953.6340, 989.9824
954.7530, 1011.209
955.8720, 837.2891
956.9910, 783.1543
958.1090, 746.2227
959.2280, 782.9434
960.3460, 775.4414
961.4640, 646.4707
962.5820, 630.4316
963.6990, 528.4727
964.8170, 656.9863
965.9340, 616.0215
967.0510, 735.7402
968.1690, 697.9023
969.2850, 643.8574
970.4020, 517.9707
971.5190, 642.2930
972.6350, 635.8340
973.7510, 662.2773
974.8670, 556.3203
975.9830, 564.6211
977.0990, 566.4551
978.2150, 400.0566
979.3300, 469.4727
980.4450, 551.4121
981.5600, 185.3984
982.6750, 456.3809
983.7900, 390.3633
984.9050, 390.3438
986.0190, 238.2500
987.1340, 109.2266
988.2480, 384.0039
989.3620, 129.9805
990.4750, 149.9551
991.5890, 377.9297
992.7020, 137.9023
993.8160, 171.8770
994.9290, 201.8477
996.0420, 248.8223
997.1550, 2.792969
998.2670, 223.1289
999.3800, 84.10156
1000.492, 289.0723
1001.604, 292.0430
1002.716, 20.98633
1003.828, 231.4258
1004.940, 40.39453
1006.051, 170.7031
1007.163, 53.67383
1008.274, 82.64258
1009.385, 243.6113
1010.496, 177.5801
1011.606, 322.3242
1012.717, 263.0684
1013.827, 293.1094
1014.937, 291.0117
1016.047, 214.5781
1017.157, 153.5527
1018.267, 154.8457
1019.377, 213.1621
1020.486, 110.1094
1021.595, 224.0859
1022.704, 157.0664
1023.813, 181.0527
1024.922, 159.7812
1026.030, 28.37500
1027.139, 24.63281
1028.247, 121.3574
1029.355, 81.65625
1030.463, 343.3633
1031.571, 126.4980
1032.678, 188.7246
1033.786, 77.93945
1034.893, 0.5781250
1036.000, 70.78711
1037.107, 158.1973
1038.214, 347.6113
1039.321, 68.07617
1040.427, 310.5469
1041.533, 9.017578
1042.639, 339.5137
1043.745, 344.0117
1044.851, 326.5137
1045.957, 557.0156
1047.062, 218.5410
1048.168, 486.0684
1049.273, 282.6016
1050.378, 351.1367
1051.482, 669.6738
1052.587, 428.2129
1053.692, 692.7578
1054.796, 724.3145
1055.900, 677.8711
1057.004, 634.4336
1058.108, 751.0156
1059.212, 597.6055
1060.315, 928.2344
1061.418, 870.8730
1062.522, 600.5195
1063.625, 939.1680
1064.728, 997.8184
1065.830, 870.4727
1066.933, 1092.152
1068.035, 638.8379
1069.137, 671.7168
1070.239, 840.4062
1071.341, 590.1758
1072.443, 832.8945
1073.545, 720.6562
1074.646, 732.4414
1075.747, 701.2539
1076.848, 726.0820
1077.949, 568.9160
1079.050, 478.7949
1080.150, 489.9609
1081.251, 425.0703
1082.351, 502.7520
1083.451, 495.7559
1084.551, 543.7676
1085.651, 742.7812
1086.750, 519.8086
1087.850, 998.8613
1088.949, 468.9141
1090.048, 551.9824
1091.147, 507.0566
1092.246, 814.1641
1093.345, 661.2773
1094.443, 661.3945
1095.541, 431.5410
1096.639, 409.6914
1097.737, 441.8516
1098.835, 592.0176
1099.933, 460.1895
1101.030, 369.3691
1102.128, 560.5859
1103.225, 565.8125
1104.322, 484.0547
1105.419, 437.3047
1106.515, 657.5957
1107.612, 358.8984
1108.708, 707.2148
1109.804, 482.5488
1110.900, 437.8906
1111.996, 469.2383
1113.092, 537.5898
1114.187, 312.9414
1115.283, 270.2988
1116.378, 528.6602
1117.473, 470.0254
1118.568, 288.4043
1119.662, 423.7852
1120.757, 472.1738
1121.851, 334.5645
1122.946, 487.9570
1124.040, 334.3516
1125.134, 523.7500
1126.227, 194.1523
1127.321, 263.5605
1128.414, 153.9707
1129.508, 68.62695
1130.601, 184.7578
1131.693, 290.1465
1132.786, 283.5352
1133.879, 155.9297
1134.971, 34.94922
1136.064, 206.4355
1137.156, 32.17578
1138.248, 60.20312
1139.339, 44.58203
1140.431, 46.96680
1141.522, 195.3535
1142.614, 18.25391
1143.705, 37.87109
1144.796, 155.5000
1145.887, 123.8730
1146.977, 97.75000
1148.068, 136.5781
1149.158, 34.08984
1150.248, 82.22852
1151.338, 7.550781
1152.428, 249.8809
1153.518, 127.2109
1154.607, 67.54297
1155.696, 97.11914
1156.785, 62.68945
1157.874, 84.57227
1158.963, 29.19141
1160.052, 46.31445
1161.141, 63.07812
1162.229, 179.4453
1163.317, 94.64453
1164.405, 140.3887
1165.493, 138.3613
1166.581, 163.1777
1167.668, 192.0117
1168.756, 111.4297
1169.843, 150.4629
1170.930, 133.3164
1172.017, 169.1543
1173.103, 139.3301
1174.190, 174.5020
1175.276, 188.6680
1176.363, 167.6133
1177.449, 201.0488
1178.535, 198.1543
1179.620, 188.3125
1180.706, 223.5664
1181.791, 239.6133
1182.877, 278.7617
1183.962, 341.9043
1185.047, 382.0449
1186.131, 256.1816
1187.216, 157.3164
1188.300, 224.4453
1189.385, 192.5742
1190.469, 459.6953
1191.553, 337.8145
1192.637, 397.9336
1193.720, 184.0449
1194.804, 244.1523
1195.887, 263.2598
1196.970, 404.3613
1198.053, 372.4590
1199.136, 63.55469
1200.219, 228.6426
1201.301, 82.72656
1202.383, 340.8047
1203.465, 315.8789
1204.547, 495.9512
1205.629, 242.0176
1206.711, 187.0801
1207.792, 302.1367
1208.874, 424.1895
1209.955, 358.2363
1211.036, 392.2793
1212.117, 332.3184
1213.198, 453.3496
1214.278, 375.3750
1215.359, 225.3965
1216.439, 452.4141
1217.519, 280.4238
1218.599, 377.4297
1219.678, 459.4277
1220.758, 310.4219
1221.837, 491.4082
1222.917, 384.3906
1223.996, 546.3652
1225.075, 473.3359
1226.153, 440.2988
1227.232, 499.9668
1228.310, 429.2090
1229.389, 534.1523
1230.467, 596.0898
1231.545, 635.0332
1232.622, 473.9492
1233.700, 569.8711
1234.777, 586.7832
1235.855, 459.6895
1236.932, 731.5898
1238.009, 618.4805
1239.086, 778.3672
1240.162, 759.2461
1241.239, 643.1191
1242.315, 837.9824
1243.391, 895.8418
1244.467, 947.6914
1245.543, 852.5352
1246.619, 919.3730
1247.694, 791.2012
1248.769, 828.0254
1249.844, 1073.840
1250.919, 950.6504
1251.994, 864.4492
1253.069, 964.2461
1254.144, 804.0312
1255.218, 1100.811
1256.292, 945.5859
1257.366, 1171.352
1258.440, 992.1094
1259.514, 961.4980
1260.587, 1017.242
1261.661, 885.9844
1262.734, 1089.717
1263.807, 957.4414
1264.880, 940.7168
1265.952, 828.4297
1267.025, 823.7969
1268.097, 700.4980
1269.170, 848.1934
1270.242, 758.8809
1271.314, 750.5664
1272.385, 534.4688
