##NAMES=Inyoite
##RRUFFID=R040161
##IDEAL CHEMISTRY=CaB_3_O_3_(OH)_5_&#183;4H_2_O
##LOCALITY=Kramer deposit, Boron, Kern County, California, USA
##OWNER=RRUFF
##SOURCE=University of Arizona Mineral Museum
##DESCRIPTION=Group of colorless indistinct rounded crystals
##STATUS=The identification of this mineral has been confirmed by X-ray diffraction and chemical analysis
##URL=rruff.info/R040161
##MEASURED CHEMISTRY=Ca_1.00_B_3.00_O_3_(OH)_5_Â·4H_2_O
##PIN_ID=L00339
##ORIENTATION=Laser parallel to a* (1 0 0). Fiducial mark perpendicular to laser is parallel to b [0 1 0]
94.39300, 0.0000000E+00
95.63100, 14.85498
96.86900, 5.054688
98.10600, 20.34863
99.34400, 138.1895
100.5810, 368.3438
101.8190, 469.6143
103.0560, 799.8428
104.2930, 811.8330
105.5290, 968.4150
106.7660, 1155.867
108.0020, 1122.868
109.2390, 951.4043
110.4750, 765.6377
111.7110, 768.8691
112.9460, 1129.564
114.1820, 1165.287
115.4170, 1394.569
116.6530, 1595.010
117.8880, 1567.269
119.1230, 1429.082
120.3580, 1416.343
121.5920, 1406.918
122.8270, 1523.592
124.0610, 1603.174
125.2950, 1567.499
126.5290, 1596.421
127.7630, 1708.814
128.9970, 1903.607
130.2300, 2091.847
131.4640, 2382.752
132.6970, 2691.864
133.9300, 2751.849
135.1630, 2720.633
136.3950, 2351.159
137.6280, 2557.385
138.8600, 2466.268
140.0920, 3026.775
141.3240, 3168.881
142.5560, 3750.585
143.7880, 4109.590
145.0190, 4729.857
146.2510, 5731.395
147.4820, 6825.696
148.7130, 7992.408
149.9440, 9047.496
151.1750, 9410.948
152.4050, 8886.753
153.6360, 7768.898
154.8660, 6536.374
156.0960, 5346.171
157.3260, 4579.277
158.5560, 4114.686
159.7850, 3895.387
161.0150, 3728.371
162.2440, 3792.631
163.4730, 4017.598
164.7020, 4489.926
165.9310, 4967.125
167.1590, 5704.951
168.3880, 6740.465
169.6160, 7840.308
170.8440, 9141.069
172.0720, 10818.82
173.3000, 11848.60
174.5280, 12727.45
175.7550, 13731.40
176.9820, 14526.46
178.2100, 15120.64
179.4370, 15573.96
180.6630, 15551.44
181.8900, 14966.06
183.1170, 14046.85
184.3430, 12850.80
185.5690, 11950.92
186.7950, 10910.21
188.0210, 10545.67
189.2470, 10396.36
190.4720, 10785.76
191.6970, 11040.03
192.9230, 11078.80
194.1480, 10885.12
195.3730, 10159.06
196.5970, 9452.551
197.8220, 8099.690
199.0460, 6993.632
200.2700, 5861.551
201.4940, 4971.598
202.7180, 4192.776
203.9420, 3596.079
205.1660, 3106.504
206.3890, 2820.049
207.6120, 2486.714
208.8350, 2081.494
210.0580, 1944.391
211.2810, 1735.404
212.5040, 1432.531
213.7260, 1179.772
214.9480, 1036.125
216.1700, 830.0479
217.3920, 706.1572
218.6140, 573.8301
219.8360, 535.6016
221.0570, 480.4697
222.2790, 358.4326
223.5000, 280.4873
224.7210, 203.6367
225.9410, 140.2363
227.1620, 49.20508
228.3820, 39.62402
229.6030, 33.12891
230.8230, 30.27930
232.0430, 28.06055
233.2630, 40.83789
234.4820, 50.99121
235.7020, 32.06250
236.9210, 18.05957
238.1400, 119.9883
239.3590, 59.84766
240.5780, 104.6582
241.7970, 178.4150
243.0150, 131.2832
244.2340, 34.35840
245.4520, 116.4746
246.6700, 101.7344
247.8880, 566.7520
249.1060, 591.4316
250.3230, 756.6973
251.5400, 858.4863
252.7580, 1053.752
253.9750, 1287.450
255.1920, 1513.545
256.4080, 1590.006
257.6250, 1883.806
258.8410, 1904.922
260.0580, 2184.332
261.2740, 1986.020
262.4900, 1869.967
263.7050, 1886.156
264.9210, 1709.576
266.1360, 1819.220
267.3520, 1626.069
268.5670, 1697.120
269.7820, 1413.355
270.9960, 1504.774
272.2110, 1193.360
273.4250, 1089.110
274.6400, 1086.016
275.8540, 823.0693
277.0680, 741.2656
278.2810, 555.5967
279.4950, 524.0557
280.7090, 324.6748
281.9220, 337.3379
283.1350, 116.4971
284.3480, 128.5039
285.5610, 41.20410
286.7730, 20.47070
287.9860, 300.5742
289.1980, 58.27539
290.4100, 249.9102
291.6220, 117.0459
292.8340, 141.5957
294.0460, 131.4287
295.2570, 30.56836
296.4690, 190.3613
297.6800, 145.7881
298.8910, 151.1543
300.1020, 52.63281
301.3120, 126.8975
302.5230, 95.09961
303.7330, 3.056641
304.9440, 239.0273
306.1540, 430.1016
307.3630, 542.2363
308.5730, 574.4307
309.7830, 1027.674
310.9920, 908.9570
312.2010, 1099.289
313.4100, 1509.644
314.6190, 1533.993
315.8280, 1979.401
317.0370, 2265.866
318.2450, 2509.389
319.4530, 2913.969
320.6610, 3406.605
321.8690, 3909.301
323.0770, 4303.052
324.2850, 4593.988
325.4920, 4820.721
326.6990, 4924.637
327.9060, 4969.609
329.1130, 4854.635
330.3200, 4460.711
331.5270, 4296.841
332.7330, 3776.021
333.9390, 3148.254
335.1450, 2758.535
336.3510, 2323.856
337.5570, 2073.144
338.7630, 1795.398
339.9680, 1324.630
341.1740, 1266.857
342.3790, 983.0322
343.5840, 732.2041
344.7890, 667.3799
345.9930, 429.5889
347.1980, 560.8369
348.4020, 676.1240
349.6060, 535.4502
350.8100, 627.8154
352.0140, 423.2168
353.2180, 468.6562
354.4210, 444.1328
355.6250, 535.6445
356.8280, 574.1924
358.0310, 565.7754
359.2340, 631.4639
360.4360, 702.0459
361.6390, 747.7324
362.8410, 754.4531
364.0430, 913.2061
365.2450, 1077.332
366.4470, 1403.812
367.6490, 1589.663
368.8510, 1914.546
370.0520, 2302.459
371.2530, 2426.406
372.4540, 2796.383
373.6550, 2994.389
374.8560, 3113.427
376.0560, 3204.141
377.2570, 3369.911
378.4570, 3246.508
379.6570, 3358.960
380.8570, 3569.754
382.0570, 3951.758
383.2560, 3965.614
384.4560, 4375.973
385.6550, 4648.285
386.8540, 4919.434
388.0530, 5095.035
389.2520, 5342.451
390.4510, 5278.072
391.6490, 5243.756
392.8470, 5209.503
394.0450, 4862.338
395.2430, 4336.257
396.4410, 4028.315
397.6390, 3759.445
398.8360, 3818.627
400.0340, 3756.873
401.2310, 3753.168
402.4280, 3808.531
403.6250, 3963.956
404.8210, 4010.820
406.0180, 4096.335
407.2140, 4104.895
408.4100, 3856.502
409.6060, 3589.791
410.8020, 3146.510
411.9980, 2661.975
413.1930, 2342.785
414.3890, 1934.447
415.5840, 1469.928
416.7790, 1239.840
417.9740, 945.7871
419.1680, 621.7637
420.3630, 499.7734
421.5570, 468.8125
422.7510, 346.8809
423.9450, 172.9785
425.1390, 50.10547
426.3330, 69.23047
427.5270, 49.35938
428.7200, 70.51172
429.9130, 168.3672
431.1060, 168.8809
432.2990, 218.0820
433.4920, 181.3555
434.6840, 176.3848
435.8770, 188.0449
437.0690, 111.0762
438.2610, 23.06641
439.4530, 222.9551
440.6450, 67.92383
441.8360, 1.929688
443.0280, 146.4102
444.2190, 51.39062
445.4100, 45.03906
446.6010, 188.0938
447.7920, 13.51953
448.9820, 229.6699
450.1730, 195.8438
451.3630, 415.0410
452.5530, 846.2598
453.7430, 1028.502
454.9330, 1238.768
456.1230, 1632.055
457.3120, 2161.365
458.5010, 2402.695
459.6910, 3004.051
460.8800, 3491.426
462.0680, 3922.824
463.2570, 4270.246
464.4460, 4311.566
465.6340, 4260.506
466.8220, 4027.629
468.0100, 3650.133
469.1980, 3120.654
470.3860, 2523.848
471.5730, 1925.760
472.7600, 1408.340
473.9480, 1151.939
475.1350, 708.5586
476.3210, 743.1953
477.5080, 663.8516
478.6950, 326.5254
479.8810, 439.2168
481.0670, 422.9277
482.2530, 388.6543
483.4390, 401.4023
484.6250, 314.1660
485.8100, 258.9492
486.9960, 335.7500
488.1810, 424.5723
489.3660, 530.4121
490.5510, 624.2676
491.7360, 640.1406
492.9200, 619.0352
494.1050, 663.9453
495.2890, 777.8730
496.4730, 1113.818
497.6570, 1084.779
498.8400, 1431.758
500.0240, 1486.756
501.2070, 1478.771
502.3910, 1623.803
503.5740, 1527.863
504.7570, 1815.941
505.9400, 1784.041
507.1220, 1769.154
508.3050, 1553.289
509.4870, 1640.463
510.6690, 1569.654
511.8510, 1414.875
513.0330, 1322.115
514.2140, 1318.760
515.3960, 1254.146
516.5770, 1378.027
517.7580, 1343.400
518.9390, 1449.801
520.1200, 1444.203
521.3010, 1332.672
522.4810, 1454.137
523.6610, 1526.619
524.8420, 1570.119
526.0220, 1469.648
527.2010, 1512.193
528.3810, 1231.533
529.5610, 1318.348
530.7400, 1160.959
531.9190, 1238.578
533.0980, 1130.211
534.2770, 1123.176
535.4560, 922.6035
536.6340, 713.9492
537.8120, 527.5527
538.9910, 625.3652
540.1690, 665.3965
541.3460, 449.8477
542.5240, 434.6348
543.7020, 279.1406
544.8790, 366.5059
546.0560, 153.1855
547.2330, 244.7637
548.4100, 210.9961
549.5870, 287.9492
550.7630, 138.3184
551.9400, 231.5645
553.1160, 142.9922
554.2920, 331.9961
555.4680, 161.1973
556.6440, 359.2637
557.8190, 424.5645
558.9950, 335.6680
560.1700, 439.7715
561.3450, 484.0762
562.5200, 548.1934
563.6950, 588.3164
564.8690, 504.4492
566.0440, 561.5469
567.2180, 677.7559
568.3920, 682.5918
569.5660, 872.6934
570.7400, 855.6387
571.9130, 960.2500
573.0870, 1096.801
574.2600, 1088.055
575.4330, 1318.332
576.6060, 1111.205
577.7790, 1263.574
578.9520, 1444.309
580.1240, 1447.430
581.2960, 1607.281
582.4690, 1695.842
583.6410, 1798.016
584.8120, 1957.820
585.9840, 2055.795
587.1560, 2260.219
588.3270, 2433.754
589.4980, 2645.748
590.6690, 2711.885
591.8400, 3085.436
593.0110, 3274.990
594.1810, 3617.549
595.3510, 4074.109
596.5220, 4603.672
597.6920, 5062.238
598.8610, 5647.805
600.0310, 6552.379
601.2010, 7518.949
602.3700, 8666.527
603.5390, 10046.10
604.7080, 11991.68
605.8770, 13868.26
607.0460, 16178.83
608.2140, 19104.41
609.3830, 21954.99
610.5510, 25688.57
611.7190, 28691.15
612.8870, 31807.73
614.0550, 34655.31
615.2220, 35645.90
616.3900, 34791.46
617.5570, 32774.04
618.7240, 28972.62
619.8910, 24561.19
621.0580, 20220.77
622.2240, 16007.34
623.3910, 12780.90
624.5570, 10289.47
625.7230, 8263.035
626.8890, 6643.594
628.0550, 5415.154
629.2200, 4327.711
630.3860, 3655.262
631.5510, 3217.811
632.7160, 2536.355
633.8810, 2142.896
635.0460, 1850.434
636.2100, 1680.965
637.3750, 1435.496
638.5390, 1247.018
639.7030, 1113.850
640.8670, 1023.936
642.0310, 879.0625
643.1950, 800.0859
644.3580, 661.5781
645.5210, 635.4453
646.6850, 540.9297
647.8480, 469.1738
649.0100, 533.6348
650.1730, 491.8047
651.3350, 421.6680
652.4980, 328.0000
653.6600, 262.0781
654.8220, 215.0566
655.9840, 139.2598
657.1450, 161.6172
658.3070, 163.7129
659.4680, 211.2852
660.6300, 190.2617
661.7910, 164.9512
662.9510, 161.3086
664.1120, 136.5391
665.2730, 126.7617
666.4330, 110.2930
667.5930, 31.39062
668.7530, 70.67969
669.9130, 171.9512
671.0730, 150.7129
672.2320, 121.6387
673.3920, 63.84961
674.5510, 73.93359
675.7100, 88.78516
676.8690, 299.6699
678.0280, 45.82422
679.1860, 72.30859
680.3450, 36.45312
681.5030, 101.8359
682.6610, 70.01953
683.8190, 34.77539
684.9770, 32.85938
686.1340, 40.34570
687.2920, 9.972656
688.4490, 23.07227
689.6060, 64.35742
690.7630, 105.9180
691.9200, 36.00586
693.0760, 158.3047
694.2330, 123.8281
695.3890, 324.6934
696.5450, 124.4902
697.7010, 233.9297
698.8570, 373.8398
700.0130, 133.0098
701.1680, 352.7070
702.3230, 401.2637
703.4780, 305.1113
704.6330, 382.4219
705.7880, 490.6836
706.9430, 544.3164
708.0970, 370.1582
709.2520, 598.1582
710.4060, 623.6328
711.5600, 844.8027
712.7140, 834.9727
713.8670, 1070.193
715.0210, 942.4551
716.1740, 1336.754
717.3270, 1413.094
718.4800, 1749.453
719.6330, 2048.805
720.7860, 2604.199
721.9380, 2843.609
723.0910, 3270.008
724.2430, 4008.379
725.3950, 4903.754
726.5470, 5426.127
727.6980, 6123.477
728.8500, 7050.816
730.0010, 7465.125
731.1530, 7565.406
732.3040, 7370.662
733.4550, 6648.885
734.6050, 5912.082
735.7560, 5196.250
736.9060, 4096.391
738.0560, 3291.500
739.2060, 2824.582
740.3560, 2344.637
741.5060, 1854.662
742.6560, 1490.658
743.8050, 1254.625
744.9540, 1116.562
746.1030, 949.4707
747.2520, 914.3516
748.4010, 743.2031
749.5500, 479.0234
750.6980, 615.8145
751.8460, 599.5781
752.9950, 388.3105
754.1420, 632.0137
755.2900, 508.6895
756.4380, 409.3320
757.5850, 691.9453
758.7330, 445.5312
759.8800, 535.0859
761.0270, 695.6523
762.1730, 518.1855
763.3200, 594.6895
764.4670, 583.1641
765.6130, 452.6230
766.7590, 523.7188
767.9050, 401.4512
769.0510, 582.8223
770.1960, 546.1621
771.3420, 663.4707
772.4870, 327.7480
773.6320, 512.9961
774.7770, 374.2129
775.9220, 485.3984
777.0670, 187.5527
778.2110, 157.6738
779.3560, 209.7559
780.5000, 38.80664
781.6440, 154.8047
782.7880, 93.76562
783.9320, 295.6797
785.0750, 143.5664
786.2180, 17.58789
787.3620, 150.1816
788.5050, 7.914063
789.6480, 136.5840
790.7900, 294.2129
791.9330, 86.18945
793.0750, 27.70508
794.2170, 18.69727
795.3590, 78.04102
796.5010, 50.33594
797.6430, 65.58203
798.7850, 257.7793
799.9260, 263.9434
801.0670, 140.0742
802.2080, 140.1660
803.3490, 362.2188
804.4900, 440.2402
805.6310, 326.4531
806.7710, 405.1953
807.9110, 230.1191
809.0510, 438.0078
810.1910, 533.8672
811.3310, 344.3652
812.4710, 311.3848
813.6100, 251.4629
814.7490, 36.25781
815.8880, 86.18359
817.0270, 165.0938
818.1660, 55.92578
819.3050, 66.39062
820.4430, 140.1074
821.5820, 23.06250
822.7200, 11.59180
823.8580, 40.06055
824.9950, 44.77148
826.1330, 36.15430
827.2710, 38.03906
828.4080, 258.8574
829.5450, 135.4590
830.6820, 64.70898
831.8190, 125.2129
832.9560, 33.34180
834.0920, 65.36719
835.2280, 108.0684
836.3650, 5.468750
837.5010, 126.6348
838.6360, 6.041016
839.7720, 18.23242
840.9080, 172.4668
842.0430, 99.33008
843.1780, 25.77734
844.3130, 92.84375
845.4480, 17.12305
846.5830, 136.8574
847.7170, 205.8047
848.8520, 299.7266
849.9860, 318.9629
851.1200, 323.4902
852.2540, 334.3320
853.3870, 338.1445
854.5210, 405.9297
855.6540, 597.6875
856.7880, 406.4180
857.9210, 394.1191
859.0540, 769.7930
860.1860, 585.4414
861.3190, 829.0586
862.4510, 780.6504
863.5840, 664.2930
864.7160, 1013.826
865.8480, 951.3340
866.9790, 1043.814
868.1110, 960.2656
869.2420, 787.6895
870.3740, 1196.088
871.5050, 1074.459
872.6360, 989.8027
873.7660, 852.1172
874.8970, 1038.434
876.0280, 897.7305
877.1580, 939.0234
878.2880, 777.2949
879.4180, 877.5508
880.5480, 740.7832
881.6770, 648.9902
882.8070, 589.2051
883.9360, 544.8301
885.0650, 719.5684
886.1940, 573.7109
887.3230, 530.8496
888.4520, 653.9668
889.5800, 444.0586
890.7090, 568.1270
891.8370, 506.1680
892.9650, 532.1855
894.0930, 599.5488
895.2200, 559.5430
896.3480, 727.5176
897.4750, 574.4727
898.6020, 383.4043
899.7290, 691.3086
900.8560, 722.1914
901.9830, 689.0508
903.1090, 578.7480
904.2360, 613.5605
905.3620, 510.3516
906.4880, 639.1191
907.6140, 709.8633
908.7400, 690.5859
909.8650, 598.2891
910.9900, 712.9668
912.1160, 922.6270
913.2410, 649.9512
914.3660, 851.9941
915.4900, 814.4453
916.6150, 915.6562
917.7390, 898.5859
918.8640, 969.4023
919.9880, 1029.254
921.1120, 1111.979
922.2350, 1285.461
923.3590, 1369.209
924.4820, 1467.234
925.6060, 1577.273
926.7290, 1575.162
927.8520, 1690.223
928.9740, 1673.934
930.0970, 1603.332
931.2190, 1626.965
932.3420, 1664.096
933.4640, 1478.480
934.5860, 1503.752
935.7080, 1304.016
936.8290, 1153.375
937.9510, 948.7188
939.0720, 938.9375
940.1930, 881.1387
941.3140, 1020.330
942.4350, 891.5078
943.5560, 922.5098
944.6760, 1050.660
945.7960, 900.7949
946.9170, 674.9141
948.0370, 896.0508
949.1560, 855.1641
950.2760, 891.4336
951.3960, 951.3652
952.5150, 926.3945
953.6340, 1047.865
954.7530, 892.6836
955.8720, 823.3477
956.9910, 710.5781
958.1090, 999.5332
959.2280, 799.7090
960.3460, 710.3770
961.4640, 873.8262
962.5820, 631.1621
963.6990, 754.8887
964.8170, 662.4824
965.9340, 530.5215
967.0510, 545.7793
968.1690, 577.4883
969.2850, 394.5312
970.4020, 330.0742
971.5190, 322.3281
972.6350, 409.0273
973.7510, 297.8418
974.8670, 370.3359
975.9830, 326.3398
977.0990, 296.3652
978.2150, 262.0117
979.3300, 252.6152
980.4450, 426.6719
981.5600, 273.4609
982.6750, 347.5879
983.7900, 433.7520
984.9050, 328.9141
986.0190, 421.0723
987.1340, 484.8398
988.2480, 442.3848
989.3620, 577.5371
990.4750, 664.6895
991.5890, 504.8379
992.7020, 433.9844
993.8160, 470.1328
994.9290, 459.2773
996.0420, 433.4219
997.1550, 7.435547
998.2670, 488.7070
999.3800, 222.8477
1000.492, 182.9883
1001.604, 521.1270
1002.716, 327.2676
1003.828, 432.4082
1004.940, 316.5488
1006.051, 165.6895
1007.163, 146.8281
1008.274, 131.1953
1009.385, 263.1133
1010.496, 196.0547
1011.606, 288.1953
1012.717, 312.8184
1013.827, 326.9590
1014.937, 407.1016
1016.047, 306.3750
1017.157, 225.0977
1018.267, 237.2402
1019.377, 250.3867
1020.486, 298.3398
1021.595, 268.8633
1022.704, 194.0098
1023.813, 274.1582
1024.922, 94.30664
1026.030, 299.4570
1027.139, 16.61914
1028.247, 86.53320
1029.355, 176.8281
1030.463, 114.2969
1031.571, 88.47070
1032.678, 60.64648
1033.786, 81.16016
1034.893, 80.05469
1036.000, 33.69141
1037.107, 182.5781
1038.214, 148.8496
1039.321, 8.125000
1040.427, 130.3984
1041.533, 65.67773
1042.639, 106.0117
1043.745, 88.34961
1044.851, 129.7109
1045.957, 213.0781
1047.062, 171.7363
1048.168, 199.1621
1049.273, 96.20117
1050.378, 208.5918
1051.482, 90.99023
1052.587, 157.3965
1053.692, 300.8047
1054.796, 376.2227
1055.900, 203.6660
1057.004, 88.11719
1058.108, 346.5879
1059.212, 408.0625
1060.315, 526.5430
1061.418, 218.0684
1062.522, 505.6211
1063.625, 422.1934
1064.728, 584.7773
1065.830, 535.3750
1066.933, 365.9844
1068.035, 553.5977
1069.137, 313.2168
1070.239, 540.8438
1071.341, 577.4805
1072.443, 340.1211
1073.545, 511.7656
1074.646, 401.4160
1075.747, 243.0703
1076.848, 295.7305
1077.949, 292.3945
1079.050, 412.0664
1080.150, 233.7402
1081.251, 350.4219
1082.351, 468.1074
1083.451, 341.8066
1084.551, 331.5488
1085.651, 176.2930
1086.750, 239.0508
1087.850, 305.8203
1088.949, 475.5938
1090.048, 250.3926
1091.147, 336.2109
1092.246, 279.0566
1093.345, 359.9121
1094.443, 150.7949
1095.541, 507.7051
1096.639, 427.6973
1097.737, 306.7402
1098.835, 650.8164
1099.933, 305.9395
1101.030, 519.0742
1102.128, 385.2402
1103.225, 470.4141
1104.322, 310.6035
1105.419, 484.7949
1106.515, 204.0059
1107.612, 436.2305
1108.708, 243.4570
1109.804, 210.7266
1110.900, 304.0078
1111.996, 370.2930
1113.092, 504.6016
1114.187, 508.7832
1115.283, 361.2324
1116.378, 451.5566
1117.473, 428.8828
1118.568, 221.2148
1119.662, 422.5527
1120.757, 621.8965
1121.851, 406.2422
1122.946, 548.5938
1124.040, 521.9492
1125.134, 561.3105
1126.227, 411.6758
1127.321, 358.0469
1128.414, 386.4219
1129.508, 130.7227
1130.601, 99.10742
1131.693, 157.4961
1132.786, 180.8926
1133.879, 76.29102
1134.971, 130.6953
1136.064, 155.1035
1137.156, 188.5195
1138.248, 152.9395
1139.339, 107.6367
1140.431, 24.26172
1141.522, 104.8926
1142.614, 90.42969
1143.705, 67.24023
1144.796, 226.0586
1145.887, 137.3633
1146.977, 140.3262
1148.068, 11.08203
1149.158, 64.15820
1150.248, 83.55273
1151.338, 86.19727
1152.428, 4.984375
1153.518, 89.22656
1154.607, 40.44336
1155.696, 201.6680
1156.785, 24.89258
1157.874, 99.87695
1158.963, 81.48828
1160.052, 23.13672
1161.141, 210.0449
1162.229, 220.9590
1163.317, 127.1465
1164.405, 148.4180
1165.493, 175.2773
1166.581, 178.4961
1167.668, 228.7949
1168.756, 266.9961
1169.843, 185.2031
1170.930, 273.4102
1172.017, 118.6211
1173.103, 330.7754
1174.190, 406.9902
1175.276, 298.2090
1176.363, 483.4258
1177.449, 399.6445
1178.535, 221.8652
1179.620, 224.0859
1180.706, 406.3105
1181.791, 156.5352
1182.877, 263.7617
1183.962, 384.9863
1185.047, 216.2148
1186.131, 203.4453
1187.216, 316.6758
1188.300, 256.9062
1189.385, 391.1387
1190.469, 590.3730
1191.553, 343.6094
1192.637, 176.8418
1193.720, 159.0781
1194.804, 252.3164
1195.887, 332.5527
1196.970, 309.8887
1198.053, 424.0254
1199.136, 257.2656
1200.219, 373.5039
1201.301, 266.7441
1202.383, 618.9844
1203.465, 528.2227
1204.547, 631.4648
1205.629, 422.7051
1206.711, 383.9453
1207.792, 762.1855
1208.874, 660.4258
1209.955, 606.6680
1211.036, 582.9082
1212.117, 530.1504
1213.198, 563.3906
1214.278, 656.6309
1215.359, 600.8750
1216.439, 646.1152
1217.519, 830.3555
1218.599, 852.5957
1219.678, 755.8359
1220.758, 865.0742
1221.837, 634.3145
1222.917, 604.5527
1223.996, 656.7930
1225.075, 651.0273
1226.153, 726.2637
1227.232, 702.4980
1228.310, 718.7344
1229.389, 646.9629
1230.467, 546.1953
1231.545, 750.4219
1232.622, 554.6484
1233.700, 746.8711
1234.777, 602.0938
1235.855, 641.3164
1236.932, 597.5312
1238.009, 699.7461
1239.086, 646.9570
1240.162, 654.1680
1241.239, 571.3750
1242.315, 784.5820
1243.391, 762.7852
1244.467, 850.9844
1245.543, 904.5898
1246.619, 705.3711
1247.694, 841.5664
1248.769, 914.7617
1249.844, 642.9609
1250.919, 746.1602
1251.994, 767.3555
1253.069, 668.5469
1254.144, 812.7344
1255.218, 997.9258
1256.292, 503.1211
1257.366, 653.3164
1258.440, 624.5078
1259.514, 810.6992
1260.587, 802.8945
1261.661, 799.0859
1262.734, 818.2578
1263.807, 773.3320
1264.880, 659.6484
1265.952, 669.8320
1267.025, 429.0078
1268.097, 311.1836
1269.170, 445.4336
1270.242, 311.5273
1271.314, 470.8984
1272.385, 230.0664
1273.457, 376.7539
