##NAMES=Inyoite
##RRUFFID=R040161
##IDEAL CHEMISTRY=CaB_3_O_3_(OH)_5_&#183;4H_2_O
##LOCALITY=Kramer deposit, Boron, Kern County, California, USA
##OWNER=RRUFF
##SOURCE=University of Arizona Mineral Museum
##DESCRIPTION=Group of colorless indistinct rounded crystals
##STATUS=The identification of this mineral has been confirmed by X-ray diffraction and chemical analysis
##URL=rruff.info/R040161
##MEASURED CHEMISTRY=Ca_1.00_B_3.00_O_3_(OH)_5_Â·4H_2_O
##PIN_ID=L00092
##ORIENTATION=Laser parallel to (1 0 1). Fiducial mark perpendicular to laser is parallel to b [0 1 0]
93.15500, 0.0000000E+00
94.39300, 66.43652
95.63100, 17.55664
96.86900, 106.0635
98.10600, 268.7686
99.34400, 465.4150
100.5810, 995.2266
101.8190, 1348.285
103.0560, 1928.877
104.2930, 2439.046
105.5290, 3002.259
106.7660, 3487.288
108.0020, 3466.163
109.2390, 3102.109
110.4750, 2366.520
111.7110, 1574.016
112.9460, 1219.270
114.1820, 906.8428
115.4170, 819.3359
116.6530, 642.4189
117.8880, 780.8184
119.1230, 633.3086
120.3580, 770.7061
121.5920, 821.8535
122.8270, 1043.615
124.0610, 1144.876
125.2950, 1129.527
126.5290, 1147.502
127.7630, 1289.183
128.9970, 1456.586
130.2300, 1643.785
131.4640, 2162.348
132.6970, 2313.785
133.9300, 2385.844
135.1630, 2380.486
136.3950, 1959.682
137.6280, 1926.411
138.8600, 1917.651
140.0920, 2260.387
141.3240, 2664.600
142.5560, 3114.281
143.7880, 3675.428
145.0190, 4331.047
146.2510, 5533.135
147.4820, 6755.687
148.7130, 8209.699
149.9440, 9453.156
151.1750, 10054.05
152.4050, 9351.357
153.6360, 7996.071
154.8660, 6354.176
156.0960, 4982.668
157.3260, 4001.547
158.5560, 3673.807
159.7850, 3600.266
161.0150, 3410.495
162.2440, 3203.376
163.4730, 3405.930
164.7020, 3684.332
165.9310, 3885.510
167.1590, 4371.164
168.3880, 5126.621
169.6160, 5864.545
170.8440, 6860.944
172.0720, 7840.254
173.3000, 8898.681
174.5280, 10258.24
175.7550, 11104.96
176.9820, 12268.83
178.2100, 13068.88
179.4370, 14057.12
180.6630, 14174.53
181.8900, 14197.14
183.1170, 13501.94
184.3430, 12694.93
185.5690, 11523.11
186.7950, 10836.49
188.0210, 10420.06
189.2470, 10329.85
190.4720, 10139.85
191.6970, 10285.07
192.9230, 10390.54
194.1480, 10324.56
195.3730, 9297.771
196.5970, 8426.434
197.8220, 7412.344
199.0460, 6044.543
200.2700, 5143.074
201.4940, 4253.840
202.7180, 3595.868
203.9420, 3081.168
205.1660, 2432.619
206.3890, 2183.203
207.6120, 1916.907
208.8350, 1787.734
210.0580, 1444.686
211.2810, 1294.753
212.5040, 1251.942
213.7260, 1011.283
214.9480, 924.8232
216.1700, 805.5938
217.3920, 650.5166
218.6140, 562.6699
219.8360, 396.0518
221.0570, 232.7207
222.2790, 241.5820
223.5000, 29.56152
224.7210, 54.63184
225.9410, 32.20605
227.1620, 115.9551
228.3820, 118.6143
229.6030, 53.18750
230.8230, 89.64453
232.0430, 107.0762
233.2630, 89.39844
234.4820, 132.6709
235.7020, 185.8877
236.9210, 103.0566
238.1400, 191.1973
239.3590, 88.31445
240.5780, 107.1484
241.7970, 40.63672
243.0150, 181.5537
244.2340, 160.7490
245.4520, 68.84961
246.6700, 69.85547
247.8880, 7.043945
249.1060, 17.48242
250.3230, 286.4092
251.5400, 470.7754
252.7580, 238.5459
253.9750, 411.6855
255.1920, 837.1680
256.4080, 648.9697
257.6250, 856.0674
258.8410, 963.4443
260.0580, 1077.082
261.2740, 1010.965
262.4900, 1112.078
263.7050, 947.4102
264.9210, 1123.951
266.1360, 925.6904
267.3520, 1010.620
268.5670, 929.7314
269.7820, 1099.016
270.9960, 995.4668
272.2110, 1055.080
273.4250, 908.8477
274.6400, 926.7607
275.8540, 867.8145
277.0680, 781.9971
278.2810, 613.3047
279.4950, 627.7324
280.7090, 548.2764
281.9220, 604.9355
283.1350, 587.7070
284.3480, 496.0215
285.5610, 563.0088
286.7730, 348.1025
287.9860, 407.4961
289.1980, 203.7939
290.4100, 197.2988
291.6220, 13.45605
292.8340, 4.458984
294.0460, 87.66211
295.2570, 110.6357
296.4690, 61.31445
297.6800, 5.387695
298.8910, 39.38770
300.1020, 142.5537
301.3120, 66.48828
302.5230, 137.1338
303.7330, 224.8594
304.9440, 227.7617
306.1540, 356.9385
307.3630, 489.1221
308.5730, 410.4209
309.7830, 672.0957
310.9920, 692.7734
312.2010, 980.3027
313.4100, 1198.025
314.6190, 1167.671
315.8280, 1673.157
317.0370, 1850.897
318.2450, 1992.705
319.4530, 2314.579
320.6610, 2661.521
321.8690, 3073.529
323.0770, 3429.602
324.2850, 3579.739
325.4920, 3811.940
326.6990, 4009.205
327.9060, 4167.532
329.1130, 4032.921
330.3200, 3734.370
331.5270, 3378.869
332.7330, 3153.901
333.9390, 2644.976
335.1450, 2238.902
336.3510, 2014.023
337.5570, 1612.180
338.7630, 1437.027
339.9680, 1085.660
341.1740, 913.7090
342.3790, 922.0391
343.5840, 894.4414
344.7890, 566.0176
345.9930, 601.1230
347.1980, 464.0898
348.4020, 621.2168
349.6060, 623.9844
350.8100, 569.7637
352.0140, 589.0859
353.2180, 788.4453
354.4210, 564.8438
355.6250, 519.2754
356.8280, 764.7441
358.0310, 692.2461
359.2340, 591.7852
360.4360, 773.3555
361.6390, 747.9570
362.8410, 928.5938
364.0430, 1027.258
365.2450, 996.9551
366.4470, 1301.680
367.6490, 1372.434
368.8510, 1590.215
370.0520, 1847.023
371.2530, 1961.479
372.4540, 2177.230
373.6550, 2279.760
374.8560, 2448.105
376.0560, 2437.551
377.2570, 2552.586
378.4570, 2572.074
379.6570, 2477.496
380.8570, 2487.389
382.0570, 2767.584
383.2560, 2629.346
384.4560, 3082.945
385.6550, 3263.152
386.8540, 3322.879
388.0530, 3700.180
389.2520, 3653.156
390.4510, 3526.650
391.6490, 3392.078
392.8470, 3142.689
394.0450, 3072.365
395.2430, 2861.096
396.4410, 2320.877
397.6390, 2126.713
398.8360, 2069.596
400.0340, 1789.527
401.2310, 1927.508
402.4280, 1827.533
403.6250, 1959.602
404.8210, 2024.715
406.0180, 2053.869
407.2140, 1941.066
408.4100, 2293.301
409.6060, 2073.576
410.8020, 2169.889
411.9980, 1979.242
413.1930, 1726.631
414.3890, 1451.057
415.5840, 1365.516
416.7790, 1405.010
417.9740, 1125.539
419.1680, 1022.100
420.3630, 762.6953
421.5570, 692.3242
422.7510, 604.9824
423.9450, 492.6719
425.1390, 150.3906
426.3330, 353.1426
427.5270, 23.07617
428.7200, 169.6973
429.9130, 230.5039
431.1060, 4.335938
432.2990, 90.17383
433.4920, 71.04102
434.6840, 115.0703
435.8770, 54.76953
437.0690, 182.5234
438.2610, 158.7500
439.4530, 22.04883
440.6450, 100.3594
441.8360, 151.7754
443.0280, 42.20703
444.2190, 35.66406
445.4100, 28.14062
446.6010, 82.63477
447.7920, 102.1738
448.9820, 31.76758
450.1730, 12.38086
451.3630, 27.99219
452.5530, 110.6309
453.7430, 93.68359
454.9330, 124.9785
456.1230, 1.292969
457.3120, 138.5527
458.5010, 62.83594
459.6910, 153.1328
460.8800, 198.4492
462.0680, 269.7871
463.2570, 442.1465
464.4460, 408.5273
465.6340, 560.9277
466.8220, 436.3457
468.0100, 614.7852
469.1980, 420.2441
470.3860, 289.7207
471.5730, 315.2168
472.7600, 165.7305
473.9480, 64.26562
475.1350, 1.804688
476.3210, 52.67188
477.5080, 103.8125
478.6950, 96.31055
479.8810, 175.1777
481.0670, 156.2285
482.2530, 1.343750
483.4390, 62.93555
484.6250, 58.42383
485.8100, 12.21484
486.9960, 174.8770
488.1810, 114.6426
489.3660, 18.51953
490.5510, 40.33203
491.7360, 3.779297
492.9200, 95.87305
494.1050, 182.9766
495.2890, 306.0918
496.4730, 167.2305
497.6570, 151.3809
498.8400, 316.5469
500.0240, 417.7285
501.2070, 596.9238
502.3910, 575.1348
503.5740, 620.3594
504.7570, 888.6191
505.9400, 866.9297
507.1220, 766.2559
508.3050, 901.5977
509.4870, 666.9570
510.6690, 881.3613
511.8510, 630.7891
513.0330, 692.2949
514.2140, 612.8281
515.3960, 626.3809
516.5770, 696.9648
517.7580, 797.5703
518.9390, 861.2227
520.1200, 652.9062
521.3010, 825.6309
522.4810, 890.4375
523.6610, 897.2930
524.8420, 1047.180
526.0220, 794.1504
527.2010, 750.1426
528.3810, 1135.162
529.5610, 820.2383
530.7400, 944.3477
531.9190, 1021.496
533.0980, 767.6562
534.2770, 951.8340
535.4560, 899.0527
536.6340, 798.3164
537.8120, 796.5977
538.9910, 812.9141
540.1690, 721.2773
541.3460, 733.9648
542.5240, 700.0957
543.7020, 667.5371
544.8790, 657.0215
546.0560, 575.5273
547.2330, 570.0410
548.4100, 575.4043
549.5870, 612.0996
550.7630, 686.6875
551.9400, 695.2891
553.1160, 898.9043
554.2920, 697.5273
555.4680, 727.1582
556.6440, 919.7988
557.8190, 813.4590
558.9950, 1009.125
560.1700, 929.7988
561.3450, 1122.482
562.5200, 945.1719
563.6950, 1180.863
564.8690, 1200.562
566.0440, 1254.264
567.2180, 1226.973
568.3920, 1290.686
569.5660, 1329.969
570.7400, 1463.686
571.9130, 1446.408
573.0870, 1423.938
574.2600, 1515.666
575.4330, 1418.287
576.6060, 1666.357
577.7790, 1567.596
578.9520, 1907.893
580.1240, 1821.430
581.2960, 1907.355
582.4690, 2050.973
583.6410, 2149.752
584.8120, 2025.449
585.9840, 2304.461
587.1560, 2275.846
588.3270, 2411.232
589.4980, 2674.516
590.6690, 2695.602
591.8400, 3084.709
593.0110, 3236.752
594.1810, 3372.459
595.3510, 3769.172
596.5220, 3940.049
597.6920, 4537.771
598.8610, 5142.602
600.0310, 5877.637
601.2010, 6764.479
602.3700, 7768.328
603.5390, 9148.625
604.7080, 10481.05
605.8770, 12466.92
607.0460, 14453.79
608.2140, 16676.67
609.3830, 19871.55
610.5510, 22975.44
611.7190, 26384.34
612.8870, 29107.24
614.0550, 31879.14
615.2220, 33404.06
616.3900, 33110.50
617.5570, 31004.98
618.7240, 28019.67
619.8910, 24010.21
621.0580, 19876.78
622.2240, 16021.72
623.3910, 13104.92
624.5570, 10616.77
625.7230, 8556.391
626.8890, 7028.988
628.0550, 5913.574
629.2200, 4845.566
630.3860, 4250.750
631.5510, 3354.820
632.7160, 3219.293
633.8810, 2827.043
635.0460, 2643.051
636.2100, 2259.828
637.3750, 1974.852
638.5390, 1910.029
639.7030, 1520.266
640.8670, 1445.309
642.0310, 1343.357
643.1950, 1258.873
644.3580, 1254.662
645.5210, 1280.156
646.6850, 1137.154
647.8480, 1075.230
649.0100, 859.7559
650.1730, 871.7637
651.3350, 855.7656
652.4980, 843.7695
653.6600, 897.0664
654.8220, 1015.164
655.9840, 893.8086
657.1450, 913.0332
658.3070, 807.3574
659.4680, 903.9492
660.6300, 848.3281
661.7910, 682.5234
662.9510, 879.7793
664.1120, 828.7676
665.2730, 959.8262
666.4330, 919.0527
667.5930, 886.9668
668.7530, 649.6602
669.9130, 566.4336
671.0730, 625.5566
672.2320, 653.5703
673.3920, 678.6445
674.5510, 674.3672
675.7100, 555.1562
676.8690, 773.4375
678.0280, 770.9160
679.1860, 978.1680
680.3450, 1047.494
681.5030, 943.6582
682.6610, 886.5039
683.8190, 1081.084
684.9770, 988.1680
686.1340, 1115.176
687.2920, 960.4414
688.4490, 991.1562
689.6060, 904.2734
690.7630, 1004.207
691.9200, 894.7891
693.0760, 936.5137
694.2330, 1018.100
695.3890, 825.3945
696.5450, 1095.678
697.7010, 998.6211
698.8570, 916.0664
700.0130, 935.2422
701.1680, 999.6504
702.3230, 1029.793
703.4780, 822.6133
704.6330, 825.4219
705.7880, 937.0762
706.9430, 1039.934
708.0970, 1118.703
709.2520, 979.4746
710.4060, 954.4316
711.5600, 869.1738
712.7140, 997.9160
713.8670, 1115.645
715.0210, 1344.355
716.1740, 1268.096
717.3270, 1218.822
718.4800, 1476.590
719.6330, 1588.340
720.7860, 1892.195
721.9380, 2197.023
723.0910, 2393.887
724.2430, 2905.756
725.3950, 3329.633
726.5470, 3748.518
727.6980, 4231.416
728.8500, 5070.338
730.0010, 5403.291
731.1530, 5388.246
732.3040, 5236.197
733.4550, 5131.174
734.6050, 4535.133
735.7560, 4046.119
736.9060, 3385.105
738.0560, 2767.074
739.2060, 2247.033
740.3560, 1809.975
741.5060, 1477.895
742.6560, 1149.014
743.8050, 1008.691
744.9540, 760.5625
746.1030, 712.4160
747.2520, 601.8926
748.4010, 576.0703
749.5500, 503.8711
750.6980, 460.6543
751.8460, 438.4375
752.9950, 432.2012
754.1420, 387.9512
755.2900, 360.7031
756.4380, 444.4629
757.5850, 400.4570
758.7330, 410.1230
759.8800, 372.6992
761.0270, 394.4473
762.1730, 320.1973
763.3200, 315.9570
764.4670, 218.7070
765.6130, 109.4551
766.7590, 216.2637
767.9050, 330.0957
769.0510, 290.9434
770.1960, 261.7969
771.3420, 91.66992
772.4870, 280.5234
773.6320, 53.35547
774.7770, 307.1602
775.9220, 111.9434
777.0670, 106.7051
778.2110, 160.4414
779.3560, 189.1582
780.5000, 86.85156
781.6440, 28.48047
782.7880, 102.8711
783.9320, 54.64648
785.0750, 321.1309
786.2180, 25.59180
787.3620, 76.98242
788.5050, 6.359375
789.6480, 203.3379
790.7900, 0.1855470
791.9330, 170.9199
793.0750, 26.00195
794.2170, 52.04883
795.3590, 62.93945
796.5010, 31.99805
797.6430, 47.10352
798.7850, 171.2793
799.9260, 28.58984
801.0670, 15.03711
802.2080, 152.3750
803.3490, 59.08398
804.4900, 84.50977
805.6310, 114.0957
806.7710, 27.18945
807.9110, 11.43750
809.0510, 78.64062
810.1910, 187.8145
811.3310, 82.03906
812.4710, 82.98242
813.6100, 5.980469
814.7490, 46.10156
815.8880, 90.25781
817.0270, 75.50977
818.1660, 10.14844
819.3050, 4.236328
820.4430, 95.67383
821.5820, 8.208984
822.7200, 196.1992
823.8580, 57.58398
824.9950, 100.9336
826.1330, 136.7500
827.2710, 82.44531
828.4080, 35.60742
829.5450, 97.73047
830.6820, 111.8203
831.8190, 50.87891
832.9560, 2.902344
834.0920, 195.8789
835.2280, 39.82812
836.3650, 155.7383
837.5010, 126.6211
838.6360, 157.4746
839.7720, 272.2969
840.9080, 219.0957
842.0430, 93.87109
843.1780, 198.6152
844.3130, 217.3320
845.4480, 355.0254
846.5830, 172.6914
847.7170, 264.3320
848.8520, 236.9473
849.9860, 319.5391
851.1200, 352.1055
852.2540, 399.6465
853.3870, 425.7129
854.5210, 481.6543
855.6540, 475.1211
856.7880, 636.5605
857.9210, 718.9766
859.0540, 666.6621
860.1860, 975.0234
861.3190, 780.3633
862.4510, 867.6758
863.5840, 846.9629
864.7160, 1072.221
865.8480, 1017.660
866.9790, 1039.398
868.1110, 1286.721
869.2420, 1290.879
870.3740, 1087.037
871.5050, 1156.148
872.6360, 1300.232
873.7660, 1121.301
874.8970, 929.5078
876.0280, 1104.561
877.1580, 926.5859
878.2880, 863.5859
879.4180, 870.5605
880.5480, 891.5059
881.6770, 979.4258
882.8070, 862.3398
883.9360, 964.2246
885.0650, 590.1016
886.1940, 765.9512
887.3230, 752.8008
888.4520, 912.5977
889.5800, 640.3691
890.7090, 661.1348
891.8370, 807.8789
892.9650, 820.6016
894.0930, 807.3770
895.2200, 891.1055
896.3480, 885.6875
897.4750, 906.5605
898.6020, 885.1504
899.7290, 755.7129
900.8560, 856.2480
901.9830, 736.3965
903.1090, 730.8770
904.2360, 979.9102
905.3620, 709.3926
906.4880, 1082.941
907.6140, 1084.078
908.7400, 1156.426
909.8650, 929.9844
910.9900, 1151.277
912.1160, 1256.395
913.2410, 1160.432
914.3660, 1418.639
915.4900, 1367.852
916.6150, 1415.574
917.7390, 1623.006
918.8640, 1504.711
919.9880, 1662.895
921.1120, 1986.975
922.2350, 1869.584
923.3590, 2013.686
924.4820, 2121.779
925.6060, 2415.846
926.7290, 2398.602
927.8520, 2723.531
928.9740, 2618.889
930.0970, 2512.646
931.2190, 2570.285
932.3420, 2399.633
933.4640, 2371.172
934.5860, 1969.873
935.7080, 2047.492
936.8290, 1595.355
937.9510, 1638.123
939.0720, 1752.703
940.1930, 1558.570
941.3140, 1345.637
942.4350, 1190.598
943.5560, 1243.188
944.6760, 1111.863
945.7960, 1120.455
946.9170, 1222.375
948.0370, 1045.205
949.1560, 1058.520
950.2760, 830.6113
951.3960, 849.9082
952.5150, 935.1055
953.6340, 1033.441
954.7530, 1088.074
955.8720, 895.9492
956.9910, 886.2930
958.1090, 773.6895
959.2280, 639.8047
960.3460, 792.4453
961.4640, 549.6582
962.5820, 387.0332
963.6990, 612.7363
964.8170, 486.2754
965.9340, 529.9258
967.0510, 426.8418
968.1690, 570.7480
969.2850, 561.9707
970.4020, 612.6660
971.5190, 427.6055
972.6350, 404.2891
973.7510, 427.2148
974.8670, 534.4375
975.9830, 512.6484
977.0990, 553.9883
978.2150, 554.0996
979.3300, 514.8770
980.4450, 519.0371
981.5600, 425.4043
982.6750, 433.5488
983.7900, 389.3652
984.9050, 264.8125
986.0190, 298.0430
987.1340, 194.1484
988.2480, 180.2441
989.3620, 211.3301
990.4750, 118.4062
991.5890, 141.4727
992.7020, 7.529297
993.8160, 163.5723
994.9290, 152.6074
996.0420, 248.7422
997.1550, 228.7598
998.2670, 157.7676
999.3800, 100.1953
1000.492, 8.251953
1001.604, 38.67969
1002.716, 288.6016
1003.828, 64.51758
1004.940, 93.81250
1006.051, 173.7109
1007.163, 72.41211
1008.274, 29.29102
1009.385, 308.5586
1010.496, 268.5840
1011.606, 170.5117
1012.717, 381.3574
1013.827, 431.1973
1014.937, 251.0391
1016.047, 312.6484
1017.157, 113.4648
1018.267, 215.9258
1019.377, 131.7246
1020.486, 74.36523
1021.595, 198.3828
1022.704, 242.1543
1023.813, 171.6133
1024.922, 203.3379
1026.030, 232.5586
1027.139, 59.29688
1028.247, 161.0273
1029.355, 115.7930
1030.463, 14.58398
1031.571, 148.4277
1032.678, 197.2598
1033.786, 74.08984
1034.893, 84.08789
1036.000, 147.6855
1037.107, 81.54688
1038.214, 58.43750
1039.321, 90.84961
1040.427, 186.8281
1041.533, 251.5000
1042.639, 186.1660
1043.745, 405.8320
1044.851, 371.4922
1045.957, 244.1484
1047.062, 337.7969
1048.168, 138.4180
1049.273, 148.0605
1050.378, 389.6973
1051.482, 292.3457
1052.587, 595.0293
1053.692, 334.7090
1054.796, 514.3867
1055.900, 436.0664
1057.004, 647.7715
1058.108, 641.4805
1059.212, 595.2500
1060.315, 674.0273
1061.418, 702.7988
1062.522, 755.5762
1063.625, 815.3535
1064.728, 702.1523
1065.830, 650.9551
1066.933, 643.7812
1068.035, 651.6582
1069.137, 696.5508
1070.239, 668.4492
1071.341, 648.8086
1072.443, 570.3457
1073.545, 607.2949
1074.646, 466.2832
1075.747, 530.2773
1076.848, 477.2754
1077.949, 290.2773
1079.050, 430.2773
1080.150, 408.3066
1081.251, 465.3691
1082.351, 517.4355
1083.451, 320.5273
1084.551, 201.6523
1085.651, 213.8086
1086.750, 163.9707
1087.850, 484.1465
1088.949, 388.3555
1090.048, 339.5762
1091.147, 494.7988
1092.246, 272.0234
1093.345, 322.2500
1094.443, 348.5215
1095.541, 279.7969
1096.639, 363.0781
1097.737, 321.3594
1098.835, 273.6562
1099.933, 68.95312
1101.030, 363.2637
1102.128, 147.5703
1103.225, 600.8848
1104.322, 285.1973
1105.419, 174.5117
1106.515, 528.8262
1107.612, 208.1406
1108.708, 292.4551
1109.804, 383.7695
1110.900, 120.0840
1111.996, 71.39844
1113.092, 116.7109
1114.187, 151.0234
1115.283, 223.3340
1116.378, 115.6465
1117.473, 22.95508
1118.568, 175.2637
1119.662, 167.5703
1120.757, 333.8770
1121.851, 63.20508
1122.946, 412.5332
1124.040, 202.8613
1125.134, 220.9023
1126.227, 224.2383
1127.321, 24.57422
1128.414, 94.91016
1129.508, 220.2441
1130.601, 14.40820
1131.693, 70.73047
1132.786, 47.54297
1133.879, 154.7402
1134.971, 241.0762
1136.064, 22.60938
1137.156, 73.71289
1138.248, 29.96484
1139.339, 162.3418
1140.431, 150.5234
1141.522, 7.701172
1142.614, 28.95312
1143.705, 48.20117
1144.796, 57.44922
1145.887, 43.62891
1146.977, 76.05273
1148.068, 56.15430
1149.158, 57.64062
1150.248, 63.53711
1151.338, 18.70898
1152.428, 70.85547
1153.518, 36.03906
1154.607, 91.77539
1155.696, 128.3633
1156.785, 23.50000
1157.874, 69.44336
1158.963, 229.4883
1160.052, 138.6016
1161.141, 156.4727
1162.229, 170.1309
1163.317, 97.25391
1164.405, 211.3809
1165.493, 145.5000
1166.581, 136.8730
1167.668, 194.9922
1168.756, 14.53320
1169.843, 316.5918
1170.930, 209.7500
1172.017, 74.97461
1173.103, 298.0879
1174.190, 94.20117
1175.276, 435.3125
1176.363, 77.42188
1177.449, 394.5352
1178.535, 97.35352
1179.620, 384.6953
1180.706, 240.7441
1181.791, 381.7949
1182.877, 258.8457
1183.962, 199.8926
1185.047, 399.9414
1186.131, 455.9863
1187.216, 187.0352
1188.300, 386.0820
1189.385, 325.1289
1190.469, 335.1758
1191.553, 471.2227
1192.637, 379.2676
1193.720, 641.3105
1194.804, 243.3516
1195.887, 449.3945
1196.970, 467.4355
1198.053, 329.4766
1199.136, 569.5156
1200.219, 591.5586
1201.301, 492.6016
1202.383, 397.6445
1203.465, 826.6855
1204.547, 775.7266
1205.629, 652.7637
1206.711, 493.8027
1207.792, 599.8359
1208.874, 555.8711
1209.955, 635.9023
1211.036, 701.9336
1212.117, 757.9629
1213.198, 539.9902
1214.278, 580.0137
1215.359, 724.0352
1216.439, 571.0527
1217.519, 731.0703
1218.599, 748.0840
1219.678, 572.0957
1220.758, 760.1055
1221.837, 511.1094
1222.917, 360.1133
1223.996, 841.1133
1225.075, 406.1113
1226.153, 649.1055
1227.232, 685.0938
1228.310, 597.2812
1229.389, 711.2617
1230.467, 720.2422
1231.545, 593.2188
1232.622, 574.1934
1233.700, 790.1621
1234.777, 518.1289
1235.855, 647.0898
1236.932, 638.0508
1238.009, 560.0059
1239.086, 641.9551
1240.162, 761.9023
1241.239, 831.8477
1242.315, 966.7871
1243.391, 885.7227
1244.467, 880.6562
1245.543, 897.5840
1246.619, 985.5098
1247.694, 987.3164
1248.769, 976.2344
1249.844, 967.1484
1250.919, 852.5840
1251.994, 827.4902
1253.069, 891.3906
1254.144, 941.4453
1255.218, 983.1133
1256.292, 930.2363
1257.366, 1051.016
1258.440, 1165.902
1259.514, 1085.270
1260.587, 920.1094
1261.661, 902.0078
1262.734, 1001.902
1263.807, 828.7930
1264.880, 773.6836
1265.952, 728.1758
1267.025, 933.0547
1268.097, 637.1211
1269.170, 709.9961
1270.242, 519.4688
1271.314, 620.4805
1272.385, 678.2734
