##NAMES=Inyoite
##RRUFFID=R040161
##IDEAL CHEMISTRY=CaB_3_O_3_(OH)_5_&#183;4H_2_O
##LOCALITY=Kramer deposit, Boron, Kern County, California, USA
##OWNER=RRUFF
##SOURCE=University of Arizona Mineral Museum
##DESCRIPTION=Group of colorless indistinct rounded crystals
##STATUS=The identification of this mineral has been confirmed by X-ray diffraction and chemical analysis
##URL=rruff.info/R040161
##MEASURED CHEMISTRY=Ca_1.00_B_3.00_O_3_(OH)_5_Â·4H_2_O
##PIN_ID=L00339
##ORIENTATION=Laser parallel to a* (1 0 0). Fiducial mark perpendicular to laser is parallel to b [0 1 0]
94.39300, 0.0000000E+00
95.63100, 20.08105
96.86900, 4.673828
98.10600, 148.3350
99.34400, 248.3999
100.5810, 640.6221
101.8190, 902.0938
103.0560, 1203.569
104.2930, 1240.817
105.5290, 957.5127
106.7660, 737.0942
108.0020, 643.1201
109.2390, 221.3188
110.4750, 190.4434
111.7110, 49.75928
112.9460, 69.48486
114.1820, 176.0596
115.4170, 226.8438
116.6530, 350.6465
117.8880, 593.3105
119.1230, 520.7139
120.3580, 437.8550
121.5920, 594.8926
122.8270, 760.8608
124.0610, 969.5996
125.2950, 1409.965
126.5290, 1607.841
127.7630, 2210.132
128.9970, 2805.761
130.2300, 3670.664
131.4640, 4517.892
132.6970, 5302.882
133.9300, 5237.439
135.1630, 4573.157
136.3950, 3606.879
137.6280, 3068.602
138.8600, 2707.321
140.0920, 2611.035
141.3240, 2683.743
142.5560, 3046.602
143.7880, 3798.315
145.0190, 4399.947
146.2510, 5471.871
147.4820, 6640.454
148.7130, 7767.361
149.9440, 8968.682
151.1750, 9025.623
152.4050, 8061.204
153.6360, 6515.447
154.8660, 4681.375
156.0960, 3278.007
157.3260, 2522.364
158.5560, 2024.461
159.7850, 1718.314
161.0150, 1757.935
162.2440, 1886.336
163.4730, 2008.528
164.7020, 2223.203
165.9310, 2524.661
167.1590, 2823.966
168.3880, 3302.625
169.6160, 3836.513
170.8440, 4368.352
172.0720, 4896.630
173.3000, 5435.076
174.5280, 5674.018
175.7550, 5864.380
176.9820, 5957.689
178.2100, 5896.957
179.4370, 6124.188
180.6630, 6434.390
181.8900, 6915.567
183.1170, 7516.719
184.3430, 8467.851
185.5690, 9584.960
186.7950, 10994.05
188.0210, 12465.13
189.2470, 14187.18
190.4720, 15977.22
191.6970, 17180.24
192.9230, 18334.74
194.1480, 18211.40
195.3730, 17663.47
196.5970, 15557.86
197.8220, 13641.33
199.0460, 11364.91
200.2700, 9531.176
201.4940, 7687.163
202.7180, 6392.464
203.9420, 5352.353
205.1660, 4517.439
206.3890, 3840.365
207.6120, 3224.314
208.8350, 2828.284
210.0580, 2443.273
211.2810, 2122.282
212.5040, 1752.310
213.7260, 1505.356
214.9480, 1266.420
216.1700, 1004.501
217.3920, 896.5996
218.6140, 721.7114
219.8360, 573.8330
221.0570, 446.9570
222.2790, 415.0776
223.5000, 434.1929
224.7210, 342.3018
225.9410, 311.4053
227.1620, 221.5054
228.3820, 258.6016
229.6030, 218.6958
230.8230, 134.7886
232.0430, 139.8789
233.2630, 102.1338
234.4820, 87.83398
235.7020, 95.15479
236.9210, 83.24951
238.1400, 123.3477
239.3590, 127.4492
240.5780, 145.5547
241.7970, 10.78076
243.0150, 40.63672
244.2340, 4.929199
245.4520, 13.01709
246.6700, 36.31885
247.8880, 27.19092
249.1060, 16.44775
250.3230, 12.16943
251.5400, 8.016113
252.7580, 39.97070
253.9750, 49.02490
255.1920, 83.16895
256.4080, 93.39258
257.6250, 166.6875
258.8410, 208.2690
260.0580, 358.7310
261.2740, 328.1938
262.4900, 450.6997
263.7050, 508.2441
264.9210, 710.8237
266.1360, 818.4341
267.3520, 976.0718
268.5670, 1097.733
269.7820, 1227.414
270.9960, 1302.109
272.2110, 1306.818
273.4250, 1263.537
274.6400, 1160.264
275.8540, 1011.998
277.0680, 1110.737
278.2810, 1051.481
279.4950, 899.2251
280.7090, 829.9663
281.9220, 729.7041
283.1350, 556.4385
284.3480, 497.1699
285.5610, 308.8984
286.7730, 168.6240
287.9860, 256.3462
289.1980, 100.0659
290.4100, 117.2178
291.6220, 67.45117
292.8340, 100.8926
294.0460, 62.29297
295.2570, 137.7451
296.4690, 60.27002
297.6800, 171.8472
298.8910, 108.5029
300.1020, 224.2197
301.3120, 188.0259
302.5230, 212.9106
303.7330, 221.8794
304.9440, 163.9326
306.1540, 219.0537
307.3630, 163.2568
308.5730, 143.5254
309.7830, 87.85254
310.9920, 40.78125
312.2010, 154.6265
313.4100, 47.91260
314.6190, 54.41553
315.8280, 62.85352
317.0370, 223.2676
318.2450, 234.6348
319.4530, 203.9697
320.6610, 292.2964
321.8690, 392.6211
323.0770, 510.9443
324.2850, 472.2656
325.4920, 545.5864
326.6990, 571.5073
327.9060, 751.2241
329.1130, 641.5425
330.3200, 649.8604
331.5270, 734.1782
332.7330, 653.4956
333.9390, 650.8145
335.1450, 601.1333
336.3510, 539.4526
337.5570, 484.7734
338.7630, 455.0352
339.9680, 418.2451
341.1740, 535.3530
342.3790, 529.3496
343.5840, 575.2007
344.7890, 552.8848
345.9930, 591.4121
347.1980, 622.7891
348.4020, 627.5088
349.6060, 736.2778
350.8100, 696.4961
352.0140, 746.7314
353.2180, 853.9834
354.4210, 869.2520
355.6250, 895.5376
356.8280, 1007.841
358.0310, 1075.161
359.2340, 1290.497
360.4360, 1349.851
361.6390, 1586.222
362.8410, 1892.611
364.0430, 2162.018
365.2450, 2465.441
366.4470, 2877.884
367.6490, 3497.343
368.8510, 3981.822
370.0520, 4267.319
371.2530, 4833.834
372.4540, 5273.369
373.6550, 5677.922
374.8560, 5833.494
376.0560, 5930.085
377.2570, 5835.698
378.4570, 5581.329
379.6570, 5470.981
380.8570, 5347.652
382.0570, 5396.354
383.2560, 5425.074
384.4560, 5912.817
385.6550, 6141.602
386.8540, 6431.805
388.0530, 6661.344
389.2520, 6739.627
390.4510, 6832.395
391.6490, 6429.095
392.8470, 5947.660
394.0450, 5477.724
395.2430, 5148.631
396.4410, 4761.351
397.6390, 4316.326
398.8360, 4060.509
400.0340, 3807.776
401.2310, 3949.072
402.4280, 3928.384
403.6250, 4025.713
404.8210, 4423.058
406.0180, 4457.415
407.2140, 4568.790
408.4100, 4483.178
409.6060, 4184.582
410.8020, 4049.002
411.9980, 3558.437
413.1930, 3104.887
414.3890, 2908.352
415.5840, 2262.833
416.7790, 2303.329
417.9740, 1844.842
419.1680, 1606.371
420.3630, 1379.917
421.5570, 1194.479
422.7510, 1260.059
423.9450, 1122.654
425.1390, 977.2676
426.3330, 1027.898
427.5270, 772.5459
428.7200, 863.2119
429.9130, 689.8955
431.1060, 702.5972
432.2990, 795.3169
433.4920, 627.0552
434.6840, 590.7246
435.8770, 585.5000
437.0690, 457.2231
438.2610, 507.2700
439.4530, 434.7178
440.6450, 422.9224
441.8360, 423.2783
443.0280, 289.6377
444.2190, 411.7651
445.4100, 428.1992
446.6010, 340.1099
447.7920, 331.4985
448.9820, 299.2803
450.1730, 269.2266
451.3630, 244.4380
452.5530, 246.9414
453.7430, 247.9385
454.9330, 181.7461
456.1230, 206.7275
457.3120, 187.6870
458.5010, 232.0596
459.6910, 202.3408
460.8800, 216.6533
462.0680, 258.9966
463.2570, 164.3726
464.4460, 155.7798
465.6340, 237.2192
466.8220, 110.6909
468.0100, 210.1953
469.1980, 323.7310
470.3860, 284.2998
471.5730, 411.9014
472.7600, 383.4082
473.9480, 156.2021
475.1350, 338.9023
476.3210, 317.6348
477.5080, 269.4004
478.6950, 416.1997
479.8810, 360.0322
481.0670, 389.8979
482.2530, 319.7979
483.4390, 362.7314
484.6250, 464.7002
485.8100, 384.7041
486.9960, 410.7437
488.1810, 460.8203
489.3660, 420.9351
490.5510, 557.0874
491.7360, 591.2793
492.9200, 535.5098
494.1050, 464.7803
495.2890, 589.0898
496.4730, 665.4390
497.6570, 564.8276
498.8400, 645.2559
500.0240, 721.7236
501.2070, 745.2305
502.3910, 731.7769
503.5740, 672.3628
504.7570, 736.9878
505.9400, 625.6528
507.1220, 654.3564
508.3050, 491.1001
509.4870, 605.8862
510.6690, 548.7124
511.8510, 484.5791
513.0330, 522.4878
514.2140, 519.6084
515.3960, 612.4229
516.5770, 621.4492
517.7580, 706.5161
518.9390, 806.6211
520.1200, 838.7690
521.3010, 862.9600
522.4810, 877.1953
523.6610, 916.2656
524.8420, 936.5938
526.0220, 1000.963
527.2010, 1037.232
528.3810, 996.4375
529.5610, 1156.599
530.7400, 1195.405
531.9190, 1134.637
533.0980, 1141.696
534.2770, 1070.442
535.4560, 1149.308
536.6340, 1066.217
537.8120, 1051.460
538.9910, 1010.598
540.1690, 946.0000
541.3460, 915.5171
542.5240, 1025.130
543.7020, 947.3027
544.8790, 894.5435
546.0560, 758.8418
547.2330, 743.4795
548.4100, 725.7217
549.5870, 708.0605
550.7630, 745.5908
551.9400, 799.1748
553.1160, 794.7993
554.2920, 727.4805
555.4680, 706.2085
556.6440, 820.9995
557.8190, 967.8672
558.9950, 898.7910
560.1700, 1004.751
561.3450, 999.7617
562.5200, 1067.822
563.6950, 1189.930
564.8690, 1266.074
566.0440, 1270.253
567.2180, 1328.468
568.3920, 1507.719
569.5660, 1637.005
570.7400, 1829.328
571.9130, 1795.685
573.0870, 1965.072
574.2600, 2002.493
575.4330, 2269.946
576.6060, 2139.472
577.7790, 2480.029
578.9520, 2405.653
580.1240, 2680.335
581.2960, 2695.095
582.4690, 2800.911
583.6410, 2908.812
584.8120, 3239.782
585.9840, 3374.852
587.1560, 3523.011
588.3270, 3683.265
589.4980, 3892.617
590.6690, 4039.052
591.8400, 4429.582
593.0110, 4694.196
594.1810, 5053.883
595.3510, 5612.634
596.5220, 6362.433
597.6920, 7090.309
598.8610, 7807.216
600.0310, 8989.149
601.2010, 10255.11
602.3700, 12131.11
603.5390, 13983.12
604.7080, 16371.16
605.8770, 18941.24
607.0460, 22597.34
608.2140, 26542.46
609.3830, 30833.61
610.5510, 35932.79
611.7190, 40990.99
612.8870, 45419.21
614.0550, 49788.47
615.2220, 51599.75
616.3900, 50680.05
617.5570, 47728.37
618.7240, 42058.73
619.8910, 35492.11
621.0580, 29413.50
622.2240, 23124.92
623.3910, 18753.37
624.5570, 14653.83
625.7230, 11785.32
626.8890, 9573.839
628.0550, 7725.375
629.2200, 6360.932
630.3860, 5376.512
631.5510, 4463.113
632.7160, 3729.735
633.8810, 3167.378
635.0460, 2709.042
636.2100, 2324.726
637.3750, 1752.430
638.5390, 1761.153
639.7030, 1701.896
640.8670, 1357.658
642.0310, 1190.438
643.1950, 986.2378
644.3580, 831.8730
645.5210, 794.8911
646.6850, 681.7451
647.8480, 626.6172
649.0100, 695.1831
650.1730, 622.0884
651.3350, 519.3018
652.4980, 408.6533
653.6600, 369.6089
654.8220, 423.5781
655.9840, 254.5620
657.1450, 249.5708
658.3070, 129.6099
659.4680, 120.2217
660.6300, 174.1123
661.7910, 12.28516
662.9510, 57.96973
664.1120, 46.45557
665.2730, 17.05273
666.4330, 122.3164
667.5930, 138.7114
668.7530, 172.6660
669.9130, 145.7095
671.0730, 72.57715
672.2320, 216.6826
673.3920, 100.8315
674.5510, 0.6064450
675.7100, 100.4868
676.8690, 63.96436
678.0280, 189.7256
679.1860, 119.1211
680.3450, 58.67139
681.5030, 57.90820
682.6610, 9.759277
683.8190, 69.19531
684.9770, 34.31641
686.1340, 79.36523
687.2920, 59.27539
688.4490, 91.57031
689.6060, 62.75977
690.7630, 66.01074
691.9200, 165.0586
693.0760, 179.9824
694.2330, 166.6104
695.3890, 172.8433
696.5450, 235.8721
697.7010, 265.4131
698.8570, 395.8462
700.0130, 309.3325
701.1680, 430.5449
702.3230, 509.6118
703.4780, 450.1187
704.6330, 519.1265
705.7880, 511.3311
706.9430, 643.9878
708.0970, 783.2158
709.2520, 749.6074
710.4060, 927.6538
711.5600, 842.2993
712.7140, 1040.031
713.8670, 1320.575
715.0210, 1328.200
716.1740, 1671.815
717.3270, 1739.335
718.4800, 2075.854
719.6330, 2610.356
720.7860, 2916.850
721.9380, 3376.333
723.0910, 4042.808
724.2430, 4747.270
725.3950, 5619.723
726.5470, 6336.163
727.6980, 7257.590
728.8500, 8073.007
730.0010, 8511.407
731.1530, 8609.799
732.3040, 8163.171
733.4550, 7508.531
734.6050, 6407.875
735.7560, 5275.205
736.9060, 4273.519
738.0560, 3466.815
739.2060, 2825.097
740.3560, 2136.360
741.5060, 1937.608
742.6560, 1623.838
743.8050, 1365.052
744.9540, 1198.248
746.1030, 1056.426
747.2520, 942.5869
748.4010, 941.7300
749.5500, 847.8545
750.6980, 697.9604
751.8460, 558.0479
752.9950, 763.1167
754.1420, 600.1665
755.2900, 769.1968
756.4380, 559.2085
757.5850, 641.2002
758.7330, 568.1719
759.8800, 625.1240
761.0270, 589.0562
762.1730, 619.9683
763.3200, 526.8608
764.4670, 495.7324
765.6130, 527.5835
766.7590, 493.4131
767.9050, 517.4829
769.0510, 480.2705
770.1960, 432.0366
771.3420, 503.7817
772.4870, 338.5049
773.6320, 319.2051
774.7770, 309.8838
775.9220, 315.5410
777.0670, 318.1743
778.2110, 313.7852
779.3560, 318.5640
780.5000, 300.6411
781.6440, 313.5547
782.7880, 269.0737
783.9320, 245.8833
785.0750, 242.0967
786.2180, 95.86768
787.3620, 171.2832
788.5050, 120.6748
789.6480, 114.0381
790.7900, 157.3726
791.9330, 166.6821
793.0750, 215.9663
794.2170, 162.2266
795.3590, 160.4604
796.5010, 112.6675
797.6430, 100.8442
798.7850, 90.98633
799.9260, 73.09229
801.0670, 82.42773
802.2080, 121.3940
803.3490, 121.3882
804.4900, 117.4922
805.6310, 164.6689
806.7710, 230.9160
807.9110, 127.5498
809.0510, 196.7793
810.1910, 36.19824
811.3310, 49.93555
812.4710, 106.5752
813.6100, 38.18555
814.7490, 14.52734
815.8880, 90.13477
817.0270, 75.30762
818.1660, 34.07031
819.3050, 18.21582
820.4430, 77.92871
821.5820, 40.73145
822.7200, 14.60840
823.8580, 61.54492
824.9950, 26.43555
826.1330, 104.6240
827.2710, 25.79004
828.4080, 34.97852
829.5450, 36.29102
830.6820, 0.3681640
831.8190, 57.02344
832.9560, 117.4971
834.0920, 30.08496
835.2280, 62.25879
836.3650, 13.43066
837.5010, 9.178711
838.6360, 6.983398
839.7720, 58.15527
840.9080, 91.26172
842.0430, 75.33984
843.1780, 50.38770
844.3130, 73.40039
845.4480, 63.38281
846.5830, 86.66309
847.7170, 133.2568
848.8520, 118.1523
849.9860, 165.0234
851.1200, 133.8691
852.2540, 134.6904
853.3870, 185.4854
854.5210, 154.2568
855.6540, 394.0039
856.7880, 247.7256
857.9210, 355.4238
859.0540, 435.0967
860.1860, 405.7461
861.3190, 401.3711
862.4510, 340.9727
863.5840, 503.5498
864.7160, 545.1035
865.8480, 385.6318
866.9790, 531.1377
868.1110, 479.6172
869.2420, 457.0752
870.3740, 479.5088
871.5050, 471.9209
872.6360, 443.3096
873.7660, 467.6807
874.8970, 468.0283
876.0280, 516.3516
877.1580, 449.6562
878.2880, 433.9375
879.4180, 523.2031
880.5480, 348.4639
881.6770, 308.7129
882.8070, 457.9404
883.9360, 341.1533
885.0650, 422.3438
886.1940, 399.5117
887.3230, 281.6562
888.4520, 331.7842
889.5800, 320.8887
890.7090, 357.9961
891.8370, 276.0791
892.9650, 329.1416
894.0930, 291.1973
895.2200, 310.2324
896.3480, 261.2646
897.4750, 219.3262
898.6020, 226.3652
899.7290, 312.3828
900.8560, 210.3789
901.9830, 227.3516
903.1090, 99.30469
904.2360, 250.2334
905.3620, 212.1406
906.4880, 268.0264
907.6140, 196.8916
908.7400, 246.7354
909.8650, 181.5586
910.9900, 148.3613
912.1160, 237.1436
913.2410, 170.9043
914.3660, 250.6445
915.4900, 125.3662
916.6150, 348.0654
917.7390, 223.7461
918.8640, 85.40625
919.9880, 125.0439
921.1120, 328.6602
922.2350, 290.5811
923.3590, 403.1582
924.4820, 332.4268
925.6060, 271.5518
926.7290, 476.0703
927.8520, 602.5703
928.9740, 551.0537
930.0970, 589.5078
931.2190, 541.9268
932.3420, 483.7695
933.4640, 585.3281
934.5860, 363.6006
935.7080, 544.2969
936.8290, 475.2979
937.9510, 283.1230
939.0720, 352.9082
940.1930, 348.6934
941.3140, 497.0039
942.4350, 427.3652
943.5560, 419.5156
944.6760, 550.8848
945.7960, 537.2451
946.9170, 496.2061
948.0370, 558.2637
949.1560, 517.8936
950.2760, 574.7881
951.3960, 763.2676
952.5150, 683.8701
953.6340, 783.1396
954.7530, 735.4844
955.8720, 739.0518
956.9910, 744.9277
958.1090, 740.4150
959.2280, 742.9346
960.3460, 473.6094
961.4640, 533.3799
962.5820, 484.0820
963.6990, 576.9766
964.8170, 343.9873
965.9340, 482.2842
967.0510, 425.9658
968.1690, 232.8408
969.2850, 312.1943
970.4020, 267.6465
971.5190, 190.0361
972.6350, 64.68750
973.7510, 56.47559
974.8670, 28.16309
975.9830, 10.07617
977.0990, 45.25488
978.2150, 56.41016
979.3300, 52.98242
980.4450, 129.3809
981.5600, 118.1123
982.6750, 40.23438
983.7900, 36.25586
984.9050, 72.45703
986.0190, 138.5625
987.1340, 181.6670
988.2480, 146.8545
989.3620, 163.9561
990.4750, 231.2109
991.5890, 141.3857
992.7020, 100.5566
993.8160, 136.7256
994.9290, 88.89062
996.0420, 102.0518
997.1550, 149.2090
998.2670, 72.36426
999.3800, 218.5166
1000.492, 158.6650
1001.604, 259.8125
1002.716, 239.9561
1003.828, 267.0977
1004.940, 273.7383
1006.051, 295.8750
1007.163, 326.0342
1008.274, 244.4072
1009.385, 369.5381
1010.496, 397.4482
1011.606, 380.5762
1012.717, 499.1807
1013.827, 416.7695
1014.937, 332.3115
1016.047, 487.4336
1017.157, 417.9375
1018.267, 406.0557
1019.377, 409.3428
1020.486, 358.2881
1021.595, 282.3359
1022.704, 311.4482
1023.813, 159.2578
1024.922, 50.36719
1026.030, 171.4775
1027.139, 109.6250
1028.247, 193.7324
1029.355, 88.15137
1030.463, 115.1787
1031.571, 181.2871
1032.678, 11.42285
1033.786, 65.55566
1034.893, 155.6914
1036.000, 182.8379
1037.107, 187.7236
1038.214, 107.8691
1039.321, 72.01172
1040.427, 156.1553
1041.533, 213.2979
1042.639, 166.4395
1043.745, 230.5820
1044.851, 142.7236
1045.957, 325.8652
1047.062, 248.0176
1048.168, 236.1680
1049.273, 378.2441
1050.378, 325.3955
1051.482, 423.5479
1052.587, 533.3848
1053.692, 556.4727
1054.796, 573.6260
1055.900, 708.7852
1057.004, 747.9453
1058.108, 797.1084
1059.212, 829.2744
1060.315, 744.4434
1061.418, 808.8926
1062.522, 922.7832
1063.625, 857.9561
1064.728, 930.1318
1065.830, 980.3125
1066.933, 865.4990
1068.035, 1019.693
1069.137, 647.8965
1070.239, 768.1104
1071.341, 713.3281
1072.443, 598.5498
1073.545, 527.7793
1074.646, 645.0098
1075.747, 500.2432
1076.848, 562.4814
1077.949, 472.7207
1079.050, 511.9727
1080.150, 283.2334
1081.251, 324.4990
1082.351, 268.7744
1083.451, 391.0732
1084.551, 277.4131
1085.651, 348.7891
1086.750, 324.1904
1087.850, 326.6133
1088.949, 422.0742
1090.048, 381.5596
1091.147, 307.0674
1092.246, 331.6074
1093.345, 232.1582
1094.443, 314.7520
1095.541, 423.3711
1096.639, 244.0000
1097.737, 258.6543
1098.835, 252.3262
1099.933, 231.0312
1101.030, 297.7910
1102.128, 355.5771
1103.225, 347.3701
1104.322, 327.1846
1105.419, 311.0186
1106.515, 181.8711
1107.612, 239.7314
1108.708, 180.5977
1109.804, 322.4717
1110.900, 372.3525
1111.996, 282.2412
1113.092, 124.1377
1114.187, 306.0400
1115.283, 299.9473
1116.378, 372.8594
1117.473, 210.7764
1118.568, 476.6973
1119.662, 395.6221
1120.757, 402.5518
1121.851, 440.4844
1122.946, 435.4229
1124.040, 322.3662
1125.134, 219.3125
1126.227, 261.2646
1127.321, 284.2197
1128.414, 207.1807
1129.508, 109.1455
1130.601, 112.1152
1131.693, 54.08984
1132.786, 153.0693
1133.879, 89.05273
1134.971, 5.041992
1136.064, 13.96387
1137.156, 150.0283
1138.248, 28.97461
1139.339, 142.0166
1140.431, 80.01270
1141.522, 18.98828
1142.614, 51.00879
1143.705, 31.98926
1144.796, 80.99609
1145.887, 48.03711
1146.977, 83.90430
1148.068, 47.14941
1149.158, 61.78027
1150.248, 71.71484
1151.338, 109.6543
1152.428, 20.40039
1153.518, 63.54004
1154.607, 99.51270
1155.696, 10.38867
1156.785, 27.29688
1157.874, 72.79004
1158.963, 60.09082
1160.052, 77.02148
1161.141, 198.1660
1162.229, 49.61816
1163.317, 6.508789
1164.405, 119.2773
1165.493, 83.94434
1166.581, 12.33008
1167.668, 165.1143
1168.756, 112.9043
1169.843, 65.70020
1170.930, 114.5000
1172.017, 63.30469
1173.103, 81.11426
1174.190, 76.08105
1175.276, 19.75000
1176.363, 77.77051
1177.449, 190.2012
1178.535, 234.0371
1179.620, 231.8789
1180.706, 270.3057
1181.791, 356.5762
1182.877, 205.4336
1183.962, 338.2969
1185.047, 185.1650
1186.131, 233.0391
1187.216, 246.9180
1188.300, 208.8037
1189.385, 228.6934
1190.469, 216.3379
1191.553, 238.5879
1192.637, 224.3936
1193.720, 307.3047
1194.804, 357.2207
1195.887, 412.1426
1196.970, 398.0693
1198.053, 324.0020
1199.136, 373.9395
1200.219, 224.8828
1201.301, 429.8311
1202.383, 356.7852
1203.465, 612.7451
1204.547, 318.7080
1205.629, 389.6777
1206.711, 460.6543
1207.792, 332.6348
1208.874, 493.6201
1209.955, 526.6104
1211.036, 642.6113
1212.117, 615.6182
1213.198, 685.9678
1214.278, 727.6445
1215.359, 740.6650
1216.439, 708.6914
1217.519, 678.7236
1218.599, 801.7588
1219.678, 483.7988
1220.758, 625.8438
1221.837, 864.8945
1222.917, 538.9473
1223.996, 726.0049
1225.075, 813.0674
1226.153, 751.1338
1227.232, 664.2041
1228.310, 665.2793
1229.389, 652.3574
1230.467, 628.3506
1231.545, 710.2559
1232.622, 636.3457
1233.700, 592.4385
1234.777, 631.5352
1235.855, 558.6348
1236.932, 601.4580
1238.009, 449.8447
1239.086, 624.9541
1240.162, 542.0664
1241.239, 468.1826
1242.315, 509.3076
1243.391, 430.4355
1244.467, 492.5586
1245.543, 523.7031
1246.619, 585.8408
1247.694, 623.0010
1248.769, 616.1641
1249.844, 567.3320
1250.919, 594.9023
1251.994, 481.7178
1253.069, 610.9229
1254.144, 582.1299
1255.218, 614.5107
1256.292, 751.5547
1257.366, 579.7793
1258.440, 639.0078
1259.514, 568.2383
1260.587, 420.4736
1261.661, 409.7129
1262.734, 547.9531
1263.807, 424.1982
1264.880, 512.4463
1265.952, 429.1973
1267.025, 412.4531
1268.097, 462.4492
1269.170, 365.7119
1270.242, 285.9785
1271.314, 379.4688
1272.385, 133.7432
1273.457, 225.5420
