##NAMES=Jadeite
##RRUFFID=R050220
##IDEAL CHEMISTRY=NaAlSi_2_O_6_
##LOCALITY=Clear Creek, San Benito County, California, USA
##OWNER=RRUFF
##SOURCE=Hatt Yoder
##DESCRIPTION=Aggregate of colorless bladed crystals
##STATUS=The identification of this mineral has been confirmed by X-ray diffraction and chemical analysis
##URL=rruff.info/R050220
##MEASURED CHEMISTRY=Na_1.00_Al_1.00_(Si_0.99_Al_0.01_)_2_O_6_
##PIN_ID=L00826
##ORIENTATION=Laser parallel to c* (0 0 1). Fiducial mark perpendicular to laser is parallel to a [1 0 0]
112.9460, 0.0000000E+00
114.1820, 136.1069
115.4170, 250.3667
116.6530, 239.7959
117.8880, 248.6807
119.1230, 124.4248
120.3580, 16.48682
121.5920, 79.81885
122.8270, 399.2324
124.0610, 484.7461
125.2950, 468.7280
126.5290, 558.6919
127.7630, 717.2686
128.9970, 926.1567
130.2300, 1412.974
131.4640, 1605.280
132.6970, 2021.113
133.9300, 2607.668
135.1630, 3392.894
136.3950, 4394.658
137.6280, 5672.861
138.8600, 7311.432
140.0920, 8855.314
141.3240, 10305.46
142.5560, 11158.85
143.7880, 10881.90
145.0190, 10113.89
146.2510, 8643.966
147.4820, 6827.003
148.7130, 4961.150
149.9440, 3511.399
151.1750, 2475.745
152.4050, 1891.041
153.6360, 1289.376
154.8660, 1107.979
156.0960, 907.4082
157.3260, 557.6860
158.5560, 422.8350
159.7850, 383.8740
161.0150, 270.8193
162.2440, 195.6841
163.4730, 138.4839
164.7020, 114.0376
165.9310, 65.28662
167.1590, 132.6289
168.3880, 27.29541
169.6160, 61.95068
170.8440, 93.59961
172.0720, 64.24805
173.3000, 10.10107
174.5280, 66.67627
175.7550, 70.67676
176.9820, 12.61182
178.2100, 22.45801
179.4370, 3.430176
180.6630, 23.72363
181.8900, 159.9180
183.1170, 152.1523
184.3430, 164.4272
185.5690, 243.7437
186.7950, 456.0815
188.0210, 744.3989
189.2470, 1236.397
190.4720, 1728.870
191.6970, 2624.470
192.9230, 3357.796
194.1480, 4355.135
195.3730, 4937.749
196.5970, 5967.775
197.8220, 7903.886
199.0460, 10565.08
200.2700, 13522.36
201.4940, 16957.71
202.7180, 19395.15
203.9420, 20290.66
205.1660, 18320.24
206.3890, 15164.90
207.6120, 11322.62
208.8350, 8081.417
210.0580, 5131.280
211.2810, 3302.209
212.5040, 2388.202
213.7260, 1991.294
214.9480, 2041.500
216.1700, 2044.788
217.3920, 2761.172
218.6140, 4084.636
219.8360, 5718.198
221.0570, 7271.832
222.2790, 8308.519
223.5000, 8740.262
224.7210, 8097.061
225.9410, 6120.912
227.1620, 4029.811
228.3820, 2298.752
229.6030, 1082.738
230.8230, 442.7671
232.0430, 187.8413
233.2630, 65.95850
234.4820, 55.11963
235.7020, 76.67578
236.9210, 30.42822
238.1400, 35.13721
239.3590, 59.80273
240.5780, 20.57373
241.7970, 107.9937
243.0150, 355.4551
244.2340, 531.9590
245.4520, 1017.504
246.6700, 1507.091
247.8880, 2175.694
249.1060, 3444.915
250.3230, 4273.844
251.5400, 6560.453
252.7580, 8839.104
253.9750, 10991.80
255.1920, 12463.53
256.4080, 12633.31
257.6250, 11563.13
258.8410, 8967.991
260.0580, 5668.704
261.2740, 3069.021
262.4900, 1464.716
263.7050, 528.6567
264.9210, 166.8369
266.1360, 50.21680
267.3520, 25.47266
268.5670, 215.7905
269.7820, 212.0391
270.9960, 215.2305
272.2110, 84.37695
273.4250, 93.45850
274.6400, 115.4844
275.8540, 13.47461
277.0680, 129.5845
278.2810, 287.6973
279.4950, 385.8613
280.7090, 563.8169
281.9220, 757.2100
283.1350, 968.6357
284.3480, 1267.978
285.5610, 1649.361
286.7730, 2091.781
287.9860, 2602.239
289.1980, 3168.732
290.4100, 3643.189
291.6220, 4075.591
292.8340, 4252.014
294.0460, 4749.471
295.2570, 3991.959
296.4690, 3483.480
297.6800, 3031.033
298.8910, 2765.615
300.1020, 2349.215
301.3120, 2405.832
302.5230, 2209.468
303.7330, 2238.122
304.9440, 2593.797
306.1540, 2795.492
307.3630, 3114.207
308.5730, 3536.943
309.7830, 3840.701
310.9920, 3967.480
312.2010, 3821.283
313.4100, 3455.955
314.6190, 3075.213
315.8280, 2836.824
317.0370, 2494.720
318.2450, 2713.430
319.4530, 3182.951
320.6610, 3906.451
321.8690, 4683.670
323.0770, 5956.598
324.2850, 7396.631
325.4920, 9258.896
326.6990, 11326.04
327.9060, 12620.23
329.1130, 12886.44
330.3200, 12518.71
331.5270, 10682.00
332.7330, 8157.313
333.9390, 6581.658
335.1450, 3854.044
336.3510, 2544.438
337.5570, 1591.667
338.7630, 1056.784
339.9680, 924.8301
341.1740, 598.8926
342.3790, 584.9844
343.5840, 379.1055
344.7890, 262.2549
345.9930, 362.4336
347.1980, 272.6396
348.4020, 284.8740
349.6060, 265.1357
350.8100, 459.4238
352.0140, 602.7402
353.2180, 686.0820
354.4210, 785.4502
355.6250, 969.8457
356.8280, 1349.267
358.0310, 1664.713
359.2340, 2164.184
360.4360, 2911.680
361.6390, 3765.200
362.8410, 5146.745
364.0430, 6821.312
365.2450, 9073.901
366.4470, 11737.52
367.6490, 14723.15
368.8510, 18683.81
370.0520, 23238.49
371.2530, 28691.20
372.4540, 33919.93
373.6550, 37721.66
374.8560, 39715.43
376.0560, 38892.23
377.2570, 36554.03
378.4570, 32290.86
379.6570, 28150.71
380.8570, 24680.61
382.0570, 22709.91
383.2560, 21635.01
384.4560, 21023.91
385.6550, 20144.58
386.8540, 18833.56
388.0530, 16561.55
389.2520, 13901.57
390.4510, 11287.61
391.6490, 8955.669
392.8470, 7141.750
394.0450, 5740.852
395.2430, 4646.973
396.4410, 3914.114
397.6390, 3342.276
398.8360, 3032.459
400.0340, 2749.661
401.2310, 2541.885
402.4280, 2328.127
403.6250, 2396.095
404.8210, 2336.874
406.0180, 2458.453
407.2140, 2516.798
408.4100, 2889.168
409.6060, 3121.627
410.8020, 3535.041
411.9980, 4015.456
413.1930, 4560.587
414.3890, 5007.948
415.5840, 5706.135
416.7790, 5938.610
417.9740, 6074.604
419.1680, 6087.415
420.3630, 5675.510
421.5570, 5293.113
422.7510, 4932.736
423.9450, 4568.381
425.1390, 4637.041
426.3330, 4815.725
427.5270, 4986.426
428.7200, 5491.148
429.9130, 5924.889
431.1060, 6415.646
432.2990, 6844.424
433.4920, 6864.219
434.6840, 6792.031
435.8770, 6248.863
437.0690, 5426.716
438.2610, 4582.584
439.4530, 3915.473
440.6450, 3017.378
441.8360, 2378.303
443.0280, 1732.245
444.2190, 1454.204
445.4100, 991.1816
446.6010, 895.1758
447.7920, 643.1875
448.9820, 500.2188
450.1730, 295.2656
451.3630, 295.3291
452.5530, 72.40918
453.7430, 28.50781
454.9330, 19.62207
456.1230, 101.2471
457.3120, 14.63965
458.5010, 42.60547
459.6910, 95.09180
460.8800, 23.17773
462.0680, 47.04492
463.2570, 91.66504
464.4460, 34.95410
465.6340, 109.7305
466.8220, 22.93457
468.0100, 46.92383
469.1980, 170.5908
470.3860, 231.5020
471.5730, 213.5244
472.7600, 207.7197
473.9480, 294.8848
475.1350, 439.0449
476.3210, 448.6143
477.5080, 649.3662
478.6950, 650.2461
479.8810, 791.2070
481.0670, 842.4307
482.2530, 753.6582
483.4390, 731.8975
484.6250, 716.1475
485.8100, 543.4121
486.9960, 407.6885
488.1810, 504.9766
489.3660, 210.2754
490.5510, 371.5840
491.7360, 367.9043
492.9200, 262.2354
494.1050, 145.5762
495.2890, 142.9277
496.4730, 158.2891
497.6570, 219.6611
498.8400, 175.0410
500.0240, 224.4316
501.2070, 186.8330
502.3910, 192.2422
503.5740, 310.6611
504.7570, 411.0889
505.9400, 316.5254
507.1220, 552.9707
508.3050, 617.4238
509.4870, 809.8857
510.6690, 1016.356
511.8510, 1055.836
513.0330, 1287.323
514.2140, 1686.817
515.3960, 2023.323
516.5770, 2248.838
517.7580, 2839.387
518.9390, 3267.967
520.1200, 3945.555
521.3010, 4700.150
522.4810, 5188.777
523.6610, 5513.434
524.8420, 5580.122
526.0220, 5185.863
527.2010, 4517.670
528.3810, 3366.520
529.5610, 2665.396
530.7400, 1789.282
531.9190, 1260.196
533.0980, 743.1348
534.2770, 556.0791
535.4560, 409.0312
536.6340, 429.9863
537.8120, 324.9482
538.9910, 68.92676
540.1690, 140.9102
541.3460, 60.93848
542.5240, 138.9707
543.7020, 42.05371
544.8790, 29.85742
546.0560, 124.7559
547.2330, 38.72461
548.4100, 108.2783
549.5870, 98.29980
550.7630, 32.32520
551.9400, 123.3535
553.1160, 139.3926
554.2920, 266.4551
555.4680, 333.5732
556.6440, 472.7568
557.8190, 657.9980
558.9950, 623.2646
560.1700, 735.5664
561.3450, 741.8984
562.5200, 806.2471
563.6950, 833.5996
564.8690, 973.9629
566.0440, 1186.327
567.2180, 1518.692
568.3920, 2006.061
569.5660, 2554.431
570.7400, 3050.799
571.9130, 3806.167
573.0870, 4448.535
574.2600, 5005.900
575.4330, 5097.265
576.6060, 4957.629
577.7790, 4241.990
578.9520, 3551.351
580.1240, 2840.709
581.2960, 2164.064
582.4690, 1826.418
583.6410, 1457.769
584.8120, 1307.118
585.9840, 1378.463
587.1560, 1458.807
588.3270, 1509.146
589.4980, 1510.481
590.6690, 1400.795
591.8400, 1397.144
593.0110, 1034.469
594.1810, 804.7900
595.3510, 508.1055
596.5220, 284.4189
597.6920, 164.8760
598.8610, 15.76562
600.0310, 85.31445
601.2010, 29.59668
602.3700, 106.0771
603.5390, 38.62109
604.7080, 109.8271
605.8770, 134.2441
607.0460, 176.4229
608.2140, 24.08887
609.3830, 142.8604
610.5510, 53.05762
611.7190, 10.69727
612.8870, 72.56250
614.0550, 60.11621
615.2220, 69.79004
616.3900, 2.458008
617.5570, 31.89453
618.7240, 19.86816
619.8910, 2.539063
621.0580, 64.68066
622.2240, 176.5928
623.3910, 184.1484
624.5570, 276.6982
625.7230, 292.5947
626.8890, 224.4170
628.0550, 376.9463
629.2200, 563.4688
630.3860, 497.9834
631.5510, 638.4893
632.7160, 690.9883
633.8810, 850.4805
635.0460, 673.9648
636.2100, 827.4395
637.3750, 826.9082
638.5390, 890.3691
639.7030, 897.8467
640.8670, 928.3174
642.0310, 894.7803
643.1950, 685.2324
644.3580, 742.6787
645.5210, 651.1143
646.6850, 821.5420
647.8480, 485.9590
649.0100, 534.3682
650.1730, 527.7676
651.3350, 456.1572
652.4980, 493.5811
653.6600, 433.9512
654.8220, 413.7646
655.9840, 422.6582
657.1450, 417.7783
658.3070, 457.1279
659.4680, 466.4375
660.6300, 526.7939
661.7910, 587.4678
662.9510, 603.9424
664.1120, 521.1357
665.2730, 560.8457
666.4330, 577.5225
667.5930, 606.5693
668.7530, 694.7920
669.9130, 735.7461
671.0730, 905.2559
672.2320, 1033.622
673.3920, 1191.851
674.5510, 1278.343
675.7100, 1396.479
676.8690, 1499.734
678.0280, 1696.211
679.1860, 1891.625
680.3450, 2110.048
681.5030, 2431.103
682.6610, 2789.272
683.8190, 3300.294
684.9770, 3924.181
686.1340, 4552.679
687.2920, 5786.500
688.4490, 7265.824
689.6060, 8975.090
690.7630, 11415.49
691.9200, 14418.69
693.0760, 18020.96
694.2330, 22518.90
695.3890, 27691.13
696.5450, 33403.35
697.7010, 38455.62
698.8570, 42392.83
700.0130, 43354.75
701.1680, 41734.97
702.3230, 37250.29
703.4780, 31294.16
704.6330, 25149.03
705.7880, 19660.97
706.9430, 15021.00
708.0970, 11611.02
709.2520, 9033.615
710.4060, 7376.266
711.5600, 6179.823
712.7140, 5115.357
713.8670, 4220.871
715.0210, 3508.364
716.1740, 3217.835
717.3270, 2713.285
718.4800, 2312.713
719.6330, 1885.119
720.7860, 1850.504
721.9380, 1727.868
723.0910, 1601.210
724.2430, 1360.531
725.3950, 1065.830
726.5470, 1037.107
727.6980, 880.7031
728.8500, 1083.599
730.0010, 832.8105
731.1530, 813.0010
732.3040, 940.1719
733.4550, 698.3184
734.6050, 649.4443
735.7560, 587.5488
736.9060, 565.6514
738.0560, 513.7246
739.2060, 413.7979
740.3560, 383.2441
741.5060, 398.2080
742.6560, 385.3018
743.8050, 433.4814
744.9540, 394.3984
746.1030, 335.8457
747.2520, 253.8115
748.4010, 214.3867
749.5500, 193.3896
750.6980, 240.6152
751.8460, 210.4912
752.9950, 270.3916
754.1420, 342.2900
755.2900, 161.7725
756.4380, 102.0654
757.5850, 192.2227
758.7330, 145.2920
759.8800, 229.0938
761.0270, 181.8848
762.1730, 193.6582
763.3200, 75.41504
764.4670, 83.15039
765.6130, 171.8662
766.7590, 319.5645
767.9050, 263.2461
769.0510, 272.9092
770.1960, 268.5557
771.3420, 365.1855
772.4870, 465.7969
773.6320, 613.3926
774.7770, 781.9697
775.9220, 796.5303
777.0670, 1006.242
778.2110, 1216.770
779.3560, 1300.311
780.5000, 1346.801
781.6440, 1172.275
782.7880, 878.7324
783.9320, 792.1729
785.0750, 573.5947
786.2180, 425.9990
787.3620, 240.3867
788.5050, 200.7578
789.6480, 130.1113
790.7900, 206.4473
791.9330, 62.76758
793.0750, 55.06445
794.2170, 57.65918
795.3590, 58.45117
796.5010, 100.6875
797.6430, 126.8096
798.7850, 52.08594
799.9260, 113.9541
801.0670, 15.02344
802.2080, 85.87500
803.3490, 116.9990
804.4900, 97.20117
805.6310, 42.48926
806.7710, 37.16504
807.9110, 53.20410
809.0510, 32.63672
810.1910, 75.87891
811.3310, 64.37598
812.4710, 180.8555
813.6100, 97.31836
814.7490, 9.234375
815.8880, 62.17480
817.0270, 121.4355
818.1660, 174.8584
819.3050, 150.8623
820.4430, 172.3057
821.5820, 111.5410
822.7200, 127.5371
823.8580, 93.63672
824.9950, 30.26270
826.1330, 50.79102
827.2710, 27.82812
828.4080, 0.8466800
829.5450, 17.16211
830.6820, 95.79199
831.8190, 18.26855
832.9560, 35.63379
834.0920, 25.51953
835.2280, 4.613281
836.3650, 68.22656
837.5010, 6.947266
838.6360, 10.84863
839.7720, 19.37305
840.9080, 57.37305
842.0430, 38.10645
843.1780, 23.82324
844.3130, 20.52441
845.4480, 99.20898
846.5830, 75.88184
847.7170, 161.5430
848.8520, 188.1904
849.9860, 112.8301
851.1200, 210.4561
852.2540, 133.0723
853.3870, 112.6768
854.5210, 124.2705
855.6540, 273.8525
856.7880, 238.4238
857.9210, 300.9854
859.0540, 105.5361
860.1860, 199.0762
861.3190, 96.60742
862.4510, 284.1279
863.5840, 205.6396
864.7160, 235.1426
865.8480, 155.6357
866.9790, 282.1201
868.1110, 439.5967
869.2420, 410.0645
870.3740, 390.5244
871.5050, 501.9756
872.6360, 417.4180
873.7660, 540.8535
874.8970, 628.2861
876.0280, 755.7109
877.1580, 876.1357
878.2880, 1017.555
879.4180, 1008.984
880.5480, 1400.447
881.6770, 1730.946
882.8070, 1814.494
883.9360, 2288.055
885.0650, 2450.653
886.1940, 2701.267
887.3230, 2840.898
888.4520, 2714.549
889.5800, 2533.211
890.7090, 2156.863
891.8370, 2009.519
892.9650, 1655.029
894.0930, 1308.693
895.2200, 1032.360
896.3480, 822.0234
897.4750, 537.6807
898.6020, 499.3721
899.7290, 500.6260
900.8560, 482.9824
901.9830, 358.6211
903.1090, 402.2549
904.2360, 504.8838
905.3620, 257.5078
906.4880, 131.1279
907.6140, 304.7432
908.7400, 197.3545
909.8650, 180.9609
910.9900, 132.5645
912.1160, 121.8281
913.2410, 114.7217
914.3660, 5.265625
915.4900, 83.80664
916.6150, 234.3447
917.7390, 116.8789
918.8640, 162.4102
919.9880, 139.9385
921.1120, 137.4629
922.2350, 153.3799
923.3590, 178.7910
924.4820, 168.0625
925.6060, 227.5459
926.7290, 247.2627
927.8520, 192.1426
928.9740, 246.1396
930.0970, 249.8799
931.2190, 212.5957
932.3420, 195.9922
933.4640, 160.5000
934.5860, 90.67871
935.7080, 83.16113
936.8290, 13.27051
937.9510, 46.13867
939.0720, 143.0088
940.1930, 54.42383
941.3140, 148.3018
942.4350, 240.1846
943.5560, 277.4619
944.6760, 310.1299
945.7960, 172.4229
946.9170, 317.6904
948.0370, 208.3027
949.1560, 180.7812
950.2760, 210.0303
951.3960, 407.3291
952.5150, 287.6045
953.6340, 365.2363
954.7530, 343.7432
955.8720, 370.3857
956.9910, 369.5176
958.1090, 331.0996
959.2280, 397.6484
960.3460, 435.9414
961.4640, 538.2842
962.5820, 501.4150
963.6990, 741.7939
964.8170, 749.0859
965.9340, 836.7139
967.0510, 743.0312
968.1690, 952.4541
969.2850, 1204.606
970.4020, 1358.932
971.5190, 1622.519
972.6350, 1913.795
973.7510, 1981.960
974.8670, 2458.951
975.9830, 2764.550
977.0990, 3338.062
978.2150, 4094.475
979.3300, 5044.881
980.4450, 6385.696
981.5600, 7844.444
982.6750, 9978.276
983.7900, 12005.43
984.9050, 13740.28
986.0190, 15344.15
987.1340, 15891.04
988.2480, 15951.95
989.3620, 15481.87
990.4750, 15169.80
991.5890, 14389.74
992.7020, 13551.69
993.8160, 12232.68
994.9290, 10448.70
996.0420, 8464.746
997.1550, 7129.822
998.2670, 5691.939
999.3800, 4533.084
1000.492, 3838.240
1001.604, 3305.412
1002.716, 2770.595
1003.828, 2443.791
1004.940, 2128.998
1006.051, 1781.218
1007.163, 1814.445
1008.274, 1851.703
1009.385, 1760.970
1010.496, 1643.989
1011.606, 1662.280
1012.717, 1719.582
1013.827, 1787.329
1014.937, 1790.671
1016.047, 1953.022
1017.157, 1980.430
1018.267, 2186.799
1019.377, 2551.180
1020.486, 2679.705
1021.595, 3111.104
1022.704, 3482.643
1023.813, 4166.061
1024.922, 4639.485
1026.030, 5615.922
1027.139, 6528.365
1028.247, 7731.818
1029.355, 9194.285
1030.463, 11136.75
1031.571, 13500.23
1032.678, 16967.72
1033.786, 20522.65
1034.893, 25737.15
1036.000, 31914.66
1037.107, 37372.20
1038.214, 43179.72
1039.321, 45962.27
1040.427, 46357.82
1041.533, 43409.37
1042.639, 37712.94
1043.745, 30613.52
1044.851, 24252.80
1045.957, 18579.22
1047.062, 14245.83
1048.168, 11111.41
1049.273, 8721.029
1050.378, 7163.657
1051.482, 5990.293
1052.587, 4835.975
1053.692, 3929.629
1054.796, 3571.163
1055.900, 2951.834
1057.004, 2626.578
1058.108, 2413.265
1059.212, 2132.961
1060.315, 2004.744
1061.418, 1899.363
1062.522, 1713.628
1063.625, 1551.168
1064.728, 1485.352
1065.830, 1337.271
1066.933, 1301.205
1068.035, 1133.949
1069.137, 1086.799
1070.239, 1050.177
1071.341, 1095.614
1072.443, 1065.571
1073.545, 1125.606
1074.646, 1252.635
1075.747, 1489.418
1076.848, 1872.255
1077.949, 2254.424
1079.050, 2890.638
1080.150, 3337.827
1081.251, 3616.945
1082.351, 3602.221
1083.451, 3062.361
1084.551, 2804.515
1085.651, 2646.711
1086.750, 2170.549
1087.850, 2195.344
1088.949, 1433.765
1090.048, 1009.124
1091.147, 655.4355
1092.246, 503.7539
1093.345, 277.0928
1094.443, 309.4385
1095.541, 129.7939
1096.639, 252.1611
1097.737, 391.6768
1098.835, 214.1396
1099.933, 175.5459
1101.030, 106.1279
1102.128, 117.5479
1103.225, 197.0713
1104.322, 197.5098
1105.419, 185.9619
1106.515, 27.27441
1107.612, 104.3184
1108.708, 11.79688
1109.804, 26.28906
1110.900, 122.7783
1111.996, 183.2744
1113.092, 37.77441
1114.187, 148.2793
1115.283, 22.19336
1116.378, 92.96777
1117.473, 243.5020
1118.568, 133.5166
1119.662, 277.6631
1120.757, 168.1846
1121.851, 110.2129
1122.946, 313.9844
1124.040, 197.5420
1125.134, 1.367188
1126.227, 133.7588
1127.321, 104.5020
1128.414, 137.4141
1129.508, 140.8926
1130.601, 16.67090
1131.693, 75.85840
1132.786, 50.21777
1133.879, 88.98145
1134.971, 86.56836
1136.064, 71.37988
1137.156, 50.94727
1138.248, 224.5107
1139.339, 51.59570
1140.431, 169.1338
1141.522, 26.00098
1142.614, 120.0322
1143.705, 64.55859
1144.796, 16.11035
1145.887, 76.23242
1146.977, 182.7500
1148.068, 29.73535
1149.158, 139.7676
1150.248, 49.36523
1151.338, 82.12500
1152.428, 97.52539
1153.518, 65.01660
1154.607, 4.697266
1155.696, 100.3340
1156.785, 227.9902
1157.874, 228.5996
1158.963, 67.95898
1160.052, 244.4209
1161.141, 107.8350
1162.229, 98.24414
1163.317, 91.65137
1164.405, 9.946289
1165.493, 20.75781
1166.581, 63.99316
1167.668, 33.45898
1168.756, 104.9844
1169.843, 138.3633
1170.930, 102.9561
1172.017, 170.3271
1173.103, 131.6934
1174.190, 75.20703
1175.276, 31.24512
1176.363, 133.0928
1177.449, 87.45312
1178.535, 43.80957
1179.620, 103.1621
1180.706, 48.50879
1181.791, 113.8506
1182.877, 28.18652
1183.962, 182.5186
1185.047, 45.15625
1186.131, 72.13965
1187.216, 26.42969
1188.300, 45.71289
1189.385, 43.99023
1190.469, 27.03223
1191.553, 58.47070
1192.637, 14.75488
1193.720, 30.02734
1194.804, 32.83496
1195.887, 23.32812
1196.970, 22.48438
1198.053, 87.36719
1199.136, 111.7227
1200.219, 106.8076
1201.301, 12.88574
1202.383, 104.9600
1203.465, 51.02734
1204.547, 82.08594
1205.629, 33.86230
1206.711, 17.84375
1207.792, 46.14941
1208.874, 38.13379
1209.955, 47.10938
1211.036, 66.22559
1212.117, 32.03320
1213.198, 83.98145
1214.278, 69.32031
1215.359, 93.85059
1216.439, 30.77246
1217.519, 79.68164
1218.599, 36.58301
1219.678, 62.47363
1220.758, 120.3535
1221.837, 93.22461
1222.917, 137.0352
1223.996, 128.9365
1225.075, 149.7773
1226.153, 113.6084
1227.232, 51.42676
1228.310, 66.23633
1229.389, 101.0342
1230.467, 15.17969
1231.545, 202.5771
1232.622, 66.32422
1233.700, 267.2900
1234.777, 98.01270
1235.855, 22.72754
1236.932, 62.47949
1238.009, 169.1670
1239.086, 90.84277
1240.162, 216.5059
1241.239, 223.1592
1242.315, 116.8018
1243.391, 191.4316
1244.467, 93.04980
1245.543, 16.34570
1246.619, 8.052734
1247.694, 0.5908200
1248.769, 17.05762
1249.844, 136.6406
1250.919, 23.13867
1251.994, 45.61914
1253.069, 98.08496
1254.144, 1.540039
1255.218, 158.0557
1256.292, 8.261719
1257.366, 74.44336
1258.440, 83.21484
1259.514, 40.00586
1260.587, 43.10156
1261.661, 9.854492
1262.734, 57.26465
1263.807, 13.31934
1264.880, 46.35352
1265.952, 105.3721
1267.025, 106.3789
1268.097, 43.62500
1269.170, 137.3174
1270.242, 40.24805
1271.314, 29.42383
1272.385, 118.3232
1273.457, 15.77344
1274.528, 0.2812500
1275.600, 156.5547
1276.671, 218.3799
1277.742, 173.1465
1278.812, 91.94629
1279.883, 112.7354
1280.954, 66.37598
1282.024, 115.1416
1283.094, 40.76270
1284.164, 60.38184
1285.234, 56.10840
1286.303, 97.82227
1287.373, 94.57617
1288.442, 101.1611
1289.511, 111.8906
1290.580, 113.5566
1291.649, 132.2139
