##NAMES=Jadeite
##RRUFFID=R050220
##IDEAL CHEMISTRY=NaAlSi_2_O_6_
##LOCALITY=Clear Creek, San Benito County, California, USA
##OWNER=RRUFF
##SOURCE=Hatt Yoder
##DESCRIPTION=Aggregate of colorless bladed crystals
##STATUS=The identification of this mineral has been confirmed by X-ray diffraction and chemical analysis
##URL=rruff.info/R050220
##MEASURED CHEMISTRY=Na_1.00_Al_1.00_(Si_0.99_Al_0.01_)_2_O_6_
##PIN_ID=L00822
##ORIENTATION=Laser parallel to (1 0 1). Fiducial mark perpendicular to laser is parallel to -b [0 -1 0]
112.9460, 0.0000000E+00
114.1820, 288.7734
115.4170, 247.4600
116.6530, 240.7314
117.8880, 14.91602
119.1230, 54.31348
120.3580, 114.3711
121.5920, 12.87109
122.8270, 166.8232
124.0610, 246.4990
125.2950, 351.3340
126.5290, 363.8818
127.7630, 483.7881
128.9970, 523.4512
130.2300, 542.6289
131.4640, 644.1094
132.6970, 562.1016
133.9300, 648.4424
135.1630, 654.0020
136.3950, 781.6650
137.6280, 956.3369
138.8600, 1262.931
140.0920, 1338.378
141.3240, 1851.614
142.5560, 2123.591
143.7880, 2413.263
145.0190, 2396.368
146.2510, 2595.691
147.4820, 2091.302
148.7130, 1454.461
149.9440, 1151.141
151.1750, 996.2998
152.4050, 884.8994
153.6360, 585.9180
154.8660, 693.3086
156.0960, 421.0488
157.3260, 622.1211
158.5560, 422.5088
159.7850, 339.1963
161.0150, 201.1729
162.2440, 243.6064
163.4730, 410.9482
164.7020, 395.7275
165.9310, 503.7588
167.1590, 579.0391
168.3880, 497.5645
169.6160, 595.8818
170.8440, 565.3418
172.0720, 592.6562
173.3000, 492.1455
174.5280, 483.4199
175.7550, 463.6074
176.9820, 391.1934
178.2100, 421.5781
179.4370, 355.1758
180.6630, 319.9795
181.8900, 395.9824
183.1170, 394.1758
184.3430, 442.5537
185.5690, 426.1104
186.7950, 579.7861
188.0210, 657.4307
189.2470, 764.0674
190.4720, 1179.717
191.6970, 1709.727
192.9230, 2533.789
194.1480, 2753.569
195.3730, 2223.414
196.5970, 1920.333
197.8220, 2087.326
199.0460, 2268.402
200.2700, 3129.559
201.4940, 4686.801
202.7180, 7165.133
203.9420, 9000.547
205.1660, 8633.062
206.3890, 7125.660
207.6120, 5226.348
208.8350, 3310.127
210.0580, 1928.996
211.2810, 1131.957
212.5040, 892.0195
213.7260, 512.1875
214.9480, 304.4434
216.1700, 145.7871
217.3920, 399.2227
218.6140, 351.8223
219.8360, 295.5664
221.0570, 361.4473
222.2790, 436.4453
223.5000, 463.5898
224.7210, 524.8867
225.9410, 380.3066
227.1620, 324.8984
228.3820, 53.70898
229.6030, 1.376953
230.8230, 129.7324
232.0430, 15.94922
233.2630, 151.3125
234.4820, 161.9082
235.7020, 87.71289
236.9210, 209.5801
238.1400, 47.49805
239.3590, 54.52930
240.5780, 53.48633
241.7970, 43.55078
243.0150, 140.6562
244.2340, 95.80664
245.4520, 190.4121
246.6700, 338.2402
247.8880, 418.5234
249.1060, 691.8438
250.3230, 979.1973
251.5400, 1255.592
252.7580, 1858.027
253.9750, 2653.502
255.1920, 3934.014
256.4080, 4921.562
257.6250, 4021.148
258.8410, 2983.770
260.0580, 1605.672
261.2740, 886.9688
262.4900, 550.5312
263.7050, 246.4824
264.9210, 180.1895
266.1360, 93.76758
267.3520, 91.60742
268.5670, 61.67969
269.7820, 24.03320
270.9960, 20.45312
272.2110, 24.88281
273.4250, 83.95117
274.6400, 46.74414
275.8540, 76.47461
277.0680, 60.36719
278.2810, 82.77930
279.4950, 160.3184
280.7090, 108.9746
281.9220, 98.74609
283.1350, 152.6250
284.3480, 88.60742
285.5610, 245.3477
286.7730, 552.8652
287.9860, 525.1328
289.1980, 733.4883
290.4100, 845.9297
291.6220, 1200.453
292.8340, 1375.055
294.0460, 1358.730
295.2570, 1721.480
296.4690, 1503.299
297.6800, 1413.186
298.8910, 1250.141
300.1020, 1281.160
301.3120, 1556.242
302.5230, 1711.385
303.7330, 2269.590
304.9440, 2618.850
306.1540, 3447.168
307.3630, 4489.539
308.5730, 5914.967
309.7830, 6900.449
310.9920, 7153.883
312.2010, 6470.465
313.4100, 5379.098
314.6190, 4293.789
315.8280, 3429.518
317.0370, 2688.291
318.2450, 2081.107
319.4530, 2103.145
320.6610, 2240.053
321.8690, 2436.186
323.0770, 2453.480
324.2850, 2932.803
325.4920, 3911.521
326.6990, 4600.646
327.9060, 5813.223
329.1130, 6540.434
330.3200, 6133.703
331.5270, 4949.949
332.7330, 3553.293
333.9390, 2591.598
335.1450, 1730.023
336.3510, 1289.488
337.5570, 901.6914
338.7630, 806.2246
339.9680, 704.1484
341.1740, 648.7051
342.3790, 500.3496
343.5840, 635.7031
344.7890, 488.3887
345.9930, 214.9375
347.1980, 483.0996
348.4020, 315.8477
349.6060, 489.2090
350.8100, 505.3750
352.0140, 377.5977
353.2180, 509.8984
354.4210, 684.4648
355.6250, 604.1504
356.8280, 776.9473
358.0310, 933.9043
359.2340, 1180.053
360.4360, 1677.057
361.6390, 2129.098
362.8410, 2806.418
364.0430, 3480.178
365.2450, 4409.254
366.4470, 5432.350
367.6490, 6400.459
368.8510, 7675.584
370.0520, 9901.723
371.2530, 12625.88
372.4540, 16411.05
373.6550, 19705.23
374.8560, 22068.40
376.0560, 21540.61
377.2570, 19261.83
378.4570, 16210.05
379.6570, 13571.29
380.8570, 11719.54
382.0570, 10245.80
383.2560, 9841.637
384.4560, 9650.398
385.6550, 9544.678
386.8540, 9120.967
388.0530, 8226.273
389.2520, 7618.586
390.4510, 6529.902
391.6490, 5130.227
392.8470, 3837.553
394.0450, 2899.883
395.2430, 2239.219
396.4410, 1714.559
397.6390, 1443.900
398.8360, 1179.244
400.0340, 936.5938
401.2310, 752.9453
402.4280, 703.2988
403.6250, 805.6582
404.8210, 706.0430
406.0180, 591.4570
407.2140, 711.8945
408.4100, 684.3594
409.6060, 413.8477
410.8020, 672.3555
411.9980, 584.8867
413.1930, 472.4336
414.3890, 566.8242
415.5840, 892.4043
416.7790, 872.8203
417.9740, 796.4316
419.1680, 1116.057
420.3630, 877.6953
421.5570, 1180.346
422.7510, 1230.008
423.9450, 1089.682
425.1390, 1408.365
426.3330, 1617.059
427.5270, 1863.760
428.7200, 2524.471
429.9130, 2618.189
431.1060, 3069.914
432.2990, 3236.648
433.4920, 3416.387
434.6840, 3328.133
435.8770, 3168.883
437.0690, 2709.639
438.2610, 2488.396
439.4530, 2004.162
440.6450, 1711.932
441.8360, 1369.701
443.0280, 1090.275
444.2190, 761.2500
445.4100, 681.0273
446.6010, 494.8066
447.7920, 412.5898
448.9820, 307.5000
450.1730, 108.1523
451.3630, 125.9316
452.5530, 54.71484
453.7430, 30.62305
454.9330, 83.25781
456.1230, 17.01758
457.3120, 14.77539
458.5010, 121.6582
459.6910, 89.41211
460.8800, 70.76367
462.0680, 11.90234
463.2570, 90.65039
464.4460, 99.58203
465.6340, 10.63281
466.8220, 46.29883
468.0100, 33.65820
469.1980, 147.3477
470.3860, 96.86328
471.5730, 77.95117
472.7600, 39.53711
473.9480, 4.240234
475.1350, 132.1855
476.3210, 6.314453
477.5080, 13.00977
478.6950, 189.6914
479.8810, 89.31445
481.0670, 122.2539
482.2530, 145.2266
483.4390, 105.9512
484.6250, 11.95117
485.8100, 17.87695
486.9960, 138.2598
488.1810, 163.6133
489.3660, 31.40234
490.5510, 19.59766
491.7360, 5.359375
492.9200, 10.29102
494.1050, 151.8008
495.2890, 104.0039
496.4730, 59.29492
497.6570, 155.6465
498.8400, 25.13281
500.0240, 105.6445
501.2070, 19.14453
502.3910, 102.1406
503.5740, 255.6035
504.7570, 412.0508
505.9400, 185.4863
507.1220, 241.9062
508.3050, 138.3145
509.4870, 355.7090
510.6690, 273.0879
511.8510, 374.4551
513.0330, 767.8066
514.2140, 833.8086
515.3960, 1015.180
516.5770, 1160.486
517.7580, 1449.127
518.9390, 1674.555
520.1200, 1863.826
521.3010, 2419.088
522.4810, 3000.557
523.6610, 3591.715
524.8420, 3705.963
526.0220, 3483.486
527.2010, 2924.711
528.3810, 2194.512
529.5610, 1668.105
530.7400, 1334.287
531.9190, 790.4551
533.0980, 674.6094
534.2770, 667.7539
535.4560, 536.8926
536.6340, 605.0176
537.8120, 511.1250
538.9910, 426.2188
540.1690, 176.2949
541.3460, 255.3594
542.5240, 244.4238
543.7020, 117.4668
544.8790, 217.4980
546.0560, 136.5078
547.2330, 308.5039
548.4100, 216.4863
549.5870, 401.4473
550.7630, 378.3887
551.9400, 412.3145
553.1160, 167.2539
554.2920, 453.1777
555.4680, 399.0801
556.6440, 541.9688
557.8190, 725.8379
558.9950, 736.6895
560.1700, 993.5195
561.3450, 777.3320
562.5200, 947.1230
563.6950, 690.8965
564.8690, 599.6523
566.0440, 772.3984
567.2180, 695.1270
568.3920, 758.8320
569.5660, 736.5156
570.7400, 1007.184
571.9130, 1206.824
573.0870, 1358.445
574.2600, 1412.047
575.4330, 1470.477
576.6060, 1397.074
577.7790, 1384.723
578.9520, 1117.234
580.1240, 892.7285
581.2960, 660.1973
582.4690, 594.6445
583.6410, 441.0664
584.8120, 518.4707
585.9840, 400.8496
587.1560, 526.2051
588.3270, 446.5391
589.4980, 466.8516
590.6690, 374.1406
591.8400, 469.4062
593.0110, 221.6484
594.1810, 398.8711
595.3510, 258.1602
596.5220, 206.3320
597.6920, 342.4824
598.8610, 146.5938
600.0310, 281.8359
601.2010, 110.3945
602.3700, 124.7988
603.5390, 291.3457
604.7080, 179.5098
605.8770, 64.50391
607.0460, 38.15430
608.2140, 194.7578
609.3830, 11.97656
610.5510, 39.79102
611.7190, 70.93555
612.8870, 30.99805
614.0550, 81.21094
615.2220, 196.8965
616.3900, 79.52930
617.5570, 136.9395
618.7240, 21.53320
619.8910, 102.9375
621.0580, 63.67969
622.2240, 142.9180
623.3910, 237.3809
624.5570, 72.99219
625.7230, 269.3691
626.8890, 182.9883
628.0550, 209.2852
629.2200, 489.7246
630.3860, 378.5625
631.5510, 154.8125
632.7160, 258.4590
633.8810, 230.3066
635.0460, 305.1094
636.2100, 205.8398
637.3750, 244.3145
638.5390, 61.67383
639.7030, 282.9277
640.8670, 165.0215
642.0310, 34.92773
643.1950, 358.9785
644.3580, 289.0117
645.5210, 301.0254
646.6850, 173.0215
647.8480, 182.9980
649.0100, 166.9570
650.1730, 155.9160
651.3350, 274.8574
652.4980, 252.7773
653.6600, 27.70898
654.8220, 114.6133
655.9840, 257.5039
657.1450, 55.69922
658.3070, 94.56250
659.4680, 173.8047
660.6300, 147.5371
661.7910, 2.580078
662.9510, 20.84375
664.1120, 205.6367
665.2730, 70.41797
666.4330, 168.4453
667.5930, 40.67773
668.7530, 14.49414
669.9130, 201.6230
671.0730, 208.3281
672.2320, 523.3965
673.3920, 159.9551
674.5510, 274.1270
675.7100, 430.9297
676.8690, 566.6758
678.0280, 171.6621
679.1860, 610.5664
680.3450, 572.2129
681.5030, 864.8066
682.6610, 974.3145
683.8190, 1026.367
684.9770, 1506.834
686.1340, 1754.281
687.2920, 1892.211
688.4490, 2224.619
689.6060, 2736.004
690.7630, 3501.541
691.9200, 4183.500
693.0760, 5494.248
694.2330, 6835.795
695.3890, 8964.441
696.5450, 10944.81
697.7010, 13303.20
698.8570, 15656.42
700.0130, 16476.93
701.1680, 16360.17
702.3230, 14390.33
703.4780, 11986.67
704.6330, 9505.879
705.7880, 7295.246
706.9430, 5655.318
708.0970, 4366.637
709.2520, 3769.395
710.4060, 2838.402
711.5600, 2225.387
712.7140, 1936.355
713.8670, 1621.480
715.0210, 1344.402
716.1740, 1041.303
717.3270, 992.1875
718.4800, 813.0469
719.6330, 862.8867
720.7860, 705.7070
721.9380, 647.5039
723.0910, 796.2832
724.2430, 686.0391
725.3950, 753.7734
726.5470, 507.4902
727.6980, 424.1836
728.8500, 402.8574
730.0010, 313.5137
731.1530, 337.1445
732.3040, 382.7598
733.4550, 185.3496
734.6050, 390.9336
735.7560, 283.4922
736.9060, 315.0332
738.0560, 141.4238
739.2060, 65.92383
740.3560, 89.76367
741.5060, 39.08789
742.6560, 135.2930
743.8050, 124.6777
744.9540, 167.8359
746.1030, 296.8398
747.2520, 307.2324
748.4010, 169.2227
749.5500, 91.59570
750.6980, 88.48047
751.8460, 90.24219
752.9950, 181.8633
754.1420, 18.80469
755.2900, 19.39844
756.4380, 199.3906
757.5850, 183.3223
758.7330, 192.2578
759.8800, 9.443359
761.0270, 51.55078
762.1730, 106.4473
763.3200, 142.2930
764.4670, 325.7480
765.6130, 341.8203
766.7590, 470.9746
767.9050, 504.4883
769.0510, 393.6621
770.1960, 249.5391
771.3420, 591.8691
772.4870, 591.6270
773.6320, 923.8145
774.7770, 923.4141
775.9220, 1397.625
777.0670, 1722.014
778.2110, 2291.588
779.3560, 2752.887
780.5000, 2414.857
781.6440, 1796.045
782.7880, 1295.215
783.9320, 1124.809
785.0750, 791.9434
786.2180, 766.1914
787.3620, 319.8164
788.5050, 373.9004
789.6480, 316.9668
790.7900, 350.9316
791.9330, 276.2988
793.0750, 220.0996
794.2170, 5.904297
795.3590, 274.1660
796.5010, 80.57617
797.6430, 13.61133
798.7850, 119.5137
799.9260, 98.21094
801.0670, 260.6953
802.2080, 298.3730
803.3490, 7.287109
804.4900, 82.02148
805.6310, 173.2676
806.7710, 100.3555
807.9110, 259.1035
809.0510, 102.7598
810.1910, 5.562500
811.3310, 15.64844
812.4710, 151.9629
813.6100, 161.0039
814.7490, 98.51758
815.8880, 113.2637
817.0270, 14.95703
818.1660, 24.53711
819.3050, 258.0391
820.4430, 64.56836
821.5820, 196.9297
822.7200, 446.8320
823.8580, 74.15625
824.9950, 288.4570
826.1330, 224.7422
827.2710, 153.1777
828.4080, 97.57422
829.5450, 92.58984
830.6820, 134.7344
831.8190, 105.8730
832.9560, 167.1562
834.0920, 158.2559
835.2280, 374.3379
836.3650, 118.4004
837.5010, 175.4434
838.6360, 383.4707
839.7720, 5.480469
840.9080, 10.53906
842.0430, 126.4043
843.1780, 294.3301
844.3130, 360.2402
845.4480, 323.1309
846.5830, 351.0508
847.7170, 519.9492
848.8520, 332.8340
849.9860, 147.7012
851.1200, 402.5527
852.2540, 687.3887
853.3870, 279.2090
854.5210, 274.0098
855.6540, 385.7949
856.7880, 347.5664
857.9210, 638.3203
859.0540, 450.0586
860.1860, 551.7832
861.3190, 581.4863
862.4510, 373.1777
863.5840, 521.8516
864.7160, 393.5137
865.8480, 477.1562
866.9790, 399.7812
868.1110, 435.3965
869.2420, 330.9941
870.3740, 430.5820
871.5050, 353.1523
872.6360, 486.7070
873.7660, 581.2480
874.8970, 270.6348
876.0280, 259.6641
877.1580, 249.8047
878.2880, 366.5898
879.4180, 462.8984
880.5480, 120.1641
881.6770, 500.6016
882.8070, 301.0664
883.9360, 329.5312
885.0650, 435.9883
886.1940, 204.6680
887.3230, 254.7852
888.4520, 422.6953
889.5800, 143.1445
890.7090, 256.5430
891.8370, 218.2031
892.9650, 386.6172
894.0930, 94.03906
895.2200, 122.4453
896.3480, 145.0156
897.4750, 95.96094
898.6020, 158.1211
899.7290, 237.4180
900.8560, 3.757813
901.9830, 172.0703
903.1090, 92.37891
904.2360, 262.6602
905.3620, 20.95312
906.4880, 129.2227
907.6140, 10.51953
908.7400, 168.7031
909.8650, 23.05859
910.9900, 232.1406
912.1160, 76.32422
913.2410, 87.49219
914.3660, 148.6406
915.4900, 99.77734
916.6150, 192.8984
917.7390, 392.0039
918.8640, 63.09375
919.9880, 170.1641
921.1120, 137.2227
922.2350, 56.73438
923.3590, 203.2461
924.4820, 209.2266
925.6060, 94.80469
926.7290, 185.0898
927.8520, 5.972656
928.9740, 250.8359
930.0970, 39.63672
931.2190, 29.17578
932.3420, 139.5742
933.4640, 292.4492
934.5860, 154.0234
935.7080, 293.1992
936.8290, 18.13672
937.9510, 106.5117
939.0720, 294.8047
940.1930, 6.117188
941.3140, 48.67969
942.4350, 136.4102
943.5560, 241.8789
944.6760, 143.9492
945.7960, 76.49609
946.9170, 137.3945
948.0370, 29.63672
949.1560, 206.8945
950.2760, 89.87891
951.3960, 95.91016
952.5150, 134.1641
953.6340, 103.4414
954.7530, 109.7656
955.8720, 239.5117
956.9910, 14.81641
958.1090, 266.1094
959.2280, 256.9023
960.3460, 193.1836
961.4640, 102.4805
962.5820, 349.5977
963.6990, 193.2773
964.8170, 193.1406
965.9340, 313.9609
967.0510, 95.85547
968.1690, 290.9922
969.2850, 342.0859
970.4020, 351.3047
971.5190, 483.3281
972.6350, 360.3359
973.7510, 620.7070
974.8670, 546.6797
975.9830, 555.7500
977.0990, 831.6328
978.2150, 1027.777
979.3300, 1240.910
980.4450, 1538.832
981.5600, 1863.777
982.6750, 2326.316
983.7900, 2656.582
984.9050, 3225.480
986.0190, 3739.660
987.1340, 3020.727
988.2480, 2674.777
989.3620, 2079.816
990.4750, 1787.996
991.5890, 1612.059
992.7020, 1014.070
993.8160, 901.0898
994.9290, 681.0977
996.0420, 801.0898
997.1550, 759.3125
998.2670, 425.3164
999.3800, 601.3086
1000.492, 472.3047
1001.604, 457.2773
1002.716, 501.9727
1003.828, 404.9258
1004.940, 429.8672
1006.051, 419.9805
1007.163, 401.9922
1008.274, 456.0469
1009.385, 474.9453
1010.496, 576.0625
1011.606, 520.9883
1012.717, 517.8711
1013.827, 616.5664
1014.937, 344.1523
1016.047, 600.0039
1017.157, 933.4648
1018.267, 1034.293
1019.377, 801.1133
1020.486, 1095.949
1021.595, 1021.781
1022.704, 945.6289
1023.813, 1302.336
1024.922, 1286.172
1026.030, 1534.469
1027.139, 2139.887
1028.247, 2084.387
1029.355, 2676.980
1030.463, 3128.664
1031.571, 4033.133
1032.678, 4844.852
1033.786, 5841.613
1034.893, 7134.695
1036.000, 8719.430
1037.107, 10541.84
1038.214, 12311.49
1039.321, 13102.50
1040.427, 13418.03
1041.533, 12403.11
1042.639, 10635.75
1043.745, 8710.023
1044.851, 6809.680
1045.957, 5117.215
1047.062, 4194.754
1048.168, 3338.539
1049.273, 2539.871
1050.378, 2409.480
1051.482, 2080.082
1052.587, 1444.234
1053.692, 1642.816
1054.796, 1300.258
1055.900, 988.2969
1057.004, 1092.816
1058.108, 900.5000
1059.212, 857.1172
1060.315, 671.6875
1061.418, 739.3750
1062.522, 821.8828
1063.625, 490.2773
1064.728, 763.1758
1065.830, 647.5586
1066.933, 745.0391
1068.035, 441.2227
1069.137, 547.0820
1070.239, 277.6836
1071.341, 384.7305
1072.443, 486.2148
1073.545, 380.5742
1074.646, 439.3828
1075.747, 468.7734
1076.848, 603.3477
1077.949, 669.2930
1079.050, 554.4297
1080.150, 652.8594
1081.251, 641.8125
1082.351, 431.2656
1083.451, 350.4648
1084.551, 620.6836
1085.651, 369.0664
1086.750, 302.3359
1087.850, 559.8516
1088.949, 278.3281
1090.048, 281.9141
1091.147, 484.6953
1092.246, 142.1133
1093.345, 144.7344
1094.443, 265.9766
1095.541, 126.0977
1096.639, 398.5234
1097.737, 36.05469
1098.835, 363.3359
1099.933, 315.5469
1101.030, 335.9297
1102.128, 201.3008
1103.225, 134.6641
1104.322, 343.0234
1105.419, 54.37500
1106.515, 276.7227
1107.612, 230.0625
1108.708, 241.4102
1109.804, 97.75000
1110.900, 280.0898
1111.996, 147.5820
1113.092, 173.6523
1114.187, 30.95312
1115.283, 52.17969
1116.378, 338.3945
1117.473, 68.61328
1118.568, 455.8125
1119.662, 521.0078
1120.757, 331.2031
1121.851, 57.38281
1122.946, 81.56250
1124.040, 274.7344
1125.134, 85.89453
1126.227, 319.5039
1127.321, 189.6562
1128.414, 38.80469
1129.508, 301.4766
1130.601, 416.6055
1131.693, 95.73047
1132.786, 224.8516
1133.879, 1.960938
1134.971, 323.0625
1136.064, 245.1523
1137.156, 32.24219
1138.248, 181.3203
1139.339, 62.39062
1140.431, 226.2227
1141.522, 44.28125
1142.614, 86.33594
1143.705, 273.3789
1144.796, 63.58203
1145.887, 299.4102
1146.977, 286.3984
1148.068, 44.62109
1149.158, 99.32031
1150.248, 152.2578
1151.338, 132.1875
1152.428, 179.5742
1153.518, 158.5039
1154.607, 155.9727
1155.696, 94.91406
1156.785, 73.85156
1157.874, 90.95703
1158.963, 85.82812
1160.052, 143.7148
1161.141, 133.6289
1162.229, 174.5469
1163.317, 198.4531
1164.405, 371.3633
1165.493, 34.26172
1166.581, 130.1602
1167.668, 124.0586
1168.756, 67.05469
1169.843, 389.7891
1170.930, 358.6250
1172.017, 244.4609
1173.103, 83.69922
1174.190, 280.0820
1175.276, 458.8750
1176.363, 18.66016
1177.449, 25.44141
1178.535, 25.21875
1179.620, 103.9844
1180.706, 107.7500
1181.791, 179.5156
1182.877, 94.27344
1183.962, 121.0508
1185.047, 152.7852
1186.131, 106.5312
1187.216, 21.70312
1188.300, 8.281250
1189.385, 310.7656
1190.469, 66.51562
1191.553, 230.2617
1192.637, 334.0156
1193.720, 28.24219
1194.804, 119.4922
1195.887, 299.2305
1196.970, 403.9609
1198.053, 7.691406
1199.136, 6.457031
1200.219, 145.2109
1201.301, 246.9766
1202.383, 217.7695
1203.465, 269.8398
1204.547, 43.35156
1205.629, 235.1562
1206.711, 43.95703
1207.792, 1.753906
1208.874, 83.54688
1209.955, 64.33203
1211.036, 116.1367
1212.117, 121.8945
1213.198, 176.6758
1214.278, 151.4492
1215.359, 82.22656
1216.439, 96.70312
1217.519, 16.24219
1218.599, 56.53516
1219.678, 20.69922
1220.758, 30.99219
1221.837, 156.7695
1222.917, 108.5117
1223.996, 140.1406
1225.075, 69.21094
1226.153, 176.3984
1227.232, 224.0039
1228.310, 72.80859
1229.389, 359.4062
1230.467, 337.0039
1231.545, 131.5977
1232.622, 138.1914
1233.700, 325.7812
1234.777, 246.3711
1235.855, 342.7812
1236.932, 105.3633
1238.009, 412.9453
1239.086, 519.5273
1240.162, 89.10547
1241.239, 410.6836
1242.315, 359.4570
1243.391, 31.03125
1244.467, 480.3359
1245.543, 147.7305
1246.619, 15.70312
1247.694, 349.7500
1248.769, 79.30859
1249.844, 128.8633
1250.919, 364.4180
1251.994, 215.8281
1253.069, 210.3359
1254.144, 70.88672
1255.218, 74.58203
1256.292, 239.9297
1257.366, 103.4453
1258.440, 108.2812
1259.514, 237.1797
1260.587, 411.6328
1261.661, 262.0742
1262.734, 77.52734
1263.807, 359.2422
1264.880, 560.6953
1265.952, 203.1523
1267.025, 425.3320
1268.097, 512.7852
1269.170, 13.90234
1270.242, 136.5469
1271.314, 76.77344
1272.385, 55.17969
1273.457, 196.6328
1274.528, 270.2695
1275.600, 344.7344
1276.671, 213.2031
1277.742, 68.05078
1278.812, 345.5195
1279.883, 408.0117
1280.954, 450.5000
1282.024, 97.00000
1283.094, 241.0430
1284.164, 375.3359
1285.234, 205.8359
1286.303, 308.2773
1287.373, 8.777344
1288.442, 419.2695
1289.511, 45.78906
1290.580, 418.6875
1291.649, 160.2148
