##NAMES=Jadeite
##RRUFFID=R050220
##IDEAL CHEMISTRY=NaAlSi_2_O_6_
##LOCALITY=Clear Creek, San Benito County, California, USA
##OWNER=RRUFF
##SOURCE=Hatt Yoder
##DESCRIPTION=Aggregate of colorless bladed crystals
##STATUS=The identification of this mineral has been confirmed by X-ray diffraction and chemical analysis
##URL=rruff.info/R050220
##MEASURED CHEMISTRY=Na_1.00_Al_1.00_(Si_0.99_Al_0.01_)_2_O_6_
##PIN_ID=L00896
##ORIENTATION=Laser parallel to a* (1 0 0). Fiducial mark perpendicular to laser is parallel to b [0 1 0]
112.9460, 0.0000000E+00
114.1820, 72.97900
115.4170, 158.7690
116.6530, 137.4497
117.8880, 218.2847
119.1230, 60.99121
120.3580, 84.37549
121.5920, 51.32812
122.8270, 53.20947
124.0610, 53.76416
125.2950, 95.51270
126.5290, 109.7515
127.7630, 243.2095
128.9970, 295.2593
130.2300, 440.8726
131.4640, 360.9683
132.6970, 464.4819
133.9300, 421.5723
135.1630, 642.8809
136.3950, 644.5762
137.6280, 707.1514
138.8600, 1052.586
140.0920, 1434.266
141.3240, 1894.158
142.5560, 2235.354
143.7880, 2552.509
145.0190, 2429.611
146.2510, 2251.575
147.4820, 1808.510
148.7130, 1227.425
149.9440, 862.3252
151.1750, 372.2886
152.4050, 324.7969
153.6360, 203.8848
154.8660, 8.900879
156.0960, 76.20459
157.3260, 5.214355
158.5560, 10.85840
159.7850, 44.00195
161.0150, 30.20703
162.2440, 122.5352
163.4730, 48.22949
164.7020, 115.8857
165.9310, 123.5088
167.1590, 15.10742
168.3880, 56.68652
169.6160, 41.25879
170.8440, 0.1718750
172.0720, 82.39941
173.3000, 31.65234
174.5280, 2.937500
175.7550, 120.0215
176.9820, 104.8613
178.2100, 64.63379
179.4370, 212.5391
180.6630, 206.4844
181.8900, 171.4678
183.1170, 246.4844
184.3430, 418.5352
185.5690, 332.6191
186.7950, 522.7246
188.0210, 726.8271
189.2470, 1175.120
190.4720, 1607.474
191.6970, 2350.242
192.9230, 3135.771
194.1480, 3910.272
195.3730, 4480.817
196.5970, 4702.412
197.8220, 5841.051
199.0460, 7754.736
200.2700, 10261.47
201.4940, 13087.24
202.7180, 15370.06
203.9420, 16238.92
205.1660, 15428.83
206.3890, 12915.77
207.6120, 9895.759
208.8350, 6689.783
210.0580, 4197.832
211.2810, 2532.897
212.5040, 1541.002
213.7260, 1001.144
214.9480, 753.3213
216.1700, 417.5342
217.3920, 482.7822
218.6140, 459.0713
219.8360, 336.4014
221.0570, 381.8096
222.2790, 436.2529
223.5000, 533.8018
224.7210, 468.4678
225.9410, 248.2246
227.1620, 305.0068
228.3820, 188.8115
229.6030, 172.6396
230.8230, 55.49023
232.0430, 62.63672
233.2630, 29.29102
234.4820, 91.25293
235.7020, 63.24316
236.9210, 45.80176
238.1400, 6.317383
239.3590, 79.61328
240.5780, 72.52148
241.7970, 94.09180
243.0150, 147.7266
244.2340, 99.88281
245.4520, 274.0605
246.6700, 466.2236
247.8880, 531.4092
249.1060, 507.6133
250.3230, 691.7764
251.5400, 1079.894
252.7580, 1447.034
253.9750, 1744.197
255.1920, 2106.383
256.4080, 2160.591
257.6250, 2049.820
258.8410, 1760.072
260.0580, 1132.114
261.2740, 584.4922
262.4900, 282.0859
263.7050, 112.8438
264.9210, 39.27246
266.1360, 84.70508
267.3520, 110.2324
268.5670, 61.87891
269.7820, 77.94629
270.9960, 20.26855
272.2110, 87.47266
273.4250, 100.8066
274.6400, 156.8730
275.8540, 36.44336
277.0680, 85.79492
278.2810, 122.1787
279.4950, 379.5898
280.7090, 309.0234
281.9220, 394.4844
283.1350, 491.9229
284.3480, 784.3623
285.5610, 883.8291
286.7730, 1147.319
287.9860, 1547.834
289.1980, 1736.369
290.4100, 2199.922
291.6220, 2469.492
292.8340, 2425.077
294.0460, 2551.677
295.2570, 2394.290
296.4690, 2308.919
297.6800, 2289.562
298.8910, 2318.468
300.1020, 2367.881
301.3120, 2534.390
302.5230, 2734.072
303.7330, 2920.764
304.9440, 3708.231
306.1540, 4384.537
307.3630, 5422.375
308.5730, 6363.109
309.7830, 6675.855
310.9920, 7237.611
312.2010, 6752.383
313.4100, 6123.162
314.6190, 5073.955
315.8280, 4335.760
317.0370, 3557.549
318.2450, 3118.390
319.4530, 3077.226
320.6610, 3187.954
321.8690, 3366.811
323.0770, 3784.770
324.2850, 4393.539
325.4920, 5446.327
326.6990, 6422.934
327.9060, 6983.852
329.1130, 7064.783
330.3200, 6541.945
331.5270, 5768.023
332.7330, 4474.020
333.9390, 3173.770
335.1450, 2251.184
336.3510, 1619.975
337.5570, 1237.965
338.7630, 903.9316
339.9680, 802.8438
341.1740, 556.8096
342.3790, 625.7539
343.5840, 616.7129
344.7890, 404.6865
345.9930, 482.6758
347.1980, 409.6787
348.4020, 545.6963
349.6060, 537.7314
350.8100, 651.8750
352.0140, 837.9307
353.2180, 1031.008
354.4210, 1213.001
355.6250, 1292.104
356.8280, 1718.239
358.0310, 2038.521
359.2340, 2917.701
360.4360, 3611.894
361.6390, 4753.098
362.8410, 6324.314
364.0430, 8216.543
365.2450, 10709.78
366.4470, 13241.04
367.6490, 15803.30
368.8510, 19534.57
370.0520, 23779.86
371.2530, 29200.15
372.4540, 33705.44
373.6550, 37257.77
374.8560, 38849.09
376.0560, 37370.42
377.2570, 33683.16
378.4570, 28465.52
379.6570, 23273.88
380.8570, 19425.25
382.0570, 16446.63
383.2560, 14317.78
384.4560, 12945.72
385.6550, 11804.05
386.8540, 10858.24
388.0530, 9742.657
389.2520, 8481.086
390.4510, 6961.521
391.6490, 5703.967
392.8470, 4498.420
394.0450, 3643.882
395.2430, 2741.354
396.4410, 2182.831
397.6390, 1695.318
398.8360, 1472.813
400.0340, 1250.318
401.2310, 1111.831
402.4280, 986.3506
403.6250, 978.8789
404.8210, 947.4209
406.0180, 719.9746
407.2140, 860.2363
408.4100, 603.8125
409.6060, 845.2139
410.8020, 750.8105
411.9980, 844.4180
413.1930, 908.0332
414.3890, 995.4189
415.5840, 1185.610
416.7790, 1184.923
417.9740, 1553.571
419.1680, 1753.457
420.3630, 1862.123
421.5570, 2191.799
422.7510, 2814.481
423.9450, 3246.172
425.1390, 3848.871
426.3330, 4563.578
427.5270, 5314.293
428.7200, 6212.015
429.9130, 7057.746
431.1060, 8005.484
432.2990, 8530.230
433.4920, 8602.982
434.6840, 8516.742
435.8770, 7968.512
437.0690, 6986.287
438.2610, 6193.070
439.4530, 5038.860
440.6450, 4070.657
441.8360, 3142.462
443.0280, 2517.271
444.2190, 2169.090
445.4100, 1757.915
446.6010, 1432.747
447.7920, 1159.587
448.9820, 915.4336
450.1730, 817.2939
451.3630, 693.1650
452.5530, 379.0420
453.7430, 437.9248
454.9330, 243.8145
456.1230, 365.7100
457.3120, 178.6123
458.5010, 328.5215
459.6910, 51.43555
460.8800, 99.97363
462.0680, 40.90918
463.2570, 82.91113
464.4460, 57.84863
465.6340, 23.42480
466.8220, 60.79688
468.0100, 177.2373
469.1980, 63.81543
470.3860, 60.35449
471.5730, 84.61523
472.7600, 5.174805
473.9480, 95.76562
475.1350, 84.11133
476.3210, 88.87598
477.5080, 50.04395
478.6950, 52.99902
479.8810, 52.77441
481.0670, 27.55078
482.2530, 51.47949
483.4390, 18.11230
484.6250, 43.89648
485.8100, 111.6826
486.9960, 79.47363
488.1810, 81.26758
489.3660, 63.06445
490.5510, 25.86523
491.7360, 25.19043
492.9200, 23.95898
494.1050, 5.151367
495.2890, 155.6104
496.4730, 3.606445
497.6570, 88.25000
498.8400, 36.45410
500.0240, 3.693359
501.2070, 302.0781
502.3910, 287.8525
503.5740, 179.6279
504.7570, 358.4062
505.9400, 274.1846
507.1220, 382.9648
508.3050, 629.7480
509.4870, 628.5322
510.6690, 939.3184
511.8510, 1358.105
513.0330, 1711.895
514.2140, 2122.686
515.3960, 2650.479
516.5770, 3474.272
517.7580, 4234.068
518.9390, 5194.866
520.1200, 6174.681
521.3010, 7596.496
522.4810, 8930.313
523.6610, 9838.133
524.8420, 9758.953
526.0220, 9142.778
527.2010, 7683.621
528.3810, 5949.486
529.5610, 4528.375
530.7400, 3127.270
531.9190, 2298.163
533.0980, 1685.059
534.2770, 1206.955
535.4560, 951.8545
536.6340, 742.7529
537.8120, 598.6533
538.9910, 439.1641
540.1690, 339.4688
541.3460, 237.3828
542.5240, 165.3008
543.7020, 123.2188
544.8790, 118.1377
546.0560, 46.05762
547.2330, 42.97852
548.4100, 3.899414
549.5870, 254.8135
550.7630, 315.7275
551.9400, 268.6514
553.1160, 342.5771
554.2920, 264.5293
555.4680, 324.2002
556.6440, 395.4521
557.8190, 478.4229
558.9950, 536.4160
560.1700, 765.4082
561.3450, 519.4521
562.5200, 853.5117
563.6950, 828.5713
564.8690, 825.6309
566.0440, 1077.690
567.2180, 1226.750
568.3920, 1463.810
569.5660, 1684.869
570.7400, 2055.927
571.9130, 2498.984
573.0870, 2723.043
574.2600, 3191.100
575.4330, 3231.155
576.6060, 2984.212
577.7790, 2414.268
578.9520, 2210.322
580.1240, 1717.375
581.2960, 1282.428
582.4690, 933.4814
583.6410, 702.5332
584.8120, 553.0840
585.9840, 616.6348
587.1560, 512.6826
588.3270, 669.7305
589.4980, 802.7764
590.6690, 606.8223
591.8400, 643.8662
593.0110, 472.9092
594.1810, 248.9512
595.3510, 276.9912
596.5220, 150.0303
597.6920, 137.0674
598.8610, 87.10254
600.0310, 110.1377
601.2010, 22.82910
602.3700, 60.82129
603.5390, 38.14062
604.7080, 186.0977
605.8770, 56.94531
607.0460, 22.81348
608.2140, 13.72070
609.3830, 172.3789
610.5510, 162.3359
611.7190, 17.36133
612.8870, 56.94531
614.0550, 29.50977
615.2220, 71.05664
616.3900, 20.29785
617.5570, 124.5977
618.7240, 122.1758
619.8910, 92.60449
621.0580, 190.1641
622.2240, 30.72363
623.3910, 134.2861
624.5570, 146.8145
625.7230, 197.3770
626.8890, 285.9404
628.0550, 142.5020
629.2200, 110.0859
630.3860, 126.6729
631.5510, 1.713867
632.7160, 19.89062
633.8810, 120.4004
635.0460, 47.01074
636.2100, 140.6162
637.3750, 12.31738
638.5390, 66.07910
639.7030, 60.51562
640.8670, 77.89551
642.0310, 150.4229
643.1950, 335.9482
644.3580, 143.4746
645.5210, 317.9990
646.6850, 274.5273
647.8480, 299.0547
649.0100, 291.5889
650.1730, 334.1328
651.3350, 313.6963
652.4980, 302.2705
653.6600, 307.8574
654.8220, 242.4629
655.9840, 259.0693
657.1450, 424.6758
658.3070, 291.2822
659.4680, 362.8877
660.6300, 293.4932
661.7910, 344.0967
662.9510, 358.7012
664.1120, 540.3223
665.2730, 556.9414
666.4330, 649.0176
667.5930, 588.2236
668.7530, 777.8584
669.9130, 748.1533
671.0730, 756.7852
672.2320, 887.4170
673.3920, 827.0469
674.5510, 1138.678
675.7100, 1309.314
676.8690, 1328.950
678.0280, 1428.587
679.1860, 1741.803
680.3450, 2113.436
681.5030, 2409.312
682.6610, 2740.943
683.8190, 3266.572
684.9770, 3984.200
686.1340, 4718.839
687.2920, 6072.473
688.4490, 7242.413
689.6060, 9247.046
690.7630, 11792.68
691.9200, 14842.31
693.0760, 18760.94
694.2330, 23456.56
695.3890, 29812.19
696.5450, 33951.81
697.7010, 39052.43
698.8570, 43416.06
700.0130, 44756.55
701.1680, 43160.77
702.3230, 38554.39
703.4780, 32263.00
704.6330, 25900.61
705.7880, 20267.21
706.9430, 15666.82
708.0970, 12012.42
709.2520, 9473.021
710.4060, 7639.621
711.5600, 6250.221
712.7140, 5141.813
713.8670, 4351.405
715.0210, 3601.995
716.1740, 3153.582
717.3270, 2638.168
718.4800, 2290.752
719.6330, 1964.333
720.7860, 1776.912
721.9380, 1632.488
723.0910, 1395.063
724.2430, 1214.635
725.3950, 1277.204
726.5470, 1071.771
727.6980, 1097.336
728.8500, 1084.898
730.0010, 866.4600
731.1530, 875.0176
732.3040, 835.5742
733.4550, 608.1279
734.6050, 727.6787
735.7560, 696.2295
736.9060, 652.7754
738.0560, 635.3203
739.2060, 648.8623
740.3560, 591.7852
741.5060, 497.3154
742.6560, 494.7812
743.8050, 382.3154
744.9540, 544.0664
746.1030, 394.3203
747.2520, 389.3594
748.4010, 451.8945
749.5500, 292.1963
750.6980, 404.4092
751.8460, 321.3301
752.9950, 348.7500
754.1420, 347.3311
755.2900, 293.8691
756.4380, 298.4766
757.5850, 215.5605
758.7330, 243.2012
759.8800, 319.8438
761.0270, 371.7031
762.1730, 264.3467
763.3200, 340.9932
764.4670, 466.6387
765.6130, 279.2852
766.7590, 334.2334
767.9050, 522.2539
769.0510, 664.1387
770.1960, 775.2637
771.3420, 877.8682
772.4870, 1079.846
773.6320, 1209.523
774.7770, 1528.187
775.9220, 1893.776
777.0670, 2221.020
778.2110, 2522.617
779.3560, 2699.292
780.5000, 2759.968
781.6440, 2633.644
782.7880, 2149.319
783.9320, 1692.545
785.0750, 1079.263
786.2180, 1029.241
787.3620, 751.2549
788.5050, 471.4980
789.6480, 350.5781
790.7900, 190.2578
791.9330, 211.3535
793.0750, 153.1426
794.2170, 151.8184
795.3590, 68.49219
796.5010, 32.16602
797.6430, 39.94922
798.7850, 27.51074
799.9260, 78.36328
801.0670, 65.74707
802.2080, 124.5137
803.3490, 11.72070
804.4900, 6.389648
805.6310, 10.05566
806.7710, 12.69824
807.9110, 89.37793
809.0510, 20.03320
810.1910, 82.68848
811.3310, 107.3438
812.4710, 67.17773
813.6100, 156.8291
814.7490, 83.47852
815.8880, 41.87207
817.0270, 69.75293
818.1660, 3.624023
819.3050, 170.9941
820.4430, 38.61230
821.5820, 47.22754
822.7200, 96.99023
823.8580, 46.60254
824.9950, 23.21484
826.1330, 43.82910
827.2710, 57.44238
828.4080, 58.05371
829.5450, 72.66406
830.6820, 159.2725
831.8190, 47.87988
832.9560, 198.4863
834.0920, 256.0918
835.2280, 163.6943
836.3650, 44.70312
837.5010, 56.12988
838.6360, 126.4102
839.7720, 100.9541
840.9080, 114.4951
842.0430, 146.0361
843.1780, 188.6006
844.3130, 163.1641
845.4480, 134.7266
846.5830, 150.2891
847.7170, 152.2178
848.8520, 262.4062
849.9860, 221.9629
851.1200, 284.5186
852.2540, 382.0723
853.3870, 262.6250
854.5210, 316.1758
855.6540, 271.7256
856.7880, 326.2734
857.9210, 384.8203
859.0540, 275.3652
860.1860, 486.9092
861.3190, 401.4521
862.4510, 328.9941
863.5840, 227.5332
864.7160, 222.0723
865.8480, 246.6094
866.9790, 84.14453
868.1110, 245.6797
869.2420, 202.2256
870.3740, 188.7715
871.5050, 240.3145
872.6360, 236.8574
873.7660, 278.3994
874.8970, 129.9395
876.0280, 132.4893
877.1580, 186.0518
878.2880, 248.6328
879.4180, 123.2148
880.5480, 173.7959
881.6770, 83.39551
882.8070, 254.9961
883.9360, 229.6064
885.0650, 139.2676
886.1940, 347.9746
887.3230, 234.6982
888.4520, 180.4424
889.5800, 34.18457
890.7090, 13.07422
891.8370, 151.6631
892.9650, 6.600586
894.0930, 229.1631
895.2200, 140.9248
896.3480, 14.31641
897.4750, 154.4287
898.6020, 108.1729
899.7290, 127.9141
900.8560, 165.6533
901.9830, 78.60840
903.1090, 8.2030997E-02
904.2360, 93.23535
905.3620, 93.39160
906.4880, 209.0195
907.6140, 201.6455
908.7400, 1.269531
909.8650, 225.8877
910.9900, 26.50195
912.1160, 55.11621
913.2410, 175.7461
914.3660, 81.39355
915.4900, 51.03711
916.6150, 49.67969
917.7390, 102.3203
918.8640, 1.042969
919.9880, 17.58594
921.1120, 12.78125
922.2350, 29.16504
923.3590, 64.57324
924.4820, 30.01367
925.6060, 39.47852
926.7290, 61.97168
927.8520, 11.49219
928.9740, 85.95312
930.0970, 149.4121
931.2190, 114.8682
932.3420, 71.32910
933.4640, 55.81738
934.5860, 7.787109
935.7080, 50.21777
936.8290, 13.24316
937.9510, 47.29980
939.0720, 142.1211
940.1930, 103.5303
941.3140, 66.96191
942.4350, 121.7295
943.5560, 102.1562
944.6760, 70.58008
945.7960, 53.00195
946.9170, 25.57910
948.0370, 138.8174
949.1560, 78.21191
950.2760, 255.6035
951.3960, 59.41797
952.5150, 132.8125
953.6340, 209.9590
954.7530, 55.34766
955.8720, 166.7344
956.9910, 25.88086
958.1090, 201.4805
959.2280, 45.84082
960.3460, 142.1973
961.4640, 175.5537
962.5820, 81.90527
963.6990, 393.2559
964.8170, 142.6045
965.9340, 319.9502
967.0510, 232.2930
968.1690, 272.6338
969.2850, 217.9736
970.4020, 333.3096
971.5190, 488.7666
972.6350, 401.5010
973.7510, 512.4775
974.8670, 600.8057
975.9830, 698.1318
977.0990, 1031.652
978.2150, 1254.974
979.3300, 1529.293
980.4450, 2030.609
981.5600, 2455.931
982.6750, 3102.252
983.7900, 3433.569
984.9050, 3936.884
986.0190, 4045.197
987.1340, 3618.509
988.2480, 3143.816
989.3620, 2550.123
990.4750, 2167.426
991.5890, 1587.728
992.7020, 1109.026
993.8160, 1280.322
994.9290, 998.6182
996.0420, 774.9307
997.1550, 826.2607
998.2670, 799.5879
999.3800, 753.9131
1000.492, 799.2373
1001.604, 735.5576
1002.716, 705.9629
1003.828, 543.0684
1004.940, 558.3809
1006.051, 518.6924
1007.163, 354.0020
1008.274, 400.3076
1009.385, 307.1787
1010.496, 287.4795
1011.606, 340.7783
1012.717, 369.0742
1013.827, 334.3682
1014.937, 401.3184
1016.047, 478.9463
1017.157, 506.0430
1018.267, 565.3252
1019.377, 666.6045
1020.486, 649.5459
1021.595, 666.8203
1022.704, 885.0898
1023.813, 950.4873
1024.922, 907.5303
1026.030, 1268.801
1027.139, 1481.364
1028.247, 1650.628
1029.355, 1975.888
1030.463, 2280.927
1031.571, 2593.221
1032.678, 3390.470
1033.786, 3847.715
1034.893, 4537.955
1036.000, 5705.891
1037.107, 6809.754
1038.214, 7841.748
1039.321, 8365.978
1040.427, 8371.203
1041.533, 7784.427
1042.639, 6898.312
1043.745, 5883.531
1044.851, 4763.744
1045.957, 3807.956
1047.062, 3004.167
1048.168, 2378.372
1049.273, 1708.576
1050.378, 1534.776
1051.482, 1280.974
1052.587, 1059.621
1053.692, 675.9512
1054.796, 916.8398
1055.900, 641.6895
1057.004, 616.2686
1058.108, 788.0469
1059.212, 457.2246
1060.315, 379.9824
1061.418, 499.0449
1062.522, 468.2188
1063.625, 402.3926
1064.728, 427.1719
1065.830, 388.3398
1066.933, 381.8730
1068.035, 384.8555
1069.137, 395.3047
1070.239, 363.3691
1071.341, 458.9902
1072.443, 284.1445
1073.545, 292.4980
1074.646, 333.6504
1075.747, 243.8047
1076.848, 367.9590
1077.949, 434.1074
1079.050, 467.2559
1080.150, 558.2207
1081.251, 495.3652
1082.351, 447.5117
1083.451, 493.0352
1084.551, 364.1895
1085.651, 371.3379
1086.750, 359.4883
1087.850, 194.6387
1088.949, 389.7852
1090.048, 232.5840
1091.147, 183.4473
1092.246, 123.0684
1093.345, 61.21094
1094.443, 79.34961
1095.541, 149.4883
1096.639, 77.62500
1097.737, 334.7598
1098.835, 256.8965
1099.933, 167.0293
1101.030, 267.1602
1102.128, 99.29102
1103.225, 71.41992
1104.322, 96.56250
1105.419, 6.281250
1106.515, 75.86523
1107.612, 23.01172
1108.708, 94.84180
1109.804, 219.2500
1110.900, 204.3398
1111.996, 89.42773
1113.092, 118.1465
1114.187, 264.2344
1115.283, 188.3203
1116.378, 368.4062
1117.473, 413.4902
1118.568, 374.5723
1119.662, 489.6543
1120.757, 543.7363
1121.851, 405.8184
1122.946, 490.8965
1124.040, 588.9766
1125.134, 430.0547
1126.227, 451.1309
1127.321, 332.0273
1128.414, 312.5234
1129.508, 220.5996
1130.601, 241.6719
1131.693, 248.7441
1132.786, 148.8145
1133.879, 38.11523
1134.971, 63.92969
1136.064, 123.9746
1137.156, 112.0156
1138.248, 387.0566
1139.339, 72.09961
1140.431, 33.86133
1141.522, 23.15625
1142.614, 191.1719
1143.705, 47.18750
1144.796, 94.20312
1145.887, 49.22852
1146.977, 119.2422
1148.068, 22.74219
1149.158, 105.2539
1150.248, 142.2520
1151.338, 52.37695
1152.428, 110.5879
1153.518, 37.55273
1154.607, 94.51367
1155.696, 136.4785
1156.785, 17.70703
1157.874, 60.67578
1158.963, 52.91406
1160.052, 21.88477
1161.141, 118.8594
1162.229, 9.837891
1163.317, 64.81641
1164.405, 248.7949
1165.493, 216.7734
1166.581, 209.7500
1167.668, 66.75391
1168.756, 120.7598
1169.843, 69.79102
1170.930, 74.33398
1172.017, 62.85547
1173.103, 121.8887
1174.190, 157.9258
1175.276, 176.9609
1176.363, 210.0000
1177.449, 151.0371
1178.535, 206.0762
1179.620, 213.1172
1180.706, 128.1582
1181.791, 96.19922
1182.877, 197.2383
1183.962, 15.71484
1185.047, 70.32227
1186.131, 118.3652
1187.216, 28.58008
1188.300, 27.47852
1189.385, 13.54688
1190.469, 83.63086
1191.553, 84.73633
1192.637, 25.84180
1193.720, 180.9531
1194.804, 23.93750
1195.887, 17.16016
1196.970, 163.7422
1198.053, 46.26562
1199.136, 32.28125
1200.219, 29.31250
1201.301, 162.3457
1202.383, 117.3965
1203.465, 50.55273
1204.547, 74.47461
1205.629, 267.5020
1206.711, 136.5312
1207.792, 237.5605
1208.874, 7.591797
1209.955, 272.6250
1211.036, 177.6699
1212.117, 117.7168
1213.198, 23.23242
1214.278, 58.80664
1215.359, 61.84570
1216.439, 97.88867
1217.519, 157.9336
1218.599, 156.0508
1219.678, 165.0273
1220.758, 194.0879
1221.837, 114.1504
1222.917, 150.2148
1223.996, 175.2852
1225.075, 119.3535
1226.153, 133.4258
1227.232, 197.5020
1228.310, 244.5801
1229.389, 240.9609
1230.467, 119.7422
1231.545, 226.8281
1232.622, 181.3086
1233.700, 148.0078
1234.777, 329.1016
1235.855, 192.5488
1236.932, 428.6504
1238.009, 130.7539
1239.086, 62.66016
1240.162, 54.76953
1241.239, 19.88086
1242.315, 35.00195
1243.391, 78.09961
1244.467, 125.2070
1245.543, 161.3184
1246.619, 149.4336
1247.694, 121.5508
1248.769, 281.6738
1249.844, 143.7969
1250.919, 77.92773
1251.994, 227.0605
1253.069, 6.197266
1254.144, 75.33789
1255.218, 79.48438
1256.292, 88.36523
1257.366, 82.25391
1258.440, 83.82422
1259.514, 122.9043
1260.587, 259.9922
1261.661, 166.1035
1262.734, 331.2344
1263.807, 157.5176
1264.880, 200.6797
1265.952, 347.8535
1267.025, 142.0293
1268.097, 163.2129
1269.170, 270.3984
1270.242, 87.02344
1271.314, 106.2227
1272.385, 340.4219
1273.457, 250.6309
1274.528, 0.8437500
1275.600, 422.0625
1276.671, 110.2832
1277.742, 170.7012
1278.812, 218.9375
1279.883, 14.82227
1280.954, 273.7559
1282.024, 110.0059
1283.094, 114.2617
1284.164, 131.5254
1285.234, 57.20898
1286.303, 109.0469
1287.373, 12.69336
1288.442, 160.5723
1289.511, 148.8438
1290.580, 82.12305
1291.649, 105.3652
