##NAMES=Jadeite
##RRUFFID=R050220
##IDEAL CHEMISTRY=NaAlSi_2_O_6_
##LOCALITY=Clear Creek, San Benito County, California, USA
##OWNER=RRUFF
##SOURCE=Hatt Yoder
##DESCRIPTION=Aggregate of colorless bladed crystals
##STATUS=The identification of this mineral has been confirmed by X-ray diffraction and chemical analysis
##URL=rruff.info/R050220
##MEASURED CHEMISTRY=Na_1.00_Al_1.00_(Si_0.99_Al_0.01_)_2_O_6_
##PIN_ID=L01047
##ORIENTATION=Laser parallel to b* (0 1 0). Fiducial mark perpendicular to laser is parallel to c [0 0 1]
105.5290, 0.0000000E+00
106.7660, 51.80273
108.0020, 866.7832
109.2390, 686.2539
110.4750, 1006.100
111.7110, 1535.603
112.9460, 1597.964
114.1820, 1370.550
115.4170, 1283.006
116.6530, 1029.108
117.8880, 620.1436
119.1230, 402.9336
120.3580, 343.7354
121.5920, 87.38477
122.8270, 0.6923830
124.0610, 12.53223
125.2950, 64.26074
126.5290, 36.82520
127.7630, 302.7246
128.9970, 350.2822
130.2300, 130.7539
131.4640, 220.0625
132.6970, 25.85742
133.9300, 193.9375
135.1630, 395.4033
136.3950, 241.4951
137.6280, 357.1777
138.8600, 478.4268
140.0920, 701.6572
141.3240, 810.3496
142.5560, 1142.480
143.7880, 1484.021
145.0190, 1702.934
146.2510, 1490.236
147.4820, 892.9375
148.7130, 700.9365
149.9440, 765.2188
151.1750, 478.7705
152.4050, 444.5859
153.6360, 281.6553
154.8660, 337.9697
156.0960, 285.5234
157.3260, 359.3105
158.5560, 308.3262
159.7850, 360.5654
161.0150, 204.0293
162.2440, 389.7227
163.4730, 457.6426
164.7020, 508.7822
165.9310, 366.1387
167.1590, 439.7061
168.3880, 500.4795
169.6160, 345.4541
170.8440, 430.6289
172.0720, 435.1895
173.3000, 442.4609
174.5280, 528.1514
175.7550, 394.8799
176.9820, 454.7949
178.2100, 449.8926
179.4370, 389.1240
180.6630, 454.3594
181.8900, 621.6270
183.1170, 509.9414
184.3430, 629.3096
185.5690, 563.7354
186.7950, 761.5078
188.0210, 879.1240
189.2470, 1025.693
190.4720, 1429.310
191.6970, 1690.016
192.9230, 2037.642
194.1480, 2645.698
195.3730, 2873.683
196.5970, 3186.768
197.8220, 3790.955
199.0460, 5197.242
200.2700, 7467.633
201.4940, 10266.12
202.7180, 14609.72
203.9420, 16840.42
205.1660, 15414.23
206.3890, 13225.13
207.6120, 10627.14
208.8350, 6452.250
210.0580, 3600.470
211.2810, 1998.801
212.5040, 1453.244
213.7260, 1115.868
214.9480, 1098.656
216.1700, 843.6416
217.3920, 865.8037
218.6140, 967.1240
219.8360, 1187.555
221.0570, 1790.079
222.2790, 2185.695
223.5000, 2583.403
224.7210, 2404.202
225.9410, 1538.094
227.1620, 691.0771
228.3820, 589.1553
229.6030, 403.3252
230.8230, 274.5869
232.0430, 226.5596
233.2630, 24.39258
234.4820, 141.9424
235.7020, 57.58398
236.9210, 9.686523
238.1400, 73.12891
239.3590, 84.96777
240.5780, 155.9795
241.7970, 7.905273
243.0150, 89.25195
244.2340, 38.49316
245.4520, 70.81348
246.6700, 144.1816
247.8880, 290.6143
249.1060, 297.1270
250.3230, 498.7168
251.5400, 594.3877
252.7580, 886.8975
253.9750, 1258.040
255.1920, 1452.578
256.4080, 1640.407
257.6250, 1455.458
258.8410, 965.6924
260.0580, 408.1045
261.2740, 412.6709
262.4900, 93.25879
263.7050, 71.95215
264.9210, 76.82422
266.1360, 157.8477
267.3520, 74.96680
268.5670, 91.36621
269.7820, 46.38770
270.9960, 32.22754
272.2110, 167.4258
273.4250, 60.96973
274.6400, 92.96387
275.8540, 160.0762
277.0680, 235.3027
278.2810, 316.6377
279.4950, 331.4551
280.7090, 498.9990
281.9220, 717.6416
283.1350, 819.3828
284.3480, 1109.219
285.5610, 1399.146
286.7730, 1828.161
287.9860, 2147.261
289.1980, 3003.445
290.4100, 3475.711
291.6220, 3857.058
292.8340, 4318.482
294.0460, 3941.984
295.2570, 3699.562
296.4690, 3143.214
297.6800, 2727.938
298.8910, 2478.736
300.1020, 2284.604
301.3120, 2026.543
302.5230, 2060.551
303.7330, 1970.627
304.9440, 2507.771
306.1540, 2765.979
307.3630, 3343.255
308.5730, 4033.595
309.7830, 4691.999
310.9920, 4659.464
312.2010, 5085.295
313.4100, 3586.885
314.6190, 2619.533
315.8280, 2017.931
317.0370, 1665.699
318.2450, 1570.528
319.4530, 1526.175
320.6610, 1419.237
321.8690, 1584.519
323.0770, 1878.581
324.2850, 2127.089
325.4920, 2626.831
326.6990, 3531.612
327.9060, 4215.396
329.1130, 4658.332
330.3200, 4228.831
331.5270, 3163.000
332.7330, 2256.640
333.9390, 1569.344
335.1450, 996.1094
336.3510, 630.9336
337.5570, 381.8398
338.7630, 343.8018
339.9680, 448.8223
341.1740, 225.9551
342.3790, 205.1641
343.5840, 240.4229
344.7890, 285.7637
345.9930, 118.1660
347.1980, 314.6309
348.4020, 368.1621
349.6060, 308.7412
350.8100, 170.3936
352.0140, 178.0957
353.2180, 338.8604
354.4210, 329.6709
355.6250, 430.5264
356.8280, 514.4277
358.0310, 705.3740
359.2340, 886.8242
360.4360, 1413.855
361.6390, 1645.944
362.8410, 2408.075
364.0430, 3005.246
365.2450, 4004.455
366.4470, 4813.707
367.6490, 5429.997
368.8510, 6586.326
370.0520, 8194.690
371.2530, 10521.10
372.4540, 12880.53
373.6550, 14980.01
374.8560, 16609.53
376.0560, 15962.07
377.2570, 14207.65
378.4570, 12093.27
379.6570, 10208.92
380.8570, 9044.608
382.0570, 8211.240
383.2560, 8377.992
384.4560, 8474.213
385.6550, 8663.158
386.8540, 8125.934
388.0530, 6932.816
389.2520, 5388.730
390.4510, 4232.676
391.6490, 3105.648
392.8470, 2174.654
394.0450, 1418.689
395.2430, 1080.754
396.4410, 948.8477
397.6390, 561.9961
398.8360, 500.1934
400.0340, 451.4414
401.2310, 363.7344
402.4280, 326.0762
403.6250, 406.4590
404.8210, 314.8887
406.0180, 423.7676
407.2140, 364.2852
408.4100, 226.8457
409.6060, 564.8477
410.8020, 457.4902
411.9980, 564.9082
413.1930, 862.6309
414.3890, 736.7793
415.5840, 925.5820
416.7790, 1032.432
417.9740, 1250.324
419.1680, 1386.254
420.3630, 1312.221
421.5570, 1588.221
422.7510, 1547.256
423.9450, 1847.330
425.1390, 1995.438
426.3330, 2240.578
427.5270, 2668.754
428.7200, 2953.959
429.9130, 3693.197
431.1060, 3989.467
432.2990, 4568.768
433.4920, 4931.098
434.6840, 4771.461
435.8770, 4697.854
437.0690, 4151.273
438.2610, 3516.723
439.4530, 2495.201
440.6450, 2184.709
441.8360, 1922.242
443.0280, 1082.805
444.2190, 936.3926
445.4100, 880.0098
446.6010, 572.6523
447.7920, 302.3203
448.9820, 277.0156
450.1730, 233.7344
451.3630, 157.4766
452.5530, 175.2461
453.7430, 34.03711
454.9330, 12.14648
456.1230, 160.6914
457.3120, 7.697266
458.5010, 52.41992
459.6910, 133.7285
460.8800, 110.7207
462.0680, 162.3477
463.2570, 5.238281
464.4460, 131.3262
465.6340, 22.61523
466.8220, 62.82227
468.0100, 261.9062
469.1980, 13.66797
470.3860, 11.76172
471.5730, 123.7031
472.7600, 79.42188
473.9480, 36.56641
475.1350, 26.14258
476.3210, 35.93945
477.5080, 221.6172
478.6950, 198.2617
479.8810, 172.9277
481.0670, 283.0977
482.2530, 67.83398
483.4390, 197.9102
484.6250, 301.1289
485.8100, 96.13867
486.9960, 252.7129
488.1810, 237.3242
489.3660, 192.5488
490.5510, 216.6445
491.7360, 205.6309
492.9200, 368.0352
494.1050, 230.5820
495.2890, 66.40820
496.4730, 151.4473
497.6570, 279.4688
498.8400, 172.9082
500.0240, 168.9414
501.2070, 7.017578
502.3910, 274.0117
503.5740, 177.0430
504.7570, 369.0840
505.9400, 466.1309
507.1220, 560.1797
508.3050, 619.9258
509.4870, 690.9824
510.6690, 786.0410
511.8510, 893.1035
513.0330, 1158.170
514.2140, 1466.238
515.3960, 1826.309
516.5770, 2286.379
517.7580, 2817.457
518.9390, 3596.535
520.1200, 4419.635
521.3010, 5540.734
522.4810, 6814.836
523.6610, 8028.941
524.8420, 8583.045
526.0220, 7679.160
527.2010, 6578.281
528.3810, 4723.416
529.5610, 3602.557
530.7400, 2451.697
531.9190, 1770.838
533.0980, 1330.977
534.2770, 797.1152
535.4560, 729.2539
536.6340, 528.3906
537.8120, 583.5254
538.9910, 186.6582
540.1690, 254.7930
541.3460, 108.9258
542.5240, 214.0527
543.7020, 218.1777
544.8790, 179.3027
546.0560, 119.4219
547.2330, 20.53711
548.4100, 142.6367
549.5870, 120.7324
550.7630, 14.17773
551.9400, 133.8770
553.1160, 82.92578
554.2920, 319.9746
555.4680, 321.0195
556.6440, 236.0625
557.8190, 554.0996
558.9950, 273.1289
560.1700, 600.1699
561.3450, 418.2051
562.5200, 488.2324
563.6950, 472.2520
564.8690, 482.2656
566.0440, 514.2695
567.2180, 707.2676
568.3920, 840.2578
569.5660, 1035.520
570.7400, 1301.324
571.9130, 1485.176
573.0870, 1848.133
574.2600, 2075.080
575.4330, 2291.018
576.6060, 2060.947
577.7790, 1698.865
578.9520, 1395.777
580.1240, 1135.674
581.2960, 1039.562
582.4690, 680.4414
583.6410, 719.3086
584.8120, 803.1680
585.9840, 631.0137
587.1560, 848.8477
588.3270, 888.6719
589.4980, 939.4844
590.6690, 816.2852
591.8400, 807.0742
593.0110, 519.8516
594.1810, 421.6172
595.3510, 384.3691
596.5220, 200.8047
597.6920, 120.5312
598.8610, 188.2441
600.0310, 114.2539
601.2010, 74.93555
602.3700, 238.5957
603.5390, 65.42969
604.7080, 157.8809
605.8770, 149.8418
607.0460, 87.64062
608.2140, 35.71289
609.3830, 35.41602
610.5510, 57.43359
611.7190, 63.68945
612.8870, 115.9512
614.0550, 19.21875
615.2220, 93.25391
616.3900, 14.20898
617.5570, 28.78906
618.7240, 30.75586
619.8910, 58.30664
621.0580, 48.55664
622.2240, 30.39453
623.3910, 174.7949
624.5570, 49.11914
625.7230, 121.4844
626.8890, 69.92578
628.0550, 10.58398
629.2200, 5.4687999E-02
630.3860, 13.51367
631.5510, 209.8652
632.7160, 49.76953
633.8810, 88.52930
635.0460, 8.195313
636.2100, 133.0312
637.3750, 162.2461
638.5390, 98.44922
639.7030, 266.6348
640.8670, 283.8223
642.0310, 220.9531
643.1950, 11.26758
644.3580, 157.8613
645.5210, 137.9766
646.6850, 271.0742
647.8480, 81.16016
649.0100, 262.2461
650.1730, 351.3516
651.3350, 178.4668
652.4980, 196.5820
653.6600, 190.6777
654.8220, 205.7734
655.9840, 279.8555
657.1450, 305.9238
658.3070, 521.9863
659.4680, 150.4688
660.6300, 501.5020
661.7910, 602.5332
662.9510, 325.5508
664.1120, 398.5527
665.2730, 660.6465
666.4330, 671.6172
667.5930, 830.5742
668.7530, 733.5156
669.9130, 698.6348
671.0730, 714.5586
672.2320, 896.4688
673.3920, 1142.361
674.5510, 1216.238
675.7100, 1357.100
676.8690, 1496.949
678.0280, 1633.781
679.1860, 1646.598
680.3450, 2041.400
681.5030, 2266.188
682.6610, 2693.959
683.8190, 2915.717
684.9770, 3682.457
686.1340, 4431.182
687.2920, 5219.482
688.4490, 6387.184
689.6060, 7998.863
690.7630, 9613.133
691.9200, 12301.79
693.0760, 15377.42
694.2330, 19224.04
695.3890, 24345.65
696.5450, 29614.25
697.7010, 36119.82
698.8570, 41404.04
700.0130, 44224.59
701.1680, 43340.12
702.3230, 38796.64
703.4780, 31951.15
704.6330, 25296.64
705.7880, 19148.11
706.9430, 14738.57
708.0970, 11351.02
709.2520, 8995.449
710.4060, 7475.869
711.5600, 6154.273
712.7140, 4939.664
713.8670, 4300.039
715.0210, 3336.400
716.1740, 3042.746
717.3270, 2782.080
718.4800, 2345.398
719.6330, 1964.705
720.7860, 1801.996
721.9380, 1619.277
723.0910, 1627.541
724.2430, 1347.793
725.3950, 1457.031
726.5470, 1031.254
727.6980, 1206.467
728.8500, 1031.664
730.0010, 895.8477
731.1530, 897.0195
732.3040, 832.1797
733.4550, 889.3242
734.6050, 900.4590
735.7560, 754.5801
736.9060, 860.5410
738.0560, 620.6387
739.2060, 597.4688
740.3560, 611.4668
741.5060, 584.8027
742.6560, 604.5234
743.8050, 741.4766
744.9540, 585.5078
746.1030, 730.9297
747.2520, 642.9883
748.4010, 695.6855
749.5500, 605.7168
750.6980, 709.5996
751.8460, 386.3984
752.9950, 457.3223
754.1420, 547.5469
755.2900, 347.6895
756.4380, 616.9570
757.5850, 572.2695
758.7330, 660.5605
759.8800, 709.3574
761.0270, 466.5957
762.1730, 501.4961
763.3200, 480.2637
764.4670, 414.2441
765.6130, 596.6660
766.7590, 609.0547
767.9050, 673.5762
769.0510, 525.4902
770.1960, 924.5176
771.3420, 811.1289
772.4870, 953.6035
773.6320, 1281.807
774.7770, 1077.795
775.9220, 1486.502
777.0670, 1689.100
778.2110, 1849.205
779.3560, 1905.141
780.5000, 2005.148
781.6440, 1809.156
782.7880, 1543.158
783.9320, 1094.152
785.0750, 740.1504
786.2180, 545.1934
787.3620, 621.2754
788.5050, 408.6289
789.6480, 292.9785
790.7900, 263.9629
791.9330, 191.4199
793.0750, 249.3984
794.2170, 222.3730
795.3590, 259.3887
796.5010, 64.64062
797.6430, 92.28516
798.7850, 87.98438
799.9260, 45.90820
801.0670, 183.8262
802.2080, 11.25781
803.3490, 149.6465
804.4900, 83.54492
805.6310, 106.4414
806.7710, 18.82031
807.9110, 98.71289
809.0510, 65.25391
810.1910, 209.4902
811.3310, 82.37500
812.4710, 166.2578
813.6100, 223.1406
814.7490, 139.0215
815.8880, 128.8984
817.0270, 50.77539
818.1660, 186.6523
819.3050, 169.5254
820.4430, 198.4004
821.5820, 185.2715
822.7200, 214.4434
823.8580, 213.1133
824.9950, 238.8906
826.1330, 203.7656
827.2710, 138.6406
828.4080, 100.5293
829.5450, 28.42188
830.6820, 27.31250
831.8190, 232.2012
832.9560, 320.0918
834.0920, 151.9805
835.2280, 59.12891
836.3650, 240.7266
837.5010, 279.5820
838.6360, 62.44336
839.7720, 55.30664
840.9080, 221.1719
842.0430, 345.0391
843.1780, 158.9062
844.3130, 322.7734
845.4480, 145.6406
846.5830, 107.5332
847.7170, 303.4277
848.8520, 223.3223
849.9860, 168.2480
851.1200, 248.1777
852.2540, 196.5801
853.3870, 423.0391
854.5210, 206.9824
855.6540, 190.9297
856.7880, 185.8770
857.9210, 419.8281
859.0540, 261.7832
860.1860, 264.7383
861.3190, 305.6992
862.4510, 82.66016
863.5840, 402.6250
864.7160, 404.5957
865.8480, 474.5684
866.9790, 293.5430
868.1110, 491.5215
869.2420, 541.5254
870.3740, 344.5293
871.5050, 425.5410
872.6360, 514.5527
873.7660, 627.5723
874.8970, 325.5957
876.0280, 238.6250
877.1580, 166.6641
878.2880, 461.7070
879.4180, 613.7617
880.5480, 478.8184
881.6770, 578.9590
882.8070, 664.1074
883.9360, 603.2695
885.0650, 867.4590
886.1940, 826.6602
887.3230, 763.8926
888.4520, 694.1777
889.5800, 694.4766
890.7090, 670.8184
891.8370, 420.1797
892.9650, 331.5566
894.0930, 298.2773
895.2200, 292.3691
896.3480, 266.8027
897.4750, 349.2500
898.6020, 366.7598
899.7290, 227.3066
900.8560, 54.85547
901.9830, 224.4434
903.1090, 22.93750
904.2360, 84.69141
905.3620, 189.3457
906.4880, 59.00195
907.6140, 97.69336
908.7400, 49.39062
909.8650, 7.109375
910.9900, 21.89648
912.1160, 22.55859
913.2410, 77.71094
914.3660, 75.01172
915.4900, 10.65820
916.6150, 37.33008
917.7390, 11.02930
918.8640, 27.73242
919.9880, 34.43750
921.1120, 87.84961
922.2350, 141.1680
923.3590, 97.73242
924.4820, 49.98242
925.6060, 4.572266
926.7290, 51.86914
927.8520, 8.673828
928.9740, 50.22070
930.0970, 45.22656
931.2190, 17.31055
932.3420, 57.42578
933.4640, 59.01758
934.5860, 126.5215
935.7080, 82.06250
936.8290, 33.61328
937.9510, 104.0586
939.0720, 140.6191
940.1930, 78.18359
941.3140, 55.24414
942.4350, 12.12695
943.5560, 198.6855
944.6760, 375.2520
945.7960, 258.8223
946.9170, 236.4004
948.0370, 240.9844
949.1560, 284.5781
950.2760, 253.1777
951.3960, 282.7852
952.5150, 275.3965
953.6340, 258.0156
954.7530, 359.6387
955.8720, 372.2695
956.9910, 257.9062
958.1090, 327.5469
959.2280, 331.1953
960.3460, 280.8477
961.4640, 625.5078
962.5820, 564.1719
963.6990, 641.8438
964.8170, 515.5176
965.9340, 575.1953
967.0510, 630.8848
968.1690, 667.5781
969.2850, 743.2773
970.4020, 863.3281
971.5190, 1007.041
972.6350, 992.7871
973.7510, 1235.926
974.8670, 1771.654
975.9830, 1689.389
977.0990, 2059.129
978.2150, 2258.910
979.3300, 2970.670
980.4450, 3279.418
981.5600, 4206.188
982.6750, 5091.973
983.7900, 6020.109
984.9050, 7232.906
986.0190, 8689.750
987.1340, 9877.613
988.2480, 10650.36
989.3620, 11758.28
990.4750, 12382.21
991.5890, 12752.14
992.7020, 12196.08
993.8160, 11357.10
994.9290, 9869.121
996.0420, 7919.146
997.1550, 6320.178
998.2670, 4940.215
999.3800, 3854.328
1000.492, 3181.375
1001.604, 2474.447
1002.716, 2062.762
1003.828, 1673.803
1004.940, 1629.889
1006.051, 1249.107
1007.163, 1062.180
1008.274, 1026.260
1009.385, 909.6504
1010.496, 771.7324
1011.606, 805.8281
1012.717, 760.1445
1013.827, 746.2461
1014.937, 635.4688
1016.047, 819.5781
1017.157, 693.6934
1018.267, 927.8105
1019.377, 876.9316
1020.486, 990.0566
1021.595, 1206.184
1022.704, 1301.314
1023.813, 1306.449
1024.922, 1689.582
1026.030, 1895.719
1027.139, 2213.148
1028.247, 2566.068
1029.355, 3097.211
1030.463, 3588.355
1031.571, 4350.504
1032.678, 5157.678
1033.786, 6255.855
1034.893, 7954.035
1036.000, 9830.023
1037.107, 11431.46
1038.214, 13186.65
1039.321, 14692.84
1040.427, 15170.04
1041.533, 14022.23
1042.639, 12292.45
1043.745, 10134.65
1044.851, 7500.168
1045.957, 5797.379
1047.062, 4477.492
1048.168, 3433.789
1049.273, 3009.295
1050.378, 2395.617
1051.482, 1802.828
1052.587, 1629.043
1053.692, 1230.256
1054.796, 1038.723
1055.900, 892.8457
1057.004, 718.3984
1058.108, 745.5488
1059.212, 595.7656
1060.315, 606.5098
1061.418, 630.7266
1062.522, 363.9453
1063.625, 519.1191
1064.728, 496.2656
1065.830, 300.5059
1066.933, 349.9746
1068.035, 417.2227
1069.137, 308.4648
1070.239, 426.7109
1071.341, 257.9629
1072.443, 263.2129
1073.545, 383.4668
1074.646, 418.2363
1075.747, 616.4902
1076.848, 401.7441
1077.949, 557.1738
1079.050, 559.4297
1080.150, 473.2949
1081.251, 688.5527
1082.351, 641.3398
1083.451, 680.5977
1084.551, 566.8535
1085.651, 265.1133
1086.750, 322.3691
1087.850, 147.6270
1088.949, 174.8848
1090.048, 145.1406
1091.147, 162.3965
1092.246, 88.65039
1093.345, 129.9062
1094.443, 250.1602
1095.541, 163.4141
1096.639, 162.6699
1097.737, 242.9258
1098.835, 545.1777
1099.933, 724.4316
1101.030, 536.0039
1102.128, 491.9355
1103.225, 161.2031
1104.322, 2.468750
1105.419, 31.26758
1106.515, 182.9824
1107.612, 86.22852
1108.708, 47.47656
1109.804, 3.722656
1110.900, 135.0840
1111.996, 86.67773
1113.092, 62.51953
1114.187, 43.50781
1115.283, 123.3008
1116.378, 374.8281
1117.473, 8.105469
1118.568, 360.4375
1119.662, 23.71875
1120.757, 365.3809
1121.851, 257.9551
1122.946, 229.6250
1124.040, 180.7129
1125.134, 174.5391
1126.227, 121.6191
1127.321, 121.6992
1128.414, 190.7734
1129.508, 180.8496
1130.601, 46.92188
1131.693, 242.9883
1132.786, 60.05078
1133.879, 52.89453
1134.971, 252.1211
1136.064, 195.1289
1137.156, 31.13281
1138.248, 285.1660
1139.339, 177.1582
1140.431, 13.17969
1141.522, 79.15820
1142.614, 230.4590
1143.705, 25.42773
1144.796, 162.3848
1145.887, 64.66211
1146.977, 132.2500
1148.068, 310.4258
1149.158, 275.3281
1150.248, 195.2246
1151.338, 293.3711
1152.428, 115.4199
1153.518, 327.3223
1154.607, 130.1953
1155.696, 360.0664
1156.785, 250.9258
1157.874, 236.7812
1158.963, 63.63281
1160.052, 217.4746
1161.141, 216.3145
1162.229, 106.1445
1163.317, 433.5527
1164.405, 313.3730
1165.493, 423.1855
1166.581, 23.00781
1167.668, 315.7676
1168.756, 156.9805
1169.843, 184.7441
1170.930, 596.5820
1172.017, 378.3340
1173.103, 279.2207
1174.190, 228.9590
1175.276, 137.7383
1176.363, 197.4688
1177.449, 103.4199
1178.535, 95.48047
1179.620, 38.75391
1180.706, 74.48633
1181.791, 134.2129
1182.877, 184.9316
1183.962, 399.6426
1185.047, 278.5820
1186.131, 152.3008
1187.216, 395.0469
1188.300, 215.8105
1189.385, 193.5781
1190.469, 322.3379
1191.553, 257.1016
1192.637, 299.8555
1193.720, 197.6074
1194.804, 3.642578
1195.887, 269.0859
1196.970, 260.8047
1198.053, 107.5293
1199.136, 234.2441
1200.219, 322.9531
1201.301, 201.6523
1202.383, 181.3477
1203.465, 258.0312
1204.547, 366.7090
1205.629, 202.3926
1206.711, 233.0684
1207.792, 72.73633
1208.874, 281.3926
1209.955, 25.04102
1211.036, 204.6758
1212.117, 28.30273
1213.198, 222.9180
1214.278, 154.5254
1215.359, 196.1230
1216.439, 294.7129
1217.519, 155.2949
1218.599, 228.3496
1219.678, 298.4375
1220.758, 244.9961
1221.837, 208.5449
1222.917, 246.0898
1223.996, 434.6230
1225.075, 272.1504
1226.153, 502.6680
1227.232, 270.1797
1228.310, 326.3223
1229.389, 248.1758
1230.467, 259.6602
1231.545, 298.1367
1232.622, 152.6035
1233.700, 323.0645
1234.777, 198.4863
1235.855, 372.5176
1236.932, 196.9531
1238.009, 254.3789
1239.086, 390.7988
1240.162, 15.17773
1241.239, 135.5703
1242.315, 202.9688
1243.391, 0.3457030
1244.467, 473.6973
1245.543, 241.6895
1246.619, 81.02734
1247.694, 200.6895
1248.769, 145.1211
1249.844, 209.7812
1250.919, 26.87305
1251.994, 20.95312
1253.069, 220.0215
1254.144, 241.9180
1255.218, 182.1016
1256.292, 119.6855
1257.366, 129.5820
1258.440, 133.8105
1259.514, 236.6934
1260.587, 167.4961
1261.661, 489.4238
1262.734, 197.2598
1263.807, 200.8535
1264.880, 408.6992
1265.952, 173.5391
1267.025, 105.2168
1268.097, 153.0410
1269.170, 105.8594
1270.242, 161.1895
1271.314, 1.164063
1272.385, 277.9492
1273.457, 230.5117
1274.528, 272.2852
1275.600, 126.2129
1276.671, 48.07812
1277.742, 206.9609
1278.812, 111.7617
1279.883, 50.50391
1280.954, 72.23438
1282.024, 105.9590
1283.094, 176.6777
1284.164, 223.3906
1285.234, 171.0977
