##NAMES=Jadeite
##RRUFFID=R050220
##IDEAL CHEMISTRY=NaAlSi_2_O_6_
##LOCALITY=Clear Creek, San Benito County, California, USA
##OWNER=RRUFF
##SOURCE=Hatt Yoder
##DESCRIPTION=Aggregate of colorless bladed crystals
##STATUS=The identification of this mineral has been confirmed by X-ray diffraction and chemical analysis
##URL=rruff.info/R050220
##MEASURED CHEMISTRY=Na_1.00_Al_1.00_(Si_0.99_Al_0.01_)_2_O_6_
##PIN_ID=L00826
##ORIENTATION=Laser parallel to c* (0 0 1). Fiducial mark perpendicular to laser is parallel to a [1 0 0]
112.9460, 0.0000000E+00
114.1820, 66.61865
115.4170, 103.3252
116.6530, 69.34912
117.8880, 26.60840
119.1230, 31.36035
120.3580, 5.706543
121.5920, 80.82080
122.8270, 168.4158
124.0610, 269.5859
125.2950, 199.9688
126.5290, 295.2715
127.7630, 430.3208
128.9970, 570.0684
130.2300, 738.6104
131.4640, 953.6343
132.6970, 1160.970
133.9300, 1486.669
135.1630, 1917.614
136.3950, 2565.706
137.6280, 3251.873
138.8600, 4071.066
140.0920, 4471.251
141.3240, 4694.405
142.5560, 4484.320
143.7880, 4003.179
145.0190, 3458.419
146.2510, 2823.390
147.4820, 2228.330
148.7130, 1657.476
149.9440, 1225.293
151.1750, 861.0273
152.4050, 704.5598
153.6360, 555.5208
154.8660, 398.1094
156.0960, 264.3564
157.3260, 194.2969
158.5560, 180.9607
159.7850, 101.3750
161.0150, 96.02441
162.2440, 89.54663
163.4730, 84.34326
164.7020, 84.96973
165.9310, 97.43994
167.1590, 42.76611
168.3880, 51.95972
169.6160, 46.03174
170.8440, 69.99170
172.0720, 4.111572
173.3000, 52.05566
174.5280, 32.42993
175.7550, 52.47095
176.9820, 10.94629
178.2100, 119.8008
179.4370, 58.42578
180.6630, 28.05566
181.8900, 111.6855
183.1170, 111.3110
184.3430, 114.9319
185.5690, 183.5510
186.7950, 262.1721
188.0210, 234.8105
189.2470, 476.7297
190.4720, 551.1960
191.6970, 867.2964
192.9230, 1203.692
194.1480, 1505.665
195.3730, 1780.600
196.5970, 2203.595
197.8220, 2790.648
199.0460, 3595.758
200.2700, 4678.921
201.4940, 6168.136
202.7180, 7532.399
203.9420, 8469.709
205.1660, 8828.060
206.3890, 8368.454
207.6120, 7415.886
208.8350, 5691.354
210.0580, 3865.858
211.2810, 2361.395
212.5040, 1559.966
213.7260, 1046.569
214.9480, 800.2021
216.1700, 714.8647
217.3920, 808.5254
218.6140, 948.2085
219.8360, 1129.910
221.0570, 1409.628
222.2790, 1500.369
223.5000, 1520.133
224.7210, 1224.920
225.9410, 928.7271
227.1620, 593.5508
228.3820, 352.3911
229.6030, 165.2485
230.8230, 37.12329
232.0430, 33.01562
233.2630, 17.92529
234.4820, 6.853271
235.7020, 71.20068
236.9210, 89.23682
238.1400, 49.25464
239.3590, 103.2539
240.5780, 69.23486
241.7970, 93.19702
243.0150, 57.14087
244.2340, 67.93457
245.4520, 148.0278
246.6700, 266.1350
247.8880, 280.2202
249.1060, 325.2136
250.3230, 458.1130
251.5400, 775.9255
252.7580, 895.7422
253.9750, 1066.585
255.1920, 1192.453
256.4080, 1177.348
257.6250, 1083.267
258.8410, 861.2131
260.0580, 505.5181
261.2740, 198.1021
262.4900, 20.86084
263.7050, 51.25610
264.9210, 38.26855
266.1360, 45.21631
267.3520, 103.1387
268.5670, 25.99268
269.7820, 97.80469
270.9960, 76.61206
272.2110, 54.40991
273.4250, 14.81470
274.6400, 11.05859
275.8540, 82.31250
277.0680, 97.57422
278.2810, 160.8416
279.4950, 285.1128
280.7090, 384.3865
281.9220, 482.6702
283.1350, 614.9541
284.3480, 819.2385
285.5610, 1045.931
286.7730, 1322.808
287.9860, 1646.094
289.1980, 2002.374
290.4100, 2409.603
291.6220, 2833.811
292.8340, 3112.007
294.0460, 3142.185
295.2570, 3184.355
296.4690, 2948.519
297.6800, 2602.676
298.8910, 2499.823
300.1020, 2294.958
301.3120, 2050.083
302.5230, 1922.199
303.7330, 1940.308
304.9440, 2056.410
306.1540, 2151.508
307.3630, 2294.603
308.5730, 2386.694
309.7830, 2544.783
310.9920, 2618.871
312.2010, 2613.958
313.4100, 2604.058
314.6190, 2634.167
315.8280, 2636.291
317.0370, 2992.432
318.2450, 3697.426
319.4530, 4368.156
320.6610, 5354.273
321.8690, 6468.299
323.0770, 7992.667
324.2850, 10162.48
325.4920, 12724.33
326.6990, 15659.89
327.9060, 17635.79
329.1130, 18860.72
330.3200, 18170.66
331.5270, 15549.63
332.7330, 12174.60
333.9390, 8439.600
335.1450, 5561.558
336.3510, 3729.445
337.5570, 2577.276
338.7630, 1877.048
339.9680, 1459.835
341.1740, 1150.638
342.3790, 858.4565
343.5840, 875.2910
344.7890, 817.1411
345.9930, 712.0063
347.1980, 674.8867
348.4020, 692.7820
349.6060, 675.6919
350.8100, 779.6162
352.0140, 857.5552
353.2180, 940.5083
354.4210, 1115.476
355.6250, 1296.457
356.8280, 1701.452
358.0310, 2000.460
359.2340, 2420.483
360.4360, 3199.519
361.6390, 4242.569
362.8410, 5566.630
364.0430, 7403.707
365.2450, 9726.798
366.4470, 12343.90
367.6490, 15439.01
368.8510, 19619.15
370.0520, 24684.29
371.2530, 30379.44
372.4540, 36235.61
373.6550, 41053.79
374.8560, 44202.99
376.0560, 44454.18
377.2570, 41968.33
378.4570, 37300.09
379.6570, 32655.38
380.8570, 29346.89
382.0570, 27235.33
383.2560, 26207.33
384.4560, 25700.00
385.6550, 24489.86
386.8540, 22313.27
388.0530, 19199.99
389.2520, 15005.34
390.4510, 11412.70
391.6490, 8418.068
392.8470, 6390.455
394.0450, 4854.855
395.2430, 3972.271
396.4410, 3210.700
397.6390, 2693.144
398.8360, 2351.601
400.0340, 2083.074
401.2310, 1800.565
402.4280, 1746.066
403.6250, 1509.140
404.8210, 1473.898
406.0180, 1287.802
407.2140, 1254.507
408.4100, 1240.390
409.6060, 1252.167
410.8020, 1370.417
411.9980, 1401.154
413.1930, 1519.037
414.3890, 1514.163
415.5840, 1702.578
416.7790, 1639.055
417.9740, 1755.688
419.1680, 2025.276
420.3630, 1925.929
421.5570, 2079.589
422.7510, 2198.258
423.9450, 2397.937
425.1390, 2709.296
426.3330, 3098.991
427.5270, 3476.695
428.7200, 4048.409
429.9130, 4489.131
431.1060, 4987.861
432.2990, 5269.600
433.4920, 5415.349
434.6840, 5381.105
435.8770, 5129.872
437.0690, 4566.646
438.2610, 3882.432
439.4530, 3208.226
440.6450, 2653.029
441.8360, 2082.841
443.0280, 1604.664
444.2190, 1364.495
445.4100, 1111.336
446.6010, 856.1860
447.7920, 677.0464
448.9820, 518.9158
450.1730, 464.7952
451.3630, 356.6838
452.5530, 314.5820
453.7430, 309.4902
454.9330, 259.4075
456.1230, 174.8052
457.3120, 268.6189
458.5010, 94.48047
459.6910, 136.7634
460.8800, 179.2175
462.0680, 127.2173
463.2570, 96.27979
464.4460, 136.6204
465.6340, 168.2676
466.8220, 134.8521
468.0100, 206.2969
469.1980, 234.2632
470.3860, 276.6907
471.5730, 276.3726
472.7600, 255.4395
473.9480, 350.4727
475.1350, 302.5559
476.3210, 384.8367
477.5080, 469.0059
478.6950, 504.1121
479.8810, 487.2261
481.0670, 476.3484
482.2530, 486.4795
483.4390, 461.6189
484.6250, 408.7671
485.8100, 429.9231
486.9960, 338.0872
488.1810, 366.2598
489.3660, 345.4397
490.5510, 249.6277
491.7360, 166.8237
492.9200, 232.0271
494.1050, 101.2383
495.2890, 161.4568
496.4730, 208.6829
497.6570, 235.9163
498.8400, 263.1567
500.0240, 217.4041
501.2070, 219.6587
502.3910, 189.9202
503.5740, 299.1882
504.7570, 275.4634
505.9400, 373.7451
507.1220, 392.0337
508.3050, 464.3281
509.4870, 534.6294
510.6690, 679.9368
511.8510, 648.2505
513.0330, 850.5703
514.2140, 1038.896
515.3960, 1419.228
516.5770, 1713.565
517.7580, 2099.420
518.9390, 2434.271
520.1200, 2988.639
521.3010, 3490.027
522.4810, 4052.434
523.6610, 4504.873
524.8420, 4459.355
526.0220, 4187.866
527.2010, 3610.431
528.3810, 2967.037
529.5610, 2007.683
530.7400, 1496.365
531.9190, 1063.056
533.0980, 777.7510
534.2770, 497.4519
535.4560, 330.1572
536.6340, 197.0913
537.8120, 200.5913
538.9910, 84.32056
540.1690, 106.0547
541.3460, 119.7932
542.5240, 3.535156
543.7020, 39.29321
544.8790, 15.94580
546.0560, 8.188721
547.2330, 11.42822
548.4100, 25.66992
549.5870, 85.90381
550.7630, 23.84399
551.9400, 100.3843
553.1160, 53.36255
554.2920, 42.83594
555.4680, 0.9555660
556.6440, 20.20044
557.8190, 62.32520
558.9950, 60.55225
560.1700, 88.43188
561.3450, 28.31396
562.5200, 14.20386
563.6950, 86.09497
564.8690, 108.9878
566.0440, 28.11816
567.2180, 128.7607
568.3920, 101.6489
569.5660, 127.5391
570.7400, 200.4307
571.9130, 205.3232
573.0870, 227.2163
574.2600, 203.1104
575.4330, 313.0073
576.6060, 207.9238
577.7790, 224.8403
578.9520, 153.7578
580.1240, 218.6846
581.2960, 196.6118
582.4690, 100.5386
583.6410, 276.4658
584.8120, 300.3926
585.9840, 281.3188
587.1560, 319.2446
588.3270, 394.1704
589.4980, 340.0952
590.6690, 421.0190
591.8400, 323.9424
593.0110, 201.8643
594.1810, 162.7852
595.3510, 77.89600
596.5220, 29.37646
597.6920, 19.48291
598.8610, 35.60889
600.0310, 41.76318
601.2010, 43.94971
602.3700, 36.16992
603.5390, 52.41943
604.7080, 40.42773
605.8770, 2.970703
607.0460, 27.36084
608.2140, 68.71826
609.3830, 68.12402
610.5510, 9.421875
611.7190, 43.03955
612.8870, 49.46338
614.0550, 3.7108999E-02
615.2220, 53.44922
616.3900, 35.06689
617.5570, 23.38379
618.7240, 110.8306
619.8910, 71.27393
621.0580, 112.7139
622.2240, 173.1504
623.3910, 102.5830
624.5570, 116.0117
625.7230, 240.4375
626.8890, 232.8589
628.0550, 336.2769
629.2200, 326.6904
630.3860, 394.0996
631.5510, 397.5054
632.7160, 467.9062
633.8810, 472.3027
635.0460, 572.6948
636.2100, 546.0825
637.3750, 586.4658
638.5390, 488.8447
639.7030, 514.2178
640.8670, 475.5874
642.0310, 415.9512
643.1950, 429.3096
644.3580, 367.6636
645.5210, 410.0132
646.6850, 424.3564
647.8480, 358.6943
649.0100, 346.0273
650.1730, 284.3555
651.3350, 252.6777
652.4980, 286.9946
653.6600, 229.3062
654.8220, 251.6709
655.9840, 346.9707
657.1450, 264.5078
658.3070, 232.8447
659.4680, 320.4600
660.6300, 344.3706
661.7910, 343.3081
662.9510, 352.7271
664.1120, 373.5464
665.2730, 331.5200
666.4330, 419.6069
667.5930, 414.8838
668.7530, 448.0884
669.9130, 544.9702
671.0730, 563.6821
672.2320, 625.9448
673.3920, 678.4160
674.5510, 767.5967
675.7100, 825.9434
676.8690, 849.2974
678.0280, 892.6450
679.1860, 1100.994
680.3450, 1302.271
681.5030, 1395.405
682.6610, 1591.384
683.8190, 1977.489
684.9770, 2259.026
686.1340, 2701.678
687.2920, 3242.389
688.4490, 4042.235
689.6060, 5148.844
690.7630, 6358.569
691.9200, 8099.896
693.0760, 10139.06
694.2330, 12535.74
695.3890, 15254.06
696.5450, 18588.79
697.7010, 21546.80
698.8570, 24171.78
700.0130, 24958.73
701.1680, 24219.79
702.3230, 21891.73
703.4780, 18330.65
704.6330, 14563.56
705.7880, 11378.79
706.9430, 8829.350
708.0970, 6744.370
709.2520, 5354.239
710.4060, 4204.093
711.5600, 3540.936
712.7140, 2889.768
713.8670, 2440.011
715.0210, 2119.022
716.1740, 1718.816
717.3270, 1489.600
718.4800, 1325.548
719.6330, 1146.306
720.7860, 1079.052
721.9380, 911.7852
723.0910, 836.5059
724.2430, 802.2144
725.3950, 704.9102
726.5470, 602.5933
727.6980, 516.2637
728.8500, 562.9219
730.0010, 420.5674
731.1530, 500.2007
732.3040, 535.8213
733.4550, 458.4292
734.6050, 382.0244
735.7560, 387.1367
736.9060, 373.8301
738.0560, 282.4727
739.2060, 319.6899
740.3560, 252.7334
741.5060, 190.2290
742.6560, 239.6694
743.8050, 281.8296
744.9540, 218.6802
746.1030, 223.5952
747.2520, 230.8828
748.4010, 210.1782
749.5500, 198.0806
750.6980, 121.0605
751.8460, 159.4868
752.9950, 124.9453
754.1420, 132.2905
755.2900, 116.5591
756.4380, 140.8765
757.5850, 88.25439
758.7330, 149.6230
759.8800, 137.9824
761.0270, 214.3325
762.1730, 128.6724
763.3200, 103.0034
764.4670, 188.3247
765.6130, 101.6367
766.7590, 159.9395
767.9050, 170.2329
769.0510, 221.5171
770.1960, 181.7920
771.3420, 253.0571
772.4870, 338.3140
773.6320, 380.5610
774.7770, 327.7988
775.9220, 431.0283
777.0670, 551.2485
778.2110, 768.4595
779.3560, 726.0044
780.5000, 718.6729
781.6440, 640.0391
782.7880, 526.2153
783.9320, 383.3828
785.0750, 297.5420
786.2180, 217.6919
787.3620, 149.9072
788.5050, 101.2524
789.6480, 109.1650
790.7900, 65.28125
791.9330, 41.38916
793.0750, 111.4873
794.2170, 2.422363
795.3590, 42.64795
796.5010, 4.290039
797.6430, 25.25000
798.7850, 10.07568
799.9260, 24.74365
801.0670, 17.28125
802.2080, 3.333008
803.3490, 29.83594
804.4900, 33.25684
805.6310, 0.6499020
806.7710, 27.80713
807.9110, 7.003418
809.0510, 32.80127
810.1910, 12.59131
811.3310, 57.37012
812.4710, 17.14209
813.6100, 22.09473
814.7490, 14.64111
815.8880, 13.36865
817.0270, 17.08594
818.1660, 40.80078
819.3050, 34.50146
820.4430, 46.16846
821.5820, 52.83301
822.7200, 2.505859
823.8580, 48.14209
824.9950, 53.21387
826.1330, 14.60400
827.2710, 17.99268
828.4080, 26.40381
829.5450, 73.81494
830.6820, 47.72314
831.8190, 77.73242
832.9560, 52.24072
834.0920, 51.78223
835.2280, 73.65527
836.3650, 49.08740
837.5010, 12.48584
838.6360, 52.92432
839.7720, 39.32959
840.9080, 58.72900
842.0430, 27.12402
843.1780, 23.47803
844.3130, 0.8989260
845.4480, 22.26855
846.5830, 69.63379
847.7170, 94.99463
848.8520, 26.35010
849.9860, 6.298340
851.1200, 66.95654
852.2540, 29.34424
853.3870, 67.64111
854.5210, 36.06641
855.6540, 162.2021
856.7880, 37.46729
857.9210, 102.7275
859.0540, 100.9854
860.1860, 138.2393
861.3190, 80.48975
862.4510, 86.73682
863.5840, 95.20410
864.7160, 47.22168
865.8480, 98.45898
866.9790, 90.69434
868.1110, 59.92676
869.2420, 138.1562
870.3740, 58.38330
871.5050, 116.6074
872.6360, 177.8413
873.7660, 104.0815
874.8970, 180.3335
876.0280, 200.5981
877.1580, 90.87744
878.2880, 201.1680
879.4180, 326.4746
880.5480, 419.8022
881.6770, 428.1318
882.8070, 569.4717
883.9360, 479.8335
885.0650, 577.2163
886.1940, 686.6006
887.3230, 584.0010
888.4520, 675.3989
889.5800, 608.8022
890.7090, 559.2041
891.8370, 481.6206
892.9650, 391.0361
894.0930, 338.4087
895.2200, 204.8687
896.3480, 243.2847
897.4750, 182.7007
898.6020, 204.1162
899.7290, 102.5322
900.8560, 79.96094
901.9830, 118.3892
903.1090, 84.81836
904.2360, 153.2476
905.3620, 80.67725
906.4880, 59.10693
907.6140, 49.53955
908.7400, 163.9790
909.8650, 97.41895
910.9900, 96.86377
912.1160, 17.30859
913.2410, 105.7549
914.3660, 64.23047
915.4900, 149.7065
916.6150, 118.1836
917.7390, 124.6626
918.8640, 53.14551
919.9880, 47.64062
921.1120, 87.13672
922.2350, 6.365723
923.3590, 116.1328
924.4820, 42.65039
925.6060, 110.1694
926.7290, 63.69678
927.8520, 57.17139
928.9740, 65.70947
930.0970, 69.00586
931.2190, 69.49951
932.3420, 103.7104
933.4640, 131.6221
934.5860, 114.5029
935.7080, 117.8984
936.8290, 182.3633
937.9510, 125.7227
939.0720, 172.4385
940.1930, 174.9600
941.3140, 110.5684
942.4350, 208.4980
943.5560, 132.6099
944.6760, 166.1772
945.7960, 205.5391
946.9170, 208.1919
948.0370, 146.6802
949.1560, 102.1558
950.2760, 197.6343
951.3960, 182.1064
952.5150, 250.6450
953.6340, 218.3237
954.7530, 171.1470
955.8720, 196.8447
956.9910, 294.5474
958.1090, 273.4595
959.2280, 340.1738
960.3460, 365.9580
961.4640, 394.1938
962.5820, 421.2446
963.6990, 469.7964
964.8170, 491.4014
965.9340, 539.1504
967.0510, 556.5693
968.1690, 526.6201
969.2850, 643.7319
970.4020, 699.5576
971.5190, 751.3037
972.6350, 930.9902
973.7510, 1037.796
974.8670, 1205.608
975.9830, 1434.429
977.0990, 1803.258
978.2150, 2216.428
979.3300, 2775.129
980.4450, 3481.979
981.5600, 4272.838
982.6750, 5165.705
983.7900, 6333.583
984.9050, 7310.042
986.0190, 7635.730
987.1340, 7135.631
988.2480, 6291.541
989.3620, 5190.278
990.4750, 4288.208
991.5890, 3538.145
992.7020, 3051.091
993.8160, 2727.044
994.9290, 2339.007
996.0420, 2052.979
997.1550, 1869.960
998.2670, 1661.446
999.3800, 1574.951
1000.492, 1432.960
1001.604, 1370.979
1002.716, 1315.007
1003.828, 1198.044
1004.940, 1171.089
1006.051, 1184.144
1007.163, 1256.206
1008.274, 1270.277
1009.385, 1356.356
1010.496, 1474.445
1011.606, 1503.542
1012.717, 1485.661
1013.827, 1659.201
1014.937, 1720.342
1016.047, 1859.491
1017.157, 2062.647
1018.267, 2253.812
1019.377, 2498.985
1020.486, 2870.167
1021.595, 3163.356
1022.704, 3618.553
1023.813, 4082.758
1024.922, 4787.971
1026.030, 5457.194
1027.139, 6477.423
1028.247, 7847.979
1029.355, 9291.233
1030.463, 11529.51
1031.571, 14155.79
1032.678, 17702.09
1033.786, 22188.29
1034.893, 27424.60
1036.000, 33832.92
1037.107, 40032.25
1038.214, 46078.57
1039.321, 49574.91
1040.427, 49974.58
1041.533, 46715.27
1042.639, 40335.63
1043.745, 32861.77
1044.851, 25806.14
1045.957, 19730.53
1047.062, 14994.50
1048.168, 11674.90
1049.273, 9139.308
1050.378, 7343.723
1051.482, 6012.745
1052.587, 4959.470
1053.692, 4446.908
1054.796, 3632.351
1055.900, 3298.741
1057.004, 2834.292
1058.108, 2519.755
1059.212, 2271.550
1060.315, 2111.877
1061.418, 1910.870
1062.522, 1777.358
1063.625, 1629.859
1064.728, 1478.367
1065.830, 1390.887
1066.933, 1262.631
1068.035, 1239.977
1069.137, 1087.558
1070.239, 1081.132
1071.341, 1067.719
1072.443, 944.3901
1073.545, 940.3506
1074.646, 1013.712
1075.747, 992.2603
1076.848, 1030.281
1077.949, 1085.775
1079.050, 1144.557
1080.150, 1261.378
1081.251, 1331.126
1082.351, 1363.872
1083.451, 1277.577
1084.551, 1098.289
1085.651, 974.0464
1086.750, 952.7676
1087.850, 916.5059
1088.949, 747.2490
1090.048, 553.0752
1091.147, 520.9546
1092.246, 395.7153
1093.345, 404.4980
1094.443, 287.2920
1095.541, 282.0977
1096.639, 258.9180
1097.737, 247.7651
1098.835, 202.6157
1099.933, 200.4951
1101.030, 164.3936
1102.128, 136.3062
1103.225, 152.8843
1104.322, 216.8110
1105.419, 22.74707
1106.515, 187.6870
1107.612, 190.7109
1108.708, 156.8247
1109.804, 255.9062
1110.900, 225.8682
1111.996, 148.8345
1113.092, 101.8047
1114.187, 134.7866
1115.283, 273.0977
1116.378, 237.0771
1117.473, 332.0928
1118.568, 303.0991
1119.662, 323.1089
1120.757, 378.2578
1121.851, 393.8276
1122.946, 462.8550
1124.040, 422.8853
1125.134, 325.9180
1126.227, 341.9536
1127.321, 267.2979
1128.414, 183.3374
1129.508, 160.3887
1130.601, 122.0640
1131.693, 126.1104
1132.786, 121.3867
1133.879, 147.3994
1134.971, 133.4521
1136.064, 130.5063
1137.156, 118.5625
1138.248, 109.2969
1139.339, 110.6885
1140.431, 86.74072
1141.522, 88.80273
1142.614, 71.96582
1143.705, 59.73828
1144.796, 38.78174
1145.887, 26.27246
1146.977, 43.39258
1148.068, 22.44824
1149.158, 105.5049
1150.248, 26.57178
1151.338, 75.62988
1152.428, 65.68896
1153.518, 67.83350
1154.607, 61.89355
1155.696, 99.95361
1156.785, 47.12598
1157.874, 73.18701
1158.963, 11.63184
1160.052, 24.42627
1161.141, 16.97070
1162.229, 84.02881
1163.317, 14.08594
1164.405, 53.85742
1165.493, 158.1738
1166.581, 1.244141
1167.668, 102.2739
1168.756, 64.44678
1169.843, 35.47900
1170.930, 8.494141
1172.017, 26.16895
1173.103, 59.84033
1174.190, 16.15137
1175.276, 47.84766
1176.363, 12.05078
1177.449, 107.9521
1178.535, 92.98828
1179.620, 7.059570
1180.706, 36.99658
1181.791, 11.06787
1182.877, 38.14014
1183.962, 34.76611
1185.047, 26.66992
1186.131, 3.572266
1187.216, 65.52686
1188.300, 28.33691
1189.385, 20.80078
1190.469, 12.95312
1191.553, 7.115723
1192.637, 40.71387
1193.720, 24.54150
1194.804, 40.65625
1195.887, 100.1909
1196.970, 16.01172
1198.053, 80.83057
1199.136, 10.64697
1200.219, 47.46094
1201.301, 30.27197
1202.383, 4.080078
1203.465, 65.11572
1204.547, 7.352051
1205.629, 57.59814
1206.711, 32.88135
1207.792, 24.18896
1208.874, 12.51514
1209.955, 12.85596
1211.036, 7.736816
1212.117, 12.43115
1213.198, 44.06934
1214.278, 40.61475
1215.359, 15.33447
1216.439, 38.96094
1217.519, 48.59277
1218.599, 44.22070
1219.678, 8.845703
1220.758, 6.465820
1221.837, 32.08008
1222.917, 80.69678
1223.996, 46.30908
1225.075, 73.91748
1226.153, 104.5225
1227.232, 80.12256
1228.310, 83.71875
1229.389, 52.31055
1230.467, 109.8975
1231.545, 6.519531
1232.622, 0.9506840
1233.700, 55.60742
1234.777, 41.16113
1235.855, 50.70996
1236.932, 17.25391
1238.009, 9.792969
1239.086, 11.32422
1240.162, 74.84961
1241.239, 119.3701
1242.315, 74.88574
1243.391, 37.39600
1244.467, 6.900879
1245.543, 49.39746
1246.619, 33.74121
1247.694, 101.3745
1248.769, 56.85498
1249.844, 14.33008
1250.919, 3.798828
1251.994, 63.25732
1253.069, 119.7100
1254.144, 48.17773
1255.218, 48.62109
1256.292, 10.05811
1257.366, 84.48779
1258.440, 95.91553
1259.514, 3.357422
1260.587, 67.76855
1261.661, 15.17383
1262.734, 90.57129
1263.807, 97.97168
1264.880, 173.3667
1265.952, 156.1816
1267.025, 166.9854
1268.097, 97.51904
1269.170, 139.8916
1270.242, 66.25928
1271.314, 27.62158
1272.385, 33.02246
1273.457, 2.698730
1274.528, 71.20068
1275.600, 35.90674
1276.671, 91.79932
1277.742, 69.08984
1278.812, 50.37451
1279.883, 121.6538
1280.954, 58.92676
1282.024, 33.19385
1283.094, 70.45508
1284.164, 72.71143
1285.234, 27.96680
1286.303, 57.23047
1287.373, 18.52588
1288.442, 119.3828
1289.511, 40.40283
1290.580, 60.77490
1291.649, 72.94873
