##NAMES=Jadeite
##RRUFFID=R050220
##IDEAL CHEMISTRY=NaAlSi_2_O_6_
##LOCALITY=Clear Creek, San Benito County, California, USA
##OWNER=RRUFF
##SOURCE=Hatt Yoder
##DESCRIPTION=Aggregate of colorless bladed crystals
##STATUS=The identification of this mineral has been confirmed by X-ray diffraction and chemical analysis
##URL=rruff.info/R050220
##MEASURED CHEMISTRY=Na_1.00_Al_1.00_(Si_0.99_Al_0.01_)_2_O_6_
##PIN_ID=L00896
##ORIENTATION=Laser parallel to a* (1 0 0). Fiducial mark perpendicular to laser is parallel to b [0 1 0]
112.9460, 0.0000000E+00
114.1820, 34.04785
115.4170, 108.6587
116.6530, 136.6133
117.8880, 105.8149
119.1230, 112.1338
120.3580, 83.13232
121.5920, 20.73730
122.8270, 151.1553
124.0610, 177.5337
125.2950, 210.3794
126.5290, 393.3110
127.7630, 300.1392
128.9970, 334.7969
130.2300, 308.2339
131.4640, 246.3545
132.6970, 216.0840
133.9300, 171.3911
135.1630, 198.2168
136.3950, 162.7212
137.6280, 208.1523
138.8600, 339.1157
140.0920, 341.4194
141.3240, 575.0361
142.5560, 559.9424
143.7880, 794.3599
145.0190, 888.2261
146.2510, 601.4492
147.4820, 530.8413
148.7130, 351.3984
149.9440, 351.1152
151.1750, 157.9814
152.4050, 185.2012
153.6360, 112.7100
154.8660, 103.4038
156.0960, 134.1733
157.3260, 55.02100
158.5560, 89.94385
159.7850, 13.05664
161.0150, 9.982422
162.2440, 66.16797
163.4730, 122.3936
164.7020, 58.69287
165.9310, 106.0674
167.1590, 122.5215
168.3880, 34.05664
169.6160, 107.6787
170.8440, 124.3843
172.0720, 86.17334
173.3000, 67.09033
174.5280, 60.11523
175.7550, 171.2681
176.9820, 75.99268
178.2100, 86.62988
179.4370, 27.65283
180.6630, 131.7627
181.8900, 207.9570
183.1170, 118.2334
184.3430, 393.5879
185.5690, 255.0215
186.7950, 396.5122
188.0210, 670.0078
189.2470, 767.5146
190.4720, 1152.992
191.6970, 1613.102
192.9230, 1916.472
194.1480, 2392.321
195.3730, 2668.720
196.5970, 3005.161
197.8220, 3599.647
199.0460, 4408.178
200.2700, 5684.756
201.4940, 7377.381
202.7180, 9077.054
203.9420, 9990.772
205.1660, 10010.54
206.3890, 9049.362
207.6120, 7292.227
208.8350, 5116.142
210.0580, 3444.104
211.2810, 1974.110
212.5040, 1177.164
213.7260, 746.2646
214.9480, 582.4131
216.1700, 430.6104
217.3920, 444.8560
218.6140, 473.1816
219.8360, 551.6392
221.0570, 788.1509
222.2790, 837.7261
223.5000, 785.4360
224.7210, 649.2256
225.9410, 651.0615
227.1620, 404.9395
228.3820, 237.8569
229.6030, 30.81494
230.8230, 95.81348
232.0430, 42.86768
233.2630, 46.99902
234.4820, 59.21924
235.7020, 71.51807
236.9210, 18.79688
238.1400, 38.83447
239.3590, 11.43066
240.5780, 7.991699
241.7970, 57.51855
243.0150, 147.9888
244.2340, 245.5303
245.4520, 396.1050
246.6700, 722.7065
247.8880, 835.3242
249.1060, 1026.959
250.3230, 1428.619
251.5400, 2013.293
252.7580, 2473.000
253.9750, 3164.739
255.1920, 3575.509
256.4080, 3666.310
257.6250, 3176.143
258.8410, 2607.007
260.0580, 1553.899
261.2740, 843.9385
262.4900, 538.0684
263.7050, 166.2852
264.9210, 137.4722
266.1360, 38.21631
267.3520, 75.79834
268.5670, 11.49463
269.7820, 10.89307
270.9960, 43.20752
272.2110, 61.55371
273.4250, 107.6108
274.6400, 33.27881
275.8540, 49.23438
277.0680, 131.2544
278.2810, 155.3335
279.4950, 320.4697
280.7090, 343.6602
281.9220, 505.5059
283.1350, 704.3442
284.3480, 874.5171
285.5610, 1201.894
286.7730, 1523.316
287.9860, 1881.781
289.1980, 2296.290
290.4100, 2683.838
291.6220, 2991.424
292.8340, 3144.047
294.0460, 3283.705
295.2570, 3198.399
296.4690, 3043.128
297.6800, 3008.891
298.8910, 2819.684
300.1020, 2712.508
301.3120, 2756.363
302.5230, 2939.247
303.7330, 3215.160
304.9440, 3689.103
306.1540, 4098.874
307.3630, 4867.735
308.5730, 5409.761
309.7830, 5737.816
310.9920, 5856.898
312.2010, 5571.006
313.4100, 4994.142
314.6190, 4816.305
315.8280, 4372.518
317.0370, 4387.771
318.2450, 4816.093
319.4530, 5646.441
320.6610, 6715.793
321.8690, 7950.289
323.0770, 9107.099
324.2850, 11307.73
325.4920, 13960.34
326.6990, 16054.85
327.9060, 18017.40
329.1130, 17802.35
330.3200, 16369.99
331.5270, 13521.11
332.7330, 10285.00
333.9390, 7247.734
335.1450, 5071.490
336.3510, 3489.435
337.5570, 2565.200
338.7630, 1923.993
339.9680, 1540.777
341.1740, 1200.584
342.3790, 1193.411
343.5840, 927.2598
344.7890, 851.1289
345.9930, 829.0195
347.1980, 770.9297
348.4020, 790.1758
349.6060, 836.1270
350.8100, 929.0967
352.0140, 1154.621
353.2180, 1164.643
354.4210, 1334.698
355.6250, 1680.744
356.8280, 1959.810
358.0310, 2459.893
359.2340, 3300.163
360.4360, 4131.283
361.6390, 5612.423
362.8410, 7437.579
364.0430, 9664.751
365.2450, 12589.94
366.4470, 16031.14
367.6490, 19468.36
368.8510, 24129.60
370.0520, 29197.84
371.2530, 35514.12
372.4540, 41875.38
373.6550, 46185.68
374.8560, 47739.97
376.0560, 46612.29
377.2570, 42765.62
378.4570, 37888.70
379.6570, 33269.04
380.8570, 29795.26
382.0570, 27938.63
383.2560, 26722.04
384.4560, 25705.23
385.6550, 24332.51
386.8540, 21996.29
388.0530, 18423.73
389.2520, 15050.17
390.4510, 11750.63
391.6490, 8859.094
392.8470, 6966.569
394.0450, 5037.055
395.2430, 3943.552
396.4410, 3289.058
397.6390, 2687.574
398.8360, 2292.102
400.0340, 1999.819
401.2310, 1746.366
402.4280, 1551.921
403.6250, 1393.455
404.8210, 1270.469
406.0180, 1216.803
407.2140, 1164.421
408.4100, 1177.891
409.6060, 1246.543
410.8020, 1275.305
411.9980, 1334.730
413.1930, 1431.245
414.3890, 1483.788
415.5840, 1509.471
416.7790, 1694.219
417.9740, 1713.423
419.1680, 1869.198
420.3630, 2125.987
421.5570, 2269.788
422.7510, 2596.924
423.9450, 2965.010
425.1390, 3301.270
426.3330, 3804.121
427.5270, 4274.983
428.7200, 4667.857
429.9130, 5406.742
431.1060, 5760.639
432.2990, 6099.545
433.4920, 6079.282
434.6840, 5955.389
435.8770, 5483.327
437.0690, 4869.273
438.2610, 4123.230
439.4530, 3395.196
440.6450, 2716.171
441.8360, 2250.155
443.0280, 1704.147
444.2190, 1468.148
445.4100, 1019.158
446.6010, 861.1758
447.7920, 737.2002
448.9820, 654.2324
450.1730, 500.2744
451.3630, 258.3242
452.5530, 321.3818
453.7430, 126.4453
454.9330, 148.5166
456.1230, 156.6074
457.3120, 219.0137
458.5010, 95.49609
459.6910, 112.7783
460.8800, 77.46484
462.0680, 75.43164
463.2570, 20.26172
464.4460, 23.63574
465.6340, 47.76270
466.8220, 93.01562
468.0100, 20.76855
469.1980, 13.22266
470.3860, 13.41699
471.5730, 21.69141
472.7600, 116.9238
473.9480, 71.30762
475.1350, 99.03613
476.3210, 17.41602
477.5080, 110.3574
478.6950, 5.298828
479.8810, 22.23730
481.0670, 25.08496
482.2530, 82.02344
483.4390, 63.96289
484.6250, 124.9014
485.8100, 68.83984
486.9960, 89.77832
488.1810, 24.71582
489.3660, 24.65234
490.5510, 12.41211
491.7360, 72.50879
492.9200, 73.42871
494.1050, 112.6523
495.2890, 18.19922
496.4730, 5.951172
497.6570, 98.05176
498.8400, 63.97656
500.0240, 54.80859
501.2070, 40.81055
502.3910, 87.99023
503.5740, 66.09277
504.7570, 128.8877
505.9400, 181.6797
507.1220, 194.4688
508.3050, 284.2568
509.4870, 389.4707
510.6690, 524.8242
511.8510, 676.6035
513.0330, 903.3809
514.2140, 1104.154
515.3960, 1449.926
516.5770, 1889.692
517.7580, 2377.456
518.9390, 3002.217
520.1200, 3329.976
521.3010, 4087.737
522.4810, 4599.496
523.6610, 5045.260
524.8420, 5008.025
526.0220, 4510.803
527.2010, 3946.579
528.3810, 3107.353
529.5610, 2330.140
530.7400, 1615.922
531.9190, 1137.713
533.0980, 853.5215
534.2770, 574.3252
535.4560, 299.1260
536.6340, 435.9463
537.8120, 345.7607
538.9910, 257.5703
540.1690, 58.37598
541.3460, 30.17480
542.5240, 74.96582
543.7020, 72.75195
544.8790, 126.5342
546.0560, 54.31055
547.2330, 10.91895
548.4100, 124.8330
549.5870, 21.41406
550.7630, 135.3086
551.9400, 123.0244
553.1160, 252.7373
554.2920, 228.4590
555.4680, 283.1748
556.6440, 354.8848
557.8190, 474.5938
558.9950, 465.2969
560.1700, 445.0420
561.3450, 400.7803
562.5200, 363.5107
563.6950, 366.2471
564.8690, 355.9766
566.0440, 447.6973
567.2180, 355.4102
568.3920, 217.1152
569.5660, 299.8115
570.7400, 352.4990
571.9130, 462.1797
573.0870, 568.8516
574.2600, 630.5146
575.4330, 623.1689
576.6060, 655.8145
577.7790, 495.4512
578.9520, 550.0801
580.1240, 354.6973
581.2960, 234.3057
582.4690, 273.9053
583.6410, 307.4951
584.8120, 267.0762
585.9840, 258.6475
587.1560, 241.2100
588.3270, 356.7627
589.4980, 284.3037
590.6690, 285.8359
591.8400, 283.3574
593.0110, 217.8701
594.1810, 199.2207
595.3510, 133.8623
596.5220, 84.34375
597.6920, 58.81348
598.8610, 48.72949
600.0310, 13.33203
601.2010, 130.9736
602.3700, 7.715820
603.5390, 42.50391
604.7080, 25.29199
605.8770, 10.75098
607.0460, 85.51855
608.2140, 63.35254
609.3830, 13.73828
610.5510, 32.73633
611.7190, 27.78320
612.8870, 24.22754
614.0550, 74.36133
615.2220, 54.00195
616.3900, 3.598633
617.5570, 97.35840
618.7240, 102.1074
619.8910, 91.65137
621.0580, 18.61914
622.2240, 232.0723
623.3910, 90.75488
624.5570, 304.4268
625.7230, 147.0889
626.8890, 272.7393
628.0550, 173.3809
629.2200, 88.01172
630.3860, 106.6328
631.5510, 156.9277
632.7160, 136.1367
633.8810, 135.8564
635.0460, 149.1611
636.2100, 94.71973
637.3750, 51.25293
638.5390, 57.80469
639.7030, 108.3447
640.8670, 27.88086
642.0310, 182.2461
643.1950, 38.78320
644.3580, 106.3291
645.5210, 267.8877
646.6850, 240.4434
647.8480, 154.0117
649.0100, 148.5732
650.1730, 126.1230
651.3350, 164.6650
652.4980, 148.1953
653.6600, 104.7178
654.8220, 167.2295
655.9840, 239.7314
657.1450, 307.2246
658.3070, 203.7070
659.4680, 282.5195
660.6300, 180.9814
661.7910, 218.4346
662.9510, 238.0049
664.1120, 171.1357
665.2730, 273.7852
666.4330, 273.1963
667.5930, 404.7520
668.7530, 378.2998
669.9130, 357.6816
671.0730, 583.2568
672.2320, 517.2246
673.3920, 619.6631
674.5510, 751.2539
675.7100, 861.1406
676.8690, 881.4570
678.0280, 935.7617
679.1860, 1182.056
680.3450, 1325.338
681.5030, 1535.427
682.6610, 1864.686
683.8190, 2091.174
684.9770, 2383.492
686.1340, 3014.720
687.2920, 3877.931
688.4490, 4739.233
689.6060, 5981.592
690.7630, 7694.773
691.9200, 9625.941
693.0760, 11917.06
694.2330, 15023.21
695.3890, 18151.35
696.5450, 21706.47
697.7010, 25192.69
698.8570, 27455.82
700.0130, 28181.91
701.1680, 26547.98
702.3230, 23654.08
703.4780, 19524.14
704.6330, 15732.19
705.7880, 11975.22
706.9430, 9432.240
708.0970, 7188.252
709.2520, 5662.249
710.4060, 4530.235
711.5600, 3610.211
712.7140, 2992.175
713.8670, 2433.127
715.0210, 2132.066
716.1740, 1926.996
717.3270, 1501.914
718.4800, 1270.820
719.6330, 1253.716
720.7860, 1131.601
721.9380, 916.4717
723.0910, 768.3340
724.2430, 762.1836
725.3950, 707.0234
726.5470, 630.8516
727.6980, 659.6680
728.8500, 699.4746
730.0010, 589.8896
731.1530, 473.0547
732.3040, 436.8281
733.4550, 313.5908
734.6050, 283.3428
735.7560, 351.0723
736.9060, 388.4814
738.0560, 260.8096
739.2060, 275.3350
740.3560, 295.4502
741.5060, 332.2812
742.6560, 321.2441
743.8050, 245.9316
744.9540, 317.8379
746.1030, 243.8545
747.2520, 252.3408
748.4010, 143.0742
749.5500, 167.6006
750.6980, 148.4238
751.8460, 148.5127
752.9950, 133.4443
754.1420, 129.8857
755.2900, 118.0352
756.4380, 123.3389
757.5850, 113.4180
758.7330, 109.1035
759.8800, 126.6631
761.0270, 89.54590
762.1730, 178.2139
763.3200, 201.8770
764.4670, 246.9443
765.6130, 249.1855
766.7590, 354.8320
767.9050, 375.4727
769.0510, 459.1094
770.1960, 473.7480
771.3420, 638.3799
772.4870, 663.0088
773.6320, 721.1064
774.7770, 1154.758
775.9220, 1397.243
777.0670, 1560.801
778.2110, 1834.613
779.3560, 1986.277
780.5000, 1955.213
781.6440, 1669.227
782.7880, 1446.150
783.9320, 998.0586
785.0750, 923.7578
786.2180, 581.7520
787.3620, 408.3682
788.5050, 395.9795
789.6480, 190.5850
790.7900, 236.1855
791.9330, 86.78027
793.0750, 57.37109
794.2170, 156.9561
795.3590, 148.5371
796.5010, 9.113281
797.6430, 215.6797
798.7850, 62.24316
799.9260, 19.80078
801.0670, 0.3525390
802.2080, 40.10742
803.3490, 57.39844
804.4900, 15.90137
805.6310, 23.60156
806.7710, 98.87109
807.9110, 40.66113
809.0510, 63.22461
810.1910, 18.16699
811.3310, 7.552734
812.4710, 79.06836
813.6100, 48.25977
814.7490, 56.58398
815.8880, 41.90527
817.0270, 175.2227
818.1660, 29.53613
819.3050, 68.84766
820.4430, 4.156250
821.5820, 12.45703
822.7200, 47.75586
823.8580, 10.95020
824.9950, 26.65820
826.1330, 96.61035
827.2710, 66.88867
828.4080, 32.16602
829.5450, 9.560547
830.6820, 131.7012
831.8190, 74.95996
832.9560, 24.21777
834.0920, 3.473633
835.2280, 123.2764
836.3650, 107.9033
837.5010, 102.0820
838.6360, 44.74219
839.7720, 167.4043
840.9080, 137.5488
842.0430, 54.69336
843.1780, 77.83691
844.3130, 65.10742
845.4480, 112.1182
846.5830, 101.2568
847.7170, 136.3955
848.8520, 157.5312
849.9860, 237.6680
851.1200, 187.8037
852.2540, 106.9395
853.3870, 321.0732
854.5210, 163.2080
855.6540, 163.3418
856.7880, 269.4756
857.9210, 258.6094
859.0540, 223.7422
860.1860, 399.8770
861.3190, 329.0098
862.4510, 254.1445
863.5840, 156.2783
864.7160, 371.4141
865.8480, 319.5488
866.9790, 229.6855
868.1110, 418.8213
869.2420, 179.9590
870.3740, 295.0967
871.5050, 219.2363
872.6360, 208.3760
873.7660, 206.5400
874.8970, 183.3721
876.0280, 210.9404
877.1580, 205.1982
878.2880, 204.4697
879.4180, 260.7461
880.5480, 300.0439
881.6770, 307.3506
882.8070, 470.6914
883.9360, 350.0488
885.0650, 385.4229
886.1940, 278.8164
887.3230, 447.2285
888.4520, 326.6582
889.5800, 437.1201
890.7090, 391.5859
891.8370, 273.0605
892.9650, 281.5381
894.0930, 200.0166
895.2200, 122.4980
896.3480, 86.99512
897.4750, 154.4941
898.6020, 120.9951
899.7290, 173.4990
900.8560, 210.0049
901.9830, 271.5156
903.1090, 87.02637
904.2360, 140.5410
905.3620, 120.0576
906.4880, 77.57812
907.6140, 187.1006
908.7400, 14.37305
909.8650, 10.14941
910.9900, 123.6758
912.1160, 86.20410
913.2410, 30.26172
914.3660, 53.73730
915.4900, 65.22168
916.6150, 87.53223
917.7390, 97.45703
918.8640, 32.86426
919.9880, 94.45996
921.1120, 13.09277
922.2350, 44.27344
923.3590, 16.65625
924.4820, 74.06445
925.6060, 78.48145
926.7290, 57.55371
927.8520, 125.3281
928.9740, 21.75586
930.0970, 109.1885
931.2190, 118.6416
932.3420, 73.75781
933.4640, 122.2178
934.5860, 135.6992
935.7080, 47.05664
936.8290, 157.8477
937.9510, 227.1230
939.0720, 72.63086
940.1930, 153.9941
941.3140, 136.3564
942.4350, 79.88086
943.5560, 218.2061
944.6760, 186.1328
945.7960, 61.58301
946.9170, 204.8760
948.0370, 142.8682
949.1560, 282.4248
950.2760, 181.9883
951.3960, 122.5576
952.5150, 204.1328
953.6340, 280.7139
954.7530, 204.3018
955.8720, 305.6562
956.9910, 291.1777
958.1090, 329.7939
959.2280, 303.2852
960.3460, 334.7959
961.4640, 538.4502
962.5820, 420.0918
963.6990, 468.7393
964.8170, 579.4453
965.9340, 487.1191
967.0510, 676.8008
968.1690, 658.4902
969.2850, 858.0752
970.4020, 940.7627
971.5190, 1120.472
972.6350, 891.1895
973.7510, 1261.884
974.8670, 1278.616
975.9830, 1577.356
977.0990, 1852.104
978.2150, 2491.860
979.3300, 3124.625
980.4450, 3969.396
981.5600, 4617.176
982.6750, 5575.963
983.7900, 7013.761
984.9050, 7572.564
986.0190, 7631.377
987.1340, 6993.197
988.2480, 5837.025
989.3620, 4727.861
990.4750, 3803.707
991.5890, 3135.191
992.7020, 2414.449
993.8160, 2236.346
994.9290, 1830.252
996.0420, 1730.166
997.1550, 1581.087
998.2670, 1499.019
999.3800, 1388.827
1000.492, 1434.904
1001.604, 1253.859
1002.716, 1286.824
1003.828, 1355.797
1004.940, 1068.777
1006.051, 1254.767
1007.163, 1232.338
1008.274, 1319.001
1009.385, 1386.017
1010.496, 1474.666
1011.606, 1541.696
1012.717, 1705.734
1013.827, 1763.780
1014.937, 1885.843
1016.047, 2198.939
1017.157, 2356.869
1018.267, 2522.959
1019.377, 2769.051
1020.486, 3039.151
1021.595, 3548.283
1022.704, 3973.424
1023.813, 4447.571
1024.922, 5085.725
1026.030, 5992.887
1027.139, 7062.055
1028.247, 8464.232
1029.355, 10189.41
1030.463, 12365.60
1031.571, 15198.80
1032.678, 18983.00
1033.786, 23717.22
1034.893, 29409.45
1036.000, 35174.68
1037.107, 40962.92
1038.214, 45323.16
1039.321, 47807.42
1040.427, 46966.68
1041.533, 43181.95
1042.639, 37058.78
1043.745, 30119.07
1044.851, 23958.35
1045.957, 18436.65
1047.062, 14412.79
1048.168, 11323.50
1049.273, 9107.526
1050.378, 7338.854
1051.482, 6178.900
1052.587, 5017.014
1053.692, 4231.252
1054.796, 3695.236
1055.900, 3231.561
1057.004, 3042.845
1058.108, 2565.549
1059.212, 2361.938
1060.315, 2158.335
1061.418, 1988.741
1062.522, 1704.155
1063.625, 1617.215
1064.728, 1819.643
1065.830, 1484.082
1066.933, 1372.442
1068.035, 1284.896
1069.137, 1057.355
1070.239, 1030.573
1071.341, 895.3330
1072.443, 929.2100
1073.545, 849.7188
1074.646, 1050.244
1075.747, 742.7754
1076.848, 920.3291
1077.949, 1100.909
1079.050, 989.4971
1080.150, 1182.094
1081.251, 1141.721
1082.351, 1060.356
1083.451, 915.9971
1084.551, 958.6455
1085.651, 752.3008
1086.750, 495.9629
1087.850, 402.6309
1088.949, 427.0488
1090.048, 272.7129
1091.147, 377.4033
1092.246, 286.1064
1093.345, 293.8252
1094.443, 235.5518
1095.541, 187.2842
1096.639, 194.9805
1097.737, 112.7305
1098.835, 227.4854
1099.933, 191.2471
1101.030, 171.0156
1102.128, 119.7900
1103.225, 55.60645
1104.322, 163.4277
1105.419, 230.2559
1106.515, 117.1025
1107.612, 105.9570
1108.708, 134.8154
1109.804, 177.6797
1110.900, 100.5508
1111.996, 158.3975
1113.092, 216.3105
1114.187, 153.1982
1115.283, 201.0918
1116.378, 231.9014
1117.473, 83.89551
1118.568, 338.8047
1119.662, 377.7207
1120.757, 473.6416
1121.851, 411.5684
1122.946, 403.4990
1124.040, 210.7988
1125.134, 360.7412
1126.227, 338.6875
1127.321, 160.6387
1128.414, 233.5957
1129.508, 224.5566
1130.601, 292.5225
1131.693, 215.4922
1132.786, 215.3174
1133.879, 98.44727
1134.971, 148.4316
1136.064, 184.4189
1137.156, 171.4326
1138.248, 88.54980
1139.339, 19.56445
1140.431, 5.419922
1141.522, 18.59277
1142.614, 93.39258
1143.705, 174.3818
1144.796, 82.37695
1145.887, 115.9238
1146.977, 7.5195000E-02
1148.068, 58.06934
1149.158, 1.943359
1150.248, 98.96094
1151.338, 33.98145
1152.428, 89.90625
1153.518, 101.9346
1154.607, 201.9668
1155.696, 125.0010
1156.785, 192.0400
1157.874, 76.08105
1158.963, 48.12598
1160.052, 77.17480
1161.141, 147.2256
1162.229, 114.2812
1163.317, 148.8975
1164.405, 245.7705
1165.493, 132.8340
1166.581, 108.9004
1167.668, 35.97070
1168.756, 113.0439
1169.843, 154.1211
1170.930, 96.19922
1172.017, 185.3398
1173.103, 239.3662
1174.190, 196.4551
1175.276, 187.5479
1176.363, 12.64258
1177.449, 91.74023
1178.535, 34.15332
1179.620, 78.95020
1180.706, 10.93066
1181.791, 239.2051
1182.877, 2.367188
1183.962, 15.46387
1185.047, 60.72070
1186.131, 48.08984
1187.216, 78.92676
1188.300, 20.80273
1189.385, 34.31055
1190.469, 8.426758
1191.553, 172.5439
1192.637, 21.66309
1193.720, 57.21582
1194.804, 40.87598
1195.887, 90.96973
1196.970, 60.93457
1198.053, 105.1289
1199.136, 9.192383
1200.219, 25.74023
1201.301, 0.3105470
1202.383, 1.638672
1203.465, 25.40723
1204.547, 120.4551
1205.629, 21.50488
1206.711, 147.5566
1207.792, 174.6084
1208.874, 148.9316
1209.955, 88.71680
1211.036, 164.7725
1212.117, 79.82910
1213.198, 142.8877
1214.278, 66.94531
1215.359, 122.0049
1216.439, 87.06641
1217.519, 192.1270
1218.599, 5.809570
1219.678, 9.753906
1220.758, 41.29297
1221.837, 16.33984
1222.917, 204.3877
1223.996, 28.43652
1225.075, 164.4863
1226.153, 40.46289
1227.232, 157.5625
1228.310, 113.5869
1229.389, 131.6133
1230.467, 63.63965
1231.545, 77.17480
1232.622, 35.69043
1233.700, 80.71777
1234.777, 99.74414
1235.855, 102.7705
1236.932, 161.7979
1238.009, 49.82422
1239.086, 235.8486
1240.162, 266.8740
1241.239, 29.89941
1242.315, 66.92480
1243.391, 122.9492
1244.467, 28.97266
1245.543, 119.9971
1246.619, 58.02051
1247.694, 17.04297
1248.769, 51.06543
1249.844, 206.0869
1250.919, 119.1084
1251.994, 76.12891
1253.069, 90.85059
1254.144, 88.11426
1255.218, 63.07812
1256.292, 22.04297
1257.366, 162.0049
1258.440, 107.9688
1259.514, 113.9316
1260.587, 270.8936
1261.661, 49.87207
1262.734, 150.8496
1263.807, 114.8262
1264.880, 314.8711
1265.952, 119.3359
1267.025, 215.3096
1268.097, 125.5840
1269.170, 129.9004
1270.242, 197.8730
1271.314, 324.2188
1272.385, 219.1895
1273.457, 257.1611
1274.528, 12.87012
1275.600, 181.0859
1276.671, 200.0107
1277.742, 96.10742
1278.812, 196.0547
1279.883, 115.0078
1280.954, 80.04004
1282.024, 74.85938
1283.094, 111.7598
1284.164, 104.6582
1285.234, 232.5576
1286.303, 90.45508
1287.373, 143.3525
1288.442, 273.2500
1289.511, 83.14746
1290.580, 100.0449
1291.649, 28.94141
