##NAMES=Jadeite
##RRUFFID=R050220
##IDEAL CHEMISTRY=NaAlSi_2_O_6_
##LOCALITY=Clear Creek, San Benito County, California, USA
##OWNER=RRUFF
##SOURCE=Hatt Yoder
##DESCRIPTION=Aggregate of colorless bladed crystals
##STATUS=The identification of this mineral has been confirmed by X-ray diffraction and chemical analysis
##URL=rruff.info/R050220
##MEASURED CHEMISTRY=Na_1.00_Al_1.00_(Si_0.99_Al_0.01_)_2_O_6_
##PIN_ID=L00826
##ORIENTATION=Laser parallel to c* (0 0 1). Fiducial mark perpendicular to laser is parallel to a [1 0 0]
112.9460, 0.0000000E+00
114.1820, 57.21924
115.4170, 40.16113
116.6530, 142.2798
117.8880, 9.692871
119.1230, 12.34668
120.3580, 32.82520
121.5920, 119.7544
122.8270, 319.5605
124.0610, 394.4946
125.2950, 350.9272
126.5290, 510.3540
127.7630, 786.4326
128.9970, 1057.110
130.2300, 1550.544
131.4640, 1874.352
132.6970, 2500.238
133.9300, 3247.009
135.1630, 4455.450
136.3950, 5699.397
137.6280, 7357.734
138.8600, 9868.370
140.0920, 12463.24
141.3240, 14702.63
142.5560, 15452.85
143.7880, 15108.06
145.0190, 13558.61
146.2510, 11454.67
147.4820, 8984.365
148.7130, 6584.583
149.9440, 4441.378
151.1750, 3066.115
152.4050, 2147.169
153.6360, 1599.880
154.8660, 1162.234
156.0960, 964.2671
157.3260, 722.0132
158.5560, 543.5029
159.7850, 336.7607
161.0150, 328.8096
162.2440, 399.6689
163.4730, 223.3569
164.7020, 185.8901
165.9310, 120.2827
167.1590, 140.5469
168.3880, 79.69238
169.6160, 4.265625
170.8440, 171.9253
172.0720, 74.63965
173.3000, 50.77393
174.5280, 84.67285
175.7550, 36.98926
176.9820, 193.7920
178.2100, 178.1538
179.4370, 217.1792
180.6630, 200.1411
181.8900, 196.1123
183.1170, 245.0845
184.3430, 391.0571
185.5690, 409.0317
186.7950, 520.0059
188.0210, 689.9834
189.2470, 1046.154
190.4720, 1494.322
191.6970, 2482.894
192.9230, 3759.551
194.1480, 5066.271
195.3730, 5897.058
196.5970, 7383.907
197.8220, 10614.82
199.0460, 14818.79
200.2700, 19731.82
201.4940, 24655.90
202.7180, 28590.04
203.9420, 30777.23
205.1660, 28508.47
206.3890, 23405.75
207.6120, 16281.08
208.8350, 10384.44
210.0580, 6134.849
211.2810, 3658.288
212.5040, 2303.764
213.7260, 1555.272
214.9480, 1123.812
216.1700, 905.3950
217.3920, 965.0249
218.6140, 872.6860
219.8360, 927.3579
221.0570, 1018.042
222.2790, 1082.738
223.5000, 1104.446
224.7210, 1056.166
225.9410, 778.3721
227.1620, 576.8389
228.3820, 334.2168
229.6030, 127.8062
230.8230, 42.53564
232.0430, 69.93799
233.2630, 64.39893
234.4820, 76.84668
235.7020, 92.28174
236.9210, 79.70410
238.1400, 54.11426
239.3590, 145.5117
240.5780, 77.89697
241.7970, 152.2695
243.0150, 12.37061
244.2340, 25.97803
245.4520, 167.6826
246.6700, 195.2676
247.8880, 284.7412
249.1060, 422.1099
250.3230, 500.3447
251.5400, 802.4639
252.7580, 1046.566
253.9750, 1245.692
255.1920, 1263.838
256.4080, 1407.005
257.6250, 1333.206
258.8410, 1091.460
260.0580, 836.3501
261.2740, 311.7930
262.4900, 93.57031
263.7050, 51.41357
264.9210, 74.19775
266.1360, 24.99170
267.3520, 14.51709
268.5670, 41.05762
269.7820, 3.276367
270.9960, 64.45996
272.2110, 74.26123
273.4250, 101.1172
274.6400, 208.0225
275.8540, 209.9673
277.0680, 347.9443
278.2810, 467.9468
279.4950, 620.9697
280.7090, 774.0093
281.9220, 1137.062
283.1350, 1427.125
284.3480, 1798.835
285.5610, 2215.512
286.7730, 2662.361
287.9860, 3101.448
289.1980, 3603.540
290.4100, 4070.627
291.6220, 4565.699
292.8340, 4793.749
294.0460, 4548.778
295.2570, 4197.790
296.4690, 3495.784
297.6800, 2919.764
298.8910, 2142.724
300.1020, 1661.668
301.3120, 1313.598
302.5230, 1053.513
303.7330, 858.4170
304.9440, 827.3101
306.1540, 653.1924
307.3630, 733.0659
308.5730, 637.9316
309.7830, 582.7896
310.9920, 591.6401
312.2010, 476.4844
313.4100, 373.3237
314.6190, 213.1577
315.8280, 115.9897
317.0370, 63.81396
318.2450, 136.0903
319.4530, 96.78467
320.6610, 171.1880
321.8690, 196.6206
323.0770, 298.9009
324.2850, 386.0898
325.4920, 533.2744
326.6990, 527.4873
327.9060, 624.7188
329.1130, 694.9614
330.3200, 724.2129
331.5270, 492.4736
332.7330, 544.7432
333.9390, 320.0210
335.1450, 193.2231
336.3510, 39.39014
337.5570, 93.55078
338.7630, 42.72168
339.9680, 25.09863
341.1740, 48.92383
342.3790, 42.59961
343.5840, 42.60938
344.7890, 13.53223
345.9930, 46.67627
347.1980, 82.82910
348.4020, 113.9902
349.6060, 215.1597
350.8100, 303.3384
352.0140, 291.5249
353.2180, 387.7188
354.4210, 512.9209
355.6250, 627.1313
356.8280, 799.3491
358.0310, 903.5737
359.2340, 1272.807
360.4360, 1684.047
361.6390, 2209.293
362.8410, 3068.548
364.0430, 4052.809
365.2450, 5170.077
366.4470, 6639.350
367.6490, 8594.632
368.8510, 10635.92
370.0520, 13307.22
371.2530, 16121.51
372.4540, 18694.80
373.6550, 20278.03
374.8560, 20902.25
376.0560, 20050.33
377.2570, 18082.60
378.4570, 15117.24
379.6570, 11927.14
380.8570, 9028.088
382.0570, 6953.858
383.2560, 5568.229
384.4560, 4375.923
385.6550, 3761.891
386.8540, 3226.220
388.0530, 2873.505
389.2520, 2522.654
390.4510, 2259.983
391.6490, 1910.323
392.8470, 1651.673
394.0450, 1492.035
395.2430, 1244.409
396.4410, 1184.795
397.6390, 1011.194
398.8360, 930.6055
400.0340, 765.9067
401.2310, 764.1367
402.4280, 767.5850
403.6250, 678.8115
404.8210, 699.6353
406.0180, 664.1226
407.2140, 582.9131
408.4100, 677.6465
409.6060, 665.4771
410.8020, 795.1938
411.9980, 753.5176
413.1930, 938.0527
414.3890, 1029.018
415.5840, 1116.567
416.7790, 1278.124
417.9740, 1479.685
419.1680, 1575.252
420.3630, 1808.825
421.5570, 2091.403
422.7510, 2235.986
423.9450, 2477.575
425.1390, 2972.168
426.3330, 3391.766
427.5270, 4189.369
428.7200, 5216.977
429.9130, 5422.591
431.1060, 5958.209
432.2990, 6360.831
433.4920, 6727.459
434.6840, 6596.093
435.8770, 6195.731
437.0690, 5391.375
438.2610, 4656.024
439.4530, 3860.679
440.6450, 3099.339
441.8360, 2419.005
443.0280, 1910.677
444.2190, 1504.354
445.4100, 1149.038
446.6010, 936.7275
447.7920, 708.4233
448.9820, 596.1250
450.1730, 400.8340
451.3630, 375.5483
452.5530, 307.2695
453.7430, 309.9971
454.9330, 144.7310
456.1230, 28.47168
457.3120, 43.21924
458.5010, 3.027344
459.6910, 46.73193
460.8800, 34.50244
462.0680, 140.1592
463.2570, 41.07520
464.4460, 64.67920
465.6340, 64.14404
466.8220, 87.45508
468.0100, 14.58643
469.1980, 112.6714
470.3860, 201.4590
471.5730, 277.6895
472.7600, 150.5063
473.9480, 228.3325
475.1350, 223.1665
476.3210, 430.0088
477.5080, 471.8599
478.6950, 499.7197
479.8810, 515.2192
481.0670, 561.0967
482.2530, 542.6992
483.4390, 547.1758
484.6250, 578.2617
485.8100, 481.7534
486.9960, 494.2656
488.1810, 490.0083
489.3660, 409.7793
490.5510, 317.7324
491.7360, 291.6958
492.9200, 176.6685
494.1050, 259.6509
495.2890, 128.6431
496.4730, 43.64453
497.6570, 154.6558
498.8400, 121.6768
500.0240, 83.70703
501.2070, 171.7466
502.3910, 224.7964
503.5740, 198.8555
504.7570, 256.9243
505.9400, 339.0024
507.1220, 265.0898
508.3050, 430.1880
509.4870, 407.2974
510.6690, 584.4214
511.8510, 737.5630
513.0330, 805.7231
514.2140, 1028.907
515.3960, 1335.111
516.5770, 1533.334
517.7580, 1912.582
518.9390, 2208.859
520.1200, 2536.180
521.3010, 3225.559
522.4810, 3822.977
523.6610, 4038.437
524.8420, 3901.951
526.0220, 3922.496
527.2010, 3193.103
528.3810, 2613.748
529.5610, 1833.464
530.7400, 1224.210
531.9190, 786.9795
533.0980, 526.7583
534.2770, 387.5469
535.4560, 219.3496
536.6340, 153.1797
537.8120, 66.03320
538.9910, 49.89648
540.1690, 29.76807
541.3460, 62.35059
542.5240, 42.48633
543.7020, 11.37207
544.8790, 41.76172
546.0560, 120.8911
547.2330, 51.94141
548.4100, 51.20410
549.5870, 73.36377
550.7630, 39.47705
551.9400, 45.36426
553.1160, 39.27246
554.2920, 205.1992
555.4680, 311.1387
556.6440, 291.1206
557.8190, 272.1157
558.9950, 473.1255
560.1700, 631.1445
561.3450, 837.1729
562.5200, 913.2109
563.6950, 1198.256
564.8690, 1716.310
566.0440, 2276.371
567.2180, 2877.440
568.3920, 3705.516
569.5660, 4924.598
570.7400, 6101.688
571.9130, 7813.785
573.0870, 9059.890
574.2600, 10357.00
575.4330, 10875.12
576.6060, 10456.26
577.7790, 9099.410
578.9520, 7377.568
580.1240, 5856.731
581.2960, 4086.898
582.4690, 2963.074
583.6410, 2148.255
584.8120, 1659.442
585.9840, 1333.636
587.1560, 1045.835
588.3270, 937.0400
589.4980, 762.2510
590.6690, 623.4189
591.8400, 500.6885
593.0110, 405.9165
594.1810, 344.1499
595.3510, 233.3887
596.5220, 201.6323
597.6920, 159.8813
598.8610, 172.1357
600.0310, 117.3271
601.2010, 97.59131
602.3700, 38.60205
603.5390, 18.65430
604.7080, 68.06055
605.8770, 52.67383
607.0460, 83.42822
608.2140, 80.21924
609.3830, 79.15381
610.5510, 39.90283
611.7190, 10.77686
612.8870, 67.34814
614.0550, 46.47803
615.2220, 13.61133
616.3900, 127.7490
617.5570, 105.8911
618.7240, 65.03711
619.8910, 109.1870
621.0580, 226.3423
622.2240, 236.5015
623.3910, 255.6655
624.5570, 418.8496
625.7230, 413.0586
626.8890, 525.2910
628.0550, 686.5469
629.2200, 540.8115
630.3860, 789.0967
631.5510, 769.4355
632.7160, 815.7271
633.8810, 991.0303
635.0460, 964.3364
636.2100, 1061.645
637.3750, 999.9561
638.5390, 1003.274
639.7030, 1062.595
640.8670, 1061.919
642.0310, 943.2451
643.1950, 1017.573
644.3580, 753.9019
645.5210, 868.2339
646.6850, 647.6191
647.8480, 618.2305
649.0100, 629.8521
650.1730, 644.2832
651.3350, 504.4673
652.4980, 556.6602
653.6600, 456.5215
654.8220, 415.9170
655.9840, 398.7305
657.1450, 553.0894
658.3070, 402.9985
659.4680, 521.6904
660.6300, 636.7588
661.7910, 583.1846
662.9510, 601.6553
664.1120, 740.7368
665.2730, 691.0933
666.4330, 783.4048
667.5930, 815.4727
668.7530, 775.6313
669.9130, 893.5347
671.0730, 1054.859
672.2320, 1083.191
673.3920, 1293.513
674.5510, 1435.065
675.7100, 1469.625
676.8690, 1788.240
678.0280, 1961.743
679.1860, 2193.036
680.3450, 2563.580
681.5030, 2778.123
682.6610, 3356.219
683.8190, 3764.561
684.9770, 4545.903
686.1340, 5399.224
687.2920, 6379.399
688.4490, 7851.354
689.6060, 10121.96
690.7630, 12451.40
691.9200, 15932.63
693.0760, 20246.86
694.2330, 25132.12
695.3890, 30935.60
696.5450, 37515.82
697.7010, 43986.67
698.8570, 48739.25
700.0130, 50887.84
701.1680, 49612.46
702.3230, 45151.79
703.4780, 38246.05
704.6330, 30826.25
705.7880, 23709.74
706.9430, 18325.88
708.0970, 13930.01
709.2520, 11035.13
710.4060, 8942.324
711.5600, 7355.427
712.7140, 6053.980
713.8670, 4902.150
715.0210, 4219.873
716.1740, 3537.942
717.3270, 3097.282
718.4800, 2705.333
719.6330, 2292.375
720.7860, 2039.495
721.9380, 1901.519
723.0910, 1657.532
724.2430, 1471.536
725.3950, 1423.532
726.5470, 1180.517
727.6980, 1030.493
728.8500, 999.4585
730.0010, 934.4150
731.1530, 772.4956
732.3040, 760.4321
733.4550, 829.3584
734.6050, 661.2749
735.7560, 657.1816
736.9060, 556.0781
738.0560, 607.9639
739.2060, 470.8403
740.3560, 548.7070
741.5060, 415.6670
742.6560, 392.5200
743.8050, 459.3726
744.9540, 369.5132
746.1030, 336.8062
747.2520, 378.2783
748.4010, 370.7954
749.5500, 222.6104
750.6980, 204.9805
751.8460, 270.7637
752.9950, 302.5371
754.1420, 199.3008
755.2900, 311.0552
756.4380, 174.7998
757.5850, 246.5352
758.7330, 147.2598
759.8800, 181.9751
761.0270, 212.6807
762.1730, 122.3760
763.3200, 68.06104
764.4670, 62.73633
765.6130, 115.4014
766.7590, 174.0557
767.9050, 237.3823
769.0510, 50.01611
770.1960, 75.63818
771.3420, 89.25830
772.4870, 106.8579
773.6320, 105.4473
774.7770, 216.0254
775.9220, 221.5454
777.0670, 291.1016
778.2110, 197.7510
779.3560, 174.2939
780.5000, 244.8159
781.6440, 229.3267
782.7880, 99.82617
783.9320, 57.31348
785.0750, 31.41162
786.2180, 30.87305
787.3620, 4.320801
788.5050, 7.761230
789.6480, 7.891602
790.7900, 34.49072
791.9330, 11.16602
793.0750, 17.87158
794.2170, 26.61133
795.3590, 51.39014
796.5010, 0.2202150
797.6430, 70.03955
798.7850, 55.04492
799.9260, 46.11670
801.0670, 38.82422
802.2080, 70.19043
803.3490, 5.192383
804.4900, 10.17432
805.6310, 24.86328
806.7710, 36.93750
807.9110, 80.94434
809.0510, 70.81543
810.1910, 71.67383
811.3310, 0.4785160
812.4710, 48.65430
813.6100, 33.87891
814.7490, 33.85547
815.8880, 83.57617
817.0270, 28.28613
818.1660, 40.98242
819.3050, 9.678711
820.4430, 54.36621
821.5820, 27.95801
822.7200, 21.30957
823.8580, 29.66748
824.9950, 87.93799
826.1330, 1.543457
827.2710, 34.85596
828.4080, 118.7056
829.5450, 71.25537
830.6820, 1.205566
831.8190, 84.68701
832.9560, 1.234375
834.0920, 11.80225
835.2280, 12.60303
836.3650, 10.99414
837.5010, 9.370605
838.6360, 27.73193
839.7720, 42.08008
840.9080, 52.57812
842.0430, 11.74316
843.1780, 72.05566
844.3130, 100.3579
845.4480, 90.06348
846.5830, 41.93066
847.7170, 73.20117
848.8520, 3.460938
849.9860, 40.70557
851.1200, 48.06152
852.2540, 152.1299
853.3870, 10.31152
854.5210, 147.4800
855.6540, 141.6387
856.7880, 35.78809
857.9210, 203.9268
859.0540, 106.0552
860.1860, 196.1748
861.3190, 89.28467
862.4510, 70.38525
863.5840, 83.47607
864.7160, 144.5576
865.8480, 166.6313
866.9790, 18.69434
868.1110, 155.7607
869.2420, 49.81836
870.3740, 218.8667
871.5050, 72.90674
872.6360, 113.9380
873.7660, 227.9609
874.8970, 109.9756
876.0280, 84.98145
877.1580, 56.97900
878.2880, 207.9780
879.4180, 184.9697
880.5480, 274.9707
881.6770, 433.9766
882.8070, 423.9946
883.9360, 395.0239
885.0650, 444.0645
886.1940, 482.1074
887.3230, 596.1455
888.4520, 538.1768
889.5800, 576.2002
890.7090, 442.2168
891.8370, 314.2256
892.9650, 316.2266
894.0930, 258.2227
895.2200, 297.2100
896.3480, 239.1914
897.4750, 155.1650
898.6020, 158.1328
899.7290, 225.1123
900.8560, 174.0850
901.9830, 210.0508
903.1090, 63.98828
904.2360, 120.9326
905.3620, 212.7969
906.4880, 38.29395
907.6140, 120.5898
908.7400, 90.46777
909.8650, 102.3398
910.9900, 22.79395
912.1160, 94.05762
913.2410, 0.9121090
914.3660, 20.75977
915.4900, 34.60156
916.6150, 28.43750
917.7390, 58.26953
918.8640, 53.34473
919.9880, 36.13477
921.1120, 69.39746
922.2350, 18.91699
923.3590, 48.62305
924.4820, 112.5732
925.6060, 152.5137
926.7290, 131.7832
927.8520, 150.9824
928.9740, 135.8242
930.0970, 116.5859
931.2190, 32.79297
932.3420, 2.767578
933.4640, 137.2900
934.5860, 62.99902
935.7080, 161.6572
936.8290, 131.7080
937.9510, 238.4795
939.0720, 240.8086
940.1930, 239.8584
941.3140, 247.3018
942.4350, 207.5088
943.5560, 167.2891
944.6760, 129.0576
945.7960, 123.0684
946.9170, 178.3672
948.0370, 135.8926
949.1560, 258.3584
950.2760, 326.9385
951.3960, 304.7236
952.5150, 284.2529
953.6340, 509.9014
954.7530, 431.0742
955.8720, 540.7910
956.9910, 405.7373
958.1090, 596.1152
959.2280, 505.9844
960.3460, 504.7734
961.4640, 643.6328
962.5820, 776.2246
963.6990, 717.0176
964.8170, 898.8135
965.9340, 969.5664
967.0510, 1250.098
968.1690, 1121.886
969.2850, 1417.031
970.4020, 1456.452
971.5190, 1641.854
972.6350, 2053.234
973.7510, 2203.866
974.8670, 2695.588
975.9830, 3037.360
977.0990, 3713.841
978.2150, 4605.670
979.3300, 5530.500
980.4450, 6884.337
981.5600, 8469.095
982.6750, 10337.94
983.7900, 12500.32
984.9050, 14842.09
986.0190, 16635.30
987.1340, 18027.15
988.2480, 18945.74
989.3620, 20161.60
990.4750, 20594.48
991.5890, 20846.27
992.7020, 19954.15
993.8160, 18539.04
994.9290, 16088.94
996.0420, 13996.84
997.1550, 11146.75
998.2670, 8374.672
999.3800, 6594.602
1000.492, 5377.557
1001.604, 4387.188
1002.716, 3627.164
1003.828, 2868.146
1004.940, 2486.131
1006.051, 2116.122
1007.163, 1721.119
1008.274, 1554.120
1009.385, 1381.127
1010.496, 1267.141
1011.606, 1052.158
1012.717, 1028.582
1013.827, 790.3770
1014.937, 892.4150
1016.047, 948.4854
1017.157, 881.5615
1018.267, 870.6426
1019.377, 872.7559
1020.486, 942.8760
1021.595, 952.0137
1022.704, 1026.517
1023.813, 1195.306
1024.922, 1215.460
1026.030, 1373.619
1027.139, 1557.786
1028.247, 1915.961
1029.355, 2365.141
1030.463, 2630.326
1031.571, 3476.529
1032.678, 4001.865
1033.786, 5114.075
1034.893, 6362.293
1036.000, 7930.514
1037.107, 9406.059
1038.214, 10984.29
1039.321, 12146.53
1040.427, 12401.76
1041.533, 11828.01
1042.639, 10266.27
1043.745, 8646.530
1044.851, 6830.858
1045.957, 5323.133
1047.062, 4112.322
1048.168, 3241.613
1049.273, 2583.937
1050.378, 2153.260
1051.482, 1824.588
1052.587, 1455.977
1053.692, 1168.693
1054.796, 1055.041
1055.900, 984.3945
1057.004, 997.8252
1058.108, 837.7871
1059.212, 745.1816
1060.315, 752.5957
1061.418, 696.0273
1062.522, 655.4746
1063.625, 517.0029
1064.728, 565.5723
1065.830, 484.0420
1066.933, 350.8242
1068.035, 406.3652
1069.137, 483.4023
1070.239, 330.9717
1071.341, 423.5449
1072.443, 338.1299
1073.545, 443.7227
1074.646, 427.3340
1075.747, 600.9648
1076.848, 719.6016
1077.949, 755.2432
1079.050, 788.8906
1080.150, 953.5498
1081.251, 1226.371
1082.351, 1312.752
1083.451, 1504.528
1084.551, 2014.242
1085.651, 1700.740
1086.750, 2124.686
1087.850, 1239.418
1088.949, 808.1553
1090.048, 531.9111
1091.147, 268.6816
1092.246, 295.4717
1093.345, 250.3535
1094.443, 158.1562
1095.541, 237.9775
1096.639, 250.8037
1097.737, 97.63574
1098.835, 113.4756
1099.933, 161.3486
1101.030, 42.22949
1102.128, 125.1240
1103.225, 43.02637
1104.322, 170.9404
1105.419, 52.11133
1106.515, 75.03613
1107.612, 104.9658
1108.708, 68.90039
1109.804, 61.93652
1110.900, 130.2764
1111.996, 82.27148
1113.092, 116.2227
1114.187, 116.1797
1115.283, 122.9072
1116.378, 295.1064
1117.473, 191.0781
1118.568, 318.0693
1119.662, 430.0654
1120.757, 302.0645
1121.851, 509.1240
1122.946, 546.1357
1124.040, 458.2480
1125.134, 178.3643
1126.227, 338.4883
1127.321, 200.5088
1128.414, 195.5342
1129.508, 165.8828
1130.601, 72.91309
1131.693, 139.4355
1132.786, 75.52930
1133.879, 388.1387
1134.971, 147.1543
1136.064, 207.1729
1137.156, 66.59082
1138.248, 50.61328
1139.339, 26.68457
1140.431, 25.06250
1141.522, 119.1260
1142.614, 187.1562
1143.705, 20.53809
1144.796, 85.64258
1145.887, 19.35449
1146.977, 98.80566
1148.068, 126.9697
1149.158, 44.97070
1150.248, 28.79785
1151.338, 87.03223
1152.428, 78.91016
1153.518, 69.19727
1154.607, 80.37207
1155.696, 61.37793
1156.785, 90.38281
1157.874, 144.9502
1158.963, 49.71680
1160.052, 114.7227
1161.141, 182.7275
1162.229, 132.3203
1163.317, 77.67578
1164.405, 36.30176
1165.493, 22.47559
1166.581, 136.4414
1167.668, 238.4072
1168.756, 65.44727
1169.843, 92.42773
1170.930, 60.61133
1172.017, 53.59766
1173.103, 48.58398
1174.190, 142.5693
1175.276, 108.9658
1176.363, 37.99023
1177.449, 64.68262
1178.535, 43.64941
1179.620, 18.14648
1180.706, 62.10840
1181.791, 45.18066
1182.877, 9.029297
1183.962, 81.98633
1185.047, 48.12891
1186.131, 104.0889
1187.216, 10.04688
1188.300, 9.998047
1189.385, 67.99316
1190.469, 62.93652
1191.553, 36.87793
1192.637, 78.98242
1193.720, 15.91797
1194.804, 64.15039
1195.887, 33.74316
1196.970, 34.32715
1198.053, 111.4990
1199.136, 21.59082
1200.219, 44.25293
1201.301, 111.1416
1202.383, 205.9795
1203.465, 41.81152
1204.547, 118.6416
1205.629, 93.46680
1206.711, 169.2871
1207.792, 104.1035
1208.874, 115.9160
1209.955, 109.7246
1211.036, 9.528320
1212.117, 20.67383
1213.198, 28.10352
1214.278, 57.87695
1215.359, 124.6455
1216.439, 81.40625
1217.519, 67.16406
1218.599, 206.9170
1219.678, 104.6641
1220.758, 120.4072
1221.837, 65.14355
1222.917, 29.87500
1223.996, 120.5996
1225.075, 185.3252
1226.153, 184.0449
1227.232, 90.75781
1228.310, 127.4658
1229.389, 107.1680
1230.467, 60.86328
1231.545, 201.5537
1232.622, 64.85352
1233.700, 64.23047
1234.777, 10.90723
1235.855, 107.5742
1236.932, 125.2354
1238.009, 175.8877
1239.086, 39.53516
1240.162, 9.174805
1241.239, 52.80371
1242.315, 110.4238
1243.391, 132.0391
1244.467, 258.6465
1245.543, 110.2471
1246.619, 118.8408
1247.694, 141.4277
1248.769, 231.0068
1249.844, 129.6279
1250.919, 0.1933590
1251.994, 69.77148
1253.069, 47.31152
1254.144, 47.95508
1255.218, 0.4785160
1256.292, 92.98438
1257.366, 129.4824
1258.440, 34.02832
1259.514, 144.4258
1260.587, 52.12793
1261.661, 122.2705
1262.734, 24.14453
1263.807, 88.21680
1264.880, 97.57031
1265.952, 16.91602
1267.025, 79.24902
1268.097, 65.57617
1269.170, 19.89453
1270.242, 69.20020
1271.314, 87.50000
1272.385, 25.79102
1273.457, 6.673828
1274.528, 113.1777
1275.600, 84.56543
1276.671, 37.62891
1277.742, 140.8145
1278.812, 90.00781
1279.883, 29.10449
1280.954, 26.79395
1282.024, 131.2803
1283.094, 16.77246
1284.164, 174.8330
1285.234, 183.8867
1286.303, 13.93164
1287.373, 8.967773
1288.442, 84.98828
1289.511, 237.0010
1290.580, 20.99414
1291.649, 178.9795
