##NAMES=Kanoite
##RRUFFID=R061134
##IDEAL CHEMISTRY=Mn^2+^MgSi_2_O_6_
##LOCALITY=Balmat, St. Lawrence County, New York, USA
##OWNER=RRUFF
##SOURCE=Michael Scott
##DESCRIPTION=Yellowish brown granular aggregate
##STATUS=The identification of this mineral has been confirmed by X-ray diffraction and chemical analysis
##URL=rruff.info/R061134
##MEASURED CHEMISTRY=(Mn^2+^_0.88_Ca_0.12_)_Σ=1_(Mg_0.98_Fe^3+^_0.02_)_Σ=1_(Si_0.98_Al_0.02_)_2_O_6_
##PIN_ID=L00480
##ORIENTATION=Laser parallel to -c* (0 0 -1). Fiducial mark perpendicular to laser is parallel to a [1 0 0]
111.5030, 0.0000000E+00
112.7420, 5.4462001E-02
113.9810, 236.3592
115.2200, 186.8291
116.4580, 193.5836
117.6970, 111.0567
118.9350, 7.909128
120.1730, 128.5931
121.4100, 178.1788
122.6480, 367.3468
123.8850, 432.4077
125.1230, 502.5028
126.3600, 730.4880
127.5960, 821.0756
128.8330, 1077.706
130.0700, 1299.074
131.3060, 1680.065
132.5420, 1882.473
133.7780, 2038.214
135.0140, 2428.518
136.2500, 2412.547
137.4850, 2725.598
138.7200, 3035.692
139.9550, 2794.842
141.1900, 2419.621
142.4250, 1929.358
143.6600, 2011.008
144.8940, 1767.368
146.1280, 1693.505
147.3620, 1653.396
148.5960, 1412.213
149.8300, 1275.608
151.0630, 947.7385
152.2960, 763.5679
153.5300, 615.0024
154.7620, 305.0069
155.9950, 348.5521
157.2280, 12.61911
158.4600, 7.197987
159.6920, 185.2811
160.9250, 10.13312
162.1560, 131.9486
163.3880, 37.50883
164.6200, 45.53083
165.8510, 1.007694
167.0820, 27.12452
168.3130, 30.16937
169.5440, 22.86382
170.7750, 63.95163
172.0050, 183.4159
173.2350, 187.2492
174.4650, 171.4377
175.6950, 145.9696
176.9250, 81.16498
178.1550, 73.74015
179.3840, 0.4715420
180.6130, 117.3385
181.8420, 145.4482
183.0710, 104.8455
184.3000, 21.47496
185.5280, 130.4062
186.7570, 82.25016
187.9850, 94.10944
189.2130, 200.0607
190.4400, 197.4105
191.6680, 283.9665
192.8960, 185.1050
194.1230, 253.3604
195.3500, 283.7406
196.5770, 205.2531
197.8030, 276.9004
199.0300, 341.6893
200.2560, 283.6625
201.4830, 592.8393
202.7090, 574.2840
203.9340, 602.0030
205.1600, 691.9971
206.3860, 620.2787
207.6110, 774.8925
208.8360, 898.9815
210.0610, 1170.132
211.2860, 1284.635
212.5100, 1589.326
213.7350, 1853.122
214.9590, 2116.071
216.1830, 2187.229
217.4070, 2297.860
218.6310, 2192.855
219.8540, 2250.271
221.0780, 2126.812
222.3010, 1903.469
223.5240, 1938.319
224.7470, 1873.338
225.9690, 1978.553
227.1920, 1878.988
228.4140, 1891.560
229.6360, 1877.245
230.8580, 1770.046
232.0800, 1573.958
233.3020, 1591.981
234.5230, 1401.115
235.7440, 1131.361
236.9650, 1138.714
238.1860, 1043.175
239.4070, 868.7427
240.6280, 947.4163
241.8480, 822.1929
243.0680, 800.0742
244.2880, 800.0577
245.5080, 704.1426
246.7280, 768.3276
247.9470, 752.6107
249.1660, 587.9910
250.3860, 650.4697
251.6040, 491.0445
252.8230, 614.7120
254.0420, 484.4729
255.2600, 450.3256
256.4790, 449.2704
257.6970, 530.3055
258.9150, 471.7224
260.1320, 438.7014
261.3500, 452.3547
262.5670, 236.6801
263.7840, 403.4287
265.0010, 106.6235
266.2180, 1.269379
267.4350, 29.31976
268.6510, 41.95152
269.8680, 79.52197
271.0840, 15.63279
272.3000, 210.4668
273.5160, 83.80428
274.7310, 274.3699
275.9470, 359.1375
277.1620, 477.1004
278.3770, 579.2526
279.5920, 545.5848
280.8070, 429.0917
282.0210, 523.7654
283.2360, 425.5805
284.4500, 584.5541
285.6640, 636.6758
286.8780, 504.2566
288.0920, 630.3705
289.3050, 691.8982
290.5180, 760.7339
291.7320, 924.3630
292.9450, 986.0560
294.1570, 1162.879
295.3700, 1347.345
296.5830, 1346.994
297.7950, 1736.465
299.0070, 1978.777
300.2190, 2064.832
301.4310, 2250.053
302.6420, 2607.846
303.8540, 2982.487
305.0650, 3270.924
306.2760, 3455.419
307.4870, 3777.882
308.6980, 4306.121
309.9080, 4975.557
311.1190, 5715.199
312.3290, 6325.717
313.5390, 7163.022
314.7490, 8185.940
315.9580, 9263.039
317.1680, 10454.16
318.3770, 11550.14
319.5860, 12426.43
320.7950, 13400.81
322.0040, 14016.30
323.2130, 14222.28
324.4210, 13958.79
325.6290, 13694.51
326.8380, 13044.32
328.0460, 12201.20
329.2530, 10954.16
330.4610, 10414.39
331.6680, 9225.484
332.8760, 8449.312
334.0830, 7468.538
335.2890, 6911.536
336.4960, 6176.941
337.7030, 5505.356
338.9090, 5143.853
340.1150, 4501.001
341.3210, 4133.055
342.5270, 3884.731
343.7330, 3767.470
344.9380, 3742.271
346.1440, 3491.135
347.3490, 3452.059
348.5540, 3282.041
349.7590, 3272.085
350.9630, 3249.184
352.1680, 3303.339
353.3720, 3356.548
354.5760, 3216.812
355.7800, 3229.127
356.9840, 3248.491
358.1870, 3040.905
359.3910, 2992.371
360.5940, 2998.883
361.7970, 2688.446
363.0000, 2667.054
364.2030, 2807.709
365.4050, 2775.415
366.6080, 2816.164
367.8100, 2958.959
369.0120, 3232.802
370.2140, 3293.688
371.4150, 3295.618
372.6170, 3557.591
373.8180, 3494.607
375.0190, 3512.663
376.2200, 3194.759
377.4210, 3310.899
378.6220, 3196.078
379.8220, 3231.294
381.0230, 3385.553
382.2230, 3642.849
383.4230, 3777.184
384.6220, 4242.557
385.8220, 4645.963
387.0220, 5139.410
388.2210, 5605.892
389.4200, 5938.408
390.6190, 6174.963
391.8180, 6375.549
393.0160, 6198.169
394.2150, 5790.825
395.4130, 5208.513
396.6110, 4427.238
397.8090, 3573.992
399.0060, 2912.778
400.2040, 2510.595
401.4010, 1963.446
402.5980, 1739.326
403.7950, 1423.275
404.9920, 1167.297
406.1890, 1155.383
407.3860, 1091.532
408.5820, 1139.742
409.7780, 963.0097
410.9740, 1145.314
412.1700, 994.9512
413.3650, 882.3856
414.5610, 979.8734
415.7560, 767.1293
416.9510, 886.7166
418.1460, 867.3522
419.3410, 756.0356
420.5360, 501.7643
421.7300, 525.5390
422.9240, 512.3566
424.1180, 260.2187
425.3120, 318.1234
426.5060, 205.0692
427.7000, 290.0563
428.8930, 106.0832
430.0860, 21.84962
431.2790, 43.75670
432.4720, 21.34842
433.6650, 68.50075
434.8580, 63.37550
436.0500, 3.878754
437.2420, 55.45557
438.4340, 31.95494
439.6260, 33.23601
440.8180, 63.83376
442.0090, 42.69161
443.2010, 30.75380
444.3920, 31.81196
445.5830, 214.1747
446.7740, 38.31271
447.9640, 125.0613
449.1550, 2.022522
450.3450, 18.65665
451.5350, 54.37323
452.7250, 7.290344
453.9150, 11.81156
455.1050, 94.18582
456.2940, 3.797935
457.4830, 57.39621
458.6720, 66.83483
459.8610, 34.07035
461.0500, 23.01855
462.2390, 160.9951
463.4270, 77.73717
464.6150, 180.3030
465.8040, 177.8070
466.9910, 138.3708
468.1790, 291.5326
469.3670, 124.5752
470.5540, 76.89932
471.7410, 170.0294
472.9280, 191.1342
474.1150, 157.1431
475.3020, 8.707188
476.4890, 75.65976
477.6750, 2.156212
478.8610, 30.48709
480.0470, 115.2791
481.2330, 33.21130
482.4190, 34.39894
483.6040, 32.25831
484.7900, 19.86188
485.9750, 82.05356
487.1600, 73.18050
488.3450, 128.3640
489.5290, 116.5575
490.7140, 29.78583
491.8980, 134.0240
493.0820, 290.2778
494.2660, 202.5401
495.4500, 419.8103
496.6340, 647.1049
497.8170, 751.4313
499.0010, 881.7871
500.1840, 1080.280
501.3670, 1237.615
502.5500, 1362.069
503.7320, 1246.531
504.9150, 1199.015
506.0970, 1308.518
507.2790, 1223.050
508.4610, 1267.585
509.6430, 1331.145
510.8250, 1292.732
512.0060, 1503.322
513.1870, 1441.928
514.3680, 1725.535
515.5490, 1563.178
516.7300, 1592.844
517.9110, 1597.533
519.0910, 1861.222
520.2710, 1748.915
521.4510, 1682.603
522.6310, 1436.291
523.8110, 1580.976
524.9910, 1256.658
526.1700, 1269.339
527.3490, 1208.019
528.5280, 1182.721
529.7070, 1261.719
530.8860, 1345.134
532.0650, 1482.846
533.2430, 1491.552
534.4210, 1703.255
535.5990, 1769.773
536.7770, 1939.643
537.9550, 1985.349
539.1320, 2045.067
540.3100, 2156.785
541.4870, 2145.521
542.6640, 1934.277
543.8410, 1848.025
545.0170, 1900.795
546.1940, 1787.558
547.3700, 1727.323
548.5470, 1835.084
549.7230, 2040.849
550.8980, 1930.604
552.0740, 2268.346
553.2500, 2259.097
554.4250, 2351.838
555.6000, 2500.568
556.7750, 2163.284
557.9500, 2078.006
559.1250, 1867.734
560.2990, 1494.469
561.4730, 1134.207
562.6480, 1089.937
563.8220, 849.6510
564.9950, 605.3660
566.1690, 735.0663
567.3430, 632.7656
568.5160, 534.4627
569.6890, 509.1524
570.8620, 285.8394
572.0350, 446.1646
573.2070, 388.0839
574.3800, 470.7166
575.5520, 292.1593
576.7240, 307.7739
577.8960, 266.4432
579.0680, 327.0938
580.2400, 261.1964
581.4110, 105.2246
582.5830, 133.5343
583.7540, 252.1009
584.9250, 68.02154
586.0950, 68.86426
587.2660, 85.22565
588.4370, 13.17737
589.6070, 31.37339
590.7770, 87.47665
591.9470, 17.60534
593.1170, 2.595695
594.2860, 4.999691
595.4560, 46.75475
596.6250, 16.46360
597.7940, 1.425797
598.9630, 27.82138
600.1320, 5.924686
601.3000, 8.643959
602.4690, 57.81411
603.6370, 16.42064
604.8050, 42.48619
605.9730, 11.98181
607.1410, 107.2251
608.3090, 42.33842
609.4760, 106.4181
610.6430, 6.421661
611.8100, 77.82221
612.9770, 185.1037
614.1440, 181.1720
615.3110, 211.4310
616.4770, 83.58282
617.6430, 116.7681
618.8090, 209.3512
619.9750, 17.43267
621.1410, 317.4395
622.3070, 113.6985
623.4720, 491.3799
624.6370, 280.2397
625.8020, 485.0378
626.9670, 398.1816
628.1320, 443.4745
629.2970, 567.8779
630.4610, 523.4308
631.6250, 815.5400
632.7890, 707.2469
633.9530, 970.0552
635.1170, 1066.114
636.2810, 1186.785
637.4440, 1493.979
638.6070, 1553.118
639.7700, 1752.186
640.9330, 2091.766
642.0960, 2310.743
643.2590, 2623.061
644.4210, 3238.240
645.5830, 3664.431
646.7450, 4101.107
647.9070, 4876.922
649.0690, 5635.517
650.2310, 6680.977
651.3920, 7576.628
652.5530, 9143.227
653.7140, 10290.51
654.8750, 11659.99
656.0360, 12960.12
657.1970, 14397.16
658.3570, 15916.68
659.5170, 17099.99
660.6770, 18403.04
661.8370, 19789.07
662.9970, 21308.04
664.1570, 22562.99
665.3160, 23636.90
666.4750, 24550.20
667.6340, 24194.79
668.7930, 23177.59
669.9520, 21679.82
671.1110, 19361.72
672.2690, 16970.53
673.4270, 14937.20
674.5850, 12555.81
675.7430, 10769.45
676.9010, 9122.222
678.0590, 7969.904
679.2160, 6811.843
680.3730, 6096.635
681.5300, 5209.187
682.6870, 4313.567
683.8440, 3999.017
685.0010, 3538.270
686.1570, 3161.871
687.3130, 2942.257
688.4690, 2532.667
689.6250, 2639.757
690.7810, 2202.805
691.9370, 2106.628
693.0920, 1873.594
694.2470, 1688.519
695.4020, 1503.401
696.5570, 1412.835
697.7120, 1307.895
698.8670, 1230.706
700.0210, 1263.818
701.1750, 1104.793
702.3290, 1133.421
703.4830, 915.4415
704.6370, 1104.116
705.7910, 829.8137
706.9440, 900.6445
708.0970, 616.8790
709.2510, 694.8051
710.4030, 1002.130
711.5560, 715.4190
712.7090, 807.6763
713.8610, 663.8899
715.0140, 494.8617
716.1660, 578.0300
717.3180, 543.1729
718.4690, 743.2957
719.6210, 466.6055
720.7730, 571.5099
721.9240, 692.5677
723.0750, 536.6069
724.2260, 594.0339
725.3770, 680.7563
726.5270, 595.6661
727.6780, 493.4385
728.8280, 594.3750
729.9780, 551.3555
731.1280, 437.3248
732.2780, 333.4320
733.4280, 574.3838
734.5770, 271.9816
735.7260, 445.0573
736.8760, 327.1358
738.0250, 268.0635
739.1730, 340.7370
740.3220, 121.4223
741.4700, 367.9766
742.6190, 46.78399
743.7670, 161.7426
744.9150, 76.74089
746.0630, 169.2578
747.2100, 36.01430
748.3580, 73.44401
749.5050, 3.569126
750.6520, 198.8522
751.7990, 60.13764
752.9460, 15.61952
754.0930, 88.71799
755.2390, 146.5429
756.3860, 111.5687
757.5320, 149.5609
758.6780, 12.87053
759.8240, 99.34465
760.9690, 18.91593
762.1150, 87.05253
763.2600, 19.15078
764.4060, 25.56705
765.5510, 19.24040
766.6950, 63.86744
767.8400, 18.74273
768.9850, 82.96149
770.1290, 6.428696
771.2730, 198.8457
772.4170, 74.22903
773.5610, 17.42154
774.7050, 28.29252
775.8480, 3.540182
776.9920, 44.43328
778.1350, 53.41483
779.2780, 15.88915
780.4210, 22.96785
781.5640, 20.21379
782.7060, 21.46002
783.8490, 5.9810001E-03
784.9910, 42.84021
786.1330, 7.462460
787.2750, 37.07998
788.4170, 43.34405
789.5580, 22.26305
790.7000, 84.07222
791.8410, 62.15580
792.9820, 32.37364
794.1230, 0.8853680
795.2640, 19.77410
796.4040, 37.80516
797.5450, 152.8055
798.6850, 142.7773
799.8250, 100.7264
800.9650, 91.64888
802.1050, 150.5450
803.2450, 6.416595
804.3840, 25.74035
805.5230, 132.0203
806.6630, 12.69078
807.8020, 15.43738
808.9400, 19.08445
810.0790, 40.71143
811.2170, 97.31256
812.3560, 20.89182
813.4940, 14.41006
814.6320, 11.45042
815.7700, 15.62786
816.9070, 23.55370
818.0450, 36.62584
819.1820, 11.34647
820.3190, 52.92854
821.4560, 45.72363
822.5930, 32.14891
823.7300, 16.06234
824.8670, 46.00799
826.0030, 81.99866
827.1390, 41.67590
828.2750, 43.24982
829.4110, 74.86888
830.5470, 23.76574
831.6820, 100.6479
832.8180, 37.01200
833.9530, 62.67200
835.0880, 23.65274
836.2230, 20.96070
837.3580, 23.57471
838.4920, 55.04601
839.6270, 37.71461
840.7610, 3.792244
841.8950, 23.84115
843.0290, 39.03715
844.1630, 34.30395
845.2960, 48.44346
846.4300, 19.49035
847.5630, 14.85210
848.6960, 76.20242
849.8290, 109.5413
850.9620, 68.13103
852.0940, 162.1536
853.2270, 212.4268
854.3590, 132.6909
855.4910, 29.05630
856.6230, 45.17516
857.7550, 137.3974
858.8870, 19.61259
860.0180, 26.81475
861.1500, 10.98425
862.2810, 114.2065
863.4120, 15.38847
864.5430, 87.60458
865.6730, 247.8356
866.8040, 239.0578
867.9340, 154.2794
869.0640, 129.5282
870.1940, 95.80405
871.3240, 66.13528
872.4540, 195.4937
873.5830, 202.8783
874.7130, 201.2895
875.8420, 291.7005
876.9710, 292.6213
878.1000, 238.2378
879.2290, 320.1511
880.3570, 296.2767
881.4860, 26.32500
882.6140, 336.8074
883.7420, 250.9355
884.8700, 297.8076
885.9980, 453.2704
887.1250, 304.8491
888.2530, 350.6291
889.3800, 331.1964
890.5070, 331.1754
891.6340, 280.7688
892.7610, 453.2509
893.8880, 302.8648
895.0140, 213.5833
896.1400, 303.0154
897.2670, 189.4098
898.3930, 194.7802
899.5180, 307.6451
900.6440, 312.1453
901.7700, 376.4713
902.8950, 224.6703
904.0200, 293.7181
905.1450, 315.1856
906.2700, 344.0375
907.3950, 442.7614
908.5190, 436.6770
909.6440, 476.2067
910.7680, 454.3726
911.8920, 518.7824
913.0160, 511.2734
914.1400, 555.2304
915.2630, 571.1937
916.3870, 618.9540
917.5100, 535.2897
918.6330, 717.5957
919.7560, 567.3958
920.8790, 817.0598
922.0010, 968.9247
923.1240, 1096.903
924.2460, 1068.700
925.3680, 1327.529
926.4900, 1266.702
927.6120, 1334.582
928.7340, 1312.008
929.8550, 1332.390
930.9760, 1416.286
932.0980, 1313.374
933.2190, 1328.698
934.3390, 1504.042
935.4600, 1396.407
936.5810, 1560.792
937.7010, 1609.215
938.8210, 1618.247
939.9410, 1566.011
941.0610, 1570.534
942.1810, 1587.632
943.3010, 1436.035
944.4200, 1287.516
945.5390, 1168.145
946.6580, 947.8345
947.7770, 938.4659
948.8960, 965.9674
950.0150, 687.5300
951.1330, 684.8210
952.2510, 729.2440
953.3690, 577.8923
954.4870, 633.6923
955.6050, 437.4128
956.7230, 721.3095
957.8400, 706.8436
958.9580, 612.5766
960.0750, 781.2698
961.1920, 926.2693
962.3090, 682.3127
963.4250, 1058.569
964.5420, 1144.669
965.6580, 1136.795
966.7740, 1130.944
967.8900, 1442.534
969.0060, 1444.499
970.1220, 1665.720
971.2380, 1599.620
972.3530, 1841.665
973.4680, 2001.042
974.5830, 2196.012
975.6980, 2320.311
976.8130, 2568.578
977.9280, 2766.698
979.0420, 2939.400
980.1560, 3441.401
981.2710, 3683.989
982.3850, 4056.627
983.4980, 4882.301
984.6120, 5452.002
985.7260, 6578.957
986.8390, 7371.723
987.9520, 8607.521
989.0650, 10450.35
990.1780, 12441.00
991.2910, 14877.90
992.4030, 17817.83
993.5160, 21206.78
994.6280, 24854.77
995.7400, 28999.55
996.8520, 33148.61
997.9640, 36675.71
999.0750, 40070.83
1000.187, 42465.99
1001.298, 43695.20
1002.409, 44178.43
1003.520, 43159.69
1004.631, 41127.23
1005.741, 38959.58
1006.852, 36478.59
1007.962, 32982.96
1009.072, 29784.40
1010.182, 26592.86
1011.292, 23398.02
1012.402, 21049.78
1013.511, 18645.71
1014.621, 16583.30
1015.730, 14818.23
1016.839, 13076.62
1017.948, 11544.45
1019.056, 10314.42
1020.165, 9198.448
1021.273, 8264.075
1022.382, 7358.918
1023.490, 6552.821
1024.598, 5978.796
1025.706, 5343.660
1026.813, 4761.695
1027.921, 4167.703
1029.028, 3938.831
1030.135, 3628.983
1031.242, 3333.596
1032.349, 2866.122
1033.456, 2550.417
1034.562, 2354.750
1035.668, 2301.432
1036.775, 1940.393
1037.881, 2036.859
1038.987, 1889.377
1040.092, 1625.928
1041.198, 1575.511
1042.303, 1516.678
1043.408, 1450.362
1044.514, 1326.445
1045.618, 1309.991
1046.723, 1299.840
1047.828, 1158.181
1048.932, 1174.133
1050.037, 1126.686
1051.141, 1150.714
1052.245, 1099.786
1053.349, 926.6314
1054.452, 807.4400
1055.556, 872.6398
1056.659, 750.4171
1057.762, 817.6918
1058.865, 662.4755
1059.968, 718.8461
1061.071, 551.2438
1062.174, 582.5963
1063.276, 565.9460
1064.378, 603.4639
1065.480, 529.6859
1066.582, 501.2648
1067.684, 498.8216
1068.786, 414.4488
1069.887, 362.2628
1070.988, 366.3171
1072.090, 421.2115
1073.191, 364.9551
1074.291, 475.9305
1075.392, 502.7334
1076.493, 697.5872
1077.593, 527.6726
1078.693, 672.2208
1079.793, 810.1097
1080.893, 752.0179
1081.993, 818.4943
1083.092, 805.9520
1084.192, 766.9680
1085.291, 702.0228
1086.390, 629.3248
1087.489, 639.4471
1088.588, 444.6175
1089.686, 694.8069
1090.785, 419.0249
1091.883, 522.2693
1092.981, 457.5460
1094.079, 362.1717
1095.177, 519.4816
1096.275, 419.8262
1097.373, 331.1872
1098.470, 367.5647
1099.567, 289.9584
1100.664, 187.7523
1101.761, 255.9148
1102.858, 199.0115
1103.954, 187.7278
1105.051, 209.1672
1106.147, 215.7472
1107.243, 220.3608
1108.339, 350.9889
1109.435, 193.6464
1110.531, 363.3353
1111.626, 99.04407
1112.722, 301.7924
1113.817, 431.3030
1114.912, 397.0757
1116.007, 347.8596
1117.101, 667.6584
1118.196, 593.4830
1119.290, 526.3187
1120.385, 658.1690
1121.479, 470.0298
1122.573, 636.9074
1123.666, 531.7919
1124.760, 523.6907
1125.853, 459.6111
1126.947, 532.5437
1128.040, 412.6874
1129.133, 364.6517
1130.226, 234.4154
1131.318, 207.0086
1132.411, 147.9991
1133.503, 110.9994
1134.596, 68.00747
1135.688, 60.97676
1136.780, 74.01945
1137.871, 81.97485
1138.963, 133.9974
1140.054, 63.97760
1141.146, 60.96511
1142.237, 49.27269
1143.328, 7.078751
1144.419, 27.10964
1145.509, 33.85102
1146.600, 68.95678
1147.690, 37.83075
1148.780, 57.96962
1149.870, 66.65182
1150.960, 66.60485
1152.050, 63.42271
1153.139, 49.35696
1154.229, 91.14300
1155.318, 13.93143
1156.407, 52.71149
1157.496, 159.4802
1158.585, 15.76142
1159.674, 16.99117
1160.762, 113.7477
1161.850, 25.05052
1162.939, 51.77021
1164.027, 25.01772
1165.114, 15.71553
1166.202, 19.58309
1167.290, 31.66253
1168.377, 2.755821
1169.464, 152.6291
1170.551, 9.281193
1171.638, 44.93454
1172.725, 48.27084
1173.812, 46.55929
1174.898, 204.6065
1175.984, 51.66843
1177.071, 16.98484
1178.157, 1.627689
1179.242, 87.48560
1180.328, 80.16380
1181.414, 59.43133
1182.499, 9.730579
1183.584, 18.77574
1184.669, 3.731613
1185.754, 57.50198
1186.839, 31.50725
1187.924, 43.90503
1189.008, 126.0938
1190.092, 39.49109
1191.177, 85.14404
1192.260, 5.855549
1193.344, 4.868637
1194.428, 134.1013
1195.512, 0.6574060
1196.595, 159.2925
1197.678, 4.766132
1198.761, 118.1592
1199.844, 0.9840890
1200.927, 30.44405
1202.009, 2.044094
1203.092, 160.5247
1204.174, 3.030075
1205.256, 145.9893
1206.338, 17.68768
1207.420, 18.25637
1208.502, 19.32649
1209.583, 62.61854
1210.665, 142.2024
1211.746, 132.7752
1212.827, 236.3370
1213.908, 174.8934
1214.988, 190.4368
1216.069, 13.97274
1217.149, 127.4950
1218.230, 126.0059
1219.310, 40.50343
1220.390, 126.9998
1221.470, 148.4846
1222.549, 192.9561
1223.629, 6.568668
1224.708, 209.8318
1225.787, 31.23414
1226.866, 100.6264
1227.945, 295.0067
1229.024, 93.37514
1230.103, 2.649464
1231.181, 16.91779
1232.259, 96.28461
1233.337, 14.44123
1234.415, 71.19536
1235.493, 62.99930
1236.571, 144.1971
1237.648, 174.3863
1238.726, 251.5553
1239.803, 160.7138
1240.880, 138.8576
1241.957, 275.3439
1243.034, 19.20221
1244.110, 154.5290
1245.187, 139.5832
1246.263, 176.6167
1247.339, 71.63730
1248.415, 157.6429
1249.491, 89.63367
1250.566, 169.6095
1251.642, 128.5701
1252.717, 261.5157
1253.793, 228.4462
1254.868, 97.73795
1255.943, 180.4093
1257.017, 352.2922
1258.092, 92.15772
1259.166, 201.0257
1260.241, 20.86259
1261.315, 158.6663
1262.389, 253.4582
1263.462, 294.2326
1264.536, 364.9898
1265.610, 356.6690
1266.683, 317.6336
1267.756, 254.7089
1268.829, 266.9178
1269.902, 273.5560
1270.975, 223.2591
1272.048, 357.2386
1273.120, 311.6320
1274.192, 387.1684
1275.264, 40.48550
1276.336, 322.7637
1277.408, 248.8791
1278.480, 67.02486
1279.551, 280.3177
1280.623, 172.5921
1281.694, 166.3016
1282.765, 168.8085
1283.836, 141.3039
1284.907, 142.7873
1285.977, 289.4000
1287.048, 180.8517
