##NAMES=Kanoite
##RRUFFID=R061134
##IDEAL CHEMISTRY=Mn^2+^MgSi_2_O_6_
##LOCALITY=Balmat, St. Lawrence County, New York, USA
##OWNER=RRUFF
##SOURCE=Michael Scott
##DESCRIPTION=Yellowish brown granular aggregate
##STATUS=The identification of this mineral has been confirmed by X-ray diffraction and chemical analysis
##URL=rruff.info/R061134
##MEASURED CHEMISTRY=(Mn^2+^_0.88_Ca_0.12_)_Σ=1_(Mg_0.98_Fe^3+^_0.02_)_Σ=1_(Si_0.98_Al_0.02_)_2_O_6_
##PIN_ID=L00480
##ORIENTATION=Laser parallel to -c* (0 0 -1). Fiducial mark perpendicular to laser is parallel to a [1 0 0]
111.5030, 0.0000000E+00
112.7420, 160.7715
113.9810, 154.2480
115.2200, 311.3691
116.4580, 21.08008
117.6970, 172.1699
118.9350, 157.8438
120.1730, 25.24805
121.4100, 15.90820
122.6480, 14.44336
123.8850, 135.5840
125.1230, 80.96875
126.3600, 100.1621
127.5960, 407.8203
128.8330, 305.6582
130.0700, 679.4453
131.3060, 814.9785
132.5420, 885.0840
133.7780, 940.6074
135.0140, 1116.418
136.2500, 1298.402
137.4850, 1303.469
138.7200, 1430.539
139.9550, 1434.539
141.1900, 1336.408
142.4250, 1350.092
143.6600, 1255.535
144.8940, 1155.695
146.1280, 1210.529
147.3620, 1153.000
148.5960, 824.0703
149.8300, 849.6895
151.0630, 794.8066
152.2960, 646.4043
153.5300, 716.4316
154.7620, 357.8555
155.9950, 128.6602
157.2280, 97.82617
158.4600, 107.3477
159.6920, 168.2285
160.9250, 170.4590
162.1560, 106.0352
163.3880, 175.9492
164.6200, 140.1855
165.8510, 178.7324
167.0820, 250.5762
168.3130, 118.7031
169.5440, 245.1074
170.7750, 335.7793
172.0050, 280.7109
173.2350, 252.8926
174.4650, 199.3164
175.6950, 190.9707
176.9250, 266.8535
178.1550, 135.9512
179.3840, 260.2637
180.6130, 212.7773
181.8420, 513.4902
183.0710, 467.3965
184.3000, 272.4902
185.5280, 515.6992
186.7570, 468.8555
187.9850, 525.0059
189.2130, 628.1738
190.4400, 692.3750
191.6680, 721.2363
192.8960, 666.5410
194.1230, 537.9141
195.3500, 773.3633
196.5770, 628.8984
197.8030, 541.5234
199.0300, 595.2402
200.2560, 502.0527
201.4830, 700.0684
202.7090, 653.1816
203.9340, 354.4531
205.1600, 577.0098
206.3860, 568.9004
207.6110, 591.0410
208.8360, 678.3281
210.0610, 851.7441
211.2860, 983.3320
212.5100, 1167.107
213.7350, 1176.033
214.9590, 1589.039
216.1830, 1445.125
217.4070, 1667.293
218.6310, 1545.537
219.8540, 1476.863
221.0780, 1795.270
222.3010, 1554.756
223.5240, 1626.318
224.7470, 1459.021
225.9690, 1538.803
227.1920, 1533.664
228.4140, 1718.615
229.6360, 1355.652
230.8580, 1483.764
232.0800, 1491.949
233.3020, 1221.201
234.5230, 1228.525
235.7440, 1209.918
236.9650, 1166.377
238.1860, 938.9004
239.4070, 871.4922
240.6280, 798.1484
241.8480, 876.8691
243.0680, 702.6504
244.2880, 792.4922
245.5080, 912.4004
246.7280, 817.3652
247.9470, 811.3887
249.1660, 782.4707
250.3860, 709.2480
251.6040, 514.8008
252.8230, 564.0527
254.0420, 535.3594
255.2600, 413.7168
256.4790, 433.1270
257.6970, 390.5898
258.9150, 464.0664
260.1320, 318.3516
261.3500, 386.2129
262.5670, 295.5410
263.7840, 333.2461
265.0010, 179.2988
266.2180, 77.65430
267.4350, 125.2871
268.6510, 210.0488
269.8680, 39.84180
271.0840, 39.47656
272.3000, 172.9902
273.5160, 317.6875
274.7310, 248.5547
275.9470, 215.5840
277.1620, 225.7676
278.3770, 359.0938
279.5920, 369.5586
280.8070, 342.1523
282.0210, 247.8730
283.2360, 354.7109
284.4500, 431.6660
285.6640, 389.7285
286.8780, 449.8984
288.0920, 577.1699
289.3050, 842.0918
290.5180, 717.5879
291.7320, 938.1777
292.9450, 950.9570
294.1570, 795.2207
295.3700, 972.8457
296.5830, 1137.197
297.7950, 1239.697
299.0070, 1703.459
300.2190, 1702.260
301.4310, 1997.004
302.6420, 2065.949
303.8540, 2433.395
305.0650, 2600.879
306.2760, 2695.844
307.4870, 2733.396
308.6980, 3251.432
309.9080, 3445.812
311.1190, 4133.240
312.3290, 4361.141
313.5390, 5007.779
314.7490, 5567.859
315.9580, 6228.992
317.1680, 6714.172
318.3770, 7261.410
319.5860, 7692.693
320.7950, 7782.039
322.0040, 8073.430
323.2130, 8149.861
324.4210, 8054.381
325.6290, 7819.939
326.8380, 7396.555
328.0460, 6744.207
329.2530, 6160.898
330.4610, 5403.627
331.6680, 5038.395
332.8760, 4354.197
334.0830, 4071.039
335.2890, 3512.426
336.4960, 3212.346
337.7030, 2862.375
338.9090, 2505.363
340.1150, 2319.535
341.3210, 1857.820
342.5270, 1803.918
343.7330, 1699.598
344.9380, 1686.764
346.1440, 1726.965
347.3490, 1704.199
348.5540, 1501.465
349.7590, 1311.900
350.9630, 1439.230
352.1680, 1654.592
353.3720, 1921.977
354.5760, 1446.393
355.7800, 1349.836
356.9840, 1234.305
358.1870, 1289.797
359.3910, 1392.312
360.5940, 1111.855
361.7970, 1085.420
363.0000, 1195.008
364.2030, 1173.619
365.4050, 1115.254
366.6080, 1065.912
367.8100, 1057.588
369.0120, 1032.967
370.2140, 1220.008
371.4150, 1066.746
372.6170, 1210.506
373.8180, 1326.285
375.0190, 1038.082
376.2200, 891.8984
377.4210, 1127.732
378.6220, 940.5859
379.8220, 864.4551
381.0230, 1028.344
382.2230, 1132.248
383.4230, 1191.168
384.6220, 1289.246
385.8220, 1317.697
387.0220, 1328.023
388.2210, 1360.006
389.4200, 1350.102
390.6190, 1193.014
391.8180, 1323.039
393.0160, 1261.078
394.2150, 1230.129
395.4130, 942.1953
396.6110, 874.2734
397.8090, 728.3652
399.0060, 783.4688
400.2040, 602.5840
401.4010, 701.7090
402.5980, 771.8496
403.7950, 570.0332
404.9920, 583.2559
406.1890, 886.5137
407.3860, 868.8105
408.5820, 833.1387
409.7780, 882.4980
410.9740, 735.8887
412.1700, 989.3086
413.3650, 882.7539
414.5610, 868.8906
415.7560, 726.3906
416.9510, 765.9141
418.1460, 470.4609
419.3410, 466.0293
420.5360, 488.6230
421.7300, 416.2344
422.9240, 412.8672
424.1180, 64.51953
425.3120, 85.19141
426.5060, 120.8809
427.7000, 82.58789
428.8930, 250.3145
430.0860, 186.0547
431.2790, 55.06055
432.4720, 151.1680
433.6650, 147.8242
434.8580, 52.95703
436.0500, 10.70508
437.2420, 0.4980470
438.4340, 128.7363
439.6260, 139.0840
440.8180, 102.4238
442.0090, 141.3965
443.2010, 262.8320
444.3920, 38.53906
445.5830, 80.10742
446.7740, 26.18945
447.9640, 106.1992
449.1550, 31.83203
450.3450, 0.3085940
451.5350, 48.93555
452.7250, 84.75586
453.9150, 46.74219
455.1050, 33.39258
456.2940, 42.63672
457.4830, 45.61328
458.6720, 83.80273
459.8610, 207.5195
461.0500, 267.5117
462.2390, 351.7402
463.4270, 409.5801
464.6150, 406.8086
465.8040, 411.7832
466.9910, 412.7402
468.1790, 381.9863
469.3670, 316.3320
470.5540, 350.5820
471.7410, 406.8301
472.9280, 189.1113
474.1150, 261.3906
475.3020, 122.6699
476.4890, 125.9727
477.6750, 56.74414
478.8610, 262.4805
480.0470, 66.77148
481.2330, 174.9922
482.4190, 65.20898
483.6040, 62.42578
484.7900, 130.6758
485.9750, 1.923828
487.1600, 98.14062
488.3450, 214.3711
489.5290, 218.6016
490.7140, 212.8438
491.8980, 77.07617
493.0820, 169.3008
494.2660, 185.5176
495.4500, 394.7324
496.6340, 565.9355
497.8170, 439.1348
499.0010, 1050.328
500.1840, 826.5195
501.3670, 1073.703
502.5500, 1182.902
503.7320, 1088.088
504.9150, 1352.266
506.0970, 1095.438
507.2790, 1293.600
508.4610, 856.7559
509.6430, 1243.920
510.8250, 1384.076
512.0060, 1065.219
513.1870, 1306.379
514.3680, 1081.523
515.5490, 1094.654
516.7300, 1049.779
517.9110, 1308.893
519.0910, 1064.994
520.2710, 1381.096
521.4510, 1169.182
522.6310, 1069.256
523.8110, 1025.316
524.9910, 920.3613
526.1700, 800.4082
527.3490, 802.4590
528.5280, 670.4980
529.7070, 638.5234
530.8860, 560.5332
532.0650, 750.5430
533.2430, 709.5547
534.4210, 681.5488
535.5990, 619.5312
536.7770, 817.4961
537.9550, 758.4688
539.1320, 727.4375
540.3100, 843.4121
541.4870, 767.3906
542.6640, 913.3535
543.8410, 1056.326
545.0170, 1076.281
546.1940, 1189.219
547.3700, 1187.141
548.5470, 1176.043
549.7230, 1494.926
550.8980, 1660.787
552.0740, 1730.633
553.2500, 1596.457
554.4250, 1575.264
555.6000, 1785.051
556.7750, 1392.852
557.9500, 1400.646
559.1250, 1323.428
560.2990, 1042.203
561.4730, 853.9590
562.6480, 935.7012
563.8220, 640.4316
564.9950, 447.1426
566.1690, 501.8398
567.3430, 429.5176
568.5160, 402.1699
569.6890, 592.7969
570.8620, 306.4004
572.0350, 169.9824
573.2070, 543.5371
574.3800, 18.47266
575.5520, 156.9844
576.7240, 355.4102
577.8960, 188.7090
579.0680, 371.5840
580.2400, 91.15430
581.4110, 324.0449
582.5830, 144.8398
583.7540, 180.4180
584.9250, 29.99219
586.0950, 221.6660
587.2660, 27.83398
588.4370, 203.1836
589.6070, 44.20117
590.7770, 86.76367
591.9470, 264.7734
593.1170, 162.6660
594.2860, 98.51758
595.4560, 11.31445
596.6250, 51.24805
597.7940, 237.7148
598.9630, 218.2676
600.1320, 104.7930
601.3000, 55.80664
602.4690, 344.2637
603.6370, 11.69727
604.8050, 204.0742
605.9730, 118.4258
607.1410, 76.25000
608.3090, 150.4316
609.4760, 23.63281
610.6430, 240.7109
611.8100, 304.9863
612.9770, 348.7637
614.1440, 206.8262
615.3110, 289.2598
616.4770, 163.4082
617.6430, 290.3066
618.8090, 424.7559
619.9750, 155.6836
621.1410, 561.4414
622.3070, 543.9297
623.4720, 361.0078
624.6370, 701.3496
625.8020, 641.7266
626.9670, 791.9395
628.1320, 456.3359
629.2970, 671.3535
630.4610, 867.8633
631.6250, 839.5742
632.7890, 1019.215
633.9530, 1146.805
635.1170, 1259.262
636.2810, 1310.793
637.4440, 1346.865
638.6070, 1583.918
639.7700, 1782.092
640.9330, 2088.887
642.0960, 2323.279
643.2590, 2496.635
644.4210, 2961.047
645.5830, 3454.363
646.7450, 3883.773
647.9070, 4683.141
649.0690, 5450.088
650.2310, 6372.480
651.3920, 7327.092
652.5530, 8323.270
653.7140, 9453.424
654.8750, 10738.47
656.0360, 11968.18
657.1970, 13324.64
658.3570, 14498.49
659.5170, 15727.47
660.6770, 17521.36
661.8370, 18418.22
662.9970, 19563.12
664.1570, 20295.91
665.3160, 21258.18
666.4750, 21530.30
667.6340, 21060.12
668.7930, 19623.78
669.9520, 18371.41
671.1110, 16345.81
672.2690, 14475.83
673.4270, 12515.36
674.5850, 10799.31
675.7430, 9188.836
676.9010, 7974.357
678.0590, 6570.432
679.2160, 5320.021
680.3730, 4941.744
681.5300, 4256.035
682.6870, 3718.344
683.8440, 3201.566
685.0010, 2866.068
686.1570, 2511.221
687.3130, 2386.338
688.4690, 1972.467
689.6250, 1990.518
690.7810, 1627.701
691.9370, 1545.018
693.0920, 1407.963
694.2470, 1108.965
695.4020, 1353.926
696.5570, 1284.707
697.7120, 945.1348
698.8670, 999.9707
700.0210, 1079.707
701.1750, 1038.793
702.3290, 1012.545
703.4830, 889.2344
704.6370, 869.1211
705.7910, 809.4844
706.9440, 734.7598
708.0970, 720.6699
709.2510, 660.1152
710.4030, 619.6719
711.5560, 686.8906
712.7090, 589.7031
713.8610, 507.7656
715.0140, 526.6641
716.1660, 586.9277
717.3180, 418.1211
718.4690, 421.3203
719.6210, 382.6855
720.7730, 347.2676
721.9240, 381.5469
723.0750, 375.7266
724.2260, 330.0801
725.3770, 587.2773
726.5270, 300.9297
727.6780, 271.0781
728.8280, 379.6250
729.9780, 576.5703
731.1280, 277.6367
732.2780, 283.8516
733.4280, 268.1816
734.5770, 168.2383
735.7260, 275.7363
736.8760, 318.7246
738.0250, 279.6816
739.1730, 140.1191
740.3220, 226.9551
741.4700, 252.1016
742.6190, 302.3223
743.7670, 250.1211
744.9150, 277.5547
746.0630, 129.1543
747.2100, 208.8418
748.3580, 19.60156
749.5050, 168.0020
750.6520, 80.42773
751.7990, 291.0742
752.9460, 128.5117
754.0930, 169.9160
755.2390, 34.26367
756.3860, 218.5938
757.5320, 246.9199
758.6780, 76.15234
759.8240, 99.41406
760.9690, 49.64258
762.1150, 103.1680
763.2600, 97.91406
764.4060, 219.9609
765.5510, 24.00781
766.6950, 46.95703
767.8400, 12.11914
768.9850, 173.7461
770.1290, 150.5840
771.2730, 242.3945
772.4170, 63.17969
773.5610, 285.9316
774.7050, 85.65430
775.8480, 83.34766
776.9920, 20.00977
778.1350, 102.6328
779.2780, 37.77539
780.4210, 231.7480
781.5640, 151.2441
782.7060, 42.71484
783.8490, 135.1543
784.9910, 33.56836
786.1330, 38.05273
787.2750, 113.2598
788.4170, 150.5469
789.5580, 52.18945
790.7000, 142.0000
791.8410, 295.1660
792.9820, 50.31055
794.1230, 67.42383
795.2640, 32.51172
796.4040, 2.431641
797.5450, 153.5840
798.6850, 147.5742
799.8250, 127.5469
800.9650, 212.4941
802.1050, 29.57812
803.2450, 28.70703
804.3840, 8.113281
805.5230, 137.9023
806.6630, 143.6699
807.8020, 38.58203
808.9400, 33.89062
810.0790, 168.7500
811.2170, 42.36914
812.3560, 108.9668
813.4940, 63.45898
814.6320, 25.94727
815.7700, 67.47852
816.9070, 71.08008
818.0450, 145.2559
819.1820, 83.42578
820.3190, 159.8184
821.4560, 40.04492
822.5930, 219.2520
823.7300, 127.4395
824.8670, 88.60938
826.0030, 204.7637
827.1390, 53.89844
828.2750, 23.01562
829.4110, 93.11523
830.5470, 65.19922
831.6820, 126.7363
832.8180, 45.75781
833.9530, 25.82227
835.0880, 65.77539
836.2230, 73.93750
837.3580, 25.22656
838.4920, 48.41602
839.6270, 0.6484380
840.7610, 42.90039
841.8950, 81.81250
843.0290, 188.5137
844.1630, 141.1992
845.2960, 112.8711
846.4300, 16.53320
847.5630, 26.17969
848.6960, 69.18750
849.8290, 108.4023
850.9620, 98.01172
852.0940, 313.6152
853.2270, 273.2031
854.3590, 154.7812
855.4910, 38.34766
856.6230, 232.9121
857.7550, 23.46680
858.8870, 339.0098
860.0180, 153.5469
861.1500, 321.1016
862.2810, 220.6445
863.4120, 41.20898
864.5430, 6.761719
865.6730, 187.3164
866.8040, 199.8691
867.9340, 318.4141
869.0640, 261.0117
870.1940, 44.39453
871.3240, 247.8438
872.4540, 32.46289
873.5830, 371.0762
874.7130, 238.6797
875.8420, 263.7676
876.9710, 293.3672
878.1000, 312.9629
879.2290, 347.5645
880.3570, 320.1621
881.4860, 144.7559
882.6140, 232.9180
883.7420, 268.5352
884.8700, 173.2324
885.9980, 335.7012
887.1250, 2.316406
888.2530, 282.3516
889.3800, 425.6133
890.5070, 69.13477
891.6340, 189.8770
892.7610, 175.5293
893.8880, 244.1797
895.0140, 192.9238
896.1400, 319.9902
897.2670, 357.3145
898.3930, 167.2656
899.5180, 182.4160
900.6440, 334.1543
901.7700, 115.2285
902.8950, 341.6641
904.0200, 283.5762
905.1450, 188.2598
906.2700, 253.8652
907.3950, 252.6250
908.5190, 175.4902
909.6440, 290.2539
910.7680, 252.4512
911.8920, 247.6367
913.0160, 424.6758
914.1400, 608.0664
915.2630, 368.8320
916.3870, 349.6094
917.5100, 618.3145
918.6330, 426.1289
919.7560, 603.8203
920.8790, 474.5234
922.0010, 669.6230
923.1240, 520.2578
924.2460, 480.0586
925.3680, 466.4316
926.4900, 334.2598
927.6120, 540.1719
928.7340, 762.3926
929.8550, 786.8320
930.9760, 859.8652
932.0980, 769.7402
933.2190, 894.6934
934.3390, 934.6328
935.4600, 1083.514
936.5810, 1184.480
937.7010, 1304.945
938.8210, 1030.525
939.9410, 1165.393
941.0610, 1006.391
942.1810, 1087.398
943.3010, 1103.611
944.4200, 1114.184
945.5390, 892.2227
946.6580, 827.8184
947.7770, 681.8105
948.8960, 869.7891
950.0150, 784.1895
951.1330, 759.0527
952.2510, 603.7578
953.3690, 645.9004
954.4870, 517.0039
955.6050, 614.1719
956.7230, 543.0410
957.8400, 627.2324
958.9580, 540.4395
960.0750, 974.6152
961.1920, 768.8516
962.3090, 905.9277
963.4250, 797.8496
964.5420, 801.1270
965.6580, 826.3242
966.7740, 965.5391
967.8900, 1261.918
969.0060, 1116.627
970.1220, 1308.912
971.2380, 1142.275
972.3530, 1570.268
973.4680, 1610.889
974.5830, 1835.932
975.6980, 1721.066
976.8130, 2062.516
977.9280, 2345.984
979.0420, 2514.469
980.1560, 2854.975
981.2710, 3107.350
982.3850, 3455.795
983.4980, 4115.879
984.6120, 4608.451
985.7260, 5372.043
986.8390, 6154.656
987.9520, 7336.285
989.0650, 8850.934
990.1780, 10271.60
991.2910, 12043.29
992.4030, 14555.99
993.5160, 17671.76
994.6280, 20324.57
995.7400, 23333.44
996.8520, 26254.34
997.9640, 28901.26
999.0750, 31253.19
1000.187, 32504.15
1001.298, 33243.12
1002.409, 33445.12
1003.520, 32409.13
1004.631, 31049.06
1005.741, 28807.12
1006.852, 26463.19
1007.962, 24137.29
1009.072, 21174.46
1010.182, 19157.60
1011.292, 16914.76
1012.402, 14858.93
1013.511, 13225.12
1014.621, 11672.34
1015.730, 10241.57
1016.839, 9101.146
1017.948, 8083.422
1019.056, 7429.738
1020.165, 6191.291
1021.273, 6023.648
1022.382, 5044.064
1023.490, 4625.496
1024.598, 4100.957
1025.706, 3856.445
1026.813, 3445.650
1027.921, 3016.703
1029.028, 2792.461
1030.135, 2452.365
1031.242, 2110.963
1032.349, 1917.043
1033.456, 2140.738
1034.562, 1892.455
1035.668, 1740.326
1036.775, 1505.123
1037.881, 1400.959
1038.987, 1326.113
1040.092, 1282.164
1041.198, 1225.074
1042.303, 1080.010
1043.408, 1005.963
1044.514, 1021.936
1045.618, 874.9316
1046.723, 972.9551
1047.828, 1096.996
1048.932, 963.0762
1050.037, 863.1387
1051.141, 909.4668
1052.245, 855.6094
1053.349, 736.7695
1054.452, 622.9531
1055.556, 847.1738
1056.659, 659.4141
1057.762, 717.6719
1058.865, 583.1211
1059.968, 661.4395
1061.071, 541.7734
1062.174, 616.1270
1063.276, 704.5020
1064.378, 753.8965
1065.480, 360.3184
1066.582, 621.7559
1067.684, 446.2129
1068.786, 437.6855
1069.887, 425.1758
1070.988, 458.7012
1072.090, 435.9043
1073.191, 535.8516
1074.291, 401.4531
1075.392, 544.4414
1076.493, 502.0938
1077.593, 460.7812
1078.693, 395.4863
1079.793, 852.2090
1080.893, 622.9512
1081.993, 688.7266
1083.092, 792.5371
1084.192, 600.3848
1085.291, 559.2852
1086.390, 734.1895
1087.489, 525.1328
1088.588, 622.0977
1089.686, 721.0762
1090.785, 576.0723
1091.883, 378.0820
1092.981, 543.1133
1094.079, 545.1562
1095.177, 260.2168
1096.275, 343.2930
1097.373, 330.3828
1098.470, 280.4902
1099.567, 473.6484
1100.664, 376.8359
1101.761, 383.0469
1102.858, 622.2910
1103.954, 148.5488
1105.051, 432.8301
1106.147, 333.1387
1107.243, 326.4648
1108.339, 392.8164
1109.435, 64.18164
1110.531, 444.5645
1111.626, 219.9590
1112.722, 253.3691
1113.817, 358.7930
1114.912, 485.2324
1116.007, 500.6992
1117.101, 574.3027
1118.196, 587.5312
1119.290, 610.1914
1120.385, 589.7148
1121.479, 539.2539
1122.573, 551.8047
1123.666, 417.8223
1124.760, 680.7227
1125.853, 338.2188
1126.947, 177.4941
1128.040, 358.3945
1129.133, 469.1309
1130.226, 424.7695
1131.318, 235.4160
1132.411, 30.07617
1133.503, 226.7480
1134.596, 112.4297
1135.688, 200.1191
1136.780, 189.8281
1137.871, 153.5469
1138.963, 247.2754
1140.054, 1.984375
1141.146, 159.7637
1142.237, 185.5195
1143.328, 79.28906
1144.419, 255.0664
1145.509, 44.85352
1146.600, 198.6523
1147.690, 40.53906
1148.780, 103.2637
1149.870, 29.07617
1150.960, 213.0977
1152.050, 345.6348
1153.139, 33.37891
1154.229, 241.1309
1155.318, 397.9688
1156.407, 157.7383
1157.496, 45.51562
1158.585, 143.6973
1159.674, 5.964844
1160.762, 128.0195
1161.850, 93.45703
1162.939, 157.7324
1164.027, 83.89453
1165.114, 94.52930
1166.202, 45.34961
1167.290, 300.2793
1168.377, 305.9141
1169.464, 46.04883
1170.551, 0.5781250
1171.638, 153.2051
1172.725, 132.2930
1173.812, 74.93359
1174.898, 79.57812
1175.984, 186.2285
1177.071, 143.8848
1178.157, 15.54883
1179.242, 105.2148
1180.328, 71.11523
1181.414, 123.4727
1182.499, 240.1113
1183.584, 84.69531
1184.669, 181.2871
1185.754, 122.8828
1186.839, 397.4844
1187.924, 212.0879
1189.008, 150.3047
1190.092, 34.22852
1191.177, 141.7637
1192.260, 280.3047
1193.344, 248.8066
1194.428, 167.3906
1195.512, 83.94141
1196.595, 92.50000
1197.678, 68.03516
1198.761, 159.6309
1199.844, 82.19922
1200.927, 160.7734
1202.009, 135.0000
1203.092, 174.5781
1204.174, 172.1582
1205.256, 6.740234
1206.338, 38.32031
1207.420, 315.9004
1208.502, 177.4844
1209.583, 79.06836
1210.665, 511.6543
1211.746, 29.24219
1212.827, 227.8301
1213.908, 248.4219
1214.988, 86.98633
1216.069, 247.5508
1217.149, 293.0898
1218.230, 424.6309
1219.310, 88.16992
1220.390, 207.7109
1221.470, 225.2520
1222.549, 28.79492
1223.629, 349.3359
1224.708, 70.87500
1225.787, 161.4180
1226.866, 55.96094
1227.945, 158.5000
1229.024, 43.04492
1230.103, 140.5879
1231.181, 156.1445
1232.259, 42.69922
1233.337, 181.2539
1234.415, 166.8066
1235.493, 233.3594
1236.571, 169.9121
1237.648, 222.2031
1238.726, 313.0137
1239.803, 264.5625
1240.880, 300.1133
1241.957, 286.6582
1243.034, 289.5039
1244.110, 334.6270
1245.187, 306.2852
1246.263, 349.8262
1247.339, 360.3633
1248.415, 216.9004
1249.491, 150.4336
1250.566, 101.0742
1251.642, 77.49609
1252.717, 1.023438
1253.793, 92.46484
1254.868, 101.4590
1255.943, 97.41406
1257.017, 11.33984
1258.092, 36.94141
1259.166, 163.2168
1260.241, 345.4941
1261.315, 395.7676
1262.389, 295.0410
1263.462, 177.3105
1264.536, 241.1680
1265.610, 225.8438
1266.683, 254.1055
1267.756, 179.3672
1268.829, 84.62500
1269.902, 202.8184
1270.975, 126.0723
1272.048, 315.3203
1273.120, 296.5703
1274.192, 136.8633
1275.264, 227.1484
1276.336, 207.4375
1277.408, 242.4023
1278.480, 325.6836
1279.551, 202.9609
1280.623, 271.0195
1281.694, 222.2969
1282.765, 84.57031
1283.836, 6.835938
1284.907, 260.0898
1285.977, 408.3438
1287.048, 321.5938
1288.118, 432.6172
