##NAMES=Kanoite
##RRUFFID=R061134
##IDEAL CHEMISTRY=Mn^2+^MgSi_2_O_6_
##LOCALITY=Balmat, St. Lawrence County, New York, USA
##OWNER=RRUFF
##SOURCE=Michael Scott
##DESCRIPTION=Yellowish brown granular aggregate
##STATUS=The identification of this mineral has been confirmed by X-ray diffraction and chemical analysis
##URL=rruff.info/R061134
##MEASURED CHEMISTRY=(Mn^2+^_0.88_Ca_0.12_)_Σ=1_(Mg_0.98_Fe^3+^_0.02_)_Σ=1_(Si_0.98_Al_0.02_)_2_O_6_
##PIN_ID=M00188
##ORIENTATION=Laser parallel to b* (0 1 0). Fiducial mark perpendicular to laser is parallel to c [0 0 1]
109.0250, 0.0000000E+00
110.2640, 55.76074
111.5030, 55.91992
112.7420, 126.6318
113.9810, 25.33398
115.2200, 174.2041
116.4580, 179.8740
117.6970, 68.58105
118.9350, 58.95801
120.1730, 4.352539
121.4100, 48.41699
122.6480, 119.1094
123.8850, 224.5713
125.1230, 81.66797
126.3600, 356.8760
127.5960, 176.4502
128.8330, 376.3633
130.0700, 375.6611
131.3060, 367.3203
132.5420, 498.2939
133.7780, 422.5381
135.0140, 335.0195
136.2500, 445.1230
137.4850, 354.9863
138.7200, 390.0234
139.9550, 431.2158
141.1900, 371.5518
142.4250, 427.2188
143.6600, 448.3096
144.8940, 446.7559
146.1280, 442.3252
147.3620, 437.0068
148.5960, 487.9961
149.8300, 528.7061
151.0630, 340.6250
152.2960, 369.5576
153.5300, 388.5049
154.7620, 159.4658
155.9950, 193.4443
157.2280, 225.4395
158.4600, 203.4551
159.6920, 96.49121
160.9250, 125.5498
162.1560, 5.368164
163.3880, 131.7373
164.6200, 21.86621
165.8510, 2.019531
167.0820, 72.19922
168.3130, 30.40430
169.5440, 69.63672
170.7750, 16.89453
172.0050, 146.1787
173.2350, 51.49023
174.4650, 59.17090
175.6950, 30.19434
176.9250, 130.5869
178.1550, 59.00586
179.3840, 28.45117
180.6130, 207.9238
181.8420, 168.4229
183.0710, 10.93555
184.3000, 93.43164
185.5280, 137.9229
186.7570, 185.3857
187.9850, 249.1582
189.2130, 262.0029
190.4400, 340.7617
191.6680, 274.9375
192.8960, 256.0391
194.1230, 278.3008
195.3500, 69.78027
196.5770, 199.0908
197.8030, 114.4287
199.0300, 141.7939
200.2560, 127.1865
201.4830, 195.6074
202.7090, 204.0537
203.9340, 271.5283
205.1600, 337.0293
206.3860, 253.5566
207.6110, 477.1104
208.8360, 261.6914
210.0610, 397.2969
211.2860, 442.9277
212.5100, 520.5840
213.7350, 588.2656
214.9590, 521.9727
216.1830, 584.6826
217.4070, 487.4160
218.6310, 448.1758
219.8540, 553.9600
221.0780, 515.7666
222.3010, 520.5977
223.5240, 463.4492
224.7470, 523.3203
225.9690, 489.6309
227.1920, 485.5908
228.4140, 451.0801
229.6360, 411.0469
230.8580, 341.0322
232.0800, 172.0371
233.3020, 262.0615
234.5230, 243.1045
235.7440, 308.1680
236.9650, 80.24805
238.1860, 217.3457
239.4070, 170.4619
240.6280, 293.5967
241.8480, 80.74707
243.0680, 277.9160
244.2880, 183.1035
245.5080, 207.3066
246.7280, 174.5264
247.9470, 339.7637
249.1660, 277.0186
250.3860, 174.2881
251.6040, 45.57520
252.8230, 116.8789
254.0420, 51.21191
255.2600, 91.57422
256.4790, 126.5303
257.6970, 33.73926
258.9150, 143.1152
260.1320, 112.6211
261.3500, 38.23242
262.5670, 38.05273
263.7840, 81.74512
265.0010, 80.38770
266.2180, 63.52539
267.4350, 82.53906
268.6510, 93.53809
269.8680, 67.51074
271.0840, 8.456055
272.3000, 35.36426
273.5160, 2.998047
274.7310, 100.1426
275.9470, 114.3223
277.1620, 267.2373
278.3770, 212.4736
279.5920, 107.7344
280.8070, 4.018555
282.0210, 103.3252
283.2360, 217.6523
284.4500, 139.0098
285.6640, 110.3857
286.8780, 64.79492
288.0920, 141.2246
289.3050, 88.63672
290.5180, 183.0693
291.7320, 91.52734
292.9450, 238.0039
294.1570, 321.4980
295.3700, 300.0088
296.5830, 221.5322
297.7950, 313.0693
299.0070, 343.6191
300.2190, 316.1826
301.4310, 369.7578
302.6420, 506.3496
303.8540, 452.9541
305.0650, 665.5791
306.2760, 550.2275
307.4870, 710.8926
308.6980, 820.4922
309.9080, 890.1807
311.1190, 1149.881
312.3290, 1125.593
313.5390, 1274.315
314.7490, 1395.050
315.9580, 1409.794
317.1680, 1672.550
318.3770, 1856.314
319.5860, 1684.091
320.7950, 1789.041
322.0040, 1976.838
323.2130, 1819.645
324.4210, 1776.462
325.6290, 1639.287
326.8380, 1611.124
328.0460, 1578.971
329.2530, 1477.826
330.4610, 1220.691
331.6680, 1081.566
332.8760, 1074.438
334.0830, 883.2920
335.2890, 812.0928
336.4960, 795.8760
337.7030, 459.6582
338.9090, 555.4521
340.1150, 698.2559
341.3210, 372.0693
342.5270, 516.8955
343.7330, 403.2686
344.9380, 452.1152
346.1440, 368.9717
347.3490, 340.8389
348.5540, 431.7168
349.7590, 421.6055
350.9630, 395.5029
352.1680, 350.4102
353.3720, 417.3281
354.5760, 394.4023
355.7800, 347.3398
356.9840, 291.2861
358.1870, 245.2422
359.3910, 317.2080
360.5940, 411.1807
361.7970, 291.1650
363.0000, 379.1572
364.2030, 215.1592
365.4050, 300.1699
366.6080, 381.1895
367.8100, 333.2178
369.0120, 222.2549
370.2140, 268.2998
371.4150, 342.3545
372.6170, 315.4160
373.8180, 348.4883
375.0190, 400.5674
376.2200, 235.6553
377.4210, 438.7500
378.6220, 279.8535
379.8220, 437.9658
381.0230, 419.0859
382.2230, 377.2139
383.4230, 445.3496
384.6220, 351.4932
385.8220, 472.6455
387.0220, 638.8037
388.2210, 740.9717
389.4200, 687.1465
390.6190, 668.3291
391.8180, 696.5176
393.0160, 736.7148
394.2150, 484.9199
395.4130, 517.1309
396.6110, 491.4482
397.8090, 224.6729
399.0060, 221.9062
400.2040, 251.1455
401.4010, 334.3975
402.5980, 228.6631
403.7950, 224.4092
404.9920, 72.22656
406.1890, 88.62402
407.3860, 185.9717
408.5820, 118.6045
409.7780, 141.8086
410.9740, 101.6621
412.1700, 75.28125
413.3650, 120.3506
414.5610, 19.72852
415.7560, 105.6816
416.9510, 1.441406
418.1460, 18.29590
419.3410, 89.08398
420.5360, 156.4668
421.7300, 72.85547
422.9240, 46.18457
424.1180, 44.51953
425.3120, 122.7510
426.5060, 167.1016
427.7000, 12.31348
428.8930, 184.6787
430.0860, 137.1504
431.2790, 38.52734
432.4720, 56.91211
433.6650, 130.3047
434.8580, 81.58301
436.0500, 95.98633
437.2420, 203.3965
438.4340, 227.8105
439.6260, 269.5801
440.8180, 401.9600
442.0090, 544.8604
443.2010, 702.2891
444.3920, 947.8799
445.5830, 1216.976
446.7740, 1452.760
447.9640, 1842.358
449.1550, 2208.451
450.3450, 2652.079
451.5350, 3089.781
452.7250, 3305.267
453.9150, 3540.756
455.1050, 3698.296
456.2940, 3819.826
457.4830, 4031.331
458.6720, 4325.840
459.8610, 4564.373
461.0500, 4602.912
462.2390, 4310.455
463.4270, 3905.002
464.6150, 3147.559
465.8040, 2258.124
466.9910, 1641.694
468.1790, 1099.270
469.3670, 826.8506
470.5540, 649.4336
471.7410, 597.0215
472.9280, 308.6289
474.1150, 347.2402
475.3020, 218.8525
476.4890, 61.47168
477.6750, 173.0967
478.8610, 114.7246
480.0470, 22.35645
481.2330, 52.99121
482.4190, 67.64355
483.6040, 76.29980
484.7900, 34.95996
485.9750, 22.37793
487.1600, 19.27344
488.3450, 36.92676
489.5290, 50.58301
490.7140, 67.24219
491.8980, 44.92090
493.0820, 73.60254
494.2660, 121.2852
495.4500, 129.9717
496.6340, 5.660156
497.8170, 130.3516
499.0010, 59.04395
500.1840, 126.7412
501.3670, 228.4395
502.5500, 48.14062
503.7320, 73.84473
504.9150, 65.54785
506.0970, 234.2686
507.2790, 99.99414
508.4610, 114.7207
509.6430, 153.4746
510.8250, 137.2295
512.0060, 158.9668
513.1870, 22.75391
514.3680, 148.5225
515.5490, 148.2930
516.7300, 89.06543
517.9110, 213.8408
519.0910, 67.62305
520.2710, 289.4043
521.4510, 205.2012
522.6310, 206.0244
523.8110, 285.8643
524.9910, 152.7041
526.1700, 178.5439
527.3490, 182.3838
528.5280, 91.23535
529.7070, 161.0879
530.8860, 257.9404
532.0650, 119.7930
533.2430, 67.64551
534.4210, 174.5107
535.5990, 75.37500
536.7770, 175.2451
537.9550, 42.88672
539.1320, 255.9541
540.3100, 159.7930
541.4870, 152.6318
542.6640, 303.4697
543.8410, 155.3213
545.0170, 246.1875
546.1940, 178.0605
547.3700, 57.05762
548.5470, 33.21387
549.7230, 5.911133
550.8980, 110.4307
552.0740, 204.2627
553.2500, 262.0928
554.4250, 292.9355
555.6000, 332.7939
556.7750, 281.6426
557.9500, 294.5293
559.1250, 159.1514
560.2990, 55.02734
561.4730, 16.88867
562.6480, 198.0391
563.8220, 66.89258
564.9950, 63.74219
566.1690, 111.5869
567.3430, 50.75000
568.5160, 22.41211
569.6890, 38.40430
570.8620, 41.78418
572.0350, 126.9961
573.2070, 135.7715
574.3800, 143.7207
575.5520, 21.50781
576.7240, 99.24219
577.8960, 33.98730
579.0680, 36.82910
580.2400, 4.462891
581.4110, 29.18750
582.5830, 8.906250
583.7540, 10.14648
584.9250, 12.28906
586.0950, 9.0820000E-02
587.2660, 6.785156
588.4370, 23.26758
589.6070, 30.82520
590.7770, 7.208008
591.9470, 11.47070
593.1170, 48.06250
594.2860, 149.7168
595.4560, 21.30566
596.6250, 22.88867
597.7940, 235.2773
598.9630, 54.84473
600.1320, 263.6016
601.3000, 130.4609
602.4690, 104.0078
603.6370, 215.5469
604.8050, 323.0791
605.9730, 398.6494
607.1410, 657.5010
608.3090, 675.6260
609.4760, 987.6641
610.6430, 1039.154
611.8100, 1293.753
612.9770, 1590.313
614.1440, 1935.776
615.3110, 2157.231
616.4770, 2510.518
617.6430, 2443.616
618.8090, 2247.226
619.9750, 2056.642
621.1410, 1644.049
622.3070, 1410.211
623.4720, 1269.599
624.6370, 1072.336
625.8020, 961.7041
626.9670, 975.5254
628.1320, 859.1807
629.2970, 831.3652
630.4610, 913.2979
631.6250, 785.2354
632.7890, 685.0205
633.9530, 719.3252
635.1170, 647.9365
636.2810, 684.5039
637.4440, 648.9307
638.6070, 765.3584
639.7700, 810.4072
640.9330, 952.6963
642.0960, 1036.176
643.2590, 1110.551
644.4210, 1377.750
645.5830, 1450.721
646.7450, 1702.800
647.9070, 1806.961
649.0690, 1928.440
650.2310, 2138.524
651.3920, 2447.932
652.5530, 2593.907
653.7140, 2852.004
654.8750, 3289.563
656.0360, 3380.634
657.1970, 3761.772
658.3570, 4085.313
659.5170, 4419.343
660.6770, 4675.680
661.8370, 5108.146
662.9970, 4977.723
664.1570, 5296.339
665.3160, 5220.295
666.4750, 5086.237
667.6340, 4956.562
668.7930, 4644.635
669.9520, 4511.998
671.1110, 3898.879
672.2690, 3222.351
673.4270, 3056.199
674.5850, 2456.270
675.7430, 2326.881
676.9010, 1832.878
678.0590, 1515.760
679.2160, 1382.528
680.3730, 1070.791
681.5300, 1105.748
682.6870, 902.3828
683.8440, 795.8711
685.0010, 781.8467
686.1570, 529.8438
687.3130, 667.7363
688.4690, 405.8896
689.6250, 634.3721
690.7810, 460.0840
691.9370, 483.8467
693.0920, 265.5498
694.2470, 372.3682
695.4020, 343.9229
696.5570, 186.4365
697.7120, 292.9336
698.8670, 281.4150
700.0210, 355.8838
701.1750, 223.2744
702.3290, 305.7441
703.4830, 212.1973
704.6370, 296.6318
705.7910, 77.04785
706.9440, 235.4443
708.0970, 396.9688
709.2510, 154.3291
710.4030, 349.5732
711.5560, 174.1709
712.7090, 101.4785
713.8610, 169.8799
715.0140, 199.2705
716.1660, 225.5225
717.3180, 119.7588
718.4690, 32.97363
719.6210, 146.8213
720.7730, 187.9941
721.9240, 274.9355
723.0750, 240.8447
724.2260, 126.8574
725.3770, 142.3135
726.5270, 79.06836
727.6780, 35.13574
728.8280, 182.5488
729.9780, 121.4180
731.1280, 264.1973
732.2780, 124.1807
733.4280, 207.9521
734.5770, 220.8555
735.7260, 32.75195
736.8760, 232.6562
738.0250, 50.45508
739.1730, 72.52344
740.3220, 158.7695
741.4700, 240.5566
742.6190, 223.3262
743.7670, 22.08008
744.9150, 68.80469
746.0630, 42.50781
747.2100, 48.18945
748.3580, 160.8848
749.5050, 116.5234
750.6520, 33.85547
751.7990, 162.7148
752.9460, 304.2676
754.0930, 28.80078
755.2390, 38.30859
756.3860, 100.7949
757.5320, 341.2598
758.6780, 170.7070
759.8240, 29.86328
760.9690, 202.5176
762.1150, 63.87891
763.2600, 164.6484
764.4060, 279.9727
765.5510, 70.28516
766.6950, 139.5781
767.8400, 53.97070
768.9850, 28.77344
770.1290, 48.43164
771.2730, 140.6152
772.4170, 90.77930
773.5610, 55.92578
774.7050, 70.87305
775.8480, 102.9805
776.9920, 26.06641
778.1350, 130.1289
779.2780, 81.17383
780.4210, 103.2012
781.5640, 155.2070
782.7060, 32.80469
783.8490, 19.13672
784.9910, 273.0508
786.1330, 74.05273
787.2750, 126.7734
788.4170, 98.58203
789.5580, 19.62891
790.7000, 177.1211
791.8410, 42.85156
792.9820, 140.5625
794.1230, 9.257813
795.2640, 0.7949220
796.4040, 152.5625
797.5450, 28.81445
798.6850, 79.23828
799.8250, 33.73438
800.9650, 24.72461
802.1050, 154.1602
803.2450, 187.5801
804.3840, 32.01367
805.5230, 93.34570
806.6630, 35.68945
807.8020, 132.0117
808.9400, 22.32227
810.0790, 27.39062
811.2170, 71.85742
812.3560, 8.914063
813.4940, 80.28320
814.6320, 79.46680
815.7700, 181.6445
816.9070, 24.80859
818.0450, 70.95312
819.1820, 44.91602
820.3190, 43.22852
821.4560, 19.63867
822.5930, 20.64062
823.7300, 39.32227
824.8670, 87.28516
826.0030, 75.49805
827.1390, 91.19336
828.2750, 74.12500
829.4110, 83.62109
830.5470, 50.94141
831.6820, 108.8281
832.8180, 114.6992
833.9530, 156.6875
835.0880, 150.4609
836.2230, 198.2930
837.3580, 163.1289
838.4920, 116.9551
839.6270, 197.7676
840.7610, 111.5645
841.8950, 122.3008
843.0290, 139.4629
844.1630, 106.5645
845.2960, 113.3281
846.4300, 150.0781
847.5630, 36.82812
848.6960, 123.5664
849.8290, 10.88477
850.9620, 126.8164
852.0940, 249.5137
853.2270, 185.2012
854.3590, 236.7754
855.4910, 309.5371
856.6230, 334.1914
857.7550, 308.0332
858.8870, 308.5859
860.0180, 210.0898
861.1500, 206.6230
862.2810, 164.2168
863.4120, 55.53516
864.5430, 301.3340
865.6730, 219.9297
866.8040, 342.4355
867.9340, 87.01562
869.0640, 44.48438
870.1940, 200.0469
871.3240, 149.5723
872.4540, 206.2715
873.5830, 248.7754
874.7130, 38.07227
875.8420, 5.751953
876.9710, 269.7168
878.1000, 106.1777
879.2290, 136.6309
880.3570, 283.0254
881.4860, 257.1230
882.6140, 230.9277
883.7420, 57.80664
884.8700, 208.2148
885.9980, 210.4961
887.1250, 202.7988
888.2530, 245.1797
889.3800, 322.5547
890.5070, 190.0801
891.6340, 149.7793
892.7610, 211.9492
893.8880, 396.2930
895.0140, 154.6309
896.1400, 120.1973
897.2670, 170.5215
898.3930, 11.52148
899.5180, 267.7852
900.6440, 143.0840
901.7700, 116.0703
902.8950, 15.33789
904.0200, 362.1836
905.1450, 158.8379
906.2700, 194.6270
907.3950, 146.8789
908.5190, 40.91992
909.6440, 48.23633
910.7680, 184.6895
911.8920, 106.7422
913.0160, 145.1582
914.1400, 45.31641
915.2630, 52.26758
916.3870, 72.01953
917.5100, 97.55273
918.6330, 136.9961
919.7560, 70.31641
920.8790, 122.5410
922.0010, 140.2891
923.1240, 290.5879
924.2460, 201.6270
925.3680, 215.9941
926.4900, 193.2188
927.6120, 199.9863
928.7340, 296.2246
929.8550, 223.4102
930.9760, 274.1992
932.0980, 227.4785
933.2190, 404.4434
934.3390, 219.2695
935.4600, 356.9688
936.5810, 199.6133
937.7010, 353.9258
938.8210, 63.23633
939.9410, 30.14648
941.0610, 140.3242
942.1810, 206.1953
943.3010, 47.53320
944.4200, 122.2617
945.5390, 166.6035
946.6580, 276.7012
947.7770, 293.2461
948.8960, 91.38867
950.0150, 129.5430
951.1330, 123.8965
952.2510, 97.73828
953.3690, 389.8691
954.4870, 244.3105
955.6050, 16.12109
956.7230, 196.9453
957.8400, 28.97461
958.9580, 101.9902
960.0750, 379.2148
961.1920, 233.3965
962.3090, 351.6465
963.4250, 87.83203
964.5420, 325.0625
965.6580, 306.1621
966.7740, 358.5059
967.8900, 434.1523
969.0060, 435.5254
970.1220, 576.9004
971.2380, 587.2793
972.3530, 678.6582
973.4680, 885.6797
974.5830, 1149.426
975.6980, 1388.814
976.8130, 1868.207
977.9280, 2284.600
979.0420, 3353.527
980.1560, 4898.926
981.2710, 7581.328
982.3850, 10911.46
983.4980, 15192.96
984.6120, 20445.27
985.7260, 27256.69
986.8390, 33026.11
987.9520, 35891.54
989.0650, 34332.97
990.1780, 26513.41
991.2910, 17778.85
992.4030, 11563.32
993.5160, 8663.805
994.6280, 7390.285
995.7400, 7074.770
996.8520, 7434.262
997.9640, 7578.617
999.0750, 7638.117
1000.187, 7748.623
1001.298, 7836.133
1002.409, 7702.646
1003.520, 7251.355
1004.631, 6767.875
1005.741, 6420.398
1006.852, 5785.932
1007.962, 5046.465
1009.072, 4581.875
1010.182, 4165.000
1011.292, 3606.576
1012.402, 3524.160
1013.511, 3059.748
1014.621, 2692.346
1015.730, 2261.949
1016.839, 1855.557
1017.948, 1777.139
1019.056, 1562.758
1020.165, 1489.383
1021.273, 1299.031
1022.382, 1106.682
1023.490, 1030.338
1024.598, 991.0000
1025.706, 823.6738
1026.813, 685.3496
1027.921, 510.0312
1029.028, 572.7168
1030.135, 508.4238
1031.242, 498.1367
1032.349, 579.4258
1033.456, 289.1484
1034.562, 429.8750
1035.668, 370.6074
1036.775, 301.2285
1037.881, 380.9727
1038.987, 401.7383
1040.092, 112.5098
1041.198, 288.2852
1042.303, 227.0684
1043.408, 441.0352
1044.514, 243.8301
1045.618, 314.6309
1046.723, 176.4395
1047.828, 149.2559
1048.932, 96.16406
1050.037, 137.0918
1051.141, 160.0840
1052.245, 189.9355
1053.349, 184.0234
1054.452, 133.3496
1055.556, 188.3281
1056.659, 184.3535
1057.762, 253.8086
1058.865, 220.2910
1059.968, 96.66406
1061.071, 129.5996
1062.174, 150.1348
1063.276, 42.55469
1064.378, 179.5137
1065.480, 110.0410
1066.582, 4.349609
1067.684, 62.36914
1068.786, 143.3965
1069.887, 16.96094
1070.988, 25.99805
1072.090, 35.03906
1073.191, 310.1973
1074.291, 333.2578
1075.392, 357.3223
1076.493, 394.3906
1077.593, 420.4629
1078.693, 455.7715
1079.793, 461.6426
1080.893, 552.8418
1081.993, 561.0996
1083.092, 663.2090
1084.192, 508.3203
1085.291, 495.4336
1086.390, 561.6230
1087.489, 531.7617
1088.588, 329.7480
1089.686, 102.9160
1090.785, 26.09570
1091.883, 202.2793
1092.981, 322.4609
1094.079, 116.6504
1095.177, 275.8398
1096.275, 62.03516
1097.373, 258.2285
1098.470, 175.4277
1099.567, 87.30664
1100.664, 287.8555
1101.761, 269.0234
1102.858, 459.1914
1103.954, 207.3613
1105.051, 119.5312
1106.147, 20.91016
1107.243, 73.27539
1108.339, 59.45117
1109.435, 188.6289
1110.531, 39.19336
1111.626, 160.9727
1112.722, 38.14062
1113.817, 50.30859
1114.912, 3.521484
1116.007, 131.4219
1117.101, 206.5957
1118.196, 139.1016
1119.290, 395.2832
1120.385, 219.4668
1121.479, 129.6523
1122.573, 114.8379
1123.666, 181.2637
1124.760, 231.5547
1125.853, 255.7441
1126.947, 251.2930
1128.040, 369.4922
1129.133, 357.5723
1130.226, 410.9453
1131.318, 424.2637
1132.411, 496.4648
1133.503, 577.6328
1134.596, 645.2422
1135.688, 667.1621
1136.780, 664.4043
1137.871, 604.6484
1138.963, 540.8906
1140.054, 691.1309
1141.146, 506.3750
1142.237, 696.6133
1143.328, 557.9980
1144.419, 460.2402
1145.509, 484.4844
1146.600, 405.7500
1147.690, 425.9902
1148.780, 290.2324
1149.870, 166.4727
1150.960, 356.7129
1152.050, 137.9531
1153.139, 192.1914
1154.229, 181.4258
1155.318, 330.6641
1156.407, 155.9609
1157.496, 232.1953
1158.585, 131.4277
1159.674, 58.65820
1160.762, 114.8594
1161.850, 396.1172
1162.939, 215.3457
1164.027, 329.5742
1165.114, 484.7988
1166.202, 261.0293
1167.290, 291.2578
1168.377, 259.4844
1169.464, 183.6816
1170.551, 84.93555
1171.638, 157.1582
1172.725, 159.3770
1173.812, 209.5938
1174.898, 242.8184
1175.984, 88.04102
1177.071, 102.2617
1178.157, 187.4805
1179.242, 41.30469
1180.328, 57.11719
1181.414, 12.03125
1182.499, 65.17773
1183.584, 1.681641
1184.669, 120.4492
1185.754, 33.57617
1186.839, 24.70312
1187.924, 62.17578
1189.008, 106.9277
1190.092, 52.99609
1191.177, 77.04297
1192.260, 109.6953
1193.344, 59.72852
1194.428, 201.1973
1195.512, 3.117188
1196.595, 24.96875
1197.678, 56.91797
1198.761, 62.79883
1199.844, 75.32031
1200.927, 174.5098
1202.009, 80.33398
1203.092, 99.84570
1204.174, 69.91406
1205.256, 105.6641
1206.338, 96.41602
1207.420, 76.16016
1208.502, 89.90430
1209.583, 221.6406
1210.665, 40.37500
1211.746, 35.89648
1212.827, 114.7988
1213.908, 182.4941
1214.988, 159.5918
1216.069, 47.86719
1217.149, 163.5469
1218.230, 159.2227
1219.310, 168.8945
1220.390, 182.6641
1221.470, 236.2285
1222.549, 172.8887
1223.629, 96.54492
1224.708, 146.2012
1225.787, 85.85547
1226.866, 164.5039
1227.945, 176.1484
1229.024, 52.79102
1230.103, 183.1504
1231.181, 158.7812
1232.259, 162.5234
1233.337, 334.2266
1234.415, 192.8418
1235.493, 17.47266
1236.571, 21.09766
1237.648, 234.7168
1238.726, 207.3301
1239.803, 89.93750
1240.880, 396.0117
1241.957, 149.6094
1243.034, 128.2070
1244.110, 184.7969
1245.187, 13.71484
1246.263, 376.8516
1247.339, 11.41016
1248.415, 206.5078
1249.491, 400.0547
1250.566, 149.8828
1251.642, 141.4453
1252.717, 99.99805
1253.793, 45.49219
1254.868, 90.97852
1255.943, 11.62305
1257.017, 85.23633
1258.092, 84.70312
1259.166, 32.16406
1260.241, 300.6191
1261.315, 190.0703
1262.389, 223.9824
1263.462, 360.4219
1264.536, 175.8594
1265.610, 209.2910
1266.683, 178.7188
1267.756, 246.1406
1268.829, 117.5566
1269.902, 110.9688
1270.975, 11.62305
1272.048, 47.75977
1273.120, 207.1367
1274.192, 212.5098
1275.264, 75.87891
1276.336, 153.2383
1277.408, 104.5977
1278.480, 87.94922
1279.551, 205.2949
1280.623, 152.6367
1281.694, 229.9746
1282.765, 186.3047
1283.836, 314.6328
1284.907, 67.95312
1285.977, 148.2715
