##NAMES=Kanoite
##RRUFFID=R061134
##IDEAL CHEMISTRY=Mn^2+^MgSi_2_O_6_
##LOCALITY=Balmat, St. Lawrence County, New York, USA
##OWNER=RRUFF
##SOURCE=Michael Scott
##DESCRIPTION=Yellowish brown granular aggregate
##STATUS=The identification of this mineral has been confirmed by X-ray diffraction and chemical analysis
##URL=rruff.info/R061134
##MEASURED CHEMISTRY=(Mn^2+^_0.88_Ca_0.12_)_Σ=1_(Mg_0.98_Fe^3+^_0.02_)_Σ=1_(Si_0.98_Al_0.02_)_2_O_6_
##PIN_ID=M00160
##ORIENTATION=Laser parallel to c* (0 0 1). Fiducial mark perpendicular to laser is parallel to a [1 0 0]
109.0250, 0.0000000E+00
110.2640, 163.4688
111.5030, 10.31055
112.7420, 240.3125
113.9810, 198.9727
115.2200, 292.8477
116.4580, 183.3164
117.6970, 365.5352
118.9350, 373.1641
120.1730, 189.1895
121.4100, 352.8223
122.6480, 434.4395
123.8850, 594.5469
125.1230, 719.7324
126.3600, 796.6699
127.5960, 1314.078
128.8330, 1284.723
130.0700, 1620.383
131.3060, 1585.875
132.5420, 1684.031
133.7780, 1832.717
135.0140, 1996.812
136.2500, 2356.227
137.4850, 2435.863
138.7200, 2751.646
139.9550, 2712.502
141.1900, 2368.369
142.4250, 2227.191
143.6600, 1850.912
144.8940, 1703.492
146.1280, 1701.883
147.3620, 1580.016
148.5960, 1512.275
149.8300, 1434.264
151.0630, 1329.283
152.2960, 944.8555
153.5300, 743.9512
154.7620, 360.5410
155.9950, 561.6211
157.2280, 526.1875
158.4600, 398.2344
159.6920, 270.7578
160.9250, 288.7344
162.1560, 286.1426
163.3880, 217.9746
164.6200, 376.2109
165.8510, 341.8379
167.0820, 454.8438
168.3130, 130.2207
169.5440, 376.9570
170.7750, 270.0449
172.0050, 299.4746
173.2350, 386.2363
174.4650, 266.3223
175.6950, 269.7227
176.9250, 337.4258
178.1550, 168.4316
179.3840, 114.7285
180.6130, 222.3086
181.8420, 380.1680
183.0710, 251.2227
184.3000, 401.2266
185.5280, 512.2148
186.7570, 525.2344
187.9850, 617.3223
189.2130, 579.4688
190.4400, 633.7168
191.6680, 717.0723
192.8960, 590.5410
194.1230, 719.1367
195.3500, 731.8594
196.5770, 705.7188
197.8030, 978.7480
199.0300, 800.9199
200.2560, 1045.268
201.4830, 1119.916
202.7090, 1199.977
203.9340, 1045.379
205.1600, 1061.012
206.3860, 1163.865
207.6110, 1190.064
208.8360, 1155.467
210.0610, 1414.004
211.2860, 1540.674
212.5100, 1838.475
213.7350, 1830.402
214.9590, 2066.461
216.1830, 2312.652
217.4070, 2380.975
218.6310, 2129.426
219.8540, 2347.010
221.0780, 1831.727
222.3010, 1670.568
223.5240, 1371.543
224.7470, 1385.664
225.9690, 1135.971
227.1920, 1375.414
228.4140, 1267.010
229.6360, 1080.738
230.8580, 792.5898
232.0800, 914.5645
233.3020, 1006.658
234.5230, 834.8730
235.7440, 753.2070
236.9650, 733.6562
238.1860, 520.2227
239.4070, 538.9062
240.6280, 632.6992
241.8480, 605.6094
243.0680, 560.6309
244.2880, 618.8438
245.5080, 550.0059
246.7280, 581.3555
247.9470, 558.8125
249.1660, 361.3750
250.3860, 394.0430
251.6040, 395.8164
252.8230, 474.6934
254.0420, 530.6680
255.2600, 304.7461
256.4790, 312.9316
257.6970, 450.4434
258.9150, 625.2871
260.1320, 427.0742
261.3500, 518.3711
262.5670, 352.1172
263.7840, 336.2715
265.0010, 261.7988
266.2180, 364.6641
267.4350, 86.84570
268.6510, 116.3184
269.8680, 250.0703
271.0840, 358.0781
272.3000, 112.3320
273.5160, 256.8145
274.7310, 164.5195
275.9470, 353.4336
277.1620, 637.5488
278.3770, 554.8555
279.5920, 303.3496
280.8070, 574.0176
282.0210, 503.8574
283.2360, 424.8633
284.4500, 410.7500
285.6640, 229.0723
286.8780, 290.5410
288.0920, 278.1543
289.3050, 374.9082
290.5180, 401.7305
291.7320, 550.3574
292.9450, 696.0684
294.1570, 748.5410
295.3700, 676.8633
296.5830, 756.6602
297.7950, 818.2949
299.0070, 1150.789
300.2190, 1193.061
301.4310, 1212.041
302.6420, 1665.113
303.8540, 1525.279
305.0650, 1834.602
306.2760, 2068.746
307.4870, 2104.648
308.6980, 2457.301
309.9080, 2854.053
311.1190, 3179.920
312.3290, 3875.875
313.5390, 4214.930
314.7490, 4919.080
315.9580, 5654.332
317.1680, 6241.674
318.3770, 6952.105
319.5860, 7868.625
320.7950, 8568.236
322.0040, 8991.984
323.2130, 9147.809
324.4210, 9423.727
325.6290, 9049.719
326.8380, 8670.801
328.0460, 8180.986
329.2530, 7687.242
330.4610, 6927.566
331.6680, 6603.977
332.8760, 5980.461
334.0830, 5424.016
335.2890, 5174.643
336.4960, 4553.342
337.7030, 4043.623
338.9090, 3656.523
340.1150, 3350.527
341.3210, 3169.576
342.5270, 3197.365
343.7330, 3000.551
344.9380, 2666.270
346.1440, 2818.928
347.3490, 3035.314
348.5540, 2718.764
349.7590, 2965.273
350.9630, 2937.848
352.1680, 3186.480
353.3720, 3164.170
354.5760, 3094.922
355.7800, 2930.729
356.9840, 2948.592
358.1870, 2750.512
359.3910, 2545.486
360.5940, 2336.518
361.7970, 2262.604
363.0000, 2433.742
364.2030, 2349.936
365.4050, 2429.289
366.6080, 2377.479
367.8100, 2514.828
369.0120, 2634.230
370.2140, 2629.684
371.4150, 2945.184
372.6170, 3178.736
373.8180, 3032.340
375.0190, 3081.990
376.2200, 3217.689
377.4210, 2816.432
378.6220, 2794.225
379.8220, 2925.061
381.0230, 2730.945
382.2230, 2955.877
383.4230, 3193.852
384.6220, 3469.871
385.8220, 3966.936
387.0220, 4233.043
388.2210, 4574.191
389.4200, 5064.387
390.6190, 5360.615
391.8180, 5727.891
393.0160, 5612.207
394.2150, 5539.562
395.4130, 4992.957
396.6110, 4526.396
397.8090, 3589.871
399.0060, 2860.385
400.2040, 2321.938
401.4010, 1876.566
402.5980, 1448.273
403.7950, 1243.062
404.9920, 771.9238
406.1890, 773.8555
407.3860, 956.8574
408.5820, 691.9219
409.7780, 510.0547
410.9740, 423.2461
412.1700, 298.5000
413.3650, 445.8164
414.5610, 275.1914
415.7560, 166.6211
416.9510, 334.1094
418.1460, 89.65430
419.3410, 489.2500
420.5360, 186.9004
421.7300, 160.6055
422.9240, 340.3594
424.1180, 371.1641
425.3120, 178.0176
426.5060, 178.9219
427.7000, 57.12500
428.8930, 158.8594
430.0860, 65.89062
431.2790, 128.9688
432.4720, 64.08984
433.6650, 108.7441
434.8580, 123.5703
436.0500, 209.3965
437.2420, 221.3945
438.4340, 274.1484
439.6260, 155.6055
440.8180, 126.5801
442.0090, 17.45312
443.2010, 176.4023
444.3920, 31.65234
445.5830, 120.4375
446.7740, 302.9375
447.9640, 23.54688
449.1550, 111.4453
450.3450, 30.44336
451.5350, 86.92383
452.7250, 81.88281
453.9150, 182.1777
455.1050, 297.3027
456.2940, 467.0996
457.4830, 474.4863
458.6720, 585.4570
459.8610, 744.3125
461.0500, 944.6191
462.2390, 1352.730
463.4270, 1595.098
464.6150, 1945.318
465.8040, 1879.762
466.9910, 1762.797
468.1790, 1656.299
469.3670, 1304.945
470.5540, 955.5332
471.7410, 864.1465
472.9280, 688.7812
474.1150, 319.1328
475.3020, 297.8184
476.4890, 290.5254
477.6750, 332.2559
478.8610, 114.0098
480.0470, 2.226563
481.2330, 278.7363
482.4190, 69.60156
483.6040, 253.3301
484.7900, 26.12891
485.9750, 106.9688
487.1600, 7.841797
488.3450, 11.90430
489.5290, 144.6348
490.7140, 157.5547
491.8980, 146.4922
493.0820, 397.4473
494.2660, 250.4219
495.4500, 250.4102
496.6340, 519.4199
497.8170, 520.4590
499.0010, 683.5117
500.1840, 744.5762
501.3670, 772.6562
502.5500, 884.7559
503.7320, 867.8672
504.9150, 828.9922
506.0970, 727.1621
507.2790, 791.3477
508.4610, 773.5430
509.6430, 679.7520
510.8250, 683.0234
512.0060, 634.3262
513.1870, 826.6387
514.3680, 1039.969
515.5490, 1083.305
516.7300, 1214.619
517.9110, 1390.027
519.0910, 1280.412
520.2710, 1182.805
521.4510, 1064.217
522.6310, 1127.641
523.8110, 1168.074
524.9910, 1179.516
526.1700, 1283.965
527.3490, 1164.428
528.5280, 1081.895
529.7070, 1143.365
530.8860, 992.8438
532.0650, 1113.324
533.2430, 1430.816
534.4210, 1387.320
535.5990, 1627.828
536.7770, 1714.371
537.9550, 1781.350
539.1320, 1949.473
540.3100, 1914.051
541.4870, 1893.648
542.6640, 1881.252
543.8410, 1736.879
545.0170, 1748.504
546.1940, 1669.145
547.3700, 1420.785
548.5470, 1262.426
549.7230, 1392.066
550.8980, 1518.709
552.0740, 1584.348
553.2500, 1612.984
554.4250, 1491.619
555.6000, 1763.252
556.7750, 1623.883
557.9500, 1579.514
559.1250, 1287.139
560.2990, 1257.762
561.4730, 1145.436
562.6480, 793.1016
563.8220, 619.7930
564.9950, 416.4785
566.1690, 648.1680
567.3430, 245.8477
568.5160, 386.5293
569.6890, 413.4805
570.8620, 331.1484
572.0350, 332.8066
573.2070, 303.2559
574.3800, 402.0977
575.5520, 238.8008
576.7240, 219.8242
577.8960, 175.8848
579.0680, 348.3008
580.2400, 67.98047
581.4110, 247.2871
582.5830, 73.86523
583.7540, 147.6836
584.9250, 128.8281
586.0950, 1.361328
587.2660, 27.88477
588.4370, 80.40039
589.6070, 179.8516
590.7770, 201.5742
591.9470, 86.37109
593.1170, 62.98242
594.2860, 31.19531
595.4560, 123.0859
596.6250, 41.20703
597.7940, 26.45508
598.9630, 3.330078
600.1320, 82.84180
601.3000, 32.99609
602.4690, 40.11914
603.6370, 34.21875
604.8050, 172.7129
605.9730, 154.5645
607.1410, 6.490234
608.3090, 250.0215
609.4760, 1.908203
610.6430, 34.09180
611.8100, 192.3340
612.9770, 179.2266
614.1440, 30.94922
615.3110, 261.6328
616.4770, 194.3672
617.6430, 242.2305
618.8090, 337.9570
619.9750, 154.9062
621.1410, 97.32227
622.3070, 55.79297
623.4720, 131.4941
624.6370, 188.4336
625.8020, 337.1055
626.9670, 361.6582
628.1320, 215.1621
629.2970, 245.7578
630.4610, 302.6523
631.6250, 348.2715
632.7890, 511.3945
633.9530, 477.4941
635.1170, 623.3203
636.2810, 460.3594
637.4440, 592.4434
638.6070, 779.6699
639.7700, 845.1230
640.9330, 1103.295
642.0960, 835.3223
643.2590, 1171.457
644.4210, 1142.586
645.5830, 1495.258
646.7450, 1779.781
647.9070, 1788.834
649.0690, 2169.568
650.2310, 2563.752
651.3920, 3479.727
652.5530, 3599.914
653.7140, 4323.299
654.8750, 4530.225
656.0360, 5344.125
657.1970, 5815.891
658.3570, 6191.818
659.5170, 6814.652
660.6770, 7256.570
661.8370, 7635.414
662.9970, 8168.426
664.1570, 8322.355
665.3160, 8781.475
666.4750, 9057.873
667.6340, 9281.543
668.7930, 9003.191
669.9520, 8560.809
671.1110, 7779.406
672.2690, 6690.662
673.4270, 6171.936
674.5850, 5450.459
675.7430, 4619.246
676.9010, 3945.756
678.0590, 3313.203
679.2160, 2880.697
680.3730, 2385.846
681.5300, 2206.025
682.6870, 1607.746
683.8440, 1939.062
685.0010, 1635.857
686.1570, 1460.336
687.3130, 1239.568
688.4690, 1605.775
689.6250, 1053.953
690.7810, 1232.107
691.9370, 844.2324
693.0920, 779.3301
694.2470, 937.3984
695.4020, 733.4414
696.5570, 684.1504
697.7120, 578.1387
698.8670, 452.1602
700.0210, 732.7207
701.1750, 476.6250
702.3290, 608.7012
703.4830, 585.5469
704.6370, 489.9082
705.7910, 533.6973
706.9440, 685.7812
708.0970, 573.5098
709.2510, 447.2188
710.4030, 627.8965
711.5560, 336.5469
712.7090, 520.1680
713.8610, 504.7637
715.0140, 533.3418
716.1660, 338.9160
717.3180, 286.4980
718.4690, 296.9297
719.6210, 388.2031
720.7730, 377.8184
721.9240, 528.3203
723.0750, 694.9023
724.2260, 519.4609
725.3770, 787.1699
726.5270, 555.2793
727.6780, 655.4727
728.8280, 422.0273
729.9780, 268.5762
731.1280, 294.7578
732.2780, 158.3926
733.4280, 382.6172
734.5770, 81.05859
735.7260, 381.8223
736.8760, 376.0020
738.0250, 327.6016
739.1730, 449.3203
740.3220, 223.5879
741.4700, 661.0605
742.6190, 440.1172
743.7670, 63.35938
744.9150, 321.7500
746.0630, 61.26758
747.2100, 149.3125
748.3580, 222.2109
749.5050, 59.82812
750.6520, 144.0723
751.7990, 187.9492
752.9460, 232.1152
754.0930, 154.9434
755.2390, 132.7461
756.3860, 148.5234
757.5320, 100.2793
758.6780, 120.5723
759.8240, 207.5488
760.9690, 105.3770
762.1150, 82.90625
763.2600, 61.43555
764.4060, 1.855469
765.5510, 9.330078
766.6950, 76.15234
767.8400, 64.61328
768.9850, 123.0469
770.1290, 93.45508
771.2730, 71.76172
772.4170, 96.20312
773.5610, 58.53516
774.7050, 2.158203
775.8480, 137.1016
776.9920, 94.33984
778.1350, 181.5547
779.2780, 49.75000
780.4210, 145.9141
781.5640, 133.0605
782.7060, 81.81250
783.8490, 70.22461
784.9910, 136.2402
786.1330, 53.23633
787.2750, 141.7949
788.4170, 43.94141
789.5580, 85.84766
790.7000, 64.61719
791.8410, 194.3613
792.9820, 204.0840
794.1230, 46.20703
795.2640, 105.4375
796.4040, 226.0625
797.5450, 4.332031
798.6850, 10.23438
799.8250, 187.7734
800.9650, 74.29297
802.1050, 54.79297
803.2450, 33.27148
804.3840, 133.7246
805.5230, 324.1621
806.6630, 140.5820
807.8020, 177.9883
808.9400, 27.37305
810.0790, 7.263672
811.2170, 243.0645
812.3560, 97.62305
813.4940, 87.61133
814.6320, 115.8281
815.7700, 64.97070
816.9070, 44.83203
818.0450, 7.259766
819.1820, 56.60352
820.3190, 104.3398
821.4560, 28.66211
822.5930, 42.30078
823.7300, 103.2441
824.8670, 180.1738
826.0030, 155.0898
827.1390, 191.3828
828.2750, 339.8809
829.4110, 224.7578
830.5470, 73.61914
831.6820, 154.4688
832.8180, 3.695313
833.9530, 162.1230
835.0880, 45.92773
836.2230, 202.2812
837.3580, 106.3906
838.4920, 101.9492
839.6270, 158.6445
840.7610, 29.77148
841.8950, 69.78516
843.0290, 27.66992
844.1630, 88.85156
845.2960, 213.3652
846.4300, 261.8652
847.5630, 295.8574
848.6960, 188.8379
849.8290, 295.3066
850.9620, 143.7695
852.0940, 142.2207
853.2270, 115.6660
854.3590, 114.1016
855.4910, 198.5273
856.6230, 330.9531
857.7550, 281.3711
858.8870, 155.7852
860.0180, 28.18750
861.1500, 207.5898
862.2810, 324.9922
863.4120, 39.59766
864.5430, 65.79688
865.6730, 258.1836
866.8040, 5.566406
867.9340, 300.9766
869.0640, 340.8945
870.1940, 234.3203
871.3240, 440.8867
872.4540, 300.3242
873.5830, 287.7656
874.7130, 102.2500
875.8420, 166.7344
876.9710, 285.2305
878.1000, 199.7500
879.2290, 14.28125
880.3570, 247.5312
881.4860, 428.1250
882.6140, 159.0781
883.7420, 300.4727
884.8700, 268.0898
885.9980, 280.0547
887.1250, 148.5352
888.2530, 376.1680
889.3800, 242.8164
890.5070, 19.39453
891.6340, 519.8281
892.7610, 349.3828
893.8880, 396.5469
895.0140, 200.0898
896.1400, 188.8281
897.2670, 286.3047
898.3930, 415.5703
899.5180, 264.4180
900.6440, 446.0547
901.7700, 189.2617
902.8950, 423.4922
904.0200, 365.5352
905.1450, 542.2500
906.2700, 173.7383
907.3950, 404.9570
908.5190, 107.4922
909.6440, 530.5234
910.7680, 518.4922
911.8920, 331.3008
913.0160, 360.8711
914.1400, 382.7031
915.2630, 298.6680
916.3870, 506.5078
917.5100, 591.3398
918.6330, 531.6094
919.7560, 486.0078
920.8790, 863.8711
922.0010, 804.0312
923.1240, 878.7305
924.2460, 911.6250
925.3680, 1007.285
926.4900, 993.7422
927.6120, 1134.641
928.7340, 1094.543
929.8550, 980.5703
930.9760, 1238.422
932.0980, 977.3516
933.2190, 920.1719
934.3390, 799.8164
935.4600, 898.7656
936.5810, 852.5391
937.7010, 864.0469
938.8210, 886.3828
939.9410, 891.3672
941.0610, 950.3633
942.1810, 942.3672
943.3010, 961.3828
944.4200, 759.7266
945.5390, 858.0352
946.6580, 710.0820
947.7770, 378.8477
948.8960, 343.8789
950.0150, 358.9570
951.1330, 557.9688
952.2510, 697.3516
953.3690, 625.6992
954.4870, 431.5078
955.6050, 221.7031
956.7230, 417.4023
957.8400, 533.4141
958.9580, 356.6445
960.0750, 267.8984
961.1920, 503.1602
962.3090, 396.4336
963.4250, 686.7188
964.5420, 699.0234
965.6580, 679.3398
966.7740, 601.6680
967.8900, 634.2891
969.0060, 630.6758
970.1220, 670.9844
971.2380, 704.7422
972.3530, 771.1406
973.4680, 827.7578
974.5830, 847.7930
975.6980, 977.6992
976.8130, 1072.168
977.9280, 1154.332
979.0420, 1356.035
980.1560, 1357.352
981.2710, 1721.887
982.3850, 1992.441
983.4980, 2113.008
984.6120, 2349.605
985.7260, 2802.246
986.8390, 3170.895
987.9520, 3796.598
989.0650, 4326.297
990.1780, 5284.020
991.2910, 6215.754
992.4030, 7753.508
993.5160, 9036.277
994.6280, 10875.11
995.7400, 12643.95
996.8520, 14401.82
997.9640, 16325.63
999.0750, 18301.59
1000.187, 19751.55
1001.298, 20703.55
1002.409, 21497.55
1003.520, 21723.57
1004.631, 21479.61
1005.741, 20227.42
1006.852, 19406.51
1007.962, 17498.64
1009.072, 16103.77
1010.182, 14558.60
1011.292, 13395.92
1012.402, 11804.10
1013.511, 10655.73
1014.621, 9685.973
1015.730, 8860.230
1016.839, 7697.527
1017.948, 7261.836
1019.056, 6428.164
1020.165, 5407.547
1021.273, 5208.938
1022.382, 4790.348
1023.490, 3974.777
1024.598, 3588.527
1025.706, 3320.984
1026.813, 3321.727
1027.921, 2655.227
1029.028, 2542.734
1030.135, 2213.574
1031.242, 1903.590
1032.349, 1984.152
1033.456, 1548.816
1034.562, 1581.453
1035.668, 1452.113
1036.775, 1541.801
1037.881, 1477.539
1038.987, 1398.297
1040.092, 1241.902
1041.198, 1159.691
1042.303, 1053.086
1043.408, 973.4453
1044.514, 885.1641
1045.618, 855.0273
1046.723, 838.6797
1047.828, 801.0234
1048.932, 861.7148
1050.037, 742.6445
1051.141, 890.5859
1052.245, 963.5703
1053.349, 848.5781
1054.452, 768.5977
1055.556, 492.6367
1056.659, 408.0078
1057.762, 507.1406
1058.865, 416.8789
1059.968, 495.0430
1061.071, 328.2266
1062.174, 557.4180
1063.276, 379.6484
1064.378, 341.8945
1065.480, 431.1875
1066.582, 455.4727
1067.684, 314.7734
1068.786, 268.0898
1069.887, 414.4180
1070.988, 472.7695
1072.090, 209.2031
1073.191, 365.5820
1074.291, 205.9688
1075.392, 390.6328
1076.493, 376.0508
1077.593, 238.4844
1078.693, 254.9375
1079.793, 393.4023
1080.893, 348.9180
1081.993, 454.4414
1083.092, 618.9766
1084.192, 624.7422
1085.291, 528.1172
1086.390, 496.5586
1087.489, 540.2070
1088.588, 523.8867
1089.686, 485.5703
1090.785, 900.2656
1091.883, 727.9766
1092.981, 1045.695
1094.079, 985.4258
1095.177, 858.1641
1096.275, 557.9180
1097.373, 452.6836
1098.470, 362.4570
1099.567, 399.2383
1100.664, 327.8984
1101.761, 321.0859
1102.858, 278.6641
1103.954, 325.5508
1105.051, 274.4297
1106.147, 325.3672
1107.243, 185.3086
1108.339, 153.2695
1109.435, 282.8047
1110.531, 289.7891
1111.626, 95.78516
1112.722, 239.7891
1113.817, 235.8047
1114.912, 217.8320
1116.007, 282.9219
1117.101, 382.3789
1118.196, 493.8086
1119.290, 600.8633
1120.385, 736.9336
1121.479, 744.0078
1122.573, 851.0898
1123.666, 677.1758
1124.760, 600.7578
1125.853, 486.2695
1126.947, 491.3789
1128.040, 421.5000
1129.133, 147.9688
1130.226, 263.1250
1131.318, 215.2734
1132.411, 249.4180
1133.503, 314.5742
1134.596, 235.7344
1135.688, 174.8984
1136.780, 92.92969
1137.871, 440.2188
1138.963, 159.6367
1140.054, 273.5508
1141.146, 26.36719
1142.237, 127.2773
1143.328, 197.7539
1144.419, 65.21094
1145.509, 91.80859
1146.600, 113.8398
1147.690, 203.5273
1148.780, 42.56250
1149.870, 99.59375
1150.960, 17.63281
1152.050, 120.6758
1153.139, 162.7227
1154.229, 207.7656
1155.318, 10.18359
1156.407, 129.8672
1157.496, 150.0781
1158.585, 173.9102
1159.674, 194.8906
1160.762, 85.12109
1161.850, 87.07031
1162.939, 136.8438
1164.027, 79.23828
1165.114, 11.64062
1166.202, 478.5703
1167.290, 165.4570
1168.377, 146.5273
1169.464, 370.4141
1170.551, 16.69531
1171.638, 260.1836
1172.725, 388.0625
1173.812, 42.94531
1174.898, 276.8281
1175.984, 151.7070
1177.071, 218.5859
1178.157, 91.46875
1179.242, 158.3477
1180.328, 79.23047
1181.414, 232.1094
1182.499, 9.988281
1183.584, 173.8672
1184.669, 27.74609
1185.754, 365.6211
1186.839, 1.496094
1187.924, 69.36719
1189.008, 4.761719
1190.092, 112.0977
1191.177, 188.9570
1192.260, 243.8164
1193.344, 106.7227
1194.428, 143.7148
1195.512, 11.57031
1196.595, 144.4180
1197.678, 43.26953
1198.761, 242.1094
1199.844, 216.9492
1200.927, 139.7891
1202.009, 12.61719
1203.092, 86.44922
1204.174, 41.27734
1205.256, 8.097656
1206.338, 160.9180
1207.420, 107.7461
1208.502, 225.5469
1209.583, 153.3555
1210.665, 203.1602
1211.746, 252.9648
1212.827, 142.7617
1213.908, 115.4414
1214.988, 28.72266
1216.069, 29.03125
1217.149, 28.62500
1218.230, 23.28125
1219.310, 108.9297
1220.390, 296.5781
1221.470, 101.2148
1222.549, 53.85547
1223.629, 350.4844
1224.708, 258.1094
1225.787, 254.7305
1226.866, 271.3438
1227.945, 107.9570
1229.024, 188.5625
1230.103, 298.1680
1231.181, 146.7578
1232.259, 225.3477
1233.337, 294.9297
1234.415, 7.511719
1235.493, 229.0703
1236.571, 333.6250
1237.648, 230.1797
1238.726, 17.72266
1239.803, 398.2617
1240.880, 296.7930
1241.957, 221.3242
1243.034, 280.8438
1244.110, 106.8555
1245.187, 22.14062
1246.263, 72.66406
1247.339, 2.757813
1248.415, 93.15625
1249.491, 113.5508
1250.566, 289.9375
1251.642, 214.3516
1252.717, 223.7578
1253.793, 26.15625
1254.868, 120.4375
1255.943, 90.86328
1257.017, 198.1523
1258.092, 166.5625
1259.166, 58.60547
1260.241, 155.7734
1261.315, 187.9375
1262.389, 253.0820
1263.462, 403.2305
1264.536, 337.2812
1265.610, 350.6016
1266.683, 214.0000
1267.756, 161.1406
1268.829, 8.246094
1269.902, 212.3672
1270.975, 252.7852
1272.048, 246.7344
1273.120, 131.8359
1274.192, 395.4844
1275.264, 50.57812
1276.336, 21.33984
1277.408, 225.7148
1278.480, 178.7617
1279.551, 166.8086
1280.623, 234.8438
1281.694, 76.87891
1282.765, 129.9062
1283.836, 162.9258
1284.907, 304.6328
1285.977, 282.6445
