##NAMES=Kanoite
##RRUFFID=R061134
##IDEAL CHEMISTRY=Mn^2+^MgSi_2_O_6_
##LOCALITY=Balmat, St. Lawrence County, New York, USA
##OWNER=RRUFF
##SOURCE=Michael Scott
##DESCRIPTION=Yellowish brown granular aggregate
##STATUS=The identification of this mineral has been confirmed by X-ray diffraction and chemical analysis
##URL=rruff.info/R061134
##MEASURED CHEMISTRY=(Mn^2+^_0.88_Ca_0.12_)_Σ=1_(Mg_0.98_Fe^3+^_0.02_)_Σ=1_(Si_0.98_Al_0.02_)_2_O_6_
##PIN_ID=M00204
##ORIENTATION=Laser parallel to (-1 0 -1). Fiducial mark perpendicular to laser is parallel to -b [0 -1 0]
111.5030, 0.0000000E+00
112.7420, 57.47559
113.9810, 101.4971
115.2200, 55.41113
116.4580, 10.29102
117.6970, 186.6738
118.9350, 49.06934
120.1730, 95.39355
121.4100, 211.5010
122.6480, 204.5771
123.8850, 574.0127
125.1230, 501.4775
126.3600, 535.7979
127.5960, 913.2334
128.8330, 1084.569
130.0700, 1376.625
131.3060, 1572.243
132.5420, 1802.276
133.7780, 2138.600
135.0140, 2295.100
136.2500, 2504.684
137.4850, 2727.357
138.7200, 2684.297
139.9550, 2930.521
141.1900, 2538.529
142.4250, 2249.327
143.6600, 2074.872
144.8940, 1969.118
146.1280, 1865.030
147.3620, 1852.574
148.5960, 1764.715
149.8300, 1524.407
151.0630, 1378.602
152.2960, 1092.259
153.5300, 711.3496
154.7620, 628.8467
155.9950, 314.7295
157.2280, 47.98047
158.4600, 111.5859
159.6920, 56.54883
160.9250, 35.86914
162.1560, 14.54590
163.3880, 0.3730470
164.6200, 14.08105
165.8510, 38.41211
167.0820, 29.56348
168.3130, 52.16504
169.5440, 247.3926
170.7750, 125.2285
172.0050, 528.3340
173.2350, 336.7021
174.4650, 316.3252
175.6950, 352.1953
176.9250, 261.3066
178.1550, 157.6543
179.3840, 111.2285
180.6130, 18.02637
181.8420, 56.04199
183.0710, 128.2686
184.3000, 114.0127
185.5280, 144.2773
186.7570, 172.8203
187.9850, 185.3633
189.2130, 186.9297
190.4400, 205.5410
191.6680, 150.2129
192.8960, 160.9541
194.1230, 153.7754
195.3500, 284.6816
196.5770, 274.6807
197.8030, 396.7764
199.0300, 411.9727
200.2560, 411.2725
201.4830, 621.6768
202.7090, 770.1895
203.9340, 713.8350
205.1600, 731.7529
206.3860, 954.9707
207.6110, 1126.459
208.8360, 1212.200
210.0610, 1428.169
211.2860, 1775.354
212.5100, 1851.695
213.7350, 2153.122
214.9590, 2564.641
216.1830, 2877.254
217.4070, 2781.965
218.6310, 2996.773
219.8540, 2763.680
221.0780, 2487.681
222.3010, 2257.780
223.5240, 2016.976
224.7470, 2119.267
225.9690, 1994.653
227.1920, 1948.135
228.4140, 1899.721
229.6360, 1851.411
230.8580, 1869.208
232.0800, 1633.097
233.3020, 1603.076
234.5230, 1382.145
235.7440, 1397.303
236.9650, 1305.549
238.1860, 1117.882
239.4070, 1004.302
240.6280, 941.3271
241.8480, 846.3975
243.0680, 842.0703
244.2880, 818.8281
245.5080, 780.6680
246.7280, 723.5879
247.9470, 910.5879
249.1660, 676.6680
250.3860, 921.8262
251.6040, 775.0635
252.8230, 551.3770
254.0420, 695.7656
255.2600, 503.2314
256.4790, 566.7695
257.6970, 516.3818
258.9150, 432.3037
260.1320, 381.6787
261.3500, 313.5225
262.5670, 315.8018
263.7840, 256.1279
265.0010, 232.1104
266.2180, 264.3887
267.4350, 160.9346
268.6510, 314.7266
269.8680, 208.7471
271.0840, 310.9795
272.3000, 82.41016
273.5160, 257.0264
274.7310, 348.8184
275.9470, 473.7764
277.1620, 432.8945
278.3770, 548.1650
279.5920, 517.5801
280.8070, 721.1357
282.0210, 564.8262
283.2360, 631.6475
284.4500, 771.5928
285.6640, 587.6465
286.8780, 638.8037
288.0920, 728.0762
289.3050, 749.4590
290.5180, 903.9502
291.7320, 1082.545
292.9450, 1072.242
294.1570, 1277.188
295.3700, 1557.038
296.5830, 1569.973
297.7950, 1787.197
299.0070, 1918.069
300.2190, 2072.902
301.4310, 2428.658
302.6420, 2716.278
303.8540, 2950.438
305.0650, 3236.258
306.2760, 3542.974
307.4870, 3950.234
308.6980, 4258.064
309.9080, 4814.434
311.1190, 5450.059
312.3290, 6135.854
313.5390, 6932.080
314.7490, 7729.824
315.9580, 8756.205
317.1680, 9980.703
318.3770, 11002.30
319.5860, 12104.98
320.7950, 12928.74
322.0040, 13340.56
323.2130, 13830.45
324.4210, 13811.40
325.6290, 13573.43
326.8380, 12631.53
328.0460, 12113.68
329.2530, 10998.89
330.4610, 10308.15
331.6680, 9346.478
332.8760, 8541.854
334.0830, 7635.286
335.2890, 6973.769
336.4960, 6360.304
337.7030, 5837.890
338.9090, 5284.541
340.1150, 4699.223
341.3210, 4364.967
342.5270, 4075.761
343.7330, 3790.439
344.9380, 3845.334
346.1440, 3767.277
347.3490, 3675.469
348.5540, 3672.511
349.7590, 3847.599
350.9630, 3899.734
352.1680, 4012.915
353.3720, 3970.143
354.5760, 3926.411
355.7800, 3989.722
356.9840, 3881.075
358.1870, 3903.469
359.3910, 3763.904
360.5940, 3630.379
361.7970, 3601.883
363.0000, 3464.446
364.2030, 3479.039
365.4050, 3475.070
366.6080, 3537.390
367.8100, 3618.047
369.0120, 3732.791
370.2140, 3976.572
371.4150, 4023.391
372.6170, 4147.244
373.8180, 4153.135
375.0190, 4175.061
376.2200, 4025.019
377.4210, 3836.012
378.6220, 3611.041
379.8220, 3665.102
381.0230, 3912.197
382.2230, 4016.322
383.4230, 4335.482
384.6220, 4590.676
385.8220, 5132.898
387.0220, 5645.153
388.2210, 5943.438
389.4200, 6354.754
390.6190, 6690.098
391.8180, 6667.473
393.0160, 6463.876
394.2150, 6131.309
395.4130, 5359.770
396.6110, 4626.260
397.8090, 4062.775
399.0060, 3489.318
400.2040, 2932.891
401.4010, 2344.488
402.5980, 2188.112
403.7950, 1960.795
404.9920, 1707.532
406.1890, 1747.323
407.3860, 1701.166
408.5820, 1660.059
409.7780, 1479.002
410.9740, 1695.990
412.1700, 1922.024
413.3650, 1776.104
414.5610, 1809.225
415.7560, 1686.390
416.9510, 1638.594
418.1460, 1569.840
419.3410, 1446.125
420.5360, 1195.449
421.7300, 897.8115
422.9240, 742.2109
424.1180, 621.6475
425.3120, 608.1201
426.5060, 451.6279
427.7000, 486.1699
428.8930, 364.7461
430.0860, 265.3564
431.2790, 186.9980
432.4720, 118.8125
433.6650, 64.37891
434.8580, 62.11523
436.0500, 15.88477
437.2420, 76.68164
438.4340, 66.49219
439.6260, 144.6650
440.8180, 127.6768
442.0090, 117.9111
443.2010, 211.1680
444.3920, 110.2881
445.5830, 63.63379
446.7740, 171.7676
447.9640, 40.66504
449.1550, 76.86230
450.3450, 181.6582
451.5350, 71.02637
452.7250, 6.598633
453.9150, 84.41602
455.1050, 28.79980
456.2940, 70.33203
457.4830, 99.27051
458.6720, 244.2979
459.8610, 182.4844
461.0500, 260.4902
462.2390, 403.8945
463.4270, 392.0801
464.6150, 586.2861
465.8040, 688.9209
466.9910, 558.7842
468.1790, 542.3486
469.3670, 599.3652
470.5540, 646.1074
471.7410, 578.4609
472.9280, 428.2695
474.1150, 401.5664
475.3020, 285.3672
476.4890, 334.1826
477.6750, 130.0068
478.8610, 222.8535
480.0470, 77.71680
481.2330, 182.1904
482.4190, 154.0771
483.6040, 112.9727
484.7900, 79.90625
485.9750, 4.853516
487.1600, 80.79297
488.3450, 126.7422
489.5290, 21.74023
490.7140, 185.7324
491.8980, 243.7461
493.0820, 393.8027
494.2660, 509.8906
495.4500, 600.9863
496.6340, 617.0898
497.8170, 876.2012
499.0010, 964.3242
500.1840, 1402.483
501.3670, 1337.658
502.5500, 1587.845
503.7320, 1664.038
504.9150, 1774.266
506.0970, 1749.498
507.2790, 2120.746
508.4610, 1950.002
509.6430, 2197.260
510.8250, 2083.526
512.0060, 2230.798
513.1870, 2292.072
514.3680, 2205.358
515.5490, 2354.667
516.7300, 2466.988
517.9110, 2613.321
519.0910, 2621.654
520.2710, 2670.990
521.4510, 2654.322
522.6310, 2295.655
523.8110, 2336.986
524.9910, 2127.325
526.1700, 1851.663
527.3490, 1901.004
528.5280, 1653.343
529.7070, 1574.681
530.8860, 1445.016
532.0650, 1605.351
533.2430, 1790.684
534.4210, 1765.013
535.5990, 1820.352
536.7770, 2010.688
537.9550, 2264.020
539.1320, 2399.344
540.3100, 2303.674
541.4870, 2422.009
542.6640, 2523.351
543.8410, 2316.734
545.0170, 2231.121
546.1940, 2391.511
547.3700, 2485.902
548.5470, 2543.289
549.7230, 3005.709
550.8980, 3151.123
552.0740, 3558.535
553.2500, 3726.939
554.4250, 4136.332
555.6000, 4072.738
556.7750, 4023.134
557.9500, 3795.521
559.1250, 3077.902
560.2990, 2542.297
561.4730, 2140.680
562.6480, 1805.050
563.8220, 1554.436
564.9950, 1290.477
566.1690, 1085.066
567.3430, 938.5117
568.5160, 799.8467
569.6890, 738.1680
570.8620, 651.9736
572.0350, 612.7646
573.2070, 575.0400
574.3800, 562.3008
575.5520, 569.5439
576.7240, 496.7715
577.8960, 392.9814
579.0680, 259.1738
580.2400, 189.2412
581.4110, 150.4492
582.5830, 284.4395
583.7540, 206.8535
584.9250, 132.3750
586.0950, 163.0410
587.2660, 20.90820
588.4370, 99.28320
589.6070, 36.93945
590.7770, 25.97266
591.9470, 73.61133
593.1170, 113.2520
594.2860, 88.61719
595.4560, 102.3057
596.6250, 135.3467
597.7940, 15.01758
598.9630, 48.56152
600.1320, 129.8916
601.3000, 62.46289
602.4690, 36.11816
603.6370, 15.84473
604.8050, 88.37012
605.9730, 70.62500
607.1410, 62.83496
608.3090, 35.06543
609.4760, 28.99219
610.6430, 156.0283
611.8100, 90.09082
612.9770, 132.4170
614.1440, 24.89746
615.3110, 145.8018
616.4770, 344.0283
617.6430, 172.8906
618.8090, 152.2646
619.9750, 240.1709
621.1410, 95.25098
622.3070, 351.6436
623.4720, 342.3906
624.6370, 418.8496
625.8020, 421.4189
626.9670, 426.9443
628.1320, 483.9443
629.2970, 648.8623
630.4610, 700.2764
631.6250, 661.1289
632.7890, 809.8262
633.9530, 1116.093
635.1170, 1108.003
636.2810, 1123.006
637.4440, 1416.297
638.6070, 1419.127
639.7700, 1788.388
640.9330, 2131.411
642.0960, 2260.445
643.2590, 2733.252
644.4210, 2933.834
645.5830, 3432.203
646.7450, 4009.724
647.9070, 4619.100
649.0690, 5424.840
650.2310, 6283.600
651.3920, 7345.574
652.5530, 8541.712
653.7140, 9968.386
654.8750, 11228.18
656.0360, 12527.96
657.1970, 14084.30
658.3570, 15234.23
659.5170, 16809.60
660.6770, 17913.47
661.8370, 19168.34
662.9970, 20617.26
664.1570, 21976.91
665.3160, 23447.80
666.4750, 24184.71
667.6340, 24202.62
668.7930, 23411.44
669.9520, 22019.37
671.1110, 19962.53
672.2690, 17579.38
673.4270, 15093.28
674.5850, 13230.91
675.7430, 11250.58
676.9010, 9800.984
678.0590, 8184.359
679.2160, 7095.695
680.3730, 6386.498
681.5300, 5756.512
682.6870, 5120.090
683.8440, 4383.225
685.0010, 4397.268
686.1570, 3886.470
687.3130, 4134.110
688.4690, 3299.109
689.6250, 3123.231
690.7810, 2700.220
691.9370, 2520.173
693.0920, 2293.090
694.2470, 2145.977
695.4020, 1945.821
696.5570, 1736.556
697.7120, 1678.841
698.8670, 1594.620
700.0210, 1316.316
701.1750, 1308.024
702.3290, 1132.846
703.4830, 1053.429
704.6370, 1099.155
705.7910, 1079.849
706.9440, 985.8779
708.0970, 1002.406
709.2510, 932.6797
710.4030, 997.2207
711.5560, 885.6377
712.7090, 722.9180
713.8610, 805.1611
715.0140, 808.3652
716.1660, 746.5322
717.3180, 890.6611
718.4690, 780.7529
719.6210, 693.8203
720.7730, 723.6875
721.9240, 649.6289
723.0750, 642.7793
724.2260, 640.6230
725.3770, 670.6592
726.5270, 740.4561
727.6780, 577.9648
728.8280, 716.7520
729.9780, 534.1064
731.1280, 584.9766
732.2780, 456.8242
733.4280, 446.2930
734.5770, 449.4971
735.7260, 338.3721
736.8760, 276.8262
738.0250, 281.5566
739.1730, 290.3555
740.3220, 268.6953
741.4700, 203.6221
742.6190, 211.7520
743.7670, 172.8428
744.9150, 175.4883
746.0630, 88.88867
747.2100, 265.5615
748.3580, 77.76660
749.5050, 161.2236
750.6520, 59.04980
751.7990, 107.3955
752.9460, 253.2305
754.0930, 119.5439
755.2390, 256.8223
756.3860, 17.07031
757.5320, 64.26367
758.6780, 123.4170
759.8240, 90.93750
760.9690, 172.0205
762.1150, 54.92578
763.2600, 71.03711
764.4060, 81.96289
765.5510, 109.8623
766.6950, 98.27344
767.8400, 162.4814
768.9850, 3.787109
770.1290, 82.11621
771.2730, 44.54395
772.4170, 95.94727
773.5610, 84.40527
774.7050, 59.83008
775.8480, 30.21777
776.9920, 66.43555
778.1350, 0.1777340
779.2780, 17.02637
780.4210, 78.18652
781.5640, 76.68555
782.7060, 123.3506
783.8490, 14.64160
784.9910, 51.30859
786.1330, 151.2236
787.2750, 10.11328
788.4170, 38.95898
789.5580, 127.7705
790.7000, 9.444336
791.8410, 44.70996
792.9820, 14.04395
794.1230, 8.430664
795.2640, 171.1348
796.4040, 54.67578
797.5450, 171.1855
798.6850, 119.9131
799.8250, 97.86523
800.9650, 6.428711
802.1050, 85.96582
803.2450, 2.333984
804.3840, 68.66699
805.5230, 74.97363
806.6630, 54.25488
807.8020, 26.51172
808.9400, 51.74023
810.0790, 40.70312
811.2170, 35.87793
812.3560, 56.24902
813.4940, 132.3516
814.6320, 143.4326
815.7700, 21.50586
816.9070, 30.48438
818.0450, 35.50781
819.1820, 173.5781
820.3190, 24.76562
821.4560, 24.99219
822.5930, 29.25781
823.7300, 1.438477
824.8670, 156.8906
826.0030, 56.67480
827.1390, 32.77832
828.2750, 121.7324
829.4110, 104.2246
830.5470, 84.29980
831.6820, 77.11328
832.8180, 18.49023
833.9530, 7.119141
835.0880, 105.7705
836.2230, 81.50781
837.3580, 42.77148
838.4920, 111.9814
839.6270, 110.1963
840.7610, 4.359375
841.8950, 2.505859
843.0290, 16.36426
844.1630, 15.74512
845.2960, 101.8418
846.4300, 17.92285
847.5630, 6.991211
848.6960, 88.04492
849.8290, 205.0859
850.9620, 80.11621
852.0940, 79.13379
853.2270, 218.1387
854.3590, 25.13281
855.4910, 283.1162
856.6230, 245.0889
857.7550, 179.0508
858.8870, 251.0029
860.0180, 200.9463
861.1500, 115.8789
862.2810, 142.8008
863.4120, 271.7285
864.5430, 208.6494
865.6730, 261.5879
866.8040, 239.5283
867.9340, 329.4961
869.0640, 79.45410
870.1940, 174.4053
871.3240, 124.3916
872.4540, 272.3691
873.5830, 168.3584
874.7130, 188.3467
875.8420, 371.3779
876.9710, 287.4346
878.1000, 339.5098
879.2290, 410.6064
880.3570, 327.6338
881.4860, 371.6748
882.6140, 544.7969
883.7420, 306.9062
884.8700, 338.0029
885.9980, 494.0479
887.1250, 398.8008
888.2530, 519.3750
889.3800, 379.4863
890.5070, 639.2578
891.6340, 539.3682
892.7610, 482.9424
893.8880, 501.9590
895.0140, 532.7773
896.1400, 653.2607
897.2670, 743.3662
898.3930, 607.7344
899.5180, 461.9668
900.6440, 577.3838
901.7700, 453.1377
902.8950, 436.9473
904.0200, 335.0391
905.1450, 473.8672
906.2700, 419.8271
907.3950, 456.1963
908.5190, 526.8994
909.6440, 493.4844
910.7680, 515.7578
911.8920, 755.4707
913.0160, 749.7305
914.1400, 718.2080
915.2630, 830.6689
916.3870, 731.3408
917.5100, 859.2285
918.6330, 918.3320
919.7560, 887.2637
920.8790, 1057.751
922.0010, 1119.992
923.1240, 1152.621
924.2460, 1312.011
925.3680, 1540.217
926.4900, 1427.878
927.6120, 1618.425
928.7340, 1897.966
929.8550, 1689.928
930.9760, 1626.278
932.0980, 1853.191
933.2190, 1810.629
934.3390, 1879.059
935.4600, 1830.417
936.5810, 1996.021
937.7010, 1967.365
938.8210, 1878.666
939.9410, 2026.948
941.0610, 1841.334
942.1810, 1682.598
943.3010, 1717.616
944.4200, 1621.915
945.5390, 1248.150
946.6580, 1309.629
947.7770, 1180.062
948.8960, 1165.733
950.0150, 1148.443
951.1330, 1082.189
952.2510, 833.4541
953.3690, 998.4834
954.4870, 904.9277
955.6050, 871.8027
956.7230, 1024.749
957.8400, 954.5254
958.9580, 962.8750
960.0750, 1073.875
961.1920, 1155.983
962.3090, 1273.784
963.4250, 1445.825
964.5420, 1587.883
965.6580, 1672.953
966.7740, 1505.047
967.8900, 1707.231
969.0060, 1850.847
970.1220, 2090.957
971.2380, 2138.133
972.3530, 2319.276
973.4680, 2281.290
974.5830, 2569.530
975.6980, 2768.609
976.8130, 2959.703
977.9280, 3177.442
979.0420, 3498.666
980.1560, 3788.006
981.2710, 4194.303
982.3850, 4585.584
983.4980, 5290.986
984.6120, 5870.406
985.7260, 6953.851
986.8390, 7991.319
987.9520, 9343.809
989.0650, 10931.32
990.1780, 13159.85
991.2910, 15754.41
992.4030, 18552.98
993.5160, 22125.58
994.6280, 26137.20
995.7400, 30499.84
996.8520, 34760.52
997.9640, 39031.19
999.0750, 42751.90
1000.187, 45698.63
1001.298, 46903.39
1002.409, 47736.14
1003.520, 47045.95
1004.631, 45127.76
1005.741, 42424.59
1006.852, 39954.45
1007.962, 36090.32
1009.072, 32382.23
1010.182, 29354.15
1011.292, 26253.09
1012.402, 23185.50
1013.511, 21010.49
1014.621, 18764.50
1015.730, 16638.52
1016.839, 15072.58
1017.948, 13171.65
1019.056, 11811.76
1020.165, 10262.94
1021.273, 9656.095
1022.382, 8642.269
1023.490, 7634.727
1024.598, 6824.945
1025.706, 6392.184
1026.813, 5773.457
1027.921, 5047.842
1029.028, 4701.294
1030.135, 4165.639
1031.242, 3868.011
1032.349, 3467.433
1033.456, 3339.893
1034.562, 2966.378
1035.668, 2826.904
1036.775, 2483.492
1037.881, 2507.103
1038.987, 2103.977
1040.092, 2140.679
1041.198, 2081.548
1042.303, 1912.323
1043.408, 1846.123
1044.514, 1642.399
1045.618, 1782.255
1046.723, 1574.039
1047.828, 1427.729
1048.932, 1221.671
1050.037, 1343.111
1051.141, 1561.778
1052.245, 1244.131
1053.349, 1200.199
1054.452, 1333.322
1055.556, 1077.465
1056.659, 1033.634
1057.762, 1112.826
1058.865, 905.1270
1059.968, 901.7070
1061.071, 766.9902
1062.174, 776.3057
1063.276, 754.6494
1064.378, 877.9062
1065.480, 839.1758
1066.582, 733.7402
1067.684, 839.8408
1068.786, 745.2754
1069.887, 819.7354
1070.988, 745.2129
1072.090, 753.7139
1073.191, 588.4180
1074.291, 701.9902
1075.392, 550.5410
1076.493, 735.1104
1077.593, 738.6982
1078.693, 714.3008
1079.793, 812.6924
1080.893, 826.3428
1081.993, 816.0889
1083.092, 918.1543
1084.192, 944.8564
1085.291, 906.5850
1086.390, 873.3418
1087.489, 883.0439
1088.588, 789.8857
1089.686, 728.8838
1090.785, 710.6162
1091.883, 707.4951
1092.981, 738.3721
1094.079, 606.1152
1095.177, 770.2822
1096.275, 644.2861
1097.373, 540.2998
1098.470, 496.3467
1099.567, 562.4053
1100.664, 531.4785
1101.761, 446.2578
1102.858, 533.3809
1103.954, 517.5156
1105.051, 381.6592
1106.147, 412.2891
1107.243, 444.4785
1108.339, 507.6816
1109.435, 421.8926
1110.531, 554.1152
1111.626, 305.3486
1112.722, 496.5898
1113.817, 596.8408
1114.912, 547.1006
1116.007, 669.3672
1117.101, 571.7012
1118.196, 772.7100
1119.290, 803.1240
1120.385, 889.7119
1121.479, 841.0176
1122.573, 707.3311
1123.666, 813.6514
1124.760, 636.9785
1125.853, 646.5488
1126.947, 559.8877
1128.040, 476.7959
1129.133, 386.6191
1130.226, 332.9775
1131.318, 250.3428
1132.411, 161.7129
1133.503, 329.0889
1134.596, 319.4697
1135.688, 341.8555
1136.780, 102.2500
1137.871, 278.6484
1138.963, 39.05273
1140.054, 58.57031
1141.146, 49.98242
1142.237, 212.3994
1143.328, 53.18066
1144.419, 24.23145
1145.509, 96.64551
1146.600, 80.16504
1147.690, 93.58594
1148.780, 116.0107
1149.870, 68.43848
1150.960, 3.130859
1152.050, 20.30078
1153.139, 58.81348
1154.229, 42.74902
1155.318, 39.67773
1156.407, 82.10645
1157.496, 31.58496
1158.585, 3.984375
1159.674, 36.55176
1160.762, 46.00977
1161.850, 108.3936
1162.939, 58.95898
1164.027, 30.45508
1165.114, 34.87988
1166.202, 91.28125
1167.290, 139.0283
1168.377, 229.7012
1169.464, 6.875977
1170.551, 74.54199
1171.638, 2.252930
1172.725, 26.16016
1173.812, 20.56934
1174.898, 10.81055
1175.984, 69.12012
1177.071, 19.48145
1178.157, 67.26562
1179.242, 19.91699
1180.328, 60.58301
1181.414, 94.28320
1182.499, 3.038086
1183.584, 16.80078
1184.669, 20.42188
1185.754, 20.67480
1186.839, 69.88867
1187.924, 23.09766
1189.008, 47.69727
1190.092, 114.5264
1191.177, 111.5762
1192.260, 149.6729
1193.344, 61.76367
1194.428, 104.1504
1195.512, 135.1318
1196.595, 43.19629
1197.678, 2.295898
1198.761, 84.59082
1199.844, 42.47070
1200.927, 37.34375
1202.009, 48.20898
1203.092, 102.9307
1204.174, 36.14160
1205.256, 90.61230
1206.338, 31.35938
1207.420, 165.0977
1208.502, 46.83008
1209.583, 12.44629
1210.665, 97.25391
1211.746, 80.05566
1212.827, 52.42578
1213.908, 53.15625
1214.988, 212.7295
1216.069, 87.29492
1217.149, 5.851563
1218.230, 123.3896
1219.310, 13.08203
1220.390, 87.58301
1221.470, 89.14551
1222.549, 87.72949
1223.629, 37.16113
1224.708, 4.772461
1225.787, 100.0029
1226.866, 96.22461
1227.945, 97.43457
1229.024, 129.6377
1230.103, 97.83105
1231.181, 0.9873050
1232.259, 211.1680
1233.337, 79.31152
1234.415, 272.4453
1235.493, 4.568359
1236.571, 105.6641
1237.648, 65.75000
1238.726, 178.8232
1239.803, 173.8857
1240.880, 153.9355
1241.957, 149.9746
1243.034, 144.9922
1244.110, 96.01758
1245.187, 130.0215
1246.263, 60.01270
1247.339, 23.99219
1248.415, 45.96387
1249.491, 37.60059
1250.566, 89.84180
1251.642, 104.7598
1252.717, 110.6660
1253.793, 166.5625
1254.868, 42.44531
1255.943, 84.31250
1257.017, 183.1660
1258.092, 76.00977
1259.166, 145.8379
1260.241, 303.6562
1261.315, 161.4609
1262.389, 297.2520
1263.462, 203.0508
1264.536, 287.8359
1265.610, 171.0449
1266.683, 206.8047
1267.756, 205.5527
1268.829, 65.28711
1269.902, 116.0078
1270.975, 322.7168
1272.048, 186.4121
1273.120, 176.6523
1274.192, 273.3223
1275.264, 69.98047
1276.336, 260.6328
1277.408, 235.2617
1278.480, 189.8809
1279.551, 142.4863
1280.623, 102.0156
1281.694, 79.59375
1282.765, 124.1582
1283.836, 312.4473
1284.907, 171.9863
1285.977, 87.51367
1287.048, 231.0254
1288.118, 113.4414
