##NAMES=Kanoite
##RRUFFID=R061134
##IDEAL CHEMISTRY=Mn^2+^MgSi_2_O_6_
##LOCALITY=Balmat, St. Lawrence County, New York, USA
##OWNER=RRUFF
##SOURCE=Michael Scott
##DESCRIPTION=Yellowish brown granular aggregate
##STATUS=The identification of this mineral has been confirmed by X-ray diffraction and chemical analysis
##URL=rruff.info/R061134
##MEASURED CHEMISTRY=(Mn^2+^_0.88_Ca_0.12_)_Σ=1_(Mg_0.98_Fe^3+^_0.02_)_Σ=1_(Si_0.98_Al_0.02_)_2_O_6_
##PIN_ID=M00188
##ORIENTATION=Laser parallel to b* (0 1 0). Fiducial mark perpendicular to laser is parallel to c [0 0 1]
97.86200, 0.0000000E+00
99.10300, 3.218262
100.3440, 175.9956
101.5850, 275.2114
102.8250, 507.5254
104.0650, 613.0181
105.3050, 906.1055
106.5450, 1207.053
107.7850, 1458.823
109.0250, 1432.013
110.2640, 1453.011
111.5030, 1425.905
112.7420, 1448.180
113.9810, 1315.024
115.2200, 1198.530
116.4580, 1088.061
117.6970, 796.9902
118.9350, 562.6270
120.1730, 378.3721
121.4100, 367.5957
122.6480, 278.5269
123.8850, 333.3491
125.1230, 297.2124
126.3600, 458.2388
127.5960, 441.5283
128.8330, 620.1772
130.0700, 612.0571
131.3060, 781.8062
132.5420, 728.4370
133.7780, 683.5420
135.0140, 639.9072
136.2500, 582.3164
137.4850, 517.8232
138.7200, 448.2808
139.9550, 387.7568
141.1900, 354.4980
142.4250, 297.4702
143.6600, 318.6191
144.8940, 302.7793
146.1280, 285.9453
147.3620, 303.3818
148.5960, 289.0991
149.8300, 307.4688
151.0630, 277.6538
152.2960, 246.8379
153.5300, 221.0142
154.7620, 238.1748
155.9950, 181.3198
157.2280, 100.4512
158.4600, 140.5718
159.6920, 18.31641
160.9250, 4.789551
162.1560, 9.894531
163.3880, 34.99756
164.6200, 85.88477
165.8510, 51.76660
167.0820, 46.64307
168.3130, 57.51318
169.5440, 32.37695
170.7750, 44.88525
172.0050, 17.07959
173.2350, 55.88379
174.4650, 23.62500
175.6950, 29.29736
176.9250, 33.90039
178.1550, 5.709961
179.3840, 97.23486
180.6130, 44.98486
181.8420, 211.5620
183.0710, 237.7139
184.3000, 361.9585
185.5280, 511.2065
186.7570, 582.7861
187.9850, 743.5186
189.2130, 775.8130
190.4400, 892.1465
191.6680, 747.6821
192.8960, 855.9536
194.1230, 591.2349
195.3500, 653.5264
196.5770, 544.8281
197.8030, 347.1392
199.0300, 231.4614
200.2560, 251.7944
201.4830, 304.1372
202.7090, 220.4731
203.9340, 202.7773
205.1600, 224.0015
206.3860, 299.1157
207.6110, 236.1416
208.8360, 347.1025
210.0610, 373.9976
211.2860, 535.8428
212.5100, 508.6792
213.7350, 631.5376
214.9590, 576.4150
216.1830, 530.3101
217.4070, 557.2202
218.6310, 596.1470
219.8540, 541.0879
221.0780, 487.0620
222.3010, 450.0659
223.5240, 434.1094
224.7470, 420.2075
225.9690, 431.3828
227.1920, 372.5840
228.4140, 271.8096
229.6360, 275.0537
230.8580, 313.3076
232.0800, 348.5708
233.3020, 239.8433
234.5230, 163.1255
235.7440, 222.4170
236.9650, 197.7173
238.1860, 177.0269
239.4070, 263.3452
240.6280, 146.6719
241.8480, 188.0078
243.0680, 190.3521
244.2880, 267.7051
245.5080, 282.7500
246.7280, 286.3403
247.9470, 247.2974
249.1660, 314.4663
250.3860, 202.7744
251.6040, 209.1694
252.8230, 237.6211
254.0420, 109.1040
255.2600, 75.59619
256.4790, 39.07910
257.6970, 74.54541
258.9150, 84.98926
260.1320, 68.40918
261.3500, 65.37500
262.5670, 41.64160
263.7840, 21.39502
265.0010, 21.41455
266.2180, 40.30469
267.4350, 83.27148
268.6510, 14.67969
269.8680, 7.420410
271.0840, 15.57227
272.3000, 27.77393
273.5160, 32.02441
274.7310, 25.32178
275.9470, 33.27832
277.1620, 45.80078
278.3770, 64.10010
279.5920, 89.52490
280.8070, 61.18311
282.0210, 113.0312
283.2360, 53.75781
284.4500, 50.38574
285.6640, 75.00977
286.8780, 113.6421
288.0920, 124.2817
289.3050, 116.9263
290.5180, 149.5742
291.7320, 174.1719
292.9450, 215.8799
294.1570, 261.5454
295.3700, 314.2148
296.5830, 385.8936
297.7950, 429.6045
299.0070, 483.4224
300.2190, 531.0361
301.4310, 587.7568
302.6420, 655.4805
303.8540, 729.2183
305.0650, 752.9604
306.2760, 849.0625
307.4870, 851.3804
308.6980, 1012.147
309.9080, 1075.188
311.1190, 1137.072
312.3290, 1337.136
313.5390, 1388.559
314.7490, 1686.338
315.9580, 1846.732
317.1680, 2016.376
318.3770, 2116.803
319.5860, 2261.828
320.7950, 2410.910
322.0040, 2395.667
323.2130, 2483.164
324.4210, 2463.157
325.6290, 2390.960
326.8380, 2289.744
328.0460, 2140.538
329.2530, 1990.235
330.4610, 1747.928
331.6680, 1572.583
332.8760, 1339.196
334.0830, 1269.810
335.2890, 1012.427
336.4960, 987.0483
337.7030, 820.6714
338.9090, 813.2979
340.1150, 794.9282
341.3210, 677.1514
342.5270, 572.8672
343.7330, 644.8687
344.9380, 541.3164
346.1440, 545.2207
347.3490, 482.4463
348.5540, 506.7051
349.7590, 490.3369
350.9630, 555.2305
352.1680, 545.6367
353.3720, 599.3057
354.5760, 573.7412
355.7800, 471.0015
356.9840, 514.8848
358.1870, 470.1440
359.3910, 426.8369
360.5940, 510.5342
361.7970, 513.2354
363.0000, 533.9419
364.2030, 542.3535
365.4050, 512.3677
366.6080, 527.0869
367.8100, 528.8330
369.0120, 537.5601
370.2140, 556.2915
371.4150, 581.0264
372.6170, 565.7646
373.8180, 577.9316
375.0190, 646.2515
376.2200, 551.9995
377.4210, 617.7510
378.6220, 564.5049
379.8220, 671.2627
381.0230, 708.0234
382.2230, 913.7871
383.4230, 1060.554
384.6220, 1117.323
385.8220, 1218.096
387.0220, 1391.871
388.2210, 1382.649
389.4200, 1509.431
390.6190, 1569.213
391.8180, 1561.992
393.0160, 1567.769
394.2150, 1339.540
395.4130, 1228.306
396.6110, 949.0659
397.8090, 631.8198
399.0060, 655.5664
400.2040, 467.3066
401.4010, 452.9604
402.5980, 233.6875
403.7950, 300.4082
404.9920, 257.1226
406.1890, 172.8306
407.3860, 123.4385
408.5820, 183.8379
409.7780, 201.9922
410.9740, 113.9341
412.1700, 73.15625
413.3650, 94.29883
414.5610, 63.23877
415.7560, 48.64844
416.9510, 13.27490
418.1460, 110.6187
419.3410, 84.36816
420.5360, 92.81689
421.7300, 49.35840
422.9240, 94.97510
424.1180, 94.62939
425.3120, 151.2329
426.5060, 87.88916
427.7000, 60.58154
428.8930, 110.2578
430.0860, 66.99316
431.2790, 67.65625
432.4720, 175.3223
433.6650, 218.1553
434.8580, 203.8687
436.0500, 240.6069
437.2420, 195.9741
438.4340, 337.7534
439.6260, 454.8975
440.8180, 674.2021
442.0090, 737.0498
443.2010, 994.7300
444.3920, 1276.535
445.5830, 1530.218
446.7740, 2058.277
447.9640, 2427.117
449.1550, 2862.802
450.3450, 3228.921
451.5350, 3557.627
452.7250, 3711.338
453.9150, 3603.121
455.1050, 3602.880
456.2940, 3623.731
457.4830, 3751.829
458.6720, 4047.689
459.8610, 4308.547
461.0500, 4593.479
462.2390, 4603.367
463.4270, 4186.275
464.6150, 3414.201
465.8040, 2635.140
466.9910, 1688.095
468.1790, 1271.054
469.3670, 816.0142
470.5540, 642.9746
471.7410, 394.9360
472.9280, 317.8989
474.1150, 333.8623
475.3020, 237.8281
476.4890, 128.7974
477.6750, 83.77100
478.8610, 161.7607
480.0470, 131.7539
481.2330, 91.74805
482.4190, 138.7432
483.6040, 31.26172
484.7900, 0.7187500
485.9750, 9.296387
487.1600, 34.31445
488.3450, 6.348633
489.5290, 46.37402
490.7140, 14.42188
491.8980, 68.45996
493.0820, 56.53174
494.2660, 48.63232
495.4500, 26.24316
496.6340, 17.12891
497.8170, 25.98535
499.0010, 4.109375
500.1840, 13.23682
501.3670, 56.62891
502.5500, 92.49463
503.7320, 31.35938
504.9150, 28.22314
506.0970, 29.08545
507.2790, 72.94727
508.4610, 49.81445
509.6430, 16.68799
510.8250, 133.5728
512.0060, 136.4766
513.1870, 64.39404
514.3680, 57.32764
515.5490, 106.2676
516.7300, 173.2065
517.9110, 199.1445
519.0910, 225.8955
520.2710, 214.0190
521.4510, 243.9551
522.6310, 217.8901
523.8110, 208.8320
524.9910, 198.2896
526.1700, 175.9341
527.3490, 154.6709
528.5280, 138.6206
529.7070, 113.5679
530.8860, 95.51416
532.0650, 149.4590
533.2430, 78.40088
534.4210, 121.3418
535.5990, 223.2886
536.7770, 107.2329
537.9550, 111.1753
539.1320, 136.1143
540.3100, 191.0518
541.4870, 104.9868
542.6640, 197.9185
543.8410, 166.8491
545.0170, 214.7769
546.1940, 182.7095
547.3700, 155.6392
548.5470, 138.5835
549.7230, 220.5269
550.8980, 248.4697
552.0740, 242.4209
553.2500, 292.3867
554.4250, 292.3843
555.6000, 283.3823
556.7750, 224.3857
557.9500, 176.3960
559.1250, 179.4165
560.2990, 229.4497
561.4730, 156.4937
562.6480, 167.5347
563.8220, 45.57324
564.9950, 92.60840
566.1690, 80.65186
567.3430, 109.6919
568.5160, 13.73975
569.6890, 15.78271
570.8620, 24.83643
572.0350, 58.88770
573.2070, 63.93604
574.3800, 4.984863
575.5520, 34.02734
576.7240, 29.07129
577.8960, 21.87939
579.0680, 21.15088
580.2400, 17.82422
581.4110, 99.81689
582.5830, 8.129883
583.7540, 137.0703
584.9250, 19.00635
586.0950, 88.93701
587.2660, 31.13770
588.4370, 12.76172
589.6070, 69.65576
590.7770, 0.5532230
591.9470, 60.46289
593.1170, 55.42676
594.2860, 39.30518
595.4560, 117.1768
596.6250, 36.04297
597.7940, 4.003906
598.9630, 44.91895
600.1320, 51.87305
601.3000, 38.81104
602.4690, 183.8296
603.6370, 176.6543
604.8050, 217.3662
605.9730, 323.3208
607.1410, 330.1782
608.3090, 516.9741
609.4760, 586.9766
610.6430, 718.7578
611.8100, 941.8149
612.9770, 1256.856
614.1440, 1634.615
615.3110, 1884.868
616.4770, 2200.147
617.6430, 2269.857
618.8090, 2141.169
619.9750, 1958.574
621.1410, 1655.358
622.3070, 1470.061
623.4720, 1312.827
624.6370, 1296.053
625.8020, 1400.721
626.9670, 1384.208
628.1320, 1596.063
629.2970, 1617.300
630.4610, 1648.418
631.6250, 1756.451
632.7890, 1625.239
633.9530, 1635.622
635.1170, 1522.656
636.2810, 1499.576
637.4440, 1583.488
638.6070, 1777.255
639.7700, 1914.626
640.9330, 2122.616
642.0960, 2630.170
643.2590, 2945.715
644.4210, 3529.250
645.5830, 3933.777
646.7450, 4316.294
647.9070, 4661.163
649.0690, 4734.334
650.2310, 4707.599
651.3920, 4743.703
652.5530, 4768.817
653.7140, 4900.080
654.8750, 5201.329
656.0360, 5438.919
657.1970, 5874.363
658.3570, 6278.800
659.5170, 6685.806
660.6770, 6961.203
661.8370, 7393.829
662.9970, 7836.054
664.1570, 8112.155
665.3160, 8285.507
666.4750, 8226.039
667.6340, 7927.829
668.7930, 7580.145
669.9520, 6861.746
671.1110, 6085.040
672.2690, 5284.323
673.4270, 4661.975
674.5850, 3926.852
675.7430, 3313.173
676.9010, 2999.408
678.0590, 2417.632
679.2160, 2116.941
680.3730, 1840.142
681.5300, 1518.330
682.6870, 1350.619
683.8440, 1153.782
685.0010, 954.4839
686.1570, 923.6240
687.3130, 855.7959
688.4690, 805.1318
689.6250, 551.3677
690.7810, 663.4565
691.9370, 542.5430
693.0920, 469.0869
694.2470, 489.2241
695.4020, 345.2612
696.5570, 434.2856
697.7120, 406.2974
698.8670, 310.4092
700.0210, 350.3940
701.1750, 388.3647
702.3290, 295.3223
703.4830, 296.2661
704.6370, 214.6123
705.7910, 271.6729
706.9440, 312.9346
708.0970, 276.7075
709.2510, 226.5933
710.4030, 258.9648
711.5560, 278.8120
712.7090, 171.4922
713.8610, 202.1445
715.0140, 159.9561
716.1660, 219.0244
717.3180, 217.1055
718.4690, 139.7617
719.6210, 287.1709
720.7730, 208.2749
721.9240, 219.8247
723.0750, 184.5288
724.2260, 227.0947
725.3770, 213.7705
726.5270, 142.0566
727.6780, 247.5493
728.8280, 169.1670
729.9780, 97.36621
731.1280, 82.97266
732.2780, 186.5645
733.4280, 121.0874
734.5770, 108.6514
735.7260, 77.12988
736.8760, 85.36865
738.0250, 11.85107
739.1730, 76.33447
740.3220, 23.25342
741.4700, 156.1870
742.6190, 16.61377
743.7670, 64.01855
744.9150, 85.40869
746.0630, 110.7852
747.2100, 50.14746
748.3580, 131.4941
749.5050, 41.82666
750.6520, 42.14355
751.7990, 137.4448
752.9460, 27.73145
754.0930, 26.00098
755.2390, 12.25098
756.3860, 31.52051
757.5320, 19.66357
758.6780, 74.82715
759.8240, 109.9771
760.9690, 74.11377
762.1150, 60.23633
763.2600, 8.352051
764.4060, 47.44531
765.5510, 135.5259
766.6950, 21.39844
767.8400, 75.64062
768.9850, 40.32178
770.1290, 53.67041
771.2730, 93.66650
772.4170, 44.66455
773.5610, 14.34033
774.7050, 28.62061
775.8480, 19.56689
776.9920, 91.50146
778.1350, 126.4243
779.2780, 130.0259
780.4210, 148.5474
781.5640, 151.1265
782.7060, 94.00244
783.8490, 108.8657
784.9910, 1.283691
786.1330, 6.457031
787.2750, 24.65869
788.4170, 54.01709
789.5580, 38.70166
790.7000, 41.52051
791.8410, 9.898438
792.9820, 35.69531
794.1230, 67.27686
795.2640, 65.84619
796.4040, 9.403320
797.5450, 105.9438
798.6850, 21.47266
799.8250, 13.01221
800.9650, 11.52490
802.1050, 63.93604
803.2450, 22.38867
804.3840, 8.171875
805.5230, 134.2441
806.6630, 13.64844
807.8020, 81.03955
808.9400, 135.4204
810.0790, 8.791016
811.2170, 12.85303
812.3560, 37.47754
813.4940, 114.7979
814.6320, 116.0576
815.7700, 28.40771
816.9070, 119.6968
818.0450, 136.9771
819.1820, 21.24658
820.3190, 100.5063
821.4560, 15.24414
822.5930, 92.98193
823.7300, 55.80127
824.8670, 5.370605
826.0030, 9.530762
827.1390, 78.68018
828.2750, 36.82178
829.4110, 17.04688
830.5470, 16.06348
831.6820, 122.1636
832.8180, 46.25488
833.9530, 76.33789
835.0880, 4.412598
836.2230, 85.47852
837.3580, 88.53516
838.4920, 48.58447
839.6270, 37.62598
840.7610, 36.34082
841.8950, 0.6635740
843.0290, 36.34229
844.1630, 87.62402
845.2960, 49.41748
846.4300, 9.492676
847.5630, 104.4189
848.6960, 14.67627
849.8290, 88.21289
850.9620, 18.90381
852.0940, 40.03760
853.2270, 47.80127
854.3590, 86.64258
855.4910, 2.522949
856.6230, 128.3105
857.7550, 84.16602
858.8870, 96.01709
860.0180, 139.8618
861.1500, 5.701172
862.2810, 12.53613
863.4120, 93.37598
864.5430, 39.78906
865.6730, 108.0225
866.8040, 150.8101
867.9340, 157.5337
869.0640, 87.33301
870.1940, 148.1284
871.3240, 201.9194
872.4540, 172.6060
873.5830, 20.32568
874.7130, 125.9961
875.8420, 148.6733
876.9710, 86.25928
878.1000, 221.0288
879.2290, 245.9019
880.3570, 125.5205
881.4860, 180.2280
882.6140, 259.9858
883.7420, 81.52832
884.8700, 340.2808
885.9980, 328.7485
887.1250, 256.2217
888.2530, 246.9673
889.3800, 345.2095
890.5070, 270.4146
891.6340, 347.1816
892.7610, 379.3359
893.8880, 396.3877
895.0140, 413.0503
896.1400, 295.7866
897.2670, 255.4487
898.3930, 293.0547
899.5180, 309.7183
900.6440, 300.2725
901.7700, 303.8022
902.8950, 299.2505
904.0200, 251.5786
905.1450, 293.3071
906.2700, 231.9033
907.3950, 243.6382
908.5190, 205.2031
909.6440, 227.6177
910.7680, 167.0215
911.8920, 189.2373
913.0160, 186.7480
914.1400, 228.7183
915.2630, 201.4604
916.3870, 253.2051
917.5100, 264.9512
918.6330, 404.6992
919.7560, 384.4492
920.8790, 376.8398
922.0010, 335.9229
923.1240, 374.8823
924.2460, 382.8062
925.3680, 390.0547
926.4900, 451.3042
927.6120, 414.2798
928.7340, 444.9731
929.8550, 425.7559
930.9760, 430.5552
932.0980, 428.8726
933.2190, 318.6313
934.3390, 447.2812
935.4600, 398.2979
936.5810, 470.4346
937.7010, 380.9468
938.8210, 508.6484
939.9410, 425.1025
941.0610, 430.0220
942.1810, 468.6528
943.3010, 326.5850
944.4200, 369.5283
945.5390, 309.0981
946.6580, 261.4395
947.7770, 264.3325
948.8960, 245.6694
950.0150, 240.7031
951.1330, 282.1782
952.2510, 253.1733
953.3690, 314.1753
954.4870, 342.0708
955.6050, 176.0874
956.7230, 266.5610
957.8400, 328.5928
958.9580, 184.5859
960.0750, 269.4116
961.1920, 310.3330
962.3090, 392.3960
963.4250, 459.4575
964.5420, 433.0640
965.6580, 542.8423
966.7740, 582.4727
967.8900, 706.2905
969.0060, 734.4126
970.1220, 835.4292
971.2380, 952.6396
972.3530, 1019.718
973.4680, 1301.876
974.5830, 1518.044
975.6980, 1740.805
976.8130, 2219.849
977.9280, 2774.687
979.0420, 3859.900
980.1560, 5777.002
981.2710, 8437.651
982.3850, 12232.90
983.4980, 17225.31
984.6120, 25310.59
985.7260, 37983.82
986.8390, 50321.76
987.9520, 56619.07
989.0650, 53026.37
990.1780, 41396.57
991.2910, 27004.91
992.4030, 17193.26
993.5160, 12767.62
994.6280, 10846.02
995.7400, 10447.42
996.8520, 10749.84
997.9640, 10993.27
999.0750, 11319.73
1000.187, 11405.19
1001.298, 11144.65
1002.409, 11112.13
1003.520, 10396.62
1004.631, 9568.124
1005.741, 8886.639
1006.852, 7856.167
1007.962, 7146.728
1009.072, 6369.318
1010.182, 5545.920
1011.292, 4977.551
1012.402, 4205.190
1013.511, 3869.850
1014.621, 3433.521
1015.730, 2979.206
1016.839, 2605.903
1017.948, 2263.614
1019.056, 2134.339
1020.165, 1948.077
1021.273, 1720.829
1022.382, 1481.603
1023.490, 1225.393
1024.598, 1201.198
1025.706, 1114.021
1026.813, 949.8721
1027.921, 920.7402
1029.028, 757.6211
1030.135, 731.5156
1031.242, 555.4233
1032.349, 664.3447
1033.456, 405.2847
1034.562, 488.2393
1035.668, 533.2061
1036.775, 443.1997
1037.881, 392.2065
1038.987, 331.2446
1040.092, 412.2969
1041.198, 201.3618
1042.303, 309.4419
1043.408, 134.5459
1044.514, 397.6655
1045.618, 263.8018
1046.723, 228.9512
1047.828, 325.1260
1048.932, 197.3145
1050.037, 125.5176
1051.141, 148.7334
1052.245, 168.9629
1053.349, 201.2061
1054.452, 119.4697
1055.556, 74.75391
1056.659, 79.06445
1057.762, 16.58887
1058.865, 6.216797
1059.968, 86.06055
1061.071, 8.060547
1062.174, 22.40039
1063.276, 60.99121
1064.378, 43.77637
1065.480, 71.18652
1066.582, 3.189453
1067.684, 72.32324
1068.786, 9.857422
1069.887, 38.39746
1070.988, 134.5312
1072.090, 163.8945
1073.191, 137.4873
1074.291, 65.09277
1075.392, 153.7109
1076.493, 109.5303
1077.593, 104.6914
1078.693, 147.3477
1079.793, 236.3340
1080.893, 292.0225
1081.993, 240.0078
1083.092, 231.7197
1084.192, 331.4434
1085.291, 164.1797
1086.390, 105.9268
1087.489, 45.68652
1088.588, 143.4648
1089.686, 158.2549
1090.785, 93.05566
1091.883, 64.88672
1092.981, 193.7295
1094.079, 240.5859
1095.177, 235.4521
1096.275, 308.0537
1097.373, 352.9512
1098.470, 375.8584
1099.567, 495.7764
1100.664, 570.7334
1101.761, 654.7002
1102.858, 693.6816
1103.954, 493.6729
1105.051, 585.6748
1106.147, 492.6924
1107.243, 409.7207
1108.339, 345.7715
1109.435, 243.8320
1110.531, 191.2646
1111.626, 195.3574
1112.722, 175.5879
1113.817, 43.60449
1114.912, 193.7617
1116.007, 291.9336
1117.101, 228.1162
1118.196, 238.3125
1119.290, 292.5303
1120.385, 305.7568
1121.479, 362.9980
1122.573, 371.2510
1123.666, 450.5117
1124.760, 448.0029
1125.853, 533.6523
1126.947, 547.9414
1128.040, 590.2393
1129.133, 715.5576
1130.226, 938.8857
1131.318, 1030.230
1132.411, 1468.592
1133.503, 1973.960
1134.596, 2325.338
1135.688, 2779.725
1136.780, 3458.121
1137.871, 3906.526
1138.963, 4156.524
1140.054, 4221.717
1141.146, 4136.146
1142.237, 4064.586
1143.328, 3878.971
1144.419, 3626.562
1145.509, 3332.941
1146.600, 2966.416
1147.690, 2551.896
1148.780, 2139.392
1149.870, 1774.893
1150.960, 1446.402
1152.050, 1250.917
1153.139, 970.4326
1154.229, 995.9600
1155.318, 710.4932
1156.407, 845.0332
1157.496, 761.5781
1158.585, 799.1309
1159.674, 840.6875
1160.762, 836.2500
1161.850, 955.8174
1162.939, 1257.398
1164.027, 1475.985
1165.114, 1655.578
1166.202, 1721.177
1167.290, 1798.779
1168.377, 1723.387
1169.464, 1434.999
1170.551, 1271.615
1171.638, 998.2363
1172.725, 810.8623
1173.812, 763.6641
1174.898, 618.2979
1175.984, 444.0576
1177.071, 349.6992
1178.157, 359.0537
1179.242, 281.7051
1180.328, 82.35938
1181.414, 197.0840
1182.499, 15.74512
1183.584, 140.4092
1184.669, 163.0762
1185.754, 137.7461
1186.839, 148.5898
1187.924, 96.14746
1189.008, 138.1797
1190.092, 20.04004
1191.177, 10.36523
1192.260, 58.75781
1193.344, 60.11230
1194.428, 62.49121
1195.512, 125.1006
1196.595, 73.30566
1197.678, 110.3486
1198.761, 25.90918
1199.844, 23.52832
1200.927, 6.605469
1202.009, 67.05664
1203.092, 45.45898
1204.174, 49.97559
1205.256, 73.49316
1206.338, 21.98926
1207.420, 8.480469
1208.502, 16.02148
1209.583, 3.474609
1210.665, 61.02344
1211.746, 2.476563
1212.827, 13.01855
1213.908, 43.51465
1214.988, 72.00977
1216.069, 26.50488
1217.149, 64.99902
1218.230, 6.504883
1219.310, 82.01270
1220.390, 89.51855
1221.470, 11.02344
1222.549, 117.5283
1223.629, 89.03027
1224.708, 81.53223
1225.787, 24.96777
1226.866, 31.51465
1227.945, 70.99609
1229.024, 61.47559
1230.103, 88.07227
1231.181, 72.54785
1232.259, 47.54492
1233.337, 46.01562
1234.415, 54.48535
1235.493, 25.71191
1236.571, 25.35352
1237.648, 123.8135
1238.726, 170.2705
1239.803, 11.27539
1240.880, 157.1846
1241.957, 14.44824
1243.034, 1.068359
1244.110, 108.3496
1245.187, 92.76270
1246.263, 70.17285
1247.339, 122.3311
1248.415, 125.2363
1249.491, 148.3779
1250.566, 155.7764
1251.642, 153.1660
1252.717, 93.55078
1253.793, 15.92969
1254.868, 68.69824
1255.943, 48.62402
1257.017, 91.94043
1258.092, 67.91504
1259.166, 94.22168
1260.241, 37.52344
1261.315, 111.3740
1262.389, 98.66406
1263.462, 115.9502
1264.536, 214.4600
1265.610, 88.09961
1266.683, 58.36816
1267.756, 51.09961
1268.829, 21.94434
1269.902, 38.30371
1270.975, 58.65527
1272.048, 63.82910
1273.120, 104.9980
1274.192, 128.1592
1275.264, 40.31543
1276.336, 56.90332
