##NAMES=Kanoite
##RRUFFID=R061134
##IDEAL CHEMISTRY=Mn^2+^MgSi_2_O_6_
##LOCALITY=Balmat, St. Lawrence County, New York, USA
##OWNER=RRUFF
##SOURCE=Michael Scott
##DESCRIPTION=Yellowish brown granular aggregate
##STATUS=The identification of this mineral has been confirmed by X-ray diffraction and chemical analysis
##URL=rruff.info/R061134
##MEASURED CHEMISTRY=(Mn^2+^_0.88_Ca_0.12_)_Σ=1_(Mg_0.98_Fe^3+^_0.02_)_Σ=1_(Si_0.98_Al_0.02_)_2_O_6_
##PIN_ID=M00188
##ORIENTATION=Laser parallel to b* (0 1 0). Fiducial mark perpendicular to laser is parallel to c [0 0 1]
97.86200, 0.0000000E+00
99.10300, 120.9224
100.3440, 318.9702
101.5850, 365.9941
102.8250, 746.3564
104.0650, 862.7012
105.3050, 1254.657
106.5450, 1530.483
107.7850, 1729.289
109.0250, 1789.686
110.2640, 1842.219
111.5030, 1879.769
112.7420, 1851.510
113.9810, 1764.619
115.2200, 1710.978
116.4580, 1477.807
117.6970, 1289.005
118.9350, 1030.724
120.1730, 795.7212
121.4100, 639.5220
122.6480, 560.4663
123.8850, 521.8198
125.1230, 501.7983
126.3600, 573.5781
127.5960, 620.3442
128.8330, 799.7207
130.0700, 942.0796
131.3060, 984.4053
132.5420, 1054.907
133.7780, 1044.438
135.0140, 870.1533
136.2500, 878.1880
137.4850, 660.5723
138.7200, 638.4546
139.9550, 576.3530
141.1900, 537.3477
142.4250, 406.8096
143.6600, 334.6719
144.8940, 332.5796
146.1280, 378.5073
147.3620, 279.4561
148.5960, 258.4268
149.8300, 184.4185
151.0630, 188.4287
152.2960, 275.4453
153.5300, 151.4590
154.7620, 110.4644
155.9950, 118.4570
157.2280, 28.43896
158.4600, 32.58594
159.6920, 13.61621
160.9250, 98.64893
162.1560, 104.6802
163.3880, 72.70557
164.6200, 43.72168
165.8510, 19.72656
167.0820, 32.71826
168.3130, 129.6968
169.5440, 152.6606
170.7750, 54.60986
172.0050, 80.45605
173.2350, 26.42480
174.4650, 50.21143
175.6950, 56.89258
176.9250, 81.46680
178.1550, 47.36035
179.3840, 30.42969
180.6130, 36.34033
181.8420, 94.59229
183.0710, 166.7383
184.3000, 340.1943
185.5280, 371.5562
186.7570, 536.7549
187.9850, 455.9062
189.2130, 597.5820
190.4400, 520.8730
191.6680, 494.1885
192.8960, 605.5225
194.1230, 730.8730
195.3500, 582.2412
196.5770, 369.6260
197.8030, 394.0273
199.0300, 272.4453
200.2560, 303.8804
201.4830, 301.3320
202.7090, 345.7432
203.9340, 292.0234
205.1600, 275.1890
206.3860, 294.3076
207.6110, 516.2705
208.8360, 483.1528
210.0610, 604.0146
211.2860, 566.8047
212.5100, 666.5371
213.7350, 675.2881
214.9590, 635.0708
216.1830, 677.8823
217.4070, 570.7197
218.6310, 690.5830
219.8540, 700.4717
221.0780, 542.3853
222.3010, 520.3232
223.5240, 472.2852
224.7470, 461.2817
225.9690, 419.3667
227.1920, 463.5068
228.4140, 330.6782
229.6360, 509.8994
230.8580, 323.1748
232.0800, 311.4800
233.3020, 363.8037
234.5230, 296.1455
235.7440, 334.5063
236.9650, 283.8838
238.1860, 309.2793
239.4070, 281.6924
240.6280, 238.1226
241.8480, 333.5688
243.0680, 276.0332
244.2880, 208.5137
245.5080, 303.3364
246.7280, 320.3076
247.9470, 324.9019
249.1660, 242.8828
250.3860, 254.1177
251.6040, 88.51758
252.8230, 197.0273
254.0420, 104.6021
255.2600, 77.20312
256.4790, 75.80420
257.6970, 44.39014
258.9150, 35.34717
260.1320, 27.51758
261.3500, 24.94775
262.5670, 29.33398
263.7840, 56.62207
265.0010, 49.18945
266.2180, 99.12012
267.4350, 114.1699
268.6510, 12.66650
269.8680, 60.43018
271.0840, 33.86816
272.3000, 41.76172
273.5160, 81.65869
274.7310, 5.842285
275.9470, 22.82178
277.1620, 42.17041
278.3770, 11.95947
279.5920, 63.62891
280.8070, 99.94971
282.0210, 94.20117
283.2360, 144.3501
284.4500, 103.3462
285.6640, 201.2554
286.8780, 113.1807
288.0920, 128.1167
289.3050, 137.0610
290.5180, 215.0137
291.7320, 245.9727
292.9450, 273.0010
294.1570, 424.9116
295.3700, 356.8911
296.5830, 342.8770
297.7950, 448.8696
299.0070, 496.8848
300.2190, 598.9160
301.4310, 574.9668
302.6420, 568.0347
303.8540, 682.1055
305.0650, 804.9517
306.2760, 829.0527
307.4870, 991.8765
308.6980, 1043.810
309.9080, 1216.938
311.1190, 1232.376
312.3290, 1424.375
313.5390, 1594.617
314.7490, 1706.836
315.9580, 1971.662
317.1680, 2140.691
318.3770, 2339.915
319.5860, 2499.809
320.7950, 2682.253
322.0040, 2728.317
323.2130, 2715.878
324.4210, 2577.611
325.6290, 2714.287
326.8380, 2444.530
328.0460, 2248.744
329.2530, 2091.843
330.4610, 2042.942
331.6680, 1835.021
332.8760, 1578.047
334.0830, 1599.058
335.2890, 1276.068
336.4960, 1157.085
337.7030, 1061.109
338.9090, 938.1406
340.1150, 876.8408
341.3210, 754.2241
342.5270, 748.2759
343.7330, 665.3350
344.9380, 577.4009
346.1440, 680.4731
347.3490, 531.5522
348.5540, 589.6387
349.7590, 702.7095
350.9630, 655.2603
352.1680, 755.3701
353.3720, 622.7168
354.5760, 646.7803
355.7800, 673.9165
356.9840, 673.0625
358.1870, 693.4487
359.3910, 661.4375
360.5940, 700.6851
361.7970, 669.1875
363.0000, 630.3799
364.2030, 638.5811
365.4050, 700.7910
366.6080, 643.0098
367.8100, 786.2373
369.0120, 648.4736
370.2140, 779.7178
371.4150, 810.9707
372.6170, 761.2314
373.8180, 848.4995
375.0190, 728.7749
376.2200, 863.0581
377.4210, 880.3477
378.6220, 984.6445
379.8220, 976.9482
381.0230, 1158.259
382.2230, 1256.576
383.4230, 1485.900
384.6220, 1674.231
385.8220, 1818.569
387.0220, 1889.913
388.2210, 2119.264
389.4200, 2157.620
390.6190, 2172.983
391.8180, 2068.347
393.0160, 2178.709
394.2150, 1972.067
395.4130, 1738.419
396.6110, 1424.766
397.8090, 1101.104
399.0060, 939.4375
400.2040, 831.7627
401.4010, 596.0811
402.5980, 564.3921
403.7950, 387.6958
404.9920, 344.2510
406.1890, 263.5078
407.3860, 163.7852
408.5820, 314.0630
409.7780, 68.02490
410.9740, 206.8037
412.1700, 47.59229
413.3650, 42.21582
414.5610, 32.47266
415.7560, 47.18311
416.9510, 72.52930
418.1460, 62.07275
419.3410, 122.1709
420.5360, 151.4507
421.7300, 137.6787
422.9240, 151.9668
424.1180, 154.1538
425.3120, 130.5615
426.5060, 142.8203
427.7000, 147.0840
428.8930, 119.3516
430.0860, 152.6260
431.2790, 189.9062
432.4720, 171.1914
433.6650, 130.4814
434.8580, 234.7773
436.0500, 271.0791
437.2420, 348.3857
438.4340, 438.6973
439.6260, 571.0146
440.8180, 688.3369
442.0090, 936.2578
443.2010, 1172.753
444.3920, 1507.114
445.5830, 1851.742
446.7740, 2299.430
447.9640, 2652.266
449.1550, 3383.477
450.3450, 4023.461
451.5350, 4757.941
452.7250, 5384.481
453.9150, 5817.564
455.1050, 6424.816
456.2940, 7031.045
457.4830, 7946.568
458.6720, 8830.167
459.8610, 9935.811
461.0500, 10558.48
462.2390, 10727.16
463.4270, 9734.857
464.6150, 8011.567
465.8040, 5961.297
466.9910, 4174.053
468.1790, 3121.830
469.3670, 2049.621
470.5540, 1426.413
471.7410, 1245.209
472.9280, 969.0146
474.1150, 622.8232
475.3020, 667.6357
476.4890, 483.4512
477.6750, 394.2705
478.8610, 240.0928
480.0470, 131.9189
481.2330, 166.7549
482.4190, 245.5957
483.6040, 121.4570
484.7900, 170.3340
485.9750, 128.2295
487.1600, 134.1309
488.3450, 62.03418
489.5290, 57.94141
490.7140, 106.8604
491.8980, 46.21973
493.0820, 101.3145
494.2660, 100.5449
495.4500, 49.57520
496.6340, 44.70312
497.8170, 91.15234
499.0010, 72.00977
500.1840, 24.13086
501.3670, 81.27734
502.5500, 3.461914
503.7320, 49.64453
504.9150, 109.1514
506.0970, 51.96973
507.2790, 73.81543
508.4610, 100.0049
509.6430, 53.52148
510.8250, 128.3838
512.0060, 88.24707
513.1870, 186.1113
514.3680, 245.9766
515.5490, 149.8408
516.7300, 184.7070
517.9110, 254.5742
519.0910, 82.44043
520.2710, 234.3115
521.4510, 204.2051
522.6310, 163.0977
523.8110, 122.0000
524.9910, 162.9033
526.1700, 111.8066
527.3490, 126.7100
528.5280, 125.6123
529.7070, 81.52734
530.8860, 74.44141
532.0650, 204.3545
533.2430, 89.26758
534.4210, 257.2031
535.5990, 120.1650
536.7770, 254.1514
537.9550, 313.1494
539.1320, 69.14648
540.3100, 38.14160
541.4870, 215.1367
542.6640, 208.1309
543.8410, 245.1260
545.0170, 322.1201
546.1940, 150.1143
547.3700, 284.1182
548.5470, 140.1230
549.7230, 167.1289
550.8980, 215.1328
552.0740, 257.1621
553.2500, 171.2227
554.4250, 362.3203
555.6000, 388.4199
556.7750, 190.5176
557.9500, 313.6299
559.1250, 173.7422
560.2990, 171.8809
561.4730, 192.0273
562.6480, 171.1914
563.8220, 97.36035
564.9950, 75.54199
566.1690, 222.7236
567.3430, 106.9043
568.5160, 110.0820
569.6890, 249.2588
570.8620, 53.43652
572.0350, 97.62500
573.2070, 150.7969
574.3800, 117.9678
575.5520, 136.6289
576.7240, 83.30176
577.8960, 102.4639
579.0680, 125.6230
580.2400, 100.8086
581.4110, 69.96191
582.5830, 53.88867
583.7540, 25.77637
584.9250, 41.68555
586.0950, 29.55957
587.2660, 3.524414
588.4370, 5.499023
589.6070, 37.48438
590.7770, 17.38086
591.9470, 26.51172
593.1170, 24.48047
594.2860, 0.5244140
595.4560, 2.582031
596.6250, 17.65234
597.7940, 37.71582
598.9630, 41.27539
600.1320, 82.05859
601.3000, 49.01758
602.4690, 111.0850
603.6370, 48.66113
604.8050, 184.5049
605.9730, 291.3730
607.1410, 159.2031
608.3090, 331.0264
609.4760, 412.8428
610.6430, 485.6504
611.8100, 758.6182
612.9770, 793.8193
614.1440, 1060.803
615.3110, 1138.578
616.4770, 1342.415
617.6430, 1506.328
618.8090, 1400.096
619.9750, 1203.840
621.1410, 1062.142
622.3070, 1067.093
623.4720, 1051.158
624.6370, 985.6807
625.8020, 1103.212
626.9670, 1000.282
628.1320, 1097.068
629.2970, 1143.936
630.4610, 1314.468
631.6250, 1128.120
632.7890, 1213.083
633.9530, 1173.267
635.1170, 1151.143
636.2810, 1101.776
637.4440, 1173.443
638.6070, 1123.165
639.7700, 1350.746
640.9330, 1401.548
642.0960, 1696.828
643.2590, 1985.307
644.4210, 2307.529
645.5830, 2677.742
646.7450, 2934.150
647.9070, 3380.040
649.0690, 3591.668
650.2310, 3985.751
651.3920, 4360.229
652.5530, 4743.693
653.7140, 5133.148
654.8750, 5453.592
656.0360, 6042.023
657.1970, 6426.444
658.3570, 6809.127
659.5170, 7431.010
660.6770, 7773.486
661.8370, 8032.009
662.9970, 8566.373
664.1570, 8955.848
665.3160, 8973.338
666.4750, 9007.661
667.6340, 8611.976
668.7930, 8315.914
669.9520, 7496.201
671.1110, 6724.475
672.2690, 6026.925
673.4270, 5229.513
674.5850, 4432.874
675.7430, 3803.882
676.9010, 3303.092
678.0590, 2670.283
679.2160, 2376.463
680.3730, 2019.627
681.5300, 1590.821
682.6870, 1555.245
683.8440, 1416.536
685.0010, 1171.644
686.1570, 1102.846
687.3130, 834.9678
688.4690, 777.1201
689.6250, 695.2969
690.7810, 639.9824
691.9370, 637.9990
693.0920, 500.0088
694.2470, 630.9961
695.4020, 531.9678
696.5570, 454.9238
697.7120, 391.0625
698.8670, 352.1211
700.0210, 349.2480
701.1750, 453.5957
702.3290, 183.8857
703.4830, 238.7168
704.6370, 312.8516
705.7910, 215.8359
706.9440, 275.6465
708.0970, 168.6045
709.2510, 315.0713
710.4030, 133.8525
711.5560, 292.5967
712.7090, 324.4980
713.8610, 265.2080
715.0140, 382.9453
716.1660, 152.6221
717.3180, 290.2812
718.4690, 129.9287
719.6210, 150.5537
720.7730, 224.1621
721.9240, 216.0049
723.0750, 147.5732
724.2260, 113.1055
725.3770, 166.3604
726.5270, 334.2129
727.6780, 247.5664
728.8280, 244.2158
729.9780, 113.9951
731.1280, 117.8457
732.2780, 240.2061
733.4280, 142.0361
734.5770, 123.7012
735.7260, 113.3867
736.8760, 89.77930
738.0250, 28.87695
739.1730, 94.43457
740.3220, 66.72461
741.4700, 31.00293
742.6190, 187.2432
743.7670, 108.4834
744.9150, 144.7090
746.0630, 175.9180
747.2100, 147.1113
748.3580, 192.2900
749.5050, 74.45215
750.6520, 10.59766
751.7990, 66.71484
752.9460, 122.8154
754.0930, 96.90137
755.2390, 75.96875
756.3860, 109.0215
757.5320, 179.0576
758.6780, 6.079102
759.8240, 59.07031
760.9690, 38.95605
762.1150, 14.72461
763.2600, 31.15332
764.4060, 41.67871
765.5510, 83.49316
766.6950, 61.29102
767.8400, 0.9277340
768.9850, 131.8213
770.1290, 45.55566
771.2730, 183.2822
772.4170, 39.98340
773.5610, 8.299805
774.7050, 146.3584
775.8480, 72.01172
776.9920, 114.6494
778.1350, 101.2715
779.2780, 156.8838
780.4210, 104.5010
781.5640, 157.1035
782.7060, 49.29688
783.8490, 68.75195
784.9910, 2.726563
786.1330, 66.17969
787.2750, 1.382813
788.4170, 100.0244
789.5580, 117.4189
790.7000, 135.8008
791.8410, 143.2393
792.9820, 118.6729
794.1230, 104.8623
795.2640, 33.18945
796.4040, 19.50098
797.5450, 60.20605
798.6850, 51.03027
799.8250, 11.74805
800.9650, 55.44141
802.1050, 47.61816
803.2450, 97.78125
804.3840, 92.93164
805.5230, 23.93066
806.6630, 107.1719
807.8020, 134.2607
808.9400, 33.33789
810.0790, 68.59473
811.2170, 81.58594
812.3560, 76.63965
813.4940, 32.75684
814.6320, 131.0889
815.7700, 119.9209
816.9070, 72.74316
818.0450, 58.55371
819.1820, 12.35352
820.3190, 26.13770
821.4560, 107.9111
822.5930, 37.67188
823.7300, 52.42285
824.8670, 40.16211
826.0030, 29.88965
827.1390, 17.39551
828.2750, 62.29590
829.4110, 54.97656
830.5470, 180.6465
831.6820, 108.3066
832.8180, 80.95703
833.9530, 5.597656
835.0880, 18.22656
836.2230, 1.845703
837.3580, 19.09863
838.4920, 18.96387
839.6270, 28.40234
840.7610, 1.869141
841.8950, 4.652344
843.0290, 63.16504
844.1630, 1.666992
845.2960, 10.83984
846.4300, 31.63770
847.5630, 48.09277
848.6960, 0.4462890
849.8290, 50.54492
850.9620, 20.44824
852.0940, 66.88379
853.2270, 80.31055
854.3590, 25.73242
855.4910, 72.11523
856.6230, 137.5215
857.7550, 22.92090
858.8870, 85.33008
860.0180, 180.7422
861.1500, 168.0947
862.2810, 24.51660
863.4120, 79.93750
864.5430, 183.3525
865.6730, 24.22559
866.8040, 49.84766
867.9340, 181.5098
869.0640, 163.8994
870.1940, 213.8379
871.3240, 198.6748
872.4540, 253.0371
873.5830, 173.3193
874.7130, 176.7998
875.8420, 181.0938
876.9710, 108.2686
878.1000, 261.9219
879.2290, 112.2969
880.3570, 210.6387
881.4860, 246.0059
882.6140, 230.3691
883.7420, 395.7295
884.8700, 188.0869
885.9980, 287.2734
887.1250, 464.2148
888.2530, 314.3652
889.3800, 383.7090
890.5070, 333.9834
891.6340, 298.4287
892.7610, 304.4922
893.8880, 271.8262
895.0140, 324.5938
896.1400, 344.7002
897.2670, 418.6807
898.3930, 554.1953
899.5180, 330.6914
900.6440, 359.6367
901.7700, 268.8555
902.8950, 332.9844
904.0200, 291.4375
905.1450, 252.7598
906.2700, 332.7852
907.3950, 273.1064
908.5190, 279.1738
909.6440, 223.2471
910.7680, 196.5703
911.8920, 216.7656
913.0160, 207.0898
914.1400, 263.4150
915.2630, 283.7412
916.3870, 365.0684
917.5100, 435.3975
918.6330, 484.0459
919.7560, 410.5020
920.8790, 386.4648
922.0010, 428.6240
923.1240, 508.4766
924.2460, 508.8779
925.3680, 467.2832
926.4900, 537.6904
927.6120, 514.1016
928.7340, 518.5156
929.8550, 585.9336
930.9760, 524.0820
932.0980, 612.0215
933.2190, 533.3789
934.3390, 484.6914
935.4600, 495.1670
936.5810, 480.5215
937.7010, 423.8750
938.8210, 470.3857
939.9410, 471.9160
941.0610, 363.8096
942.1810, 374.3496
943.3010, 393.8965
944.4200, 485.1240
945.5390, 335.3496
946.6580, 229.7930
947.7770, 302.5830
948.8960, 201.1641
950.0150, 215.7695
951.1330, 129.3838
952.2510, 173.0059
953.3690, 250.5889
954.4870, 325.9355
955.6050, 354.4082
956.7230, 306.0596
957.8400, 266.6230
958.9580, 321.2598
960.0750, 149.8613
961.1920, 354.4307
962.3090, 461.4834
963.4250, 385.2051
964.5420, 518.9258
965.6580, 632.6621
966.7740, 633.4150
967.8900, 568.2002
969.0060, 714.8096
970.1220, 654.4902
971.2380, 904.0977
972.3530, 982.4746
973.4680, 1151.904
974.5830, 1295.786
975.6980, 1701.364
976.8130, 1992.087
977.9280, 2693.975
979.0420, 3665.710
980.1560, 5349.928
981.2710, 8054.823
982.3850, 11687.75
983.4980, 16221.52
984.6120, 22869.47
985.7260, 32789.39
986.8390, 43320.36
987.9520, 49863.33
989.0650, 49634.32
990.1780, 40208.32
991.2910, 27320.33
992.4030, 17289.36
993.5160, 12407.39
994.6280, 10655.43
995.7400, 10043.49
996.8520, 10082.56
997.9640, 10398.63
999.0750, 10819.72
1000.187, 10846.93
1001.298, 10829.60
1002.409, 10533.73
1003.520, 9952.868
1004.631, 9272.022
1005.741, 8401.188
1006.852, 7471.363
1007.962, 6580.550
1009.072, 5893.766
1010.182, 5150.994
1011.292, 4548.233
1012.402, 4074.488
1013.511, 3636.758
1014.621, 3244.039
1015.730, 2917.337
1016.839, 2521.647
1017.948, 2202.974
1019.056, 2150.312
1020.165, 1797.662
1021.273, 1600.031
1022.382, 1330.413
1023.490, 1253.812
1024.598, 1155.221
1025.706, 1020.643
1026.813, 885.0762
1027.921, 739.5215
1029.028, 897.9854
1030.135, 578.4629
1031.242, 738.9707
1032.349, 507.5039
1033.456, 458.0635
1034.562, 508.6396
1035.668, 441.2285
1036.775, 342.8281
1037.881, 298.4502
1038.987, 323.0830
1040.092, 289.5791
1041.198, 329.3877
1042.303, 292.0762
1043.408, 292.7861
1044.514, 249.5088
1045.618, 382.2461
1046.723, 200.9932
1047.828, 120.7539
1048.932, 61.52734
1050.037, 287.3125
1051.141, 208.1094
1052.245, 198.9014
1053.349, 143.7676
1054.452, 254.6523
1055.556, 63.72656
1056.659, 131.4014
1057.762, 19.32910
1058.865, 38.26758
1059.968, 87.21582
1061.071, 59.17578
1062.174, 129.1465
1063.276, 36.12891
1064.378, 115.1230
1065.480, 33.70703
1066.582, 59.48828
1067.684, 79.32617
1068.786, 57.39648
1069.887, 122.3770
1070.988, 144.4688
1072.090, 113.5615
1073.191, 114.6748
1074.291, 114.8311
1075.392, 53.59473
1076.493, 48.17188
1077.593, 145.0557
1078.693, 206.2676
1079.793, 92.51660
1080.893, 188.7988
1081.993, 259.8047
1083.092, 213.1191
1084.192, 261.4434
1085.291, 128.7754
1086.390, 294.1182
1087.489, 41.46875
1088.588, 154.8311
1089.686, 169.9707
1090.785, 181.3740
1091.883, 52.76758
1092.981, 132.1709
1094.079, 19.58203
1095.177, 119.1826
1096.275, 199.6182
1097.373, 144.0615
1098.470, 275.1582
1099.567, 247.8359
1100.664, 210.4473
1101.761, 343.9229
1102.858, 412.4082
1103.954, 214.9014
1105.051, 356.4092
1106.147, 236.9297
1107.243, 271.2236
1108.339, 139.7695
1109.435, 213.3223
1110.531, 296.8818
1111.626, 287.4531
1112.722, 154.0332
1113.817, 140.6201
1114.912, 136.2686
1116.007, 363.0088
1117.101, 237.6162
1118.196, 324.2305
1119.290, 317.8506
1120.385, 354.4775
1121.479, 326.1104
1122.573, 350.0781
1123.666, 381.3916
1124.760, 384.0420
1125.853, 356.6973
1126.947, 388.8369
1128.040, 416.0537
1129.133, 553.7383
1130.226, 545.4258
1131.318, 794.6094
1132.411, 689.3291
1133.503, 1002.065
1134.596, 1146.806
1135.688, 1627.551
1136.780, 1953.301
1137.871, 2232.055
1138.963, 2523.814
1140.054, 2574.578
1141.146, 2796.346
1142.237, 2808.118
1143.328, 2657.896
1144.419, 2664.402
1145.509, 2302.196
1146.600, 2161.432
1147.690, 1782.232
1148.780, 1498.011
1149.870, 1320.819
1150.960, 1009.629
1152.050, 943.4727
1153.139, 678.2900
1154.229, 569.0459
1155.318, 555.8691
1156.407, 585.6953
1157.496, 488.5244
1158.585, 330.3574
1159.674, 285.1934
1160.762, 372.1084
1161.850, 400.9502
1162.939, 521.7920
1164.027, 756.6377
1165.114, 600.6309
1166.202, 800.4785
1167.290, 775.3291
1168.377, 800.1816
1169.464, 696.0352
1170.551, 492.8916
1171.638, 430.7480
1172.725, 271.6074
1173.812, 301.4678
1174.898, 162.4697
1175.984, 84.33105
1177.071, 266.1934
1178.157, 289.3408
1179.242, 124.2041
1180.328, 131.0674
1181.414, 27.93164
1182.499, 38.20508
1183.584, 158.6426
1184.669, 141.4893
1185.754, 151.6641
1186.839, 48.89746
1187.924, 81.84473
1189.008, 199.5859
1190.092, 40.32520
1191.177, 24.06445
1192.260, 78.80469
1193.344, 121.5420
1194.428, 28.27930
1195.512, 73.98535
1196.595, 44.29004
1197.678, 28.62109
1198.761, 56.02930
1199.844, 77.32227
1200.927, 140.2822
1202.009, 46.11523
1203.092, 15.45801
1204.174, 30.43750
1205.256, 3.668945
1206.338, 7.891602
1207.420, 11.41113
1208.502, 232.1328
1209.583, 138.6738
1210.665, 126.2139
1211.746, 52.25098
1212.827, 48.25000
1213.908, 183.7461
1214.988, 228.2402
1216.069, 107.7305
1217.149, 92.21680
1218.230, 37.70117
1219.310, 50.81934
1220.390, 20.89160
1221.470, 186.4014
1222.549, 95.83789
1223.629, 62.27148
1224.708, 7.299805
1225.787, 39.17285
1226.866, 71.58398
1227.945, 13.82031
1229.024, 70.43457
1230.103, 37.09961
1231.181, 65.20312
1232.259, 102.5020
1233.337, 79.79688
1234.415, 167.0859
1235.493, 156.3701
1236.571, 13.34863
1237.648, 144.9111
1238.726, 294.1680
1239.803, 95.42090
1240.880, 219.2725
1241.957, 102.5137
1243.034, 224.7500
1244.110, 30.98047
1245.187, 20.20605
1246.263, 226.4561
1247.339, 61.66895
1248.415, 150.0312
1249.491, 175.2354
1250.566, 51.44238
1251.642, 50.63477
1252.717, 119.8213
1253.793, 167.0020
1254.868, 176.1768
1255.943, 45.34668
1257.017, 97.50977
1258.092, 50.66699
1259.166, 61.48242
1260.241, 18.56348
1261.315, 132.3516
1262.389, 150.5000
1263.462, 210.6094
1264.536, 189.7139
1265.610, 178.9707
1266.683, 228.9014
1267.756, 167.9834
1268.829, 112.0605
1269.902, 234.1309
1270.975, 204.1943
1272.048, 132.2500
1273.120, 17.14258
1274.192, 271.3223
1275.264, 3.352539
1276.336, 247.3604
