##NAMES=Kanoite
##RRUFFID=R061134
##IDEAL CHEMISTRY=Mn^2+^MgSi_2_O_6_
##LOCALITY=Balmat, St. Lawrence County, New York, USA
##OWNER=RRUFF
##SOURCE=Michael Scott
##DESCRIPTION=Yellowish brown granular aggregate
##STATUS=The identification of this mineral has been confirmed by X-ray diffraction and chemical analysis
##URL=rruff.info/R061134
##MEASURED CHEMISTRY=(Mn^2+^_0.88_Ca_0.12_)_Σ=1_(Mg_0.98_Fe^3+^_0.02_)_Σ=1_(Si_0.98_Al_0.02_)_2_O_6_
##PIN_ID=M00160
##ORIENTATION=Laser parallel to c* (0 0 1). Fiducial mark perpendicular to laser is parallel to a [1 0 0]
109.0250, 0.0000000E+00
110.2640, 10.12500
111.5030, 6.276367
112.7420, 153.2344
113.9810, 100.4346
115.2200, 171.0898
116.4580, 211.0889
117.6970, 156.9844
118.9350, 105.7363
120.1730, 244.5674
121.4100, 301.8770
122.6480, 210.1914
123.8850, 463.1348
125.1230, 473.3984
126.3600, 616.7324
127.5960, 842.9277
128.8330, 853.8047
130.0700, 1073.203
131.3060, 1002.979
132.5420, 1177.010
133.7780, 1325.193
135.0140, 1478.445
136.2500, 1584.688
137.4850, 1553.855
138.7200, 1638.047
139.9550, 1562.119
141.1900, 1588.334
142.4250, 1404.656
143.6600, 1362.229
144.8940, 1129.309
146.1280, 1148.568
147.3620, 1051.391
148.5960, 892.7266
149.8300, 844.5312
151.0630, 683.0996
152.2960, 547.7812
153.5300, 436.5547
154.7620, 333.6270
155.9950, 239.8320
157.2280, 206.0273
158.4600, 185.5938
159.6920, 201.5137
160.9250, 136.6406
162.1560, 22.37500
163.3880, 59.28906
164.6200, 36.51367
165.8510, 60.02930
167.0820, 156.8340
168.3130, 80.91992
169.5440, 298.2734
170.7750, 207.8926
172.0050, 204.7676
173.2350, 251.8945
174.4650, 180.2637
175.6950, 84.87305
176.9250, 244.7129
178.1550, 298.7793
179.3840, 316.0664
180.6130, 438.5703
181.8420, 272.2812
183.0710, 270.1426
184.3000, 363.9609
185.5280, 385.7754
186.7570, 522.6113
187.9850, 418.4941
189.2130, 790.4336
190.4400, 626.4453
191.6680, 940.0625
192.8960, 840.2305
194.1230, 862.5078
195.3500, 996.8848
196.5770, 1029.361
197.8030, 1105.189
199.0300, 1277.705
200.2560, 1275.672
201.4830, 1354.891
202.7090, 1514.275
203.9340, 1421.914
205.1600, 1469.850
206.3860, 1606.033
207.6110, 1708.332
208.8360, 1816.762
210.0610, 1942.602
211.2860, 2089.922
212.5100, 2244.654
213.7350, 2436.486
214.9590, 2727.424
216.1830, 2772.459
217.4070, 2899.598
218.6310, 2731.840
219.8540, 2512.186
221.0780, 2400.631
222.3010, 2126.176
223.5240, 1669.822
224.7470, 1714.566
225.9690, 1500.410
227.1920, 1676.352
228.4140, 1491.391
229.6360, 1344.525
230.8580, 1226.801
232.0800, 1209.168
233.3020, 1022.629
234.5230, 1110.184
235.7440, 807.8262
236.9650, 796.5625
238.1860, 636.3867
239.4070, 671.2988
240.6280, 782.2988
241.8480, 651.3867
243.0680, 703.4004
244.2880, 574.8184
245.5080, 674.1621
246.7280, 604.5898
247.9470, 607.0996
249.1660, 562.6875
250.3860, 648.3613
251.6040, 659.1133
252.8230, 490.9434
254.0420, 360.8516
255.2600, 452.8359
256.4790, 415.7852
257.6970, 524.4043
258.9150, 421.2754
260.1320, 493.7441
261.3500, 427.6016
262.5670, 256.7969
263.7840, 171.3008
265.0010, 237.0801
266.2180, 328.1172
267.4350, 243.3926
268.6510, 143.8906
269.8680, 279.5957
271.0840, 65.49219
272.3000, 322.5781
273.5160, 40.16211
274.7310, 175.2617
275.9470, 81.84570
277.1620, 282.1230
278.3770, 455.0039
279.5920, 432.0254
280.8070, 505.1797
282.0210, 519.8555
283.2360, 411.9355
284.4500, 480.4688
285.6640, 529.1172
286.8780, 477.8145
288.0920, 507.5879
289.3050, 441.3867
290.5180, 478.0898
291.7320, 598.7617
292.9450, 587.5840
294.1570, 654.5195
295.3700, 811.6660
296.5830, 917.3105
297.7950, 851.5625
299.0070, 897.9902
300.2190, 1120.105
301.4310, 1243.432
302.6420, 1470.494
303.8540, 1610.193
305.0650, 1815.240
306.2760, 2095.514
307.4870, 2162.934
308.6980, 2402.430
309.9080, 2684.021
311.1190, 2909.717
312.3290, 3519.500
313.5390, 3800.389
314.7490, 4407.363
315.9580, 4819.406
317.1680, 5550.516
318.3770, 5989.689
319.5860, 6554.930
320.7950, 7264.258
322.0040, 7540.646
323.2130, 7558.117
324.4210, 7566.668
325.6290, 7450.279
326.8380, 7041.945
328.0460, 6488.678
329.2530, 6143.465
330.4610, 5630.307
331.6680, 5304.207
332.8760, 4703.160
334.0830, 4365.229
335.2890, 3939.229
336.4960, 3632.344
337.7030, 3214.514
338.9090, 2897.734
340.1150, 2648.006
341.3210, 2381.336
342.5270, 2282.662
343.7330, 2169.146
344.9380, 2201.629
346.1440, 2349.162
347.3490, 2424.744
348.5540, 2497.375
349.7590, 2603.234
350.9630, 2599.711
352.1680, 2751.480
353.3720, 2686.295
354.5760, 2722.152
355.7800, 2934.055
356.9840, 2959.000
358.1870, 2930.986
359.3910, 2829.016
360.5940, 2887.086
361.7970, 2384.201
363.0000, 2514.354
364.2030, 2334.547
365.4050, 2637.781
366.6080, 2575.059
367.8100, 2148.373
369.0120, 2525.725
370.2140, 2662.115
371.4150, 3233.545
372.6170, 2957.012
373.8180, 2917.518
375.0190, 2936.062
376.2200, 2504.641
377.4210, 2617.258
378.6220, 2290.908
379.8220, 2361.596
381.0230, 2305.318
382.2230, 2312.074
383.4230, 2424.863
384.6220, 2751.688
385.8220, 2678.545
387.0220, 3059.438
388.2210, 3378.363
389.4200, 3574.322
390.6190, 3886.312
391.8180, 3862.334
393.0160, 3787.387
394.2150, 3547.473
395.4130, 3391.586
396.6110, 2830.732
397.8090, 2350.908
399.0060, 1799.113
400.2040, 1451.717
401.4010, 1271.643
402.5980, 908.9980
403.7950, 765.4141
404.9920, 761.8828
406.1890, 757.4082
407.3860, 537.9844
408.5820, 463.6094
409.7780, 360.2812
410.9740, 447.0039
412.1700, 621.7734
413.3650, 695.5879
414.5610, 498.4473
415.7560, 423.3496
416.9510, 494.2969
418.1460, 250.9902
419.3410, 438.0176
420.5360, 16.91211
421.7300, 114.1914
422.9240, 291.3340
424.1180, 150.5137
425.3120, 29.73242
426.5060, 3.986328
427.7000, 53.27539
428.8930, 80.60156
430.0860, 100.0391
431.2790, 2.681641
432.4720, 109.2910
433.6650, 111.9102
434.8580, 151.5391
436.0500, 62.19141
437.2420, 61.83398
438.4340, 12.47266
439.6260, 117.0332
440.8180, 227.7930
442.0090, 104.5898
443.2010, 194.3418
444.3920, 136.0020
445.5830, 56.21094
446.7740, 2.591797
447.9640, 6.966797
449.1550, 34.68750
450.3450, 23.41406
451.5350, 90.17578
452.7250, 236.6895
453.9150, 312.3809
455.1050, 539.1914
456.2940, 664.9922
457.4830, 905.1113
458.6720, 1317.064
459.8610, 1498.529
461.0500, 2059.551
462.2390, 2575.055
463.4270, 3215.104
464.6150, 3527.652
465.8040, 3619.793
466.9910, 3027.828
468.1790, 2567.445
469.3670, 1962.559
470.5540, 1670.766
471.7410, 1225.754
472.9280, 1042.908
474.1150, 963.6289
475.3020, 594.3613
476.4890, 609.1152
477.6750, 449.8809
478.8610, 268.6738
480.0470, 376.4863
481.2330, 329.3301
482.4190, 240.1875
483.6040, 149.0586
484.7900, 123.9414
485.9750, 207.8594
487.1600, 202.7910
488.3450, 171.7383
489.5290, 362.6953
490.7140, 144.6621
491.8980, 36.36133
493.0820, 240.5898
494.2660, 191.5547
495.4500, 283.5293
496.6340, 344.5156
497.8170, 335.5059
499.0010, 329.5098
500.1840, 771.5781
501.3670, 688.6562
502.5500, 1035.742
503.7320, 998.8398
504.9150, 834.9512
506.0970, 788.0723
507.2790, 624.2148
508.4610, 966.3711
509.6430, 1109.537
510.8250, 1012.711
512.0060, 1021.904
513.1870, 1177.102
514.3680, 1283.342
515.5490, 1195.590
516.7300, 1531.842
517.9110, 1404.113
519.0910, 1556.428
520.2710, 1545.742
521.4510, 1503.062
522.6310, 1414.389
523.8110, 1451.762
524.9910, 1380.137
526.1700, 1058.561
527.3490, 1276.980
528.5280, 1073.422
529.7070, 949.8652
530.8860, 1125.307
532.0650, 873.7480
533.2430, 1182.189
534.4210, 1215.631
535.5990, 1367.072
536.7770, 1333.545
537.9550, 1533.016
539.1320, 1736.486
540.3100, 1524.984
541.4870, 1653.477
542.6640, 1603.973
543.8410, 1618.467
545.0170, 1553.959
546.1940, 1620.447
547.3700, 1498.930
548.5470, 1620.410
549.7230, 1685.885
550.8980, 1910.357
552.0740, 2056.863
553.2500, 2386.361
554.4250, 2168.854
555.6000, 2224.338
556.7750, 2061.828
557.9500, 1946.314
559.1250, 1609.791
560.2990, 1544.262
561.4730, 1191.721
562.6480, 1141.633
563.8220, 729.0781
564.9950, 785.5117
566.1690, 682.9375
567.3430, 426.3535
568.5160, 475.6973
569.6890, 361.0898
570.8620, 340.4707
572.0350, 276.9082
573.2070, 295.0020
574.3800, 440.9004
575.5520, 398.6309
576.7240, 433.4785
577.8960, 306.2734
579.0680, 212.0391
580.2400, 136.6680
581.4110, 27.51367
582.5830, 15.44727
583.7540, 86.90039
584.9250, 58.99414
586.0950, 189.7383
587.2660, 29.81641
588.4370, 66.68164
589.6070, 159.5039
590.7770, 33.52539
591.9470, 72.45703
593.1170, 42.63281
594.2860, 65.07812
595.4560, 15.02344
596.6250, 82.30859
597.7940, 18.68359
598.9630, 84.88672
600.1320, 275.4922
601.3000, 47.02930
602.4690, 143.5371
603.6370, 47.97070
604.8050, 184.8066
605.9730, 30.91992
607.1410, 28.57812
608.3090, 188.3594
609.4760, 94.05078
610.6430, 52.29102
611.8100, 104.4688
612.9770, 96.17188
614.1440, 180.9395
615.3110, 208.1992
616.4770, 148.2969
617.6430, 223.4102
618.8090, 380.3125
619.9750, 268.0684
621.1410, 334.6211
622.3070, 181.2715
623.4720, 288.5684
624.6370, 304.6211
625.8020, 285.5078
626.9670, 472.4688
628.1320, 322.2969
629.2970, 293.2188
630.4610, 590.1191
631.6250, 579.2148
632.7890, 563.3203
633.9530, 730.2090
635.1170, 842.0254
636.2810, 692.2090
637.4440, 895.9844
638.6070, 831.7383
639.7700, 1021.820
640.9330, 1192.527
642.0960, 1531.215
643.2590, 1481.172
644.4210, 1667.289
645.5830, 1880.887
646.7450, 2371.652
647.9070, 2827.008
649.0690, 3133.605
650.2310, 3851.906
651.3920, 4365.213
652.5530, 4988.049
653.7140, 5684.273
654.8750, 6298.383
656.0360, 7053.777
657.1970, 7744.041
658.3570, 8446.652
659.5170, 9132.613
660.6770, 9741.053
661.8370, 10318.12
662.9970, 11059.10
664.1570, 11978.31
665.3160, 12432.21
666.4750, 12803.36
667.6340, 12706.35
668.7930, 12200.44
669.9520, 11537.50
671.1110, 10626.54
672.2690, 9202.551
673.4270, 7999.529
674.5850, 6861.328
675.7430, 5870.422
676.9010, 4948.312
678.0590, 4162.176
679.2160, 4075.443
680.3730, 3481.639
681.5300, 2746.232
682.6870, 2505.064
683.8440, 1973.771
685.0010, 2055.445
686.1570, 1836.090
687.3130, 1563.184
688.4690, 1224.213
689.6250, 1300.461
690.7810, 1149.146
691.9370, 1103.635
693.0920, 923.0898
694.2470, 929.5137
695.4020, 1009.969
696.5570, 770.3281
697.7120, 872.7617
698.8670, 886.1426
700.0210, 761.6484
701.1750, 760.8789
702.3290, 502.0781
703.4830, 511.2500
704.6370, 467.3848
705.7910, 510.5586
706.9440, 458.6777
708.0970, 516.7148
709.2510, 580.7227
710.4030, 692.7012
711.5560, 444.6621
712.7090, 313.5938
713.8610, 353.2793
715.0140, 524.1855
716.1660, 271.4512
717.3180, 563.3359
718.4690, 528.1973
719.6210, 501.9785
720.7730, 630.3652
721.9240, 663.3086
723.0750, 647.1797
724.2260, 585.9219
725.3770, 606.9238
726.5270, 653.5977
727.6780, 583.0039
728.8280, 551.7480
729.9780, 552.6816
731.1280, 509.7031
732.2780, 560.3770
733.4280, 496.6738
734.5770, 321.8477
735.7260, 432.0195
736.8760, 284.8672
738.0250, 168.8730
739.1730, 416.3574
740.3220, 432.2793
741.4700, 193.7070
742.6190, 70.58398
743.7670, 94.94531
744.9150, 197.6992
746.0630, 0.5449220
747.2100, 112.7812
748.3580, 256.5137
749.5050, 75.14062
750.6520, 116.9688
751.7990, 12.62109
752.9460, 138.6816
754.0930, 72.06445
755.2390, 206.7109
756.3860, 9.683594
757.5320, 38.60156
758.6780, 12.52148
759.8240, 246.2949
760.9690, 116.0840
762.1150, 141.8438
763.2600, 43.42383
764.4060, 192.2324
765.5510, 68.86328
766.6950, 262.4590
767.8400, 199.0312
768.9850, 118.5762
770.1290, 122.0957
771.2730, 54.60547
772.4170, 327.0801
773.5610, 97.52930
774.7050, 153.9531
775.8480, 329.3496
776.9920, 185.2773
778.1350, 195.9473
779.2780, 222.1504
780.4210, 34.32617
781.5640, 25.46680
782.7060, 47.57031
783.8490, 11.35742
784.9910, 11.66016
786.1330, 39.63867
787.2750, 54.58594
788.4170, 8.498047
789.5580, 84.36914
790.7000, 104.7910
791.8410, 53.95312
792.9820, 333.6660
794.1230, 29.63867
795.2640, 110.0039
796.4040, 129.5312
797.5450, 101.0469
798.6850, 39.53906
799.8250, 142.9961
800.9650, 175.3535
802.1050, 144.3164
803.2450, 159.9004
804.3840, 36.90430
805.5230, 168.2383
806.6630, 179.3613
807.8020, 281.4629
808.9400, 146.5469
810.0790, 172.6113
811.2170, 17.65625
812.3560, 96.32812
813.4940, 139.6094
814.6320, 110.5273
815.7700, 87.57422
816.9070, 43.24805
818.0450, 8.048828
819.1820, 81.82617
820.3190, 107.5859
821.4560, 159.3281
822.5930, 134.5117
823.7300, 23.75781
824.8670, 24.44336
826.0030, 3.109375
827.1390, 125.2480
828.2750, 248.3047
829.4110, 188.8438
830.5470, 226.3672
831.6820, 48.12500
832.8180, 265.3398
833.9530, 55.78906
835.0880, 58.22461
836.2230, 27.64062
837.3580, 146.0430
838.4920, 126.4297
839.6270, 128.8008
840.7610, 225.1602
841.8950, 50.50781
843.0290, 53.84570
844.1630, 127.1738
845.2960, 99.49023
846.4300, 159.7930
847.5630, 113.0820
848.6960, 128.3594
849.8290, 60.37305
850.9620, 241.8555
852.0940, 37.92969
853.2270, 463.2617
854.3590, 292.4395
855.4910, 261.6074
856.6230, 13.23438
857.7550, 41.91992
858.8870, 85.08398
860.0180, 210.2793
861.1500, 299.4668
862.2810, 311.9941
863.4120, 137.8203
864.5430, 334.0215
865.6730, 94.21094
866.8040, 78.39648
867.9340, 304.5781
869.0640, 218.7773
870.1940, 172.0000
871.3240, 23.23242
872.4540, 178.5000
873.5830, 272.8027
874.7130, 227.0469
875.8420, 189.3359
876.9710, 282.6270
878.1000, 112.9082
879.2290, 195.8555
880.3570, 368.2852
881.4860, 332.6016
882.6140, 298.2734
883.7420, 173.1719
884.8700, 408.5020
885.9980, 426.8594
887.1250, 322.8516
888.2530, 181.3945
889.3800, 466.6230
890.5070, 536.9922
891.6340, 474.3203
892.7610, 459.8418
893.8880, 403.5098
895.0140, 352.7500
896.1400, 533.0918
897.2670, 558.1562
898.3930, 352.4395
899.5180, 509.8672
900.6440, 329.2012
901.7700, 231.6465
902.8950, 216.9727
904.0200, 198.2988
905.1450, 366.4102
906.2700, 452.5527
907.3950, 256.8281
908.5190, 468.1523
909.6440, 429.0898
910.7680, 317.4121
911.8920, 686.7383
913.0160, 582.7168
914.1400, 416.0430
915.2630, 477.4121
916.3870, 482.4883
917.5100, 573.3828
918.6330, 544.9883
919.7560, 560.0508
920.8790, 578.7285
922.0010, 660.1426
923.1240, 847.8340
924.2460, 648.5039
925.3680, 982.6211
926.4900, 830.3633
927.6120, 1041.203
928.7340, 911.7539
929.8550, 1141.420
930.9760, 1146.100
932.0980, 1299.646
933.2190, 1132.105
934.3390, 930.9238
935.4600, 1136.797
936.5810, 1021.428
937.7010, 1168.342
938.8210, 978.9844
939.9410, 1121.775
941.0610, 1090.434
942.1810, 971.1035
943.3010, 958.8008
944.4200, 784.5098
945.5390, 715.2246
946.6580, 570.1016
947.7770, 580.6641
948.8960, 540.4102
950.0150, 474.1602
951.1330, 571.4883
952.2510, 458.8730
953.3690, 411.8320
954.4870, 576.5352
955.6050, 454.3477
956.7230, 530.1680
957.8400, 553.0234
958.9580, 635.4062
960.0750, 709.6250
961.1920, 752.7266
962.3090, 861.7734
963.4250, 758.6992
964.5420, 800.6328
965.6580, 597.5781
966.7740, 925.4844
967.8900, 811.4570
969.0060, 953.3438
970.1220, 1093.254
971.2380, 999.0312
972.3530, 1046.062
973.4680, 1392.113
974.5830, 1457.172
975.6980, 1627.250
976.8130, 1598.371
977.9280, 1724.430
979.0420, 1857.547
980.1560, 2053.680
981.2710, 2029.828
982.3850, 2525.996
983.4980, 2738.172
984.6120, 3075.594
985.7260, 3718.801
986.8390, 4125.664
987.9520, 4991.902
989.0650, 5662.156
990.1780, 6687.445
991.2910, 8110.320
992.4030, 9432.652
993.5160, 11861.01
994.6280, 13540.37
995.7400, 16075.75
996.8520, 18158.15
997.9640, 20155.56
999.0750, 22250.00
1000.187, 23633.45
1001.298, 24694.91
1002.409, 24933.39
1003.520, 24506.88
1004.631, 23606.40
1005.741, 22233.95
1006.852, 20548.99
1007.962, 18697.56
1009.072, 17071.15
1010.182, 15147.75
1011.292, 13266.36
1012.402, 12218.99
1013.511, 10676.65
1014.621, 9914.945
1015.730, 8720.664
1016.839, 7826.895
1017.948, 6791.672
1019.056, 6236.461
1020.165, 5722.273
1021.273, 4975.102
1022.382, 4550.477
1023.490, 4047.348
1024.598, 3834.246
1025.706, 3461.156
1026.813, 2962.699
1027.921, 2916.664
1029.028, 2678.660
1030.135, 2131.672
1031.242, 2056.699
1032.349, 1914.734
1033.456, 1519.816
1034.562, 1374.910
1035.668, 1627.023
1036.775, 1212.152
1037.881, 1349.293
1038.987, 1241.449
1040.092, 1208.617
1041.198, 1052.051
1042.303, 1038.207
1043.408, 1052.516
1044.514, 959.9180
1045.618, 1049.203
1046.723, 990.5664
1047.828, 846.8242
1048.932, 884.2539
1050.037, 575.8477
1051.141, 1000.613
1052.245, 781.0586
1053.349, 804.8320
1054.452, 552.3242
1055.556, 743.8359
1056.659, 511.5742
1057.762, 682.1289
1058.865, 517.3203
1059.968, 392.2539
1061.071, 372.8828
1062.174, 277.5234
1063.276, 470.1523
1064.378, 314.8672
1065.480, 487.1641
1066.582, 360.9062
1067.684, 637.6602
1068.786, 370.4688
1069.887, 252.2930
1070.988, 335.1680
1072.090, 464.0781
1073.191, 342.9961
1074.291, 642.9219
1075.392, 311.4961
1076.493, 483.4414
1077.593, 339.3945
1078.693, 174.3555
1079.793, 221.3320
1080.893, 446.3477
1081.993, 261.3750
1083.092, 529.4102
1084.192, 460.4883
1085.291, 411.5664
1086.390, 490.1836
1087.489, 433.7656
1088.588, 414.8789
1089.686, 368.4531
1090.785, 198.5820
1091.883, 254.7227
1092.981, 444.8711
1094.079, 622.9336
1095.177, 250.1406
1096.275, 76.35156
1097.373, 308.5703
1098.470, 144.7969
1099.567, 289.0469
1100.664, 313.3008
1101.761, 79.56250
1102.858, 83.50000
1103.954, 211.9336
1105.051, 150.2148
1106.147, 154.5078
1107.243, 290.8086
1108.339, 78.88672
1109.435, 138.4023
1110.531, 87.07031
1111.626, 219.3750
1112.722, 210.6836
1113.817, 284.9961
1114.912, 609.3203
1116.007, 455.8477
1117.101, 727.1953
1118.196, 409.5430
1119.290, 603.9062
1120.385, 836.2734
1121.479, 530.6523
1122.573, 589.2383
1123.666, 634.2461
1124.760, 656.7656
1125.853, 481.2656
1126.947, 540.6602
1128.040, 344.1680
1129.133, 279.5703
1130.226, 197.9805
1131.318, 177.8203
1132.411, 232.8008
1133.503, 277.2227
1134.596, 154.6406
1135.688, 304.0625
1136.780, 38.51172
1137.871, 120.2578
1138.963, 553.3789
1140.054, 229.7500
1141.146, 158.1289
1142.237, 225.7422
1143.328, 179.1211
1144.419, 207.4961
1145.509, 20.60547
1146.600, 237.7695
1147.690, 16.75000
1148.780, 280.4688
1149.870, 34.84375
1150.960, 203.4688
1152.050, 63.50781
1153.139, 90.11719
1154.229, 289.3633
1155.318, 61.69922
1156.407, 134.5430
1157.496, 104.1289
1158.585, 57.37500
1159.674, 28.65234
1160.762, 226.9336
1161.850, 39.20703
1162.939, 53.48047
1164.027, 176.7578
1165.114, 382.0273
1166.202, 44.30078
1167.290, 388.5703
1168.377, 125.8359
1169.464, 194.1094
1170.551, 149.3789
1171.638, 2.121094
1172.725, 234.2578
1173.812, 148.4219
1174.898, 4.679688
1175.984, 251.9297
1177.071, 102.1758
1178.157, 139.5820
1179.242, 12.58594
1180.328, 5.742188
1181.414, 113.1055
1182.499, 27.97656
1183.584, 190.9492
1184.669, 223.0195
1185.754, 34.98438
1186.839, 7.945313
1187.924, 229.8906
1189.008, 50.16016
1190.092, 140.2500
1191.177, 328.5703
1192.260, 378.3828
1193.344, 4.769531
1194.428, 308.1406
1195.512, 94.03516
1196.595, 164.7227
1197.678, 152.4766
1198.761, 85.22656
1199.844, 55.96875
1200.927, 106.7031
1202.009, 42.43359
1203.092, 72.15234
1204.174, 68.86719
1205.256, 59.42188
1206.338, 99.23438
1207.420, 285.8867
1208.502, 422.5273
1209.583, 124.1641
1210.665, 175.8008
1211.746, 57.42188
1212.827, 178.0391
1213.908, 426.6484
1214.988, 137.2500
1216.069, 301.8438
1217.149, 332.4258
1218.230, 102.0039
1219.310, 51.43359
1220.390, 172.0859
1221.470, 181.6016
1222.549, 98.10156
1223.629, 9.402344
1224.708, 251.0664
1225.787, 444.5195
1226.866, 129.9688
1227.945, 241.4141
1229.024, 261.8477
1230.103, 341.2695
1231.181, 287.6875
1232.259, 14.08984
1233.337, 40.48047
1234.415, 159.8594
1235.493, 239.2344
1236.571, 272.5938
1237.648, 243.9453
1238.726, 579.1875
1239.803, 22.65234
1240.880, 360.9727
1241.957, 130.2891
1243.034, 350.5977
1244.110, 276.8945
1245.187, 37.19141
1246.263, 273.4805
1247.339, 347.7617
1248.415, 319.0312
1249.491, 271.2930
1250.566, 53.45703
1251.642, 39.74219
1252.717, 15.07422
1253.793, 61.08203
1254.868, 66.22266
1255.943, 114.4297
1257.017, 10.54688
1258.092, 153.6484
1259.166, 204.7461
1260.241, 276.8242
1261.315, 114.8945
1262.389, 248.9531
1263.462, 440.0039
1264.536, 526.0430
1265.610, 126.0664
1266.683, 16.94922
1267.756, 30.54297
1268.829, 127.5156
1269.902, 244.4727
1270.975, 40.42578
1272.048, 312.3672
1273.120, 21.71094
1274.192, 77.82031
1275.264, 146.4297
1276.336, 73.24609
1277.408, 13.57812
1278.480, 327.3672
1279.551, 39.14453
1280.623, 17.90625
1281.694, 169.6523
1282.765, 60.88281
1283.836, 331.6055
1284.907, 0.6757810
1285.977, 234.0195
