##NAMES=Kanoite
##RRUFFID=R061134
##IDEAL CHEMISTRY=Mn^2+^MgSi_2_O_6_
##LOCALITY=Balmat, St. Lawrence County, New York, USA
##OWNER=RRUFF
##SOURCE=Michael Scott
##DESCRIPTION=Yellowish brown granular aggregate
##STATUS=The identification of this mineral has been confirmed by X-ray diffraction and chemical analysis
##URL=rruff.info/R061134
##MEASURED CHEMISTRY=(Mn^2+^_0.88_Ca_0.12_)_Σ=1_(Mg_0.98_Fe^3+^_0.02_)_Σ=1_(Si_0.98_Al_0.02_)_2_O_6_
##PIN_ID=M00204
##ORIENTATION=Laser parallel to (-1 0 -1). Fiducial mark perpendicular to laser is parallel to -b [0 -1 0]
111.5030, 0.0000000E+00
112.7420, 88.96875
113.9810, 35.40039
115.2200, 194.3750
116.4580, 115.6846
117.6970, 186.2383
118.9350, 43.03320
120.1730, 176.7939
121.4100, 275.2529
122.6480, 180.2578
123.8850, 401.9727
125.1230, 429.7402
126.3600, 627.0430
127.5960, 807.4570
128.8330, 912.6445
130.0700, 1276.316
131.3060, 1462.234
132.5420, 1531.174
133.7780, 1410.947
135.0140, 1668.389
136.2500, 2114.354
137.4850, 2054.727
138.7200, 2341.404
139.9550, 2200.301
141.1900, 1930.332
142.4250, 1894.432
143.6600, 1530.531
144.8940, 1502.578
146.1280, 1547.521
147.3620, 1540.314
148.5960, 1354.912
149.8300, 1197.252
151.0630, 1082.264
152.2960, 1016.896
153.5300, 745.1094
154.7620, 631.8672
155.9950, 442.1426
157.2280, 230.9121
158.4600, 208.1543
159.6920, 159.8613
160.9250, 121.0332
162.1560, 201.6602
163.3880, 262.7285
164.6200, 292.4531
165.8510, 437.1250
167.0820, 357.4238
168.3130, 409.1074
169.5440, 341.1621
170.7750, 352.5879
172.0050, 578.3750
173.2350, 471.5137
174.4650, 444.9941
175.6950, 641.8047
176.9250, 365.9375
178.1550, 591.3828
179.3840, 502.1367
180.6130, 279.1855
181.8420, 355.5273
183.0710, 286.1465
184.3000, 409.0449
185.5280, 390.1309
186.7570, 543.1758
187.9850, 436.2227
189.2130, 607.2891
190.4400, 836.4062
191.6680, 809.6016
192.8960, 585.8887
194.1230, 634.2793
195.3500, 454.7871
196.5770, 474.7559
197.8030, 685.1758
199.0300, 561.0703
200.2560, 651.1055
201.4830, 787.2793
202.7090, 761.5996
203.9340, 919.1035
205.1600, 792.8652
206.3860, 1018.900
207.6110, 1067.188
208.8360, 1308.762
210.0610, 1448.020
211.2860, 1615.756
212.5100, 1786.043
213.7350, 1959.488
214.9590, 2155.070
216.1830, 2061.789
217.4070, 2087.512
218.6310, 2142.633
219.8540, 1903.760
221.0780, 2018.018
222.3010, 1958.414
223.5240, 1842.939
224.7470, 1767.600
225.9690, 1783.418
227.1920, 1733.434
228.4140, 1902.623
229.6360, 1778.084
230.8580, 1672.678
232.0800, 1438.391
233.3020, 1497.221
234.5230, 1442.172
235.7440, 1235.240
236.9650, 1127.426
238.1860, 1155.727
239.4070, 996.1406
240.6280, 968.6660
241.8480, 897.3047
243.0680, 902.0547
244.2880, 888.5957
245.5080, 953.8828
246.7280, 934.9590
247.9470, 866.1465
249.1660, 950.4219
250.3860, 699.8125
251.6040, 798.3027
252.8230, 652.8945
254.0420, 627.5859
255.2600, 564.3770
256.4790, 553.2656
257.6970, 580.2500
258.9150, 688.2988
260.1320, 482.1504
261.3500, 506.9160
262.5670, 468.3203
263.7840, 345.5957
265.0010, 348.3262
266.2180, 236.3340
267.4350, 146.8340
268.6510, 274.6738
269.8680, 334.8223
271.0840, 182.2598
272.3000, 246.9727
273.5160, 315.9355
274.7310, 305.1406
275.9470, 508.5723
277.1620, 464.2207
278.3770, 483.0742
279.5920, 611.1250
280.8070, 561.3633
282.0210, 507.7832
283.2360, 560.3750
284.4500, 579.1348
285.6640, 597.0566
286.8780, 672.1348
288.0920, 834.3633
289.3050, 749.7383
290.5180, 705.2559
291.7320, 1024.906
292.9450, 923.7168
294.1570, 946.1465
295.3700, 1286.709
296.5830, 1255.504
297.7950, 1321.668
299.0070, 1654.428
300.2190, 1878.482
301.4310, 2015.387
302.6420, 2327.709
303.8540, 2443.486
305.0650, 2676.191
306.2760, 2889.832
307.4870, 3205.445
308.6980, 3668.742
309.9080, 4028.914
311.1190, 4590.510
312.3290, 5131.682
313.5390, 5824.520
314.7490, 6521.451
315.9580, 7342.469
317.1680, 8148.584
318.3770, 8642.801
319.5860, 9193.109
320.7950, 9765.516
322.0040, 9998.012
323.2130, 9946.609
324.4210, 9769.289
325.6290, 9402.039
326.8380, 8686.875
328.0460, 8243.781
329.2530, 7619.770
330.4610, 6578.824
331.6680, 6264.955
332.8760, 5615.156
334.0830, 5211.445
335.2890, 4427.807
336.4960, 3920.363
337.7030, 3666.861
338.9090, 3451.748
340.1150, 3226.141
341.3210, 3123.846
342.5270, 2987.992
343.7330, 2747.344
344.9380, 2512.684
346.1440, 2452.648
347.3490, 2591.268
348.5540, 2721.363
349.7590, 2529.521
350.9630, 2639.740
352.1680, 2588.020
353.3720, 2707.359
354.5760, 2722.758
355.7800, 2722.211
356.9840, 2436.719
358.1870, 2554.283
359.3910, 2298.902
360.5940, 2182.576
361.7970, 2094.303
363.0000, 2213.080
364.2030, 2485.910
365.4050, 2202.793
366.6080, 2526.727
367.8100, 2416.711
369.0120, 2397.746
370.2140, 2684.828
371.4150, 2690.957
372.6170, 2787.137
373.8180, 2781.361
375.0190, 2487.635
376.2200, 2475.951
377.4210, 2368.309
378.6220, 2345.713
379.8220, 2493.158
381.0230, 2585.650
382.2230, 2621.180
383.4230, 3051.754
384.6220, 3078.369
385.8220, 3341.023
387.0220, 3672.721
388.2210, 3907.455
389.4200, 4029.230
390.6190, 4168.043
391.8180, 4056.895
393.0160, 3865.785
394.2150, 3514.711
395.4130, 3184.674
396.6110, 2747.674
397.8090, 2295.709
399.0060, 1892.781
400.2040, 1477.887
401.4010, 1352.029
402.5980, 1242.201
403.7950, 1328.451
404.9920, 1255.773
406.1890, 1210.168
407.3860, 1087.629
408.5820, 1255.154
409.7780, 1186.744
410.9740, 1242.398
412.1700, 1410.115
413.3650, 1384.887
414.5610, 1336.719
415.7560, 1043.602
416.9510, 1017.541
418.1460, 1144.531
419.3410, 857.5762
420.5360, 847.6699
421.7300, 693.8145
422.9240, 478.0059
424.1180, 410.2422
425.3120, 269.4180
426.5060, 221.8594
427.7000, 138.2363
428.8930, 108.6562
430.0860, 184.1172
431.2790, 97.67188
432.4720, 119.1680
433.6650, 41.75391
434.8580, 21.38086
436.0500, 37.93750
437.2420, 47.70312
438.4340, 46.96289
439.6260, 121.2129
440.8180, 125.4707
442.0090, 112.8770
443.2010, 115.4219
444.3920, 108.5488
445.5830, 68.11914
446.7740, 163.9004
447.9640, 114.7109
449.1550, 213.4316
450.3450, 82.44922
451.5350, 44.04297
452.7250, 83.95898
453.9150, 27.90625
455.1050, 75.32031
456.2940, 97.02734
457.4830, 261.3398
458.6720, 179.0566
459.8610, 162.2637
461.0500, 256.1738
462.2390, 160.2656
463.4270, 360.7246
464.6150, 215.3027
465.8040, 235.2754
466.9910, 577.0078
468.1790, 330.3301
469.3670, 415.6719
470.5540, 343.0332
471.7410, 332.1797
472.9280, 322.2520
474.1150, 83.99219
475.3020, 157.0996
476.4890, 60.52148
477.6750, 123.8203
478.8610, 30.05664
480.0470, 51.31250
481.2330, 63.41211
482.4190, 51.16211
483.6040, 76.06836
484.7900, 25.31250
485.9750, 102.4316
487.1600, 173.2109
488.3450, 66.92969
489.5290, 23.09375
490.7140, 199.2598
491.8980, 165.4395
493.0820, 383.6387
494.2660, 351.8496
495.4500, 535.1074
496.6340, 607.3828
497.8170, 721.6660
499.0010, 767.9941
500.1840, 847.3516
501.3670, 1186.719
502.5500, 1289.094
503.7320, 1264.475
504.9150, 1298.861
506.0970, 1175.254
507.2790, 1429.654
508.4610, 1601.061
509.6430, 1336.473
510.8250, 1617.893
512.0060, 1509.314
513.1870, 1630.762
514.3680, 1744.215
515.5490, 1618.670
516.7300, 1708.127
517.9110, 1917.590
519.0910, 1823.064
520.2710, 2014.539
521.4510, 1761.018
522.6310, 1547.506
523.8110, 1605.992
524.9910, 1176.479
526.1700, 1218.980
527.3490, 1104.480
528.5280, 1234.977
529.7070, 1053.490
530.8860, 1097.002
532.0650, 1003.510
533.2430, 1247.020
534.4210, 1252.525
535.5990, 1575.062
536.7770, 1497.605
537.9550, 1450.168
539.1320, 1593.727
540.3100, 1630.279
541.4870, 1665.830
542.6640, 1622.379
543.8410, 1447.924
545.0170, 1632.502
546.1940, 1550.070
547.3700, 1853.652
548.5470, 2059.246
549.7230, 2175.836
550.8980, 2484.412
552.0740, 2566.000
553.2500, 2722.576
554.4250, 2817.156
555.6000, 2551.727
556.7750, 2448.283
557.9500, 2450.828
559.1250, 1914.363
560.2990, 1538.883
561.4730, 1342.391
562.6480, 1123.900
563.8220, 947.3965
564.9950, 807.8770
566.1690, 580.3613
567.3430, 654.8301
568.5160, 666.2930
569.6890, 413.7363
570.8620, 397.1641
572.0350, 537.5762
573.2070, 434.9961
574.3800, 219.4004
575.5520, 504.7852
576.7240, 1.849609
577.8960, 162.4473
579.0680, 176.2344
580.2400, 191.9941
581.4110, 287.6250
582.5830, 159.9805
583.7540, 80.83984
584.9250, 147.4883
586.0950, 109.3770
587.2660, 120.5508
588.4370, 19.11328
589.6070, 106.4395
590.7770, 38.09961
591.9470, 130.5566
593.1170, 105.3301
594.2860, 39.59375
595.4560, 15.59766
596.6250, 115.2227
597.7940, 52.31250
598.9630, 221.2910
600.1320, 30.55273
601.3000, 1.007813
602.4690, 17.74609
603.6370, 21.07617
604.8050, 26.69531
605.9730, 16.18164
607.1410, 53.97852
608.3090, 115.3086
609.4760, 124.2188
610.6430, 77.28320
611.8100, 87.32227
612.9770, 467.2422
614.1440, 73.74805
615.3110, 367.7461
616.4770, 8.753906
617.6430, 167.0195
618.8090, 216.3926
619.9750, 352.2051
621.1410, 443.0117
622.3070, 400.5508
623.4720, 567.2754
624.6370, 401.9238
625.8020, 433.5312
626.9670, 573.4590
628.1320, 504.1719
629.2970, 408.7461
630.4610, 618.4102
631.6250, 732.2871
632.7890, 903.8340
633.9530, 980.5898
635.1170, 1064.285
636.2810, 1207.246
637.4440, 1239.561
638.6070, 1323.230
639.7700, 1581.975
640.9330, 1762.762
642.0960, 2105.947
643.2590, 2379.223
644.4210, 2786.812
645.5830, 3116.992
646.7450, 3908.670
647.9070, 4424.818
649.0690, 5221.590
650.2310, 5822.273
651.3920, 6664.369
652.5530, 7528.391
653.7140, 8734.336
654.8750, 9851.258
656.0360, 11070.21
657.1970, 12349.71
658.3570, 13177.21
659.5170, 14576.96
660.6770, 15683.58
661.8370, 16739.37
662.9970, 17967.93
664.1570, 18823.59
665.3160, 19611.51
666.4750, 19671.25
667.6340, 19235.65
668.7930, 18187.95
669.9520, 16609.26
671.1110, 14884.90
672.2690, 13002.53
673.4270, 11334.54
674.5850, 9823.467
675.7430, 8400.139
676.9010, 7156.535
678.0590, 5958.727
679.2160, 5294.295
680.3730, 4629.268
681.5300, 3777.883
682.6870, 3465.773
683.8440, 3173.344
685.0010, 2858.283
686.1570, 2633.090
687.3130, 2342.191
688.4690, 2183.391
689.6250, 2003.035
690.7810, 1761.699
691.9370, 1632.412
693.0920, 1431.039
694.2470, 1161.691
695.4020, 1334.178
696.5570, 1156.582
697.7120, 973.1641
698.8670, 1164.574
700.0210, 999.8359
701.1750, 958.4707
702.3290, 752.6465
703.4830, 723.5352
704.6370, 683.4219
705.7910, 644.4688
706.9440, 597.1172
708.0970, 578.0781
709.2510, 569.0039
710.4030, 531.1758
711.5560, 605.1113
712.7090, 678.8945
713.8610, 749.6367
715.0140, 522.3340
716.1660, 651.5469
717.3180, 576.0547
718.4690, 685.6133
719.6210, 629.1523
720.7730, 473.6680
721.9240, 537.0918
723.0750, 573.0488
724.2260, 670.3496
725.3770, 455.0625
726.5270, 655.9609
727.6780, 537.8496
728.8280, 818.6172
729.9780, 1230.627
731.1280, 709.1816
732.2780, 543.0449
733.4280, 113.0879
734.5770, 265.2070
735.7260, 264.7188
736.8760, 168.7852
738.0250, 143.8984
739.1730, 413.5020
740.3220, 170.4727
741.4700, 288.3770
742.6190, 405.3613
743.7670, 4.525391
744.9150, 287.2578
746.0630, 93.20898
747.2100, 72.45312
748.3580, 398.8086
749.5050, 202.0332
750.6520, 76.54883
751.7990, 132.8867
752.9460, 183.6309
754.0930, 34.01172
755.2390, 41.01562
756.3860, 43.94531
757.5320, 79.13672
758.6780, 84.17383
759.8240, 164.1641
760.9690, 99.13867
762.1150, 233.0879
763.2600, 62.00000
764.4060, 38.86914
765.5510, 111.7168
766.6950, 29.56641
767.8400, 96.36523
768.9850, 126.1270
770.1290, 23.84766
771.2730, 131.5176
772.4170, 97.84961
773.5610, 38.66602
774.7050, 214.1367
775.8480, 85.42969
776.9920, 40.09766
778.1350, 99.14844
779.2780, 331.3594
780.4210, 153.5352
781.5640, 104.6797
782.7060, 158.7852
783.8490, 86.85742
784.9910, 146.8926
786.1330, 70.89648
787.2750, 73.85742
788.4170, 130.7812
789.5580, 28.32422
790.7000, 42.50000
791.8410, 143.2812
792.9820, 127.0332
794.1230, 60.74805
795.2640, 11.56836
796.4040, 147.0547
797.5450, 199.6484
798.6850, 4.789063
799.8250, 157.7246
800.9650, 125.2070
802.1050, 27.33984
803.2450, 95.05078
804.3840, 171.4102
805.5230, 38.25977
806.6630, 226.0078
807.8020, 83.24805
808.9400, 76.45703
810.0790, 32.63477
811.2170, 104.2227
812.3560, 22.17383
813.4940, 67.17578
814.6320, 106.7480
815.7700, 43.64258
816.9070, 193.5078
818.0450, 13.65430
819.1820, 247.1426
820.3190, 128.0879
821.4560, 97.58203
822.5930, 66.77344
823.7300, 67.19727
824.8670, 31.31250
826.0030, 300.7930
827.1390, 60.74805
828.2750, 78.64844
829.4110, 47.98047
830.5470, 68.34180
831.6820, 95.63672
832.8180, 102.9121
833.9530, 47.16211
835.0880, 76.39062
836.2230, 116.5938
837.3580, 61.22070
838.4920, 134.9082
839.6270, 31.01953
840.7610, 78.89258
841.8950, 97.13672
843.0290, 36.85352
844.1630, 173.1191
845.2960, 11.07227
846.4300, 139.0059
847.5630, 115.0801
848.6960, 108.7617
849.8290, 120.5859
850.9620, 168.3926
852.0940, 180.1797
853.2270, 162.9766
854.3590, 224.7559
855.4910, 183.3613
856.6230, 335.2676
857.7550, 178.0000
858.8870, 191.7168
860.0180, 287.4258
861.1500, 353.1191
862.2810, 213.8047
863.4120, 241.4746
864.5430, 36.14844
865.6730, 274.8125
866.8040, 268.4863
867.9340, 239.1992
869.0640, 148.9023
870.1940, 380.1289
871.3240, 113.8457
872.4540, 59.40234
873.5830, 114.8613
874.7130, 324.8027
875.8420, 380.5234
876.9710, 395.8809
878.1000, 343.6094
879.2290, 363.7637
880.3570, 354.9551
881.4860, 305.5898
882.6140, 347.1387
883.7420, 277.1211
884.8700, 229.9609
885.9980, 422.8359
887.1250, 321.8203
888.2530, 511.1875
889.3800, 490.0215
890.5070, 399.8125
891.6340, 387.2949
892.7610, 508.6445
893.8880, 265.3926
895.0140, 507.2383
896.1400, 559.0020
897.2670, 365.1074
898.3930, 334.0312
899.5180, 429.5840
900.6440, 439.6465
901.7700, 484.9707
902.8950, 319.8379
904.0200, 349.9922
905.1450, 392.4883
906.2700, 311.2832
907.3950, 405.8379
908.5190, 444.4199
909.6440, 409.7129
910.7680, 332.6211
911.8920, 378.3867
913.0160, 444.5879
914.1400, 386.9492
915.2630, 554.8867
916.3870, 511.6992
917.5100, 650.1641
918.6330, 592.0098
919.7560, 626.3203
920.8790, 763.1328
922.0010, 818.2871
923.1240, 807.5039
924.2460, 917.2734
925.3680, 1189.082
926.4900, 1163.941
927.6120, 1252.791
928.7340, 1268.582
929.8550, 1283.781
930.9760, 1344.957
932.0980, 1325.863
933.2190, 1392.854
934.3390, 1406.648
935.4600, 1432.736
936.5810, 1500.506
937.7010, 1446.094
938.8210, 1475.820
939.9410, 1388.896
941.0610, 1349.043
942.1810, 1252.137
943.3010, 1090.891
944.4200, 1100.617
945.5390, 872.9316
946.6580, 913.2949
947.7770, 734.8828
948.8960, 830.7227
950.0150, 762.7363
951.1330, 678.3418
952.2510, 462.5156
953.3690, 674.0156
954.4870, 587.2109
955.6050, 930.7012
956.7230, 881.7891
957.8400, 809.2910
958.9580, 684.8906
960.0750, 856.6738
961.1920, 857.9961
962.3090, 1093.273
963.4250, 1156.469
964.5420, 935.7227
965.6580, 1141.924
966.7740, 1130.262
967.8900, 1243.666
969.0060, 1657.859
970.1220, 1852.205
971.2380, 1612.680
972.3530, 1553.756
973.4680, 2017.266
974.5830, 1993.533
975.6980, 2060.775
976.8130, 2228.330
977.9280, 2512.148
979.0420, 2828.848
980.1560, 3299.168
981.2710, 3648.816
982.3850, 4093.379
983.4980, 4557.086
984.6120, 5195.809
985.7260, 6232.551
986.8390, 7088.309
987.9520, 8162.088
989.0650, 9479.881
990.1780, 11626.69
991.2910, 13810.53
992.4030, 16632.38
993.5160, 19144.25
994.6280, 22493.16
995.7400, 26017.13
996.8520, 29043.12
997.9640, 32466.17
999.0750, 34081.24
1000.187, 35676.32
1001.298, 36428.44
1002.409, 36490.56
1003.520, 35198.70
1004.631, 33598.88
1005.741, 31117.06
1006.852, 28921.78
1007.962, 26122.01
1009.072, 23405.25
1010.182, 21122.53
1011.292, 18929.82
1012.402, 16761.12
1013.511, 15014.08
1014.621, 13235.82
1015.730, 11852.19
1016.839, 10533.61
1017.948, 9286.699
1019.056, 8308.109
1020.165, 7652.434
1021.273, 6829.609
1022.382, 6042.736
1023.490, 5371.326
1024.598, 4978.959
1025.706, 4347.553
1026.813, 4198.277
1027.921, 3665.023
1029.028, 3551.334
1030.135, 3208.121
1031.242, 2849.627
1032.349, 2650.484
1033.456, 2010.365
1034.562, 2146.273
1035.668, 1837.197
1036.775, 1846.148
1037.881, 1987.125
1038.987, 1586.115
1040.092, 1722.133
1041.198, 1389.166
1042.303, 1350.102
1043.408, 1276.219
1044.514, 1180.852
1045.618, 1158.219
1046.723, 1180.441
1047.828, 1039.684
1048.932, 1117.943
1050.037, 1082.219
1051.141, 1025.510
1052.245, 894.8184
1053.349, 882.1445
1054.452, 779.4883
1055.556, 766.6621
1056.659, 583.2324
1057.762, 802.6309
1058.865, 705.1074
1059.968, 821.5586
1061.071, 609.0273
1062.174, 628.5098
1063.276, 639.0137
1064.378, 405.5449
1065.480, 437.0918
1066.582, 660.6523
1067.684, 504.2422
1068.786, 828.3301
1069.887, 398.9492
1070.988, 540.5977
1072.090, 328.9512
1073.191, 452.6309
1074.291, 624.3438
1075.392, 694.0703
1076.493, 596.8125
1077.593, 626.5723
1078.693, 545.3477
1079.793, 592.1699
1080.893, 612.0195
1081.993, 667.9062
1083.092, 615.8574
1084.192, 661.3555
1085.291, 683.7070
1086.390, 694.6582
1087.489, 563.6230
1088.588, 569.6406
1089.686, 473.6699
1090.785, 457.1465
1091.883, 608.2852
1092.981, 471.3477
1094.079, 531.4727
1095.177, 662.6328
1096.275, 373.8027
1097.373, 531.9961
1098.470, 489.2051
1099.567, 224.4648
1100.664, 347.6992
1101.761, 357.4824
1102.858, 434.1777
1103.954, 404.4434
1105.051, 426.7363
1106.147, 432.0410
1107.243, 427.2031
1108.339, 406.7090
1109.435, 441.0527
1110.531, 359.4277
1111.626, 383.1797
1112.722, 404.5723
1113.817, 308.9766
1114.912, 511.1309
1116.007, 456.5801
1117.101, 668.0391
1118.196, 858.5039
1119.290, 816.9785
1120.385, 909.7090
1121.479, 891.9004
1122.573, 850.4492
1123.666, 762.9551
1124.760, 653.4668
1125.853, 494.1680
1126.947, 392.3320
1128.040, 301.8691
1129.133, 404.6074
1130.226, 336.6621
1131.318, 419.1777
1132.411, 409.7363
1133.503, 327.2988
1134.596, 468.8691
1135.688, 338.4434
1136.780, 220.0195
1137.871, 0.3964840
1138.963, 121.1992
1140.054, 135.8008
1141.146, 48.40430
1142.237, 107.0137
1143.328, 232.6270
1144.419, 297.2441
1145.509, 26.86523
1146.600, 72.50977
1147.690, 199.9102
1148.780, 208.9316
1149.870, 196.9355
1150.960, 130.6562
1152.050, 19.37695
1153.139, 17.09961
1154.229, 172.1699
1155.318, 62.51367
1156.407, 46.20898
1157.496, 205.0488
1158.585, 40.30664
1159.674, 14.43359
1160.762, 148.8379
1161.850, 72.90625
1162.939, 87.09375
1164.027, 15.31641
1165.114, 87.54102
1166.202, 274.7637
1167.290, 235.3770
1168.377, 137.6914
1169.464, 120.9141
1170.551, 210.1387
1171.638, 286.3613
1172.725, 31.41602
1173.812, 123.7871
1174.898, 24.01367
1175.984, 66.82812
1177.071, 34.31836
1178.157, 112.4609
1179.242, 83.60352
1180.328, 90.74219
1181.414, 86.88086
1182.499, 94.27539
1183.584, 139.1504
1184.669, 102.2812
1185.754, 115.4102
1186.839, 70.53516
1187.924, 132.6582
1189.008, 13.77734
1190.092, 55.89453
1191.177, 139.0059
1192.260, 162.1133
1193.344, 99.21875
1194.428, 139.3203
1195.512, 212.4199
1196.595, 174.5137
1197.678, 226.6035
1198.761, 9.310547
1199.844, 44.75586
1200.927, 70.81641
1202.009, 122.1230
1203.092, 268.8516
1204.174, 210.8262
1205.256, 133.8262
1206.338, 151.7930
1207.420, 245.7539
1208.502, 117.7090
1209.583, 250.6562
1210.665, 99.60352
1211.746, 91.54297
1212.827, 34.47461
1213.908, 349.4004
1214.988, 269.3223
1216.069, 325.2363
1217.149, 281.1426
1218.230, 422.0449
1219.310, 284.9414
1220.390, 124.1660
1221.470, 186.6348
1222.549, 19.56836
1223.629, 348.1914
1224.708, 71.94336
1225.787, 107.6914
1226.866, 304.4297
1227.945, 126.1602
1229.024, 2.117188
1230.103, 289.5781
1231.181, 27.26367
1232.259, 7.060547
1233.337, 70.58398
1234.415, 130.2188
1235.493, 223.8477
1236.571, 334.4648
1237.648, 287.0762
1238.726, 311.6758
1239.803, 292.2676
1240.880, 66.14648
1241.957, 192.3711
1243.034, 140.8828
1244.110, 38.61328
1245.187, 228.8379
1246.263, 299.2773
1247.339, 129.7109
1248.415, 175.1328
1249.491, 308.5469
1250.566, 144.9492
1251.642, 171.3438
1252.717, 133.7305
1253.793, 252.1074
1254.868, 42.52539
1255.943, 129.2148
1257.017, 327.9941
1258.092, 89.80664
1259.166, 44.31445
1260.241, 295.4199
1261.315, 216.5156
1262.389, 388.6094
1263.462, 363.6855
1264.536, 105.7520
1265.610, 306.8066
1266.683, 264.8809
1267.756, 309.1367
1268.829, 195.1895
1269.902, 223.2363
1270.975, 190.2734
1272.048, 177.5664
1273.120, 207.6621
1274.192, 210.3203
1275.264, 277.3145
1276.336, 336.3164
1277.408, 404.2871
1278.480, 294.6270
1279.551, 351.4922
1280.623, 70.76758
1281.694, 264.0918
1282.765, 266.4766
1283.836, 51.40625
1284.907, 286.3281
1285.977, 159.3262
1287.048, 235.2344
1288.118, 318.1328
