##NAMES=Kanoite
##RRUFFID=R061134
##IDEAL CHEMISTRY=Mn^2+^MgSi_2_O_6_
##LOCALITY=Balmat, St. Lawrence County, New York, USA
##OWNER=RRUFF
##SOURCE=Michael Scott
##DESCRIPTION=Yellowish brown granular aggregate
##STATUS=The identification of this mineral has been confirmed by X-ray diffraction and chemical analysis
##URL=rruff.info/R061134
##MEASURED CHEMISTRY=(Mn^2+^_0.88_Ca_0.12_)_Σ=1_(Mg_0.98_Fe^3+^_0.02_)_Σ=1_(Si_0.98_Al_0.02_)_2_O_6_
##PIN_ID=L00480
##ORIENTATION=Laser parallel to -c* (0 0 -1). Fiducial mark perpendicular to laser is parallel to a [1 0 0]
111.5030, 0.0000000E+00
112.7420, 1.342773
113.9810, 262.2275
115.2200, 296.3184
116.4580, 344.0498
117.6970, 264.4600
118.9350, 105.5127
120.1730, 8.017578
121.4100, 9.530273
122.6480, 10.02441
123.8850, 21.39648
125.1230, 124.4639
126.3600, 240.5850
127.5960, 548.9219
128.8330, 876.5234
130.0700, 844.4219
131.3060, 951.6289
132.5420, 1235.148
133.7780, 1550.973
135.0140, 1671.096
136.2500, 1554.166
137.4850, 1937.675
138.7200, 1752.614
139.9550, 1884.870
141.1900, 1738.470
142.4250, 1652.396
143.6600, 1631.633
144.8940, 1531.165
146.1280, 1538.978
147.3620, 1365.060
148.5960, 1277.396
149.8300, 1171.971
151.0630, 914.7646
152.2960, 781.7588
153.5300, 532.9414
154.7620, 330.3008
155.9950, 336.8281
157.2280, 210.5195
158.4600, 180.3809
159.6920, 31.41211
160.9250, 132.3896
162.1560, 23.96875
163.3880, 32.48438
164.6200, 99.15039
165.8510, 0.9599610
167.0820, 36.91016
168.3130, 128.9922
169.5440, 195.2051
170.7750, 127.5449
172.0050, 265.0107
173.2350, 338.5986
174.4650, 234.3037
175.6950, 350.1221
176.9250, 64.04980
178.1550, 299.0859
179.3840, 175.2266
180.6130, 425.4697
181.8420, 292.8115
183.0710, 543.2500
184.3000, 553.7812
185.5280, 712.3877
186.7570, 562.0098
187.9850, 809.6504
189.2130, 849.3086
190.4400, 1024.976
191.6680, 940.6602
192.8960, 1001.377
194.1230, 952.1309
195.3500, 817.9229
196.5770, 748.7549
197.8030, 689.6270
199.0300, 664.5430
200.2560, 627.5166
201.4830, 609.5488
202.7090, 691.8154
203.9340, 711.2314
205.1600, 734.7637
206.3860, 867.3965
207.6110, 1001.135
208.8360, 1058.953
210.0610, 1319.808
211.2860, 1291.680
212.5100, 1526.649
213.7350, 1607.683
214.9590, 1954.757
216.1830, 1992.872
217.4070, 2169.026
218.6310, 2153.222
219.8540, 1984.459
221.0780, 2213.735
222.3010, 1951.054
223.5240, 1882.413
224.7470, 1925.812
225.9690, 1873.252
227.1920, 1860.738
228.4140, 1763.316
229.6360, 1632.961
230.8580, 1609.641
232.0800, 1381.359
233.3020, 1339.886
234.5230, 1277.909
235.7440, 1178.739
236.9650, 1083.604
238.1860, 1016.506
239.4070, 932.4414
240.6280, 1006.415
241.8480, 997.4219
243.0680, 903.4639
244.2880, 1000.540
245.5080, 944.6504
246.7280, 1008.793
247.9470, 886.9707
249.1660, 879.1797
250.3860, 882.4219
251.6040, 801.6953
252.8230, 793.0010
254.0420, 689.3379
255.2600, 569.7061
256.4790, 576.4629
257.6970, 442.5312
258.9150, 505.2754
260.1320, 402.6689
261.3500, 282.2715
262.5670, 127.9023
263.7840, 74.47949
265.0010, 14.19629
266.2180, 123.8105
267.4350, 54.63867
268.6510, 36.53027
269.8680, 240.9629
271.0840, 170.0068
272.3000, 212.1162
273.5160, 333.2891
274.7310, 352.5264
275.9470, 356.8242
277.1620, 399.1846
278.3770, 565.6035
279.5920, 644.0801
280.8070, 630.6113
282.0210, 781.1982
283.2360, 809.3760
284.4500, 826.3105
285.6640, 937.9492
286.8780, 968.6426
288.0920, 1035.451
289.3050, 1119.247
290.5180, 1198.092
291.7320, 1176.648
292.9450, 1246.586
294.1570, 1319.309
295.3700, 1509.336
296.5830, 1595.840
297.7950, 2032.789
299.0070, 2071.351
300.2190, 2390.607
301.4310, 2616.418
302.6420, 2673.988
303.8540, 2958.361
305.0650, 3105.332
306.2760, 3448.378
307.4870, 3789.069
308.6980, 4134.582
309.9080, 4803.340
311.1190, 5405.318
312.3290, 5978.532
313.5390, 6453.268
314.7490, 7344.041
315.9580, 7947.846
317.1680, 8765.684
318.3770, 9521.551
319.5860, 10122.44
320.7950, 10547.37
322.0040, 10819.32
323.2130, 10626.31
324.4210, 10529.33
325.6290, 10115.38
326.8380, 9646.466
328.0460, 8880.584
329.2530, 7993.723
330.4610, 7280.887
331.6680, 6600.072
332.8760, 5913.639
334.0830, 5334.368
335.2890, 4754.763
336.4960, 4249.039
337.7030, 3823.336
338.9090, 3490.355
340.1150, 3147.998
341.3210, 3026.299
342.5270, 2881.075
343.7330, 2762.702
344.9380, 2706.252
346.1440, 2482.701
347.3490, 2537.171
348.5540, 2231.661
349.7590, 2548.170
350.9630, 2535.699
352.1680, 2415.244
353.3720, 2407.808
354.5760, 2351.388
355.7800, 2210.986
356.9840, 2188.601
358.1870, 2157.232
359.3910, 2057.881
360.5940, 2125.545
361.7970, 2047.227
363.0000, 1936.921
364.2030, 2017.634
365.4050, 1847.360
366.6080, 1865.104
367.8100, 2101.862
369.0120, 2072.635
370.2140, 2076.423
371.4150, 2097.226
372.6170, 1996.043
373.8180, 1899.873
375.0190, 2006.717
376.2200, 1791.573
377.4210, 1680.443
378.6220, 1705.327
379.8220, 1774.223
381.0230, 1675.131
382.2230, 1936.051
383.4230, 2012.982
384.6220, 2104.928
385.8220, 2134.883
387.0220, 2361.852
388.2210, 2424.831
389.4200, 2526.821
390.6190, 2445.824
391.8180, 2612.837
393.0160, 2332.861
394.2150, 2195.896
395.4130, 1904.941
396.6110, 1832.997
397.8090, 1616.062
399.0060, 1368.138
400.2040, 1248.223
401.4010, 1167.316
402.5980, 1052.421
403.7950, 1155.543
404.9920, 1201.683
406.1890, 1227.842
407.3860, 1225.018
408.5820, 1216.212
409.7780, 1429.424
410.9740, 1491.653
412.1700, 1304.905
413.3650, 1462.173
414.5610, 1273.458
415.7560, 1171.760
416.9510, 1231.076
418.1460, 1104.410
419.3410, 827.7549
420.5360, 756.1162
421.7300, 589.4893
422.9240, 577.8770
424.1180, 577.2783
425.3120, 466.6924
426.5060, 465.1182
427.7000, 198.5566
428.8930, 178.0078
430.0860, 223.4697
431.2790, 53.05566
432.4720, 54.41016
433.6650, 98.88867
434.8580, 246.6230
436.0500, 36.75684
437.2420, 150.8516
438.4340, 4.479492
439.6260, 57.17969
440.8180, 118.5400
442.0090, 35.25684
443.2010, 2.333008
444.3920, 56.16504
445.5830, 87.69727
446.7740, 2.629883
447.9640, 35.94629
449.1550, 14.43750
450.3450, 12.05469
451.5350, 31.25195
452.7250, 1.582031
453.9150, 40.53320
455.1050, 60.88477
456.2940, 64.31445
457.4830, 155.8203
458.6720, 135.1104
459.8610, 267.7666
461.0500, 365.9912
462.2390, 283.4688
463.4270, 285.6992
464.6150, 423.1133
465.8040, 323.0322
466.9910, 541.5176
468.1790, 410.8477
469.3670, 461.5381
470.5540, 310.4854
471.7410, 304.7715
472.9280, 192.0566
474.1150, 153.3691
475.3020, 87.66309
476.4890, 92.20801
477.6750, 170.2520
478.8610, 146.5537
480.0470, 158.5156
481.2330, 195.1963
482.4190, 101.5273
483.6040, 1.137695
484.7900, 40.81543
485.9750, 6.507813
487.1600, 13.88477
488.3450, 107.1914
489.5290, 82.54395
490.7140, 149.9062
491.8980, 256.2676
493.0820, 404.6299
494.2660, 444.9912
495.4500, 528.3867
496.6340, 719.7803
497.8170, 774.1982
499.0010, 1108.632
500.1840, 1169.062
501.3670, 1363.487
502.5500, 1241.908
503.7320, 1459.347
504.9150, 1569.785
506.0970, 1447.252
507.2790, 1526.714
508.4610, 1326.169
509.6430, 1292.618
510.8250, 1330.062
512.0060, 1313.498
513.1870, 1466.939
514.3680, 1583.379
515.5490, 1610.812
516.7300, 1450.238
517.9110, 1509.660
519.0910, 1454.073
520.2710, 1426.482
521.4510, 1529.886
522.6310, 1418.424
523.8110, 1189.717
524.9910, 1250.144
526.1700, 1077.587
527.3490, 899.0215
528.5280, 920.4473
529.7070, 910.8613
530.8860, 913.2969
532.0650, 903.7236
533.2430, 915.1416
534.4210, 1077.553
535.5990, 986.9521
536.7770, 1079.341
537.9550, 1039.718
539.1320, 1210.085
540.3100, 1055.441
541.4870, 1191.789
542.6640, 1248.125
543.8410, 1295.475
545.0170, 1177.812
546.1940, 1418.138
547.3700, 1440.453
548.5470, 1738.756
549.7230, 1836.069
550.8980, 1856.369
552.0740, 1947.662
553.2500, 2149.943
554.4250, 2124.209
555.6000, 2093.461
556.7750, 2082.701
557.9500, 1763.926
559.1250, 1548.163
560.2990, 1316.387
561.4730, 1125.594
562.6480, 951.3672
563.8220, 760.9639
564.9950, 666.1260
566.1690, 541.2695
567.3430, 463.3984
568.5160, 440.5117
569.6890, 274.6064
570.8620, 385.7051
572.0350, 402.7852
573.2070, 290.7842
574.3800, 247.8291
575.5520, 326.8584
576.7240, 175.2041
577.8960, 183.1963
579.0680, 155.4307
580.2400, 215.4102
581.4110, 67.93848
582.5830, 134.0449
583.7540, 59.44238
584.9250, 76.37207
586.0950, 79.65137
587.2660, 27.19043
588.4370, 82.93750
589.6070, 64.10742
590.7770, 75.78613
591.9470, 28.26074
593.1170, 106.1025
594.2860, 98.73633
595.4560, 16.61816
596.6250, 27.45898
597.7940, 0.1718750
598.9630, 113.1562
600.1320, 16.46680
601.3000, 165.7432
602.4690, 74.00195
603.6370, 230.4531
604.8050, 107.3525
605.9730, 33.16992
607.1410, 95.01660
608.3090, 135.2178
609.4760, 28.69141
610.6430, 51.77148
611.8100, 178.0312
612.9770, 180.3672
614.1440, 147.7471
615.3110, 154.1592
616.4770, 197.6025
617.6430, 288.5020
618.8090, 309.1982
619.9750, 408.1406
621.1410, 364.6943
622.3070, 553.3867
623.4720, 496.2061
624.6370, 500.2051
625.8020, 705.8828
626.9670, 670.6035
628.1320, 620.2246
629.2970, 875.9453
630.4610, 945.1836
631.6250, 1031.406
632.7890, 1029.176
633.9530, 1200.156
635.1170, 1209.647
636.2810, 1350.725
637.4440, 1720.930
638.6070, 1811.582
639.7700, 2208.613
640.9330, 2541.227
642.0960, 2526.619
643.2590, 3018.876
644.4210, 3554.659
645.5830, 4274.865
646.7450, 4860.152
647.9070, 5616.468
649.0690, 6715.695
650.2310, 7598.012
651.3920, 8689.430
652.5530, 10028.97
653.7140, 11313.99
654.8750, 12771.57
656.0360, 14286.97
657.1970, 15938.32
658.3570, 17433.56
659.5170, 19069.38
660.6770, 20569.73
661.8370, 22060.50
662.9970, 23445.14
664.1570, 24321.71
665.3160, 25155.53
666.4750, 25272.37
667.6340, 24765.13
668.7930, 23289.86
669.9520, 21483.25
671.1110, 19502.55
672.2690, 17073.57
673.4270, 14928.62
674.5850, 12866.20
675.7430, 11236.75
676.9010, 9460.265
678.0590, 7927.808
679.2160, 6773.590
680.3730, 5862.424
681.5300, 4873.064
682.6870, 4357.281
683.8440, 3801.609
685.0010, 3311.027
686.1570, 2836.734
687.3130, 2571.069
688.4690, 2293.402
689.6250, 2136.922
690.7810, 1932.029
691.9370, 1738.497
693.0920, 1558.639
694.2470, 1411.338
695.4020, 1280.915
696.5570, 1169.370
697.7120, 1094.959
698.8670, 1025.339
700.0210, 990.2451
701.1750, 903.3398
702.3290, 864.1504
703.4830, 857.9277
704.6370, 783.6729
705.7910, 818.4902
706.9440, 758.1699
708.0970, 699.8164
709.2510, 629.7705
710.4030, 703.3516
711.5560, 632.3008
712.7090, 648.7158
713.8610, 611.9551
715.0140, 655.4150
716.1660, 697.9014
717.3180, 697.3545
718.4690, 726.0283
719.6210, 692.5010
720.7730, 662.5898
721.9240, 694.9834
723.0750, 667.2500
724.2260, 497.1602
725.3770, 635.2773
726.5270, 710.4912
727.6780, 616.6191
728.8280, 484.5918
729.9780, 481.6621
731.1280, 512.7998
732.2780, 520.8857
733.4280, 325.3916
734.5770, 186.0957
735.7260, 256.2051
736.8760, 381.9824
738.0250, 230.9473
739.1730, 446.5195
740.3220, 373.4971
741.4700, 176.1953
742.6190, 66.88770
743.7670, 52.78516
744.9150, 208.9180
746.0630, 57.45898
747.2100, 251.1221
748.3580, 112.3975
749.5050, 153.3848
750.6520, 129.0059
751.7990, 36.59570
752.9460, 101.1250
754.0930, 93.64258
755.2390, 276.1270
756.3860, 21.58398
757.5320, 30.00195
758.6780, 291.3418
759.8240, 0.3437500
760.9690, 45.91797
762.1150, 163.1436
763.2600, 88.65527
764.4060, 2.464844
765.5510, 143.4639
766.6950, 187.4912
767.8400, 0.4179690
768.9850, 70.29590
770.1290, 31.14160
771.2730, 96.95020
772.4170, 103.2715
773.5610, 70.40527
774.7050, 68.95020
775.8480, 29.38867
776.9920, 62.11133
778.1350, 138.5791
779.2780, 205.0215
780.4210, 43.56152
781.5640, 11.78906
782.7060, 92.90137
783.8490, 337.3154
784.9910, 160.5078
786.1330, 271.6758
787.2750, 143.8203
788.4170, 110.9395
789.5580, 9.964844
790.7000, 19.08203
791.8410, 51.09961
792.9820, 124.0898
794.1230, 48.05469
795.2640, 101.9941
796.4040, 13.90625
797.5450, 56.78906
798.6850, 10.64844
799.8250, 134.5234
800.9650, 15.19727
802.1050, 76.10742
803.2450, 134.5117
804.3840, 164.1094
805.5230, 149.6875
806.6630, 90.75391
807.8020, 10.72461
808.9400, 44.17773
810.0790, 27.60742
811.2170, 149.0137
812.3560, 226.4023
813.4940, 132.7715
814.6320, 110.1211
815.7700, 43.45117
816.9070, 21.76172
818.0450, 58.05078
819.1820, 87.68164
820.3190, 166.5156
821.4560, 81.69531
822.5930, 4.857422
823.7300, 82.00000
824.8670, 80.87891
826.0030, 18.18359
827.1390, 15.77539
828.2750, 10.24023
829.4110, 78.23633
830.5470, 178.2129
831.6820, 35.17969
832.8180, 42.12500
833.9530, 108.9453
835.0880, 115.9141
836.2230, 73.75781
837.3580, 18.58789
838.4920, 143.4004
839.6270, 88.20117
840.7610, 159.7871
841.8950, 43.75977
843.0290, 173.5195
844.1630, 135.2656
845.2960, 86.00195
846.4300, 94.67969
847.5630, 280.3496
848.6960, 89.00586
849.8290, 43.65039
850.9620, 100.2852
852.0940, 104.9062
853.2270, 193.5176
854.3590, 108.8828
855.4910, 193.6582
856.6230, 73.18945
857.7550, 235.7109
858.8870, 194.2227
860.0180, 225.7520
861.1500, 101.2715
862.2810, 121.7793
863.4120, 14.28711
864.5430, 132.7832
865.6730, 169.2734
866.8040, 175.7832
867.9340, 233.2910
869.0640, 227.0605
870.1940, 152.3945
871.3240, 242.7656
872.4540, 239.3379
873.5830, 276.4395
874.7130, 198.5059
875.8420, 302.0918
876.9710, 396.6777
878.1000, 426.0449
879.2290, 327.9375
880.3570, 297.2266
881.4860, 367.7754
882.6140, 424.2832
883.7420, 358.8711
884.8700, 315.0566
885.9980, 429.4180
887.1250, 375.6758
888.2530, 529.8652
889.3800, 505.9941
890.5070, 465.0684
891.6340, 459.6641
892.7610, 526.4375
893.8880, 484.2344
895.0140, 386.8438
896.1400, 278.5859
897.2670, 325.1777
898.3930, 330.6387
899.5180, 424.9492
900.6440, 452.0117
901.7700, 337.9473
902.8950, 271.5332
904.0200, 392.5938
905.1450, 314.6426
906.2700, 389.1250
907.3950, 379.3711
908.5190, 420.0898
909.6440, 430.1992
910.7680, 455.1582
911.8920, 486.6465
913.0160, 373.7324
914.1400, 540.2148
915.2630, 423.8945
916.3870, 440.6895
917.5100, 769.9316
918.6330, 552.7695
919.7560, 695.5098
920.8790, 666.1973
922.0010, 634.9492
923.1240, 714.5938
924.2460, 792.1133
925.3680, 668.4922
926.4900, 1065.375
927.6120, 755.6680
928.7340, 991.3066
929.8550, 1011.619
930.9760, 1078.223
932.0980, 1074.221
933.2190, 1266.672
934.3390, 1367.686
935.4600, 1319.834
936.5810, 1257.035
937.7010, 1383.988
938.8210, 1247.916
939.9410, 1267.900
941.0610, 1400.908
942.1810, 1292.246
943.3010, 1317.648
944.4200, 1159.312
945.5390, 956.9258
946.6580, 1100.990
947.7770, 917.0684
948.8960, 706.1582
950.0150, 739.2266
951.1330, 653.0508
952.2510, 620.8027
953.3690, 807.7285
954.4870, 949.0586
955.6050, 839.2559
956.7230, 700.3711
957.8400, 610.2031
958.9580, 859.3906
960.0750, 825.5586
961.1920, 1103.525
962.3090, 942.8828
963.4250, 1085.863
964.5420, 1118.150
965.6580, 1371.523
966.7740, 1408.678
967.8900, 1378.889
969.0060, 1414.906
970.1220, 1589.342
971.2380, 1722.768
972.3530, 1790.984
973.4680, 1787.471
974.5830, 2087.971
975.6980, 2186.490
976.8130, 2367.922
977.9280, 2683.475
979.0420, 3109.043
980.1560, 3469.289
981.2710, 3979.889
982.3850, 4314.508
983.4980, 5263.141
984.6120, 5799.758
985.7260, 6887.424
986.8390, 7939.107
987.9520, 9545.805
989.0650, 11119.26
990.1780, 13282.00
991.2910, 15972.75
992.4030, 19115.53
993.5160, 22397.31
994.6280, 25602.12
995.7400, 29363.95
996.8520, 33199.80
997.9640, 36300.63
999.0750, 38562.52
1000.187, 40037.43
1001.298, 40617.75
1002.409, 40858.34
1003.520, 39390.33
1004.631, 37552.35
1005.741, 35043.36
1006.852, 32230.63
1007.962, 29465.13
1009.072, 26173.25
1010.182, 23468.33
1011.292, 21122.45
1012.402, 18660.59
1013.511, 16698.92
1014.621, 14808.36
1015.730, 13185.62
1016.839, 11679.87
1017.948, 10282.21
1019.056, 9218.484
1020.165, 8125.787
1021.273, 7438.107
1022.382, 6524.447
1023.490, 5827.807
1024.598, 5173.303
1025.706, 4726.701
1026.813, 4183.568
1027.921, 3657.783
1029.028, 3559.834
1030.135, 2929.344
1031.242, 2870.168
1032.349, 2578.641
1033.456, 2376.268
1034.562, 2359.924
1035.668, 1931.648
1036.775, 1912.607
1037.881, 1581.377
1038.987, 1687.166
1040.092, 1681.977
1041.198, 1620.781
1042.303, 1491.664
1043.408, 1370.562
1044.514, 1321.508
1045.618, 1333.486
1046.723, 1113.482
1047.828, 1220.516
1048.932, 1217.562
1050.037, 1152.670
1051.141, 1076.039
1052.245, 1023.391
1053.349, 995.5625
1054.452, 854.7520
1055.556, 883.9512
1056.659, 773.1660
1057.762, 878.4629
1058.865, 783.7148
1059.968, 863.9883
1061.071, 618.2754
1062.174, 678.5801
1063.276, 591.4668
1064.378, 781.7988
1065.480, 560.7969
1066.582, 576.1758
1067.684, 645.4629
1068.786, 623.0215
1069.887, 528.2500
1070.988, 641.1094
1072.090, 414.6133
1073.191, 696.7578
1074.291, 667.2871
1075.392, 677.0000
1076.493, 962.6152
1077.593, 1061.207
1078.693, 1079.814
1079.793, 1388.512
1080.893, 1702.141
1081.993, 2085.229
1083.092, 2397.830
1084.192, 2559.490
1085.291, 2701.162
1086.390, 2548.885
1087.489, 2326.602
1088.588, 1827.461
1089.686, 1786.549
1090.785, 1518.295
1091.883, 1239.053
1092.981, 1012.855
1094.079, 834.6523
1095.177, 794.4648
1096.275, 681.2871
1097.373, 672.1172
1098.470, 639.9551
1099.567, 441.8008
1100.664, 416.7090
1101.761, 388.8848
1102.858, 415.8789
1103.954, 293.7812
1105.051, 479.8398
1106.147, 266.0762
1107.243, 414.0039
1108.339, 414.5469
1109.435, 161.4844
1110.531, 435.4648
1111.626, 191.4160
1112.722, 244.3945
1113.817, 263.3789
1114.912, 323.3691
1116.007, 564.3652
1117.101, 465.3672
1118.196, 512.3730
1119.290, 420.3867
1120.385, 451.5742
1121.479, 363.8086
1122.573, 164.2070
1123.666, 278.6738
1124.760, 345.8496
1125.853, 162.9355
1126.947, 183.0195
1128.040, 275.1738
1129.133, 27.08984
1130.226, 196.2324
1131.318, 166.6445
1132.411, 157.9922
1133.503, 69.32422
1134.596, 66.51172
1135.688, 81.94336
1136.780, 15.05859
1137.871, 42.82422
1138.963, 67.84766
1140.054, 0.8281250
1141.146, 57.74219
1142.237, 19.32617
1143.328, 84.39648
1144.419, 41.46680
1145.509, 80.46289
1146.600, 151.5781
1147.690, 107.6211
1148.780, 54.33594
1149.870, 117.6855
1150.960, 80.71094
1152.050, 5.732422
1153.139, 73.75586
1154.229, 115.7773
1155.318, 4.201172
1156.407, 25.81836
1157.496, 72.16406
1158.585, 42.05078
1159.674, 72.53125
1160.762, 14.97070
1161.850, 46.75391
1162.939, 20.84570
1164.027, 105.0488
1165.114, 125.9434
1166.202, 131.4141
1167.290, 58.69727
1168.377, 127.1582
1169.464, 6.707031
1170.551, 54.55664
1171.638, 17.59961
1172.725, 148.2305
1173.812, 77.05469
1174.898, 140.8770
1175.984, 199.7891
1177.071, 202.6738
1178.157, 33.02930
1179.242, 49.83203
1180.328, 19.22461
1181.414, 143.5840
1182.499, 5.119141
1183.584, 58.81445
1184.669, 29.50195
1185.754, 108.1816
1186.839, 68.85938
1187.924, 8.472656
1189.008, 195.1758
1190.092, 110.8203
1191.177, 96.45703
1192.260, 85.18945
1193.344, 93.18945
1194.428, 102.3672
1195.512, 2.916016
1196.595, 45.44922
1197.678, 96.02344
1198.761, 22.43359
1199.844, 13.11719
1200.927, 85.69336
1202.009, 94.66406
1203.092, 40.98438
1204.174, 126.3242
1205.256, 24.62500
1206.338, 52.91406
1207.420, 233.1934
1208.502, 113.4629
1209.583, 46.72266
1210.665, 93.97461
1211.746, 81.78516
1212.827, 9.609375
1213.908, 131.5371
1214.988, 174.6719
1216.069, 63.79883
1217.149, 96.91406
1218.230, 57.98047
1219.310, 76.92969
1220.390, 177.0566
1221.470, 211.0332
1222.549, 76.99609
1223.629, 164.9512
1224.708, 137.8945
1225.787, 270.8262
1226.866, 182.7539
1227.945, 85.66406
1229.024, 182.5684
1230.103, 12.45703
1231.181, 33.32812
1232.259, 66.18164
1233.337, 242.0254
1234.415, 56.85352
1235.493, 34.70898
1236.571, 103.5469
1237.648, 26.37500
1238.726, 161.1836
1239.803, 88.98242
1240.880, 109.7695
1241.957, 119.1523
1243.034, 182.3066
1244.110, 120.0547
1245.187, 112.8379
1246.263, 179.5820
1247.339, 148.2949
1248.415, 225.9922
1249.491, 64.67969
1250.566, 61.35156
1251.642, 47.13477
1252.717, 44.61719
1253.793, 89.40625
1254.868, 113.0176
1255.943, 114.6172
1257.017, 100.2051
1258.092, 9.775391
1259.166, 106.3184
1260.241, 20.84375
1261.315, 12.65039
1262.389, 65.92188
1263.462, 1.261719
1264.536, 185.6738
1265.610, 185.0703
1266.683, 248.4551
1267.756, 114.6074
1268.829, 34.52734
1269.902, 266.8301
1270.975, 254.3398
1272.048, 306.6523
1273.120, 299.9512
1274.192, 263.5469
1275.264, 272.3340
1276.336, 246.5430
1277.408, 260.5996
1278.480, 199.7617
1279.551, 233.9805
1280.623, 190.1875
1281.694, 200.8223
1282.765, 274.5605
1283.836, 233.7285
1284.907, 149.7656
1285.977, 186.9043
1287.048, 90.58203
1288.118, 435.9395
