##NAMES=Kanoite
##RRUFFID=R061134
##IDEAL CHEMISTRY=Mn^2+^MgSi_2_O_6_
##LOCALITY=Balmat, St. Lawrence County, New York, USA
##OWNER=RRUFF
##SOURCE=Michael Scott
##DESCRIPTION=Yellowish brown granular aggregate
##STATUS=The identification of this mineral has been confirmed by X-ray diffraction and chemical analysis
##URL=rruff.info/R061134
##MEASURED CHEMISTRY=(Mn^2+^_0.88_Ca_0.12_)_Σ=1_(Mg_0.98_Fe^3+^_0.02_)_Σ=1_(Si_0.98_Al_0.02_)_2_O_6_
##PIN_ID=M00160
##ORIENTATION=Laser parallel to c* (0 0 1). Fiducial mark perpendicular to laser is parallel to a [1 0 0]
109.0250, 0.0000000E+00
110.2640, 153.3779
111.5030, 2.084961
112.7420, 177.4453
113.9810, 363.5186
115.2200, 293.4893
116.4580, 515.6367
117.6970, 109.1006
118.9350, 148.1357
120.1730, 151.2754
121.4100, 12.11035
122.6480, 340.9785
123.8850, 365.4795
125.1230, 653.8047
126.3600, 814.9336
127.5960, 933.8340
128.8330, 960.4697
130.0700, 1127.799
131.3060, 1075.779
132.5420, 1093.370
133.7780, 942.2090
135.0140, 1040.295
136.2500, 1105.864
137.4850, 1013.611
138.7200, 1144.913
139.9550, 1076.736
141.1900, 789.0488
142.4250, 723.8281
143.6600, 843.0469
144.8940, 882.6846
146.1280, 669.7217
147.3620, 735.1270
148.5960, 681.8682
149.8300, 410.9199
151.0630, 589.2637
152.2960, 442.8818
153.5300, 405.7637
154.7620, 104.9062
155.9950, 20.31250
157.2280, 96.98633
158.4600, 108.0791
159.6920, 142.0996
160.9250, 99.51270
162.1560, 100.8506
163.3880, 172.0010
164.6200, 288.0596
165.8510, 342.3203
167.0820, 125.7744
168.3130, 409.4150
169.5440, 321.2412
170.7750, 446.2441
172.0050, 312.4209
173.2350, 430.7617
174.4650, 287.2695
175.6950, 413.9365
176.9250, 336.7588
178.1550, 436.7314
179.3840, 441.8525
180.6130, 559.1191
181.8420, 575.5264
183.0710, 704.0479
184.3000, 938.5576
185.5280, 1089.068
186.7570, 1302.604
187.9850, 1370.174
189.2130, 1807.788
190.4400, 1782.449
191.6680, 2316.167
192.8960, 2485.945
194.1230, 2766.787
195.3500, 2703.694
196.5770, 2775.775
197.8030, 2890.943
199.0300, 3062.249
200.2560, 2773.835
201.4830, 2688.576
202.7090, 2545.545
203.9340, 2343.792
205.1600, 2327.145
206.3860, 2332.557
207.6110, 2432.004
208.8360, 2344.498
210.0610, 2203.023
211.2860, 2442.613
212.5100, 2527.267
213.7350, 2816.984
214.9590, 2785.766
216.1830, 3011.611
217.4070, 2793.523
218.6310, 2704.500
219.8540, 2664.541
221.0780, 2592.648
222.3010, 2148.819
223.5240, 2033.055
224.7470, 1939.354
225.9690, 1733.717
227.1920, 1821.145
228.4140, 1769.635
229.6360, 1615.190
230.8580, 1514.805
232.0800, 1486.482
233.3020, 1297.222
234.5230, 1171.023
235.7440, 1099.883
236.9650, 1072.805
238.1860, 1070.785
239.4070, 954.8242
240.6280, 1040.922
241.8480, 960.0781
243.0680, 1035.291
244.2880, 978.5605
245.5080, 1116.887
246.7280, 1079.271
247.9470, 1149.708
249.1660, 1162.200
250.3860, 899.7480
251.6040, 1086.348
252.8230, 820.0020
254.0420, 756.7109
255.2600, 623.4688
256.4790, 613.5000
257.6970, 616.3906
258.9150, 595.2148
260.1320, 626.6543
261.3500, 497.3105
262.5670, 391.8242
263.7840, 529.1562
265.0010, 206.3301
266.2180, 131.6562
267.4350, 357.1230
268.6510, 277.5645
269.8680, 263.2793
271.0840, 95.10742
272.3000, 209.0410
273.5160, 189.0781
274.7310, 60.21875
275.9470, 218.4531
277.1620, 302.7832
278.3770, 414.2051
279.5920, 397.7129
280.8070, 426.2461
282.0210, 505.0273
283.2360, 465.7207
284.4500, 491.4180
285.6640, 461.2031
286.8780, 424.0957
288.0920, 481.3242
289.3050, 571.5000
290.5180, 617.2441
291.7320, 715.2402
292.9450, 788.9082
294.1570, 932.9277
295.3700, 1012.908
296.5830, 1162.639
297.7950, 1316.838
299.0070, 1693.404
300.2190, 1672.031
301.4310, 1851.732
302.6420, 1729.496
303.8540, 1947.324
305.0650, 2280.867
306.2760, 2167.807
307.4870, 2495.826
308.6980, 2481.852
309.9080, 2591.033
311.1190, 2898.295
312.3290, 3354.602
313.5390, 3731.973
314.7490, 4267.387
315.9580, 4658.850
317.1680, 5207.379
318.3770, 5780.957
319.5860, 6087.590
320.7950, 6438.270
322.0040, 6638.988
323.2130, 6712.750
324.4210, 6722.551
325.6290, 6263.391
326.8380, 6063.273
328.0460, 5418.205
329.2530, 5240.174
330.4610, 4649.180
331.6680, 4274.238
332.8760, 3815.338
334.0830, 3342.471
335.2890, 3069.645
336.4960, 2731.854
337.7030, 2351.100
338.9090, 2116.385
340.1150, 1883.703
341.3210, 1962.059
342.5270, 1804.451
343.7330, 1951.879
344.9380, 1599.342
346.1440, 1758.840
347.3490, 1944.369
348.5540, 1907.932
349.7590, 2121.523
350.9630, 2108.148
352.1680, 2252.803
353.3720, 2439.486
354.5760, 2542.201
355.7800, 2600.947
356.9840, 2432.719
358.1870, 2365.523
359.3910, 2200.357
360.5940, 2139.219
361.7970, 2170.107
363.0000, 2153.027
364.2030, 1956.975
365.4050, 1958.951
366.6080, 2051.953
367.8100, 2175.982
369.0120, 2279.037
370.2140, 2257.123
371.4150, 2389.232
372.6170, 2470.369
373.8180, 2255.533
375.0190, 1997.719
376.2200, 1705.936
377.4210, 1814.176
378.6220, 1546.439
379.8220, 1793.730
381.0230, 1807.047
382.2230, 1708.385
383.4230, 1769.748
384.6220, 2144.135
385.8220, 2099.545
387.0220, 2226.977
388.2210, 2406.434
389.4200, 2401.914
390.6190, 2401.414
391.8180, 2416.078
393.0160, 2311.611
394.2150, 2239.047
395.4130, 2008.633
396.6110, 1708.244
397.8090, 1365.873
399.0060, 1081.525
400.2040, 999.1953
401.4010, 924.8984
402.5980, 471.6406
403.7950, 419.4277
404.9920, 191.2461
406.1890, 260.1035
407.3860, 278.9941
408.5820, 279.9160
409.7780, 385.8730
410.9740, 322.8594
412.1700, 373.8770
413.3650, 586.9238
414.5610, 447.0020
415.7560, 428.1133
416.9510, 420.2480
418.1460, 149.4141
419.3410, 151.6055
420.5360, 76.82617
421.7300, 143.0723
422.9240, 190.3438
424.1180, 57.64258
425.3120, 158.0312
426.5060, 94.25195
427.7000, 91.56445
428.8930, 70.10156
430.0860, 60.23047
431.2790, 136.4141
432.4720, 245.0918
433.6650, 90.14844
434.8580, 70.58789
436.0500, 143.3340
437.2420, 82.11523
438.4340, 194.9102
439.6260, 151.7676
440.8180, 158.6719
442.0090, 129.7344
443.2010, 10.80664
444.3920, 67.69531
445.5830, 33.69922
446.7740, 92.28516
447.9640, 66.08398
449.1550, 89.03516
450.3450, 69.61914
451.5350, 236.4629
452.7250, 255.7324
453.9150, 496.6816
455.1050, 610.9453
456.2940, 809.4785
457.4830, 1017.982
458.6720, 1416.291
459.8610, 1894.953
461.0500, 2672.266
462.2390, 3208.732
463.4270, 3816.701
464.6150, 4011.080
465.8040, 3930.479
466.9910, 3383.295
468.1790, 2834.715
469.3670, 2125.156
470.5540, 1659.453
471.7410, 1178.918
472.9280, 1078.404
474.1150, 922.3477
475.3020, 702.8535
476.4890, 471.3750
477.6750, 485.9141
478.8610, 373.4766
480.0470, 203.0625
481.2330, 114.6816
482.4190, 399.3203
483.6040, 305.9863
484.7900, 219.6934
485.9750, 279.4043
487.1600, 76.14453
488.3450, 113.8965
489.5290, 78.65234
490.7140, 103.4199
491.8980, 194.2012
493.0820, 232.0176
494.2660, 223.8594
495.4500, 362.7090
496.6340, 370.5664
497.8170, 485.4277
499.0010, 396.2930
500.1840, 349.1836
501.3670, 554.0840
502.5500, 655.9883
503.7320, 458.9043
504.9150, 547.8223
506.0970, 362.7422
507.2790, 576.6699
508.4610, 864.6035
509.6430, 856.5410
510.8250, 752.5371
512.0060, 886.5371
513.1870, 986.5918
514.3680, 917.6602
515.5490, 1129.729
516.7300, 1185.799
517.9110, 1137.871
519.0910, 1101.943
520.2710, 1336.020
521.4510, 1130.104
522.6310, 1175.186
523.8110, 999.2656
524.9910, 950.3457
526.1700, 807.4238
527.3490, 806.6699
528.5280, 779.5137
529.7070, 838.6465
530.8860, 802.7148
532.0650, 827.7812
533.2430, 852.8477
534.4210, 818.9082
535.5990, 830.9648
536.7770, 1019.021
537.9550, 845.0723
539.1320, 987.1191
540.3100, 956.1641
541.4870, 1134.205
542.6640, 1113.242
543.8410, 1240.275
545.0170, 1194.332
546.1940, 1291.389
547.3700, 1102.441
548.5470, 1352.488
549.7230, 1515.531
550.8980, 1469.566
552.0740, 1816.617
553.2500, 1696.658
554.4250, 1842.693
555.6000, 1882.732
556.7750, 1566.768
557.9500, 1581.791
559.1250, 1454.814
560.2990, 1132.828
561.4730, 1023.836
562.6480, 730.8320
563.8220, 692.8203
564.9950, 586.7988
566.1690, 556.7676
567.3430, 578.5625
568.5160, 323.5254
569.6890, 396.4785
570.8620, 299.4746
572.0350, 290.4258
573.2070, 169.1074
574.3800, 184.7656
575.5520, 163.4883
576.7240, 212.6465
577.8960, 172.8203
579.0680, 154.0215
580.2400, 158.3125
581.4110, 126.9062
582.5830, 9.921875
583.7540, 133.9180
584.9250, 48.25195
586.0950, 19.52344
587.2660, 9.720703
588.4370, 28.00000
589.6070, 24.70117
590.7770, 70.61914
591.9470, 5.994141
593.1170, 175.4062
594.2860, 73.93359
595.4560, 182.4668
596.6250, 18.14453
597.7940, 52.20117
598.9630, 144.5293
600.1320, 50.12305
601.3000, 24.86523
602.4690, 13.60547
603.6370, 37.57812
604.8050, 166.9355
605.9730, 146.5664
607.1410, 46.73633
608.3090, 163.8496
609.4760, 251.4336
610.6430, 6.412109
611.8100, 235.0488
612.9770, 310.1309
614.1440, 14.86133
615.3110, 151.6855
616.4770, 188.0645
617.6430, 280.5566
618.8090, 328.6602
619.9750, 260.6699
621.1410, 286.4824
622.3070, 378.5801
623.4720, 303.2891
624.6370, 481.3262
625.8020, 628.1230
626.9670, 642.7324
628.1320, 784.4355
629.2970, 663.1836
630.4610, 507.2500
631.6250, 916.9727
632.7890, 687.5723
633.9530, 904.8457
635.1170, 907.9336
636.2810, 1191.752
637.4440, 1229.336
638.6070, 1274.898
639.7700, 1656.463
640.9330, 2003.156
642.0960, 2006.064
643.2590, 2304.230
644.4210, 2628.676
645.5830, 3026.096
646.7450, 3370.355
647.9070, 3833.660
649.0690, 4688.465
650.2310, 5432.430
651.3920, 6378.729
652.5530, 7234.941
653.7140, 8322.395
654.8750, 9255.207
656.0360, 10308.75
657.1970, 11084.97
658.3570, 12556.36
659.5170, 13303.51
660.6770, 14425.72
661.8370, 15564.03
662.9970, 16442.06
664.1570, 17438.06
665.3160, 18327.04
666.4750, 19084.98
667.6340, 19002.90
668.7930, 18564.78
669.9520, 17453.65
671.1110, 16229.48
672.2690, 14868.62
673.4270, 13340.43
674.5850, 11231.18
675.7430, 9813.900
676.9010, 8160.906
678.0590, 6762.566
679.2160, 5793.555
680.3730, 4756.156
681.5300, 4175.047
682.6870, 3670.660
683.8440, 3031.908
685.0010, 2822.322
686.1570, 2558.016
687.3130, 2112.227
688.4690, 1905.850
689.6250, 1750.219
690.7810, 1728.283
691.9370, 1496.654
693.0920, 1263.928
694.2470, 1257.480
695.4020, 1114.992
696.5570, 1082.477
697.7120, 1006.615
698.8670, 752.7363
700.0210, 893.3789
701.1750, 986.4375
702.3290, 663.9102
703.4830, 702.9082
704.6370, 550.0918
705.7910, 635.0254
706.9440, 560.6602
708.0970, 298.5664
709.2510, 501.2109
710.4030, 674.0645
711.5560, 253.9023
712.7090, 647.5078
713.8610, 537.3477
715.0140, 597.1914
716.1660, 466.2480
717.3180, 533.2754
718.4690, 523.0488
719.6210, 573.0039
720.7730, 576.9199
721.9240, 433.2305
723.0750, 582.9824
724.2260, 450.9023
725.3770, 451.6953
726.5270, 414.8945
727.6780, 442.8672
728.8280, 572.6836
729.9780, 618.9453
731.1280, 565.0234
732.2780, 445.4902
733.4280, 389.2637
734.5770, 368.6133
735.7260, 272.6191
736.8760, 302.0312
738.0250, 197.3828
739.1730, 41.36328
740.3220, 128.6660
741.4700, 204.8027
742.6190, 149.4199
743.7670, 45.60547
744.9150, 186.7461
746.0630, 211.4551
747.2100, 15.53906
748.3580, 177.5723
749.5050, 105.7305
750.6520, 22.70312
751.7990, 225.6289
752.9460, 85.07617
754.0930, 37.93945
755.2390, 32.76172
756.3860, 18.44922
757.5320, 1.712891
758.6780, 47.08398
759.8240, 12.49414
760.9690, 30.97656
762.1150, 68.88477
763.2600, 192.8535
764.4060, 31.80273
765.5510, 52.47070
766.6950, 179.7070
767.8400, 31.91602
768.9850, 45.08789
770.1290, 83.77734
771.2730, 15.78711
772.4170, 24.24219
773.5610, 127.1816
774.7050, 236.0918
775.8480, 290.9766
776.9920, 41.16406
778.1350, 29.62305
779.2780, 83.37500
780.4210, 11.09766
781.5640, 203.7773
782.7060, 212.4336
783.8490, 40.06250
784.9910, 34.66211
786.1330, 71.22461
787.2750, 184.2422
788.4170, 174.1523
789.5580, 174.4785
790.7000, 4.246094
791.8410, 49.94141
792.9820, 76.10156
794.1230, 143.2324
795.2640, 96.33984
796.4040, 15.42188
797.5450, 10.47266
798.6850, 90.49023
799.8250, 163.4805
800.9650, 153.6699
802.1050, 171.6973
803.2450, 165.3203
804.3840, 156.2207
805.5230, 166.3418
806.6630, 221.9570
807.8020, 138.7949
808.9400, 56.60742
810.0790, 127.4004
811.2170, 147.1680
812.3560, 159.9160
813.4940, 55.64258
814.6320, 134.3477
815.7700, 43.03320
816.9070, 182.6934
818.0450, 48.33398
819.1820, 106.9531
820.3190, 97.44922
821.4560, 4.927734
822.5930, 61.56445
823.7300, 2.962891
824.8670, 59.47852
826.0030, 184.9004
827.1390, 70.69727
828.2750, 93.64648
829.4110, 252.9727
830.5470, 50.72070
831.6820, 32.54102
832.8180, 28.77930
833.9530, 14.99805
835.0880, 156.1953
836.2230, 3.630859
837.3580, 158.5254
838.4920, 0.3359380
839.6270, 273.7812
840.7610, 35.88281
841.8950, 171.9648
843.0290, 66.96289
844.1630, 101.0547
845.2960, 85.93945
846.4300, 162.0098
847.5630, 72.94336
848.6960, 57.13867
849.8290, 205.7402
850.9620, 27.39648
852.0940, 4.443359
853.2270, 8.267578
854.3590, 175.0742
855.4910, 20.86523
856.6230, 56.64453
857.7550, 133.4082
858.8870, 229.1680
860.0180, 136.9141
861.1500, 195.0605
862.2810, 212.4180
863.4120, 129.1641
864.5430, 150.9023
865.6730, 21.63281
866.8040, 78.62305
867.9340, 291.0898
869.0640, 97.84961
870.1940, 347.6230
871.3240, 176.3867
872.4540, 186.1562
873.5830, 74.91406
874.7130, 251.6309
875.8420, 331.6582
876.9710, 225.1152
878.1000, 294.8789
879.2290, 116.4434
880.3570, 317.7129
881.4860, 304.4160
882.6140, 288.1562
883.7420, 214.4043
884.8700, 315.0703
885.9980, 434.3945
887.1250, 375.0762
888.2530, 381.8027
889.3800, 407.9551
890.5070, 401.2520
891.6340, 396.6387
892.7610, 515.9316
893.8880, 350.5234
895.0140, 461.2871
896.1400, 418.7441
897.2670, 343.5742
898.3930, 415.0664
899.5180, 463.7734
900.6440, 469.6484
901.7700, 459.7832
902.8950, 460.2109
904.0200, 387.4395
905.1450, 402.1055
906.2700, 383.8711
907.3950, 322.9395
908.5190, 443.1680
909.6440, 355.6445
910.7680, 452.3379
911.8920, 530.0391
913.0160, 487.7266
914.1400, 556.2910
915.2630, 592.2324
916.3870, 611.6895
917.5100, 682.4531
918.6330, 790.2188
919.7560, 836.1250
920.8790, 776.9648
922.0010, 1004.279
923.1240, 771.4160
924.2460, 1037.203
925.3680, 1137.049
926.4900, 1296.660
927.6120, 1094.891
928.7340, 1017.383
929.8550, 1182.178
930.9760, 1053.820
932.0980, 1191.678
933.2190, 1162.453
934.3390, 1082.117
935.4600, 1150.043
936.5810, 1117.973
937.7010, 1130.914
938.8210, 1317.857
939.9410, 1162.809
941.0610, 1127.791
942.1810, 1208.781
943.3010, 956.7773
944.4200, 1144.447
945.5390, 683.4238
946.6580, 1092.469
947.7770, 828.5215
948.8960, 530.2656
950.0150, 503.3340
951.1330, 555.0762
952.2510, 630.1836
953.3690, 414.9785
954.4870, 585.0332
955.6050, 599.4297
956.7230, 542.6406
957.8400, 635.5508
958.9580, 587.9277
960.0750, 817.8672
961.1920, 804.0625
962.3090, 800.5410
963.4250, 690.6953
964.5420, 783.9238
965.6580, 903.8535
966.7740, 1028.807
967.8900, 974.7617
969.0060, 1049.047
970.1220, 1198.330
971.2380, 1230.072
972.3530, 1500.436
973.4680, 1456.371
974.5830, 1423.766
975.6980, 1720.951
976.8130, 1886.369
977.9280, 2093.096
979.0420, 2202.537
980.1560, 2454.445
981.2710, 2492.680
982.3850, 3011.141
983.4980, 3422.842
984.6120, 3879.344
985.7260, 4585.826
986.8390, 5517.090
987.9520, 6209.389
989.0650, 7471.943
990.1780, 8855.344
991.2910, 10632.91
992.4030, 12723.51
993.5160, 14901.14
994.6280, 17659.78
995.7400, 20286.43
996.8520, 23114.11
997.9640, 25720.79
999.0750, 27954.51
1000.187, 28917.14
1001.298, 29604.70
1002.409, 29442.46
1003.520, 28337.23
1004.631, 26895.02
1005.741, 24467.81
1006.852, 22490.62
1007.962, 19966.45
1009.072, 18123.29
1010.182, 15922.16
1011.292, 13874.04
1012.402, 12439.20
1013.511, 10963.10
1014.621, 9907.047
1015.730, 8716.152
1016.839, 7891.525
1017.948, 7094.770
1019.056, 6195.812
1020.165, 5820.842
1021.273, 5103.895
1022.382, 4556.959
1023.490, 4198.039
1024.598, 3944.143
1025.706, 3464.264
1026.813, 3179.418
1027.921, 2911.600
1029.028, 2684.826
1030.135, 2477.996
1031.242, 2237.988
1032.349, 2118.314
1033.456, 2012.658
1034.562, 1827.035
1035.668, 2036.432
1036.775, 1400.838
1037.881, 1968.264
1038.987, 1989.711
1040.092, 1784.295
1041.198, 2223.816
1042.303, 2408.387
1043.408, 2184.574
1044.514, 2058.432
1045.618, 1814.867
1046.723, 1710.385
1047.828, 1729.270
1048.932, 1488.492
1050.037, 1403.229
1051.141, 1323.939
1052.245, 1204.660
1053.349, 1086.398
1054.452, 1009.453
1055.556, 903.5449
1056.659, 815.7461
1057.762, 800.5957
1058.865, 657.6680
1059.968, 768.6289
1061.071, 540.7930
1062.174, 635.9277
1063.276, 570.8867
1064.378, 588.8750
1065.480, 688.9941
1066.582, 508.3496
1067.684, 544.3789
1068.786, 433.5781
1069.887, 252.6289
1070.988, 463.8105
1072.090, 460.8770
1073.191, 451.4492
1074.291, 176.8066
1075.392, 372.5508
1076.493, 165.8555
1077.593, 593.9707
1078.693, 315.4609
1079.793, 449.7227
1080.893, 347.8633
1081.993, 581.0117
1083.092, 375.2441
1084.192, 444.4531
1085.291, 372.1367
1086.390, 440.8789
1087.489, 237.0781
1088.588, 228.3125
1089.686, 303.5586
1090.785, 416.2148
1091.883, 220.4805
1092.981, 315.0977
1094.079, 308.5020
1095.177, 72.05664
1096.275, 309.3730
1097.373, 424.6934
1098.470, 179.0352
1099.567, 311.3848
1100.664, 273.7402
1101.761, 476.1074
1102.858, 404.7949
1103.954, 343.9648
1105.051, 160.8066
1106.147, 278.2520
1107.243, 233.6484
1108.339, 118.0527
1109.435, 343.4570
1110.531, 162.8867
1111.626, 386.3184
1112.722, 127.7793
1113.817, 363.3555
1114.912, 386.8242
1116.007, 502.3125
1117.101, 523.8008
1118.196, 665.3965
1119.290, 641.8965
1120.385, 596.4004
1121.479, 561.0020
1122.573, 514.2168
1123.666, 550.4902
1124.760, 439.0625
1125.853, 511.0469
1126.947, 533.5898
1128.040, 256.9453
1129.133, 105.4902
1130.226, 456.0996
1131.318, 113.6855
1132.411, 85.23633
1133.503, 209.8008
1134.596, 165.3672
1135.688, 166.5430
1136.780, 211.5000
1137.871, 87.06641
1138.963, 123.6348
1140.054, 30.55664
1141.146, 85.70703
1142.237, 209.2754
1143.328, 13.93750
1144.419, 47.62500
1145.509, 31.34766
1146.600, 36.08789
1147.690, 16.53906
1148.780, 74.85547
1149.870, 0.2070310
1150.960, 6.302734
1152.050, 106.0625
1153.139, 186.5684
1154.229, 169.0703
1155.318, 51.57227
1156.407, 43.07422
1157.496, 44.57227
1158.585, 26.07031
1159.674, 245.2051
1160.762, 24.30469
1161.850, 71.82617
1162.939, 121.6152
1164.027, 170.0527
1165.114, 183.5020
1166.202, 238.6367
1167.290, 98.38672
1168.377, 184.8223
1169.464, 131.2539
1170.551, 7.679688
1171.638, 82.10156
1172.725, 59.46680
1173.812, 8.126953
1174.898, 37.72852
1175.984, 45.92578
1177.071, 101.6777
1178.157, 8.423828
1179.242, 55.14258
1180.328, 40.07812
1181.414, 57.29297
1182.499, 64.50195
1183.584, 72.70508
1184.669, 91.89648
1185.754, 22.91602
1186.839, 11.24414
1187.924, 102.3965
1189.008, 90.46094
1190.092, 59.61914
1191.177, 26.30859
1192.260, 24.96094
1193.344, 116.9453
1194.428, 122.9883
1195.512, 43.91602
1196.595, 25.16797
1197.678, 98.72266
1198.761, 37.60352
1199.844, 238.4824
1200.927, 49.35352
1202.009, 130.2148
1203.092, 71.93555
1204.174, 18.85742
1205.256, 6.636719
1206.338, 38.39648
1207.420, 92.14453
1208.502, 67.11328
1209.583, 58.56641
1210.665, 210.2383
1211.746, 225.8984
1212.827, 59.92578
1213.908, 341.6680
1214.988, 132.2500
1216.069, 76.82031
1217.149, 152.3809
1218.230, 208.9297
1219.310, 326.4668
1220.390, 22.99609
1221.470, 168.5078
1222.549, 43.99414
1223.629, 77.45703
1224.708, 48.89453
1225.787, 256.3164
1226.866, 279.7266
1227.945, 158.1250
1229.024, 230.5117
1230.103, 308.8848
1231.181, 159.2422
1232.259, 41.58984
1233.337, 190.0781
1234.415, 7.121094
1235.493, 106.2969
1236.571, 322.4609
1237.648, 350.6133
1238.726, 376.0195
1239.803, 239.2520
1240.880, 272.3633
1241.957, 247.4922
1243.034, 98.58008
1244.110, 236.3828
1245.187, 279.4395
1246.263, 190.4863
1247.339, 106.5137
1248.415, 293.5293
1249.491, 177.5352
1250.566, 110.5195
1251.642, 41.49609
1252.717, 267.4492
1253.793, 12.60547
1254.868, 43.29297
1255.943, 197.8984
1257.017, 34.33594
1258.092, 350.7070
1259.166, 9.371094
1260.241, 134.4141
1261.315, 225.2188
1262.389, 268.0000
1263.462, 150.7734
1264.536, 286.5273
1265.610, 278.2656
1266.683, 493.0156
1267.756, 178.7227
1268.829, 67.41797
1269.902, 49.09375
1270.975, 243.7500
1272.048, 99.39062
1273.120, 179.7500
1274.192, 7.640625
1275.264, 216.9258
1276.336, 187.3320
1277.408, 120.5391
1278.480, 118.8125
1279.551, 205.3477
1280.623, 92.83594
1281.694, 188.3047
1282.765, 256.7617
1283.836, 285.2188
1284.907, 244.8164
1285.977, 386.7891
