##NAMES=Kornerupine
##RRUFFID=R050214
##IDEAL CHEMISTRY=(Mg,Fe^2+^,Al,[box])_10_(Si,Al,B)_5_O_21_(OH,F)_2_
##LOCALITY=Sri Lanka
##OWNER=RRUFF
##SOURCE=Jibamitra Ganguly
##DESCRIPTION=Water-worn single crystal fragment
##STATUS=The identification of this mineral has been confirmed by X-ray diffraction and chemical analysis
##URL=rruff.info/R050214
##MEASURED CHEMISTRY=(Mg_3.63_[box]_0.21_Fe^2+^_0.14_Na_0.02_)_4_Al_6.00_(Si_2.44_Al_1.97_B_0.59_)_5_O_21_(OH) ;   B and Li not measured; B estimated by charge balance
##PIN_ID=L00317
##ORIENTATION=Laser parallel to a* (1 0 0). Fiducial mark perpendicular to laser is parallel to b [0 1 0]
94.768, 0.000
96.161, 257.525
97.554, 147.895
98.947, 147.557
100.340, 16.754
101.732, 108.338
103.124, 171.143
104.516, 303.209
105.908, 336.977
107.300, 415.023
108.691, 361.225
110.082, 497.109
111.473, 422.184
112.864, 559.115
114.254, 961.672
115.644, 1213.279
117.034, 1352.275
118.424, 1134.662
119.813, 1075.186
121.203, 1019.941
122.592, 939.994
123.981, 757.387
125.369, 651.160
126.758, 924.348
128.146, 716.979
129.534, 989.080
130.922, 860.660
132.309, 1063.732
133.696, 768.297
135.083, 1134.912
136.470, 1085.887
137.857, 1563.533
139.243, 1371.311
140.630, 1399.953
142.016, 1306.160
143.401, 1212.904
144.787, 1169.154
146.172, 1215.891
147.557, 1218.090
148.942, 1208.736
150.327, 1178.812
151.711, 1350.797
153.096, 1833.207
154.480, 1778.506
155.863, 2033.227
157.247, 2383.400
158.630, 2395.037
160.013, 2346.121
161.396, 2361.641
162.779, 2042.572
164.161, 1609.906
165.544, 1208.627
166.926, 762.723
168.308, 314.180
169.689, 99.988
171.070, 53.135
172.452, 153.609
173.833, 41.600
175.213, 136.502
176.594, 198.113
177.974, 273.729
179.354, 242.195
180.734, 225.107
182.114, 147.346
183.493, 108.510
184.872, 166.467
186.251, 297.543
187.630, 318.371
189.008, 257.066
190.387, 273.525
191.765, 152.121
193.143, 122.850
194.520, 90.723
195.898, 179.736
197.275, 16.898
198.652, 180.203
200.029, 397.646
201.405, 262.236
202.782, 301.979
204.158, 641.877
205.534, 988.936
206.909, 824.168
208.285, 1038.574
209.660, 1196.158
211.035, 1299.926
212.410, 1630.912
213.784, 1616.312
215.159, 2042.221
216.533, 2241.789
217.907, 2502.066
219.281, 2954.850
220.654, 3282.975
222.027, 3508.211
223.400, 3681.578
224.773, 3906.061
226.146, 4203.656
227.518, 4586.363
228.891, 4731.180
230.263, 4968.104
231.634, 5384.131
233.006, 5646.275
234.377, 5938.531
235.748, 6247.891
237.119, 6458.352
238.490, 6920.959
239.860, 7334.559
241.231, 7888.297
242.601, 8324.127
243.970, 8946.047
245.340, 9710.051
246.709, 10517.133
248.079, 11479.297
249.448, 12574.111
250.816, 13588.861
252.185, 15119.254
253.553, 16498.713
254.921, 18084.244
256.289, 18508.838
257.657, 18685.502
259.024, 17681.227
260.391, 16271.367
261.758, 13867.094
263.125, 12040.359
264.492, 10366.154
265.858, 8881.963
267.224, 7666.459
268.590, 6576.256
269.956, 6121.328
271.321, 5499.656
272.687, 5013.215
274.052, 4598.986
275.416, 4550.959
276.781, 4232.127
278.146, 4008.480
279.510, 4345.016
280.874, 4481.703
282.237, 5092.521
283.601, 5216.473
284.964, 5705.549
286.327, 6848.756
287.690, 7560.086
289.053, 8290.551
290.416, 9495.145
291.778, 10132.895
293.140, 11162.760
294.502, 10906.775
295.863, 10943.910
297.225, 10830.184
298.586, 10285.584
299.947, 9695.082
301.308, 8853.537
302.668, 8352.021
304.029, 7981.584
305.389, 7401.404
306.749, 7005.404
308.108, 7044.635
309.468, 6766.018
310.827, 6953.656
312.186, 6774.566
313.545, 7192.623
314.903, 7201.943
316.262, 7652.465
317.620, 8096.279
318.978, 8442.285
320.336, 8836.539
321.693, 9299.004
323.051, 9843.600
324.408, 9875.371
325.765, 10395.453
327.121, 10147.047
328.478, 10397.600
329.834, 9967.344
331.190, 9861.270
332.546, 8955.170
333.902, 8675.922
335.257, 7966.932
336.612, 7241.830
337.967, 6584.311
339.322, 6008.164
340.677, 5461.299
342.031, 4735.393
343.385, 4554.354
344.739, 4206.223
346.093, 3886.367
347.446, 3903.076
348.799, 3817.648
350.153, 3934.373
351.505, 4105.406
352.858, 4446.477
354.210, 4899.586
355.563, 5561.730
356.915, 6617.906
358.267, 7391.121
359.618, 8299.369
360.969, 9362.646
362.321, 9823.955
363.672, 10255.297
365.022, 10407.670
366.373, 10179.104
367.723, 10114.039
369.073, 9622.965
370.423, 9413.703
371.773, 8569.367
373.122, 8617.074
374.471, 8861.621
375.821, 8474.270
377.169, 8919.857
378.518, 8239.455
379.866, 8217.066
381.215, 8312.682
382.563, 8298.301
383.910, 8239.930
385.258, 8519.555
386.605, 8793.182
387.952, 8710.809
389.299, 9339.434
390.646, 9238.059
391.992, 9689.678
393.339, 9813.295
394.685, 10102.904
396.031, 10349.510
397.376, 9716.105
398.722, 9700.695
400.067, 8970.270
401.412, 8402.430
402.757, 7725.010
404.101, 7088.947
405.446, 6079.480
406.790, 5566.002
408.134, 4883.506
409.478, 4503.996
410.821, 3953.471
412.165, 3297.926
413.508, 3354.363
414.851, 3193.785
416.193, 2607.186
417.536, 2637.566
418.878, 2617.922
420.220, 2319.258
421.562, 2084.572
422.904, 2274.891
424.245, 2545.211
425.586, 2272.541
426.927, 2388.873
428.268, 2040.217
429.609, 1890.559
430.949, 1892.898
432.289, 1821.232
433.629, 1596.562
434.969, 1525.883
436.309, 1141.197
437.648, 1245.500
438.987, 1060.410
440.326, 723.242
441.665, 616.502
443.003, 774.746
444.342, 511.973
445.680, 815.182
447.018, 872.371
448.355, 541.789
449.693, 977.543
451.030, 729.162
452.367, 983.611
453.704, 680.156
455.041, 1098.105
456.377, 1027.283
457.713, 1386.094
459.049, 1572.814
460.385, 2112.520
461.721, 2505.174
463.056, 2460.252
464.391, 2393.479
465.726, 2540.654
467.061, 2407.861
468.395, 2017.117
469.730, 2156.588
471.064, 1803.143
472.398, 1879.357
473.731, 1608.930
475.065, 1498.543
476.398, 1401.535
477.731, 1203.377
479.064, 1139.463
480.397, 910.766
481.729, 816.334
483.062, 591.619
484.394, 600.914
485.725, 401.129
487.057, 316.266
488.389, 110.234
489.720, 89.111
491.051, 7.572
492.382, 99.270
493.712, 173.225
495.043, 190.074
496.373, 280.730
497.703, 264.447
499.032, 270.461
500.362, 218.766
501.691, 86.330
503.020, 203.072
504.349, 78.939
505.678, 310.857
507.007, 258.717
508.335, 426.473
509.663, 660.191
510.991, 956.873
512.319, 887.477
513.646, 1163.039
514.973, 1157.564
516.300, 1355.051
517.627, 1302.520
518.954, 977.971
520.280, 926.365
521.607, 810.736
522.933, 678.043
524.259, 631.275
525.584, 536.121
526.910, 427.475
528.235, 437.422
529.560, 491.270
530.885, 515.977
532.209, 513.604
533.534, 575.209
534.858, 541.658
536.182, 606.006
537.506, 710.256
538.829, 975.406
540.152, 848.455
541.476, 1184.406
542.799, 703.252
544.121, 1156.002
545.444, 1041.648
546.766, 951.195
548.088, 1085.641
549.410, 1026.982
550.732, 1125.223
552.053, 1281.359
553.375, 1200.395
554.696, 1042.328
556.017, 1375.158
557.337, 1342.885
558.658, 1250.506
559.978, 1457.023
561.298, 1769.438
562.618, 1574.748
563.938, 1816.955
565.257, 2231.055
566.576, 1748.055
567.895, 2183.945
569.214, 2224.730
570.533, 1946.416
571.851, 1723.994
573.170, 2041.465
574.488, 1842.832
575.805, 1692.094
577.123, 1329.250
578.440, 1412.303
579.758, 1435.248
581.075, 1089.086
582.391, 1365.818
583.708, 916.447
585.024, 876.969
586.341, 1118.387
587.657, 1105.695
588.972, 1150.898
590.288, 867.996
591.603, 893.896
592.918, 618.867
594.233, 686.645
595.548, 656.312
596.863, 449.875
598.177, 456.324
599.491, 590.656
600.805, 634.883
602.119, 641.018
603.432, 651.014
604.746, 597.918
606.059, 491.717
607.372, 372.404
608.685, 378.246
609.997, 184.406
611.309, 447.680
612.621, 167.840
613.933, 338.830
615.245, 231.691
616.557, 268.398
617.868, 36.965
619.179, 37.307
620.490, 162.578
621.801, 278.211
623.111, 293.141
624.421, 7.889
625.731, 216.881
627.041, 71.768
628.351, 335.785
629.660, 395.756
630.970, 63.826
632.279, 389.797
633.588, 174.861
634.896, 509.258
636.205, 149.156
637.513, 362.367
638.821, 242.002
640.129, 49.004
641.437, 132.193
642.744, 229.691
644.051, 146.354
645.358, 231.834
646.665, 400.309
647.972, 161.568
649.278, 386.588
650.584, 433.604
651.890, 900.736
653.196, 710.574
654.502, 836.494
655.807, 600.213
657.113, 671.344
658.418, 1003.514
659.722, 709.797
661.027, 654.033
662.331, 454.873
663.636, 820.383
664.940, 319.592
666.244, 569.551
667.547, 401.266
668.851, 638.480
670.154, 392.027
671.457, 371.021
672.760, 590.391
674.062, 325.102
675.365, 440.117
676.667, 517.949
677.969, 573.133
679.271, 634.297
680.572, 642.961
681.874, 1245.535
683.175, 1262.090
684.476, 1544.100
685.777, 1709.076
687.077, 1768.199
688.378, 2555.346
689.678, 3023.404
690.978, 3562.580
692.278, 3694.609
693.577, 5362.652
694.877, 5682.635
696.176, 6902.557
697.475, 7695.414
698.774, 8888.207
700.072, 9764.945
701.371, 10465.621
702.669, 10499.242
703.967, 11570.799
705.265, 11995.305
706.562, 11206.754
707.860, 10138.150
709.157, 10132.494
710.454, 8748.785
711.751, 8197.025
713.047, 6847.213
714.344, 6278.352
715.640, 4943.445
716.936, 4183.490
718.232, 4059.488
719.527, 3128.441
720.823, 2765.355
722.118, 2357.221
723.413, 1842.045
724.708, 1423.830
726.002, 1846.574
727.297, 1117.279
728.591, 1565.949
729.885, 1917.582
731.179, 1980.180
732.472, 2202.744
733.766, 2742.277
735.059, 3329.775
736.352, 3995.244
737.645, 4963.684
738.937, 5875.098
740.230, 6762.379
741.522, 7496.842
742.814, 8648.174
744.106, 9905.488
745.397, 10813.779
746.689, 11476.047
747.980, 12643.297
749.271, 13386.529
750.562, 14699.742
751.853, 14096.945
753.143, 14663.510
754.433, 14319.125
755.723, 13590.285
757.013, 13444.432
758.303, 11683.578
759.592, 10978.707
760.881, 9649.832
762.170, 8846.705
763.459, 7465.215
764.748, 6223.836
766.036, 5769.600
767.325, 4707.246
768.613, 4281.461
769.901, 3543.428
771.188, 2712.740
772.476, 2592.117
773.763, 1909.484
775.050, 2066.887
776.337, 1856.840
777.624, 1830.627
778.910, 1678.449
780.196, 1756.219
781.482, 1542.922
782.768, 1686.389
784.054, 1898.760
785.339, 2025.447
786.625, 1891.764
787.910, 2326.020
789.195, 2326.879
790.479, 2559.875
791.764, 3024.613
793.048, 2850.117
794.332, 3270.340
795.616, 2920.832
796.900, 3128.301
798.183, 2469.836
799.467, 2452.438
800.750, 2182.188
802.033, 1690.223
803.316, 2120.301
804.598, 955.570
805.880, 1138.969
807.163, 990.527
808.445, 610.242
809.726, 211.141
811.008, 173.227
812.289, 35.496
813.570, 203.945
814.851, 18.465
816.132, 136.707
817.413, 215.898
818.693, 14.020
819.973, 377.074
821.253, 365.148
822.533, 122.242
823.813, 341.281
825.092, 383.320
826.371, 370.379
827.650, 528.453
828.929, 491.859
830.208, 287.781
831.486, 479.953
832.764, 246.164
834.042, 171.344
835.320, 98.465
836.598, 152.488
837.875, 39.543
839.152, 245.703
840.429, 463.965
841.706, 138.328
842.983, 170.801
844.259, 789.375
845.536, 498.055
846.812, 811.844
848.088, 849.738
849.363, 957.293
850.639, 1222.449
851.914, 1467.082
853.189, 1794.422
854.464, 2377.867
855.739, 2943.430
857.013, 3061.109
858.288, 3319.898
859.562, 4254.809
860.836, 4658.836
862.110, 4866.980
863.383, 5745.242
864.656, 6271.625
865.930, 7063.129
867.203, 7618.754
868.475, 8406.504
869.748, 9032.371
871.020, 10082.371
872.292, 10731.488
873.564, 11399.738
874.836, 12208.113
876.108, 12576.617
877.379, 13354.250
878.650, 13828.008
879.922, 13705.973
881.192, 13522.066
882.463, 13392.289
883.733, 12564.645
885.004, 11736.141
886.274, 11141.789
887.544, 10242.227
888.813, 9447.332
890.083, 8568.684
891.352, 7800.945
892.621, 6906.363
893.890, 6216.934
895.159, 5314.652
896.427, 4662.531
897.695, 4182.930
898.964, 4079.805
900.232, 3505.199
901.499, 3015.801
902.767, 2950.594
904.034, 2490.531
905.301, 2423.613
906.568, 2423.844
907.835, 2157.219
909.102, 1744.746
910.368, 1626.430
911.634, 1866.348
912.900, 1573.492
914.166, 2052.848
915.432, 1506.395
916.697, 1271.168
917.962, 2380.203
919.227, 1495.512
920.492, 1686.031
921.757, 1514.754
923.021, 1760.672
924.285, 1847.762
925.550, 1820.062
926.813, 1906.621
928.077, 2081.414
929.341, 2207.469
930.604, 2643.699
931.867, 2371.223
933.130, 2698.988
934.393, 3531.043
935.655, 2865.312
936.918, 3965.973
938.180, 3826.965
939.442, 4033.180
940.703, 4866.766
941.965, 5086.621
943.226, 5473.867
944.488, 6345.398
945.749, 7017.953
947.009, 8224.383
948.270, 9061.727
949.530, 10310.332
950.791, 11693.234
952.051, 12455.312
953.311, 13500.625
954.570, 15524.094
955.830, 16292.746
957.089, 18021.562
958.348, 18606.531
959.607, 19731.641
960.866, 20138.922
962.124, 20673.477
963.383, 21667.289
964.641, 21818.371
965.899, 22180.695
967.156, 21761.711
968.414, 21479.961
969.671, 21602.840
970.928, 20923.391
972.185, 20568.723
973.442, 19823.719
974.699, 19259.289
975.955, 18424.672
977.211, 17582.680
978.468, 17068.414
979.723, 15913.875
980.979, 14852.098
982.234, 15152.582
983.490, 13249.805
984.745, 13306.117
986.000, 12827.031
987.254, 11871.094
988.509, 12173.234
989.763, 12008.543
991.017, 11341.996
992.271, 11231.602
993.525, 11400.367
994.779, 11635.281
996.032, 11679.426
997.285, 11855.703
998.538, 11365.145
999.791, 12704.742
1001.044, 12194.484
1002.296, 12810.367
1003.548, 12596.422
1004.800, 12967.609
1006.052, 13234.949
1007.304, 13113.434
1008.555, 13273.055
1009.807, 13136.828
1011.058, 13197.734
1012.309, 13083.824
1013.559, 12788.051
1014.810, 12374.422
1016.060, 12862.953
1017.310, 12606.613
1018.560, 11659.422
1019.810, 11990.352
1021.060, 11825.445
1022.309, 11337.664
1023.558, 11761.020
1024.807, 10940.492
1026.056, 11147.164
1027.305, 10465.898
1028.553, 10659.750
1029.801, 10114.523
1031.049, 9446.648
1032.297, 9202.895
1033.545, 9056.250
1034.793, 8308.172
1036.040, 7967.453
1037.287, 7249.105
1038.534, 7196.305
1039.781, 7227.496
1041.027, 5890.824
1042.274, 5805.941
1043.520, 5577.535
1044.766, 4875.164
1046.012, 4426.055
1047.257, 4024.180
1048.503, 4330.434
1049.748, 3619.191
1050.993, 4036.465
1052.238, 3544.965
1053.483, 3170.230
1054.727, 3207.941
1055.971, 3150.230
1057.216, 2634.230
1058.459, 2732.883
1059.703, 2336.992
1060.947, 2556.195
1062.190, 2637.793
1063.433, 2293.875
1064.676, 2140.117
1065.919, 1945.668
1067.162, 2456.312
1068.404, 1726.328
1069.646, 1743.102
1070.888, 1918.539
1072.130, 1415.914
1073.372, 1627.320
1074.613, 1923.359
1075.855, 1426.992
1077.096, 1458.828
1078.337, 1802.473
1079.578, 1658.039
1080.818, 1715.605
1082.059, 1427.195
1083.299, 1609.375
1084.539, 1258.488
1085.779, 1382.020
1087.018, 1303.336
1088.258, 1388.309
1089.497, 1183.449
1090.736, 1317.973
1091.975, 1041.516
1093.213, 1026.000
1094.452, 1078.703
1095.690, 998.953
1096.928, 1298.156
1098.166, 1381.254
1099.404, 1734.289
1100.642, 1505.473
1101.879, 1752.988
1103.116, 1783.551
1104.353, 2028.852
1105.590, 1925.367
1106.827, 2404.789
1108.063, 1991.945
1109.299, 2424.168
1110.536, 2469.188
1111.771, 2404.215
1113.007, 2801.074
1114.243, 3072.473
1115.478, 2978.902
1116.713, 3370.203
1117.948, 3283.016
1119.183, 2972.188
1120.418, 3377.156
1121.652, 3608.250
1122.886, 3677.148
1124.120, 3101.543
1125.354, 3360.508
1126.588, 3361.426
1127.821, 2767.863
1129.055, 2953.613
1130.288, 2937.645
1131.521, 2448.465
1132.753, 1922.055
1133.986, 2213.109
1135.218, 2231.289
1136.450, 1606.496
1137.682, 2300.473
1138.914, 1360.605
1140.146, 1475.352
1141.377, 1258.043
1142.609, 1252.895
1143.840, 1151.383
1145.071, 1144.418
1146.301, 956.145
1147.532, 1066.781
1148.762, 613.754
1149.992, 612.895
1151.222, 968.836
1152.452, 665.750
1153.682, 530.297
1154.911, 587.953
1156.140, 776.875
1157.369, 431.918
1158.598, 375.297
1159.827, 622.180
1161.055, 414.715
1162.284, 290.648
1163.512, 406.328
1164.740, 519.090
1165.967, 115.793
1167.195, 431.980
1168.422, 601.781
1169.650, 383.742
1170.877, 378.613
1172.103, 242.551
1173.330, 4.953
1174.557, 456.879
1175.783, 384.363
1177.009, 314.641
1178.235, 198.422
1179.461, 18.148
1180.686, 15.949
1181.912, 11.609
1183.137, 65.172
1184.362, 142.660
1185.587, 72.305
1186.811, 66.602
1188.036, 21.305
1189.260, 53.906
1190.484, 57.875
1191.708, 12.168
1192.932, 71.027
1194.155, 25.043
1195.378, 321.723
1196.602, 211.418
1197.825, 230.730
1199.047, 148.961
1200.270, 172.844
1201.492, 99.707
1202.715, 235.773
1203.937, 96.465
1205.159, 214.465
1206.380, 1.844
1207.602, 281.086
1208.823, 218.488
1210.044, 189.348
1211.265, 107.035
1212.486, 186.832
1213.707, 311.020
1214.927, 280.316
1216.147, 144.609
1217.367, 7.199
1218.587, 17.879
1219.807, 138.250
1221.027, 67.766
1222.246, 73.008
1223.465, 7.523
1224.684, 173.863
1225.903, 216.102
1227.121, 235.793
1228.340, 52.008
1229.558, 104.691
1230.776, 78.230
1231.994, 199.441
1233.212, 191.617
1234.429, 45.465
1235.646, 55.066
1236.864, 399.473
1238.081, 22.832
1239.297, 31.328
1240.514, 327.320
1241.730, 208.160
1242.947, 196.277
1244.163, 213.566
1245.378, 88.918
1246.594, 349.160
1247.810, 62.289
1249.025, 210.039
1250.240, 236.121
1251.455, 171.008
1252.670, 344.734
1253.885, 412.273
1255.099, 155.633
1256.313, 324.191
1257.527, 226.633
1258.741, 317.453
1259.955, 196.652
1261.168, 99.203
1262.382, 414.832
1263.595, 353.590
1264.808, 446.453
1266.021, 247.469
1267.233, 295.691
1268.446, 197.223
1269.658, 46.508
1270.870, 244.492
1272.082, 132.238
1273.294, 466.754
1274.505, 649.059
1275.716, 310.160
1276.928, 211.008
1278.139, 480.633
1279.349, 208.023
1280.560, 410.195
1281.770, 316.145
1282.981, 139.875
1284.191, 415.375
1285.401, 354.652
1286.610, 189.719
1287.820, 444.559
1289.029, 129.805
1290.239, 561.535
1291.448, 233.680
1292.656, 156.613
1293.865, 547.324
1295.073, 511.836
1296.282, 88.148
1297.490, 531.238
1298.698, 291.141
1299.906, 346.836
1301.113, 402.328
1302.320, 260.629
1303.528, 449.723
1304.735, 42.609
1305.942, 281.250
1307.148, 484.672
1308.355, 65.902
1309.561, 654.891
1310.767, 264.691
1311.973, 544.277
1313.179, 82.680
1314.384, 773.855
1315.590, 296.836
1316.795, 540.613
1318.000, 317.199
1319.205, 703.527
1320.410, 566.730
1321.614, 67.742
1322.819, 794.766
1324.023, 476.379
1325.227, 812.805
1326.431, 392.055
1327.634, 306.684
1328.838, 467.879
1330.041, 789.660
1331.244, 670.824
1332.447, 338.945
1333.650, 676.867
1334.852, 531.949
1336.055, 551.496
1337.257, 633.953
1338.459, 471.078
1339.661, 556.676
1340.862, 714.590
1342.064, 536.695
1343.265, 699.234
1344.466, 630.496
1345.667, 587.945
1346.868, 962.898
1348.068, 857.238
1349.269, 502.820
1350.469, 821.715
1351.669, 855.113
1352.869, 876.398
1354.069, 939.254
1355.268, 548.598
1356.468, 1516.773
1357.667, 1210.621
1358.866, 691.371
1360.065, 1125.754
1361.263, 616.402
1362.462, 1065.398
1363.660, 1175.477
1364.858, 865.566
1366.056, 868.086
1367.254, 1026.098
1368.451, 979.539
1369.649, 792.891
1370.846, 958.758
1372.043, 810.250
1373.240, 903.566
1374.436, 1131.719
1375.633, 894.848
1376.829, 786.332
1378.025, 548.641
1379.221, 594.992
1380.417, 1048.109
1381.613, 703.488
1382.808, 1093.402
1384.003, 1161.430
1385.199, 1187.031
1386.393, 665.777
1387.588, 1061.812
1388.783, 892.375
1389.977, 730.160
1391.171, 886.844
1392.365, 733.020
1393.559, 1243.090
1394.753, 812.465
1395.946, 929.781
1397.140, 676.113
1398.333, 1018.508
1399.526, 1011.891
1400.719, 990.043
1401.911, 1042.289
1403.104, 774.910
1404.296, 792.793
1405.488, 1004.512
1406.680, 736.141
1407.872, 837.234
1409.063, 1243.352
1410.255, 453.441
1411.446, 948.309
1412.637, 1031.172
1413.828, 857.836
1415.018, 1029.676
1416.209, 1184.523
1417.399, 674.594
1418.589, 1309.328
1419.779, 972.102
1420.969, 928.723
1422.159, 746.426
1423.348, 759.730
1424.537, 759.379
1425.726, 859.953
1426.915, 930.488
1428.104, 920.945
1429.293, 1149.598
1430.481, 739.012
1431.669, 1432.496
1432.857, 934.086
1434.045, 869.832
1435.233, 1477.801
1436.420, 1348.605
1437.608, 1231.910
1438.795, 1035.941
1439.982, 1117.430
1441.169, 1267.715
1442.355, 1180.945
1443.542, 1206.441
1444.728, 1359.547
1445.914, 1147.031
1447.100, 1148.465
1448.286, 1230.875
1449.472, 1060.867
1450.657, 1466.129
1451.842, 909.527
1453.027, 1228.125
1454.212, 1613.395
1455.397, 1188.777
1456.581, 1265.906
1457.766, 1524.859
1458.950, 1040.734
1460.134, 1574.016
1461.318, 721.375
1462.501, 981.777
1463.685, 1159.266
1464.868, 730.395
1466.051, 1355.906
1467.234, 801.605
1468.417, 960.734
1469.600, 1051.211
1470.782, 976.992
1471.965, 670.086
1473.147, 1069.500
