##NAMES=Kornerupine
##RRUFFID=R050214
##IDEAL CHEMISTRY=(Mg,Fe^2+^,Al,[box])_10_(Si,Al,B)_5_O_21_(OH,F)_2_
##LOCALITY=Sri Lanka
##OWNER=RRUFF
##SOURCE=Jibamitra Ganguly
##DESCRIPTION=Water-worn single crystal fragment
##STATUS=The identification of this mineral has been confirmed by X-ray diffraction and chemical analysis
##URL=rruff.info/R050214
##MEASURED CHEMISTRY=(Mg_3.63_[box]_0.21_Fe^2+^_0.14_Na_0.02_)_4_Al_6.00_(Si_2.44_Al_1.97_B_0.59_)_5_O_21_(OH) ;   B and Li not measured; B estimated by charge balance
##PIN_ID=L00479
##ORIENTATION=Laser parallel to b* (0 1 0). Fiducial mark perpendicular to laser is parallel to c [0 0 1]
100.340, 0.000
101.732, 143.604
103.124, 1.026
104.516, 201.610
105.908, 320.879
107.300, 208.407
108.691, 136.802
110.082, 43.282
111.473, 93.432
112.864, 180.148
114.254, 426.023
115.644, 685.344
117.034, 675.213
118.424, 256.701
119.813, 333.562
121.203, 237.617
122.592, 125.708
123.981, 53.723
125.369, 1.420
126.758, 5.862
128.146, 66.587
129.534, 13.742
130.922, 32.844
132.309, 13.579
133.696, 4.938
135.083, 76.942
136.470, 123.879
137.857, 235.826
139.243, 147.754
140.630, 150.641
142.016, 9.463
143.401, 59.165
144.787, 54.678
146.172, 35.056
147.557, 11.919
148.942, 38.436
150.327, 25.155
151.711, 27.269
153.096, 46.199
154.480, 29.226
155.863, 93.789
157.247, 129.874
158.630, 234.461
160.013, 403.534
161.396, 487.081
162.779, 628.086
164.161, 567.537
165.544, 606.423
166.926, 522.729
168.308, 565.447
169.689, 471.565
171.070, 514.509
172.452, 591.997
173.833, 559.349
175.213, 662.167
176.594, 638.492
177.974, 762.346
179.354, 786.734
180.734, 798.645
182.114, 812.050
183.493, 980.829
184.872, 894.656
186.251, 942.552
187.630, 852.553
189.008, 944.674
190.387, 885.935
191.765, 886.341
193.143, 815.906
194.520, 859.379
195.898, 916.542
197.275, 929.614
198.652, 931.854
200.029, 932.273
201.405, 970.883
202.782, 868.683
204.158, 1027.675
205.534, 1131.861
206.909, 1023.235
208.285, 1222.797
209.660, 1353.546
211.035, 1156.488
212.410, 1381.620
213.784, 1193.943
215.159, 1302.454
216.533, 1400.152
217.907, 1360.034
219.281, 1294.100
220.654, 1144.347
222.027, 1256.772
223.400, 1177.375
224.773, 1040.150
226.146, 865.098
227.518, 720.213
228.891, 636.497
230.263, 603.944
231.634, 534.553
233.006, 473.321
234.377, 329.248
235.748, 507.329
237.119, 287.562
238.490, 600.968
239.860, 408.597
241.231, 643.513
242.601, 719.898
243.970, 938.852
245.340, 932.415
246.709, 1055.733
248.079, 1337.869
249.448, 1289.865
250.816, 1454.659
252.185, 1613.195
253.553, 1784.334
254.921, 2015.966
256.289, 2121.024
257.657, 2179.245
259.024, 2265.558
260.391, 2204.895
261.758, 2109.240
263.125, 2131.590
264.492, 2035.938
265.858, 1990.505
267.224, 1922.504
268.590, 1794.937
269.956, 1900.954
271.321, 1695.400
272.687, 1419.233
274.052, 1254.417
275.416, 1290.934
276.781, 1114.766
278.146, 1064.893
279.510, 985.244
280.874, 1077.842
282.237, 1167.695
283.601, 1200.804
284.964, 1502.157
286.327, 1907.744
287.690, 2319.557
289.053, 2543.574
290.416, 3081.730
291.778, 3075.136
293.140, 3227.545
294.502, 3046.162
295.863, 2882.685
297.225, 2679.689
298.586, 2384.962
299.947, 2211.446
301.308, 2111.432
302.668, 2035.544
304.029, 2072.846
305.389, 2108.943
306.749, 2277.185
308.108, 2467.562
309.468, 2666.074
310.827, 2971.419
312.186, 3368.189
313.545, 3709.762
314.903, 3897.594
316.262, 4317.529
317.620, 4586.775
318.978, 4789.135
320.336, 5033.603
321.693, 5329.178
323.051, 5610.858
324.408, 5591.641
325.765, 5920.522
327.121, 5637.500
328.478, 5589.575
329.834, 5580.741
331.190, 5327.000
332.546, 4888.346
333.902, 4636.777
335.257, 3976.297
336.612, 3538.897
337.967, 3144.578
339.322, 2690.338
340.677, 2351.172
342.031, 2005.080
343.385, 1804.059
344.739, 1556.104
346.093, 1299.215
347.446, 1318.391
348.799, 1344.629
350.153, 1408.931
351.505, 1400.296
352.858, 1403.724
354.210, 1522.212
355.563, 1672.764
356.915, 1867.106
358.267, 2164.047
359.618, 2455.777
360.969, 2845.565
362.321, 3323.411
363.672, 3635.313
365.022, 3945.270
366.373, 4179.283
367.723, 4497.349
369.073, 4782.468
370.423, 4993.637
371.773, 4983.855
373.122, 5219.240
374.471, 5527.801
375.821, 5386.786
377.169, 5901.237
378.518, 5799.865
379.866, 6195.395
381.215, 6427.117
382.563, 6798.118
383.910, 7054.725
385.258, 7605.672
386.605, 8476.768
387.952, 8643.232
389.299, 9690.210
390.646, 10298.122
391.992, 11184.761
393.339, 11949.217
394.685, 12735.690
396.031, 13620.484
397.376, 13804.110
398.722, 14180.897
400.067, 13847.171
401.412, 13292.126
402.757, 13045.009
404.101, 12143.328
405.446, 10951.676
406.790, 10303.659
408.134, 9296.879
409.478, 8586.101
410.821, 7914.549
412.165, 7279.934
413.508, 6953.027
414.851, 6443.531
416.193, 6101.609
417.536, 6073.311
418.878, 6079.565
420.220, 6062.189
421.562, 6120.703
422.904, 6190.649
424.245, 6277.151
425.586, 6324.615
426.927, 6444.033
428.268, 5969.463
429.609, 5768.902
430.949, 5653.354
432.289, 5375.812
433.629, 4896.273
434.969, 4856.734
436.309, 4242.196
437.648, 4077.655
438.987, 3819.111
440.326, 3457.561
441.665, 3206.005
443.003, 3251.441
444.342, 3013.867
445.680, 3067.283
447.018, 2989.688
448.355, 2986.076
449.693, 3012.453
451.030, 2989.812
452.367, 3218.157
453.704, 3219.482
455.041, 3773.797
456.377, 3824.090
457.713, 4177.365
459.049, 3763.619
460.385, 3995.850
461.721, 4240.057
463.056, 4125.239
464.391, 4236.396
465.726, 4538.527
467.061, 4301.631
468.395, 4386.707
469.730, 4301.755
471.064, 4192.771
472.398, 4124.759
473.731, 3744.717
475.065, 3640.645
476.398, 3290.541
477.731, 3123.404
479.064, 2853.234
480.397, 2536.031
481.729, 2431.791
483.062, 2043.516
484.394, 1897.205
485.725, 1552.856
487.057, 1567.472
488.389, 1302.048
489.720, 1108.586
491.051, 1081.084
492.382, 1063.543
493.712, 989.962
495.043, 1011.341
496.373, 1067.678
497.703, 1107.975
499.032, 1317.229
500.362, 1357.440
501.691, 1524.610
503.020, 1712.750
504.349, 2129.859
505.678, 2364.963
507.007, 2856.076
508.335, 3250.180
509.663, 3814.297
510.991, 4481.418
512.319, 4535.539
513.646, 5145.688
514.973, 5115.853
516.300, 5354.035
517.627, 5034.223
518.954, 4336.395
520.280, 3997.550
521.607, 3510.705
522.933, 2740.844
524.259, 2164.934
525.584, 1748.980
526.910, 1472.978
528.235, 970.927
529.560, 851.825
530.885, 553.672
532.209, 249.470
533.534, 325.203
534.858, 134.880
536.182, 92.469
537.506, 122.954
538.829, 20.653
540.152, 132.422
541.476, 54.410
542.799, 252.579
544.121, 128.033
545.444, 191.708
546.766, 354.640
548.088, 312.915
549.410, 421.511
550.732, 399.485
552.053, 442.828
553.375, 489.563
554.696, 461.717
556.017, 426.272
557.337, 428.121
558.658, 403.536
559.978, 366.236
561.298, 301.287
562.618, 228.659
563.938, 229.312
565.257, 160.244
566.576, 196.420
567.895, 101.608
569.214, 176.492
570.533, 99.753
571.851, 135.903
573.170, 310.956
574.488, 272.947
575.805, 404.875
577.123, 315.752
578.440, 497.573
579.758, 535.346
581.075, 329.072
582.391, 641.744
583.708, 561.371
585.024, 620.951
586.341, 675.488
587.657, 726.979
588.972, 726.726
590.288, 698.828
591.603, 693.167
592.918, 630.992
594.233, 580.773
595.548, 477.003
596.863, 444.188
598.177, 369.332
599.491, 368.613
600.805, 439.494
602.119, 389.513
603.432, 492.492
604.746, 506.430
606.059, 573.328
607.372, 462.187
608.685, 610.007
609.997, 603.789
611.309, 800.533
612.621, 752.238
613.933, 1006.907
615.245, 979.540
616.557, 1114.137
617.868, 1137.697
619.179, 1262.224
620.490, 1223.715
621.801, 1586.173
623.111, 1391.597
624.421, 1761.988
625.731, 1554.348
627.041, 1939.675
628.351, 1676.971
629.660, 1823.236
630.970, 2003.472
632.279, 2021.677
633.588, 2115.854
634.896, 2013.003
636.205, 2452.124
637.513, 2485.218
638.821, 2750.286
640.129, 2989.328
641.437, 3276.346
642.744, 3528.640
644.051, 3740.311
645.358, 4017.258
646.665, 4314.184
647.972, 4481.088
649.278, 4891.973
650.584, 5093.838
651.890, 5690.686
653.196, 5621.517
654.502, 5895.330
655.807, 5624.129
657.113, 5672.912
658.418, 5725.681
659.722, 5489.689
661.027, 5155.636
662.331, 4821.344
663.636, 4662.629
664.940, 4180.366
666.244, 3830.900
667.547, 3452.709
668.851, 3201.258
670.154, 2866.182
671.457, 2340.188
672.760, 2294.795
674.062, 1943.207
675.365, 1684.320
676.667, 1595.719
677.969, 1315.135
679.271, 1289.812
680.572, 1243.480
681.874, 1366.644
683.175, 1536.195
684.476, 1485.738
685.777, 1692.273
687.077, 1814.800
688.378, 2287.321
689.678, 2629.723
690.978, 3050.989
692.278, 3385.874
693.577, 4438.337
694.877, 4960.662
696.176, 5899.133
697.475, 6602.451
698.774, 7783.535
700.072, 8406.056
701.371, 9470.279
702.669, 9679.396
703.967, 10336.188
705.265, 10870.512
706.562, 10269.944
707.860, 9356.693
709.157, 8902.674
710.454, 7723.684
711.751, 6993.418
713.047, 5781.369
714.344, 4999.208
715.640, 4052.606
716.936, 3221.377
718.232, 2858.266
719.527, 2003.768
720.823, 1745.291
722.118, 1211.223
723.413, 926.966
724.708, 788.748
726.002, 915.346
727.297, 681.522
728.591, 974.067
729.885, 1257.709
731.179, 1431.810
732.472, 1833.312
733.766, 2396.291
735.059, 3182.928
736.352, 3886.631
737.645, 4666.070
738.937, 5811.912
740.230, 6506.822
741.522, 7679.807
742.814, 8958.860
744.106, 10397.990
745.397, 11360.191
746.689, 12316.468
747.980, 13633.821
749.271, 14495.251
750.562, 15737.761
751.853, 15713.347
753.143, 16116.011
754.433, 15844.757
755.723, 15204.583
757.013, 14650.496
758.303, 13179.487
759.592, 12259.562
760.881, 10774.725
762.170, 9903.970
763.459, 8517.304
764.748, 7199.723
766.036, 6448.230
767.325, 5044.828
768.613, 4404.515
769.901, 3596.292
771.188, 3093.161
772.476, 2886.121
773.763, 2169.174
775.050, 2187.320
776.337, 2026.562
777.624, 2064.898
778.910, 2020.331
780.196, 2062.859
781.482, 2206.486
782.768, 2143.211
784.054, 2514.032
785.339, 2685.956
786.625, 2731.980
787.910, 3298.105
789.195, 3495.331
790.479, 3674.661
791.764, 4147.098
793.048, 3958.643
794.332, 4289.295
795.616, 4306.099
796.900, 4242.018
798.183, 3775.072
799.467, 3395.257
800.750, 3030.591
802.033, 2443.077
803.316, 2335.713
804.598, 1578.492
805.880, 1429.452
807.163, 1089.558
808.445, 738.840
809.726, 467.254
811.008, 311.807
812.289, 39.515
813.570, 87.080
814.851, 85.661
816.132, 252.590
817.413, 340.453
818.693, 228.309
819.973, 372.116
821.253, 307.923
822.533, 302.708
823.813, 452.469
825.092, 387.259
826.371, 403.051
827.650, 327.853
828.929, 219.635
830.208, 228.359
831.486, 308.027
832.764, 211.667
834.042, 10.756
835.320, 25.702
836.598, 219.952
837.875, 242.735
839.152, 379.644
840.429, 564.678
841.706, 592.838
842.983, 641.125
844.259, 997.571
845.536, 1146.149
846.812, 1362.874
848.088, 1522.754
849.363, 1850.134
850.639, 2190.010
851.914, 2623.443
853.189, 3069.082
854.464, 3650.970
855.739, 4250.098
857.013, 4667.461
858.288, 5216.102
859.562, 6150.023
860.836, 6887.239
862.110, 7449.750
863.383, 8836.561
864.656, 9670.686
865.930, 11144.122
867.203, 12330.857
868.475, 13578.896
869.748, 15222.227
871.020, 17014.844
872.292, 18871.727
873.564, 18983.865
874.836, 20413.264
876.108, 21183.889
877.379, 22665.764
878.650, 23163.840
879.922, 23300.080
881.192, 23126.482
882.463, 22559.047
883.733, 21797.764
885.004, 20925.639
886.274, 19398.662
887.544, 18474.854
888.813, 16752.213
890.083, 15488.729
891.352, 14637.439
892.621, 13219.293
893.890, 12204.299
895.159, 11361.456
896.427, 10385.783
897.695, 9700.585
898.964, 9067.956
900.232, 8412.782
901.499, 7956.771
902.767, 7385.895
904.034, 6738.156
905.301, 6412.555
906.568, 6004.357
907.835, 5979.832
909.102, 5485.693
910.368, 5421.690
911.634, 5287.863
912.900, 5021.197
914.166, 5086.670
915.432, 4790.290
916.697, 4524.049
917.962, 4877.975
919.227, 4725.043
920.492, 4651.243
921.757, 4658.571
923.021, 4872.027
924.285, 5111.615
925.550, 5003.328
926.813, 5061.172
928.077, 5374.164
929.341, 5443.289
930.604, 5801.551
931.867, 5826.972
933.130, 6096.534
934.393, 6550.227
935.655, 6459.053
936.918, 7148.021
938.180, 7348.127
939.442, 7773.365
940.703, 8495.738
941.965, 9001.241
943.226, 9825.310
944.488, 10324.832
945.749, 11558.730
947.009, 12484.772
948.270, 13403.788
949.530, 14647.741
950.791, 16471.891
952.051, 17690.416
953.311, 18992.428
954.570, 21157.789
955.830, 22508.713
957.089, 24190.758
958.348, 25363.992
959.607, 26983.959
960.866, 27916.848
962.124, 29082.787
963.383, 30050.467
964.641, 30666.537
965.899, 31284.457
967.156, 31167.354
968.414, 30690.033
969.671, 30705.619
970.928, 29957.863
972.185, 29367.396
973.442, 28878.760
974.699, 27947.475
975.955, 27012.914
977.211, 25821.373
978.468, 25147.328
979.723, 24109.592
980.979, 23273.246
982.234, 23135.709
983.490, 21842.250
984.745, 21829.627
986.000, 21641.105
987.254, 21089.186
988.509, 21564.119
989.763, 21516.014
991.017, 21831.012
992.271, 22345.123
993.525, 22925.330
994.779, 23698.107
996.032, 24482.535
997.285, 25465.062
998.538, 25660.818
999.791, 27724.543
1001.044, 28154.357
1002.296, 29687.359
1003.548, 30324.406
1004.800, 31195.516
1006.052, 32220.844
1007.304, 32775.547
1008.555, 33456.965
1009.807, 33726.199
1011.058, 33960.754
1012.309, 34112.387
1013.559, 34002.012
1014.810, 33489.926
1016.060, 33446.812
1017.310, 32975.770
1018.560, 32322.809
1019.810, 32291.902
1021.060, 31709.316
1022.309, 30984.559
1023.558, 30501.492
1024.807, 29485.945
1026.056, 28992.387
1027.305, 27678.881
1028.553, 27403.434
1029.801, 25822.055
1031.049, 24489.924
1032.297, 23356.379
1033.545, 22329.900
1034.793, 20894.629
1036.040, 19516.404
1037.287, 17941.418
1038.534, 16368.038
1039.781, 15412.728
1041.027, 13733.969
1042.274, 12737.812
1043.520, 11572.254
1044.766, 10510.187
1046.012, 9392.968
1047.257, 8460.379
1048.503, 7786.965
1049.748, 6898.078
1050.993, 6373.549
1052.238, 5842.604
1053.483, 4986.077
1054.727, 4581.297
1055.971, 4288.092
1057.216, 3660.856
1058.459, 3358.553
1059.703, 2894.505
1060.947, 2769.009
1062.190, 2503.056
1063.433, 2070.167
1064.676, 2033.890
1065.919, 1675.725
1067.162, 1792.961
1068.404, 1587.649
1069.646, 1282.113
1070.888, 1242.843
1072.130, 1046.582
1073.372, 1020.839
1074.613, 946.746
1075.855, 799.128
1077.096, 715.461
1078.337, 797.555
1079.578, 574.561
1080.818, 573.520
1082.059, 417.645
1083.299, 418.072
1084.539, 332.014
1085.779, 372.189
1087.018, 225.109
1088.258, 149.395
1089.497, 152.175
1090.736, 136.544
1091.975, 0.402
1093.213, 24.862
1094.452, 20.466
1095.690, 211.434
1096.928, 44.156
1098.166, 123.976
1099.404, 104.094
1100.642, 185.851
1101.879, 190.931
1103.116, 175.229
1104.353, 144.527
1105.590, 306.713
1106.827, 143.445
1108.063, 280.718
1109.299, 70.528
1110.536, 107.797
1111.771, 174.242
1113.007, 141.516
1114.243, 102.390
1115.478, 37.584
1116.713, 104.689
1117.948, 84.174
1119.183, 47.668
1120.418, 172.055
1121.652, 490.137
1122.886, 511.402
1124.120, 531.581
1125.354, 395.123
1126.588, 259.274
1127.821, 150.487
1129.055, 170.179
1130.288, 226.048
1131.521, 239.070
1132.753, 75.981
1133.986, 226.582
1135.218, 192.244
1136.450, 26.814
1137.682, 333.137
1138.914, 67.875
1140.146, 85.460
1141.377, 85.835
1142.609, 70.024
1143.840, 73.604
1145.071, 88.275
1146.301, 45.954
1147.532, 178.485
1148.762, 95.761
1149.992, 18.718
1151.222, 64.396
1152.452, 181.964
1153.682, 48.322
1154.911, 48.935
1156.140, 75.474
1157.369, 2.872
1158.598, 118.177
1159.827, 184.214
1161.055, 98.798
1162.284, 111.024
1163.512, 224.839
1164.740, 152.226
1165.967, 164.644
1167.195, 221.548
1168.422, 92.212
1169.650, 118.408
1170.877, 79.568
1172.103, 35.989
1173.330, 183.376
1174.557, 145.153
1175.783, 210.555
1177.009, 187.418
1178.235, 124.420
1179.461, 100.640
1180.686, 67.311
1181.912, 38.453
1183.137, 19.569
1184.362, 14.319
1185.587, 21.675
1186.811, 4.477
1188.036, 106.434
1189.260, 58.848
1190.484, 24.394
1191.708, 64.328
1192.932, 42.297
1194.155, 18.372
1195.378, 114.710
1196.602, 109.821
1197.825, 13.322
1199.047, 173.590
1200.270, 154.519
1201.492, 175.475
1202.715, 11.134
1203.937, 47.177
1205.159, 51.434
1206.380, 223.388
1207.602, 47.665
1208.823, 6.979
1210.044, 158.528
1211.265, 63.344
1212.486, 131.614
1213.707, 20.233
1214.927, 103.964
1216.147, 224.823
1217.367, 383.847
1218.587, 351.146
1219.807, 261.751
1221.027, 324.511
1222.246, 257.490
1223.465, 67.220
1224.684, 151.122
1225.903, 157.914
1227.121, 3.494
1228.340, 114.039
1229.558, 197.321
1230.776, 172.448
1231.994, 81.443
1233.212, 129.290
1234.429, 159.372
1235.646, 137.923
1236.864, 158.527
1238.081, 99.607
1239.297, 194.547
1240.514, 218.540
1241.730, 340.380
1242.947, 299.117
1244.163, 155.804
1245.378, 227.583
1246.594, 194.108
1247.810, 202.251
1249.025, 204.238
1250.240, 189.727
1251.455, 170.003
1252.670, 185.568
1253.885, 140.932
1255.099, 154.533
1256.313, 26.196
1257.527, 62.787
1258.741, 158.718
1259.955, 4.865
1261.168, 3.562
1262.382, 60.800
1263.595, 55.771
1264.808, 77.027
1266.021, 156.158
1267.233, 50.436
1268.446, 96.313
1269.658, 103.068
1270.870, 155.696
1272.082, 110.205
1273.294, 26.407
1274.505, 151.845
1275.716, 137.978
1276.928, 125.995
1278.139, 239.892
1279.349, 160.666
1280.560, 153.333
1281.770, 36.892
1282.981, 177.202
1284.191, 138.610
1285.401, 147.868
1286.610, 3.043
1287.820, 102.189
1289.029, 19.752
1290.239, 213.629
1291.448, 120.705
1292.656, 234.767
1293.865, 152.460
1295.073, 127.857
1296.282, 87.877
1297.490, 121.288
1298.698, 199.408
1299.906, 146.358
1301.113, 218.152
1302.320, 115.528
1303.528, 162.304
1304.735, 89.289
1305.942, 117.413
1307.148, 247.139
1308.355, 175.117
1309.561, 375.874
1310.767, 231.440
1311.973, 319.525
1313.179, 57.901
1314.384, 283.833
1315.590, 237.249
1316.795, 384.161
1318.000, 182.581
1319.205, 254.824
1320.410, 315.269
1321.614, 45.894
1322.819, 215.860
1324.023, 263.903
1325.227, 353.598
1326.431, 224.184
1327.634, 212.904
1328.838, 194.088
1330.041, 268.631
1331.244, 202.861
1332.447, 216.238
1333.650, 229.024
1334.852, 147.709
1336.055, 244.062
1337.257, 128.315
1338.459, 179.328
1339.661, 208.277
1340.862, 200.194
1342.064, 353.250
1343.265, 287.354
1344.466, 256.388
1345.667, 216.083
1346.868, 350.709
1348.068, 286.812
1349.269, 262.187
1350.469, 377.409
1351.669, 270.849
1352.869, 419.872
1354.069, 302.404
1355.268, 182.176
1356.468, 305.723
1357.667, 296.201
1358.866, 222.885
1360.065, 360.768
1361.263, 184.552
1362.462, 290.626
1363.660, 178.007
1364.858, 270.281
1366.056, 126.646
1367.254, 337.539
1368.451, 377.837
1369.649, 205.949
1370.846, 228.697
1372.043, 178.929
1373.240, 267.070
1374.436, 220.323
1375.633, 256.244
1376.829, 269.314
1378.025, 83.941
1379.221, 257.150
1380.417, 272.501
1381.613, 224.253
1382.808, 342.674
1384.003, 210.827
1385.199, 231.119
1386.393, 135.082
1387.588, 282.246
1388.783, 131.892
1389.977, 290.378
1391.171, 137.883
1392.365, 110.039
1393.559, 116.198
1394.753, 200.186
1395.946, 230.365
1397.140, 119.590
1398.333, 300.431
1399.526, 146.179
1400.719, 127.198
1401.911, 76.066
1403.104, 177.862
1404.296, 184.268
1405.488, 179.726
1406.680, 42.282
1407.872, 96.831
1409.063, 278.489
1410.255, 16.989
1411.446, 235.811
1412.637, 157.043
1413.828, 128.463
1415.018, 256.908
1416.209, 155.602
1417.399, 83.705
1418.589, 296.243
1419.779, 133.966
1420.969, 168.024
1422.159, 98.124
1423.348, 85.727
1424.537, 159.913
1425.726, 159.669
1426.915, 74.182
1428.104, 100.234
1429.293, 108.114
1430.481, 2.437
1431.669, 252.206
1432.857, 0.000
##END=



