##NAMES=Kurnakovite
##RRUFFID=R050105
##IDEAL CHEMISTRY=MgB_3_O_3_(OH)_5_&#183;5H_2_O
##LOCALITY=Kramer deposit, Boron, Kern County, California, USA
##OWNER=RRUFF
##SOURCE=Rock Currier
##DESCRIPTION=Tabular single crystal
##STATUS=The identification of this mineral has been confirmed by X-ray diffraction and chemical analysis
##URL=rruff.info/R050105
##MEASURED CHEMISTRY=MgB_3_O_3_(OH)_5_Â·5H_2_O
##PIN_ID=L00269
##ORIENTATION=Laser parallel to (-1 -1 0). Fiducial mark perpendicular to laser is parallel to -c [0 0 -1]
120.508, 0.000
121.897, 1.021
123.286, 67.878
124.675, 11.108
126.063, 112.043
127.452, 464.867
128.840, 728.779
130.228, 947.636
131.615, 1295.875
133.003, 1433.712
134.390, 1191.610
135.777, 997.448
137.164, 566.521
138.550, 748.360
139.937, 694.666
141.323, 997.625
142.709, 1292.087
144.094, 1713.542
145.480, 2274.403
146.865, 2856.184
148.250, 3377.008
149.635, 3714.986
151.019, 3941.824
152.403, 4043.724
153.788, 4002.599
155.171, 3820.871
156.555, 3521.578
157.939, 3211.792
159.322, 2779.722
160.705, 2679.695
162.088, 2747.101
163.470, 2764.047
164.853, 2926.484
166.235, 2849.198
167.617, 3003.995
168.998, 2863.383
170.380, 2530.920
171.761, 2249.294
173.142, 1723.501
174.523, 1706.544
175.904, 1247.452
177.284, 970.268
178.664, 917.929
180.044, 711.414
181.424, 1008.720
182.803, 1082.843
184.183, 1275.774
185.562, 1480.507
186.940, 1795.040
188.319, 1825.377
189.698, 1986.521
191.076, 1832.474
192.454, 1377.241
193.831, 1259.053
195.209, 707.955
196.586, 539.157
197.963, 245.419
199.340, 112.624
200.717, 19.494
202.093, 113.633
203.470, 82.172
204.846, 217.965
206.221, 163.981
207.597, 60.399
208.972, 41.415
210.347, 10.224
211.722, 52.853
213.097, 124.337
214.472, 59.443
215.846, 184.264
217.220, 236.611
218.594, 354.133
219.967, 653.958
221.341, 805.407
222.714, 1191.739
224.087, 1469.956
225.460, 1937.043
226.832, 2491.996
228.204, 2867.119
229.577, 3177.346
230.948, 3037.863
232.320, 2903.331
233.692, 2571.602
235.063, 2170.871
236.434, 1771.346
237.805, 1439.220
239.175, 1321.978
240.545, 1204.621
241.916, 1461.150
243.286, 1512.558
244.655, 1900.718
246.025, 2105.511
247.394, 2481.139
248.763, 2957.607
250.132, 3256.908
251.501, 3752.070
252.869, 4063.127
254.237, 4355.082
255.605, 4372.935
256.973, 4297.688
258.340, 4025.344
259.708, 3387.902
261.075, 2789.367
262.442, 2200.738
263.808, 1743.018
265.175, 1285.224
266.541, 986.647
267.907, 862.236
269.273, 711.354
270.639, 538.881
272.004, 566.333
273.369, 477.253
274.734, 516.415
276.099, 589.086
277.463, 582.002
278.828, 891.715
280.192, 874.735
281.556, 987.266
282.919, 1056.214
284.283, 1030.066
285.646, 1008.904
287.009, 937.016
288.372, 798.401
289.734, 703.833
291.097, 595.345
292.459, 465.358
293.821, 395.269
295.183, 250.183
296.544, 193.102
297.905, 165.999
299.266, 25.856
300.627, 205.636
301.988, 58.365
303.348, 131.015
304.709, 96.596
306.069, 5.909
307.428, 206.442
308.788, 106.683
310.147, 63.803
311.507, 168.797
312.865, 146.689
314.224, 247.479
315.583, 204.181
316.941, 422.795
318.299, 522.332
319.657, 547.795
321.015, 784.188
322.372, 744.512
323.729, 809.770
325.086, 819.924
326.443, 779.797
327.800, 684.158
329.156, 694.483
330.512, 601.640
331.868, 539.646
333.224, 402.595
334.579, 428.487
335.935, 349.322
337.290, 468.101
338.645, 305.825
339.999, 397.493
341.354, 254.105
342.708, 297.662
344.062, 315.164
345.416, 356.613
346.769, 428.011
348.123, 388.359
349.476, 329.659
350.829, 424.910
352.182, 430.115
353.534, 462.553
354.887, 530.390
356.239, 550.462
357.591, 613.490
358.942, 665.471
360.294, 686.398
361.645, 850.267
362.996, 884.073
364.347, 1009.295
365.698, 1207.426
367.048, 1309.357
368.398, 1481.601
369.748, 1813.076
371.098, 1920.377
372.448, 2233.479
373.797, 2490.712
375.146, 2844.875
376.495, 3223.689
377.844, 3541.514
379.192, 3599.128
380.540, 3846.668
381.889, 3715.140
383.236, 3536.572
384.584, 3330.967
385.932, 3035.326
387.279, 2604.649
388.626, 2358.939
389.973, 2239.195
391.319, 1727.417
392.666, 1736.606
394.012, 1442.760
395.358, 1523.875
396.704, 1296.956
398.049, 1328.009
399.394, 1273.034
400.740, 925.032
402.084, 977.006
403.429, 541.956
404.774, 510.882
406.118, 466.786
407.462, 204.669
408.806, 61.467
410.150, 148.656
411.493, 137.917
412.836, 261.248
414.179, 138.678
415.522, 373.175
416.865, 303.799
418.207, 190.530
419.549, 371.338
420.891, 230.269
422.233, 186.284
423.575, 206.372
424.916, 311.535
426.257, 282.801
427.598, 208.160
428.939, 309.691
430.279, 138.475
431.619, 266.487
432.959, 268.754
434.299, 260.297
435.639, 165.050
436.978, 189.036
438.318, 22.766
439.657, 184.555
440.996, 35.926
442.334, 42.690
443.673, 40.639
445.011, 43.969
446.349, 165.312
447.687, 338.646
449.024, 295.967
450.361, 570.276
451.699, 476.574
453.036, 705.857
454.372, 880.114
455.709, 1182.065
457.045, 1251.856
458.381, 1518.526
459.717, 1835.464
461.053, 2275.305
462.388, 2564.264
463.724, 2989.889
465.059, 3338.700
466.394, 3581.152
467.728, 3430.122
469.063, 3584.117
470.397, 3233.045
471.731, 2861.049
473.065, 2913.168
474.398, 2279.641
475.732, 2330.403
477.065, 1983.443
478.398, 1877.410
479.731, 1958.531
481.063, 1907.651
482.396, 1745.774
483.728, 1827.898
485.060, 1825.024
486.391, 1895.154
487.723, 1870.287
489.054, 1840.429
490.385, 1951.576
491.716, 2037.733
493.047, 1985.900
494.377, 2012.919
495.708, 2211.068
497.038, 2299.906
498.368, 2324.119
499.697, 2507.820
501.027, 2710.929
502.356, 2989.303
503.685, 3070.043
505.014, 3547.883
506.342, 3753.923
507.671, 4172.238
508.999, 4655.467
510.327, 4895.479
511.655, 5318.846
512.982, 5653.232
514.310, 6165.636
515.637, 6468.131
516.964, 6906.510
518.291, 7146.984
519.617, 7739.502
520.944, 8121.076
522.270, 8561.772
523.596, 9028.406
524.921, 9466.179
526.247, 9933.075
527.572, 10349.101
528.897, 10824.261
530.222, 11481.554
531.547, 11943.944
532.871, 12354.446
534.196, 12548.216
535.520, 12677.223
536.844, 12619.597
538.167, 12569.532
539.491, 12423.597
540.814, 12144.755
542.137, 12097.997
543.460, 11762.340
544.783, 11748.781
546.105, 11676.881
547.427, 11582.967
548.749, 11705.696
550.071, 11784.483
551.393, 11935.341
552.714, 12221.279
554.035, 11990.283
555.356, 12323.324
556.677, 11962.470
557.998, 11554.652
559.318, 10964.896
560.638, 10086.205
561.958, 8892.552
563.278, 7766.945
564.597, 7415.430
565.917, 6192.953
567.236, 5588.515
568.555, 5187.304
569.874, 4469.787
571.192, 4573.128
572.511, 4317.893
573.829, 4378.518
575.147, 3962.595
576.464, 4268.201
577.782, 4203.096
579.099, 4130.822
580.416, 4210.588
581.733, 4365.303
583.050, 4516.947
584.366, 4684.186
585.683, 4871.904
586.999, 5101.545
588.315, 5208.500
589.630, 5360.497
590.946, 5564.520
592.261, 5553.709
593.576, 5681.670
594.891, 5759.901
596.206, 5878.055
597.520, 6092.266
598.834, 6212.004
600.148, 6540.729
601.462, 6808.727
602.776, 7367.663
604.089, 7652.711
605.402, 8199.853
606.715, 9067.065
608.028, 9966.341
609.341, 10613.685
610.653, 11735.097
611.965, 12903.577
613.277, 14372.122
614.589, 15840.740
615.901, 17883.432
617.212, 20309.203
618.523, 22952.059
619.834, 26319.020
621.145, 29285.070
622.456, 33133.211
623.766, 36448.453
625.076, 40226.773
626.386, 43112.230
627.696, 45264.758
629.006, 44773.371
630.315, 45687.094
631.624, 42002.902
632.933, 39885.793
634.242, 36443.754
635.551, 31780.803
636.859, 27889.920
638.167, 23550.100
639.475, 21166.359
640.783, 17410.684
642.090, 15422.080
643.398, 13149.540
644.705, 11310.074
646.012, 9716.678
647.318, 8333.350
648.625, 7236.232
649.931, 6273.412
651.237, 5642.783
652.543, 4974.732
653.849, 4528.754
655.155, 4264.846
656.460, 3681.006
657.765, 3496.239
659.070, 2982.541
660.375, 2860.915
661.679, 2902.361
662.984, 2424.879
664.288, 2258.466
665.592, 2371.121
666.895, 2102.846
668.199, 2072.641
669.502, 2013.505
670.805, 1840.436
672.108, 2161.434
673.411, 1857.755
674.713, 1908.938
676.016, 2030.722
677.318, 1965.656
678.620, 2169.988
679.921, 1989.656
681.223, 2217.025
682.524, 2362.448
683.825, 2146.409
685.126, 2650.118
686.427, 2610.679
687.727, 2689.342
689.028, 2791.307
690.328, 2871.960
691.628, 2996.954
692.927, 3144.323
694.227, 3255.911
695.526, 3395.826
696.825, 3530.918
698.124, 3667.854
699.423, 3789.255
700.721, 3969.408
702.020, 4101.006
703.318, 4222.279
704.616, 4379.656
705.913, 4203.286
707.211, 4443.019
708.508, 4964.165
709.805, 4767.768
711.102, 4636.494
712.399, 4948.330
713.695, 4687.113
714.992, 4813.918
716.288, 4603.457
717.584, 4574.290
718.879, 4315.476
720.175, 4222.542
721.470, 4322.485
722.765, 4083.679
724.060, 4184.688
725.355, 4118.418
726.649, 3907.606
727.944, 3870.860
729.238, 4096.230
730.532, 3610.686
731.825, 3929.286
733.119, 3735.012
734.412, 3390.832
735.705, 3196.797
736.998, 2947.533
738.291, 2683.022
739.584, 2498.278
740.876, 2252.658
742.168, 2057.152
743.460, 1759.794
744.752, 1663.505
746.043, 1391.288
747.334, 1303.140
748.626, 1119.179
749.916, 1134.280
751.207, 1103.459
752.498, 1026.721
753.788, 1097.013
755.078, 857.383
756.368, 984.780
757.658, 754.217
758.947, 666.680
760.237, 800.168
761.526, 507.681
762.815, 885.218
764.104, 661.769
765.392, 557.360
766.680, 560.966
767.969, 393.594
769.257, 588.243
770.544, 441.913
771.832, 440.604
773.119, 569.315
774.406, 402.045
775.693, 410.792
776.980, 265.558
778.267, 479.342
779.553, 356.142
780.839, 452.957
782.125, 392.789
783.411, 438.635
784.697, 323.495
785.982, 483.368
787.267, 340.255
788.552, 481.153
789.837, 510.063
791.122, 578.985
792.406, 608.917
793.690, 673.859
794.974, 670.811
796.258, 871.770
797.542, 808.738
798.825, 801.714
800.108, 875.697
801.391, 740.687
802.674, 991.684
803.957, 870.686
805.239, 938.692
806.522, 1030.705
807.804, 749.721
809.085, 1149.741
810.367, 904.763
811.649, 862.788
812.930, 925.815
814.211, 837.844
815.492, 782.873
816.772, 668.903
818.053, 688.931
819.333, 623.960
820.613, 465.986
821.893, 496.012
823.173, 193.034
824.452, 204.053
825.732, 264.069
827.011, 3.919
828.290, 27.919
829.568, 72.939
830.847, 119.006
832.125, 121.245
833.403, 170.361
834.681, 145.679
835.959, 222.110
837.236, 274.655
838.514, 155.365
839.791, 213.057
841.068, 227.006
842.345, 276.100
843.621, 171.364
844.898, 238.748
846.174, 336.288
847.450, 89.037
848.726, 333.866
850.001, 176.906
851.277, 142.077
852.552, 226.359
853.827, 187.801
855.102, 160.381
856.376, 280.088
857.651, 103.986
858.925, 25.982
860.199, 73.040
861.473, 109.182
862.746, 50.429
864.020, 71.247
865.293, 193.096
866.566, 82.408
867.839, 13.106
869.112, 38.683
870.384, 181.667
871.656, 38.998
872.928, 120.707
874.200, 209.467
875.472, 25.621
876.744, 126.729
878.015, 67.817
879.286, 0.124
880.557, 225.870
881.828, 146.844
883.098, 216.836
884.369, 194.805
885.639, 228.776
886.909, 166.729
888.178, 243.679
889.448, 158.626
890.717, 456.594
891.987, 179.594
893.256, 278.593
894.524, 270.628
895.793, 151.701
897.061, 389.760
898.330, 248.787
899.598, 251.859
900.865, 426.909
902.133, 309.973
903.401, 314.006
904.668, 339.006
905.935, 502.979
907.202, 397.918
908.468, 366.825
909.735, 624.747
911.001, 575.635
912.267, 448.490
913.533, 606.312
914.799, 559.098
916.064, 583.852
917.330, 845.570
918.595, 575.254
919.860, 653.902
921.124, 735.516
922.389, 855.093
923.653, 791.634
924.918, 743.140
926.182, 947.607
927.445, 827.039
928.709, 989.435
929.972, 969.793
931.236, 912.114
932.499, 1005.398
933.761, 1115.645
935.024, 1008.854
936.286, 1048.026
937.549, 1305.160
938.811, 1092.256
940.073, 1384.312
941.334, 1229.332
942.596, 1387.313
943.857, 1366.256
945.118, 1466.158
946.379, 1429.022
947.640, 1261.849
948.900, 1590.636
950.161, 1452.383
951.421, 1332.090
952.681, 1512.759
953.940, 1441.388
955.200, 1430.976
956.459, 1269.525
957.719, 1512.035
958.978, 1499.504
960.236, 1362.935
961.495, 1257.323
962.753, 1267.672
964.012, 983.980
965.270, 1150.249
966.527, 1167.477
967.785, 997.664
969.043, 1023.811
970.300, 818.917
971.557, 783.981
972.814, 814.007
974.071, 649.990
975.327, 834.934
976.583, 534.835
977.840, 749.695
979.095, 595.261
980.351, 432.990
981.607, 718.148
982.862, 445.180
984.117, 354.841
985.372, 684.189
986.627, 168.864
987.882, 463.508
989.136, 351.636
990.390, 203.043
991.644, 456.619
992.898, 261.120
994.152, 412.343
995.405, 424.948
996.659, 338.140
997.912, 699.027
999.165, 581.260
1000.417, 768.957
1001.670, 728.341
1002.922, 932.752
1004.174, 894.721
1005.426, 743.959
1006.678, 731.773
1007.930, 642.936
1009.181, 650.016
1010.432, 621.961
1011.683, 702.626
1012.934, 587.997
1014.185, 719.934
1015.435, 728.765
1016.685, 661.510
1017.935, 646.320
1019.185, 673.134
1020.435, 773.230
1021.684, 658.051
1022.934, 730.542
1024.183, 905.167
1025.432, 662.936
1026.680, 913.470
1027.929, 753.206
1029.177, 902.280
1030.425, 1077.963
1031.673, 1274.651
1032.921, 1237.166
1034.169, 1236.822
1035.416, 1340.271
1036.663, 1616.392
1037.911, 1680.409
1039.157, 1691.938
1040.404, 1799.251
1041.650, 1900.962
1042.897, 1989.332
1044.143, 2019.407
1045.389, 2211.244
1046.634, 2407.500
1047.880, 2459.965
1049.125, 2478.511
1050.371, 2678.895
1051.615, 2882.913
1052.860, 2694.298
1054.105, 2934.662
1055.349, 2633.490
1056.593, 2579.812
1057.837, 2420.117
1059.081, 2492.593
1060.325, 2296.855
1061.568, 2171.123
1062.812, 2089.346
1064.055, 2073.624
1065.298, 1861.807
1066.540, 1842.970
1067.783, 1521.113
1069.025, 1483.236
1070.267, 1677.343
1071.509, 1313.430
1072.751, 1433.497
1073.993, 1673.545
1075.234, 1454.038
1076.475, 1891.590
1077.716, 1356.584
1078.957, 1255.562
1080.198, 1237.521
1081.438, 1335.464
1082.679, 1311.390
1083.919, 1377.297
1085.159, 1227.189
1086.398, 1425.063
1087.638, 1296.923
1088.877, 1425.766
1090.116, 1458.592
1091.355, 1444.403
1092.594, 1593.198
1093.833, 1596.979
1095.071, 1640.745
1096.309, 1882.495
1097.547, 1953.230
1098.785, 1938.951
1100.023, 2143.658
1101.260, 2133.353
1102.498, 2285.000
1103.735, 2427.695
1104.972, 2608.348
1106.208, 2652.985
1107.445, 2906.611
1108.681, 3029.225
1109.918, 3130.824
1111.154, 3069.412
1112.389, 3353.987
1113.625, 3220.550
1114.860, 3253.102
1116.096, 3238.641
1117.331, 3216.168
1118.566, 3156.685
1119.800, 3103.190
1121.035, 3193.686
1122.269, 3143.099
1123.503, 2941.643
1124.737, 3142.105
1125.971, 3096.560
1127.205, 3068.003
1128.438, 2843.440
1129.671, 2705.877
1130.904, 2533.323
1132.137, 2631.794
1133.370, 2419.291
1134.602, 2332.825
1135.834, 2009.415
1137.066, 1968.039
1138.298, 2163.734
1139.530, 1747.347
1140.762, 1909.136
1141.993, 1735.984
1143.224, 1637.906
1144.455, 1768.877
1145.686, 1638.911
1146.917, 1635.037
1148.147, 1665.192
1149.377, 1527.438
1150.607, 1535.737
1151.837, 1476.079
1153.067, 1398.487
1154.296, 1236.953
1155.526, 1183.468
1156.755, 1010.066
1157.984, 1137.702
1159.213, 891.354
1160.441, 761.035
1161.670, 841.756
1162.898, 689.502
1164.126, 512.244
1165.354, 460.050
1166.581, 385.852
1167.809, 465.672
1169.036, 384.595
1170.263, 312.355
1171.490, 312.201
1172.717, 122.093
1173.943, 55.980
1175.170, 137.878
1176.396, 32.772
1177.622, 148.670
1178.848, 134.583
1180.073, 128.507
1181.299, 158.322
1182.524, 79.851
1183.749, 4.920
1184.974, 57.321
1186.199, 65.605
1187.423, 157.938
1188.648, 196.367
1189.872, 78.911
1191.096, 219.511
1192.320, 231.237
1193.543, 32.099
1194.767, 40.010
1195.990, 259.882
1197.213, 2.922
1198.436, 156.975
1199.659, 51.877
1200.881, 89.729
1202.104, 3.583
1203.326, 56.428
1204.548, 75.271
1205.770, 167.886
1206.991, 126.861
1208.213, 23.609
1209.434, 214.357
1210.655, 10.106
1211.876, 74.854
1213.096, 69.604
1214.317, 105.354
1215.537, 273.108
1216.757, 386.871
1217.977, 335.636
1219.197, 387.413
1220.417, 468.196
1221.636, 465.981
1222.855, 483.771
1224.074, 523.563
1225.293, 392.361
1226.512, 435.554
1227.731, 517.973
1228.949, 408.786
1230.167, 488.604
1231.385, 478.427
1232.603, 438.256
1233.820, 364.089
1235.038, 324.928
1236.255, 579.773
1237.472, 380.628
1238.689, 261.485
1239.906, 519.344
1241.122, 264.204
1242.338, 402.065
1243.555, 404.928
1244.771, 373.790
1245.986, 289.655
1247.202, 277.522
1248.417, 485.391
1249.633, 385.260
1250.848, 80.132
1252.063, 435.104
1253.277, 486.978
1254.492, 315.854
1255.706, 517.733
1256.920, 574.613
1258.134, 522.496
1259.348, 386.380
1260.562, 661.267
1261.775, 603.155
1262.988, 499.047
1264.201, 542.939
1265.414, 523.835
1266.627, 646.633
1267.839, 694.633
1269.052, 1027.536
1270.264, 877.440
1271.476, 1177.349
1272.688, 1301.258
1273.899, 1266.170
1275.111, 1357.084
1276.322, 1558.002
1277.533, 1663.921
1278.744, 1657.843
1279.955, 1643.766
1281.165, 1847.690
1282.376, 1952.623
1283.586, 1911.556
1284.796, 2027.491
1286.006, 2094.430
1287.215, 2079.369
1288.425, 2188.379
1289.634, 2014.327
1290.843, 2113.282
1292.052, 1897.242
1293.261, 1990.211
1294.469, 1990.183
1295.678, 2027.162
1296.886, 2037.779
1298.094, 2111.139
1299.302, 2015.787
1300.509, 2108.141
1301.717, 2081.149
1302.924, 2043.164
1304.131, 2227.185
1305.338, 2237.208
1306.545, 2277.238
1307.752, 2490.273
1308.958, 2569.312
1310.164, 2793.357
1311.370, 2892.406
1312.576, 3010.460
1313.782, 3043.519
1314.987, 3240.581
1316.193, 3160.649
1317.398, 3526.725
1318.603, 3302.803
1319.807, 3532.886
1321.012, 3559.977
1322.216, 3657.068
1323.421, 3614.172
1324.625, 3507.282
1325.829, 3505.560
1327.032, 3454.688
1328.236, 3373.084
1329.439, 3329.664
1330.642, 3253.410
1331.845, 3256.639
1333.048, 3135.481
1334.251, 3073.480
1335.453, 2927.548
1336.656, 2831.166
1337.858, 2726.068
1339.060, 2449.498
1340.261, 2431.770
1341.463, 2196.779
1342.664, 1924.310
1343.866, 1831.026
1345.067, 1642.378
1346.267, 1465.751
1347.468, 1305.663
1348.669, 1244.082
1349.869, 1311.525
1351.069, 1066.803
1352.269, 693.299
1353.469, 890.797
1354.668, 784.351
1355.868, 654.857
1357.067, 849.473
1358.266, 332.118
1359.465, 646.799
1360.664, 568.740
1361.862, 319.493
1363.061, 612.676
1364.259, 365.524
1365.457, 410.397
1366.655, 385.315
1367.852, 355.280
1369.050, 356.295
1370.247, 454.360
1371.444, 360.482
1372.641, 198.584
1373.838, 392.570
1375.035, 193.583
1376.231, 190.614
1377.427, 254.646
1378.623, 338.688
1379.819, 223.760
1381.015, 277.783
1382.211, 173.070
1383.406, 289.116
1384.601, 210.161
1385.796, 297.205
1386.991, 197.247
1388.185, 142.286
1389.380, 202.324
1390.574, 305.358
1391.768, 193.393
1392.962, 220.423
1394.156, 23.451
1395.350, 11.524
1396.543, 294.499
1397.736, 49.519
1398.929, 125.536
1400.122, 281.550
1401.315, 265.562
1402.507, 193.568
1403.700, 129.571
1404.892, 35.571
1406.084, 139.565
1407.276, 110.556
1408.467, 235.540
1409.659, 28.520
1410.850, 134.492
1412.041, 257.458
1413.232, 106.418
1414.423, 132.370
1415.614, 22.314
1416.804, 145.250
1417.994, 141.178
1419.184, 136.096
1420.374, 27.002
1421.564, 208.898
1422.753, 190.784
1423.943, 181.658
1425.132, 12.520
1426.321, 222.481
1427.510, 37.513
1428.698, 148.636
1429.887, 253.012
1431.075, 8.353
1432.263, 119.609
1433.451, 40.717
1434.639, 163.046
1435.827, 166.468
1437.014, 97.923
1438.201, 305.477
1439.388, 421.130
1440.575, 189.810
1441.762, 272.513
1442.949, 230.226
1444.135, 223.928
1445.321, 305.626
1446.507, 392.334
1447.693, 252.052
1448.879, 475.775
1450.064, 361.508
1451.250, 462.250
1452.435, 389.999
1453.620, 508.747
1454.805, 445.540
1455.989, 503.383
1457.174, 570.279
1458.358, 429.230
1459.542, 355.242
1460.726, 470.096
1461.910, 481.230
1463.093, 563.438
1464.277, 277.718
1465.460, 242.077
1466.643, 508.521
1467.826, 122.057
1469.009, 420.688
1470.191, 89.423
1471.373, 235.270
1472.556, 336.236
1473.738, 338.332
1474.919, 243.567
1476.101, 415.948
1477.283, 207.475
1478.464, 367.935
1479.645, 105.698
1480.826, 152.567
1482.007, 130.543
1483.187, 319.621
1484.368, 164.816
1485.548, 317.135
1486.728, 127.588
1487.908, 256.188
1489.088, 116.949
1490.268, 430.887
1491.447, 388.008
1492.626, 211.334
1493.805, 140.874
1494.984, 371.639
1496.163, 124.638
1497.341, 169.888
1498.520, 281.396
1499.698, 41.178
1500.876, 244.243
1502.054, 26.380
1503.232, 114.319
1504.409, 38.630
1505.586, 40.805
1506.763, 225.663
1507.940, 198.981
1509.117, 126.799
1510.294, 172.163
1511.470, 293.126
1512.647, 115.755
1513.823, 204.896
