##NAMES=Kurnakovite
##RRUFFID=R050105
##IDEAL CHEMISTRY=MgB_3_O_3_(OH)_5_&#183;5H_2_O
##LOCALITY=Kramer deposit, Boron, Kern County, California, USA
##OWNER=RRUFF
##SOURCE=Rock Currier
##DESCRIPTION=Tabular single crystal
##STATUS=The identification of this mineral has been confirmed by X-ray diffraction and chemical analysis
##URL=rruff.info/R050105
##MEASURED CHEMISTRY=MgB_3_O_3_(OH)_5_Â·5H_2_O
##PIN_ID=L00338
##ORIENTATION=Laser parallel to a* (1 0 0). Fiducial mark perpendicular to laser is parallel to b [0 1 0]
110.777, 0.000
112.168, 1010.610
113.559, 457.058
114.949, 749.357
116.339, 1048.725
117.729, 1229.090
119.119, 2308.307
120.508, 3557.547
121.897, 3619.663
123.286, 3528.363
124.675, 1703.608
126.063, 913.650
127.452, 360.008
128.840, 736.854
130.228, 1445.959
131.615, 2494.648
133.003, 3772.105
134.390, 3551.531
135.777, 3199.195
137.164, 1672.913
138.550, 642.510
139.937, 138.312
141.323, 207.173
142.709, 219.690
144.094, 821.609
145.480, 2400.363
146.865, 4054.786
148.250, 6071.744
149.635, 7274.146
151.019, 7097.088
152.403, 6980.516
153.788, 5596.561
155.171, 5464.107
156.555, 4696.710
157.939, 4229.410
159.322, 3899.353
160.705, 3566.613
162.088, 4159.543
163.470, 4248.930
164.853, 5245.938
166.235, 5551.719
167.617, 5833.432
168.998, 5481.271
170.380, 5071.445
171.761, 5431.053
173.142, 5683.088
174.523, 6690.627
175.904, 7184.755
177.284, 7531.533
178.664, 6809.023
180.044, 5527.288
181.424, 4610.387
182.803, 3342.370
184.183, 3030.289
185.562, 2943.189
186.940, 3138.116
188.319, 3662.113
189.698, 3373.241
191.076, 3870.653
192.454, 3163.648
193.831, 2818.042
195.209, 2369.298
196.586, 1812.142
197.963, 1617.091
199.340, 798.204
200.717, 523.586
202.093, 129.396
203.470, 63.861
204.846, 2.009
206.221, 138.379
207.597, 184.931
208.972, 37.651
210.347, 403.704
211.722, 314.170
213.097, 739.238
214.472, 972.151
215.846, 1026.457
217.220, 1280.070
218.594, 941.726
219.967, 959.401
221.341, 808.081
222.714, 889.756
224.087, 1285.412
225.460, 1490.006
226.832, 2425.236
228.204, 2692.812
229.577, 3565.866
230.948, 3853.006
232.320, 3952.000
233.692, 3818.170
235.063, 2777.259
236.434, 2412.245
237.805, 1705.119
239.175, 1410.873
240.545, 1247.461
241.916, 1031.697
243.286, 1262.649
244.655, 1160.393
246.025, 1562.957
247.394, 1784.345
248.763, 2193.560
250.132, 2693.604
251.501, 2897.482
252.869, 3656.195
254.237, 3845.748
255.605, 4441.139
256.973, 4475.376
258.340, 4236.459
259.708, 3878.393
261.075, 2943.177
262.442, 2455.820
263.808, 1669.319
265.175, 1032.681
266.541, 547.906
267.907, 237.000
269.273, 133.963
270.639, 203.201
272.004, 22.504
273.369, 307.617
274.734, 226.705
276.099, 204.466
277.463, 313.352
278.828, 11.543
280.192, 97.709
281.556, 51.736
282.919, 139.351
284.283, 61.440
285.646, 318.561
287.009, 49.402
288.372, 283.440
289.734, 36.661
291.097, 78.278
292.459, 146.913
293.821, 281.175
295.183, 233.626
296.544, 336.272
297.905, 198.160
299.266, 366.272
300.627, 269.693
301.988, 267.415
303.348, 335.446
304.709, 114.814
306.069, 309.896
307.428, 84.879
308.788, 182.136
310.147, 115.693
311.507, 82.465
312.865, 76.605
314.224, 244.054
315.583, 234.508
316.941, 456.734
318.299, 642.731
319.657, 745.502
321.015, 1253.040
322.372, 1206.265
323.729, 1777.976
325.086, 1852.271
326.443, 1907.266
327.800, 2205.995
329.156, 2147.475
330.512, 2241.709
331.868, 1762.710
333.224, 1651.485
334.579, 1455.042
335.935, 1042.387
337.290, 1004.526
338.645, 674.466
339.999, 684.211
341.354, 705.767
342.708, 479.139
344.062, 671.328
345.416, 506.345
346.769, 700.189
348.123, 478.870
349.476, 688.388
350.829, 706.751
352.182, 632.963
353.534, 1080.004
354.887, 935.663
356.239, 1390.834
357.591, 1241.478
358.942, 1321.666
360.294, 1284.524
361.645, 1147.148
362.996, 1233.559
364.347, 920.708
365.698, 1166.421
367.048, 1124.049
368.398, 1075.740
369.748, 1394.170
371.098, 1318.869
372.448, 1688.410
373.797, 1758.982
375.146, 2220.146
376.495, 2367.172
377.844, 2551.100
379.192, 2930.967
380.540, 2887.783
381.889, 3295.551
383.236, 3129.268
384.584, 2757.935
385.932, 2825.552
387.279, 2193.122
388.626, 2197.640
389.973, 1727.102
391.319, 1526.504
392.666, 1537.850
394.012, 1203.140
395.358, 1390.377
396.704, 1275.570
398.049, 1262.724
399.394, 1253.836
400.740, 1148.908
402.084, 1116.401
403.429, 1020.937
404.774, 916.896
406.118, 861.822
407.462, 634.715
408.806, 723.576
410.150, 583.406
411.493, 920.206
412.836, 820.978
414.179, 1089.722
415.522, 1530.439
416.865, 1743.131
418.207, 2398.799
419.549, 2212.443
420.891, 2532.063
422.233, 2244.662
423.575, 1999.239
424.916, 1815.797
426.257, 1236.336
427.598, 1049.856
428.939, 597.041
430.279, 414.427
431.619, 434.991
432.959, 43.794
434.299, 169.052
435.639, 122.467
436.978, 55.059
438.318, 110.366
439.657, 276.795
440.996, 154.525
442.334, 388.534
443.673, 182.402
445.011, 284.991
446.349, 335.582
447.687, 5.652
449.024, 260.911
450.361, 9.919
451.699, 11.758
453.036, 4.359
454.372, 160.031
455.709, 259.823
457.045, 556.433
458.381, 660.438
459.717, 995.955
461.053, 1145.771
462.388, 1508.506
463.724, 2040.248
465.059, 2178.594
466.394, 2904.668
467.728, 3006.529
469.063, 2847.410
470.397, 2772.092
471.731, 2331.852
473.065, 2154.394
474.398, 1655.449
475.732, 1288.707
477.065, 1262.666
478.398, 829.725
479.731, 977.676
481.063, 665.024
482.396, 676.692
483.728, 634.340
485.060, 341.969
486.391, 522.581
487.723, 391.179
489.054, 473.762
490.385, 545.332
491.716, 341.893
493.047, 671.445
494.377, 498.988
495.708, 773.524
497.038, 796.058
498.368, 914.584
499.697, 1202.437
501.027, 1141.329
502.356, 1422.315
503.685, 1638.323
505.014, 1871.178
506.342, 2263.350
507.671, 2249.342
508.999, 2851.412
510.327, 2735.380
511.655, 3451.438
512.982, 3679.203
514.310, 3547.771
515.637, 4173.352
516.964, 4324.947
518.291, 4774.560
519.617, 4966.252
520.944, 5164.967
522.270, 5671.768
523.596, 5597.633
524.921, 6374.580
526.247, 6560.656
527.572, 7091.826
528.897, 7876.102
530.222, 7725.551
531.547, 8685.114
532.871, 8652.879
534.196, 9027.715
535.520, 9479.709
536.844, 9176.833
538.167, 9694.062
539.491, 9101.450
540.814, 9106.911
542.137, 9384.521
543.460, 8835.257
544.783, 9143.102
546.105, 8759.083
547.427, 9011.137
548.749, 9186.299
550.071, 8890.580
551.393, 9695.957
552.714, 9843.473
554.035, 10604.073
555.356, 10740.787
556.677, 10719.638
557.998, 11074.551
559.318, 10240.582
560.638, 10238.706
561.958, 8802.904
563.278, 7723.217
564.597, 7162.582
565.917, 5726.012
567.236, 5241.500
568.555, 4521.048
569.874, 3821.663
571.192, 3735.336
572.511, 2925.067
573.829, 3135.855
575.147, 2814.703
576.464, 2829.605
577.782, 2858.563
579.099, 2640.579
580.416, 2962.651
581.733, 2958.782
583.050, 3081.974
584.366, 3391.221
585.683, 3454.527
586.999, 3970.892
588.315, 3988.315
589.630, 4417.807
590.946, 4562.376
592.261, 4419.659
593.576, 4924.701
594.891, 4580.578
596.206, 4578.434
597.520, 4729.897
598.834, 4847.043
600.148, 5160.324
601.462, 5084.621
602.776, 5593.281
604.089, 6200.849
605.402, 6325.686
606.715, 7108.034
608.028, 7234.365
609.341, 8417.964
610.653, 9065.044
611.965, 10136.211
613.277, 11628.040
614.589, 12426.079
615.901, 14627.312
617.212, 16264.770
618.523, 18196.420
619.834, 21832.305
621.145, 23692.395
622.456, 28534.699
623.766, 31579.225
625.076, 35394.918
626.386, 39778.840
627.696, 41476.918
629.006, 44455.188
630.315, 44382.625
631.624, 42576.191
632.933, 41519.914
634.242, 36259.734
635.551, 33911.645
636.859, 28955.643
638.167, 25214.715
639.475, 22041.865
640.783, 18578.094
642.090, 16437.389
643.398, 13759.761
644.705, 11719.208
646.012, 10515.732
647.318, 8708.328
648.625, 7853.998
649.931, 6596.742
651.237, 5679.561
652.543, 5283.455
653.849, 4405.424
655.155, 4335.466
656.460, 3370.581
657.765, 3283.773
659.070, 3036.043
660.375, 2416.389
661.679, 2549.813
662.984, 2122.316
664.288, 1869.898
665.592, 1983.556
666.895, 1782.293
668.199, 1790.105
669.502, 1547.992
670.805, 1578.955
672.108, 1589.990
673.411, 1396.143
674.713, 1529.549
676.016, 1282.188
677.318, 1414.707
678.620, 1580.866
679.921, 1232.955
681.223, 1664.078
682.524, 1456.831
683.825, 1793.883
685.126, 1702.715
686.427, 1701.475
687.727, 1996.524
689.028, 1840.482
690.328, 2052.156
691.628, 2290.336
692.927, 2129.062
694.227, 2598.086
695.526, 3055.423
696.825, 2599.386
698.124, 2782.695
699.423, 2598.324
700.721, 3017.348
702.020, 2975.936
703.318, 3019.697
704.616, 3231.295
705.913, 3143.145
707.211, 3420.778
708.508, 3149.334
709.805, 3607.222
711.102, 3708.271
712.399, 3323.488
713.695, 3781.495
714.992, 3546.991
716.288, 3666.054
717.584, 3786.972
718.879, 3454.002
720.175, 3702.094
721.470, 3531.806
722.765, 3694.158
724.060, 3573.824
725.355, 3668.450
726.649, 3957.541
727.944, 3638.281
729.238, 4036.947
730.532, 4393.111
731.825, 4511.300
733.119, 4697.514
734.412, 4831.750
735.705, 5070.012
736.998, 5210.297
738.291, 4722.153
739.584, 4825.484
740.876, 4537.838
742.168, 3974.215
743.460, 3981.611
744.752, 3455.030
746.043, 3305.471
747.334, 2789.933
748.626, 2535.422
749.916, 2422.935
751.207, 1973.505
752.498, 1991.113
753.788, 1691.771
755.078, 1541.514
756.368, 1550.309
757.658, 1232.215
758.947, 1357.176
760.237, 1094.217
761.526, 1022.348
762.815, 1120.495
764.104, 785.711
765.392, 852.941
766.680, 682.185
767.969, 655.438
769.257, 675.701
770.544, 431.969
771.832, 695.242
773.119, 483.520
774.406, 323.799
775.693, 465.080
776.980, 328.361
778.267, 412.643
779.553, 417.921
780.839, 211.196
782.125, 520.466
783.411, 404.732
784.697, 295.989
785.982, 471.241
787.267, 370.483
788.552, 505.717
789.837, 407.939
791.122, 343.151
792.406, 560.353
793.690, 349.541
794.974, 583.718
796.258, 495.880
797.542, 552.030
798.825, 702.164
800.108, 453.285
801.391, 712.389
802.674, 497.477
803.957, 556.549
805.239, 593.602
806.522, 452.638
807.804, 612.654
809.085, 583.651
810.367, 577.629
811.649, 731.586
812.930, 545.521
814.211, 710.436
815.492, 724.329
816.772, 480.198
818.053, 583.045
819.333, 423.867
820.613, 485.663
821.893, 261.435
823.173, 325.180
824.452, 124.898
825.732, 216.590
827.011, 98.254
828.290, 61.889
829.568, 205.509
830.847, 83.942
832.125, 204.639
833.403, 119.378
834.681, 179.231
835.959, 344.231
837.236, 185.471
838.514, 161.864
839.791, 220.402
841.068, 205.119
842.345, 391.007
843.621, 48.168
844.898, 323.422
846.174, 248.915
847.450, 154.612
848.726, 347.464
850.001, 35.573
851.277, 308.778
852.552, 215.224
853.827, 154.863
855.102, 240.666
856.376, 1.678
857.651, 139.775
858.925, 173.032
860.199, 71.467
861.473, 243.027
862.746, 38.805
864.020, 134.693
865.293, 230.747
866.566, 81.986
867.839, 151.337
869.112, 46.836
870.384, 21.545
871.656, 122.161
872.928, 260.971
874.200, 123.057
875.472, 94.093
876.744, 153.116
878.015, 62.092
879.286, 308.995
880.557, 162.884
881.828, 189.723
883.098, 502.513
884.369, 327.293
885.639, 451.026
886.909, 438.760
888.178, 333.447
889.448, 688.089
890.717, 203.788
891.987, 426.435
893.256, 547.077
894.524, 497.738
895.793, 793.354
897.061, 462.010
898.330, 591.683
899.598, 835.308
900.865, 479.996
902.133, 842.636
903.401, 704.229
904.668, 719.800
905.935, 975.322
907.202, 762.796
908.468, 1077.222
909.735, 1056.596
911.001, 1015.944
912.267, 1338.242
913.533, 953.487
914.799, 1200.698
916.064, 1198.856
917.330, 1231.963
918.595, 1530.018
919.860, 1273.020
921.124, 1452.995
922.389, 1648.915
923.653, 1350.783
924.918, 1626.599
926.182, 1345.361
927.445, 1703.068
928.709, 1667.723
929.972, 1545.322
931.236, 1821.866
932.499, 1608.358
933.761, 1725.795
935.024, 2017.179
936.286, 1843.506
937.549, 2087.779
938.811, 2444.000
940.073, 2229.163
941.334, 2645.272
942.596, 2558.327
943.857, 2727.328
945.118, 2886.275
946.379, 2678.167
947.640, 3199.004
948.900, 2915.785
950.161, 3059.514
951.421, 3232.204
952.681, 2949.840
953.940, 3384.420
955.200, 3200.946
956.459, 3052.418
957.719, 3494.834
958.978, 3101.196
960.236, 3061.502
961.495, 3176.754
962.753, 2622.950
964.012, 2820.094
965.270, 2326.180
966.527, 2619.213
967.785, 2256.191
969.043, 2090.117
970.300, 2257.986
971.557, 1793.802
972.814, 1753.563
974.071, 1797.270
975.327, 1438.925
976.583, 1678.524
977.840, 1462.070
979.095, 1267.519
980.351, 1560.729
981.607, 1006.727
982.862, 1462.861
984.117, 1290.375
985.372, 1024.974
986.627, 1312.556
987.882, 1086.529
989.136, 1000.218
990.390, 1192.146
991.644, 884.162
992.898, 1079.906
994.152, 1011.758
995.405, 809.907
996.659, 1096.566
997.912, 814.695
999.165, 1048.543
1000.417, 1243.092
1001.670, 1010.027
1002.922, 1270.632
1004.174, 1047.932
1005.426, 1011.850
1006.678, 1349.218
1007.930, 886.425
1009.181, 1207.809
1010.432, 1306.952
1011.683, 916.325
1012.934, 1322.788
1014.185, 1024.932
1015.435, 1069.926
1016.685, 1339.763
1017.935, 876.822
1019.185, 1385.402
1020.435, 1190.429
1021.684, 1210.609
1022.934, 1649.688
1024.183, 1398.711
1025.432, 1567.129
1026.680, 1866.750
1027.929, 1512.508
1029.177, 2111.035
1030.425, 1794.807
1031.673, 2020.236
1032.921, 2285.031
1034.169, 2098.770
1035.416, 2604.770
1036.663, 2642.137
1037.911, 2441.539
1039.157, 3145.484
1040.404, 2831.326
1041.650, 2993.686
1042.897, 3275.607
1044.143, 2751.850
1045.389, 3563.840
1046.634, 3328.633
1047.880, 3337.207
1049.125, 3933.992
1050.371, 3456.414
1051.615, 3598.154
1052.860, 3646.379
1054.105, 3180.473
1055.349, 3493.145
1056.593, 2811.205
1057.837, 2972.969
1059.081, 3089.576
1060.325, 2419.191
1061.568, 2877.756
1062.812, 2616.299
1064.055, 2384.242
1065.298, 2489.744
1066.540, 2066.746
1067.783, 2111.203
1069.025, 2232.641
1070.267, 1706.588
1071.509, 1974.982
1072.751, 1879.359
1073.993, 1769.139
1075.234, 1912.475
1076.475, 1247.791
1077.716, 1772.088
1078.957, 1488.365
1080.198, 1226.627
1081.438, 1638.873
1082.679, 1182.096
1083.919, 1414.314
1085.159, 1480.514
1086.398, 1073.697
1087.638, 1606.861
1088.877, 1348.010
1090.116, 1259.150
1091.355, 1776.266
1092.594, 1290.365
1093.833, 1604.658
1095.071, 1627.727
1096.309, 1559.783
1097.547, 2023.820
1098.785, 1777.844
1100.023, 1717.334
1101.260, 2058.330
1102.498, 1785.311
1103.735, 2249.277
1104.972, 2339.230
1106.208, 2055.170
1107.445, 2710.096
1108.681, 2230.012
1109.918, 2394.912
1111.154, 2682.801
1112.389, 2151.680
1113.625, 2906.545
1114.860, 2428.400
1116.096, 2611.242
1117.331, 2953.109
1118.566, 2405.967
1119.800, 2724.812
1121.035, 2781.658
1122.269, 2319.496
1123.503, 2914.322
1124.737, 2465.139
1125.971, 2238.945
1127.205, 2581.742
1128.438, 2015.533
1129.671, 2257.316
1130.904, 2117.164
1132.137, 1849.004
1133.370, 2345.898
1134.602, 1742.881
1135.834, 1729.916
1137.066, 2123.049
1138.298, 1501.252
1139.530, 1835.506
1140.762, 1770.824
1141.993, 1454.207
1143.224, 1878.703
1144.455, 1779.221
1145.686, 1470.838
1146.917, 1708.535
1148.147, 1470.285
1149.377, 1754.143
1150.607, 1667.023
1151.837, 1531.002
1153.067, 1872.055
1154.296, 1531.164
1155.526, 1484.355
1156.755, 1797.566
1157.984, 929.832
1159.213, 1502.166
1160.441, 1114.541
1161.670, 826.031
1162.898, 1115.555
1164.126, 577.137
1165.354, 761.803
1166.581, 753.475
1167.809, 272.213
1169.036, 657.986
1170.263, 516.775
1171.490, 268.627
1172.717, 627.477
1173.943, 158.674
1175.170, 75.086
1176.396, 463.846
1177.622, 91.383
1178.848, 277.326
1180.073, 78.037
1181.299, 106.254
1182.524, 318.383
1183.749, 131.984
1184.974, 45.561
1186.199, 185.098
1187.423, 362.363
1188.648, 262.967
1189.872, 124.701
1191.096, 225.453
1192.320, 120.662
1193.543, 298.227
1194.767, 215.291
1195.990, 315.516
1197.213, 388.682
1198.436, 313.898
1199.659, 35.477
1200.881, 65.951
1202.104, 387.572
1203.326, 59.096
1204.548, 124.613
1205.770, 423.129
1206.991, 60.357
1208.213, 254.107
1209.434, 266.572
1210.655, 34.963
1211.876, 592.467
1213.096, 31.898
1214.317, 381.324
1215.537, 686.756
1216.757, 68.811
1217.977, 656.570
1219.197, 549.971
1220.417, 57.375
1221.636, 1045.760
1222.855, 322.146
1224.074, 329.535
1225.293, 1085.926
1226.512, 346.883
1227.731, 718.279
1228.949, 798.682
1230.167, 235.117
1231.385, 1033.523
1232.603, 382.934
1233.820, 496.344
1235.038, 800.738
1236.255, 160.137
1237.472, 526.537
1238.689, 590.939
1239.906, 113.838
1241.122, 728.250
1242.338, 227.662
1243.555, 285.074
1244.771, 807.494
1245.986, 36.084
1247.202, 718.326
1248.417, 506.734
1249.633, 230.148
1250.848, 980.564
1252.063, 599.984
1253.277, 475.404
1254.492, 1222.826
1255.706, 451.252
1256.920, 775.057
1258.134, 954.486
1259.348, 599.918
1260.562, 1189.352
1261.775, 637.787
1262.988, 595.219
1264.201, 1474.658
1265.414, 615.098
1266.627, 1117.729
1267.839, 1441.174
1269.052, 742.617
1270.264, 1676.062
1271.476, 1330.508
1272.688, 1037.953
1273.899, 1853.402
1275.111, 1577.852
1276.322, 1427.461
1277.533, 1750.916
1278.744, 1589.375
1279.955, 2148.805
1281.165, 1954.273
1282.376, 1622.748
1283.586, 2484.244
1284.796, 1769.734
1286.006, 1810.307
1287.215, 2215.816
1288.425, 1728.334
1289.634, 2453.277
1290.843, 2554.811
1292.052, 1588.352
1293.261, 2346.229
1294.469, 2144.785
1295.678, 1709.355
1296.886, 2594.924
1298.094, 1636.502
1299.302, 2051.064
1300.509, 2421.639
1301.717, 1867.219
1302.924, 2412.883
1304.131, 2318.475
1305.338, 2080.072
1306.545, 2977.234
1307.752, 1998.850
1308.958, 2742.473
1310.164, 3172.104
1311.370, 2473.744
1312.576, 3336.391
1313.782, 3373.043
1314.987, 2857.605
1316.193, 3976.412
1317.398, 3206.963
1318.603, 3315.520
1319.807, 4048.250
1321.012, 2952.549
1322.216, 3714.102
1323.421, 3865.494
1324.625, 2849.877
1325.829, 4110.918
1327.032, 3358.527
1328.236, 3215.854
1329.439, 4159.799
1330.642, 3125.691
1331.845, 3315.025
1333.048, 3911.887
1334.251, 2817.227
1335.453, 3606.539
1336.656, 3414.156
1337.858, 2610.203
1339.060, 3322.422
1340.261, 2552.836
1341.463, 2075.010
1342.664, 2887.738
1343.866, 1590.908
1345.067, 2010.559
1346.267, 2114.199
1347.468, 958.371
1348.669, 1744.148
1349.869, 1365.191
1351.069, 724.385
1352.269, 1743.533
1353.469, 790.740
1354.668, 777.963
1355.868, 1620.795
1357.067, 418.037
1358.266, 1171.795
1359.465, 1004.000
1360.664, 307.402
1361.862, 1227.361
1363.061, 971.043
1364.259, 363.521
1365.457, 1561.373
1366.655, 759.094
1367.852, 639.812
1369.050, 1229.525
1370.247, 3.229
1371.444, 509.918
1372.641, 347.605
1373.838, 46.719
1375.035, 1051.740
1376.231, 798.416
1377.427, 578.088
1378.623, 1280.922
1379.819, 275.557
1381.015, 774.184
1382.211, 1170.807
1383.406, 23.426
1384.601, 1185.035
1385.796, 752.641
1386.991, 280.164
1388.185, 1133.664
1389.380, 414.146
1390.574, 405.617
1391.768, 1144.084
1392.962, 156.527
1394.156, 646.949
1395.350, 926.219
1396.543, 159.453
1397.736, 1020.646
1398.929, 602.824
1400.122, 63.977
1401.315, 997.113
1402.507, 159.225
1403.700, 409.316
1404.892, 1298.385
1406.084, 148.566
1407.276, 698.455
1408.467, 729.357
1409.659, 47.768
1410.850, 1009.076
1412.041, 338.889
1413.232, 193.668
1414.423, 1025.490
1415.614, 187.359
1416.804, 171.291
1417.994, 850.256
1419.184, 46.674
1420.374, 761.451
1421.564, 806.893
1422.753, 227.432
1423.943, 864.502
1425.132, 362.812
1426.321, 82.475
1427.510, 1041.316
1428.698, 164.186
1429.887, 358.094
1431.075, 1124.127
1432.263, 90.236
1433.451, 804.420
1434.639, 954.635
1435.827, 119.957
1437.014, 1070.316
1438.201, 473.758
1439.388, 254.082
1440.575, 1313.590
1441.762, 227.768
1442.949, 483.299
1444.135, 1237.969
1445.321, 202.695
1446.507, 715.340
1447.693, 1159.172
1448.879, 119.924
1450.064, 1213.062
1451.250, 620.133
1452.435, 295.301
1453.620, 1430.578
1454.805, 358.955
1455.989, 406.457
1457.174, 1506.615
1458.358, 189.861
1459.542, 962.785
1460.726, 1113.164
1461.910, 267.701
1463.093, 1360.406
1464.277, 963.221
1465.460, 56.408
1466.643, 1394.111
1467.826, 659.531
1469.009, 381.566
1470.191, 1510.256
1471.373, 501.432
1472.556, 715.223
1473.738, 1353.250
1474.919, 143.301
1476.101, 1042.355
1477.283, 1082.959
1478.464, 38.941
1479.645, 1438.045
1480.826, 556.805
1482.007, 284.195
1483.187, 1412.896
1484.368, 192.836
1485.548, 571.291
1486.728, 1402.992
1487.908, 46.719
1489.088, 1039.820
1490.268, 1127.885
1491.447, 303.973
1492.626, 1262.488
1493.805, 629.873
1494.984, 349.557
1496.163, 1263.498
1497.341, 345.180
