##NAMES=Kurnakovite
##RRUFFID=R050105
##IDEAL CHEMISTRY=MgB_3_O_3_(OH)_5_&#183;5H_2_O
##LOCALITY=Kramer deposit, Boron, Kern County, California, USA
##OWNER=RRUFF
##SOURCE=Rock Currier
##DESCRIPTION=Tabular single crystal
##STATUS=The identification of this mineral has been confirmed by X-ray diffraction and chemical analysis
##URL=rruff.info/R050105
##MEASURED CHEMISTRY=MgB_3_O_3_(OH)_5_Â·5H_2_O
##PIN_ID=L00487
##ORIENTATION=Laser parallel to (0 1 1). Fiducial mark perpendicular to laser is parallel to -a [-1 0 0]
110.777, 0.000
112.168, 96.578
113.559, 1078.875
114.949, 2502.199
116.339, 4395.659
117.729, 6063.734
119.119, 6897.745
120.508, 6828.045
121.897, 5931.978
123.286, 5411.298
124.675, 4996.809
126.063, 5623.602
127.452, 7669.978
128.840, 10226.795
130.228, 13219.615
131.615, 15710.297
133.003, 17987.424
134.390, 16976.459
135.777, 14580.871
137.164, 10245.249
138.550, 6918.350
139.937, 3683.267
141.323, 2132.666
142.709, 1634.301
144.094, 677.805
145.480, 639.331
146.865, 991.639
148.250, 936.412
149.635, 946.264
151.019, 1410.331
152.403, 827.254
153.788, 338.505
155.171, 267.688
156.555, 508.387
157.939, 1170.036
159.322, 2152.713
160.705, 3627.206
162.088, 5281.184
163.470, 6947.673
164.853, 8602.680
166.235, 9803.198
167.617, 9972.346
168.998, 10015.229
170.380, 9361.939
171.761, 9297.554
173.142, 9084.133
174.523, 9328.740
175.904, 9093.426
177.284, 8599.036
178.664, 7932.742
180.044, 6990.316
181.424, 6772.381
182.803, 6527.336
184.183, 6547.287
185.562, 7255.146
186.940, 8269.818
188.319, 9129.473
189.698, 9721.344
191.076, 9645.441
192.454, 9367.635
193.831, 8215.885
195.209, 6551.352
196.586, 5184.830
197.963, 3699.975
199.340, 2715.021
200.717, 1929.805
202.093, 1220.951
203.470, 669.697
204.846, 381.835
206.221, 111.346
207.597, 16.791
208.972, 124.688
210.347, 95.087
211.722, 138.292
213.097, 42.234
214.472, 56.058
215.846, 175.046
217.220, 323.270
218.594, 558.080
219.967, 793.047
221.341, 1086.117
222.714, 1640.283
224.087, 2355.531
225.460, 3429.854
226.832, 4588.238
228.204, 5779.654
229.577, 6691.044
230.948, 7380.370
232.320, 7180.598
233.692, 6611.713
235.063, 5683.717
236.434, 4263.616
237.805, 2961.412
239.175, 1903.107
240.545, 934.706
241.916, 560.146
243.286, 97.765
244.655, 352.033
246.025, 595.481
247.394, 640.001
248.763, 756.590
250.132, 787.244
251.501, 626.965
252.869, 757.749
254.237, 513.596
255.605, 445.506
256.973, 458.477
258.340, 297.508
259.708, 309.675
261.075, 369.482
262.442, 434.265
263.808, 439.095
265.175, 379.862
266.541, 165.327
267.907, 6.339
269.273, 177.082
270.639, 615.893
272.004, 968.371
273.369, 1596.828
274.734, 2219.342
276.099, 2977.453
277.463, 3724.057
278.828, 4931.662
280.192, 5608.566
281.556, 6071.652
282.919, 6705.394
284.283, 6604.336
285.646, 6352.490
287.009, 5398.922
288.372, 4409.781
289.734, 3573.397
291.097, 2521.373
292.459, 1800.285
293.821, 1572.958
295.183, 1207.041
296.544, 1177.188
297.905, 1101.355
299.266, 1242.509
300.627, 1607.602
301.988, 1873.583
303.348, 2281.445
304.709, 2547.184
306.069, 2862.797
307.428, 3132.283
308.788, 3314.639
310.147, 3400.801
311.507, 3702.703
312.865, 3887.297
314.224, 4267.560
315.583, 4792.488
316.941, 5701.109
318.299, 6606.438
319.657, 7793.498
321.015, 9124.066
322.372, 12035.859
323.729, 11961.040
325.086, 12842.637
326.443, 13913.692
327.800, 13901.497
329.156, 14274.131
330.512, 13715.602
331.868, 13001.914
333.224, 11951.073
334.579, 11480.085
335.935, 10208.955
337.290, 10417.684
338.645, 10260.278
339.999, 10586.741
341.354, 10917.905
342.708, 11682.151
344.062, 12503.227
345.416, 13538.160
346.769, 15210.076
348.123, 16202.225
349.476, 17345.793
350.829, 19500.701
352.182, 21433.957
353.534, 23542.924
354.887, 25132.889
356.239, 25548.861
357.591, 25479.846
358.942, 24472.850
360.294, 22530.850
361.645, 20269.854
362.996, 17841.855
364.347, 16025.837
365.698, 14497.797
367.048, 13513.735
368.398, 12759.656
369.748, 12441.853
371.098, 12457.359
372.448, 12595.897
373.797, 12951.941
375.146, 13104.476
376.495, 13620.197
377.844, 14176.941
379.192, 14055.769
380.540, 13880.718
381.889, 13256.361
383.236, 12554.141
384.584, 11283.895
385.932, 9891.629
387.279, 8351.335
388.626, 7096.021
389.973, 6068.680
391.319, 4888.320
392.666, 4309.932
394.012, 3874.510
395.358, 3562.058
396.704, 3572.574
398.049, 3489.062
399.394, 3787.521
400.740, 3850.951
402.084, 4312.354
403.429, 4516.729
404.774, 5183.075
406.118, 5822.270
407.462, 6485.100
408.806, 7209.512
410.150, 8595.997
411.493, 9926.037
412.836, 11906.027
414.179, 14013.956
415.522, 15751.559
416.865, 18198.369
418.207, 19417.352
419.549, 19626.408
420.891, 19223.459
422.233, 17521.654
423.575, 15066.026
424.916, 11971.286
426.257, 9698.243
427.598, 7543.941
428.939, 5686.023
430.279, 4272.493
431.619, 2980.236
432.959, 2144.450
434.299, 1452.687
435.639, 1047.947
436.978, 599.233
438.318, 292.565
439.657, 42.747
440.996, 112.832
442.334, 292.749
443.673, 423.947
445.011, 505.502
446.349, 543.460
447.687, 553.845
449.024, 473.665
450.361, 400.879
451.699, 355.452
453.036, 113.358
454.372, 130.528
455.709, 544.400
457.045, 864.077
458.381, 1694.771
459.717, 2433.412
461.053, 3342.000
462.388, 4489.534
463.724, 5729.018
465.059, 6982.448
466.394, 7582.829
467.728, 7895.160
469.063, 8082.441
470.397, 7465.674
471.731, 6578.859
473.065, 5846.998
474.398, 4499.092
475.732, 3955.144
477.065, 2845.153
478.398, 2493.124
479.731, 2270.055
481.063, 2015.950
482.396, 1843.809
483.728, 1778.633
485.060, 1964.426
486.391, 1994.189
487.723, 2173.926
489.054, 2327.637
490.385, 2574.903
491.716, 3105.987
493.047, 3218.628
494.377, 3724.248
495.708, 4173.846
497.038, 4578.426
498.368, 4743.984
499.697, 4960.525
501.027, 5206.048
502.356, 5467.555
503.685, 5225.050
505.014, 5059.537
506.342, 4701.025
507.671, 4413.516
508.999, 4001.011
510.327, 3903.518
511.655, 3430.036
512.982, 3137.572
514.310, 3165.125
515.637, 2883.693
516.964, 2971.281
518.291, 2796.895
519.617, 2881.545
520.944, 3021.234
522.270, 2706.982
523.596, 3074.791
524.921, 2973.725
526.247, 3132.769
527.572, 3141.549
528.897, 3297.833
530.222, 3658.243
531.547, 3778.179
532.871, 4240.010
534.196, 4149.643
535.520, 4306.365
536.844, 4899.205
538.167, 4883.032
539.491, 5373.414
540.814, 5703.488
542.137, 5949.607
543.460, 6298.869
544.783, 6612.029
546.105, 6991.250
547.427, 7398.928
548.749, 7698.268
550.071, 8157.399
551.393, 8602.537
552.714, 8976.698
554.035, 9142.872
555.356, 9441.067
556.677, 9438.283
557.998, 9140.514
559.318, 9134.768
560.638, 8515.037
561.958, 7706.326
563.278, 6811.636
564.597, 6459.964
565.917, 5499.381
567.236, 5092.951
568.555, 4577.738
569.874, 3940.758
571.192, 3728.037
572.511, 3529.588
573.829, 3303.364
575.147, 2846.406
576.464, 2977.646
577.782, 2658.068
579.099, 2566.676
580.416, 2524.428
581.733, 2569.328
583.050, 2686.392
584.366, 2483.635
585.683, 2881.062
586.999, 2745.653
588.315, 2812.354
589.630, 2946.125
590.946, 2863.928
592.261, 3041.750
593.576, 2764.589
594.891, 2742.447
596.206, 2780.326
597.520, 2855.101
598.834, 2985.711
600.148, 2964.680
601.462, 3123.430
602.776, 3340.268
604.089, 3604.602
605.402, 3941.904
606.715, 4407.678
608.028, 4875.571
609.341, 5564.285
610.653, 6318.966
611.965, 7255.019
613.277, 8343.543
614.589, 9492.822
615.901, 10886.141
617.212, 12951.502
618.523, 14972.904
619.834, 17810.346
621.145, 20523.826
622.456, 23679.355
623.766, 26949.920
625.076, 30998.527
626.386, 33990.176
627.696, 37572.875
629.006, 38103.605
630.315, 40709.379
631.624, 38867.203
632.933, 38050.074
634.242, 36320.965
635.551, 32264.918
636.859, 29447.904
638.167, 25694.938
639.475, 23309.012
640.783, 19725.131
642.090, 17415.291
643.398, 15282.495
644.705, 13445.741
646.012, 11686.981
647.318, 9999.365
648.625, 8822.737
649.931, 7532.158
651.237, 6595.619
652.543, 5826.123
653.849, 5044.671
655.155, 4597.262
656.460, 3957.895
657.765, 3588.568
659.070, 2949.287
660.375, 2728.048
661.679, 2340.802
662.984, 2101.695
664.288, 1788.584
665.592, 1650.514
666.895, 1449.484
668.199, 1143.498
669.502, 1090.554
670.805, 825.649
672.108, 900.786
673.411, 728.965
674.713, 512.480
676.016, 555.888
677.318, 333.977
678.620, 249.431
679.921, 143.231
681.223, 89.950
682.524, 82.976
683.825, 97.001
685.126, 111.891
686.427, 154.350
687.727, 145.420
689.028, 132.155
690.328, 289.599
691.628, 75.359
692.927, 69.581
694.227, 141.202
695.526, 71.921
696.825, 54.914
698.124, 96.148
699.423, 46.481
700.721, 39.309
702.020, 2.718
703.318, 45.255
704.616, 0.040
705.913, 52.494
707.211, 23.078
708.508, 292.462
709.805, 34.826
711.102, 97.200
712.399, 382.581
713.695, 372.971
714.992, 666.367
716.288, 723.772
717.584, 998.186
718.879, 1154.605
720.175, 1271.033
721.470, 1970.468
722.765, 2350.908
724.060, 2763.354
725.355, 3549.805
726.649, 4114.260
727.944, 5039.717
729.238, 6140.176
730.532, 6658.636
731.825, 8350.094
733.119, 9508.550
734.412, 10346.006
735.705, 11116.455
736.998, 12003.902
738.291, 12067.344
739.584, 11980.778
740.876, 11471.211
742.168, 10835.635
743.460, 9893.048
744.752, 8896.458
746.043, 8073.855
747.334, 7238.766
748.626, 6533.627
749.916, 5765.999
751.207, 5236.361
752.498, 4656.713
753.788, 4498.060
755.078, 4015.438
756.368, 3798.886
757.658, 3422.452
758.947, 3155.170
760.237, 3059.062
761.526, 2813.138
762.815, 2728.396
764.104, 2572.818
765.392, 2579.382
766.680, 2377.076
767.969, 2147.836
769.257, 2394.600
770.544, 2132.352
771.832, 2117.090
773.119, 2107.814
774.406, 2110.524
775.693, 2180.221
776.980, 2079.902
778.267, 2224.569
779.553, 2276.220
780.839, 2448.855
782.125, 2496.475
783.411, 2710.078
784.697, 2824.862
785.982, 2859.231
787.267, 3081.784
788.552, 3360.316
789.837, 3437.832
791.122, 3970.328
792.406, 4100.806
793.690, 4303.264
794.974, 4427.701
796.258, 4649.121
797.542, 4792.520
798.825, 4681.895
800.108, 4797.253
801.391, 4561.587
802.674, 4536.900
803.957, 4256.189
805.239, 3945.458
806.522, 3968.702
807.804, 3523.924
809.085, 3446.122
810.367, 3182.297
811.649, 2763.445
812.930, 2661.570
814.211, 2308.671
815.492, 2003.745
816.772, 1883.794
818.053, 1659.816
819.333, 1420.812
820.613, 1229.781
821.893, 1110.724
823.173, 805.638
824.452, 541.525
825.732, 477.383
827.011, 363.213
828.290, 149.015
829.568, 42.772
830.847, 52.458
832.125, 36.924
833.403, 24.424
834.681, 276.033
835.959, 215.233
837.236, 261.170
838.514, 243.091
839.791, 250.525
841.068, 277.292
842.345, 263.667
843.621, 269.946
844.898, 320.191
846.174, 281.538
847.450, 212.082
848.726, 247.692
850.001, 239.965
851.277, 271.035
852.552, 176.269
853.827, 89.731
855.102, 120.160
856.376, 7.275
857.651, 206.214
858.925, 338.475
860.199, 325.931
861.473, 373.366
862.746, 589.771
864.020, 778.146
865.293, 739.488
866.566, 992.802
867.839, 1049.086
869.112, 1110.338
870.384, 1330.562
871.656, 1386.785
872.928, 1428.067
874.200, 1446.143
875.472, 1427.281
876.744, 1366.422
878.015, 1311.534
879.286, 1294.635
880.557, 1266.735
881.828, 1231.840
883.098, 1233.967
884.369, 1133.106
885.639, 1199.246
886.909, 1004.383
888.178, 988.517
889.448, 885.635
890.717, 878.386
891.987, 965.887
893.256, 901.011
894.524, 1130.139
895.793, 1116.255
897.061, 1090.369
898.330, 1087.469
899.598, 1069.576
900.865, 1317.674
902.133, 1285.772
903.401, 1361.868
904.668, 1586.976
905.935, 1601.053
907.202, 1783.127
908.468, 1894.170
909.735, 2039.642
911.001, 2303.241
912.267, 2399.227
913.533, 2611.178
914.799, 2834.095
916.064, 2892.975
917.330, 3142.819
918.595, 2939.626
919.860, 3058.393
921.124, 3218.122
922.389, 2884.814
923.653, 2857.465
924.918, 2690.079
926.182, 2643.653
927.445, 2327.189
928.709, 2230.687
929.972, 1978.146
931.236, 1824.564
932.499, 1653.946
933.761, 1697.289
935.024, 1454.594
936.286, 1463.859
937.549, 1605.086
938.811, 1295.274
940.073, 1521.426
941.334, 1432.536
942.596, 1402.609
943.857, 1526.644
945.118, 1453.641
946.379, 1361.599
947.640, 1483.520
948.900, 1448.381
950.161, 1700.244
951.421, 1617.051
952.681, 1809.818
953.940, 2075.547
955.200, 1992.238
956.459, 1957.893
957.719, 2183.509
958.978, 2021.087
960.236, 1932.627
961.495, 1780.131
962.753, 1556.596
964.012, 1487.023
965.270, 1191.414
966.527, 1257.767
967.785, 1045.083
969.043, 970.362
970.300, 932.604
971.557, 748.809
972.814, 768.977
974.071, 642.107
975.327, 636.201
976.583, 587.260
977.840, 568.281
979.095, 532.146
980.351, 491.938
981.607, 452.685
982.862, 429.771
984.117, 388.496
985.372, 399.209
986.627, 201.347
987.882, 307.509
989.136, 352.677
990.390, 272.969
991.644, 405.696
992.898, 386.654
994.152, 460.563
995.405, 461.166
996.659, 469.031
997.912, 520.351
999.165, 609.062
1000.417, 635.704
1001.670, 573.891
1002.922, 1023.170
1004.174, 703.527
1005.426, 875.368
1006.678, 694.347
1007.930, 708.321
1009.181, 671.095
1010.432, 698.535
1011.683, 752.933
1012.934, 757.517
1014.185, 596.120
1015.435, 685.713
1016.685, 535.297
1017.935, 655.889
1019.185, 672.455
1020.435, 736.301
1021.684, 652.266
1022.934, 880.848
1024.183, 982.838
1025.432, 1020.904
1026.680, 1320.725
1027.929, 1373.576
1029.177, 1549.316
1030.425, 1690.535
1031.673, 1938.666
1032.921, 2088.038
1034.169, 2401.396
1035.416, 2549.577
1036.663, 2785.478
1037.911, 2791.507
1039.157, 3155.565
1040.404, 3066.580
1041.650, 3070.392
1042.897, 3156.821
1044.143, 3040.986
1045.389, 2890.381
1046.634, 3060.160
1047.880, 2812.926
1049.125, 2677.906
1050.371, 2498.934
1051.615, 2578.852
1052.860, 2130.715
1054.105, 2303.603
1055.349, 2113.031
1056.593, 1901.369
1057.837, 1752.804
1059.081, 1664.313
1060.325, 1668.283
1061.568, 1549.510
1062.812, 1451.639
1064.055, 1427.885
1065.298, 1349.981
1066.540, 1286.062
1067.783, 1327.129
1069.025, 1061.178
1070.267, 1355.214
1071.509, 982.234
1072.751, 1079.240
1073.993, 1173.230
1075.234, 1110.207
1076.475, 1145.169
1077.716, 1198.116
1078.957, 1046.051
1080.198, 1019.971
1081.438, 1231.877
1082.679, 1104.771
1083.919, 1216.270
1085.159, 1230.938
1086.398, 1314.370
1087.638, 1263.211
1088.877, 1288.040
1090.116, 1340.856
1091.355, 1466.660
1092.594, 1586.451
1093.833, 1624.231
1095.071, 1628.000
1096.309, 1660.755
1097.547, 1989.500
1098.785, 1945.232
1100.023, 2132.955
1101.260, 2107.666
1102.498, 2438.365
1103.735, 2296.055
1104.972, 2612.733
1106.208, 2587.400
1107.445, 2795.059
1108.681, 2830.706
1109.918, 2966.343
1111.154, 2810.971
1112.389, 3109.588
1113.625, 3067.195
1114.860, 3031.793
1116.096, 3140.381
1117.331, 3093.961
1118.566, 2898.532
1119.800, 2977.093
1121.035, 2950.646
1122.269, 2816.189
1123.503, 2923.724
1124.737, 2803.250
1125.971, 2708.769
1127.205, 2518.278
1128.438, 2281.779
1129.671, 2107.280
1130.904, 1963.794
1132.137, 1951.320
1133.370, 1897.883
1134.602, 1792.476
1135.834, 1447.516
1137.066, 1448.162
1138.298, 1579.035
1139.530, 1127.899
1140.762, 1365.958
1141.993, 1110.117
1143.224, 979.374
1144.455, 828.729
1145.686, 893.194
1146.917, 822.759
1148.147, 826.404
1149.377, 655.141
1150.607, 670.964
1151.837, 650.882
1153.067, 437.872
1154.296, 362.906
1155.526, 471.998
1156.755, 319.109
1157.984, 302.219
1159.213, 261.321
1160.441, 252.417
1161.670, 219.507
1162.898, 266.591
1164.126, 153.666
1165.354, 104.735
1166.581, 168.796
1167.809, 40.849
1169.036, 96.107
1170.263, 100.870
1171.490, 6.839
1172.717, 3.795
1173.943, 108.264
1175.170, 29.604
1176.396, 58.539
1177.622, 97.730
1178.848, 111.990
1180.073, 179.326
1181.299, 147.063
1182.524, 96.315
1183.749, 90.925
1184.974, 78.601
1186.199, 46.335
1187.423, 173.112
1188.648, 13.003
1189.872, 147.895
1191.096, 111.887
1192.320, 51.956
1193.543, 90.070
1194.767, 42.248
1195.990, 125.465
1197.213, 62.767
1198.436, 93.116
1199.659, 92.533
1200.881, 141.015
1202.104, 62.413
1203.326, 85.165
1204.548, 52.195
1205.770, 133.450
1206.991, 115.820
1208.213, 88.086
1209.434, 185.347
1210.655, 74.605
1211.876, 161.859
1213.096, 284.109
1214.317, 208.357
1215.537, 293.603
1216.757, 328.858
1217.977, 274.112
1219.197, 398.364
1220.417, 437.623
1221.636, 444.880
1222.855, 327.136
1224.074, 399.393
1225.293, 335.647
1226.512, 499.904
1227.731, 542.160
1228.949, 407.414
1230.167, 305.670
1231.385, 264.924
1232.603, 233.809
1233.820, 323.433
1235.038, 247.688
1236.255, 346.940
1237.472, 342.188
1238.689, 328.432
1239.906, 353.669
1241.122, 170.901
1242.338, 235.129
1243.555, 315.352
1244.771, 196.569
1245.986, 273.781
1247.202, 185.988
1248.417, 440.190
1249.633, 246.389
1250.848, 240.580
1252.063, 397.767
1253.277, 292.947
1254.492, 423.123
1255.706, 472.294
1256.920, 445.459
1258.134, 464.619
1259.348, 462.773
1260.562, 453.222
1261.775, 502.984
1262.988, 468.202
1264.201, 633.334
1265.414, 711.461
1266.627, 859.581
1267.839, 836.694
1269.052, 958.803
1270.264, 959.904
1271.476, 1039.001
1272.688, 1200.090
1273.899, 1248.555
1275.111, 1443.254
1276.322, 1513.323
1277.533, 1625.388
1278.744, 1893.446
1279.955, 1765.499
1281.165, 2103.545
1282.376, 2132.592
1283.586, 2267.633
1284.796, 2336.670
1286.006, 2301.705
1287.215, 2439.736
1288.425, 2429.764
1289.634, 2290.789
1290.843, 2377.811
1292.052, 2186.833
1293.261, 2276.852
1294.469, 2127.870
1295.678, 2061.887
1296.886, 2079.902
1298.094, 2015.916
1299.302, 1803.926
1300.509, 1873.934
1301.717, 1772.939
1302.924, 1896.941
1304.131, 1796.939
1305.338, 1857.937
1306.545, 1793.930
1307.752, 1842.920
1308.958, 2050.908
1310.164, 1990.893
1311.370, 1904.860
1312.576, 2153.841
1313.782, 2208.531
1314.987, 2207.092
1316.193, 2146.026
1317.398, 2369.543
1318.603, 2437.974
1319.807, 2508.643
1321.012, 2427.271
1322.216, 2609.004
1323.421, 2568.252
1324.625, 2436.580
1325.829, 2741.662
1327.032, 2711.753
1328.236, 2900.014
1329.439, 2737.605
1330.642, 2734.960
1331.845, 2758.337
1333.048, 2902.752
1334.251, 2859.375
1335.453, 2607.376
1336.656, 2593.644
1337.858, 2457.680
1339.060, 2213.333
1340.261, 2120.002
1341.463, 1936.892
1342.664, 1732.874
1343.866, 1626.400
1345.067, 1399.986
1346.267, 1223.555
1347.468, 1188.588
1348.669, 985.723
1349.869, 909.767
1351.069, 742.938
1352.269, 660.279
1353.469, 756.567
1354.668, 547.969
1355.868, 451.270
1357.067, 592.739
1358.266, 276.242
1359.465, 493.783
1360.664, 418.121
1361.862, 314.742
1363.061, 341.406
1364.259, 165.930
1365.457, 310.689
1366.655, 303.499
1367.852, 257.362
1369.050, 292.284
1370.247, 374.268
1371.444, 269.125
1372.641, 177.878
1373.838, 319.751
1375.035, 157.496
1376.231, 395.294
1377.427, 356.981
1378.623, 318.325
1379.819, 270.271
1381.015, 303.040
1382.211, 345.794
1383.406, 360.531
1384.601, 359.253
1385.796, 524.960
1386.991, 458.649
1388.185, 435.323
1389.380, 385.981
1390.574, 558.621
1391.768, 708.243
1392.962, 831.850
1394.156, 471.438
1395.350, 551.010
1396.543, 585.562
1397.736, 532.098
1398.929, 598.613
1400.122, 726.111
1401.315, 789.590
1402.507, 805.049
1403.700, 894.489
1404.892, 908.909
1406.084, 891.308
1407.276, 1108.687
1408.467, 926.041
1409.659, 798.376
1410.850, 855.686
1412.041, 1033.975
1413.232, 717.236
1414.423, 919.475
1415.614, 695.688
1416.804, 786.873
1417.994, 701.033
1419.184, 722.209
1420.374, 451.404
1421.564, 602.637
1422.753, 374.923
1423.943, 509.351
1425.132, 408.026
1426.321, 329.882
1427.510, 278.876
1428.698, 247.045
1429.887, 256.404
1431.075, 270.923
1432.263, 134.604
1433.451, 205.470
1434.639, 343.561
1435.827, 287.783
1437.014, 143.137
1438.201, 421.578
1439.388, 392.039
1440.575, 204.517
1441.762, 362.988
1442.949, 269.448
1444.135, 400.890
1445.321, 355.333
1446.507, 364.778
1447.693, 216.227
1448.879, 447.678
1450.064, 414.136
1451.250, 431.596
1452.435, 232.100
1453.620, 625.650
1454.805, 465.255
1455.989, 444.915
1457.174, 639.638
1458.358, 350.426
1459.542, 426.285
1460.726, 583.222
1461.910, 374.240
1463.093, 515.350
1464.277, 408.556
1465.460, 349.867
1466.643, 419.291
1467.826, 264.840
1469.009, 407.522
1470.191, 288.352
1471.373, 239.338
1472.556, 204.487
1473.738, 170.312
1474.919, 86.274
1476.101, 180.896
1477.283, 179.657
1478.464, 223.551
1479.645, 168.563
1480.826, 105.698
1482.007, 50.958
1483.187, 258.354
1484.368, 251.904
1485.548, 724.620
1486.728, 430.522
1487.908, 58.624
1489.088, 39.939
1490.268, 394.481
1491.447, 167.266
1492.626, 154.308
