##NAMES=Kurnakovite
##RRUFFID=R050105
##IDEAL CHEMISTRY=MgB_3_O_3_(OH)_5_&#183;5H_2_O
##LOCALITY=Kramer deposit, Boron, Kern County, California, USA
##OWNER=RRUFF
##SOURCE=Rock Currier
##DESCRIPTION=Tabular single crystal
##STATUS=The identification of this mineral has been confirmed by X-ray diffraction and chemical analysis
##URL=rruff.info/R050105
##MEASURED CHEMISTRY=MgB_3_O_3_(OH)_5_Â·5H_2_O
##PIN_ID=L00484
##ORIENTATION=Laser parallel to b* (0 1 0). Fiducial mark perpendicular to laser is parallel to c [0 0 1]
113.559, 0.000
114.949, 6.385
116.339, 107.428
117.729, 273.531
119.119, 352.563
120.508, 340.571
121.897, 357.127
123.286, 386.204
124.675, 318.427
126.063, 445.342
127.452, 727.169
128.840, 1078.279
130.228, 1501.408
131.615, 1689.573
133.003, 1920.009
134.390, 1761.259
135.777, 1567.289
137.164, 1269.439
138.550, 1487.722
139.937, 1572.559
141.323, 2136.628
142.709, 2688.653
144.094, 3427.417
145.480, 4199.753
146.865, 4956.523
148.250, 5589.617
149.635, 5993.941
151.019, 6252.430
152.403, 6393.085
153.788, 6379.746
155.171, 6211.203
156.555, 6154.046
157.939, 5856.889
159.322, 5978.656
160.705, 6211.815
162.088, 6515.890
163.470, 6910.933
164.853, 7354.356
166.235, 7655.153
167.617, 7356.369
168.998, 6966.042
170.380, 6104.205
171.761, 5192.891
173.142, 4096.128
174.523, 3353.941
175.904, 2649.350
177.284, 2105.375
178.664, 1659.026
180.044, 1326.313
181.424, 1232.251
182.803, 1235.853
184.183, 1262.130
185.562, 1548.094
186.940, 1777.756
188.319, 1859.233
189.698, 1979.217
191.076, 1724.517
192.454, 1398.016
193.831, 1125.708
195.209, 807.231
196.586, 470.420
197.963, 172.477
199.340, 46.464
200.717, 130.572
202.093, 180.873
203.470, 195.585
204.846, 172.533
206.221, 119.367
207.597, 18.356
208.972, 76.083
210.347, 205.907
211.722, 265.834
213.097, 439.425
214.472, 418.032
215.846, 580.789
217.220, 607.531
218.594, 674.255
219.967, 860.950
221.341, 921.610
222.714, 1324.232
224.087, 1569.812
225.460, 2091.349
226.832, 2608.837
228.204, 3007.278
229.577, 3406.667
230.948, 3629.004
232.320, 3481.288
233.692, 3125.516
235.063, 2585.688
236.434, 2021.802
237.805, 1573.853
239.175, 1240.833
240.545, 988.669
241.916, 985.302
243.286, 996.778
244.655, 1007.166
246.025, 1138.464
247.394, 1225.669
248.763, 1385.783
250.132, 1527.805
251.501, 1695.739
252.869, 1753.584
254.237, 1862.344
255.605, 1935.019
256.973, 1787.611
258.340, 1749.121
259.708, 1398.551
261.075, 1097.903
262.442, 787.875
263.808, 628.296
265.175, 418.018
266.541, 259.948
267.907, 101.437
269.273, 11.633
270.639, 23.961
272.004, 93.229
273.369, 24.102
274.734, 59.214
276.099, 107.908
277.463, 218.047
278.828, 268.276
280.192, 378.104
281.556, 392.793
282.919, 430.110
284.283, 503.148
285.646, 468.717
287.009, 360.633
288.372, 266.827
289.734, 240.245
291.097, 125.840
292.459, 22.430
293.821, 23.628
295.183, 90.779
296.544, 143.921
297.905, 152.083
299.266, 155.282
300.627, 117.537
301.988, 134.866
303.348, 56.286
304.709, 138.783
306.069, 89.385
307.428, 47.083
308.788, 74.871
310.147, 70.760
311.507, 35.749
312.865, 57.168
314.224, 68.013
315.583, 224.788
316.941, 352.512
318.299, 457.180
319.657, 668.789
321.015, 863.320
322.372, 918.641
323.729, 1091.710
325.086, 1140.629
326.443, 1235.468
327.800, 1159.218
329.156, 1135.855
330.512, 1045.073
331.868, 999.935
333.224, 790.337
334.579, 790.660
335.935, 685.903
337.290, 661.071
338.645, 556.164
339.999, 622.184
341.354, 663.133
342.708, 690.013
344.062, 705.826
345.416, 699.573
346.769, 664.256
348.123, 638.877
349.476, 528.435
350.829, 536.935
352.182, 489.375
353.534, 468.753
354.887, 495.437
356.239, 492.286
357.591, 555.311
358.942, 565.251
360.294, 605.125
361.645, 664.934
362.996, 727.663
364.347, 811.083
365.698, 901.327
367.048, 1039.634
368.398, 1161.288
369.748, 1291.224
371.098, 1531.134
372.448, 1705.515
373.797, 1937.631
375.146, 2129.065
376.495, 2343.235
377.844, 2510.831
379.192, 2623.397
380.540, 2798.932
381.889, 2656.437
383.236, 2531.913
384.584, 2419.361
385.932, 2060.780
387.279, 1842.173
388.626, 1639.540
389.973, 1477.880
391.319, 1207.196
392.666, 1167.488
394.012, 1037.755
395.358, 1029.000
396.704, 873.223
398.049, 878.423
399.394, 894.603
400.740, 646.761
402.084, 642.899
403.429, 447.019
404.774, 336.120
406.118, 241.204
407.462, 46.271
408.806, 65.685
410.150, 90.694
411.493, 160.759
412.836, 60.899
414.179, 151.085
415.522, 143.341
416.865, 11.664
418.207, 30.982
419.549, 81.390
420.891, 39.190
422.233, 15.244
423.575, 26.705
424.916, 156.245
426.257, 163.958
427.598, 70.832
428.939, 176.819
430.279, 139.915
431.619, 249.743
432.959, 245.384
434.299, 223.354
435.639, 151.796
436.978, 215.844
438.318, 189.024
439.657, 192.219
440.996, 42.519
442.334, 85.849
443.673, 150.236
445.011, 107.717
446.349, 138.730
447.687, 180.164
449.024, 196.583
450.361, 305.985
451.699, 379.371
453.036, 556.880
454.372, 654.906
455.709, 892.753
457.045, 1021.282
458.381, 1207.373
459.717, 1416.852
461.053, 1761.032
462.388, 1941.488
463.724, 2414.767
465.059, 2638.893
466.394, 2745.760
467.728, 2688.649
469.063, 2718.124
470.397, 2551.785
471.731, 2238.640
473.065, 2184.634
474.398, 1868.050
475.732, 1795.958
477.065, 1513.115
478.398, 1532.269
479.731, 1473.419
481.063, 1436.567
482.396, 1398.713
483.728, 1431.858
485.060, 1460.004
486.391, 1407.152
487.723, 1580.303
489.054, 1530.457
490.385, 1719.614
491.716, 1759.777
493.047, 1801.945
494.377, 1903.118
495.708, 2056.299
497.038, 2259.486
498.368, 2378.683
499.697, 2683.886
501.027, 2937.101
502.356, 3403.324
503.685, 3658.560
505.014, 4025.805
506.342, 4382.062
507.671, 4831.332
508.999, 5166.613
510.327, 5530.910
511.655, 5813.219
512.982, 6215.545
514.310, 6694.884
515.637, 6857.240
516.964, 7302.613
518.291, 7463.013
519.617, 8119.458
520.944, 8385.948
522.270, 8355.472
523.596, 8963.079
524.921, 9313.789
526.247, 9758.610
527.572, 10075.533
528.897, 10614.569
530.222, 11111.731
531.547, 11574.975
532.871, 12003.327
534.196, 12161.816
535.520, 11914.324
536.844, 12259.004
538.167, 12165.780
539.491, 11996.673
540.814, 11938.681
542.137, 11780.811
543.460, 11672.064
544.783, 11483.434
546.105, 11510.656
547.427, 11614.516
548.749, 11630.192
550.071, 11789.955
551.393, 11982.809
552.714, 12221.762
554.035, 12308.803
555.356, 12491.902
556.677, 12085.079
557.998, 11604.297
559.318, 11099.573
560.638, 10117.895
561.958, 8990.250
563.278, 7855.648
564.597, 7083.088
565.917, 6138.567
567.236, 5574.825
568.555, 5010.846
569.874, 4625.450
571.192, 4420.813
572.511, 4277.602
573.829, 4265.890
575.147, 4062.826
576.464, 4203.190
577.782, 4128.011
579.099, 4254.332
580.416, 4205.654
581.733, 4441.461
583.050, 4655.719
584.366, 4575.019
585.683, 4998.010
586.999, 4971.029
588.315, 4863.582
589.630, 5272.642
590.946, 5422.056
592.261, 5391.981
593.576, 5479.781
594.891, 5283.438
596.206, 5414.320
597.520, 5886.111
598.834, 5900.931
600.148, 6310.376
601.462, 6471.334
602.776, 6963.487
604.089, 7205.547
605.402, 7936.576
606.715, 8507.669
608.028, 9293.818
609.341, 10050.032
610.653, 10943.304
611.965, 12071.642
613.277, 13336.084
614.589, 14781.621
615.901, 16581.283
617.212, 18813.068
618.523, 21248.996
619.834, 24142.061
621.145, 27183.250
622.456, 30419.576
623.766, 33805.012
625.076, 37493.570
626.386, 40165.266
627.696, 42314.066
629.006, 41846.984
630.315, 43185.020
631.624, 39617.168
632.933, 37570.402
634.242, 34324.719
635.551, 29975.096
636.859, 26300.537
638.167, 22492.043
639.475, 19460.477
640.783, 16590.234
642.090, 14289.929
643.398, 12210.682
644.705, 10495.499
646.012, 8933.379
647.318, 7698.322
648.625, 6726.327
649.931, 5798.395
651.237, 5138.525
652.543, 4499.719
653.849, 3954.975
655.155, 3677.292
656.460, 3204.673
657.765, 3080.116
659.070, 2526.621
660.375, 2351.188
661.679, 2408.817
662.984, 2139.508
664.288, 1947.261
665.592, 1928.077
666.895, 1879.953
668.199, 1775.891
669.502, 1654.890
670.805, 1641.951
672.108, 1680.073
673.411, 1596.257
674.713, 1670.715
676.016, 1719.380
677.318, 1737.065
678.620, 1744.259
679.921, 1793.886
681.223, 1824.607
682.524, 1902.172
683.825, 1889.626
685.126, 2228.316
686.427, 2228.374
687.727, 2287.820
689.028, 2493.095
690.328, 2419.907
691.628, 2773.965
692.927, 2915.175
694.227, 3026.231
695.526, 2911.441
696.825, 3416.663
698.124, 3322.660
699.423, 3597.224
700.721, 3787.990
702.020, 3942.514
703.318, 4007.122
704.616, 4143.706
705.913, 4206.886
707.211, 4336.387
708.508, 4668.512
709.805, 4578.375
711.102, 4369.773
712.399, 4686.135
713.695, 4381.113
714.992, 4566.973
716.288, 4371.174
717.584, 4278.012
718.879, 4076.752
720.175, 3937.295
721.470, 4225.099
722.765, 3969.464
724.060, 3945.287
725.355, 3724.172
726.649, 3655.335
727.944, 3629.372
729.238, 3728.467
730.532, 3370.643
731.825, 3601.897
733.119, 3514.194
734.412, 3184.522
735.705, 2987.910
736.998, 2918.326
738.291, 2559.782
739.584, 2294.282
740.876, 2125.856
742.168, 1839.509
743.460, 1566.214
744.752, 1402.998
746.043, 1219.463
747.334, 1111.025
748.626, 1026.845
749.916, 956.977
751.207, 997.174
752.498, 909.454
753.788, 889.807
755.078, 805.234
756.368, 777.695
757.658, 798.199
758.947, 699.763
760.237, 684.374
761.526, 635.001
762.815, 568.646
764.104, 544.304
765.392, 502.979
766.680, 517.668
767.969, 414.372
769.257, 474.090
770.544, 329.821
771.832, 521.564
773.119, 315.318
774.406, 429.083
775.693, 367.859
776.980, 225.643
778.267, 345.436
779.553, 336.236
780.839, 368.042
782.125, 329.856
783.411, 389.674
784.697, 372.497
785.982, 421.325
787.267, 410.154
788.552, 440.988
789.837, 425.823
791.122, 514.659
792.406, 507.497
793.690, 488.334
794.974, 486.173
796.258, 566.011
797.542, 678.848
798.825, 637.683
800.108, 755.516
801.391, 664.347
802.674, 647.175
803.957, 794.000
805.239, 735.820
806.522, 761.637
807.804, 602.448
809.085, 859.255
810.367, 815.055
811.649, 727.849
812.930, 808.635
814.211, 768.415
815.492, 642.187
816.772, 642.950
818.053, 561.705
819.333, 537.450
820.613, 455.829
821.893, 419.910
823.173, 288.625
824.452, 210.327
825.732, 146.019
827.011, 85.697
828.290, 17.637
829.568, 65.005
830.847, 77.434
832.125, 33.932
833.403, 180.479
834.681, 210.152
835.959, 219.971
837.236, 150.941
838.514, 199.029
839.791, 265.261
841.068, 140.673
842.345, 262.203
843.621, 203.914
844.898, 204.780
846.174, 315.800
847.450, 183.036
848.726, 262.418
850.001, 243.990
851.277, 269.744
852.552, 276.326
853.827, 245.342
855.102, 255.183
856.376, 174.713
857.651, 140.393
858.925, 84.208
860.199, 151.128
861.473, 159.190
862.746, 121.398
864.020, 0.734
865.293, 78.136
866.566, 100.356
867.839, 3.180
869.112, 88.214
870.384, 151.576
871.656, 183.913
872.928, 78.223
874.200, 186.498
875.472, 96.747
876.744, 224.963
878.015, 292.153
879.286, 155.317
880.557, 354.452
881.828, 392.560
883.098, 359.653
884.369, 316.723
885.639, 327.800
886.909, 352.878
888.178, 346.936
889.448, 303.964
890.717, 478.966
891.987, 344.945
893.256, 466.907
894.524, 503.871
895.793, 379.850
897.061, 441.850
898.330, 507.875
899.598, 481.915
900.865, 566.962
902.133, 657.009
903.401, 520.034
904.668, 658.045
905.935, 570.029
907.202, 616.005
908.468, 677.963
909.735, 763.917
911.001, 721.834
912.267, 735.715
913.533, 811.561
914.799, 871.373
916.064, 942.150
917.330, 1039.904
918.595, 855.624
919.860, 934.305
921.124, 992.949
922.389, 1006.556
923.653, 1050.124
924.918, 1036.654
926.182, 1174.146
927.445, 1173.600
928.709, 1193.016
929.972, 1198.393
931.236, 1102.730
932.499, 1204.029
933.761, 1328.289
935.024, 1194.510
936.286, 1223.693
937.549, 1423.835
938.811, 1316.938
940.073, 1411.002
941.334, 1451.026
942.596, 1520.011
943.857, 1640.956
945.118, 1601.860
946.379, 1728.949
947.640, 1748.551
948.900, 1900.336
950.161, 1917.082
951.421, 1995.786
952.681, 2150.450
953.940, 2251.074
955.200, 2276.659
956.459, 2253.202
957.719, 2418.706
958.978, 2458.168
960.236, 2372.590
961.495, 2248.971
962.753, 2075.313
964.012, 1869.613
965.270, 1807.873
966.527, 1896.092
967.785, 1661.270
969.043, 1612.407
970.300, 1446.503
971.557, 1301.560
972.814, 1360.575
974.071, 1313.549
975.327, 1232.482
976.583, 1046.375
977.840, 1214.227
979.095, 1028.039
980.351, 990.595
981.607, 1040.965
982.862, 943.334
984.117, 909.214
985.372, 1030.682
986.627, 775.073
987.882, 868.641
989.136, 879.338
990.390, 744.818
991.644, 853.949
992.898, 811.697
994.152, 796.435
995.405, 851.089
996.659, 815.292
997.912, 878.360
999.165, 951.598
1000.417, 983.698
1001.670, 979.658
1002.922, 998.154
1004.174, 908.952
1005.426, 988.563
1006.678, 931.435
1007.930, 886.236
1009.181, 900.080
1010.432, 891.341
1011.683, 802.296
1012.934, 831.354
1014.185, 755.266
1015.435, 806.369
1016.685, 727.522
1017.935, 646.073
1019.185, 781.757
1020.435, 809.114
1021.684, 717.849
1022.934, 729.692
1024.183, 904.747
1025.432, 920.555
1026.680, 978.813
1027.929, 1077.635
1029.177, 1125.442
1030.425, 1184.027
1031.673, 1317.810
1032.921, 1407.947
1034.169, 1452.445
1035.416, 1485.083
1036.663, 1764.205
1037.911, 1750.427
1039.157, 1801.330
1040.404, 2029.236
1041.650, 2027.045
1042.897, 2249.249
1044.143, 2105.094
1045.389, 2345.325
1046.634, 2501.128
1047.880, 2445.381
1049.125, 2474.940
1050.371, 2589.691
1051.615, 2758.445
1052.860, 2628.194
1054.105, 2741.221
1055.349, 2537.000
1056.593, 2444.506
1057.837, 2276.645
1059.081, 2295.882
1060.325, 2156.399
1061.568, 2119.840
1062.812, 1888.312
1064.055, 1805.245
1065.298, 1701.844
1066.540, 1621.334
1067.783, 1560.893
1069.025, 1447.263
1070.267, 1508.579
1071.509, 1319.879
1072.751, 1332.162
1073.993, 1307.431
1075.234, 1200.685
1076.475, 1137.922
1077.716, 1241.145
1078.957, 1103.353
1080.198, 1118.545
1081.438, 1097.725
1082.679, 1050.889
1083.919, 1170.038
1085.159, 1035.175
1086.398, 1059.297
1087.638, 1145.405
1088.877, 1212.501
1090.116, 1180.583
1091.355, 1261.652
1092.594, 1428.709
1093.833, 1390.752
1095.071, 1461.782
1096.309, 1455.800
1097.547, 1682.807
1098.785, 1671.801
1100.023, 1860.784
1101.260, 1972.755
1102.498, 2104.714
1103.735, 2238.122
1104.972, 2319.600
1106.208, 2401.527
1107.445, 2566.442
1108.681, 2497.348
1109.918, 2797.243
1111.154, 2631.128
1112.389, 2927.003
1113.625, 2915.869
1114.860, 2947.724
1116.096, 2996.568
1117.331, 2959.406
1118.566, 2927.234
1119.800, 2985.054
1121.035, 3030.863
1122.269, 2828.666
1123.503, 2937.459
1124.737, 2850.246
1125.971, 2694.022
1127.205, 2725.793
1128.438, 2409.557
1129.671, 2804.321
1130.904, 2537.104
1132.137, 2685.907
1133.370, 2524.721
1134.602, 2198.582
1135.834, 1918.504
1137.066, 1856.485
1138.298, 2018.512
1139.530, 1714.596
1140.762, 1842.757
1141.993, 1633.959
1143.224, 1579.239
1144.455, 1523.582
1145.686, 1528.986
1146.917, 1585.485
1148.147, 1582.043
1149.377, 1494.680
1150.607, 1509.392
1151.837, 1435.188
1153.067, 1328.069
1154.296, 1220.028
1155.526, 1160.168
1156.755, 1068.031
1157.984, 1058.322
1159.213, 933.513
1160.441, 938.759
1161.670, 901.062
1162.898, 712.415
1164.126, 692.801
1165.354, 516.192
1166.581, 486.599
1167.809, 438.025
1169.036, 271.450
1170.263, 325.873
1171.490, 221.294
1172.717, 220.717
1173.943, 82.136
1175.170, 117.557
1176.396, 99.975
1177.622, 154.398
1178.848, 58.832
1180.073, 30.738
1181.299, 4.320
1182.524, 117.915
1183.749, 93.583
1184.974, 15.312
1186.199, 13.941
1187.423, 10.565
1188.648, 8.263
1189.872, 30.337
1191.096, 104.136
1192.320, 158.000
1193.543, 182.959
1194.767, 190.126
1195.990, 163.202
1197.213, 134.477
1198.436, 102.833
1199.659, 23.256
1200.881, 59.701
1202.104, 8.189
1203.326, 83.693
1204.548, 46.252
1205.770, 95.846
1206.991, 49.500
1208.213, 63.844
1209.434, 52.188
1210.655, 3.529
1211.876, 13.861
1213.096, 37.809
1214.317, 15.491
1215.537, 56.390
1216.757, 133.084
1217.977, 202.381
1219.197, 236.679
1220.417, 315.977
1221.636, 294.275
1222.855, 373.574
1224.074, 321.875
1225.293, 376.176
1226.512, 343.479
1227.731, 412.782
1228.949, 397.534
1230.167, 385.388
1231.385, 391.699
1232.603, 320.015
1233.820, 317.331
1235.038, 230.650
1236.255, 382.969
1237.472, 361.286
1238.689, 237.604
1239.906, 395.920
1241.122, 178.236
1242.338, 244.554
1243.555, 426.871
1244.771, 283.188
1245.986, 350.507
1247.202, 321.824
1248.417, 442.144
1249.633, 363.462
1250.848, 269.781
1252.063, 455.101
1253.277, 406.420
1254.492, 353.741
1255.706, 527.061
1256.920, 485.382
1258.134, 527.703
1259.348, 490.024
1260.562, 609.346
1261.775, 597.667
1262.988, 521.989
1264.201, 740.312
1265.414, 704.635
1266.627, 713.958
1267.839, 785.279
1269.052, 890.604
1270.264, 943.927
1271.476, 1029.250
1272.688, 1112.573
1273.899, 1116.896
1275.111, 1197.220
1276.322, 1361.543
1277.533, 1425.866
1278.744, 1603.188
1279.955, 1608.509
1281.165, 1768.829
1282.376, 1784.148
1283.586, 1826.466
1284.796, 1840.780
1286.006, 1911.094
1287.215, 2072.404
1288.425, 2010.714
1289.634, 2009.023
1290.843, 1965.330
1292.052, 1910.640
1293.261, 2024.949
1294.469, 1947.261
1295.678, 1963.574
1296.886, 1934.889
1298.094, 2032.203
1299.302, 1879.520
1300.509, 2155.836
1301.717, 2055.152
1302.924, 2213.472
1304.131, 2290.790
1305.338, 2374.107
1306.545, 2514.425
1307.752, 2658.743
1308.958, 2646.060
1310.164, 2855.376
1311.370, 2814.691
1312.576, 3244.005
1313.782, 3117.319
1314.987, 3238.633
1316.193, 3285.945
1317.398, 3662.259
1318.603, 3606.572
1319.807, 3793.887
1321.012, 3772.199
1322.216, 3854.193
1323.421, 3726.512
1324.625, 3551.827
1325.829, 3758.790
1327.032, 3737.367
1328.236, 3689.843
1329.439, 3779.776
1330.642, 3502.603
1331.845, 3624.736
1333.048, 3664.365
1334.251, 3702.578
1335.453, 3395.388
1336.656, 3466.598
1337.858, 3309.465
1339.060, 3070.658
1340.261, 2952.502
1341.463, 2583.926
1342.664, 2477.153
1343.866, 2167.372
1345.067, 2057.591
1346.267, 1804.530
1347.468, 1707.713
1348.669, 1532.877
1349.869, 1519.985
1351.069, 1258.704
1352.269, 1069.143
1353.469, 1007.556
1354.668, 1005.867
1355.868, 851.709
1357.067, 858.883
1358.266, 779.151
1359.465, 764.328
1360.664, 704.852
1361.862, 579.357
1363.061, 625.898
1364.259, 528.405
1365.457, 458.836
1366.655, 516.271
1367.852, 552.910
1369.050, 466.357
1370.247, 380.106
1371.444, 409.584
1372.641, 416.062
1373.838, 416.543
1375.035, 399.041
1376.231, 404.332
1377.427, 348.815
1378.623, 372.310
1379.819, 369.451
1381.015, 245.371
1382.211, 449.095
1383.406, 351.291
1384.601, 285.479
1385.796, 416.657
1386.991, 390.828
1388.185, 333.987
1389.380, 433.139
1390.574, 381.279
1391.768, 345.412
1392.962, 325.533
1394.156, 323.644
1395.350, 316.743
1396.543, 445.832
1397.736, 257.910
1398.929, 399.977
1400.122, 246.029
1401.315, 440.069
1402.507, 372.098
1403.700, 326.113
1404.892, 263.115
1406.084, 322.104
1407.276, 326.079
1408.467, 253.038
1409.659, 167.984
1410.850, 274.914
1412.041, 349.828
1413.232, 209.727
1414.423, 327.608
1415.614, 251.472
1416.804, 233.317
1417.994, 170.144
1419.184, 296.951
1420.374, 226.739
1421.564, 230.506
1422.753, 195.252
1423.943, 197.966
1425.132, 175.478
1426.321, 202.228
1427.510, 143.975
1428.698, 150.769
1429.887, 154.549
1431.075, 114.402
1432.263, 162.506
1433.451, 40.920
1434.639, 207.580
1435.827, 132.357
1437.014, 77.234
1438.201, 203.264
1439.388, 230.351
1440.575, 126.453
1441.762, 112.606
1442.949, 145.800
1444.135, 110.001
1445.321, 65.212
1446.507, 139.434
1447.693, 88.662
1448.879, 148.901
1450.064, 176.151
1451.250, 34.383
1452.435, 87.629
1453.620, 262.903
1454.805, 187.207
1455.989, 250.537
1457.174, 219.899
1458.358, 78.293
1459.542, 442.719
1460.726, 419.184
1461.910, 92.688
1463.093, 271.235
1464.277, 41.169
1465.460, 61.523
1466.643, 218.179
1467.826, 60.060
1469.009, 233.770
1470.191, 8.669
1471.373, 136.646
1472.556, 82.711
1473.738, 247.870
1474.919, 12.868
1476.101, 121.508
1477.283, 117.000
1478.464, 23.607
1479.645, 13.313
1480.826, 81.105
1482.007, 16.974
1483.187, 253.919
1484.368, 54.942
1485.548, 205.050
1486.728, 406.246
1487.908, 124.542
1489.088, 95.943
1490.268, 283.461
1491.447, 228.099
1492.626, 90.869
1493.805, 77.778
1494.984, 154.997
1496.163, 113.928
1497.341, 143.325
1498.520, 84.967
1499.698, 100.646
1500.876, 67.096
1502.054, 21.514
1503.232, 37.974
1504.409, 33.952
1505.586, 45.697
1506.763, 89.136
1507.940, 139.161
1509.117, 27.628
