##NAMES=Kurnakovite
##RRUFFID=R050105
##IDEAL CHEMISTRY=MgB_3_O_3_(OH)_5_&#183;5H_2_O
##LOCALITY=Kramer deposit, Boron, Kern County, California, USA
##OWNER=RRUFF
##SOURCE=Rock Currier
##DESCRIPTION=Tabular single crystal
##STATUS=The identification of this mineral has been confirmed by X-ray diffraction and chemical analysis
##URL=rruff.info/R050105
##MEASURED CHEMISTRY=MgB_3_O_3_(OH)_5_Â·5H_2_O
##PIN_ID=L00495
##ORIENTATION=Laser parallel to (1 0 1). Fiducial mark perpendicular to laser is parallel to b [0 1 0]
102.428, 0.000
103.820, 77.416
105.212, 38.992
106.604, 158.064
107.995, 868.486
109.387, 1479.869
110.777, 2242.800
112.168, 3217.871
113.559, 4092.594
114.949, 5863.254
116.339, 7399.979
117.729, 9129.887
119.119, 10156.973
120.508, 9831.725
121.897, 8951.280
123.286, 7946.271
124.675, 6363.783
126.063, 5308.168
127.452, 5701.232
128.840, 6377.594
130.228, 7016.463
131.615, 7865.106
133.003, 8623.588
134.390, 8387.184
135.777, 7678.479
137.164, 6492.512
138.550, 6373.302
139.937, 6074.862
141.323, 6281.208
142.709, 6512.346
144.094, 7409.278
145.480, 8780.741
146.865, 9815.389
148.250, 10248.849
149.635, 10025.293
151.019, 8765.147
152.403, 6720.883
153.788, 5066.639
155.171, 3775.407
156.555, 2998.199
157.939, 2476.641
159.322, 2486.425
160.705, 3047.654
162.088, 3530.699
163.470, 4508.490
164.853, 5311.086
166.235, 6326.674
167.617, 7385.249
168.998, 8535.802
170.380, 9365.313
171.761, 10677.763
173.142, 11467.134
174.523, 12381.414
175.904, 12327.590
177.284, 11281.658
178.664, 9897.621
180.044, 7804.477
181.424, 6242.223
182.803, 4988.861
184.183, 3923.395
185.562, 3240.770
186.940, 3180.876
188.319, 2888.009
189.698, 2847.510
191.076, 2581.100
192.454, 2499.990
193.831, 2293.393
195.209, 1764.005
196.586, 1507.193
197.963, 1035.695
199.340, 807.533
200.717, 394.309
202.093, 34.021
203.470, 252.168
204.846, 348.316
206.221, 383.426
207.597, 151.505
208.972, 2.443
210.347, 110.586
211.722, 79.614
213.097, 41.624
214.472, 232.278
215.846, 193.177
217.220, 20.044
218.594, 97.011
219.967, 194.842
221.341, 412.441
222.714, 292.874
224.087, 82.277
225.460, 374.273
226.832, 845.760
228.204, 1314.170
229.577, 1591.496
230.948, 1743.737
232.320, 1789.894
233.692, 1694.957
235.063, 1398.909
236.434, 1085.503
237.805, 946.629
239.175, 928.565
240.545, 1170.320
241.916, 1524.146
243.286, 2109.496
244.655, 2935.663
246.025, 3940.430
247.394, 5407.083
248.763, 7113.652
250.132, 8692.134
251.501, 10952.533
252.869, 12650.847
254.237, 14089.075
255.605, 14689.221
256.973, 14255.279
258.340, 12960.256
259.708, 10628.151
261.075, 8533.963
262.442, 6146.691
263.808, 4438.340
265.175, 2827.910
266.541, 1834.399
267.907, 1124.161
269.273, 414.584
270.639, 122.449
272.004, 290.617
273.369, 44.867
274.734, 168.538
276.099, 56.693
277.463, 271.348
278.828, 727.956
280.192, 945.369
281.556, 1130.847
282.919, 1348.435
284.283, 1253.210
285.646, 1251.149
287.009, 920.876
288.372, 606.562
289.734, 377.973
291.097, 22.417
292.459, 226.302
293.821, 233.129
295.183, 344.092
296.544, 307.233
297.905, 293.575
299.266, 134.121
300.627, 100.171
301.988, 383.362
303.348, 690.487
304.709, 981.879
306.069, 1159.544
307.428, 1634.479
308.788, 2002.349
310.147, 2370.154
311.507, 3090.887
312.865, 3730.548
314.224, 4700.138
315.583, 5739.640
316.941, 7212.033
318.299, 8845.876
319.657, 10280.235
321.015, 12108.418
322.372, 13572.455
323.729, 15187.416
325.086, 16208.220
326.443, 16963.543
327.800, 16418.535
329.156, 16290.939
330.512, 14577.145
331.868, 13276.482
333.224, 11532.618
334.579, 10079.193
335.935, 8306.554
337.290, 7440.172
338.645, 6429.983
339.999, 5983.902
341.354, 5501.832
342.708, 5256.748
344.062, 5297.494
345.416, 5260.622
346.769, 5693.460
348.123, 6114.027
349.476, 6819.207
350.829, 7671.160
352.182, 8715.859
353.534, 9677.401
354.887, 10428.881
356.239, 10541.293
357.591, 10435.627
358.942, 9747.883
360.294, 8907.056
361.645, 7867.863
362.996, 7007.143
364.347, 6312.892
365.698, 5814.312
367.048, 5435.412
368.398, 5332.979
369.748, 5365.338
371.098, 5617.361
372.448, 5872.213
373.797, 6290.061
375.146, 6471.315
376.495, 6876.274
377.844, 7161.172
379.192, 7080.007
380.540, 7078.422
381.889, 6768.626
383.236, 6492.222
384.584, 6005.093
385.932, 5372.887
387.279, 4652.980
388.626, 4208.379
389.973, 3756.714
391.319, 3208.986
392.666, 3166.197
394.012, 2849.348
395.358, 2801.436
396.704, 2758.464
398.049, 2776.432
399.394, 2683.461
400.740, 2505.193
402.084, 2520.993
403.429, 2400.739
404.774, 2289.432
406.118, 2428.072
407.462, 2356.661
408.806, 2563.204
410.150, 3177.698
411.493, 3772.145
412.836, 4697.546
414.179, 5609.901
415.522, 6528.210
416.865, 7501.474
418.207, 8104.694
419.549, 8355.871
420.891, 8136.002
422.233, 7339.091
423.575, 6311.137
424.916, 4944.141
426.257, 3987.102
427.598, 3192.021
428.939, 2245.898
430.279, 1695.759
431.619, 930.603
432.959, 536.418
434.299, 242.468
435.639, 20.909
436.978, 290.999
438.318, 256.772
439.657, 471.849
440.996, 383.342
442.334, 555.208
443.673, 617.537
445.011, 538.809
446.349, 476.510
447.687, 313.350
449.024, 169.391
450.361, 158.306
451.699, 268.896
453.036, 628.482
454.372, 1025.187
455.709, 1723.188
457.045, 2195.956
458.381, 3289.774
459.717, 4302.195
461.053, 5757.377
462.388, 7270.289
463.724, 9029.292
465.059, 10520.239
466.394, 11487.132
467.728, 12065.966
469.063, 12086.742
470.397, 11218.466
471.731, 9988.132
473.065, 8612.745
474.398, 6983.302
475.732, 5871.804
477.065, 4405.254
478.398, 3605.651
479.731, 2782.996
481.063, 2289.294
482.396, 1707.545
483.728, 1239.750
485.060, 950.908
486.391, 654.022
487.723, 436.093
489.054, 237.123
490.385, 79.449
491.716, 28.020
493.047, 93.115
494.377, 167.383
495.708, 119.807
497.038, 159.357
498.368, 182.053
499.697, 107.905
501.027, 95.873
502.356, 24.948
503.685, 19.070
505.014, 77.711
506.342, 126.468
507.671, 172.183
508.999, 244.858
510.327, 358.495
511.655, 385.099
512.982, 402.669
514.310, 637.207
515.637, 650.713
516.964, 871.189
518.291, 867.638
519.617, 1162.059
520.944, 1410.461
522.270, 1506.842
523.596, 1719.204
524.921, 1944.588
526.247, 2180.988
527.572, 2504.492
528.897, 2681.122
530.222, 3045.871
531.547, 3214.693
532.871, 3499.567
534.196, 3467.491
535.520, 3670.499
536.844, 3898.549
538.167, 3750.625
539.491, 3912.766
540.814, 3994.965
542.137, 4125.249
543.460, 4190.629
544.783, 4337.147
546.105, 4534.781
547.427, 4944.477
548.749, 5283.171
550.071, 5625.914
551.393, 6253.615
552.714, 6813.319
554.035, 7450.014
555.356, 8173.713
556.677, 8491.439
557.998, 8546.178
559.318, 8662.965
560.638, 8240.780
561.958, 7477.635
563.278, 6767.538
564.597, 6187.483
565.917, 5438.460
567.236, 4793.479
568.555, 4412.540
569.874, 3789.630
571.192, 3534.780
572.511, 3343.975
573.829, 2997.177
575.147, 2762.404
576.464, 2864.653
577.782, 2739.909
579.099, 2818.167
580.416, 2970.420
581.733, 3336.668
583.050, 3652.910
584.366, 4123.147
585.683, 4917.379
586.999, 5256.602
588.315, 6010.819
589.630, 6597.027
590.946, 6749.227
592.261, 6840.938
593.576, 6421.006
594.891, 6000.431
596.206, 5730.707
597.520, 5432.597
598.834, 5357.204
600.148, 5085.854
601.462, 5113.796
602.776, 5175.586
604.089, 5385.088
605.402, 5781.292
606.715, 6221.869
608.028, 6901.629
609.341, 7439.771
610.653, 8309.982
611.965, 9457.432
613.277, 10593.014
614.589, 11984.730
615.901, 13781.613
617.212, 15934.649
618.523, 18246.842
619.834, 21225.143
621.145, 24033.498
622.456, 27577.873
623.766, 31110.266
625.076, 34830.676
626.386, 37409.109
627.696, 39996.547
629.006, 39874.027
630.315, 41512.508
631.624, 38765.020
632.933, 37391.531
634.242, 34856.078
635.551, 30890.652
636.859, 27874.230
638.167, 24235.840
639.475, 22107.461
640.783, 18873.105
642.090, 16797.771
643.398, 15003.456
644.705, 13305.160
646.012, 11803.886
647.318, 10539.163
648.625, 9507.602
649.931, 8470.872
651.237, 7521.301
652.543, 6734.252
653.849, 6146.377
655.155, 5812.208
656.460, 5129.809
657.765, 4910.262
659.070, 4175.670
660.375, 3926.055
661.679, 3767.574
662.984, 3285.674
664.288, 3029.029
665.592, 3002.621
666.895, 2711.563
668.199, 2595.701
669.502, 2404.864
670.805, 2276.055
672.108, 2249.271
673.411, 2066.009
674.713, 1873.638
676.016, 1984.714
677.318, 1678.882
678.620, 1802.427
679.921, 1646.171
681.223, 1665.029
682.524, 1741.302
683.825, 1543.905
685.126, 1751.938
686.427, 1865.265
687.727, 1630.479
689.028, 1839.836
690.328, 1766.370
691.628, 1873.464
692.927, 1919.688
694.227, 1991.489
695.526, 1755.929
696.825, 2012.901
698.124, 1903.802
699.423, 1984.185
700.721, 2085.930
702.020, 2119.062
703.318, 2081.762
704.616, 2179.589
705.913, 2248.819
707.211, 2118.904
708.508, 2411.712
709.805, 2402.561
711.102, 2338.492
712.399, 2640.665
713.695, 2599.307
714.992, 2938.083
716.288, 2919.955
717.584, 3253.014
718.879, 3492.080
720.175, 3587.145
721.470, 4235.329
722.765, 4480.788
724.060, 4971.141
725.355, 5575.569
726.649, 5868.492
727.944, 6582.374
729.238, 7610.411
730.532, 8050.921
731.825, 9289.100
733.119, 10278.114
734.412, 10617.888
735.705, 11425.804
736.998, 11764.614
738.291, 11791.035
739.584, 11780.589
740.876, 11241.028
742.168, 10727.263
743.460, 9789.499
744.752, 9234.090
746.043, 8565.672
747.334, 8115.243
748.626, 7290.808
749.916, 6701.379
751.207, 6280.992
752.498, 5805.727
753.788, 5544.574
755.078, 5099.589
756.368, 4806.751
757.658, 4402.102
758.947, 4073.657
760.237, 4029.396
761.526, 3572.303
762.815, 3492.332
764.104, 3227.446
765.392, 3067.566
766.680, 2847.685
767.969, 2674.508
769.257, 2539.458
770.544, 2359.951
771.832, 2290.007
773.119, 2161.046
774.406, 2046.065
775.693, 1999.065
776.980, 1907.031
778.267, 1824.005
779.553, 1810.943
780.839, 1806.861
782.125, 1811.758
783.411, 1851.633
784.697, 1812.486
785.982, 1840.316
787.267, 2186.124
788.552, 1934.909
789.837, 1907.670
791.122, 2181.407
792.406, 2071.121
793.690, 2130.811
794.974, 2457.476
796.258, 2475.114
797.542, 2434.729
798.825, 2282.316
800.108, 2381.879
801.391, 2255.415
802.674, 2270.926
803.957, 2139.418
805.239, 1995.903
806.522, 2090.399
807.804, 1868.925
809.085, 1882.466
810.367, 1786.033
811.649, 1603.629
812.930, 1561.234
814.211, 1427.845
815.492, 1341.441
816.772, 1295.015
818.053, 1079.563
819.333, 972.083
820.613, 822.574
821.893, 679.034
823.173, 561.461
824.452, 471.856
825.732, 399.218
827.011, 158.546
828.290, 194.835
829.568, 98.086
830.847, 10.704
832.125, 23.448
833.403, 10.553
834.681, 130.394
835.959, 102.465
837.236, 216.648
838.514, 205.005
839.791, 143.531
841.068, 171.193
842.345, 203.009
843.621, 107.998
844.898, 258.109
846.174, 178.422
847.450, 105.898
848.726, 257.500
850.001, 216.308
851.277, 229.301
852.552, 187.488
853.827, 127.847
855.102, 164.349
856.376, 140.012
857.651, 92.826
858.925, 130.234
860.199, 115.245
861.473, 7.206
862.746, 97.090
864.020, 7.922
865.293, 74.323
866.566, 32.689
867.839, 145.155
869.112, 81.782
870.384, 115.536
871.656, 146.436
872.928, 129.498
874.200, 82.714
875.472, 118.062
876.744, 115.558
878.015, 68.203
879.286, 186.952
880.557, 121.887
881.828, 20.024
883.098, 51.145
884.369, 29.412
885.639, 22.234
886.909, 51.813
888.178, 102.368
889.448, 114.887
890.717, 183.407
891.987, 149.901
893.256, 174.368
894.524, 221.800
895.793, 219.223
897.061, 371.627
898.330, 385.018
899.598, 449.409
900.865, 628.793
902.133, 652.166
903.401, 661.518
904.668, 824.843
905.935, 966.124
907.202, 1108.360
908.468, 1239.551
909.735, 1436.695
911.001, 1477.792
912.267, 1601.841
913.533, 1808.841
914.799, 2025.792
916.064, 1982.692
917.330, 2248.541
918.595, 2246.339
919.860, 2353.085
921.124, 2395.782
922.389, 2361.427
923.653, 2369.021
924.918, 2381.565
926.182, 2436.058
927.445, 2461.499
928.709, 2587.891
929.972, 2579.231
931.236, 2657.521
932.499, 2837.761
933.761, 3019.950
935.024, 3139.088
936.286, 3445.177
937.549, 3738.215
938.811, 3835.202
940.073, 4351.140
941.334, 4524.027
942.596, 4642.866
943.857, 5022.653
945.118, 5003.391
946.379, 5033.079
947.640, 5087.718
948.900, 5136.987
950.161, 5298.846
951.421, 5325.337
952.681, 5389.778
953.940, 5555.171
955.200, 5602.515
956.459, 5517.810
957.719, 5783.056
958.978, 5475.252
960.236, 5296.400
961.495, 4847.499
962.753, 4701.549
964.012, 4324.547
965.270, 3851.499
966.527, 3793.399
967.785, 3419.251
969.043, 3237.054
970.300, 3005.807
971.557, 2842.511
972.814, 2604.165
974.071, 2385.771
975.327, 2338.329
976.583, 2221.838
977.840, 2165.299
979.095, 1976.219
980.351, 1937.225
981.607, 1915.763
982.862, 1722.190
984.117, 1649.220
985.372, 1795.027
986.627, 1521.702
987.882, 1634.941
989.136, 1628.830
990.390, 1495.270
991.644, 1520.394
992.898, 1582.611
994.152, 1556.665
995.405, 1650.520
996.659, 1589.794
997.912, 1867.918
999.165, 1941.445
1000.417, 2146.312
1001.670, 2181.627
1002.922, 2243.701
1004.174, 2449.854
1005.426, 2293.335
1006.678, 2043.407
1007.930, 2016.891
1009.181, 1963.226
1010.432, 1920.749
1011.683, 1810.175
1012.934, 1691.468
1014.185, 1674.698
1015.435, 1691.827
1016.685, 1541.692
1017.935, 1542.070
1019.185, 1593.292
1020.435, 1519.400
1021.684, 1560.299
1022.934, 1538.172
1024.183, 1619.027
1025.432, 1527.742
1026.680, 1657.164
1027.929, 1552.672
1029.177, 1648.380
1030.425, 1765.277
1031.673, 1806.201
1032.921, 1858.947
1034.169, 1927.868
1035.416, 2067.404
1036.663, 2089.641
1037.911, 2140.490
1039.157, 2303.725
1040.404, 2326.357
1041.650, 2360.197
1042.897, 2403.198
1044.143, 2400.938
1045.389, 2499.054
1046.634, 2594.813
1047.880, 2544.471
1049.125, 2514.232
1050.371, 2560.183
1051.615, 2664.041
1052.860, 2469.659
1054.105, 2596.319
1055.349, 2358.208
1056.593, 2229.086
1057.837, 2174.952
1059.081, 2161.808
1060.325, 1914.652
1061.568, 1867.487
1062.812, 1705.313
1064.055, 1706.130
1065.298, 1535.937
1066.540, 1483.735
1067.783, 1459.524
1069.025, 1413.307
1070.267, 1432.080
1071.509, 1325.847
1072.751, 1237.606
1073.993, 1344.359
1075.234, 1267.106
1076.475, 1203.848
1077.716, 1262.583
1078.957, 1260.314
1080.198, 1291.040
1081.438, 1396.761
1082.679, 1422.477
1083.919, 1333.189
1085.159, 1395.899
1086.398, 1488.605
1087.638, 1406.310
1088.877, 1455.010
1090.116, 1569.709
1091.355, 1593.406
1092.594, 1622.102
1093.833, 1704.796
1095.071, 1806.490
1096.309, 1887.184
1097.547, 2058.877
1098.785, 2088.569
1100.023, 2172.264
1101.260, 2369.957
1102.498, 2610.652
1103.735, 2480.349
1104.972, 2810.048
1106.208, 2896.748
1107.445, 3108.451
1108.681, 3056.158
1109.918, 3191.865
1111.154, 3216.578
1112.389, 3413.294
1113.625, 3405.013
1114.860, 3350.737
1116.096, 3319.466
1117.331, 3413.200
1118.566, 3355.939
1119.800, 3242.686
1121.035, 3345.439
1122.269, 3213.203
1123.503, 3188.974
1124.737, 3140.750
1125.971, 2857.535
1127.205, 2763.331
1128.438, 2516.138
1129.671, 2501.954
1130.904, 2402.783
1132.137, 2263.632
1133.370, 2187.496
1134.602, 2002.382
1135.834, 1873.322
1137.066, 1696.325
1138.298, 1785.407
1139.530, 1495.566
1140.762, 1629.788
1141.993, 1378.080
1143.224, 1354.449
1144.455, 1294.873
1145.686, 1297.392
1146.917, 1342.984
1148.147, 1267.633
1149.377, 1273.378
1150.607, 1194.209
1151.837, 1112.131
1153.067, 1098.133
1154.296, 1069.199
1155.526, 992.342
1156.755, 934.554
1157.984, 911.822
1159.213, 876.111
1160.441, 795.420
1161.670, 608.763
1162.898, 569.125
1164.126, 451.521
1165.354, 471.974
1166.581, 412.472
1167.809, 384.045
1169.036, 335.154
1170.263, 297.241
1171.490, 204.161
1172.717, 182.014
1173.943, 107.929
1175.170, 83.255
1176.396, 86.028
1177.622, 81.047
1178.848, 118.213
1180.073, 205.453
1181.299, 72.271
1182.524, 77.974
1183.749, 48.664
1184.974, 170.345
1186.199, 125.074
1187.423, 148.836
1188.648, 145.646
1189.872, 95.499
1191.096, 68.376
1192.320, 166.263
1193.543, 123.206
1194.767, 128.185
1195.990, 185.204
1197.213, 152.291
1198.436, 132.428
1199.659, 90.608
1200.881, 71.812
1202.104, 33.973
1203.326, 51.776
1204.548, 44.603
1205.770, 92.236
1206.991, 88.320
1208.213, 125.213
1209.434, 112.127
1210.655, 142.065
1211.876, 218.026
1213.096, 344.011
1214.317, 388.018
1215.537, 464.080
1216.757, 699.128
1217.977, 605.229
1219.197, 668.364
1220.417, 801.525
1221.636, 767.709
1222.855, 862.919
1224.074, 907.160
1225.293, 816.427
1226.512, 831.085
1227.731, 848.038
1228.949, 805.382
1230.167, 646.752
1231.385, 810.146
1232.603, 650.563
1233.820, 542.004
1235.038, 598.468
1236.255, 626.955
1237.472, 509.463
1238.689, 486.993
1239.906, 540.546
1241.122, 412.119
1242.338, 333.715
1243.555, 395.331
1244.771, 336.969
1245.986, 332.629
1247.202, 333.311
1248.417, 444.015
1249.633, 409.740
1250.848, 358.488
1252.063, 524.260
1253.277, 493.054
1254.492, 524.870
1255.706, 524.707
1256.920, 590.568
1258.134, 527.452
1259.348, 598.357
1260.562, 640.287
1261.775, 742.238
1262.988, 696.212
1264.201, 754.208
1265.414, 858.228
1266.627, 949.952
1267.839, 1115.589
1269.052, 1082.676
1270.264, 1203.786
1271.476, 1297.918
1272.688, 1330.882
1273.899, 1483.061
1275.111, 1593.262
1276.322, 1724.485
1277.533, 1826.731
1278.744, 1911.002
1279.955, 1970.283
1281.165, 2240.598
1282.376, 2273.266
1283.586, 2333.625
1284.796, 2311.047
1286.006, 2390.802
1287.215, 2364.209
1288.425, 2387.683
1289.634, 2275.160
1290.843, 2280.662
1292.052, 2120.190
1293.261, 2192.747
1294.469, 2275.329
1295.678, 2155.850
1296.886, 2209.574
1298.094, 2120.235
1299.302, 1897.924
1300.509, 2057.636
1301.717, 1984.373
1302.924, 2059.136
1304.131, 2155.922
1305.338, 2041.733
1306.545, 2024.570
1307.752, 2198.430
1308.958, 2184.314
1310.164, 2330.225
1311.370, 2441.158
1312.576, 2634.117
1313.782, 2636.101
1314.987, 2684.108
1316.193, 2632.141
1317.398, 2939.197
1318.603, 2829.279
1319.807, 2994.384
1321.012, 2990.516
1322.216, 3092.379
1323.421, 3124.561
1324.625, 3142.266
1325.829, 3102.979
1327.032, 3144.554
1328.236, 3170.840
1329.439, 3117.597
1330.642, 3162.991
1331.845, 3160.845
1333.048, 3237.378
1334.251, 3193.098
1335.453, 2985.525
1336.656, 2937.336
1337.858, 2722.985
1339.060, 2485.000
1340.261, 2334.770
1341.463, 2084.454
1342.664, 2089.969
1343.866, 1752.597
1345.067, 1481.484
1346.267, 1466.353
1347.468, 1299.013
1348.669, 1162.708
1349.869, 1073.437
1351.069, 928.199
1352.269, 714.997
1353.469, 882.829
1354.668, 1124.697
1355.868, 842.103
1357.067, 840.735
1358.266, 523.572
1359.465, 496.596
1360.664, 467.076
1361.862, 435.187
1363.061, 474.290
1364.259, 321.491
1365.457, 311.740
1366.655, 331.037
1367.852, 326.727
1369.050, 318.127
1370.247, 308.896
1371.444, 312.264
1372.641, 273.511
1373.838, 303.554
1375.035, 295.878
1376.231, 333.833
1377.427, 360.660
1378.623, 407.379
1379.819, 408.290
1381.015, 427.252
1382.211, 404.927
1383.406, 450.330
1384.601, 439.757
1385.796, 477.761
1386.991, 518.680
1388.185, 483.175
1389.380, 433.693
1390.574, 410.233
1391.768, 461.797
1392.962, 501.382
1394.156, 412.987
1395.350, 368.614
1396.543, 395.259
1397.736, 146.913
1398.929, 279.588
1400.122, 171.272
1401.315, 150.978
1402.507, 142.699
1403.700, 113.429
1404.892, 186.141
1406.084, 121.865
1407.276, 31.604
1408.467, 108.358
1409.659, 31.873
1410.850, 28.092
1412.041, 62.704
1413.232, 11.511
1414.423, 46.330
1415.614, 35.841
1416.804, 83.999
1417.994, 49.847
1419.184, 117.704
1420.374, 29.568
1421.564, 68.438
1422.753, 41.687
1423.943, 15.222
1425.132, 94.837
1426.321, 32.135
1427.510, 2.791
1428.698, 20.531
1429.887, 41.940
1431.075, 92.577
1432.263, 144.421
1433.451, 78.495
1434.639, 237.830
1435.827, 289.345
1437.014, 202.922
1438.201, 387.533
1439.388, 493.180
1440.575, 508.858
1441.762, 545.569
1442.949, 652.270
1444.135, 712.943
1445.321, 667.628
1446.507, 775.323
1447.693, 770.028
1448.879, 837.749
1450.064, 917.498
1451.250, 895.283
1452.435, 971.114
1453.620, 1030.000
1454.805, 1033.951
1455.989, 1160.967
1457.174, 1211.052
1458.358, 1048.208
1459.542, 1017.437
1460.726, 1057.739
1461.910, 959.120
1463.093, 1010.582
1464.277, 859.128
1465.460, 756.765
1466.643, 896.497
1467.826, 727.173
1469.009, 688.042
1470.191, 549.897
1471.373, 549.939
1472.556, 445.621
1473.738, 509.871
1474.919, 525.849
1476.101, 511.849
1477.283, 339.922
1478.464, 369.271
1479.645, 369.809
1480.826, 379.418
1482.007, 352.099
1483.187, 471.849
1484.368, 244.677
1485.548, 442.589
