##NAMES=Kurnakovite
##RRUFFID=R050105
##IDEAL CHEMISTRY=MgB_3_O_3_(OH)_5_&#183;5H_2_O
##LOCALITY=Kramer deposit, Boron, Kern County, California, USA
##OWNER=RRUFF
##SOURCE=Rock Currier
##DESCRIPTION=Tabular single crystal
##STATUS=The identification of this mineral has been confirmed by X-ray diffraction and chemical analysis
##URL=rruff.info/R050105
##MEASURED CHEMISTRY=MgB_3_O_3_(OH)_5_Â·5H_2_O
##PIN_ID=L00269
##ORIENTATION=Laser parallel to (-1 -1 0). Fiducial mark perpendicular to laser is parallel to -c [0 0 -1]
113.559, 0.000
114.949, 748.819
116.339, 1813.866
117.729, 2644.699
119.119, 3283.082
120.508, 3017.479
121.897, 2347.072
123.286, 1720.771
124.675, 750.094
126.063, 517.140
127.452, 758.174
128.840, 1047.910
130.228, 1432.852
131.615, 1469.115
133.003, 1808.918
134.390, 1508.710
135.777, 1053.142
137.164, 249.754
138.550, 225.062
139.937, 238.848
141.323, 122.207
142.709, 19.706
144.094, 285.898
145.480, 498.785
146.865, 965.098
148.250, 1398.938
149.635, 1734.389
151.019, 1964.516
152.403, 2198.375
153.788, 2522.004
155.171, 2722.526
156.555, 3184.195
157.939, 3508.205
159.322, 4374.439
160.705, 5488.664
162.088, 6834.135
163.470, 8580.298
164.853, 9814.060
166.235, 11326.503
167.617, 12181.561
168.998, 12926.179
170.380, 12716.295
171.761, 12180.864
173.142, 11219.842
174.523, 10709.187
175.904, 9873.864
177.284, 8508.844
178.664, 7396.088
180.044, 6092.538
181.424, 5477.167
182.803, 4823.957
184.183, 4384.892
185.562, 4320.957
186.940, 4566.170
188.319, 4651.511
189.698, 4741.947
191.076, 4404.466
192.454, 4039.059
193.831, 3380.719
195.209, 2706.225
196.586, 2100.150
197.963, 1457.647
199.340, 914.993
200.717, 368.891
202.093, 228.009
203.470, 218.046
204.846, 244.032
206.221, 399.214
207.597, 183.588
208.972, 92.142
210.347, 312.031
211.722, 207.128
213.097, 0.384
214.472, 226.206
215.846, 616.646
217.220, 938.941
218.594, 1395.097
219.967, 2060.104
221.341, 2690.940
222.714, 3666.612
224.087, 4808.119
225.460, 6331.473
226.832, 7855.674
228.204, 9247.731
229.577, 10392.648
230.948, 10720.430
232.320, 10410.077
233.692, 9448.596
235.063, 8034.994
236.434, 6392.270
237.805, 4992.427
239.175, 4025.469
240.545, 3151.395
241.916, 3002.973
243.286, 2686.027
244.655, 3010.733
246.025, 3407.081
247.394, 3996.328
248.763, 4985.492
250.132, 5749.571
251.501, 7274.567
252.869, 7910.482
254.237, 8929.313
255.605, 9183.065
256.973, 9018.732
258.340, 8086.889
259.708, 6707.594
261.075, 5329.481
262.442, 3982.821
263.808, 2897.085
265.175, 2075.275
266.541, 1480.393
267.907, 1060.438
269.273, 796.413
270.639, 715.316
272.004, 578.631
273.369, 578.917
274.734, 666.622
276.099, 884.056
277.463, 1176.455
278.828, 1786.177
280.192, 1879.566
281.556, 2134.920
282.919, 2386.019
284.283, 2338.801
285.646, 2304.248
287.009, 1868.032
288.372, 1516.788
289.734, 1399.355
291.097, 1049.029
292.459, 813.135
293.821, 920.523
295.183, 756.647
296.544, 1041.098
297.905, 1078.576
299.266, 1464.106
300.627, 1632.680
301.988, 1882.244
303.348, 2270.756
304.709, 2396.680
306.069, 2594.360
307.428, 2915.267
308.788, 2856.598
310.147, 2758.895
311.507, 2900.158
312.865, 2792.392
314.224, 3060.596
315.583, 3370.771
316.941, 4052.920
318.299, 4594.043
319.657, 5314.142
321.015, 6312.213
322.372, 7080.256
323.729, 8087.822
325.086, 8860.820
326.443, 9362.423
327.800, 9296.791
329.156, 9617.163
330.512, 8825.537
331.868, 8477.908
333.224, 7952.274
334.579, 7793.636
335.935, 6930.986
337.290, 7024.324
338.645, 6757.653
339.999, 7143.965
341.354, 7305.260
342.708, 7803.539
344.062, 8500.802
345.416, 8920.041
346.769, 9596.265
348.123, 10539.464
349.476, 11328.644
350.829, 12408.800
352.182, 13725.934
353.534, 15087.043
354.887, 15760.133
356.239, 16169.190
357.591, 15693.229
358.942, 14715.237
360.294, 13403.209
361.645, 11918.133
362.996, 10195.006
364.347, 9074.818
365.698, 7882.570
367.048, 7325.326
368.398, 6663.457
369.748, 6147.031
371.098, 6108.220
372.448, 5861.189
373.797, 5815.649
375.146, 5660.137
376.495, 5714.312
377.844, 5800.509
379.192, 5374.650
380.540, 5541.740
381.889, 4940.776
383.236, 4665.760
384.584, 4152.693
385.932, 3516.578
387.279, 2935.412
388.626, 2330.197
389.973, 2137.937
391.319, 1478.631
392.666, 1421.278
394.012, 1061.880
395.358, 851.438
396.704, 774.952
398.049, 664.423
399.394, 599.850
400.740, 470.235
402.084, 497.575
403.429, 426.872
404.774, 490.127
406.118, 971.340
407.462, 1037.518
408.806, 1203.661
410.150, 1712.771
411.493, 2443.848
412.836, 3260.891
414.179, 4090.901
415.522, 4787.880
416.865, 5604.827
418.207, 5938.740
419.549, 5873.624
420.891, 5693.475
422.233, 4980.285
423.575, 4172.064
424.916, 2979.812
426.257, 2422.532
427.598, 1799.223
428.939, 1102.885
430.279, 760.518
431.619, 250.122
432.959, 51.313
434.299, 223.846
435.639, 213.520
436.978, 605.414
438.318, 439.776
439.657, 698.715
440.996, 554.143
442.334, 650.989
443.673, 830.310
445.011, 725.201
446.349, 638.609
447.687, 580.487
449.024, 548.806
450.361, 371.545
451.699, 422.611
453.036, 139.030
454.372, 49.350
455.709, 367.631
457.045, 540.873
458.381, 1022.082
459.717, 1334.258
461.053, 1902.404
462.388, 2362.518
463.724, 2802.600
465.059, 3046.560
466.394, 3246.705
467.728, 3189.750
469.063, 3061.768
470.397, 2672.756
471.731, 2153.714
473.065, 1967.644
474.398, 1395.543
475.732, 1305.414
477.065, 841.259
478.398, 760.074
479.731, 698.861
481.063, 663.623
482.396, 569.356
483.728, 622.064
485.060, 749.746
486.391, 648.408
487.723, 704.050
489.054, 692.674
490.385, 1035.279
491.716, 1171.867
493.047, 1350.438
494.377, 1363.990
495.708, 1681.525
497.038, 2009.043
498.368, 1974.544
499.697, 2360.030
501.027, 2596.498
502.356, 3020.951
503.685, 3250.388
505.014, 3352.809
506.342, 3500.215
507.671, 3821.607
508.999, 3929.983
510.327, 4142.346
511.655, 4245.695
512.982, 4279.031
514.310, 4498.359
515.637, 4396.674
516.964, 4544.000
518.291, 4603.398
519.617, 4960.878
520.944, 5041.457
522.270, 5032.158
523.596, 5475.989
524.921, 5651.957
526.247, 5797.064
527.572, 6002.367
528.897, 6204.842
530.222, 6763.496
531.547, 6965.264
532.871, 7457.152
534.196, 7311.162
535.520, 7375.293
536.844, 7849.538
538.167, 7979.824
539.491, 8081.200
540.814, 8104.689
542.137, 8448.229
543.460, 8675.844
544.783, 8982.482
546.105, 9183.167
547.427, 9832.941
548.749, 10102.729
550.071, 10624.514
551.393, 11428.301
552.714, 11975.127
554.035, 12373.951
555.356, 13065.774
556.677, 13205.598
557.998, 12871.418
559.318, 12524.234
560.638, 11618.554
561.958, 10310.985
563.278, 9188.112
564.597, 8530.500
565.917, 7421.309
567.236, 6726.115
568.555, 6326.918
569.874, 5532.723
571.192, 5313.526
572.511, 5166.328
573.829, 4943.131
575.147, 4814.344
576.464, 4791.732
577.782, 4549.533
579.099, 4608.332
580.416, 4484.132
581.733, 4696.932
583.050, 5098.736
584.366, 5172.540
585.683, 5913.344
586.999, 5877.148
588.315, 6147.953
589.630, 6761.758
590.946, 6674.194
592.261, 6746.650
593.576, 6360.340
594.891, 5905.743
596.206, 5500.622
597.520, 5607.980
598.834, 5470.191
600.148, 5398.593
601.462, 5374.048
602.776, 5544.394
604.089, 5627.502
605.402, 5952.227
606.715, 6332.794
608.028, 6965.561
609.341, 7305.676
610.653, 8010.818
611.965, 8922.004
613.277, 10035.020
614.589, 11160.433
615.901, 12652.631
617.212, 14615.906
618.523, 16366.224
619.834, 19065.582
621.145, 21236.982
622.456, 24291.428
623.766, 26935.916
625.076, 30476.447
626.386, 32606.010
627.696, 34666.629
629.006, 34389.289
630.315, 35743.980
631.624, 33144.727
632.933, 31864.514
634.242, 29698.338
635.551, 26053.207
636.859, 23190.119
638.167, 19842.080
639.475, 18054.074
640.783, 14801.117
642.090, 13206.200
643.398, 11507.328
644.705, 10093.499
646.012, 8836.774
647.318, 7475.973
648.625, 6670.273
649.931, 5761.617
651.237, 4897.005
652.543, 4433.436
653.849, 3802.908
655.155, 3587.426
656.460, 2910.986
657.765, 3006.588
659.070, 2345.234
660.375, 2204.925
661.679, 2301.657
662.984, 1817.433
664.288, 1549.252
665.592, 1692.111
666.895, 1404.143
668.199, 1143.090
669.502, 1276.383
670.805, 979.404
672.108, 1139.887
673.411, 884.174
674.713, 881.410
676.016, 1099.303
677.318, 852.867
678.620, 1151.355
679.921, 1092.234
681.223, 913.086
682.524, 1165.697
683.825, 876.689
685.126, 1379.791
686.427, 1311.773
687.727, 1188.273
689.028, 1334.691
690.328, 1173.721
691.628, 1388.128
692.927, 1602.172
694.227, 1710.149
695.526, 1813.496
696.825, 1930.557
698.124, 1905.574
699.423, 2050.511
700.721, 2078.863
702.020, 2346.896
703.318, 2307.566
704.616, 2517.602
705.913, 2277.046
707.211, 2454.019
708.508, 2939.700
709.805, 2682.451
711.102, 2518.180
712.399, 2963.834
713.695, 2610.574
714.992, 2936.496
716.288, 2734.308
717.584, 3106.066
718.879, 2954.834
720.175, 2870.088
721.470, 3623.871
722.765, 3829.656
724.060, 3884.480
725.355, 4047.275
726.649, 4191.445
727.944, 4551.316
729.238, 5315.125
730.532, 5271.064
731.825, 6236.881
733.119, 6540.703
734.412, 6625.531
735.705, 6908.475
736.998, 7184.748
738.291, 7119.994
739.584, 6973.836
740.876, 6828.678
742.168, 6456.527
743.460, 5963.383
744.752, 5482.238
746.043, 5178.102
747.334, 4838.910
748.626, 4543.930
749.916, 4276.000
751.207, 4123.188
752.498, 3722.590
753.788, 3797.170
755.078, 3225.990
756.368, 3347.014
757.658, 3079.268
758.947, 2759.793
760.237, 2895.564
761.526, 2464.559
762.815, 2792.760
764.104, 2493.156
765.392, 2355.701
766.680, 2314.406
767.969, 1896.197
769.257, 2223.021
770.544, 1932.850
771.832, 1876.680
773.119, 1649.508
774.406, 1724.332
775.693, 1802.160
776.980, 1492.980
778.267, 1610.799
779.553, 1577.617
780.839, 1649.430
782.125, 1497.238
783.411, 1612.043
784.697, 1426.842
785.982, 1352.637
787.267, 1585.424
788.552, 1461.205
789.837, 1485.979
791.122, 1670.746
792.406, 1631.504
793.690, 1574.256
794.974, 1680.998
796.258, 1593.732
797.542, 1719.455
798.825, 1573.170
800.108, 1778.871
801.391, 1413.564
802.674, 1660.244
803.957, 1393.912
805.239, 1117.570
806.522, 1291.213
807.804, 931.844
809.085, 1299.459
810.367, 1208.062
811.649, 957.650
812.930, 1038.223
814.211, 919.781
815.492, 723.322
816.772, 753.848
818.053, 597.354
819.333, 548.846
820.613, 251.318
821.893, 470.771
823.173, 220.203
824.452, 61.617
825.732, 206.998
827.011, 45.643
828.290, 264.355
829.568, 303.250
830.847, 374.354
832.125, 449.588
833.403, 484.643
834.681, 497.223
835.959, 506.508
837.236, 494.096
838.514, 366.002
839.791, 250.230
841.068, 192.582
842.345, 300.713
843.621, 101.348
844.898, 185.117
846.174, 336.805
847.450, 95.064
848.726, 309.443
850.001, 361.051
851.277, 138.920
852.552, 215.934
853.827, 30.131
855.102, 119.414
856.376, 271.834
857.651, 26.529
858.925, 214.834
860.199, 92.105
861.473, 76.666
862.746, 151.447
864.020, 443.525
865.293, 180.570
866.566, 420.582
867.839, 361.562
869.112, 390.514
870.384, 535.434
871.656, 649.324
872.928, 295.186
874.200, 490.016
875.472, 587.816
876.744, 406.590
878.015, 558.348
879.286, 329.123
880.557, 402.869
881.828, 487.600
883.098, 391.371
884.369, 563.113
885.639, 639.859
886.909, 497.602
888.178, 400.316
889.448, 324.004
890.717, 333.650
891.987, 486.342
893.256, 493.039
894.524, 1031.779
895.793, 1297.598
897.061, 881.438
898.330, 600.301
899.598, 585.184
900.865, 505.553
902.133, 892.092
903.401, 709.055
904.668, 954.080
905.935, 1122.074
907.202, 1231.053
908.468, 1399.996
909.735, 1511.904
911.001, 1453.773
912.267, 1611.602
913.533, 1665.387
914.799, 1961.131
916.064, 1885.828
917.330, 2245.479
918.595, 2095.082
919.860, 1886.637
921.124, 2163.143
922.389, 2160.602
923.653, 2141.471
924.918, 2121.365
926.182, 2211.672
927.445, 1924.930
928.709, 2078.137
929.972, 1981.295
931.236, 1891.400
932.499, 1914.457
933.761, 2201.463
935.024, 1933.418
936.286, 1969.320
937.549, 2378.172
938.811, 1966.973
940.073, 2446.723
941.334, 2369.420
942.596, 2297.064
943.857, 2682.658
945.118, 2628.203
946.379, 2427.693
947.640, 2601.133
948.900, 2895.520
950.161, 2528.854
951.421, 2721.133
952.681, 2875.363
953.940, 2907.539
955.200, 2980.662
956.459, 2800.768
957.719, 3064.816
958.978, 2935.812
960.236, 2667.758
961.495, 2354.650
962.753, 2155.490
964.012, 2019.277
965.270, 1720.014
966.527, 1769.699
967.785, 1662.332
969.043, 1348.906
970.300, 1191.432
971.557, 1042.902
972.814, 1166.191
974.071, 978.555
975.327, 982.559
976.583, 845.822
977.840, 975.619
979.095, 882.598
980.351, 733.615
981.607, 828.965
982.862, 554.631
984.117, 429.361
985.372, 1054.688
986.627, 154.029
987.882, 602.598
989.136, 373.773
990.390, 83.824
991.644, 320.977
992.898, 186.602
994.152, 235.291
995.405, 232.355
996.659, 161.027
997.912, 508.047
999.165, 482.115
1000.417, 678.609
1001.670, 531.754
1002.922, 979.736
1004.174, 757.785
1005.426, 783.402
1006.678, 577.324
1007.930, 646.590
1009.181, 586.479
1010.432, 630.939
1011.683, 637.857
1012.934, 499.051
1014.185, 584.154
1015.435, 643.264
1016.685, 413.561
1017.935, 357.627
1019.185, 576.754
1020.435, 635.713
1021.684, 534.709
1022.934, 574.684
1024.183, 678.787
1025.432, 628.072
1026.680, 759.555
1027.929, 810.311
1029.177, 1010.662
1030.425, 1204.924
1031.673, 1423.871
1032.921, 1404.979
1034.169, 1508.629
1035.416, 1586.418
1036.663, 1702.547
1037.911, 1968.336
1039.157, 1942.135
1040.404, 2221.053
1041.650, 2243.459
1042.897, 2481.102
1044.143, 2506.367
1045.389, 2351.543
1046.634, 2530.277
1047.880, 2378.598
1049.125, 2349.004
1050.371, 2256.082
1051.615, 2544.238
1052.860, 1932.660
1054.105, 2508.398
1055.349, 2028.797
1056.593, 1843.502
1057.837, 1870.734
1059.081, 2071.496
1060.325, 1817.309
1061.568, 1901.834
1062.812, 1817.963
1064.055, 1810.277
1065.298, 1580.664
1066.540, 1560.641
1067.783, 1423.582
1069.025, 1291.492
1070.267, 1551.369
1071.509, 1186.213
1072.751, 1214.023
1073.993, 1329.801
1075.234, 1171.543
1076.475, 1308.254
1077.716, 1501.936
1078.957, 1318.582
1080.198, 1129.195
1081.438, 1438.779
1082.679, 1349.328
1083.919, 1432.848
1085.159, 1356.334
1086.398, 1566.791
1087.638, 1331.217
1088.877, 1654.613
1090.116, 1567.975
1091.355, 1793.311
1092.594, 1874.613
1093.833, 1917.887
1095.071, 1884.188
1096.309, 2039.400
1097.547, 2125.766
1098.785, 2076.740
1100.023, 2511.863
1101.260, 2571.096
1102.498, 2959.164
1103.735, 2729.201
1104.972, 3120.094
1106.208, 3098.072
1107.445, 3367.023
1108.681, 3292.488
1109.918, 3729.383
1111.154, 3671.252
1112.389, 3842.473
1113.625, 3853.523
1114.860, 3755.734
1116.096, 4007.488
1117.331, 4035.219
1118.566, 3793.918
1119.800, 3879.594
1121.035, 3706.238
1122.269, 3335.859
1123.503, 3469.453
1124.737, 3297.023
1125.971, 3152.574
1127.205, 3020.098
1128.438, 2800.621
1129.671, 3119.199
1130.904, 2590.848
1132.137, 2835.582
1133.370, 2658.352
1134.602, 2352.312
1135.834, 2022.414
1137.066, 2104.619
1138.298, 2178.951
1139.530, 1709.438
1140.762, 2015.916
1141.993, 1576.055
1143.224, 1453.549
1144.455, 1397.086
1145.686, 1322.426
1146.917, 1216.180
1148.147, 1433.957
1149.377, 1517.812
1150.607, 1281.762
1151.837, 1205.744
1153.067, 973.781
1154.296, 951.824
1155.526, 868.900
1156.755, 774.047
1157.984, 688.184
1159.213, 500.303
1160.441, 626.402
1161.670, 566.523
1162.898, 594.625
1164.126, 263.705
1165.354, 433.766
1166.581, 234.801
1167.809, 395.814
1169.036, 311.285
1170.263, 308.771
1171.490, 150.719
1172.717, 217.637
1173.943, 60.531
1175.170, 2.607
1176.396, 145.793
1177.622, 117.895
1178.848, 12.443
1180.073, 220.836
1181.299, 68.607
1182.524, 87.980
1183.749, 42.664
1184.974, 32.588
1186.199, 36.826
1187.423, 1.004
1188.648, 103.807
1189.872, 164.746
1191.096, 231.824
1192.320, 371.074
1193.543, 150.568
1194.767, 160.189
1195.990, 145.947
1197.213, 204.830
1198.436, 349.867
1199.659, 62.861
1200.881, 328.441
1202.104, 57.037
1203.326, 26.510
1204.548, 70.881
1205.770, 173.941
1206.991, 153.582
1208.213, 212.896
1209.434, 299.189
1210.655, 246.467
1211.876, 219.723
1213.096, 380.955
1214.317, 592.176
1215.537, 689.375
1216.757, 572.559
1217.977, 699.725
1219.197, 533.875
1220.417, 851.008
1221.636, 721.125
1222.855, 756.227
1224.074, 633.314
1225.293, 560.385
1226.512, 600.322
1227.731, 582.443
1228.949, 631.508
1230.167, 652.521
1231.385, 621.521
1232.603, 596.537
1233.820, 401.541
1235.038, 309.531
1236.255, 681.510
1237.472, 490.480
1238.689, 496.434
1239.906, 799.373
1241.122, 281.293
1242.338, 441.195
1243.555, 656.082
1244.771, 295.951
1245.986, 313.803
1247.202, 260.607
1248.417, 630.395
1249.633, 349.160
1250.848, 70.090
1252.063, 565.609
1253.277, 305.293
1254.492, 158.959
1255.706, 587.605
1256.920, 429.236
1258.134, 195.852
1259.348, 228.447
1260.562, 183.773
1261.775, 579.582
1262.988, 343.127
1264.201, 596.652
1265.414, 809.164
1266.627, 691.654
1267.839, 526.131
1269.052, 848.592
1270.264, 967.033
1271.476, 1085.459
1272.688, 1085.867
1273.899, 1255.260
1275.111, 1382.633
1276.322, 1588.992
1277.533, 1532.328
1278.744, 1791.648
1279.955, 1524.951
1281.165, 1609.230
1282.376, 1787.496
1283.586, 1945.740
1284.796, 1807.963
1286.006, 1859.170
1287.215, 2363.359
1288.425, 1999.527
1289.634, 2205.676
1290.843, 2111.299
1292.052, 1798.416
1293.261, 2131.516
1294.469, 2102.602
1295.678, 2035.674
1296.886, 2057.736
1298.094, 2235.785
1299.302, 1717.822
1300.509, 1841.848
1301.717, 1955.855
1302.924, 2136.852
1304.131, 2184.836
1305.338, 2252.809
1306.545, 2338.598
1307.752, 2256.711
1308.958, 2435.646
1310.164, 2527.438
1311.370, 2557.348
1312.576, 2907.984
1313.782, 2902.869
1314.987, 3066.740
1316.193, 2992.602
1317.398, 3358.820
1318.603, 3426.301
1319.807, 3549.111
1321.012, 3327.469
1322.216, 3598.789
1323.421, 3638.801
1324.625, 3652.318
1325.829, 3756.068
1327.032, 3764.643
1328.236, 3695.373
1329.439, 3762.754
1330.642, 3459.258
1331.845, 3598.861
1333.048, 3673.105
1334.251, 3986.678
1335.453, 3653.395
1336.656, 3309.879
1337.858, 3461.607
1339.060, 3049.143
1340.261, 3106.070
1341.463, 2590.889
1342.664, 2750.340
1343.866, 2315.369
1345.067, 1964.111
1346.267, 1669.520
1347.468, 1968.064
1348.669, 1287.469
1349.869, 1729.330
1351.069, 1221.646
1352.269, 892.902
1353.469, 1206.426
1354.668, 917.338
1355.868, 1012.055
1357.067, 1083.689
1358.266, 576.709
1359.465, 959.637
1360.664, 851.582
1361.862, 556.555
1363.061, 587.555
1364.259, 438.580
1365.457, 623.631
1366.655, 562.500
1367.852, 734.789
1369.050, 563.902
1370.247, 620.047
1371.444, 569.223
1372.641, 514.434
1373.838, 504.688
1375.035, 457.994
1376.231, 620.074
1377.427, 474.498
1378.623, 693.342
1379.819, 677.918
1381.015, 381.592
1382.211, 652.404
1383.406, 317.893
1384.601, 598.924
1385.796, 858.535
1386.991, 519.000
1388.185, 482.436
1389.380, 245.701
1390.574, 599.953
1391.768, 499.232
1392.962, 480.908
1394.156, 275.715
1395.350, 321.176
1396.543, 564.312
1397.736, 360.418
1398.929, 674.490
1400.122, 351.531
1401.315, 531.539
1402.507, 760.512
1403.700, 504.449
1404.892, 557.355
1406.084, 625.225
1407.276, 606.061
1408.467, 779.863
1409.659, 302.629
1410.850, 735.340
1412.041, 933.018
1413.232, 565.656
1414.423, 707.258
1415.614, 397.824
1416.804, 587.350
1417.994, 678.836
1419.184, 432.279
1420.374, 598.686
1421.564, 509.053
1422.753, 339.381
1423.943, 445.672
1425.132, 383.949
1426.321, 645.350
1427.510, 261.857
1428.698, 498.496
1429.887, 401.182
1431.075, 424.846
1432.263, 168.701
1433.451, 67.992
1434.639, 382.711
1435.827, 488.754
1437.014, 408.236
1438.201, 576.055
1439.388, 602.965
1440.575, 507.910
1441.762, 695.883
1442.949, 726.877
1444.135, 615.889
1445.321, 810.918
1446.507, 910.967
1447.693, 914.029
1448.879, 822.107
1450.064, 857.199
1451.250, 786.303
1452.435, 889.363
1453.620, 1047.369
1454.805, 1163.367
1455.989, 990.381
1457.174, 1054.443
1458.358, 750.551
1459.542, 800.773
1460.726, 1226.123
1461.910, 746.559
1463.093, 1102.070
1464.277, 886.658
1465.460, 616.332
1466.643, 1289.096
1467.826, 592.961
1469.009, 880.932
1470.191, 135.023
1471.373, 32.756
1472.556, 114.398
1473.738, 35.115
1474.919, 12.020
1476.101, 77.666
1477.283, 181.727
1478.464, 249.990
1479.645, 273.459
1480.826, 388.617
1482.007, 192.355
1483.187, 732.240
1484.368, 5.256
1485.548, 654.412
1486.728, 224.715
1487.908, 593.178
1489.088, 14.188
1490.268, 868.633
1491.447, 547.664
1492.626, 422.928
1493.805, 123.438
1494.984, 544.203
