##NAMES=Kutnohorite
##RRUFFID=R060473
##IDEAL CHEMISTRY=CaMn^2+^(CO_3_)_2_
##LOCALITY=N'Chwaning II mine, Kalahari manganese field, northern Cape Province, Republic of South Africa
##OWNER=RRUFF
##SOURCE=Michael Scott
##DESCRIPTION=Aggregate of parallel pink colored acicular crystals
##STATUS=The identification of this mineral has been confirmed by X-ray diffraction and chemical analysis
##URL=rruff.info/R060473
##MEASURED CHEMISTRY=Ca_1.00_(Mn^2+^_0.63_Ca_0.35_Mg_0.02_)(CO_3_)_2_
##PIN_ID=L00557
##ORIENTATION=Laser parallel to -a* (-1 0 0). Fiducial mark perpendicular to laser is parallel to -c [0 0 -1]
101.0590, 0.0000000E+00
102.2900, 4.925781
103.5200, 693.7559
104.7500, 2176.527
105.9810, 2060.141
107.2110, 2455.447
108.4410, 2907.387
109.6700, 2513.545
110.9000, 2413.281
112.1300, 2233.217
113.3590, 3121.758
114.5880, 2571.100
115.8170, 2477.244
117.0460, 1678.277
118.2750, 1215.912
119.5040, 768.2480
120.7320, 386.7852
121.9610, 677.4141
123.1890, 528.8730
124.4170, 345.6328
125.6450, 142.7852
126.8730, 110.3301
128.1010, 28.75391
129.3280, 464.3594
130.5560, 1048.584
131.7830, 683.0898
133.0100, 419.9453
134.2380, 468.0156
135.4640, 276.9453
136.6910, 373.4414
137.9180, 938.4238
139.1440, 1133.799
140.3710, 930.7090
141.5970, 1230.306
142.8230, 926.7021
144.0490, 1223.991
145.2750, 1534.245
146.5000, 1790.417
147.7260, 2019.244
148.9510, 2489.348
150.1770, 2622.598
151.4020, 2978.396
152.6270, 3439.389
153.8520, 3557.295
155.0760, 4134.842
156.3010, 4102.984
157.5250, 4524.192
158.7500, 4821.893
159.9740, 4527.895
161.1980, 4553.807
162.4220, 4322.989
163.6450, 4233.602
164.8690, 4471.245
166.0920, 4677.523
167.3160, 4628.744
168.5390, 4087.142
169.7620, 4063.778
170.9850, 4087.283
172.2080, 3695.490
173.4300, 3618.006
174.6530, 3769.999
175.8750, 3271.148
177.0970, 2678.598
178.3190, 2484.336
179.5410, 2369.209
180.7630, 2013.168
181.9850, 1648.148
183.2060, 1616.124
184.4270, 1241.071
185.6490, 1150.979
186.8700, 1267.689
188.0910, 997.0010
189.3110, 1086.203
190.5320, 884.3223
191.7530, 661.3262
192.9730, 545.2061
194.1930, 403.9824
195.4130, 791.6494
196.6330, 640.2031
197.8530, 256.6348
199.0730, 77.93652
200.2920, 182.1055
201.5120, 147.1250
202.7310, 123.9873
203.9500, 199.3193
205.1690, 166.2012
206.3880, 557.5293
207.6070, 554.6514
208.8250, 56.57617
210.0440, 113.3018
211.2620, 81.17676
212.4800, 175.4180
213.6980, 158.4492
214.9160, 65.83984
216.1340, 89.12207
217.3510, 17.75293
218.5690, 103.2852
219.7860, 101.4043
221.0030, 555.3604
222.2200, 433.3184
223.4370, 101.2236
224.6540, 40.36328
225.8700, 109.6543
227.0870, 5.795898
228.3030, 46.12305
229.5190, 91.81445
230.7350, 227.4453
231.9510, 404.4004
233.1670, 170.0117
234.3820, 176.8145
235.5980, 279.0088
236.8130, 408.1396
238.0280, 716.4961
239.2430, 449.2578
240.4580, 585.3877
241.6730, 636.0801
242.8880, 565.0625
244.1020, 707.3477
245.3160, 828.2578
246.5300, 968.9121
247.7450, 895.6143
248.9580, 1171.910
250.1720, 1097.415
251.3860, 1306.613
252.5990, 1566.391
253.8130, 1782.457
255.0260, 1884.278
256.2390, 2536.367
257.4520, 2868.799
258.6640, 3024.651
259.8770, 3394.181
261.0890, 3802.706
262.3020, 4352.872
263.5140, 4817.017
264.7260, 5288.041
265.9380, 6090.291
267.1500, 6661.522
268.3610, 7485.541
269.5730, 8369.425
270.7840, 9174.737
271.9950, 9840.538
273.2060, 10765.13
274.4170, 11780.71
275.6280, 12779.99
276.8390, 14080.20
278.0490, 15045.24
279.2590, 15924.36
280.4690, 16780.48
281.6800, 17451.24
282.8890, 17784.38
284.0990, 17795.45
285.3090, 17591.17
286.5180, 16885.01
287.7280, 16327.29
288.9370, 15891.54
290.1460, 14922.71
291.3550, 13544.81
292.5630, 12748.19
293.7720, 11893.54
294.9800, 10804.98
296.1890, 9432.434
297.3970, 8694.588
298.6050, 7660.070
299.8130, 6962.674
301.0200, 6321.719
302.2280, 5813.693
303.4360, 4932.000
304.6430, 4424.614
305.8500, 3991.888
307.0570, 3678.301
308.2640, 3170.948
309.4710, 2765.080
310.6770, 2448.665
311.8840, 2420.028
313.0900, 2147.192
314.2960, 1995.739
315.5020, 1564.618
316.7080, 1443.703
317.9140, 1384.255
319.1190, 1184.503
320.3250, 1316.989
321.5300, 1190.340
322.7350, 1024.808
323.9400, 804.2480
325.1450, 986.8037
326.3500, 993.1494
327.5540, 866.8174
328.7580, 574.7178
329.9630, 499.4912
331.1670, 499.4561
332.3710, 537.9834
333.5750, 606.4072
334.7780, 573.1123
335.9820, 422.2266
337.1850, 676.1904
338.3880, 532.3828
339.5920, 327.4287
340.7950, 242.1846
341.9970, 378.1201
343.2000, 322.7500
344.4030, 269.3223
345.6050, 15.75684
346.8070, 336.3057
348.0090, 225.4629
349.2110, 256.7480
350.4130, 124.4150
351.6150, 127.4443
352.8160, 207.0967
354.0170, 212.4160
355.2190, 253.7119
356.4200, 44.85059
357.6210, 22.95215
358.8210, 93.01953
360.0220, 117.1514
361.2220, 47.78418
362.4230, 44.20703
363.6230, 30.16602
364.8230, 145.0742
366.0230, 103.0996
367.2230, 50.07031
368.4220, 100.7744
369.6220, 11.20215
370.8210, 18.52930
372.0200, 66.65430
373.2190, 103.9199
374.4180, 21.15527
375.6170, 96.08447
376.8150, 39.63574
378.0140, 94.92920
379.2120, 51.24463
380.4100, 57.09277
381.6080, 41.85840
382.8060, 3.477051
384.0040, 23.47363
385.2010, 175.2861
386.3980, 17.25830
387.5960, 14.47119
388.7930, 35.41895
389.9900, 155.0967
391.1870, 45.51562
392.3830, 48.00684
393.5800, 123.9858
394.7760, 32.82617
395.9720, 34.30127
397.1680, 63.85107
398.3640, 72.37793
399.5600, 94.52148
400.7560, 110.3130
401.9510, 140.1802
403.1460, 175.0698
404.3420, 149.3267
405.5370, 183.5234
406.7320, 132.5005
407.9260, 330.7495
409.1210, 219.6909
410.3150, 209.7627
411.5100, 177.0942
412.7040, 332.7939
413.8980, 472.4893
415.0920, 381.0708
416.2850, 170.3042
417.4790, 437.6143
418.6720, 357.6313
419.8650, 232.5273
421.0590, 452.1211
422.2510, 388.5405
423.4440, 363.9043
424.6370, 384.0444
425.8290, 365.9536
427.0220, 385.8296
428.2140, 411.3979
429.4060, 327.7949
430.5980, 406.2520
431.7900, 361.5342
432.9810, 330.6250
434.1730, 295.4116
435.3640, 408.3848
436.5550, 355.2163
437.7460, 277.9023
438.9370, 435.2163
440.1280, 195.5518
441.3190, 235.2656
442.5090, 383.7998
443.6990, 214.0376
444.8890, 377.0391
446.0790, 233.0859
447.2690, 329.7744
448.4590, 334.2456
449.6480, 246.1484
450.8380, 350.3672
452.0270, 384.4907
453.2160, 445.8252
454.4050, 422.7222
455.5940, 419.4067
456.7820, 275.8350
457.9710, 391.9463
459.1590, 297.9863
460.3470, 381.9590
461.5350, 413.4385
462.7230, 318.0049
463.9110, 313.5312
465.0990, 486.9092
466.2860, 456.2930
467.4730, 389.5815
468.6600, 400.9507
469.8470, 285.1650
471.0340, 428.9121
472.2210, 418.3794
473.4070, 331.5176
474.5940, 394.9458
475.7800, 378.8828
476.9660, 270.6387
478.1520, 262.2300
479.3380, 272.1294
480.5230, 299.2935
481.7090, 382.4946
482.8940, 327.7231
484.0790, 329.0933
485.2650, 304.4990
486.4490, 409.7715
487.6340, 319.7720
488.8190, 381.8936
490.0030, 353.3506
491.1870, 277.1636
492.3720, 293.6260
493.5550, 357.4438
494.7390, 401.2695
495.9230, 291.2241
497.1060, 287.2104
498.2900, 444.4893
499.4730, 459.2451
500.6560, 373.9624
501.8390, 440.6245
503.0220, 389.8896
504.2040, 423.1870
505.3870, 359.6187
506.5690, 394.8203
507.7510, 290.6450
508.9330, 371.0439
510.1150, 328.9741
511.2970, 447.1006
512.4780, 359.5532
513.6600, 488.7686
514.8410, 288.2393
516.0220, 367.0747
517.2030, 445.9844
518.3840, 293.1372
519.5650, 443.0156
520.7450, 413.3042
521.9250, 460.1714
523.1060, 346.5576
524.2860, 330.0347
525.4660, 343.8301
526.6450, 346.2661
527.8250, 367.4395
529.0040, 298.8164
530.1840, 347.6318
531.3630, 281.3130
532.5420, 310.1743
533.7200, 206.2500
534.8990, 451.0015
536.0780, 333.4316
537.2560, 445.3999
538.4340, 384.3623
539.6120, 369.3374
540.7900, 337.5156
541.9680, 369.1265
543.1460, 300.1826
544.3230, 244.1172
545.5000, 345.8276
546.6770, 311.7690
547.8540, 316.1045
549.0310, 202.1748
550.2080, 229.2471
551.3840, 483.4883
552.5610, 281.0332
553.7370, 487.9434
554.9130, 339.4321
556.0890, 322.4355
557.2650, 478.9805
558.4400, 324.5708
559.6160, 355.2065
560.7910, 339.4346
561.9660, 382.0679
563.1410, 429.5498
564.3160, 332.6968
565.4910, 342.6733
566.6650, 391.6660
567.8400, 320.5156
569.0140, 411.3789
570.1880, 457.2842
571.3620, 289.7754
572.5360, 288.5381
573.7090, 291.0498
574.8830, 320.3677
576.0560, 232.4736
577.2290, 223.9863
578.4020, 216.2124
579.5750, 262.0483
580.7480, 215.4785
581.9200, 81.84326
583.0930, 358.3042
584.2650, 112.3291
585.4370, 126.5781
586.6090, 314.4429
587.7810, 119.6455
588.9520, 131.1895
590.1240, 3.311035
591.2950, 110.7500
592.4660, 94.18457
593.6370, 4.699219
594.8080, 71.40381
595.9790, 83.94873
597.1500, 107.4175
598.3200, 144.2261
599.4900, 123.4619
600.6600, 101.2939
601.8300, 181.3936
603.0000, 123.6294
604.1700, 95.55127
605.3390, 93.86377
606.5080, 5.894043
607.6770, 12.54395
608.8460, 140.3237
610.0150, 148.6772
611.1840, 100.4629
612.3520, 79.78027
613.5210, 48.80859
614.6890, 183.4072
615.8570, 66.23926
617.0250, 144.8345
618.1930, 116.8745
619.3600, 97.35889
620.5280, 258.5732
621.6950, 69.81641
622.8620, 66.67285
624.0290, 117.1011
625.1960, 10.59180
626.3630, 196.8213
627.5290, 181.4731
628.6960, 90.61621
629.8620, 89.17920
631.0280, 66.81885
632.1940, 2.910645
633.3600, 98.85400
634.5250, 75.42676
635.6910, 14.93311
636.8560, 160.0898
638.0210, 136.2246
639.1860, 33.31982
640.3510, 10.60303
641.5150, 49.26172
642.6800, 60.08447
643.8440, 102.2212
645.0080, 54.47656
646.1720, 48.66748
647.3360, 152.7729
648.5000, 144.8364
649.6640, 26.01514
650.8270, 73.01660
651.9900, 16.81250
653.1530, 16.92432
654.3160, 24.81738
655.4790, 0.6464840
656.6420, 44.52637
657.8040, 91.80176
658.9660, 34.33545
660.1290, 48.99609
661.2910, 73.16211
662.4520, 85.56543
663.6140, 36.26221
664.7760, 40.19482
665.9370, 21.75830
667.0980, 40.45215
668.2590, 124.7627
669.4200, 48.49463
670.5810, 46.31055
671.7420, 49.33350
672.9020, 37.60400
674.0620, 99.01172
675.2220, 69.62500
676.3820, 130.4390
677.5420, 96.95557
678.7020, 116.1895
679.8610, 9.811523
681.0210, 114.9863
682.1800, 22.25439
683.3390, 69.13037
684.4980, 136.5986
685.6560, 35.38135
686.8150, 203.2354
687.9730, 187.2295
689.1320, 125.4053
690.2900, 237.6611
691.4480, 91.90771
692.6050, 209.1797
693.7630, 256.3486
694.9200, 266.2124
696.0780, 415.4961
697.2350, 345.2158
698.3920, 501.9614
699.5490, 565.4146
700.7050, 936.2534
701.8620, 1060.856
703.0180, 1476.736
704.1740, 1803.917
705.3300, 2218.427
706.4860, 2702.966
707.6420, 3318.286
708.7970, 3932.112
709.9530, 4749.881
711.1080, 5130.397
712.2630, 5766.124
713.4180, 6080.483
714.5730, 6211.709
715.7280, 6041.674
716.8820, 5725.755
718.0360, 5084.315
719.1900, 4192.098
720.3440, 3472.902
721.4980, 2970.828
722.6520, 2332.102
723.8050, 1925.387
724.9590, 1532.195
726.1120, 1173.738
727.2650, 904.8970
728.4180, 734.7075
729.5700, 562.7437
730.7230, 477.5156
731.8750, 488.2983
733.0280, 321.3945
734.1800, 251.6787
735.3320, 207.1289
736.4830, 213.9375
737.6350, 213.7207
738.7860, 173.8521
739.9380, 179.5640
741.0890, 165.3008
742.2400, 131.6797
743.3910, 20.21582
744.5410, 8.951660
745.6920, 55.53369
746.8420, 194.0088
747.9920, 46.29443
749.1420, 18.92432
750.2920, 60.40039
751.4420, 109.0420
752.5910, 114.3721
753.7410, 113.3530
754.8900, 8.642090
756.0390, 6.828125
757.1880, 34.26514
758.3370, 99.95117
759.4850, 111.7607
760.6340, 39.09424
761.7820, 78.31250
762.9300, 57.79199
764.0780, 86.61230
765.2260, 84.46729
766.3730, 108.8340
767.5210, 68.86768
768.6680, 22.16064
769.8150, 27.39355
770.9620, 157.6519
772.1090, 22.61865
773.2560, 44.47314
774.4020, 74.05225
775.5490, 36.89990
776.6950, 110.9956
777.8410, 55.31299
778.9870, 58.70752
780.1330, 8.243652
781.2780, 106.7944
782.4230, 107.6860
783.5690, 55.20996
784.7140, 112.4619
785.8590, 13.57666
787.0030, 69.60693
788.1480, 56.23584
789.2920, 21.96973
790.4370, 43.66064
791.5810, 38.79688
792.7250, 108.3179
793.8690, 54.76025
795.0120, 50.63232
796.1560, 47.68604
797.2990, 5.841309
798.4420, 88.31201
799.5850, 81.42627
800.7280, 140.5991
801.8710, 70.02441
803.0130, 168.0415
804.1550, 111.4082
805.2980, 43.58301
806.4400, 7.853516
807.5810, 34.67773
808.7230, 89.70410
809.8650, 15.89160
811.0060, 86.14746
812.1470, 24.91748
813.2880, 105.9932
814.4290, 34.70215
815.5700, 58.36768
816.7110, 104.0459
817.8510, 22.52490
818.9910, 36.46973
820.1310, 55.31104
821.2710, 93.88281
822.4110, 119.1138
823.5510, 62.01855
824.6900, 28.90430
825.8290, 106.5703
826.9680, 108.8784
828.1070, 28.82178
829.2460, 147.3906
830.3850, 31.24121
831.5230, 4.421875
832.6620, 170.6118
833.8000, 114.6631
834.9380, 52.62744
836.0760, 147.7832
837.2130, 34.66650
838.3510, 120.8423
839.4880, 55.14160
840.6250, 14.18018
841.7620, 118.7759
842.8990, 119.2451
844.0360, 134.3262
845.1720, 42.19531
846.3090, 51.11768
847.4450, 16.51953
848.5810, 22.77393
849.7170, 75.76709
850.8530, 131.9438
851.9880, 102.5835
853.1240, 60.55225
854.2590, 171.3906
855.3940, 159.1992
856.5290, 101.8916
857.6640, 176.4199
858.7980, 88.70605
859.9330, 110.4521
861.0670, 233.9277
862.2010, 239.8467
863.3350, 131.8633
864.4690, 221.1738
865.6030, 277.8447
866.7360, 200.4961
867.8690, 175.0400
869.0020, 244.0840
870.1350, 375.2939
871.2680, 227.0430
872.4010, 159.3145
873.5330, 196.6406
874.6660, 40.99902
875.7980, 230.9199
876.9300, 197.5635
878.0620, 133.6299
879.1930, 220.4902
880.3250, 138.0166
881.4560, 119.5068
882.5870, 86.29102
883.7180, 253.3955
884.8490, 135.8203
885.9800, 22.04785
887.1100, 82.39648
888.2410, 118.9209
889.3710, 91.24023
890.5010, 200.7070
891.6310, 76.14551
892.7610, 211.4902
893.8900, 43.36816
895.0200, 164.3594
896.1490, 86.34668
897.2780, 102.9736
898.4070, 84.04492
899.5360, 127.6387
900.6640, 59.30664
901.7920, 152.9561
902.9210, 134.6045
904.0490, 43.96484
905.1770, 47.16309
906.3040, 25.25684
907.4320, 127.8359
908.5600, 122.7939
909.6870, 43.80371
910.8140, 192.8818
911.9410, 101.7529
913.0680, 202.8770
914.1940, 8.274414
915.3210, 124.5117
916.4470, 241.4863
917.5730, 71.38184
918.6990, 103.2266
919.8250, 153.7959
920.9500, 44.55371
922.0760, 46.83594
923.2010, 96.29590
924.3260, 127.6484
925.4510, 221.5674
926.5760, 14.22266
927.7010, 86.68164
928.8250, 95.02246
929.9500, 73.97852
931.0740, 144.0879
932.1980, 167.2832
933.3220, 184.9297
934.4450, 45.92676
935.5690, 35.83887
936.6920, 13.93848
937.8150, 246.6914
938.9380, 135.8037
940.0610, 119.6260
941.1840, 172.1230
942.3060, 63.24512
943.4290, 64.04492
944.5510, 101.5176
945.6730, 24.50684
946.7950, 38.80664
947.9160, 163.8047
949.0380, 63.08887
950.1590, 33.01562
951.2800, 34.98438
952.4010, 7.916016
953.5220, 24.83496
954.6430, 99.82129
955.7630, 5.498047
956.8840, 12.73047
958.0040, 65.06152
959.1240, 20.55469
960.2440, 26.84473
961.3640, 30.39746
962.4830, 12.90430
963.6030, 145.0107
964.7220, 166.5586
965.8410, 37.56152
966.9600, 94.60449
968.0780, 79.07031
969.1970, 87.24121
970.3150, 31.09570
971.4340, 82.28613
972.5520, 55.05859
973.6700, 58.15430
974.7870, 37.64160
975.9050, 98.34668
977.0220, 115.9658
978.1390, 7.472656
979.2560, 21.92676
980.3730, 6.855469
981.4900, 89.17578
982.6070, 86.13379
983.7230, 143.7959
984.8390, 86.75293
985.9550, 13.11523
987.0710, 111.4775
988.1870, 129.1885
989.3030, 125.1924
990.4180, 140.2002
991.5330, 11.86523
992.6480, 213.2471
993.7630, 89.92578
994.8780, 142.4141
995.9930, 264.9648
997.1070, 229.8193
998.2210, 148.4824
999.3350, 50.58105
1000.449, 45.40625
1001.563, 298.4414
1002.677, 167.6543
1003.790, 125.5977
1004.903, 225.4316
1006.016, 90.12012
1007.129, 363.9785
1008.242, 285.1719
1009.355, 128.3633
1010.467, 189.5684
1011.579, 301.2266
1012.691, 304.6602
1013.803, 261.6602
1014.915, 247.5859
1016.027, 211.9277
1017.138, 252.4209
1018.249, 265.2705
1019.360, 352.7666
1020.471, 274.0781
1021.582, 267.9492
1022.693, 329.1895
1023.803, 261.3477
1024.913, 286.5576
1026.023, 353.6250
1027.133, 286.8828
1028.243, 337.3857
1029.353, 440.4805
1030.462, 328.9951
1031.571, 233.6562
1032.680, 408.9199
1033.789, 332.4766
1034.898, 303.0938
1036.007, 525.9766
1037.115, 438.8418
1038.223, 467.0283
1039.331, 427.2578
1040.439, 493.9609
1041.547, 357.2109
1042.655, 476.5566
1043.762, 492.3867
1044.869, 551.0186
1045.976, 523.2217
1047.083, 556.0586
1048.190, 670.5205
1049.297, 711.8965
1050.403, 721.5371
1051.509, 928.5234
1052.615, 843.5645
1053.721, 848.7676
1054.827, 836.1895
1055.933, 939.8945
1057.038, 1226.196
1058.143, 1160.579
1059.248, 1264.422
1060.353, 1496.013
1061.458, 1577.224
1062.563, 1636.835
1063.667, 1825.318
1064.771, 2065.744
1065.875, 2365.262
1066.979, 2824.443
1068.083, 3582.302
1069.186, 4469.801
1070.290, 5918.648
1071.393, 7967.262
1072.496, 11181.48
1073.599, 15109.21
1074.702, 19531.22
1075.804, 25195.14
1076.907, 31833.62
1078.009, 38584.50
1079.111, 44292.21
1080.213, 48560.25
1081.315, 50991.99
1082.416, 52025.54
1083.517, 52669.92
1084.619, 52831.79
1085.720, 52114.75
1086.821, 51053.96
1087.921, 49086.37
1089.022, 45917.98
1090.122, 42327.09
1091.222, 37936.49
1092.322, 33432.99
1093.422, 28515.18
1094.522, 24147.86
1095.622, 19927.31
1096.721, 16271.45
1097.820, 12791.98
1098.919, 10015.86
1100.018, 7774.623
1101.117, 5867.065
1102.215, 4397.623
1103.314, 3301.945
1104.412, 2501.690
1105.510, 1897.666
1106.608, 1324.858
1107.705, 1077.748
1108.803, 1014.770
1109.900, 722.6943
1110.997, 672.8652
1112.094, 490.4424
1113.191, 413.7344
1114.288, 364.5166
1115.384, 363.3105
1116.481, 463.1152
1117.577, 270.8721
1118.673, 226.8770
1119.769, 468.4629
1120.864, 115.9824
1121.960, 391.5381
1123.055, 276.1309
1124.150, 288.6377
1125.245, 292.3838
1126.340, 107.6045
1127.434, 202.3906
1128.529, 123.6504
1129.623, 49.66113
1130.717, 260.6006
1131.811, 110.6592
1132.905, 228.1416
1133.999, 148.5322
1135.092, 81.00586
1136.185, 58.73047
1137.279, 47.19531
1138.371, 164.4434
1139.464, 109.8945
1140.557, 11.41895
1141.649, 117.1338
1142.742, 201.5850
1143.834, 179.3896
1144.926, 119.0049
1146.017, 42.21484
1147.109, 151.5254
1148.200, 69.98242
1149.292, 139.0420
1150.383, 93.39551
1151.474, 38.25293
1152.564, 166.8984
1153.655, 102.3096
1154.745, 82.04004
1155.835, 166.3711
1156.925, 65.20020
1158.015, 143.9873
1159.105, 145.1084
1160.195, 112.6680
1161.284, 161.7959
1162.373, 130.8877
1163.462, 194.8408
1164.551, 15.68066
1165.640, 60.28906
1166.728, 77.77344
1167.817, 53.05273
1168.905, 131.6016
1169.993, 93.72852
1171.081, 115.3398
1172.168, 145.0215
1173.256, 60.13770
1174.343, 136.7314
1175.430, 82.87109
1176.517, 82.33887
1177.604, 19.85645
1178.691, 7.017578
1179.777, 26.61816
1180.864, 69.18945
1181.950, 43.21875
1183.036, 48.97266
1184.121, 48.22070
1185.207, 111.7646
1186.293, 35.12500
1187.378, 168.6318
1188.463, 167.4688
1189.548, 142.4639
1190.633, 8.130859
1191.717, 137.6367
1192.802, 37.71191
1193.886, 40.36230
1194.970, 21.05859
1196.054, 110.2461
1197.138, 9.318359
1198.221, 122.1436
1199.305, 187.9727
1200.388, 51.52637
1201.471, 108.1201
1202.554, 79.05469
1203.637, 12.79785
1204.719, 145.2939
1205.801, 73.60938
1206.884, 138.9531
1207.966, 69.08496
1209.048, 157.4756
1210.129, 182.0508
1211.211, 124.1279
1212.292, 57.21680
1213.373, 52.96484
1214.454, 164.1426
1215.535, 13.15332
1216.616, 7.876953
1217.696, 74.83496
1218.777, 108.6309
1219.857, 119.2422
1220.937, 242.8330
1222.017, 118.1416
1223.096, 219.1660
1224.176, 18.92285
1225.255, 53.55176
1226.334, 89.65234
1227.413, 250.5762
1228.492, 34.64746
1229.570, 348.9668
1230.649, 156.5781
1231.727, 124.9707
1232.805, 116.3105
1233.883, 293.5811
1234.961, 143.7490
1236.038, 275.0049
1237.116, 144.6230
1238.193, 192.3887
1239.270, 219.8330
1240.347, 227.6533
1241.424, 161.2607
1242.500, 193.5205
1243.577, 182.8740
1244.653, 174.8252
1245.729, 221.1279
1246.805, 162.1992
1247.880, 204.4395
1248.956, 214.1797
1250.031, 235.0312
1251.106, 222.6426
1252.181, 214.7393
1253.256, 246.7832
1254.331, 223.9160
1255.405, 212.1836
1256.480, 352.3252
1257.554, 346.2734
1258.628, 115.5098
1259.701, 273.3877
1260.775, 132.2881
1261.849, 247.5996
1262.922, 266.9277
1263.995, 340.4355
1265.068, 198.2090
1266.141, 343.1650
1267.213, 240.6953
1268.286, 148.8281
1269.358, 62.59766
1270.430, 147.5283
1271.502, 213.0547
1272.573, 221.7979
1273.645, 251.3145
1274.716, 285.4414
1275.788, 227.1152
1276.859, 137.1074
