##NAMES=Kyanite
##RRUFFID=R050450
##IDEAL CHEMISTRY=Al_2_OSiO_4_
##LOCALITY=Switzerland
##OWNER=RRUFF
##SOURCE=Marcus Origlieri
##DESCRIPTION=Blue bladed crystals
##STATUS=The identification of this mineral has been confirmed by X-ray diffraction and chemical analysis
##URL=rruff.info/R050450
##MEASURED CHEMISTRY=Al_2.00_OSi_1.00_O_4_
##PIN_ID=M00770
##ORIENTATION=Laser parallel to (0 1 -1). Fiducial mark perpendicular to laser is parallel to -a [-1 0 0]
159.7870, 0.0000000E+00
161.0170, 13.36768
162.2460, 1.462891
163.4750, 12.03760
164.7030, 103.8306
165.9320, 72.47119
167.1600, 32.08643
168.3890, 237.9482
169.6170, 262.9644
170.8450, 121.1235
172.0730, 234.3735
173.3000, 303.9976
174.5280, 235.6191
175.7550, 259.8604
176.9820, 269.2739
178.2090, 357.6221
179.4350, 279.0195
180.6620, 354.3198
181.8880, 167.8838
183.1150, 3.429688
184.3410, 40.08496
185.5670, 15.67676
186.7920, 48.05225
188.0180, 52.66406
189.2430, 85.46045
190.4690, 55.67822
191.6940, 96.52100
192.9180, 118.1558
194.1430, 83.72656
195.3680, 176.3560
196.5920, 84.15283
197.8160, 89.21533
199.0400, 189.6299
200.2640, 132.4717
201.4880, 263.8062
202.7110, 259.0020
203.9350, 293.9131
205.1580, 258.7583
206.3810, 258.4487
207.6040, 285.7861
208.8270, 347.9658
210.0490, 269.8115
211.2710, 239.6104
212.4940, 267.4419
213.7160, 480.9092
214.9370, 612.8252
216.1590, 701.8340
217.3810, 973.9673
218.6020, 1361.242
219.8230, 1460.672
221.0440, 1454.244
222.2650, 1776.944
223.4860, 2196.757
224.7060, 2648.668
225.9260, 2896.677
227.1470, 2951.783
228.3670, 2818.986
229.5860, 2315.286
230.8060, 1909.682
232.0260, 1411.176
233.2450, 1086.244
234.4640, 667.5630
235.6830, 501.4888
236.9020, 469.5596
238.1200, 303.7661
239.3390, 210.0991
240.5570, 290.5479
241.7750, 269.1050
242.9930, 283.7656
244.2110, 174.5239
245.4290, 152.3574
246.6460, 96.24561
247.8630, 152.2124
249.0810, 126.2510
250.2980, 113.3638
251.5140, 32.45312
252.7310, 55.79541
253.9470, 50.88477
255.1640, 101.4976
256.3800, 67.04346
257.5960, 173.5312
258.8120, 41.03125
260.0270, 40.63184
261.2430, 291.2671
262.4580, 25.06152
263.6730, 227.3530
264.8880, 199.6055
266.1030, 230.8174
267.3170, 189.9863
268.5320, 56.88770
269.7460, 224.8076
270.9600, 472.7725
272.1740, 499.7842
273.3880, 478.9678
274.6010, 701.3721
275.8150, 966.0703
277.0280, 1216.175
278.2410, 1340.438
279.4540, 1181.673
280.6670, 1312.820
281.8790, 1252.812
283.0920, 1660.767
284.3040, 1956.742
285.5160, 1979.511
286.7280, 2136.036
287.9400, 3085.550
289.1510, 4240.124
290.3630, 5612.757
291.5740, 7614.449
292.7850, 10444.20
293.9960, 12575.01
295.2070, 13268.88
296.4170, 12920.81
297.6280, 14700.81
298.8380, 18979.87
300.0480, 22591.99
301.2580, 24244.17
302.4680, 24005.42
303.6770, 21833.73
304.8870, 17692.11
306.0960, 12622.14
307.3050, 7881.771
308.5140, 4401.191
309.7230, 2473.772
310.9310, 1432.373
312.1400, 1125.936
313.3480, 920.4395
314.5560, 1111.899
315.7640, 1366.323
316.9720, 2261.715
318.1790, 3225.012
319.3870, 3844.182
320.5940, 4095.316
321.8010, 4793.421
323.0080, 6125.502
324.2150, 7728.567
325.4210, 8581.620
326.6280, 8551.669
327.8340, 7862.717
329.0400, 6399.660
330.2460, 4520.443
331.4510, 2839.320
332.6570, 1414.996
333.8620, 650.5977
335.0680, 288.3438
336.2730, 97.78125
337.4780, 108.4863
338.6820, 136.2539
339.8870, 210.8262
341.0910, 226.6611
342.2950, 231.9482
343.5000, 207.7969
344.7030, 180.6455
345.9070, 155.4600
347.1110, 59.33105
348.3140, 160.2148
349.5170, 351.1074
350.7200, 822.0146
351.9230, 2007.855
353.1260, 3045.512
354.3290, 3733.938
355.5310, 4987.734
356.7330, 4847.822
357.9350, 7042.766
359.1370, 8424.592
360.3390, 9154.472
361.5400, 9190.409
362.7420, 8519.403
363.9430, 7299.452
365.1440, 5856.557
366.3450, 4618.715
367.5460, 3814.929
368.7460, 3746.197
369.9470, 4235.519
371.1470, 4761.894
372.3470, 5119.322
373.5470, 5048.805
374.7460, 5099.342
375.9460, 5104.927
377.1450, 5164.566
378.3450, 5295.257
379.5440, 5030.000
380.7430, 5291.792
381.9410, 6100.635
383.1400, 7935.529
384.3380, 10259.36
385.5370, 12192.34
386.7350, 12610.13
387.9320, 12201.75
389.1300, 12742.91
390.3280, 14265.89
391.5250, 15369.59
392.7220, 15228.01
393.9190, 14750.83
395.1160, 13923.25
396.3130, 12575.27
397.5100, 11177.97
398.7060, 9526.230
399.9020, 8714.502
401.0980, 10099.13
402.2940, 12027.27
403.4900, 13795.36
404.6860, 14202.60
405.8810, 13364.34
407.0760, 11610.55
408.2710, 9301.262
409.4660, 6964.899
410.6610, 5193.764
411.8550, 4372.376
413.0500, 4265.357
414.2440, 4240.407
415.4380, 4420.503
416.6320, 5196.649
417.8260, 6189.836
419.0190, 6798.068
420.2130, 7020.342
421.4060, 6240.665
422.5990, 5380.027
423.7920, 4186.426
424.9850, 3117.863
426.1770, 2648.354
427.3700, 2583.885
428.5620, 3062.481
429.7540, 3836.147
430.9460, 4973.867
432.1380, 6146.658
433.3290, 7546.535
434.5210, 8613.476
435.7120, 9940.479
436.9030, 11327.53
438.0940, 11804.62
439.2850, 11604.74
440.4750, 10387.90
441.6660, 8736.107
442.8560, 6738.350
444.0460, 4875.631
445.2360, 3497.950
446.4260, 2925.309
447.6160, 2630.703
448.8050, 2381.135
449.9940, 2170.596
451.1830, 1672.084
452.3720, 1170.601
453.5610, 726.1465
454.7500, 372.7207
455.9380, 120.3252
457.1260, 111.9580
458.3150, 69.64160
459.5020, 160.3564
460.6900, 359.1084
461.8780, 617.9082
463.0650, 859.7510
464.2530, 1056.663
465.4400, 1172.636
466.6270, 1369.689
467.8130, 1405.783
469.0000, 1245.939
470.1870, 1379.140
471.3730, 1562.372
472.5590, 1952.666
473.7450, 2346.011
474.9310, 3304.396
476.1160, 5123.816
477.3020, 7970.271
478.4870, 12055.77
479.6720, 17205.30
480.8570, 21363.87
482.0420, 25444.50
483.2270, 30348.15
484.4110, 37357.85
485.5960, 44055.58
486.7800, 46754.34
487.9640, 46426.13
489.1480, 42654.99
490.3310, 36579.90
491.5150, 29353.86
492.6980, 23402.87
493.8810, 18362.92
495.0640, 14681.02
496.2470, 11700.18
497.4300, 9354.397
498.6120, 7199.646
499.7950, 5696.946
500.9770, 4601.303
502.1590, 3967.717
503.3410, 3802.186
504.5220, 3674.733
505.7040, 3689.349
506.8850, 3866.076
508.0660, 3946.848
509.2470, 4237.682
510.4280, 4558.564
511.6090, 4488.480
512.7890, 4084.429
513.9700, 3864.417
515.1500, 3340.439
516.3300, 2569.493
517.5100, 1871.579
518.6900, 1343.693
519.8690, 776.8379
521.0490, 542.0127
522.2280, 175.2158
523.4070, 97.44727
524.5860, 84.70703
525.7640, 122.0049
526.9430, 304.7266
528.1210, 65.53906
529.3000, 312.3438
530.4780, 147.2422
531.6560, 428.1641
532.8330, 364.2422
534.0110, 304.4424
535.1880, 136.7363
536.3650, 7.040039
537.5430, 139.6592
538.7190, 342.4170
539.8960, 564.2012
541.0730, 732.0381
542.2490, 864.9395
543.4250, 1325.896
544.6020, 1632.932
545.7780, 1642.994
546.9530, 1787.081
548.1290, 1651.191
549.3040, 1718.340
550.4800, 1396.578
551.6550, 1235.898
552.8300, 1490.623
554.0040, 1640.390
555.1790, 2265.074
556.3540, 3068.492
557.5280, 3815.894
558.7020, 4439.844
559.8760, 5423.816
561.0500, 6732.936
562.2230, 7917.928
563.3970, 8683.587
564.5700, 8738.354
565.7430, 8664.023
566.9160, 8046.500
568.0890, 7781.496
569.2620, 7505.488
570.4340, 7717.011
571.6070, 8174.748
572.7790, 8028.789
573.9510, 7865.144
575.1230, 6761.768
576.2940, 5829.443
577.4660, 4371.819
578.6370, 3271.636
579.8080, 2223.460
580.9790, 1831.295
582.1500, 1165.138
583.3210, 1137.990
584.4910, 896.8506
585.6620, 843.7197
586.8320, 760.5957
588.0020, 723.4795
589.1720, 569.3682
590.3410, 467.2666
591.5110, 344.1699
592.6800, 292.0781
593.8500, 237.9951
595.0190, 262.9141
596.1880, 345.9551
597.3560, 394.8857
598.5250, 543.1602
599.6930, 701.5840
600.8620, 919.9648
602.0300, 1041.606
603.1970, 1455.330
604.3650, 1301.665
605.5330, 1664.274
606.7000, 1643.561
607.8680, 1559.155
609.0350, 1249.189
610.2020, 1148.811
611.3680, 701.1846
612.5350, 612.7266
613.7010, 546.1836
614.8680, 399.6895
616.0340, 554.8770
617.2000, 639.1279
618.3660, 646.4404
619.5310, 662.4824
620.6970, 588.5459
621.8620, 532.7979
623.0270, 483.4922
624.1920, 326.0469
625.3570, 355.4277
626.5220, 417.0303
627.6860, 573.1045
628.8500, 742.5430
630.0140, 923.5762
631.1780, 1221.790
632.3420, 1384.108
633.5060, 1732.327
634.6700, 2029.634
635.8330, 2571.671
636.9960, 2669.104
638.1590, 2827.302
639.3220, 2760.629
640.4850, 2634.748
641.6470, 2204.539
642.8100, 1761.689
643.9720, 1512.667
645.1340, 1046.311
646.2960, 761.6865
647.4570, 657.4219
648.6190, 630.6289
649.7800, 701.6436
650.9420, 696.6865
652.1030, 754.1357
653.2640, 818.5537
654.4240, 855.7441
655.5850, 933.9688
656.7450, 988.0791
657.9060, 1094.549
659.0660, 1203.998
660.2260, 1323.425
661.3850, 1367.830
662.5450, 1742.213
663.7040, 1842.573
664.8640, 2306.910
666.0230, 2475.340
667.1820, 2991.639
668.3410, 3000.151
669.4990, 3244.869
670.6580, 3500.046
671.8160, 3318.371
672.9740, 3015.654
674.1320, 2564.640
675.2900, 2115.168
676.4480, 1705.077
677.6050, 1366.179
678.7630, 1078.591
679.9200, 911.3213
681.0770, 686.3613
682.2340, 607.3789
683.3900, 587.3750
684.5470, 484.3496
685.7030, 504.2998
686.8590, 436.2295
688.0150, 310.1357
689.1710, 343.0166
690.3270, 175.8750
691.4830, 65.70898
692.6380, 76.51465
693.7930, 8.708984
694.9480, 13.01953
696.1030, 14.70898
697.2580, 61.36133
698.4130, 62.98242
699.5670, 34.57324
700.7210, 7.868164
701.8750, 157.6387
703.0290, 139.1172
704.1830, 172.5674
705.3370, 12.01074
706.4900, 102.3555
707.6430, 66.31152
708.7970, 58.06250
709.9490, 12.89648
711.1020, 64.78906
712.2550, 132.7676
713.4070, 40.87012
714.5600, 41.04688
715.7120, 53.70117
716.8640, 383.4121
718.0160, 208.0957
719.1670, 404.7471
720.3190, 374.3682
721.4700, 700.9600
722.6210, 903.5205
723.7720, 872.0498
724.9230, 955.5488
726.0740, 910.0166
727.2250, 860.4531
728.3750, 573.8574
729.5250, 474.2305
730.6750, 413.5723
731.8250, 437.8818
732.9750, 236.1602
734.1240, 192.4062
735.2740, 226.6182
736.4230, 25.20312
737.5720, 108.9033
738.7210, 27.97266
739.8700, 14.00586
741.0190, 0.9472660
742.1670, 88.16016
743.3150, 60.37598
744.4630, 134.6846
745.6110, 24.87402
746.7590, 66.61816
747.9070, 3.792969
749.0540, 137.1436
750.2020, 42.54395
751.3490, 9.315430
752.4960, 106.8438
753.6430, 182.9648
754.7890, 167.8008
755.9360, 9.097656
757.0820, 89.08691
758.2280, 102.0361
759.3740, 22.05273
760.5200, 75.78223
761.6660, 92.57715
762.8120, 133.3311
763.9570, 86.04590
765.1020, 47.72070
766.2470, 25.64941
767.3920, 47.09082
768.5370, 10.61816
769.6810, 40.21387
770.8260, 162.1064
771.9700, 24.61133
773.1140, 68.40430
774.2580, 11.29785
775.4020, 157.7510
776.5460, 26.23828
777.6890, 23.30273
778.8320, 34.43945
779.9750, 24.65625
781.1180, 117.9502
782.2610, 65.35645
783.4040, 252.8252
784.5460, 13.51270
785.6890, 60.19531
786.8310, 9.993164
787.9730, 224.1641
789.1150, 217.3369
790.2560, 17.49414
791.3980, 125.6016
792.5390, 155.6807
793.6810, 426.7832
794.8220, 308.8682
795.9630, 588.9727
797.1030, 569.0928
798.2440, 526.1924
799.3840, 600.2568
800.5240, 529.2910
801.6650, 736.2939
802.8040, 778.2793
803.9440, 883.2520
805.0840, 802.2500
806.2230, 977.2256
807.3630, 1102.229
808.5020, 1050.223
809.6410, 1227.277
810.7790, 1143.376
811.9180, 1013.503
813.0570, 1118.623
814.1950, 1060.712
815.3330, 1045.767
816.4710, 1015.791
817.6090, 1195.781
818.7470, 1302.740
819.8840, 1253.667
821.0220, 1428.562
822.1590, 1411.624
823.2960, 1412.254
824.4330, 1402.054
825.5690, 1444.823
826.7060, 1344.562
827.8420, 1472.271
828.9790, 1405.637
830.1150, 1465.006
831.2510, 1394.445
832.3860, 1422.143
833.5220, 1490.846
834.6570, 1387.987
835.7930, 1534.095
836.9280, 1514.042
838.0630, 1395.104
839.1980, 1565.483
840.3320, 1497.745
841.4670, 1407.087
842.6010, 1479.610
843.7350, 1407.598
844.8690, 1515.578
846.0030, 1420.011
847.1370, 1396.213
848.2700, 1305.097
849.4040, 1356.655
850.5370, 1518.923
851.6700, 1419.125
852.8030, 1562.610
853.9360, 1576.641
855.0680, 1735.646
856.2000, 1816.625
857.3330, 1962.576
858.4650, 1993.503
859.5970, 2040.404
860.7290, 2108.279
861.8600, 2485.131
862.9920, 2232.955
864.1230, 2508.755
865.2540, 2690.528
866.3850, 2625.279
867.5160, 3086.004
868.6460, 3012.703
869.7770, 3110.379
870.9070, 3497.916
872.0370, 3520.543
873.1670, 4077.807
874.2970, 4342.902
875.4270, 4798.018
876.5570, 5329.856
877.6860, 6084.589
878.8150, 7057.693
879.9440, 8232.923
881.0730, 9602.197
882.2020, 11235.40
883.3300, 12989.73
884.4590, 15019.44
885.5870, 17261.38
886.7150, 19630.14
887.8430, 21509.96
888.9710, 23523.71
890.0990, 24658.75
891.2260, 25331.70
892.3530, 25536.58
893.4810, 25089.15
894.6080, 25236.07
895.7340, 25348.93
896.8610, 26341.32
897.9880, 27542.84
899.1140, 28898.50
900.2400, 30394.92
901.3660, 30513.15
902.4920, 30009.86
903.6180, 27970.54
904.7430, 25140.38
905.8690, 21918.97
906.9940, 18433.64
908.1190, 15088.30
909.2440, 12504.21
910.3690, 10477.45
911.4930, 8680.267
912.6180, 7373.127
913.7420, 6627.381
914.8660, 5866.322
915.9900, 5139.985
917.1140, 4819.863
918.2380, 4323.729
919.3610, 4050.295
920.4850, 3577.012
921.6080, 3363.996
922.7310, 3214.570
923.8540, 3263.699
924.9760, 3230.178
926.0990, 3239.364
927.2210, 3359.524
928.3440, 3613.563
929.4660, 3701.848
930.5880, 3855.084
931.7090, 4165.672
932.8310, 4684.770
933.9520, 5133.623
935.0740, 5387.924
936.1950, 5897.225
937.3160, 6317.567
938.4360, 6667.771
939.5570, 7233.572
940.6780, 7723.526
941.7980, 8349.412
942.9180, 8711.243
944.0380, 9274.305
945.1580, 10021.70
946.2780, 10560.92
947.3970, 11452.04
948.5170, 11651.83
949.6360, 12436.60
950.7550, 12857.37
951.8740, 12821.12
952.9930, 12782.86
954.1110, 12712.59
955.2300, 12553.31
956.3480, 12192.02
957.4660, 11517.71
958.5840, 11098.86
959.7020, 10803.04
960.8190, 10824.91
961.9370, 10509.03
963.0540, 9865.808
964.1710, 9336.438
965.2880, 8741.304
966.4050, 7686.546
967.5220, 6805.318
968.6380, 6032.931
969.7550, 5432.537
970.8710, 4666.139
971.9870, 4126.891
973.1030, 3601.323
974.2190, 3150.906
975.3340, 2764.481
976.4500, 2492.876
977.5650, 2218.615
978.6800, 1961.178
979.7950, 1839.760
980.9100, 1624.359
982.0250, 1498.965
983.1390, 1378.590
984.2530, 1346.253
985.3680, 1157.931
986.4820, 1159.623
987.5950, 1041.238
988.7090, 948.9863
989.8230, 983.6543
990.9360, 997.3145
992.0490, 1008.966
993.1620, 985.6094
994.2750, 987.2451
995.3880, 1082.434
996.5010, 1140.492
997.6130, 1337.104
998.7250, 1545.707
999.8370, 1765.595
1000.949, 2032.184
1002.061, 2033.767
1003.173, 2085.342
1004.284, 1691.911
1005.396, 1378.475
1006.507, 1363.029
1007.618, 857.5977
1008.729, 741.1631
1009.839, 749.0342
1010.950, 605.6123
1012.060, 498.4844
1013.171, 461.0996
1014.281, 474.3281
1015.391, 437.4072
1016.500, 450.7764
1017.610, 448.6348
1018.719, 455.1543
1019.829, 456.9199
1020.938, 417.7539
1022.047, 417.4980
1023.156, 372.0020
1024.264, 246.0645
1025.373, 237.8281
1026.481, 201.5605
1027.589, 43.29102
1028.697, 268.0156
1029.805, 168.7520
1030.913, 199.4883
1032.020, 118.2285
1033.128, 155.0898
1034.235, 42.63477
1035.342, 20.59570
1036.449, 4.347656
1037.556, 28.24414
1038.663, 163.9902
1039.769, 195.8359
1040.875, 106.1172
1041.981, 104.5742
1043.087, 31.19922
1044.193, 77.91992
1045.299, 30.70312
1046.404, 0.5039060
1047.510, 144.5020
1048.615, 103.3184
1049.720, 34.85352
1050.825, 125.0098
1051.930, 54.78906
1053.034, 28.34180
1054.139, 0.5117190
1055.243, 78.62305
1056.347, 178.7910
1057.451, 73.06641
1058.555, 97.60938
1059.658, 33.71484
1060.762, 221.0664
1061.865, 50.54688
1062.968, 193.0645
1064.071, 182.6973
1065.174, 31.44141
1066.277, 129.7871
1067.380, 21.53711
1068.482, 19.28516
1069.584, 51.20703
1070.686, 46.12695
1071.788, 160.6016
1072.890, 117.4082
1073.992, 144.2266
1075.093, 157.6816
1076.194, 102.7012
1077.295, 22.66797
1078.396, 60.42188
1079.497, 84.90039
1080.598, 246.9844
1081.698, 249.0605
1082.799, 259.1270
1083.899, 354.1855
1084.999, 268.2344
1086.099, 316.2168
1087.199, 326.3105
1088.298, 274.3359
1089.398, 184.3535
1090.497, 51.36328
1091.596, 43.72852
1092.695, 116.3438
1093.794, 52.31641
1094.892, 131.2754
1095.991, 273.2266
1097.089, 108.1738
1098.187, 18.12891
1099.285, 130.0820
1100.383, 176.0449
1101.481, 242.0059
1102.579, 166.9590
1103.676, 216.9062
1104.773, 383.8418
1105.870, 516.7676
1106.967, 681.2012
1108.064, 1004.586
1109.161, 1056.484
1110.257, 1302.371
1111.353, 1482.248
1112.449, 1432.119
1113.545, 1573.984
1114.641, 1544.846
1115.737, 1578.699
1116.832, 1442.961
1117.928, 1213.375
1119.023, 1021.195
1120.118, 903.0078
1121.213, 577.8047
1122.308, 572.5918
1123.402, 692.3672
1124.497, 487.1348
1125.591, 525.8926
1126.685, 266.6484
1127.779, 326.4062
1128.873, 485.1582
1129.967, 332.9434
1131.060, 112.7539
1132.153, 455.5840
1133.247, 437.4043
1134.340, 578.2129
1135.433, 370.0137
1136.525, 264.8008
1137.618, 457.5762
1138.710, 197.3398
1139.802, 309.1016
1140.895, 114.8711
1141.987, 250.6289
1143.078, 120.3730
1144.170, 314.1016
1145.261, 49.81641
1146.353, 96.51562
1147.444, 141.1934
1148.535, 151.8535
1149.626, 133.4980
1150.716, 181.1270
1151.807, 170.3984
1152.897, 244.3320
1153.988, 172.9141
1155.078, 201.7559
1156.168, 189.0234
1157.257, 294.5547
1158.347, 371.0703
1159.436, 466.2715
1160.526, 425.7559
1161.615, 392.2227
1162.704, 199.6738
1163.793, 171.1074
1164.881, 27.52539
1165.970, 192.6094
1167.058, 0.1855470
1168.147, 167.6660
1169.235, 239.6055
1170.323, 21.90820
1171.410, 35.81641
1172.498, 44.32617
1173.585, 105.4355
1174.673, 128.7715
1175.760, 235.7227
1176.847, 298.4766
1177.934, 159.9629
1179.020, 509.0586
1180.107, 581.0332
1181.193, 765.9180
1182.279, 645.1016
1183.365, 918.8066
1184.451, 896.9531
1185.537, 848.3164
1186.623, 1020.232
1187.708, 1112.818
1188.793, 918.9980
1189.878, 842.9609
1190.963, 721.5312
1192.048, 560.3047
1193.133, 483.8477
1194.217, 272.3066
1195.302, 206.7324
1196.386, 174.3359
1197.470, 26.33008
1198.554, 24.32812
1199.638, 80.31836
1200.721, 62.21094
1201.805, 32.49023
1202.888, 101.4531
1203.971, 101.6602
1205.054, 15.58008
1206.137, 25.08984
1207.219, 5.304688
1208.302, 3.164063
1209.384, 64.39258
1210.466, 239.1680
1211.548, 181.8496
1212.630, 451.1875
1213.712, 335.3320
1214.794, 509.6855
1215.875, 559.3984
1216.956, 467.1367
1218.037, 740.8184
1219.118, 677.6738
1220.199, 787.0645
1221.280, 772.5840
1222.360, 967.0371
1223.441, 671.3008
1224.521, 911.3652
1225.601, 911.1621
1226.681, 872.3066
1227.760, 1012.510
1228.840, 1186.283
1229.919, 1091.311
1230.999, 1033.900
1232.078, 1584.078
1233.157, 1726.588
1234.236, 1606.861
1235.314, 1108.961
1236.393, 947.9043
1237.471, 826.8770
1238.549, 922.4102
1239.627, 841.2930
1240.705, 942.0352
1241.783, 965.4199
1242.860, 896.6406
1243.938, 1063.262
1245.015, 969.0234
1246.092, 1021.412
1247.169, 1043.443
1248.246, 1142.426
1249.323, 1100.305
1250.399, 1158.146
1251.475, 1317.088
1252.552, 1054.156
1253.628, 1106.445
1254.703, 1251.520
1255.779, 1178.992
1256.855, 1006.406
1257.930, 1077.994
1259.005, 970.2285
1260.080, 1124.793
1261.155, 946.0215
1262.230, 829.5508
1263.305, 790.5664
1264.379, 807.9004
1265.454, 722.3027
1266.528, 686.8750
1267.602, 746.3594
1268.676, 527.9746
1269.750, 664.7891
1270.823, 746.5527
1271.897, 357.6367
1272.970, 438.7305
1274.043, 558.9531
1275.116, 294.5859
1276.189, 374.3887
1277.261, 495.3516
1278.334, 396.3359
1279.406, 397.2168
1280.478, 488.2734
1281.550, 347.2578
1282.622, 366.3223
1283.694, 426.2656
1284.766, 540.2852
1285.837, 287.2461
1286.908, 456.2207
1287.979, 445.8848
1289.050, 626.1074
1290.121, 566.0176
1291.192, 545.1523
1292.262, 624.0078
1293.333, 843.7930
1294.403, 786.7910
1295.473, 840.5410
1296.543, 770.1016
1297.613, 731.3906
1298.682, 802.9590
1299.752, 621.5938
1300.821, 699.7637
1301.890, 674.7520
1302.959, 626.9688
1304.028, 742.2695
1305.096, 599.8828
1306.165, 400.4688
1307.233, 428.8320
1308.301, 516.3770
1309.370, 535.8965
1310.437, 521.4043
1311.505, 528.9258
1312.573, 485.4238
1313.640, 486.9043
1314.708, 325.3730
1315.775, 267.8496
1316.842, 433.3594
1317.908, 178.8750
1318.975, 275.3711
1320.042, 307.8633
1321.108, 204.3965
1322.174, 242.9277
1323.240, 147.4961
1324.306, 217.0859
1325.372, 174.6641
1326.438, 184.6934
1327.503, 170.4746
1328.568, 164.3320
1329.634, 123.2520
1330.699, 134.4297
1331.763, 137.2441
1332.828, 66.01953
1333.893, 18.12891
1334.957, 76.62109
