##NAMES=Kyanite
##RRUFFID=R050450
##IDEAL CHEMISTRY=Al_2_OSiO_4_
##LOCALITY=Switzerland
##OWNER=RRUFF
##SOURCE=Marcus Origlieri
##DESCRIPTION=Blue bladed crystals
##STATUS=The identification of this mineral has been confirmed by X-ray diffraction and chemical analysis
##URL=rruff.info/R050450
##MEASURED CHEMISTRY=Al_2.00_OSi_1.00_O_4_
##PIN_ID=M00970
##ORIENTATION=Laser parallel to -a* (-1 0 0). Fiducial mark perpendicular to laser is parallel to b [0 1 0]
148.7160, 0.0000000E+00
149.9470, 6.125977
151.1780, 49.10059
152.4080, 83.55322
153.6380, 43.11035
154.8690, 49.76221
156.0980, 17.84326
157.3280, 119.0879
158.5580, 128.0220
159.7870, 110.2256
161.0170, 53.50928
162.2460, 1.710938
163.4750, 93.15234
164.7030, 58.42041
165.9320, 113.7773
167.1600, 100.3623
168.3890, 209.4229
169.6170, 2.423828
170.8450, 187.9902
172.0730, 185.1187
173.3000, 97.94629
174.5280, 197.5303
175.7550, 199.2490
176.9820, 97.87061
178.2090, 105.4263
179.4350, 69.34326
180.6620, 90.87695
181.8880, 59.45410
183.1150, 118.3047
184.3410, 95.60449
185.5670, 42.70752
186.7920, 47.64502
188.0180, 12.55566
189.2430, 36.12744
190.4690, 29.28906
191.6940, 51.29248
192.9180, 41.61084
194.1430, 84.73145
195.3680, 13.81152
196.5920, 20.85400
197.8160, 2.134766
199.0400, 86.85010
200.2640, 115.8159
201.4880, 186.9854
202.7110, 276.2026
203.9350, 177.0161
205.1580, 319.4941
206.3810, 426.4146
207.6040, 581.7827
208.8270, 395.3901
210.0490, 322.9697
211.2710, 145.6299
212.4940, 35.37939
213.7160, 25.21533
214.9370, 67.13281
216.1590, 68.12549
217.3810, 157.1929
218.6020, 162.3359
219.8230, 88.55225
221.0440, 128.8423
222.2650, 261.2158
223.4860, 422.6973
224.7060, 585.2734
225.9260, 953.9316
227.1470, 1178.663
228.3670, 905.4595
229.5860, 701.2998
230.8060, 340.1953
232.0260, 218.1445
233.2450, 76.11279
234.4640, 28.87500
235.6830, 3.179688
236.9020, 66.27490
238.1200, 114.4082
239.3390, 80.57617
240.5570, 179.7798
241.7750, 140.0010
242.9930, 254.2188
244.2110, 149.4507
245.4290, 128.7158
246.6460, 233.0005
247.8630, 103.3193
249.0810, 165.6802
250.2980, 77.08057
251.5140, 39.52002
252.7310, 38.99561
253.9470, 43.49707
255.1640, 4.025879
256.3800, 4.413574
257.5960, 115.8145
258.8120, 54.17529
260.0270, 103.5044
261.2430, 25.77490
262.4580, 24.01367
263.6730, 99.20996
264.8880, 131.3784
266.1030, 85.52295
267.3170, 56.61914
268.5320, 208.3735
269.7460, 345.4619
270.9600, 303.6377
272.1740, 384.9805
273.3880, 801.4990
274.6010, 1184.170
275.8150, 1722.899
277.0280, 2727.590
278.2410, 3309.300
279.4540, 2758.010
280.6670, 1929.653
281.8790, 1399.300
283.0920, 1152.988
284.3040, 855.7188
285.5160, 933.4932
286.7280, 1171.312
287.9400, 1608.172
289.1510, 2663.074
290.3630, 4063.021
291.5740, 5610.011
292.7850, 6278.043
293.9960, 5815.119
295.2070, 5356.523
296.4170, 5787.834
297.6280, 7605.034
298.8380, 10586.10
300.0480, 14750.07
301.2580, 19833.95
302.4680, 20776.47
303.6770, 16007.15
304.8870, 10538.79
306.0960, 6360.283
307.3050, 3467.577
308.5140, 1997.036
309.7230, 1242.438
310.9310, 894.6680
312.1400, 739.0381
313.3480, 943.3877
314.5560, 1136.654
315.7640, 1765.934
316.9720, 2398.098
318.1790, 3008.255
319.3870, 3361.234
320.5940, 4085.386
321.8010, 5930.561
323.0080, 8779.646
324.2150, 12281.79
325.4210, 16761.79
326.6280, 17876.88
327.8340, 14303.77
329.0400, 9405.994
330.2460, 5729.157
331.4510, 3293.998
332.6570, 1822.953
333.8620, 1060.922
335.0680, 782.8477
336.2730, 668.9268
337.4780, 564.0234
338.6820, 904.0654
339.8870, 1123.430
341.0910, 1556.082
342.2950, 1639.017
343.5000, 1505.104
344.7030, 999.6475
345.9070, 574.2217
347.1110, 474.8008
348.3140, 423.4102
349.5170, 465.9502
350.7200, 651.5166
351.9230, 988.0537
353.1260, 1321.514
354.3290, 1669.988
355.5310, 2023.502
356.7330, 3024.053
357.9350, 4528.750
359.1370, 6337.199
360.3390, 8386.763
361.5400, 8125.392
362.7420, 5919.131
363.9430, 3911.906
365.1440, 2352.718
366.3450, 1611.565
367.5460, 1174.450
368.7460, 1266.370
369.9470, 1533.324
371.1470, 2029.315
372.3470, 2529.342
373.5470, 2712.402
374.7460, 2885.497
375.9460, 3560.625
377.1450, 4286.790
378.3450, 5001.986
379.5440, 4990.818
380.7430, 5198.744
381.9410, 6088.078
383.1400, 7973.576
384.3380, 10110.94
385.5370, 11387.02
386.7350, 10706.05
387.9320, 8796.712
389.1300, 7392.256
390.3280, 7189.469
391.5250, 8282.330
392.7220, 9678.062
393.9190, 8700.126
395.1160, 6645.021
396.3130, 4946.721
397.5100, 4007.813
398.7060, 3700.051
399.9020, 4239.348
401.0980, 5775.023
402.2940, 8214.755
403.4900, 10854.38
404.6860, 12552.29
405.8810, 11144.41
407.0760, 8246.664
408.2710, 5264.010
409.4660, 3368.446
410.6610, 1999.885
411.8550, 1367.969
413.0500, 893.1621
414.2440, 910.3887
415.4380, 774.6426
416.6320, 1252.952
417.8260, 1717.289
419.0190, 2367.654
420.2130, 2444.045
421.4060, 2194.463
422.5990, 1634.906
423.7920, 1154.378
424.9850, 1110.875
426.1770, 1184.400
427.3700, 1239.951
428.5620, 1642.529
429.7540, 2338.140
430.9460, 3082.783
432.1380, 4181.456
433.3290, 5439.156
434.5210, 7345.895
435.7120, 10046.67
436.9030, 11772.47
438.0940, 13140.30
439.2850, 13420.15
440.4750, 11598.02
441.6660, 8442.917
442.8560, 5723.833
444.0460, 4183.770
445.2360, 3333.729
446.4260, 3219.711
447.6160, 3674.716
448.8050, 3901.746
449.9940, 3517.798
451.1830, 2527.876
452.3720, 1521.980
453.5610, 910.1123
454.7500, 703.2705
455.9380, 190.4658
457.1260, 73.68848
458.3150, 89.93652
459.5020, 99.21680
460.6900, 171.5264
461.8780, 172.9131
463.0650, 306.3486
464.2530, 462.8359
465.4400, 436.3496
466.6270, 594.8936
467.8130, 455.4941
469.0000, 390.1250
470.1870, 569.7842
471.3730, 607.4727
472.5590, 715.1855
473.7450, 990.9258
474.9310, 1487.698
476.1160, 2428.499
477.3020, 3826.351
478.4870, 5447.272
479.6720, 7446.256
480.8570, 9514.294
482.0420, 12279.36
483.2270, 17220.46
484.4110, 23599.59
485.5960, 30775.76
486.7800, 35557.96
487.9640, 34407.20
489.1480, 27648.46
490.3310, 20568.78
491.5150, 14706.14
492.6980, 10433.54
493.8810, 8004.988
495.0640, 6165.462
496.2470, 4703.959
497.4300, 3465.481
498.6120, 2786.049
499.7950, 2091.639
500.9770, 1701.269
502.1590, 1422.927
503.3410, 1301.614
504.5220, 1243.322
505.7040, 1185.093
506.8850, 1111.884
508.0660, 1240.701
509.2470, 1286.551
510.4280, 1540.420
511.6090, 1727.309
512.7890, 1696.230
513.9700, 1603.171
515.1500, 1346.140
516.3300, 1069.126
517.5100, 748.1406
518.6900, 444.1748
519.8690, 238.2275
521.0490, 136.2969
522.2280, 74.39453
523.4070, 2.511719
524.5860, 5.356445
525.7640, 51.79004
526.9430, 96.04785
528.1210, 20.90430
529.3000, 105.7500
530.4780, 2.379883
531.6560, 49.47559
532.8330, 106.3330
534.0110, 160.2158
535.1880, 128.1494
536.3650, 161.1162
537.5430, 138.1309
538.7190, 181.1934
539.8960, 40.31348
541.0730, 66.42578
542.2490, 74.45117
543.4250, 62.34082
544.6020, 78.27051
545.7780, 181.2256
546.9530, 142.1904
548.1290, 166.3018
549.3040, 262.8564
550.4800, 134.8828
551.6550, 187.9648
552.8300, 169.3506
554.0040, 459.5557
555.1790, 862.9551
556.3540, 969.1738
557.5280, 1367.465
558.7020, 1875.614
559.8760, 2556.771
561.0500, 3631.937
562.2230, 4633.107
563.3970, 5352.287
564.5700, 4874.473
565.7430, 3786.666
566.9160, 2593.865
568.0890, 1799.072
569.2620, 1189.284
570.4340, 925.4824
571.6070, 859.3027
572.7790, 868.1064
573.9510, 676.6416
575.1230, 594.3955
576.2940, 689.3486
577.4660, 676.9219
578.6370, 713.3916
579.8080, 726.8291
580.9790, 747.1748
582.1500, 921.4434
583.3210, 1167.707
584.4910, 1399.972
585.6620, 1483.239
586.8320, 1447.509
588.0020, 1229.780
589.1720, 1125.052
590.3410, 693.3262
591.5110, 720.6016
592.6800, 598.8789
593.8500, 440.5244
595.0190, 681.9219
596.1880, 702.2568
597.3560, 999.0020
598.5250, 1220.316
599.6930, 1720.656
600.8620, 2093.476
602.0300, 2590.781
603.1970, 3332.562
604.3650, 4189.729
605.5330, 4979.154
606.7000, 5428.552
607.8680, 5255.945
609.0350, 4502.920
610.2020, 3681.949
611.3680, 3014.803
612.5350, 2647.148
613.7010, 2078.609
614.8680, 2088.336
616.0340, 2051.980
617.2000, 2126.827
618.3660, 2151.478
619.5310, 2242.321
620.6970, 2318.896
621.8620, 2331.234
623.0270, 2528.315
624.1920, 2625.684
625.3570, 2928.638
626.5220, 3150.929
627.6860, 3411.962
628.8500, 3667.101
630.0140, 3714.305
631.1780, 3571.419
632.3420, 2953.838
633.5060, 2592.879
634.6700, 2397.269
635.8330, 2237.518
636.9960, 2154.071
638.1590, 2109.884
639.3220, 1902.164
640.4850, 1774.402
641.6470, 1622.807
642.8100, 1493.632
643.9720, 1338.967
645.1340, 1319.301
646.2960, 1306.357
647.4570, 1311.294
648.6190, 1358.559
649.7800, 1443.651
650.9420, 1551.722
652.1030, 1601.086
653.2640, 1766.021
654.4240, 2043.723
655.5850, 2047.491
656.7450, 2119.290
657.9060, 2156.178
659.0660, 2101.061
660.2260, 1790.753
661.3850, 1609.424
662.5450, 1412.075
663.7040, 1289.721
664.8640, 1371.168
666.0230, 1382.758
667.1820, 1400.930
668.3410, 1561.053
669.4990, 1698.388
670.6580, 1724.987
671.8160, 1681.797
672.9740, 1214.971
674.1320, 1108.289
675.2900, 874.2852
676.4480, 713.4629
677.6050, 483.8506
678.7630, 300.8525
679.9200, 262.8242
681.0770, 216.6455
682.2340, 202.9541
683.3900, 199.2441
684.5470, 88.51465
685.7030, 185.7637
686.8590, 5.005859
688.0150, 51.18066
689.1710, 151.3428
690.3270, 12.51465
691.4830, 80.42188
692.6380, 2.585938
693.7930, 49.55273
694.9480, 79.49414
696.1030, 61.58594
697.2580, 186.2578
698.4130, 638.0791
699.5670, 1787.879
700.7210, 1593.658
701.8750, 1715.414
703.0290, 621.1484
704.1830, 319.8613
705.3370, 335.5508
706.4900, 212.2197
707.6430, 213.8662
708.7970, 27.49023
709.9490, 13.08203
711.1020, 41.63477
712.2550, 56.15918
713.4070, 2.342773
714.5600, 11.11035
715.7120, 55.52148
716.8640, 21.90723
718.0160, 73.58203
719.1670, 97.00879
720.3190, 116.8848
721.4700, 171.1631
722.6210, 141.4180
723.7720, 176.6504
724.9230, 222.8584
726.0740, 235.0439
727.2250, 290.2051
728.3750, 125.3438
729.5250, 127.4600
730.6750, 124.5518
731.8250, 56.61914
732.9750, 96.66113
734.1240, 11.32324
735.2740, 50.64160
736.4230, 117.5762
737.5720, 111.4883
738.7210, 46.37598
739.8700, 154.7656
741.0190, 51.03418
742.1670, 57.37402
743.3150, 90.20996
744.4630, 22.76953
745.6110, 77.70605
746.7590, 36.73145
747.9070, 34.13965
749.0540, 41.51660
750.2020, 102.8633
751.3490, 74.18750
752.4960, 11.48633
753.6430, 51.74805
754.7890, 24.01953
755.9360, 132.8418
757.0820, 40.77832
758.2280, 84.77832
759.3740, 90.13281
760.5200, 1.021484
761.6660, 15.86816
762.8120, 29.31934
763.9570, 90.43555
765.1020, 15.83301
766.2470, 120.8506
767.3920, 99.48926
768.5370, 50.92285
769.6810, 7.577148
770.8260, 98.95898
771.9700, 51.41504
773.1140, 72.76367
774.2580, 34.08984
775.4020, 50.61133
776.5460, 54.62207
777.6890, 27.16797
778.8320, 36.99023
779.9750, 5.125000
781.1180, 88.22461
782.2610, 127.6973
783.4040, 78.27930
784.5460, 4.233398
785.6890, 17.84570
786.8310, 54.03223
787.9730, 53.88867
789.1150, 22.27832
790.2560, 75.51172
791.3980, 13.71875
792.5390, 171.0117
793.6810, 17.27734
794.8220, 64.39746
795.9630, 59.05176
797.1030, 159.6855
798.2440, 168.2988
799.3840, 197.8965
800.5240, 84.47754
801.6650, 181.0400
802.8040, 94.58594
803.9440, 27.11426
805.0840, 50.63770
806.2230, 154.1465
807.3630, 56.65527
808.5020, 149.1465
809.6410, 96.62988
810.7790, 248.1152
811.9180, 201.6143
813.0570, 224.1221
814.1950, 86.64453
815.3330, 151.1777
816.4710, 196.7314
817.6090, 159.2764
818.7470, 216.8164
819.8840, 161.3398
821.0220, 264.8477
822.1590, 188.3379
823.2960, 201.8135
824.4330, 223.7734
825.5690, 196.0293
826.7060, 179.4580
827.8420, 416.8584
828.9790, 167.9668
830.1150, 303.2607
831.2510, 347.3564
832.3860, 168.6270
833.5220, 378.8223
834.6570, 299.1533
835.7930, 400.4717
836.9280, 233.7773
838.0630, 450.0713
839.1980, 506.3516
840.3320, 476.6191
841.4670, 281.8760
842.6010, 480.1211
843.7350, 511.3545
844.8690, 631.5752
846.0030, 546.8047
847.1370, 579.4043
848.2700, 541.0176
849.4040, 652.8916
850.5370, 633.5410
851.6700, 697.9863
852.8030, 773.8047
853.9360, 853.9297
855.0680, 918.6611
856.2000, 1087.688
857.3330, 1165.785
858.4650, 1289.913
859.5970, 1341.602
860.7290, 1394.051
861.8600, 1369.123
862.9920, 1314.185
864.1230, 1229.237
865.2540, 1182.283
866.3850, 979.3223
867.5160, 922.3525
868.6460, 946.0068
869.7770, 875.9023
870.9070, 959.8838
872.0370, 876.4463
873.1670, 1037.435
874.2970, 1054.419
875.4270, 1063.916
876.5570, 1106.951
877.6860, 1107.503
878.8150, 1199.664
879.9440, 1332.565
881.0730, 1264.489
882.2020, 1391.414
883.3300, 1599.762
884.4590, 1754.064
885.5870, 1784.537
886.7150, 1853.510
887.8430, 2071.361
888.9710, 2173.938
890.0990, 2057.595
891.2260, 2000.051
892.3530, 2051.708
893.4810, 1978.179
894.6080, 1939.930
895.7340, 1999.920
896.8610, 2085.119
897.9880, 2134.103
899.1140, 2213.460
900.2400, 2282.591
901.3660, 2255.730
902.4920, 2367.875
903.6180, 2404.973
904.7430, 2324.152
905.8690, 2153.018
906.9940, 2008.253
908.1190, 2101.155
909.2440, 1856.162
910.3690, 1844.855
911.4930, 2149.280
912.6180, 1858.227
913.7420, 2043.203
914.8660, 2174.007
915.9900, 2174.107
917.1140, 2382.246
918.2380, 2452.100
919.3610, 2540.219
920.4850, 2853.453
921.6080, 3035.374
922.7310, 3081.438
923.8540, 3381.561
924.9760, 3579.335
926.0990, 3818.525
927.2210, 4178.184
928.3440, 4488.523
929.4660, 4966.428
930.5880, 5311.657
931.7090, 5799.895
932.8310, 6667.324
933.9520, 7002.127
935.0740, 8003.936
936.1950, 8557.398
937.3160, 9733.873
938.4360, 10506.36
939.5570, 11520.58
940.6780, 12893.92
941.7980, 14299.43
942.9180, 16083.83
944.0380, 18276.37
945.1580, 21109.92
946.2780, 24014.48
947.3970, 27274.06
948.5170, 30789.65
949.6360, 33094.24
950.7550, 35162.84
951.8740, 35325.45
952.9930, 34692.07
954.1110, 32579.70
955.2300, 30150.34
956.3480, 26908.99
957.4660, 24242.64
958.5840, 21854.31
959.7020, 20483.99
960.8190, 18960.70
961.9370, 17668.41
963.0540, 16195.14
964.1710, 14852.92
965.2880, 13379.71
966.4050, 11969.52
967.5220, 10458.43
968.6380, 9403.282
969.7550, 8040.145
970.8710, 6914.020
971.9870, 6195.904
973.1030, 5500.799
974.2190, 4803.703
975.3340, 4221.618
976.4500, 3772.543
977.5650, 3481.479
978.6800, 3192.424
979.7950, 2926.381
980.9100, 2571.351
982.0250, 2478.342
983.1390, 2366.346
984.2530, 1983.361
985.3680, 1957.400
986.4820, 1806.458
987.5950, 1832.529
988.7090, 1765.616
989.8230, 1857.715
990.9360, 1803.825
992.0490, 1926.947
993.1620, 2204.079
994.2750, 2385.222
995.3880, 2822.376
996.5010, 3335.541
997.6130, 4032.718
998.7250, 4572.906
999.8370, 5228.104
1000.949, 5806.380
1002.061, 5989.598
1003.173, 5496.831
1004.284, 4857.162
1005.396, 3915.433
1006.507, 3113.717
1007.618, 2521.803
1008.729, 2067.108
1009.839, 1504.528
1010.950, 1359.337
1012.060, 1178.785
1013.171, 1057.721
1014.281, 882.0264
1015.391, 821.7666
1016.500, 707.4365
1017.610, 747.5303
1018.719, 615.6367
1019.829, 692.2832
1020.938, 816.9521
1022.047, 791.5361
1023.156, 823.0547
1024.264, 587.2705
1025.373, 530.1797
1026.481, 440.4121
1027.589, 574.1533
1028.697, 471.9756
1029.805, 316.7979
1030.913, 461.5859
1032.020, 356.4502
1033.128, 267.2734
1034.235, 134.1045
1035.342, 224.9570
1036.449, 214.5215
1037.556, 230.4248
1038.663, 119.5459
1039.769, 135.6396
1040.875, 2.371094
1041.981, 152.6484
1043.087, 57.76758
1044.193, 47.78418
1045.299, 87.97168
1046.404, 28.02441
1047.510, 111.0996
1048.615, 37.22656
1049.720, 140.4102
1050.825, 5.513672
1051.930, 108.0879
1053.034, 113.3770
1054.139, 1.5625000E-02
1055.243, 202.1709
1056.347, 4.547852
1057.451, 57.88086
1058.555, 67.09863
1059.658, 19.67676
1060.762, 4.787109
1061.865, 34.92480
1062.968, 68.87207
1064.071, 35.86816
1065.174, 52.39648
1066.277, 23.77441
1067.380, 23.32031
1068.482, 3.609375
1069.584, 96.90918
1070.686, 165.6807
1071.788, 169.3701
1072.890, 76.94531
1073.992, 99.25391
1075.093, 191.4023
1076.194, 146.6973
1077.295, 191.6934
1078.396, 169.9932
1079.497, 205.8848
1080.598, 325.3691
1081.698, 346.6787
1082.799, 472.9893
1083.899, 319.3027
1084.999, 324.6182
1086.099, 179.9365
1087.199, 138.2559
1088.298, 164.5781
1089.398, 272.0479
1090.497, 99.39355
1091.596, 228.0098
1092.695, 217.3672
1093.794, 198.9805
1094.892, 133.3125
1095.991, 70.64355
1097.089, 71.97656
1098.187, 81.31055
1099.285, 5.354492
1100.383, 84.97949
1101.481, 140.3135
1102.579, 48.64941
1103.676, 13.98730
1104.773, 23.32422
1105.870, 108.6621
1106.967, 65.99805
1108.064, 200.3340
1109.161, 68.67090
1110.257, 204.0078
1111.353, 133.3428
1112.449, 13.67871
1113.545, 122.0215
1114.641, 178.3633
1115.737, 271.7061
1116.832, 107.0449
1117.928, 115.3848
1119.023, 274.7207
1120.118, 93.05566
1121.213, 205.3887
1122.308, 223.7207
1123.402, 107.0498
1124.497, 206.3770
1125.591, 51.70020
1126.685, 95.02246
1127.779, 113.3428
1128.873, 109.6592
1129.967, 114.9727
1131.060, 158.2832
1132.153, 3.591797
1133.247, 69.89551
1134.340, 207.1963
1135.433, 115.5068
1136.525, 31.72754
1137.618, 27.95801
1138.710, 108.8096
1139.802, 61.36035
1140.895, 112.4727
1141.987, 3.333984
1143.078, 25.79395
1144.170, 21.08203
1145.261, 9.977539
1146.353, 2.115234
1147.444, 45.80176
1148.535, 51.75293
1149.626, 2.740234
1150.716, 22.25977
1151.807, 20.25293
1152.897, 44.24023
1153.988, 22.77734
1155.078, 17.19824
1156.168, 43.22852
1157.257, 46.97559
1158.347, 54.10938
1159.436, 38.28418
1160.526, 40.50684
1161.615, 54.29004
1162.704, 20.93262
1163.793, 203.8467
1164.881, 63.61914
1165.970, 76.38477
1167.058, 92.85547
1168.147, 151.8359
1169.235, 18.52246
1170.323, 29.19727
1171.410, 68.86426
1172.498, 61.49219
1173.585, 40.14062
1174.673, 148.7803
1175.760, 35.40918
1176.847, 166.0283
1177.934, 147.6387
1179.020, 13.76074
1180.107, 52.81250
1181.193, 147.3740
1182.279, 15.92676
1183.365, 2.465820
1184.451, 2.016602
1185.537, 102.4600
1186.623, 58.94336
1187.708, 26.36914
1188.793, 144.8291
1189.878, 151.2793
1190.963, 3.472656
1192.048, 41.11035
1193.133, 17.32715
1194.217, 35.99023
1195.302, 12.20605
1196.386, 0.6640630
1197.470, 42.44238
1198.554, 22.31250
1199.638, 31.47754
1200.721, 21.67383
1201.805, 24.85254
1202.888, 30.01660
1203.971, 86.16797
1205.054, 14.30664
1206.137, 155.4268
1207.219, 0.4658200
1208.302, 146.6162
1209.384, 22.68555
1210.466, 52.73926
1211.548, 99.77930
1212.630, 106.8076
1213.712, 185.8252
1214.794, 229.8320
1215.875, 193.8262
1216.956, 232.8086
1218.037, 113.7793
1219.118, 65.73828
1220.199, 96.68457
1221.280, 39.92871
1222.360, 95.53809
1223.441, 41.44531
1224.521, 138.3389
1225.601, 172.2207
1226.681, 204.0898
1227.760, 134.9463
1228.840, 191.7930
1229.919, 219.3047
1230.999, 184.5449
1232.078, 316.7998
1233.157, 329.5957
1234.236, 357.3799
1235.314, 290.1514
1236.393, 307.9111
1237.471, 372.6572
1238.549, 255.3896
1239.627, 378.4189
1240.705, 324.1279
1241.783, 277.8242
1242.860, 291.7051
1243.938, 298.9053
1245.015, 341.0312
1246.092, 356.6768
1247.169, 337.3096
1248.246, 321.9287
1249.323, 301.5371
1250.399, 238.1348
1251.475, 342.7197
1252.552, 375.2910
1253.628, 388.8496
1254.703, 356.3955
1255.779, 412.9277
1256.855, 210.4492
1257.930, 343.9629
1259.005, 371.4648
1260.080, 407.9531
1261.155, 549.4287
1262.230, 359.8262
1263.305, 428.2754
1264.379, 485.8301
1265.454, 352.4746
1266.528, 510.8877
1267.602, 641.3896
1268.676, 599.3252
1269.750, 586.7109
1270.823, 608.7393
1271.897, 548.7832
1272.970, 516.0977
1274.043, 527.6699
1275.116, 566.5703
1276.189, 524.6465
1277.261, 464.7959
1278.334, 427.2422
1279.406, 560.2393
1280.478, 386.4180
1281.550, 462.6406
1282.622, 466.0801
1283.694, 398.6367
1284.766, 460.5322
1285.837, 521.6816
1286.908, 496.0684
1287.979, 470.6289
1289.050, 513.1035
1290.121, 461.2109
1291.192, 474.5527
1292.262, 563.2959
1293.333, 383.7373
1294.403, 499.0674
1295.473, 566.1777
1296.543, 437.5742
1297.613, 513.8486
1298.682, 544.7490
1299.752, 620.6787
1300.821, 507.7461
1301.890, 546.7812
1302.959, 547.1328
1304.028, 644.7480
1305.096, 563.6318
1306.165, 614.6465
1307.233, 627.6514
1308.301, 668.6006
1309.370, 733.4971
1310.437, 601.4697
1311.505, 825.0078
1312.573, 718.8301
1313.640, 825.3340
1314.708, 801.2666
1315.775, 682.1045
1316.842, 787.7930
1317.908, 913.7012
1318.975, 714.6035
1320.042, 591.2695
1321.108, 738.1123
1322.174, 536.4502
1323.240, 550.5879
1324.306, 612.1914
1325.372, 472.4932
