##NAMES=Kyanite
##RRUFFID=R050450
##IDEAL CHEMISTRY=Al_2_OSiO_4_
##LOCALITY=Switzerland
##OWNER=RRUFF
##SOURCE=Marcus Origlieri
##DESCRIPTION=Blue bladed crystals
##STATUS=The identification of this mineral has been confirmed by X-ray diffraction and chemical analysis
##URL=rruff.info/R050450
##MEASURED CHEMISTRY=Al_2.00_OSi_1.00_O_4_
##PIN_ID=M01978
##ORIENTATION=Laser parallel to -b* (0 -1 0). Fiducial mark perpendicular to laser is parallel to c [0 0 1]
148.7160, 0.0000000E+00
149.9470, 11.15918
151.1780, 1.771973
152.4080, 164.9668
153.6380, 108.8940
154.8690, 80.89062
156.0980, 106.6865
157.3280, 7.118164
158.5580, 7.229980
159.7870, 7.914551
161.0170, 71.40820
162.2460, 129.6113
163.4750, 108.9971
164.7030, 106.6484
165.9320, 162.4077
167.1600, 56.18359
168.3890, 135.1426
169.6170, 161.1304
170.8450, 247.2529
172.0730, 252.6997
173.3000, 278.5811
174.5280, 293.6089
175.7550, 293.2822
176.9820, 267.4053
178.2090, 277.0293
179.4350, 195.4458
180.6620, 139.4644
181.8880, 79.15088
183.1150, 66.56299
184.3410, 118.7476
185.5670, 104.7466
186.7920, 17.40869
188.0180, 70.30713
189.2430, 92.91406
190.4690, 188.4326
191.6940, 183.8799
192.9180, 29.72998
194.1430, 61.61670
195.3680, 101.5020
196.5920, 204.6523
197.8160, 193.2983
199.0400, 306.2358
200.2640, 192.1904
201.4880, 207.0957
202.7110, 327.7148
203.9350, 414.8569
205.1580, 410.7861
206.3810, 426.4131
207.6040, 388.0942
208.8270, 343.4473
210.0490, 228.9326
211.2710, 156.5596
212.4940, 89.33594
213.7160, 104.2568
214.9370, 288.3154
216.1590, 146.5078
217.3810, 229.8311
218.6020, 446.2832
219.8230, 338.8633
221.0440, 386.5703
222.2650, 637.3916
223.4860, 823.2959
224.7060, 1153.278
225.9260, 1418.338
227.1470, 1395.467
228.3670, 1088.671
229.5860, 781.9502
230.8060, 574.3057
232.0260, 420.7383
233.2450, 176.2451
234.4640, 88.82324
235.6830, 37.47559
236.9020, 71.19922
238.1200, 18.99316
239.3390, 17.85938
240.5570, 28.20605
241.7750, 90.77637
242.9930, 19.82812
244.2110, 21.93652
245.4290, 36.89844
246.6460, 15.34082
247.8630, 134.6377
249.0810, 54.00977
250.2980, 8.444336
251.5140, 74.94043
252.7310, 6.502930
253.9470, 60.11523
255.1640, 67.20508
256.3800, 148.4619
257.5960, 234.6562
258.8120, 62.78516
260.0270, 121.1494
261.2430, 114.1494
262.4580, 51.78418
263.6730, 116.6504
264.8880, 108.4512
266.1030, 20.81543
267.3170, 299.1543
268.5320, 584.6201
269.7460, 1052.296
270.9600, 1171.135
272.1740, 1155.206
273.3880, 1763.477
274.6010, 2405.943
275.8150, 3464.465
277.0280, 4323.937
278.2410, 4692.463
279.4540, 4230.000
280.6670, 3245.527
281.8790, 2646.116
283.0920, 2305.766
284.3040, 1903.479
285.5160, 1882.253
286.7280, 2171.090
287.9400, 3141.988
289.1510, 4153.949
290.3630, 5674.973
291.5740, 7696.059
292.7850, 9335.207
293.9960, 10125.42
295.2070, 9717.852
296.4170, 10140.09
297.6280, 12647.22
298.8380, 16446.54
300.0480, 20580.81
301.2580, 24229.15
302.4680, 24294.54
303.6770, 19455.94
304.8870, 14231.78
306.0960, 9193.329
307.3050, 5608.920
308.5140, 3014.561
309.7230, 1942.244
310.9310, 1325.972
312.1400, 952.7402
313.3480, 1126.555
314.5560, 1357.357
315.7640, 1783.207
316.9720, 2799.043
318.1790, 3683.929
319.3870, 4180.861
320.5940, 4468.844
321.8010, 5826.869
323.0080, 7953.932
324.2150, 10058.02
325.4210, 12261.15
326.6280, 12637.31
327.8340, 10338.52
329.0400, 7615.754
330.2460, 5112.034
331.4510, 3190.354
332.6570, 1889.029
333.8620, 1250.437
335.0680, 1119.887
336.2730, 949.3818
337.4780, 1043.920
338.6820, 1460.318
339.8870, 1652.948
341.0910, 2040.597
342.2950, 2066.293
343.5000, 1764.104
344.7030, 1637.744
345.9070, 1091.542
347.1110, 871.3828
348.3140, 1078.149
349.5170, 1457.797
350.7200, 2344.501
351.9230, 3675.180
353.1260, 4762.863
354.3290, 5255.603
355.5310, 6225.402
356.7330, 8433.258
357.9350, 11506.17
359.1370, 14458.14
360.3390, 17071.16
361.5400, 15836.24
362.7420, 12431.37
363.9430, 8697.557
365.1440, 5629.800
366.3450, 3302.095
367.5460, 1914.444
368.7460, 1421.847
369.9470, 1314.302
371.1470, 1449.810
372.3470, 1716.372
373.5470, 2272.987
374.7460, 3114.654
375.9460, 4318.375
377.1450, 5891.148
378.3450, 7130.973
379.5440, 7868.852
380.7430, 9236.784
381.9410, 11611.76
383.1400, 14751.80
384.3380, 18090.47
385.5370, 19822.15
386.7350, 18578.10
387.9320, 15541.75
389.1300, 14017.22
390.3280, 12887.31
391.5250, 12795.40
392.7220, 13107.52
393.9190, 12155.90
395.1160, 10998.89
396.3130, 10219.35
397.5100, 9721.246
398.7060, 9579.987
399.9020, 10927.51
401.0980, 13619.91
402.2940, 17434.23
403.4900, 21176.92
404.6860, 22679.85
405.8810, 20103.82
407.0760, 15789.85
408.2710, 11336.78
409.4660, 7572.225
410.6610, 5153.380
411.8550, 4220.582
413.0500, 4561.830
414.2440, 2781.123
415.4380, 2633.460
416.6320, 2815.839
417.8260, 3302.262
419.0190, 3690.725
420.2130, 3761.229
421.4060, 3231.775
422.5990, 2938.363
423.7920, 2593.992
424.9850, 2229.663
426.1770, 2618.375
427.3700, 3611.128
428.5620, 4596.923
429.7540, 6023.756
430.9460, 7860.633
432.1380, 9804.549
433.3290, 12383.50
434.5210, 15068.50
435.7120, 18375.54
436.9030, 20942.61
438.0940, 21888.72
439.2850, 21848.88
440.4750, 18784.08
441.6660, 14570.33
442.8560, 10741.62
444.0460, 7788.960
445.2360, 6036.342
446.4260, 5416.773
447.6160, 5261.247
448.8050, 5023.767
449.9940, 4427.330
451.1830, 3288.947
452.3720, 2259.608
453.5610, 1704.316
454.7500, 924.0830
455.9380, 626.8926
457.1260, 341.7461
458.3150, 248.6436
459.5020, 189.5830
460.6900, 137.5674
461.8780, 143.5938
463.0650, 124.6729
464.2530, 233.7949
465.4400, 246.9629
466.6270, 393.1729
467.8130, 361.4238
469.0000, 593.7246
470.1870, 747.0645
471.3730, 916.4482
472.5590, 1314.873
473.7450, 1750.341
474.9310, 2689.871
476.1160, 4043.450
477.3020, 6335.072
478.4870, 9268.751
479.6720, 12422.47
480.8570, 15481.23
482.0420, 18980.05
483.2270, 24353.91
484.4110, 31060.80
485.5960, 37505.76
486.7800, 40878.77
487.9640, 38355.82
489.1480, 32394.91
490.3310, 24980.06
491.5150, 18709.29
492.6980, 14000.58
493.8810, 10476.91
495.0640, 8179.281
496.2470, 6315.703
497.4300, 4835.166
498.6120, 3751.718
499.7950, 2945.313
500.9770, 2372.949
502.1590, 1908.628
503.3410, 1842.371
504.5220, 1676.160
505.7040, 1525.004
506.8850, 1545.906
508.0660, 1683.856
509.2470, 2024.848
510.4280, 2270.879
511.6090, 2220.988
512.7890, 2126.139
513.9700, 2139.354
515.1500, 1794.632
516.3300, 1293.972
517.5100, 1031.348
518.6900, 703.7607
519.8690, 370.2305
521.0490, 269.7852
522.2280, 160.3926
523.4070, 146.0420
524.5860, 128.7295
525.7640, 16.51953
526.9430, 105.7100
528.1210, 113.8750
529.3000, 166.0518
530.4780, 141.2627
531.6560, 131.5000
532.8330, 128.7500
534.0110, 207.0166
535.1880, 173.3135
536.3650, 104.6533
537.5430, 209.0010
538.7190, 185.4072
539.8960, 5.138672
541.0730, 68.27051
542.2490, 151.6650
543.4250, 40.06348
544.6020, 36.39844
545.7780, 63.31934
546.9530, 164.0693
548.1290, 141.8477
549.3040, 278.6611
550.4800, 500.5225
551.6550, 572.4307
552.8300, 992.3623
554.0040, 1446.319
555.1790, 2246.323
556.3540, 3072.328
557.5280, 3991.354
558.7020, 4984.406
559.8760, 6324.482
561.0500, 8308.581
562.2230, 9956.705
563.3970, 10531.85
564.5700, 9335.016
565.7430, 7434.207
566.9160, 5211.417
568.0890, 3645.648
569.2620, 2518.900
570.4340, 1605.171
571.6070, 1129.462
572.7790, 854.7715
573.9510, 602.1006
575.1230, 587.4473
576.2940, 487.8135
577.4660, 355.1973
578.6370, 223.5977
579.8080, 320.0176
580.9790, 257.4531
582.1500, 253.9053
583.3210, 367.3740
584.4910, 289.1650
585.6620, 321.6650
586.8320, 190.0117
588.0020, 227.5430
589.1720, 303.0889
590.3410, 259.6484
591.5110, 286.7744
592.6800, 548.8604
593.8500, 512.0137
595.0190, 894.9287
596.1880, 1121.655
597.3560, 1708.608
598.5250, 1991.342
599.6930, 2770.000
600.8620, 3718.052
602.0300, 4382.730
603.1970, 5361.409
604.3650, 6560.171
605.5330, 7229.855
606.7000, 7634.574
607.8680, 7505.389
609.0350, 6664.457
610.2020, 5606.201
611.3680, 4671.951
612.5350, 3770.848
613.7010, 3565.140
614.8680, 3306.771
616.0340, 3221.689
617.2000, 3350.820
618.3660, 3268.570
619.5310, 3081.362
620.6970, 2922.220
621.8620, 2966.544
623.0270, 2957.449
624.1920, 2856.382
625.3570, 2986.560
626.5220, 3326.368
627.6860, 3481.971
628.8500, 3960.928
630.0140, 3951.447
631.1780, 3872.168
632.3420, 3536.359
633.5060, 3300.271
634.6700, 3129.139
635.8330, 2599.187
636.9960, 2619.888
638.1590, 2522.740
639.3220, 2027.954
640.4850, 1797.305
641.6470, 1477.248
642.8100, 1066.972
643.9720, 1004.777
645.1340, 831.9219
646.2960, 685.0400
647.4570, 578.1807
648.6190, 540.1064
649.7800, 628.5752
650.9420, 544.4854
652.1030, 579.4102
653.2640, 576.7061
654.4240, 652.1768
655.5850, 794.3223
656.7450, 721.4023
657.9060, 803.7998
659.0660, 635.5459
660.2260, 538.3193
661.3850, 614.6289
662.5450, 240.0234
663.7040, 527.0312
664.8640, 427.6230
666.0230, 453.7793
667.1820, 582.0537
668.3410, 417.4814
669.4990, 464.2285
670.6580, 490.5586
671.8160, 508.4893
672.9740, 416.5684
674.1320, 421.3896
675.2900, 248.0771
676.4480, 344.1279
677.6050, 152.8809
678.7630, 146.8057
679.9200, 183.3359
681.0770, 142.2236
682.2340, 156.6660
683.3900, 151.4863
684.5470, 123.6650
685.7030, 169.0469
686.8590, 127.8740
688.0150, 155.4023
689.1710, 171.6221
690.3270, 146.8223
691.4830, 38.00293
692.6380, 173.1631
693.7930, 32.32227
694.9480, 130.4629
696.1030, 137.8545
697.2580, 201.3369
698.4130, 291.6660
699.5670, 242.9746
700.7210, 403.1943
701.8750, 497.4111
703.0290, 503.7031
704.1830, 508.7939
705.3370, 504.1914
706.4900, 471.2393
707.6430, 429.7373
708.7970, 375.5928
709.9490, 330.4248
711.1020, 256.4434
712.2550, 231.0176
713.4070, 144.7783
714.5600, 160.5156
715.7120, 112.2266
716.8640, 98.91406
718.0160, 114.1465
719.1670, 139.2139
720.3190, 110.8262
721.4700, 114.4121
722.6210, 40.97363
723.7720, 133.5049
724.9230, 23.00977
726.0740, 106.4795
727.2250, 136.9229
728.3750, 90.17871
729.5250, 8.728516
730.6750, 39.07520
731.8250, 37.38770
732.9750, 18.33203
734.1240, 72.88867
735.2740, 53.08203
736.4230, 81.24219
737.5720, 127.3750
738.7210, 52.47949
739.8700, 123.5518
741.0190, 4.594727
742.1670, 97.58984
743.3150, 28.55566
744.4630, 168.4824
745.6110, 97.38184
746.7590, 19.24902
747.9070, 152.0752
749.0540, 148.8730
750.2020, 92.64062
751.3490, 54.37695
752.4960, 38.92090
753.6430, 97.70703
754.7890, 70.30371
755.9360, 24.13379
757.0820, 165.3633
758.2280, 123.8301
759.3740, 60.26562
760.5200, 31.66504
761.6660, 113.0244
762.8120, 61.64746
763.9570, 154.5918
765.1020, 47.80273
766.2470, 10.02539
767.3920, 18.91406
768.5370, 69.86914
769.6810, 45.50488
770.8260, 131.9609
771.9700, 10.80469
773.1140, 23.59961
774.2580, 45.34961
775.4020, 135.9404
776.5460, 23.64453
777.6890, 69.18457
778.8320, 33.68750
779.9750, 54.85059
781.1180, 7.526367
782.2610, 14.14746
783.4040, 45.88281
784.5460, 1.302734
785.6890, 29.43262
786.8310, 64.52051
787.9730, 123.4287
789.1150, 31.50293
790.2560, 66.60742
791.3980, 69.80664
792.5390, 65.09668
793.6810, 89.52637
794.8220, 58.11426
795.9630, 44.33594
797.1030, 156.8613
798.2440, 38.52148
799.3840, 7.745117
800.5240, 18.96387
801.6650, 76.86133
802.8040, 95.77832
803.9440, 62.79297
805.0840, 61.12988
806.2230, 62.03809
807.3630, 170.9443
808.5020, 134.8486
809.6410, 122.7471
810.7790, 65.36035
811.9180, 141.4932
813.0570, 27.35156
814.1950, 122.1904
815.3330, 140.0439
816.4710, 38.09473
817.6090, 90.70117
818.7470, 185.4766
819.8840, 160.2559
821.0220, 89.98633
822.1590, 22.68457
823.2960, 63.32227
824.4330, 104.9268
825.5690, 196.5000
826.7060, 242.0439
827.8420, 231.9307
828.9790, 235.9189
830.1150, 168.5078
831.2510, 167.9131
832.3860, 102.3154
833.5220, 79.68652
834.6570, 107.0254
835.7930, 106.3340
836.9280, 122.6133
838.0630, 117.2012
839.1980, 94.08105
840.3320, 136.2705
841.4670, 138.4297
842.6010, 144.7412
843.7350, 180.6650
844.8690, 171.7412
846.0030, 169.7891
847.1370, 202.8223
848.2700, 189.8301
849.4040, 303.8096
850.5370, 232.7627
851.6700, 199.6904
852.8030, 233.5908
853.9360, 382.4648
855.0680, 238.3125
856.2000, 273.1348
857.3330, 363.9297
858.4650, 216.6992
859.5970, 402.1377
860.7290, 327.8564
861.8600, 381.7178
862.9920, 418.3867
864.1230, 413.0293
865.2540, 512.6475
866.3850, 339.6885
867.5160, 423.7666
868.6460, 308.7646
869.7770, 470.9941
870.9070, 522.3975
872.0370, 474.5654
873.1670, 676.9717
874.2970, 610.4414
875.4270, 531.5059
876.5570, 523.9287
877.6860, 622.3438
878.8150, 599.6592
879.9440, 474.0449
881.0730, 689.3828
882.2020, 673.6104
883.3300, 929.5732
884.4590, 852.8467
885.5870, 855.0986
886.7150, 871.1885
887.8430, 949.8701
888.9710, 884.2090
890.0990, 1211.244
891.2260, 971.0527
892.3530, 1368.228
893.4810, 916.3457
894.6080, 1110.404
895.7340, 1285.982
896.8610, 1300.965
897.9880, 1265.901
899.1140, 1264.581
900.2400, 1338.611
901.3660, 1375.833
902.4920, 1457.688
903.6180, 1584.999
904.7430, 1614.479
905.8690, 1687.729
906.9940, 1739.628
908.1190, 1757.721
909.2440, 1828.280
910.3690, 2040.340
911.4930, 2090.229
912.6180, 2157.742
913.7420, 2429.102
914.8660, 2336.849
915.9900, 2682.797
917.1140, 2678.647
918.2380, 3045.149
919.3610, 2997.658
920.4850, 3460.125
921.6080, 3608.708
922.7310, 3844.932
923.8540, 4232.615
924.9760, 4519.795
926.0990, 4741.570
927.2210, 5294.662
928.3440, 5698.066
929.4660, 6139.516
930.5880, 6735.667
931.7090, 7345.446
932.8310, 7956.178
933.9520, 8864.356
935.0740, 9689.424
936.1950, 10447.87
937.3160, 11323.72
938.4360, 11862.41
939.5570, 12739.19
940.6780, 13441.39
941.7980, 14404.60
942.9180, 15641.42
944.0380, 16860.09
945.1580, 18360.70
946.2780, 20233.48
947.3970, 21792.17
948.5170, 23522.92
949.6360, 24810.85
950.7550, 26439.54
951.8740, 26906.16
952.9930, 26974.64
954.1110, 27109.46
955.2300, 26225.23
956.3480, 26231.67
957.4660, 25722.59
958.5840, 25147.84
959.7020, 25425.36
960.8190, 25635.35
961.9370, 25055.16
963.0540, 24148.97
964.1710, 22419.78
965.2880, 20386.56
966.4050, 18382.34
967.5220, 16362.84
968.6380, 14160.24
969.7550, 12390.77
970.8710, 10808.29
971.9870, 9346.885
973.1030, 8185.531
974.2190, 7348.010
975.3340, 6472.667
976.4500, 5747.131
977.5650, 5200.023
978.6800, 4626.818
979.7950, 4304.617
980.9100, 4017.035
982.0250, 3716.833
983.1390, 3570.630
984.2530, 3272.426
985.3680, 3118.223
986.4820, 3193.021
987.5950, 3021.818
988.7090, 3064.615
989.8230, 3212.415
990.9360, 3465.215
992.0490, 3787.018
993.1620, 4267.820
994.2750, 4894.627
995.3880, 5877.436
996.5010, 7004.260
997.6130, 8087.077
998.7250, 8944.894
999.8370, 9888.711
1000.949, 10225.24
1002.061, 10115.08
1003.173, 9376.332
1004.284, 8286.191
1005.396, 6779.109
1006.507, 5864.396
1007.618, 4783.301
1008.729, 3836.168
1009.839, 3269.087
1010.950, 2842.961
1012.060, 2395.004
1013.171, 2013.789
1014.281, 1817.727
1015.391, 1586.834
1016.500, 1545.737
1017.610, 1270.742
1018.719, 1114.718
1019.829, 1166.637
1020.938, 1050.562
1022.047, 999.6416
1023.156, 982.9785
1024.264, 930.5566
1025.373, 889.7305
1026.481, 774.7168
1027.589, 683.9971
1028.697, 695.1426
1029.805, 493.3506
1030.913, 538.3584
1032.020, 508.5078
1033.128, 469.7822
1034.235, 428.9316
1035.342, 311.2188
1036.449, 472.1670
1037.556, 269.3066
1038.663, 348.4326
1039.769, 266.5059
1040.875, 392.6631
1041.981, 356.4004
1043.087, 369.8838
1044.193, 320.0693
1045.299, 302.8594
1046.404, 347.4629
1047.510, 276.7148
1048.615, 244.3086
1049.720, 217.6006
1050.825, 239.8389
1051.930, 266.5791
1053.034, 332.9297
1054.139, 282.2920
1055.243, 351.9834
1056.347, 267.3623
1057.451, 209.7314
1058.555, 442.6680
1059.658, 124.4736
1060.762, 341.7500
1061.865, 206.3818
1062.968, 237.7559
1064.071, 47.41016
1065.174, 240.0381
1066.277, 223.6514
1067.380, 280.5762
1068.482, 135.8945
1069.584, 174.6973
1070.686, 73.35156
1071.788, 144.0762
1072.890, 35.82617
1073.992, 63.58203
1075.093, 205.7051
1076.194, 118.4629
1077.295, 153.3398
1078.396, 116.1035
1079.497, 14.25000
1080.598, 76.77148
1081.698, 16.43164
1082.799, 114.6113
1083.899, 40.41016
1084.999, 204.2266
1086.099, 146.0469
1087.199, 314.9023
1088.298, 262.9434
1089.398, 43.19531
1090.497, 72.65234
1091.596, 29.50586
1092.695, 7.640625
1093.794, 213.2090
1094.892, 128.0625
1095.991, 63.20117
1097.089, 120.0645
1098.187, 43.03906
1099.285, 116.7754
1100.383, 39.63672
1101.481, 42.49805
1102.579, 150.3574
1103.676, 51.22266
1104.773, 3.857422
1105.870, 73.72070
1106.967, 23.66602
1108.064, 215.7012
1109.161, 66.56641
1110.257, 74.42969
1111.353, 144.2949
1112.449, 62.83984
1113.545, 60.99609
1114.641, 209.8340
1115.737, 100.6699
1116.832, 86.50977
1117.928, 105.3496
1119.023, 77.18945
1120.118, 47.02930
1121.213, 92.96680
1122.308, 69.70508
1123.402, 128.7598
1124.497, 150.6621
1125.591, 76.49414
1126.685, 134.4414
1127.779, 41.30664
1128.873, 61.13867
1129.967, 80.99805
1131.060, 77.82812
1132.153, 37.28320
1133.247, 246.5273
1134.340, 6.664063
1135.433, 86.13672
1136.525, 38.93555
1137.618, 126.2676
1138.710, 46.54492
1139.802, 146.2695
1140.895, 45.99219
1141.987, 66.71875
1143.078, 22.44336
1144.170, 15.80664
1145.261, 51.93164
1146.353, 13.25781
1147.444, 138.3984
1148.535, 43.12891
1149.626, 52.20312
1150.716, 121.1348
1151.807, 107.8516
1152.897, 34.43359
1153.988, 86.25781
1155.078, 104.0469
1156.168, 22.72656
1157.257, 118.6348
1158.347, 81.69141
1159.436, 39.92969
1160.526, 27.76758
1161.615, 78.38477
1162.704, 47.00195
1163.793, 25.75000
1164.881, 57.21094
1165.970, 13.19336
1167.058, 118.6152
1168.147, 57.11133
1169.235, 98.35547
1170.323, 38.17188
1171.410, 148.3105
1172.498, 1.783203
1173.585, 17.24609
1174.673, 100.6973
1175.760, 3.191406
1176.847, 9.625000
1177.934, 145.0488
1179.020, 15.80469
1180.107, 95.87109
1181.193, 21.73047
1182.279, 60.64062
1183.365, 248.0117
1184.451, 162.3730
1185.537, 149.2715
1186.623, 162.9863
1187.708, 62.76562
1188.793, 7.564453
1189.878, 23.69531
1190.963, 11.14062
1192.048, 81.99609
1193.133, 122.8770
1194.217, 80.16797
1195.302, 93.20117
1196.386, 214.2246
1197.470, 42.24609
1198.554, 22.74414
1199.638, 77.22852
1200.721, 26.80078
1201.805, 154.1328
1202.888, 240.0566
1203.971, 154.9727
1205.054, 29.87500
1206.137, 144.7656
1207.219, 90.64453
1208.302, 188.5352
1209.384, 34.41211
1210.466, 67.72266
1211.548, 122.0820
1212.630, 62.57227
1213.712, 239.3516
1214.794, 146.1211
1215.875, 173.8809
1216.956, 115.9844
1218.037, 73.08984
1219.118, 124.8125
1220.199, 166.3125
1221.280, 227.0098
1222.360, 161.6953
1223.441, 202.1934
1224.521, 179.8574
1225.601, 61.35352
1226.681, 127.9902
1227.760, 167.6152
1228.840, 335.2285
1229.919, 278.3789
1230.999, 178.9688
1232.078, 317.5430
1233.157, 221.5391
1234.236, 20.08984
1235.314, 249.5430
1236.393, 76.06055
1237.471, 156.5605
1238.549, 139.0527
1239.627, 256.5312
1240.705, 221.9961
1241.783, 167.4492
1242.860, 235.2676
1243.938, 211.7852
1245.015, 205.3945
1246.092, 237.3086
1247.169, 268.4492
1248.246, 248.8242
1249.323, 225.5293
1250.399, 211.0527
1251.475, 197.5859
1252.552, 90.70312
1253.628, 127.0254
1254.703, 248.3379
1255.779, 117.2305
1256.855, 137.5137
1257.930, 187.0488
1259.005, 140.1680
1260.080, 152.4082
1261.155, 133.6328
1262.230, 147.1426
1263.305, 155.3379
1264.379, 313.1016
1265.454, 243.2676
1266.528, 292.3594
1267.602, 123.0742
1268.676, 233.1875
1269.750, 267.4375
1270.823, 316.4980
1271.897, 277.8848
1272.970, 258.9102
1274.043, 214.6211
1275.116, 295.6152
1276.189, 178.7148
1277.261, 244.9746
1278.334, 69.99805
1279.406, 104.1660
1280.478, 269.1211
1281.550, 390.0586
1282.622, 290.8340
1283.694, 129.7422
1284.766, 255.6348
1285.837, 99.34961
1286.908, 236.4629
1287.979, 179.2754
1289.050, 101.3379
1290.121, 242.3887
1291.192, 308.4453
1292.262, 210.0879
1293.333, 173.6230
1294.403, 263.2676
1295.473, 320.7695
1296.543, 305.3301
1297.613, 367.2363
1298.682, 373.4141
1299.752, 238.1367
1300.821, 398.7910
1301.890, 318.8613
1302.959, 318.1816
1304.028, 142.7949
1305.096, 274.8379
1306.165, 210.1016
1307.233, 392.6699
1308.301, 229.1875
1309.370, 331.7207
1310.437, 264.3359
1311.505, 312.2715
1312.573, 442.7617
1313.640, 377.2305
1314.708, 402.3691
1315.775, 246.8184
1316.842, 433.3125
1317.908, 122.2363
1318.975, 308.3125
1320.042, 459.9375
1321.108, 311.3730
1322.174, 377.9160
1323.240, 359.1758
1324.306, 418.9062
1325.372, 259.2441
1326.438, 324.5723
