##NAMES=Kyanite
##RRUFFID=R050450
##IDEAL CHEMISTRY=Al_2_OSiO_4_
##LOCALITY=Switzerland
##OWNER=RRUFF
##SOURCE=Marcus Origlieri
##DESCRIPTION=Blue bladed crystals
##STATUS=The identification of this mineral has been confirmed by X-ray diffraction and chemical analysis
##URL=rruff.info/R050450
##MEASURED CHEMISTRY=Al_2.00_OSi_1.00_O_4_
##PIN_ID=M01855
##ORIENTATION=Laser parallel to (1 1 0). Fiducial mark perpendicular to laser is parallel to c [0 0 1]
148.7160, 0.0000000E+00
149.9470, 0.6582030
151.1780, 130.5449
152.4080, 85.79688
153.6380, 130.6851
154.8690, 120.6987
156.0980, 54.04883
157.3280, 69.46338
158.5580, 9.855469
159.7870, 59.29395
161.0170, 41.72168
162.2460, 85.56348
163.4750, 64.18018
164.7030, 209.4019
165.9320, 139.8774
167.1600, 244.0117
168.3890, 196.5034
169.6170, 179.0259
170.8450, 339.7817
172.0730, 270.2637
173.3000, 442.6255
174.5280, 294.0088
175.7550, 350.7725
176.9820, 361.0054
178.2090, 283.6816
179.4350, 272.4043
180.6620, 190.9160
181.8880, 182.2617
183.1150, 66.68896
184.3410, 11.20410
185.5670, 32.82666
186.7920, 62.80615
188.0180, 22.75098
189.2430, 53.32422
190.4690, 5.589844
191.6940, 62.49756
192.9180, 32.50195
194.1430, 3.733887
195.3680, 69.04883
196.5920, 232.8481
197.8160, 295.6631
199.0400, 301.4980
200.2640, 396.3564
201.4880, 550.0190
202.7110, 635.0337
203.9350, 1013.129
205.1580, 1228.540
206.3810, 1563.154
207.6040, 1621.347
208.8270, 1572.781
210.0490, 1061.832
211.2710, 924.0049
212.4940, 380.3057
213.7160, 116.7290
214.9370, 202.2676
216.1590, 77.91602
217.3810, 132.6733
218.6020, 341.5347
219.8230, 276.4995
221.0440, 285.5654
222.2650, 511.7388
223.4860, 782.0288
224.7060, 1019.426
225.9260, 1233.919
227.1470, 1198.497
228.3670, 1151.148
229.5860, 990.8677
230.8060, 499.6538
232.0260, 360.5020
233.2450, 75.39990
234.4640, 25.34033
235.6830, 6.325195
236.9020, 37.64648
238.1200, 49.42676
239.3390, 20.53906
240.5570, 83.64062
241.7750, 142.7651
242.9930, 286.8452
244.2110, 390.8823
245.4290, 400.9365
246.6460, 388.0420
247.8630, 401.2002
249.0810, 400.4121
250.2980, 296.6729
251.5140, 338.9824
252.7310, 282.3398
253.9470, 120.7451
255.1640, 82.19922
256.3800, 122.2979
257.5960, 174.7461
258.8120, 40.14404
260.0270, 88.50781
261.2430, 7.789551
262.4580, 126.0366
263.6730, 143.7676
264.8880, 27.02344
266.1030, 287.5195
267.3170, 76.51221
268.5320, 125.5547
269.7460, 191.8960
270.9600, 236.5000
272.1740, 327.3896
273.3880, 448.5127
274.6010, 863.7656
275.8150, 1253.032
277.0280, 1678.213
278.2410, 1855.422
279.4540, 1840.613
280.6670, 1509.835
281.8790, 1162.071
283.0920, 674.3452
284.3040, 662.6567
285.5160, 678.0068
286.7280, 860.3940
287.9400, 1343.819
289.1510, 1909.282
290.3630, 2963.783
291.5740, 4346.321
292.7850, 5742.896
293.9960, 6564.509
295.2070, 6413.372
296.4170, 7167.676
297.6280, 9662.128
298.8380, 12903.48
300.0480, 17129.72
301.2580, 19969.86
302.4680, 20249.89
303.6770, 17409.91
304.8870, 12804.49
306.0960, 8169.254
307.3050, 4670.801
308.5140, 2586.481
309.7230, 1442.012
310.9310, 1050.715
312.1400, 811.3784
313.3480, 812.8867
314.5560, 1215.346
315.7640, 1872.574
316.9720, 2707.676
318.1790, 3682.750
319.3870, 3902.863
320.5940, 4641.018
321.8010, 6419.208
323.0080, 8965.432
324.2150, 11861.68
325.4210, 14010.96
326.6280, 14498.28
327.8340, 12612.62
329.0400, 9480.371
330.2460, 6173.496
331.4510, 3574.840
332.6570, 1916.797
333.8620, 1125.106
335.0680, 628.1636
336.2730, 437.0483
337.4780, 389.8320
338.6820, 536.7261
339.8870, 714.2793
341.0910, 837.7344
342.2950, 957.4658
343.5000, 816.2349
344.7030, 649.0405
345.9070, 505.8833
347.1110, 347.7627
348.3140, 356.6128
349.5170, 517.3877
350.7200, 859.2012
351.9230, 1453.995
353.1260, 1734.823
354.3290, 1932.667
355.5310, 2495.553
356.7330, 3540.480
357.9350, 4863.448
359.1370, 6367.458
360.3390, 7202.505
361.5400, 7019.543
362.7420, 6072.669
363.9430, 4246.836
365.1440, 2881.040
366.3450, 1729.283
367.5460, 1586.562
368.7460, 1775.880
369.9470, 2185.234
371.1470, 2782.624
372.3470, 3357.052
373.5470, 4107.514
374.7460, 5305.015
375.9460, 6745.548
377.1450, 8664.117
378.3450, 9967.723
379.5440, 10463.36
380.7430, 12161.00
381.9410, 14874.11
383.1400, 18966.86
384.3380, 22442.48
385.5370, 24644.68
386.7350, 23374.27
387.9320, 20411.25
389.1300, 18033.51
390.3280, 16349.10
391.5250, 16013.22
392.7220, 15875.38
393.9190, 14651.03
395.1160, 12612.39
396.3130, 10413.00
397.5100, 8372.607
398.7060, 7320.923
399.9020, 7941.116
401.0980, 10041.80
402.2940, 13024.31
403.4900, 15720.63
404.6860, 16755.94
405.8810, 15630.16
407.0760, 12326.19
408.2710, 8574.584
409.4660, 5485.519
410.6610, 3195.966
411.8550, 1852.213
413.0500, 1055.715
414.2440, 703.2422
415.4380, 429.7944
416.6320, 415.3701
417.8260, 267.9683
419.0190, 221.5879
420.2130, 252.2285
421.4060, 262.8911
422.5990, 255.5752
423.7920, 249.2812
424.9850, 551.0083
426.1770, 813.7568
427.3700, 1508.527
428.5620, 2025.318
429.7540, 3102.132
430.9460, 4260.966
432.1380, 5828.831
433.3290, 7481.715
434.5210, 9522.631
435.7120, 12279.56
436.9030, 14481.52
438.0940, 15837.49
439.2850, 15855.48
440.4750, 14358.49
441.6660, 11571.51
442.8560, 8773.548
444.0460, 6783.605
445.2360, 5894.681
446.4260, 6020.775
447.6160, 6369.887
448.8050, 6604.020
449.9940, 6031.172
451.1830, 4898.345
452.3720, 3632.537
453.5610, 2437.749
454.7500, 1590.982
455.9380, 1152.235
457.1260, 1059.512
458.3150, 1092.811
459.5020, 1165.135
460.6900, 1472.491
461.8780, 1795.878
463.0650, 2211.307
464.2530, 2675.784
465.4400, 3110.291
466.6270, 3179.833
467.8130, 3128.407
469.0000, 2874.007
470.1870, 2640.628
471.3730, 2577.271
472.5590, 2692.963
473.7450, 3279.697
474.9310, 4227.470
476.1160, 5699.301
477.3020, 8501.189
478.4870, 12015.16
479.6720, 16164.20
480.8570, 19535.31
482.0420, 24464.50
483.2270, 32290.72
484.4110, 41795.00
485.5960, 50138.29
486.7800, 54774.61
487.9640, 53086.97
489.1480, 46178.34
490.3310, 36328.73
491.5150, 27719.17
492.6980, 20778.63
493.8810, 15890.12
495.0640, 12493.64
496.2470, 9877.191
497.4300, 7323.795
498.6120, 5466.417
499.7950, 4119.062
500.9770, 3197.725
502.1590, 2527.421
503.3410, 2162.134
504.5220, 1875.900
505.7040, 1574.682
506.8850, 1417.479
508.0660, 1351.310
509.2470, 1323.156
510.4280, 1238.037
511.6090, 1125.931
512.7890, 1045.226
513.9700, 947.7832
515.1500, 814.7339
516.3300, 604.6973
517.5100, 454.6729
518.6900, 384.6606
519.8690, 195.6592
521.0490, 200.6709
522.2280, 104.6948
523.4070, 2.270508
524.5860, 20.77832
525.7640, 99.16309
526.9430, 6.141113
528.1210, 38.11670
529.3000, 244.1021
530.4780, 215.2012
531.6560, 171.4014
532.8330, 162.6802
534.0110, 210.0327
535.1880, 232.4854
536.3650, 179.0503
537.5430, 68.69971
538.7190, 117.3770
539.8960, 21.10742
541.0730, 16.15479
542.2490, 9.422363
543.4250, 242.7178
544.6020, 318.0576
545.7780, 358.4072
546.9530, 293.7617
548.1290, 270.1221
549.3040, 110.5103
550.4800, 95.90381
551.6550, 120.3037
552.8300, 49.70752
554.0040, 141.1357
555.1790, 184.7451
556.3540, 324.2729
557.5280, 573.7275
558.7020, 723.1567
559.8760, 1118.589
561.0500, 1475.023
562.2230, 1937.460
563.3970, 2145.897
564.5700, 1959.337
565.7430, 1758.778
566.9160, 1218.221
568.0890, 788.6636
569.2620, 648.1074
570.4340, 364.8433
571.6070, 415.4058
572.7790, 272.6284
573.9510, 204.2148
575.1230, 156.2422
576.2940, 116.5747
577.4660, 108.2163
578.6370, 151.6567
579.8080, 200.0957
580.9790, 312.5337
582.1500, 437.9697
583.3210, 451.4033
584.4910, 482.8340
585.6620, 700.2637
586.8320, 646.6895
588.0020, 645.1123
589.1720, 622.5327
590.3410, 500.9492
591.5110, 526.3628
592.6800, 402.7720
593.8500, 557.1777
595.0190, 554.7124
596.1880, 740.2129
597.3560, 912.2603
598.5250, 1152.944
599.6930, 1526.034
600.8620, 1778.361
602.0300, 1970.620
603.1970, 2486.248
604.3650, 3096.502
605.5330, 3143.630
606.7000, 3413.869
607.8680, 3374.291
609.0350, 3153.687
610.2020, 2968.108
611.3680, 2590.667
612.5350, 2481.747
613.7010, 2341.558
614.8680, 2543.706
616.0340, 2812.391
617.2000, 3074.833
618.3660, 3162.927
619.5310, 3173.174
620.6970, 3010.990
621.8620, 3000.968
623.0270, 3044.398
624.1920, 3046.359
625.3570, 3212.737
626.5220, 3295.447
627.6860, 3410.442
628.8500, 3614.444
630.0140, 3957.145
631.1780, 4207.276
632.3420, 4327.701
633.5060, 4713.292
634.6700, 5325.801
635.8330, 5987.177
636.9960, 6393.374
638.1590, 6387.584
639.3220, 6137.633
640.4850, 5583.122
641.6470, 4760.025
642.8100, 4175.979
643.9720, 3811.836
645.1340, 3485.963
646.2960, 3540.081
647.4570, 3727.862
648.6190, 4110.125
649.7800, 4361.357
650.9420, 4907.189
652.1030, 5581.491
653.2640, 6218.303
654.4240, 6802.959
655.5850, 7237.938
656.7450, 7485.546
657.9060, 7292.239
659.0660, 6660.808
660.2260, 5681.728
661.3850, 4623.555
662.5450, 3740.040
663.7040, 2949.325
664.8640, 2406.759
666.0230, 2074.320
667.1820, 1836.319
668.3410, 1647.960
669.4990, 1565.323
670.6580, 1376.292
671.8160, 1331.936
672.9740, 1081.060
674.1320, 1000.145
675.2900, 725.7588
676.4480, 589.6689
677.6050, 488.3340
678.7630, 592.0073
679.9200, 432.9873
681.0770, 485.0967
682.2340, 488.1851
683.3900, 376.2524
684.5470, 485.2993
685.7030, 377.3242
686.8590, 402.3281
688.0150, 371.3096
689.1710, 240.2705
690.3270, 239.2085
691.4830, 135.1250
692.6380, 125.0200
693.7930, 82.89258
694.9480, 103.7402
696.1030, 122.5654
697.2580, 214.3672
698.4130, 213.1470
699.5670, 391.9038
700.7210, 362.6387
701.8750, 356.3511
703.0290, 376.0400
704.1830, 261.7065
705.3370, 249.4658
706.4900, 262.9712
707.6430, 171.5693
708.7970, 70.14502
709.9490, 105.6938
711.1020, 13.21875
712.2550, 100.7026
713.4070, 17.16162
714.5600, 164.5820
715.7120, 113.9790
716.8640, 161.3516
718.0160, 299.7012
719.1670, 358.0269
720.3190, 334.3301
721.4700, 523.6094
722.6210, 672.8657
723.7720, 664.0981
724.9230, 784.3071
726.0740, 748.4927
727.2250, 712.6543
728.3750, 551.7930
729.5250, 374.9077
730.6750, 384.9995
731.8250, 209.0674
732.9750, 105.1118
734.1240, 112.1309
735.2740, 44.12598
736.4230, 71.09033
737.5720, 41.19775
738.7210, 6.937500
739.8700, 7.801758
741.0190, 30.37451
742.1670, 56.61426
743.3150, 9.071289
744.4630, 9.284668
745.6110, 3.310059
746.7590, 24.86084
747.9070, 110.3779
749.0540, 74.87158
750.2020, 56.65967
751.3490, 11.73535
752.4960, 10.90820
753.6430, 99.60059
754.7890, 80.38867
755.9360, 107.2622
757.0820, 142.2354
758.2280, 72.32568
759.3740, 107.4961
760.5200, 51.76465
761.6660, 45.10205
762.8120, 12.49561
763.9570, 10.94092
765.1020, 0.4238280
766.2470, 19.05371
767.3920, 2.500488
768.5370, 53.08984
769.6810, 44.25293
770.8260, 30.42822
771.9700, 14.16357
773.1140, 28.94336
774.2580, 106.7754
775.4020, 53.30078
776.5460, 5.020508
777.6890, 21.09961
778.8320, 42.62744
779.9750, 89.31250
781.1180, 123.7686
782.2610, 38.05225
783.4040, 34.85156
784.5460, 46.37061
785.6890, 15.35107
786.8310, 55.95020
787.9730, 68.68848
789.1150, 11.69189
790.2560, 21.10498
791.3980, 98.44238
792.5390, 15.97607
793.6810, 125.4888
794.8220, 56.98535
795.9630, 78.46924
797.1030, 5.943359
798.2440, 10.39600
799.3840, 115.8291
800.5240, 61.24561
801.6650, 106.6475
802.8040, 83.03369
803.9440, 81.42676
805.0840, 57.80762
806.2230, 32.18262
807.3630, 116.6021
808.5020, 165.0605
809.6410, 174.5483
810.7790, 97.06299
811.9180, 123.6162
813.0570, 94.21533
814.1950, 209.8457
815.3330, 139.4795
816.4710, 146.1294
817.6090, 305.7729
818.7470, 265.4028
819.8840, 226.0220
821.0220, 332.6265
822.1590, 300.2192
823.2960, 311.7983
824.4330, 329.3657
825.5690, 409.9199
826.7060, 313.4624
827.8420, 403.9922
828.9790, 428.5107
830.1150, 344.0068
831.2510, 373.3135
832.3860, 312.6934
833.5220, 515.1387
834.6570, 415.6001
835.7930, 437.0508
836.9280, 344.4897
838.0630, 539.9194
839.1980, 602.3384
840.3320, 605.7476
841.4670, 697.1465
842.6010, 659.5361
843.7350, 689.9155
844.8690, 849.2852
846.0030, 856.3555
847.1370, 796.5879
848.2700, 850.1523
849.4040, 945.3447
850.5370, 1002.086
851.6700, 965.4038
852.8030, 1012.624
853.9360, 1161.926
855.0680, 1391.219
856.2000, 1459.506
857.3330, 1640.785
858.4650, 1559.057
859.5970, 1815.323
860.7290, 1936.582
861.8600, 1826.834
862.9920, 1783.079
864.1230, 1765.318
865.2540, 1748.552
866.3850, 1737.779
867.5160, 1782.770
868.6460, 1841.218
869.7770, 1875.299
870.9070, 1913.404
872.0370, 1918.987
873.1670, 2133.924
874.2970, 2162.463
875.4270, 2229.772
876.5570, 2523.175
877.6860, 2827.211
878.8150, 3260.646
879.9440, 3549.213
881.0730, 4114.664
882.2020, 4769.928
883.3300, 5471.216
884.4590, 6393.466
885.5870, 7366.589
886.7150, 8212.184
887.8430, 8905.060
888.9710, 9759.613
890.0990, 9775.639
891.2260, 10056.89
892.3530, 9382.491
893.4810, 8405.919
894.6080, 7501.770
895.7340, 6634.449
896.8610, 5937.665
897.9880, 5635.339
899.1140, 5474.584
900.2400, 5147.488
901.3660, 4912.094
902.4920, 4674.690
903.6180, 4373.578
904.7430, 4108.023
905.8690, 3614.163
906.9940, 3266.126
908.1190, 2954.160
909.2440, 2910.316
910.3690, 2798.641
911.4930, 2505.047
912.6180, 2509.497
913.7420, 2418.495
914.8660, 2387.068
915.9900, 2441.580
917.1140, 2303.176
918.2380, 2534.510
919.3610, 2514.882
920.4850, 2795.534
921.6080, 2795.737
922.7310, 2940.916
923.8540, 3300.483
924.9760, 3348.901
926.0990, 3754.466
927.2210, 4266.120
928.3440, 4607.497
929.4660, 5065.436
930.5880, 5793.281
931.7090, 6487.665
932.8310, 7025.104
933.9520, 8134.633
935.0740, 8805.493
936.1950, 9774.341
937.3160, 10845.25
938.4360, 11590.18
939.5570, 12521.12
940.6780, 13302.04
941.7980, 14158.89
942.9180, 15252.90
944.0380, 16048.93
945.1580, 16749.98
946.2780, 17308.05
947.3970, 17721.14
948.5170, 17825.23
949.6360, 17998.34
950.7550, 18269.46
951.8740, 18454.60
952.9930, 19071.75
954.1110, 19769.91
955.2300, 20739.08
956.3480, 21913.27
957.4660, 23040.46
958.5840, 24190.68
959.7020, 25070.90
960.8190, 25837.14
961.9370, 26129.39
963.0540, 25355.66
964.1710, 24031.94
965.2880, 21829.23
966.4050, 19588.54
967.5220, 17251.86
968.6380, 15000.20
969.7550, 12737.55
970.8710, 10994.92
971.9870, 9468.348
973.1030, 8374.740
974.2190, 7054.148
975.3340, 6205.571
976.4500, 5442.007
977.5650, 4874.459
978.6800, 4272.924
979.7950, 3827.405
980.9100, 3307.901
982.0250, 3046.414
983.1390, 2760.950
984.2530, 2711.501
985.3680, 2431.075
986.4820, 2421.665
987.5950, 2424.270
988.7090, 2295.889
989.8230, 2294.524
990.9360, 2304.176
992.0490, 2533.841
993.1620, 2821.521
994.2750, 3151.218
995.3880, 3792.929
996.5010, 4410.656
997.6130, 5172.398
998.7250, 6101.156
999.8370, 6812.929
1000.949, 7364.719
1002.061, 7278.053
1003.173, 7381.743
1004.284, 6351.578
1005.396, 5231.967
1006.507, 4082.838
1007.618, 3211.898
1008.729, 2661.492
1009.839, 2197.204
1010.950, 1996.000
1012.060, 1633.493
1013.171, 1510.468
1014.281, 1270.193
1015.391, 1150.290
1016.500, 1001.533
1017.610, 1012.654
1018.719, 977.7227
1019.829, 962.8730
1020.938, 976.7896
1022.047, 957.6968
1023.156, 1008.077
1024.264, 970.3623
1025.373, 729.6914
1026.481, 675.0718
1027.589, 666.5122
1028.697, 634.9946
1029.805, 396.5269
1030.913, 503.0952
1032.020, 316.6973
1033.128, 246.3188
1034.235, 276.9644
1035.342, 313.1079
1036.449, 139.7925
1037.556, 214.4971
1038.663, 136.2363
1039.769, 25.98926
1040.875, 94.77051
1041.981, 44.57568
1043.087, 102.4077
1044.193, 9.711914
1045.299, 41.17969
1046.404, 158.0889
1047.510, 121.0132
1048.615, 78.96680
1049.720, 30.93213
1050.825, 2.221680
1051.930, 4.110840
1053.034, 129.8052
1054.139, 3.125000
1055.243, 35.95605
1056.347, 22.40576
1057.451, 22.47021
1058.555, 52.66846
1059.658, 46.17090
1060.762, 49.99023
1061.865, 14.38965
1062.968, 52.33545
1064.071, 63.13135
1065.174, 64.33008
1066.277, 52.28516
1067.380, 89.18018
1068.482, 55.14502
1069.584, 106.3584
1070.686, 118.5801
1071.788, 147.8721
1072.890, 53.61865
1073.992, 208.1050
1075.093, 150.7046
1076.194, 114.0327
1077.295, 329.9062
1078.396, 287.6929
1079.497, 425.9766
1080.598, 466.2666
1081.698, 546.5645
1082.799, 477.8687
1083.899, 578.1797
1084.999, 573.4961
1086.099, 525.8203
1087.199, 356.1504
1088.298, 351.4868
1089.398, 348.8291
1090.497, 288.1772
1091.596, 263.5317
1092.695, 258.8916
1093.794, 175.2573
1094.892, 218.6289
1095.991, 112.0063
1097.089, 178.3892
1098.187, 206.7769
1099.285, 104.1699
1100.383, 43.56885
1101.481, 142.9727
1102.579, 111.3813
1103.676, 0.2055660
1104.773, 43.21191
1105.870, 150.6333
1106.967, 132.0601
1108.064, 306.4907
1109.161, 282.9258
1110.257, 126.3652
1111.353, 267.8091
1112.449, 228.2568
1113.545, 128.7090
1114.641, 245.1641
1115.737, 274.6230
1116.832, 200.0864
1117.928, 207.5532
1119.023, 218.0229
1120.118, 220.4961
1121.213, 359.9722
1122.308, 208.4517
1123.402, 252.9341
1124.497, 309.4199
1125.591, 108.9082
1126.685, 249.3994
1127.779, 139.8936
1128.873, 120.3906
1129.967, 166.8901
1131.060, 56.39258
1132.153, 117.8975
1133.247, 141.4043
1134.340, 3.086914
1135.433, 16.41992
1136.525, 120.0718
1137.618, 46.37256
1138.710, 65.18164
1139.802, 56.77100
1140.895, 121.3926
1141.987, 42.07959
1143.078, 115.7920
1144.170, 58.56787
1145.261, 4.378906
1146.353, 10.19678
1147.444, 12.02490
1148.535, 59.13672
1149.626, 71.70117
1150.716, 82.41992
1151.807, 67.45898
1152.897, 98.37988
1153.988, 41.31787
1155.078, 58.71533
1156.168, 31.74805
1157.257, 58.78223
1158.347, 73.81494
1159.436, 78.94824
1160.526, 67.87793
1161.615, 98.90723
1162.704, 108.9346
1163.793, 92.95996
1164.881, 134.9829
1165.970, 9.995605
1167.058, 43.00781
1168.147, 61.00879
1169.235, 45.00684
1170.323, 152.0029
1171.410, 156.9956
1172.498, 130.9854
1173.585, 74.97217
1174.673, 82.95459
1175.760, 189.8276
1176.847, 201.8032
1177.934, 114.7754
1179.020, 184.7432
1180.107, 132.7070
1181.193, 1.333008
1182.279, 89.59717
1183.365, 4.519043
1184.451, 169.3989
1185.537, 77.26709
1186.623, 18.17529
1187.708, 48.07422
1188.793, 120.6396
1189.878, 90.52881
1190.963, 100.4673
1192.048, 17.65479
1193.133, 8.001953
1194.217, 11.35156
1195.302, 80.14795
1196.386, 8.602539
1197.470, 10.33984
1198.554, 70.93652
1199.638, 62.73145
1200.721, 156.3940
1201.805, 58.05078
1202.888, 14.70264
1203.971, 13.65820
1205.054, 31.04541
1206.137, 10.46826
1207.219, 2.916504
1208.302, 17.63184
1209.384, 52.13281
1210.466, 90.64551
1211.548, 51.15283
1212.630, 116.6538
1213.712, 129.1494
1214.794, 242.6392
1215.875, 121.1226
1216.956, 191.6001
1218.037, 160.0718
1219.118, 189.5376
1220.199, 169.1763
1221.280, 202.4512
1222.360, 129.8984
1223.441, 124.3398
1224.521, 152.7754
1225.601, 175.2051
1226.681, 115.6279
1227.760, 306.0449
1228.840, 199.4561
1229.919, 320.8604
1230.999, 194.2588
1232.078, 353.6504
1233.157, 352.0361
1234.236, 353.3662
1235.314, 422.7388
1236.393, 462.1050
1237.471, 472.4644
1238.549, 520.8169
1239.627, 545.1636
1240.705, 515.5029
1241.783, 492.8364
1242.860, 381.1641
1243.938, 563.4854
1245.015, 450.8003
1246.092, 624.1084
1247.169, 530.4111
1248.246, 560.7075
1249.323, 493.9976
1250.399, 453.2827
1251.475, 586.5625
1252.552, 525.8447
1253.628, 485.1396
1254.703, 557.4487
1255.779, 455.7603
1256.855, 564.0693
1257.930, 549.3755
1259.005, 566.6772
1260.080, 627.9727
1261.155, 686.2642
1262.230, 664.5493
1263.305, 748.8291
1264.379, 736.7178
1265.454, 686.0000
1266.528, 754.7417
1267.602, 758.0137
1268.676, 894.1064
1269.750, 879.6821
1270.823, 981.3057
1271.897, 875.8457
1272.970, 990.6182
1274.043, 926.9131
1275.116, 863.4810
1276.189, 922.7021
1277.261, 779.0703
1278.334, 774.2944
1279.406, 938.9819
1280.478, 689.1982
1281.550, 704.6826
1282.622, 728.1602
1283.694, 527.2207
1284.766, 638.4209
1285.837, 524.9604
1286.908, 559.1528
1287.979, 592.4424
1289.050, 555.6250
1290.121, 798.8027
1291.192, 667.9746
1292.262, 845.1416
1293.333, 909.3022
1294.403, 830.4575
1295.473, 883.1318
1296.543, 745.2764
1297.613, 827.4150
1298.682, 822.5483
1299.752, 799.6753
1300.821, 821.7983
1301.890, 766.9146
1302.959, 824.0239
1304.028, 780.1279
1305.096, 864.2251
1306.165, 799.3164
1307.233, 1000.400
1308.301, 1121.479
1309.370, 1012.549
1310.437, 1091.341
1311.505, 975.3979
1312.573, 980.9351
1313.640, 1139.977
1314.708, 1102.018
1315.775, 1122.718
1316.842, 1036.752
1317.908, 1144.785
1318.975, 1080.817
1320.042, 980.8506
1321.108, 1007.436
1322.174, 852.5933
1323.240, 804.6040
1324.306, 911.3594
1325.372, 860.6313
1326.438, 640.9736
