##NAMES=Kyanite
##RRUFFID=R050450
##IDEAL CHEMISTRY=Al_2_OSiO_4_
##LOCALITY=Switzerland
##OWNER=RRUFF
##SOURCE=Marcus Origlieri
##DESCRIPTION=Blue bladed crystals
##STATUS=The identification of this mineral has been confirmed by X-ray diffraction and chemical analysis
##URL=rruff.info/R050450
##MEASURED CHEMISTRY=Al_2.00_OSi_1.00_O_4_
##PIN_ID=M00770
##ORIENTATION=Laser parallel to (0 1 -1). Fiducial mark perpendicular to laser is parallel to -a [-1 0 0]
159.7870, 0.0000000E+00
161.0170, 1.155762
162.2460, 1.214355
163.4750, 57.44922
164.7030, 156.7876
165.9320, 146.5396
167.1600, 241.4741
168.3890, 121.6045
169.6170, 204.7876
170.8450, 195.9380
172.0730, 170.1440
173.3000, 148.9712
174.5280, 334.4683
175.7550, 378.2412
176.9820, 348.6582
178.2090, 387.9902
179.4350, 375.1294
180.6620, 426.1426
181.8880, 325.8867
183.1150, 214.4951
184.3410, 35.45312
185.5670, 3.657227
186.7920, 3.848633
188.0180, 138.6885
189.2430, 30.09277
190.4690, 35.51367
191.6940, 108.0796
192.9180, 95.89600
194.1430, 85.05371
195.3680, 136.6309
196.5920, 86.69482
197.8160, 159.3057
199.0400, 196.5176
200.2640, 203.0752
201.4880, 135.7207
202.7110, 291.9380
203.9350, 274.3203
205.1580, 362.3984
206.3810, 243.0967
207.6040, 281.9023
208.8270, 263.2402
210.0490, 284.2783
211.2710, 329.9756
212.4940, 341.3530
213.7160, 265.0352
214.9370, 297.9595
216.1590, 352.7461
217.3810, 571.6182
218.6020, 783.5928
219.8230, 820.6753
221.0440, 812.8589
222.2650, 913.1323
223.4860, 1185.485
224.7060, 1373.908
225.9260, 1582.402
227.1470, 1520.965
228.3670, 1485.597
229.5860, 1367.298
230.8060, 1036.068
232.0260, 687.9067
233.2450, 421.8242
234.4640, 368.8301
235.6830, 214.9224
236.9020, 114.1011
238.1200, 213.3613
239.3390, 51.70117
240.5570, 113.1162
241.7750, 186.6021
242.9930, 66.15771
244.2110, 110.7788
245.4290, 69.46387
246.6460, 94.20020
247.8630, 42.98877
249.0810, 41.99512
250.2980, 46.72559
251.5140, 25.67041
252.7310, 21.33594
253.9470, 23.29492
255.1640, 4.207520
256.3800, 147.0747
257.5960, 93.90186
258.8120, 20.69336
260.0270, 68.54297
261.2430, 29.57031
262.4580, 59.08984
263.6730, 205.5962
264.8880, 108.2539
266.1030, 96.88330
267.3170, 127.4824
268.5320, 6.948730
269.7460, 103.4131
270.9600, 235.9087
272.1740, 282.4395
273.3880, 386.0737
274.6010, 602.9678
275.8150, 846.1802
277.0280, 834.4883
278.2410, 942.9370
279.4540, 1114.391
280.6670, 1080.673
281.8790, 1369.097
283.0920, 1166.351
284.3040, 1166.604
285.5160, 1342.717
286.7280, 1415.720
287.9400, 1733.716
289.1510, 2336.751
290.3630, 3595.827
291.5740, 4490.941
292.7850, 5998.100
293.9960, 7449.293
295.2070, 8075.529
296.4170, 7768.804
297.6280, 8248.120
298.8380, 10178.48
300.0480, 12221.88
301.2580, 13043.32
302.4680, 13563.80
303.6770, 12827.33
304.8870, 10965.90
306.0960, 8209.798
307.3050, 5330.914
308.5140, 2870.167
309.7230, 1638.661
310.9310, 796.1738
312.1400, 651.7021
313.3480, 670.2344
314.5560, 761.7715
315.7640, 1007.313
316.9720, 1514.859
318.1790, 2218.410
319.3870, 2757.922
320.5940, 2889.433
321.8010, 3284.941
323.0080, 4089.451
324.2150, 5085.963
325.4210, 5427.474
326.6280, 5682.987
327.8340, 5426.504
329.0400, 4658.025
330.2460, 3433.540
331.4510, 2277.762
332.6570, 1178.757
333.8620, 564.2178
335.0680, 256.6074
336.2730, 109.9922
337.4780, 78.41797
338.6820, 182.8398
339.8870, 222.2598
341.0910, 205.6816
342.2950, 217.1074
343.5000, 175.7656
344.7030, 256.9805
345.9070, 87.42090
347.1110, 55.87207
348.3140, 50.33691
349.5170, 84.81055
350.7200, 431.2988
351.9230, 1048.752
353.1260, 1688.161
354.3290, 1944.365
355.5310, 2573.805
356.7330, 2625.756
357.9350, 3629.729
359.1370, 4210.561
360.3390, 4892.425
361.5400, 4933.334
362.7420, 4983.275
363.9430, 4440.259
365.1440, 3832.279
366.3450, 3035.337
367.5460, 2524.433
368.7460, 2318.564
369.9470, 2672.734
371.1470, 3022.942
372.3470, 3288.186
373.5470, 3558.467
374.7460, 3628.785
375.9460, 3740.138
377.1450, 3744.528
378.3450, 3951.955
379.5440, 3956.417
380.7430, 3968.914
381.9410, 4654.447
383.1400, 5613.015
384.3380, 6939.414
385.5370, 8193.468
386.7350, 8541.332
387.9320, 8125.643
389.1300, 8252.594
390.3280, 8812.975
391.5250, 9034.689
392.7220, 9075.332
393.9190, 8997.520
395.1160, 8730.085
396.3130, 8244.623
397.5100, 7417.679
398.7060, 6659.742
399.9020, 6915.844
401.0980, 6274.689
402.2940, 7586.711
403.4900, 8560.456
404.6860, 9119.580
405.8810, 8975.019
407.0760, 8020.205
408.2710, 6449.846
409.4660, 5061.722
410.6610, 3759.436
411.8550, 3052.354
413.0500, 2878.622
414.2440, 2777.016
415.4380, 2738.444
416.6320, 3216.912
417.8260, 3682.409
419.0190, 4036.935
420.2130, 4217.486
421.4060, 4067.066
422.5990, 3605.672
423.7920, 2741.305
424.9850, 2129.963
426.1770, 1692.651
427.3700, 1686.367
428.5620, 1872.110
429.7540, 2340.884
430.9460, 2999.694
432.1380, 3845.559
433.3290, 4531.453
434.5210, 5338.377
435.7120, 5998.327
436.9030, 6810.310
438.0940, 7067.320
439.2850, 7185.358
440.4750, 6741.423
441.6660, 5806.516
442.8560, 4622.633
444.0460, 3486.777
445.2360, 2568.947
446.4260, 2076.143
447.6160, 1954.367
448.8050, 1967.615
449.9940, 1724.883
451.1830, 1467.175
452.3720, 1209.490
453.5610, 670.8291
454.7500, 408.1904
455.9380, 175.5732
457.1260, 230.9795
458.3150, 186.4082
459.5020, 41.86035
460.6900, 280.3467
461.8780, 388.8584
463.0650, 562.3926
464.2530, 586.9639
465.4400, 759.5605
466.6270, 706.1963
467.8130, 1002.863
469.0000, 928.5781
470.1870, 987.3184
471.3730, 1018.083
472.5590, 1250.924
473.7450, 1438.797
474.9310, 2053.698
476.1160, 3064.658
477.3020, 4789.654
478.4870, 7271.670
479.6720, 10422.72
480.8570, 12973.81
482.0420, 15259.93
483.2270, 18149.07
484.4110, 22160.23
485.5960, 26116.42
486.7800, 28172.64
487.9640, 28537.88
489.1480, 26880.14
490.3310, 23287.43
491.5150, 19372.76
492.6980, 14934.11
493.8810, 11596.50
495.0640, 9033.910
496.2470, 7173.351
497.4300, 5781.828
498.6120, 4520.367
499.7950, 3518.954
500.9770, 2965.600
502.1590, 2421.271
503.3410, 2283.984
504.5220, 2124.724
505.7040, 2074.522
506.8850, 2243.367
508.0660, 2368.265
509.2470, 2589.202
510.4280, 2646.186
511.6090, 2792.230
512.7890, 2611.324
513.9700, 2629.474
515.1500, 2223.661
516.3300, 1855.877
517.5100, 1314.117
518.6900, 962.3809
519.8690, 656.6660
521.0490, 489.9717
522.2280, 157.2969
523.4070, 8.642578
524.5860, 88.00586
525.7640, 11.60938
526.9430, 267.2090
528.1210, 137.8994
529.3000, 349.6182
530.4780, 294.4727
531.6560, 165.4346
532.8330, 63.43848
534.0110, 63.83398
535.1880, 216.4512
536.3650, 27.52539
537.5430, 17.40918
538.7190, 126.3633
539.8960, 252.3467
541.0730, 548.3604
542.2490, 658.3984
543.4250, 797.4980
544.6020, 910.6426
545.7780, 1073.814
546.9530, 1169.002
548.1290, 1111.217
549.3040, 1018.445
550.4800, 751.7480
551.6550, 854.1367
552.8300, 789.9082
554.0040, 1072.386
555.1790, 1466.041
556.3540, 1970.436
557.5280, 2300.455
558.7020, 2759.128
559.8760, 3408.635
561.0500, 4115.152
562.2230, 5170.853
563.3970, 5381.819
564.5700, 5768.372
565.7430, 5428.268
566.9160, 5144.171
568.0890, 4625.123
569.2620, 4300.133
570.4340, 4251.205
571.6070, 4321.445
572.7790, 4358.030
573.9510, 4128.971
575.1230, 3762.099
576.2940, 3213.793
577.4660, 2325.956
578.6370, 1831.182
579.8080, 1435.853
580.9790, 953.5312
582.1500, 867.2148
583.3210, 864.9062
584.4910, 554.6045
585.6620, 566.3076
586.8320, 648.0166
588.0020, 534.7314
589.1720, 426.4521
590.3410, 414.1777
591.5110, 210.9082
592.6800, 206.6436
593.8500, 125.5801
595.0190, 252.6084
596.1880, 276.3564
597.3560, 289.2607
598.5250, 245.2773
599.6930, 572.3203
600.8620, 524.7227
602.0300, 757.8828
603.1970, 873.0879
604.3650, 1023.938
605.5330, 1169.509
606.7000, 1136.771
607.8680, 1277.576
609.0350, 1124.638
610.2020, 1035.432
611.3680, 661.6416
612.5350, 616.0332
613.7010, 579.9473
614.8680, 477.5479
616.0340, 458.0713
617.2000, 478.4287
618.3660, 380.1895
619.5310, 385.1504
620.6970, 369.7617
621.8620, 402.9150
623.0270, 319.1953
624.1920, 314.2109
625.3570, 428.3232
626.5220, 450.6035
627.6860, 536.8125
628.8500, 542.5996
630.0140, 761.6025
631.1780, 963.0449
632.3420, 1191.196
633.5060, 1275.762
634.6700, 1759.920
635.8330, 1884.460
636.9960, 1977.387
638.1590, 2332.753
639.3220, 2331.090
640.4850, 2141.546
641.6470, 2032.875
642.8100, 1436.481
643.9720, 1100.668
645.1340, 887.0254
646.2960, 788.7441
647.4570, 638.3467
648.6190, 647.5000
649.7800, 699.1016
650.9420, 818.9795
652.1030, 806.6074
653.2640, 858.6396
654.4240, 1057.603
655.5850, 1054.663
656.7450, 1130.869
657.9060, 1054.736
659.0660, 1215.496
660.2260, 1066.891
661.3850, 1239.273
662.5450, 1301.633
663.7040, 1132.972
664.8640, 1337.296
666.0230, 1483.327
667.1820, 1453.194
668.3410, 1791.268
669.4990, 1840.867
670.6580, 1756.886
671.8160, 1775.488
672.9740, 1700.768
674.1320, 1413.015
675.2900, 1181.767
676.4480, 950.2227
677.6050, 884.3574
678.7630, 713.4766
679.9200, 536.5781
681.0770, 473.6641
682.2340, 385.7627
683.3900, 307.7832
684.5470, 316.8154
685.7030, 296.8301
686.8590, 272.2666
688.0150, 175.8047
689.1710, 149.7646
690.3270, 102.7031
691.4830, 23.62402
692.6380, 30.47949
693.7930, 32.55176
694.9480, 4.164063
696.1030, 5.071289
697.2580, 81.65527
698.4130, 134.3594
699.5670, 141.0439
700.7210, 89.70605
701.8750, 30.34570
703.0290, 150.9609
704.1830, 56.55273
705.3370, 59.12012
706.4900, 51.66309
707.6430, 42.17969
708.7970, 31.67090
709.9490, 0.8642580
711.1020, 69.43848
712.2550, 74.91113
713.4070, 35.23438
714.5600, 141.5293
715.7120, 35.80078
716.8640, 31.04492
718.0160, 239.2588
719.1670, 253.4482
720.3190, 351.6143
721.4700, 479.7588
722.6210, 647.8770
723.7720, 626.9717
724.9230, 827.0410
726.0740, 709.0869
727.2250, 445.1084
728.3750, 495.1035
729.5250, 395.0742
730.6750, 179.0205
731.8250, 130.9404
732.9750, 111.8340
734.1240, 192.6992
735.2740, 146.5391
736.4230, 122.3506
737.5720, 118.1357
738.7210, 7.108398
739.8700, 94.59570
741.0190, 86.27148
742.1670, 13.08496
743.3150, 40.50488
744.4630, 18.94043
745.6110, 4.555664
746.7590, 46.99512
747.9070, 32.37988
749.0540, 96.71777
750.2020, 162.9756
751.3490, 4.196289
752.4960, 45.31934
753.6430, 89.59277
754.7890, 2.397461
755.9360, 211.3379
757.0820, 29.25195
758.2280, 53.87305
759.3740, 114.9219
760.5200, 84.68555
761.6660, 147.4189
762.8120, 124.1221
763.9570, 83.79395
765.1020, 38.43457
766.2470, 100.0371
767.3920, 148.6074
768.5370, 34.85254
769.6810, 111.6182
770.8260, 52.05762
771.9700, 1.461914
773.1140, 53.81934
774.2580, 10.86035
775.4020, 97.59668
776.5460, 49.43457
777.6890, 83.35156
778.8320, 71.63867
779.9750, 22.36719
781.1180, 88.56055
782.2610, 82.54297
783.4040, 40.73145
784.5460, 70.99219
785.6890, 16.34277
786.8310, 39.75098
787.9730, 108.2305
789.1150, 56.81934
790.2560, 79.62012
791.3980, 15.24121
792.5390, 19.95508
793.6810, 67.16602
794.8220, 126.3301
795.9630, 147.5068
797.1030, 259.6338
798.2440, 229.7354
799.3840, 330.8135
800.5240, 329.3154
801.6650, 270.9053
802.8040, 338.9434
803.9440, 276.9561
805.0840, 283.0039
806.2230, 367.0488
807.3630, 551.1436
808.5020, 451.2734
809.6410, 532.4072
810.7790, 443.5244
811.9180, 595.6230
813.0570, 451.7559
814.1950, 289.8652
815.3330, 357.9492
816.4710, 382.0049
817.6090, 578.0332
818.7470, 474.0352
819.8840, 458.0078
821.0220, 606.9541
822.1590, 566.8721
823.2960, 654.7627
824.4330, 519.6279
825.5690, 544.4668
826.7060, 630.2783
827.8420, 547.0303
828.9790, 630.4150
830.1150, 656.1152
831.2510, 585.6367
832.3860, 598.4062
833.5220, 823.5391
834.6570, 729.1348
835.7930, 952.6357
836.9280, 726.2422
838.0630, 763.6582
839.1980, 767.7910
840.3320, 701.3232
841.4670, 758.4971
842.6010, 854.6504
843.7350, 824.7354
844.8690, 904.7490
846.0030, 805.6846
847.1370, 834.4326
848.2700, 607.8242
849.4040, 693.8408
850.5370, 782.6562
851.6700, 657.8867
852.8030, 849.6309
853.9360, 798.2959
855.0680, 904.4980
856.2000, 964.6758
857.3330, 1085.828
858.4650, 1022.957
859.5970, 1233.062
860.7290, 1279.143
861.8600, 1272.200
862.9920, 1480.231
864.1230, 1439.240
865.2540, 1586.225
866.3850, 1587.185
867.5160, 1732.122
868.6460, 1684.841
869.7770, 1955.447
870.9070, 2111.315
872.0370, 2345.008
873.1670, 2539.568
874.2970, 2786.082
875.4270, 3038.214
876.5570, 3449.530
877.6860, 3758.860
878.8150, 4444.488
879.9440, 4966.373
881.0730, 5666.549
882.2020, 7001.157
883.3300, 8148.500
884.4590, 9504.091
885.5870, 10945.24
886.7150, 12799.19
887.8430, 14021.60
888.9710, 15266.30
890.0990, 16363.75
891.2260, 16908.95
892.3530, 17157.78
893.4810, 17150.02
894.6080, 17370.63
895.7340, 17707.65
896.8610, 18221.57
897.9880, 18757.90
899.1140, 19497.07
900.2400, 19946.87
901.3660, 20271.14
902.4920, 19634.96
903.6180, 18715.16
904.7430, 16585.07
905.8690, 14460.94
906.9940, 12219.54
908.1190, 10131.27
909.2440, 8295.807
910.3690, 6844.033
911.4930, 5944.844
912.6180, 5075.556
913.7420, 4395.607
914.8660, 3714.707
915.9900, 3363.849
917.1140, 3306.637
918.2380, 2860.515
919.3610, 2872.773
920.4850, 2741.350
921.6080, 2462.283
922.7310, 2575.984
923.8540, 2338.664
924.9760, 2171.567
926.0990, 2307.335
927.2210, 2265.154
928.3440, 2403.051
929.4660, 2657.157
930.5880, 2830.812
931.7090, 3046.753
932.8310, 3210.987
933.9520, 3640.975
935.0740, 3778.365
936.1950, 4291.861
937.3160, 4451.632
938.4360, 4978.962
939.5570, 5087.354
940.6780, 5525.271
941.7980, 5978.455
942.9180, 6267.301
944.0380, 6804.639
945.1580, 7436.599
946.2780, 7574.543
947.3970, 7920.570
948.5170, 8452.842
949.6360, 8552.669
950.7550, 9091.480
951.8740, 9036.283
952.9930, 9128.070
954.1110, 9065.845
955.2300, 8932.606
956.3480, 8893.354
957.4660, 8645.090
958.5840, 8439.193
959.7020, 8460.115
960.8190, 8534.813
961.9370, 8380.640
963.0540, 8111.045
964.1710, 7751.138
965.2880, 7203.260
966.4050, 6546.977
967.5220, 5747.969
968.6380, 5092.742
969.7550, 4348.384
970.8710, 3897.575
971.9870, 3525.920
973.1030, 3151.532
974.2190, 2659.135
975.3340, 2407.977
976.4500, 2058.307
977.5650, 1872.875
978.6800, 1643.435
979.7950, 1432.984
980.9100, 1324.686
982.0250, 1186.062
983.1390, 1110.615
984.2530, 1071.158
985.3680, 941.6914
986.4820, 1019.214
987.5950, 864.7285
988.7090, 736.2334
989.8230, 826.7285
990.9360, 907.2119
992.0490, 1029.685
993.1620, 849.2803
994.2750, 1059.781
995.3880, 1038.223
996.5010, 1271.738
997.6130, 1391.156
998.7250, 1651.564
999.8370, 1651.963
1000.949, 1814.630
1002.061, 2047.562
1003.173, 1918.930
1004.284, 1787.288
1005.396, 1560.636
1006.507, 1326.975
1007.618, 1007.305
1008.729, 875.2090
1009.839, 697.1641
1010.950, 605.5225
1012.060, 523.0361
1013.171, 473.8604
1014.281, 413.2344
1015.391, 179.8086
1016.500, 438.3193
1017.610, 184.7070
1018.719, 178.1855
1019.829, 348.7783
1020.938, 170.4668
1022.047, 340.8301
1023.156, 195.6904
1024.264, 232.5938
1025.373, 33.98047
1026.481, 150.3545
1027.589, 108.9082
1028.697, 121.6426
1029.805, 103.0205
1030.913, 63.60742
1032.020, 69.96875
1033.128, 150.3203
1034.235, 126.6650
1035.342, 118.5664
1036.449, 70.46875
1037.556, 30.30957
1038.663, 104.1748
1039.769, 66.24219
1040.875, 14.47363
1041.981, 74.86719
1043.087, 50.49316
1044.193, 39.79688
1045.299, 64.54004
1046.404, 7.065430
1047.510, 138.5215
1048.615, 167.7588
1049.720, 58.04688
1050.825, 40.67285
1051.930, 44.60742
1053.034, 0.1005860
1054.139, 6.207031
1055.243, 6.483398
1056.347, 193.8340
1057.451, 175.1807
1058.555, 51.45410
1059.658, 19.09570
1060.762, 213.7441
1061.865, 28.51074
1062.968, 15.30078
1064.071, 39.98340
1065.174, 50.16211
1066.277, 12.98633
1067.380, 10.32617
1068.482, 53.97949
1069.584, 90.13574
1070.686, 19.47852
1071.788, 20.38574
1072.890, 112.6357
1073.992, 45.89355
1075.093, 140.4170
1076.194, 4.821289
1077.295, 91.82910
1078.396, 93.38477
1079.497, 62.24805
1080.598, 12.13867
1081.698, 234.0645
1082.799, 179.9785
1083.899, 177.8887
1084.999, 230.7891
1086.099, 193.6777
1087.199, 194.5547
1088.298, 178.4238
1089.398, 168.2812
1090.497, 47.13086
1091.596, 87.96484
1092.695, 186.7910
1093.794, 6.388672
1094.892, 191.4199
1095.991, 101.2168
1097.089, 26.99609
1098.187, 127.7559
1099.285, 61.49609
1100.383, 113.2266
1101.481, 35.05664
1102.579, 7.623047
1103.676, 2.285156
1104.773, 283.9355
1105.870, 213.5723
1106.967, 282.2051
1108.064, 475.8262
1109.161, 398.4414
1110.257, 446.0430
1111.353, 563.6387
1112.449, 615.2207
1113.545, 871.7910
1114.641, 911.3594
1115.737, 772.9141
1116.832, 760.0996
1117.928, 612.0000
1119.023, 415.5293
1120.118, 430.0469
1121.213, 209.5547
1122.308, 237.0586
1123.402, 169.5508
1124.497, 113.0293
1125.591, 133.4980
1126.685, 293.9531
1127.779, 125.3984
1128.873, 266.8301
1129.967, 343.2500
1131.060, 269.6562
1132.153, 80.05273
1133.247, 14.43750
1134.340, 195.8066
1135.433, 252.1660
1136.525, 248.5117
1137.618, 210.8496
1138.710, 200.2383
1139.802, 133.5605
1140.895, 113.1250
1141.987, 139.1777
1143.078, 100.5879
1144.170, 27.89453
1145.261, 134.7422
1146.353, 89.01367
1147.444, 16.73047
1148.535, 137.5137
1149.626, 114.7246
1150.716, 85.92188
1151.807, 74.09961
1152.897, 182.2656
1153.988, 32.73633
1155.078, 28.86914
1156.168, 350.9922
1157.257, 289.0801
1158.347, 110.1699
1159.436, 71.21289
1160.526, 344.2695
1161.615, 103.2578
1162.704, 223.0645
1163.793, 160.8848
1164.881, 169.9102
1165.970, 21.92383
1167.058, 19.91992
1168.147, 3.298828
1169.235, 29.28516
1170.323, 63.16016
1171.410, 81.85742
1172.498, 149.7871
1173.585, 80.49023
1174.673, 175.0723
1175.760, 59.59570
1176.847, 147.2012
1177.934, 115.3184
1179.020, 198.5137
1180.107, 252.2949
1181.193, 380.8125
1182.279, 436.5332
1183.365, 366.5293
1184.451, 572.7168
1185.537, 651.9492
1186.623, 696.9258
1187.708, 435.6035
1188.793, 500.3027
1189.878, 376.6504
1190.963, 496.9746
1192.048, 465.0801
1193.133, 280.7812
1194.217, 114.2305
1195.302, 165.4590
1196.386, 17.28906
1197.470, 97.17188
1198.554, 3.298828
1199.638, 0.5644530
1200.721, 2.029297
1201.805, 115.2656
1202.888, 146.1816
1203.971, 86.54297
1205.054, 23.70508
1206.137, 50.34766
1207.219, 203.5938
1208.302, 8.794922
1209.384, 11.01562
1210.466, 32.33984
1211.548, 165.8613
1212.630, 259.4043
1213.712, 182.4531
1214.794, 227.5898
1215.875, 344.7109
1216.956, 396.8184
1218.037, 430.2129
1219.118, 228.9473
1220.199, 370.0898
1221.280, 539.0371
1222.360, 296.3145
1223.441, 496.0879
1224.521, 468.3223
1225.601, 532.3086
1226.681, 579.4902
1227.760, 473.9902
1228.840, 541.8770
1229.919, 550.1074
1230.999, 481.1816
1232.078, 468.0781
1233.157, 560.8047
1234.236, 677.7910
1235.314, 689.8926
1236.393, 692.6172
1237.471, 299.9727
1238.549, 556.6289
1239.627, 490.7773
1240.705, 315.8398
1241.783, 506.8086
1242.860, 468.8281
1243.938, 599.0039
1245.015, 596.7344
1246.092, 545.7266
1247.169, 684.1387
1248.246, 626.1543
1249.323, 665.0645
1250.399, 610.1699
1251.475, 646.7578
1252.552, 492.2773
1253.628, 695.8555
1254.703, 726.6230
1255.779, 718.2910
1256.855, 600.8223
1257.930, 561.4141
1259.005, 583.3027
1260.080, 480.7832
1261.155, 574.2461
1262.230, 518.1543
1263.305, 414.6270
1264.379, 322.5645
1265.454, 404.9629
1266.528, 476.1523
1267.602, 135.8047
1268.676, 285.5527
1269.750, 288.5977
1270.823, 413.7656
1271.897, 123.4961
1272.970, 145.8301
1274.043, 16.11133
1275.116, 245.9531
1276.189, 515.3594
1277.261, 152.3770
1278.334, 187.5156
1279.406, 341.5410
1280.478, 255.7734
1281.550, 234.5957
1282.622, 80.72656
1283.694, 223.5059
1284.766, 156.6074
1285.837, 78.68555
1286.908, 291.7461
1287.979, 208.6094
1289.050, 272.2969
1290.121, 438.5371
1291.192, 314.4707
1292.262, 300.4590
1293.333, 354.2969
1294.403, 504.2539
1295.473, 369.6348
1296.543, 412.0469
1297.613, 381.9570
1298.682, 353.5664
1299.752, 481.2891
1300.821, 355.1191
1301.890, 462.9590
1302.959, 445.4922
1304.028, 321.3359
1305.096, 304.7500
1306.165, 161.5156
1307.233, 152.1309
1308.301, 272.9492
1309.370, 465.7500
1310.437, 221.5332
1311.505, 146.3086
1312.573, 467.0703
1313.640, 325.8086
1314.708, 346.5410
1315.775, 254.2637
1316.842, 155.9727
1317.908, 230.6719
1318.975, 192.3750
1320.042, 185.0703
1321.108, 277.7910
1322.174, 241.4082
1323.240, 269.8105
1324.306, 231.7344
1325.372, 201.6914
1326.438, 142.1602
1327.503, 64.77734
1328.568, 165.0859
1329.634, 16.86719
1330.699, 213.6309
1331.763, 60.78906
1332.828, 14.47461
1333.893, 102.5352
1334.957, 72.64258
1336.021, 277.1172
