##NAMES=Kyanite
##RRUFFID=R050450
##IDEAL CHEMISTRY=Al_2_OSiO_4_
##LOCALITY=Switzerland
##OWNER=RRUFF
##SOURCE=Marcus Origlieri
##DESCRIPTION=Blue bladed crystals
##STATUS=The identification of this mineral has been confirmed by X-ray diffraction and chemical analysis
##URL=rruff.info/R050450
##MEASURED CHEMISTRY=Al_2.00_OSi_1.00_O_4_
##PIN_ID=M01978
##ORIENTATION=Laser parallel to -b* (0 -1 0). Fiducial mark perpendicular to laser is parallel to c [0 0 1]
148.7160, 0.0000000E+00
149.9470, 83.39746
151.1780, 1.110107
152.4080, 117.5833
153.6380, 118.8284
154.8690, 79.45581
156.0980, 107.5239
157.3280, 86.77563
158.5580, 50.88745
159.7870, 6.359863
161.0170, 94.79834
162.2460, 45.55298
163.4750, 73.32300
164.7030, 149.9336
165.9320, 139.8733
167.1600, 98.77148
168.3890, 119.4106
169.6170, 151.6675
170.8450, 185.7727
172.0730, 163.4441
173.3000, 180.9814
174.5280, 111.0212
175.7550, 204.4348
176.9820, 313.3914
178.2090, 181.4065
179.4350, 196.7231
180.6620, 205.6057
181.8880, 163.1887
183.1150, 189.6245
184.3410, 128.0430
185.5670, 119.5586
186.7920, 171.2739
188.0180, 136.2810
189.2430, 192.6587
190.4690, 140.4756
191.6940, 48.79272
192.9180, 115.4351
194.1430, 153.3789
195.3680, 240.5652
196.5920, 268.7581
197.8160, 231.6243
199.0400, 339.3406
200.2640, 299.1589
201.4880, 359.2500
202.7110, 482.1841
203.9350, 422.1938
205.1580, 460.1069
206.3810, 542.2344
207.6040, 534.8369
208.8270, 478.0962
210.0490, 506.9031
211.2710, 495.5823
212.4940, 438.3762
213.7160, 420.2727
214.9370, 520.2656
216.1590, 600.3477
217.3810, 817.5166
218.6020, 982.7737
219.8230, 1126.120
221.0440, 1246.554
222.2650, 1700.097
223.4860, 2295.779
224.7060, 3037.589
225.9260, 3811.527
227.1470, 4234.589
228.3670, 3874.761
229.5860, 3205.049
230.8060, 2202.444
232.0260, 1350.942
233.2450, 735.5391
234.4640, 361.2300
235.6830, 219.0107
236.9020, 91.87646
238.1200, 95.82227
239.3390, 41.84375
240.5570, 53.93750
241.7750, 46.10156
242.9930, 22.66748
244.2110, 20.62256
245.4290, 2.023438
246.6460, 37.39062
247.8630, 22.14014
249.0810, 37.62305
250.2980, 22.06543
251.5140, 89.46973
252.7310, 65.84033
253.9470, 60.17529
255.1640, 124.4727
256.3800, 131.7319
257.5960, 133.9502
258.8120, 67.12549
260.0270, 50.74316
261.2430, 134.6572
262.4580, 5.381836
263.6730, 69.37256
264.8880, 141.3145
266.1030, 107.2070
267.3170, 128.0542
268.5320, 12.82373
269.7460, 6.480957
270.9600, 90.08398
272.1740, 124.8755
273.3880, 161.8535
274.6010, 317.8682
275.8150, 515.7769
277.0280, 769.5693
278.2410, 828.3911
279.4540, 935.2329
280.6670, 888.9873
281.8790, 886.6865
283.0920, 968.4355
284.3040, 1078.249
285.5160, 1144.128
286.7280, 1550.072
287.9400, 2205.082
289.1510, 3350.159
290.3630, 4918.301
291.5740, 6807.510
292.7850, 8776.785
293.9960, 10217.13
295.2070, 10490.62
296.4170, 10935.58
297.6280, 14140.01
298.8380, 19567.02
300.0480, 26028.04
301.2580, 31346.04
302.4680, 33458.07
303.6770, 30032.10
304.8870, 22983.14
306.0960, 15214.82
307.3050, 8977.867
308.5140, 4931.922
309.7230, 2705.974
310.9310, 1744.017
312.1400, 1260.053
313.3480, 1069.083
314.5560, 1053.106
315.7640, 1348.125
316.9720, 1881.128
318.1790, 2490.130
319.3870, 2852.127
320.5940, 3229.112
321.8010, 4421.075
323.0080, 6239.009
324.2150, 8251.914
325.4210, 10410.79
326.6280, 11138.65
327.8340, 10170.48
329.0400, 7879.311
330.2460, 5387.130
331.4510, 3127.949
332.6570, 1643.771
333.8620, 932.5991
335.0680, 576.4355
336.2730, 347.2852
337.4780, 322.6445
338.6820, 399.5215
339.8870, 295.3950
341.0910, 413.2637
342.2950, 464.0737
343.5000, 485.8643
344.7030, 410.5776
345.9070, 243.1895
347.1110, 207.7031
348.3140, 260.0405
349.5170, 497.2554
350.7200, 820.5234
351.9230, 1553.774
353.1260, 2298.906
354.3290, 2779.997
355.5310, 3338.138
356.7330, 4582.340
357.9350, 6710.602
359.1370, 9117.922
360.3390, 11122.30
361.5400, 11679.74
362.7420, 10442.24
363.9430, 8253.797
365.1440, 5797.413
366.3450, 4076.086
367.5460, 3404.820
368.7460, 3477.612
369.9470, 4085.461
371.1470, 4967.369
372.3470, 5741.333
373.5470, 5906.354
374.7460, 5551.432
375.9460, 5102.567
377.1450, 4947.759
378.3450, 4897.005
379.5440, 4996.309
380.7430, 5221.667
381.9410, 6688.845
383.1400, 8827.229
384.3380, 11610.14
385.5370, 13978.51
386.7350, 14425.76
387.9320, 13874.00
389.1300, 13946.28
390.3280, 14881.43
391.5250, 17047.03
392.7220, 18387.04
393.9190, 18021.69
395.1160, 15418.02
396.3130, 11892.62
397.5100, 8705.880
398.7060, 6601.968
399.9020, 6041.028
401.0980, 7166.835
402.2940, 9062.706
403.4900, 11272.97
404.6860, 12620.40
405.8810, 12451.88
407.0760, 10347.45
408.2710, 7582.363
409.4660, 5168.960
410.6610, 3559.896
411.8550, 2603.715
413.0500, 2260.604
414.2440, 1970.939
415.4380, 2109.842
416.6320, 2734.795
417.8260, 3299.797
419.0190, 4018.848
420.2130, 4163.952
421.4060, 3760.107
422.5990, 3118.312
423.7920, 2411.570
424.9850, 1952.879
426.1770, 1742.241
427.3700, 1875.980
428.5620, 2230.122
429.7540, 2976.641
430.9460, 3911.212
432.1380, 5223.833
433.3290, 6638.506
434.5210, 8085.233
435.7120, 10678.01
436.9030, 13100.84
438.0940, 15085.72
439.2850, 15784.64
440.4750, 14582.60
441.6660, 12261.62
442.8560, 9218.674
444.0460, 6620.775
445.2360, 5075.920
446.4260, 4501.111
447.6160, 4726.348
448.8050, 4763.630
449.9940, 4363.958
451.1830, 3571.330
452.3720, 2533.749
453.5610, 1500.214
454.7500, 979.7241
455.9380, 585.2808
457.1260, 448.8823
458.3150, 531.5303
459.5020, 656.2251
460.6900, 727.9663
461.8780, 956.7563
463.0650, 1388.593
464.2530, 1633.482
465.4400, 2013.432
466.6270, 2274.443
467.8130, 2286.528
469.0000, 2165.686
470.1870, 2065.914
471.3730, 2168.209
472.5590, 2128.590
473.7450, 2636.031
474.9310, 3553.534
476.1160, 4931.113
477.3020, 7594.758
478.4870, 10873.49
479.6720, 14724.29
480.8570, 18689.19
482.0420, 24065.17
483.2270, 31944.24
484.4110, 42205.36
485.5960, 52253.58
486.7800, 58542.90
487.9640, 58931.27
489.1480, 53192.71
490.3310, 43268.21
491.5150, 33733.79
492.6980, 25893.44
493.8810, 20223.15
495.0640, 16034.93
496.2470, 12725.77
497.4300, 9916.679
498.6120, 7615.679
499.7950, 6007.766
500.9770, 4847.915
502.1590, 4013.142
503.3410, 3646.425
504.5220, 3564.774
505.7040, 3481.194
506.8850, 3653.678
508.0660, 3728.228
509.2470, 4201.849
510.4280, 4442.530
511.6090, 4496.265
512.7890, 4322.071
513.9700, 3968.932
515.1500, 3257.848
516.3300, 2769.826
517.5100, 1956.855
518.6900, 1546.934
519.8690, 1098.061
521.0490, 781.2383
522.2280, 488.4648
523.4070, 332.7505
524.5860, 143.0884
525.7640, 30.52100
526.9430, 25.08643
528.1210, 162.6074
529.3000, 147.1299
530.4780, 175.6338
531.6560, 258.1421
532.8330, 323.6836
534.0110, 271.2964
535.1880, 278.9443
536.3650, 308.6279
537.5430, 234.3657
538.7190, 146.1089
539.8960, 76.82959
541.0730, 83.49365
542.2490, 124.8989
543.4250, 244.3892
544.6020, 530.9619
545.7780, 689.6016
546.9530, 797.2812
548.1290, 601.0029
549.3040, 549.7715
550.4800, 505.6021
551.6550, 398.5132
552.8300, 457.4946
554.0040, 550.5518
555.1790, 830.6538
556.3540, 1012.800
557.5280, 1440.984
558.7020, 2057.207
559.8760, 2605.469
561.0500, 3478.768
562.2230, 4461.105
563.3970, 5092.481
564.5700, 5500.892
565.7430, 5401.342
566.9160, 6181.828
568.0890, 5591.351
569.2620, 6213.908
570.4340, 7353.503
571.6070, 8474.133
572.7790, 9286.797
573.9510, 8884.497
575.1230, 7870.229
576.2940, 6398.998
577.4660, 4763.798
578.6370, 3539.635
579.8080, 2408.503
580.9790, 1610.405
582.1500, 1410.339
583.3210, 1094.305
584.4910, 984.3037
585.6620, 1013.334
586.8320, 1009.396
588.0020, 903.4897
589.1720, 948.6138
590.3410, 813.7690
591.5110, 727.9536
592.6800, 634.1685
593.8500, 587.1191
595.0190, 588.8794
596.1880, 607.9907
597.3560, 687.3223
598.5250, 874.6831
599.6930, 1026.072
600.8620, 1343.494
602.0300, 1698.094
603.1970, 1929.565
604.3650, 2432.049
605.5330, 2651.181
606.7000, 2846.309
607.8680, 2943.822
609.0350, 2548.707
610.2020, 1973.775
611.3680, 1760.035
612.5350, 1218.689
613.7010, 937.8896
614.8680, 927.7856
616.0340, 805.7710
617.2000, 800.2588
618.3660, 743.0244
619.5310, 714.8115
620.6970, 667.7441
621.8620, 476.0098
623.0270, 425.6138
624.1920, 225.3066
625.3570, 217.3589
626.5220, 282.5068
627.6860, 100.1440
628.8500, 243.0244
630.0140, 279.0562
631.1780, 439.0229
632.3420, 567.8491
633.5060, 798.2598
634.6700, 840.7329
635.8330, 1029.882
636.9960, 1284.576
638.1590, 1270.912
639.3220, 1212.297
640.4850, 1180.357
641.6470, 867.0400
642.8100, 649.9688
643.9720, 431.2056
645.1340, 351.0098
646.2960, 358.8149
647.4570, 372.1299
648.6190, 280.2061
649.7800, 454.8501
650.9420, 592.0562
652.1030, 757.2373
653.2640, 689.0347
654.4240, 898.5605
655.5850, 1066.220
656.7450, 1164.793
657.9060, 1040.874
659.0660, 1118.108
660.2260, 1076.640
661.3850, 1120.902
662.5450, 1164.261
663.7040, 1279.189
664.8640, 1435.229
666.0230, 1626.721
667.1820, 1950.522
668.3410, 2381.059
669.4990, 2714.184
670.6580, 2786.054
671.8160, 2841.988
672.9740, 2604.717
674.1320, 2292.938
675.2900, 1872.754
676.4480, 1424.059
677.6050, 1175.076
678.7630, 871.1138
679.9200, 1009.880
681.0770, 761.8364
682.2340, 764.7891
683.3900, 754.7373
684.5470, 814.6797
685.7030, 747.6172
686.8590, 632.5483
688.0150, 618.4727
689.1710, 520.3921
690.3270, 334.3037
691.4830, 365.2080
692.6380, 334.1040
693.7930, 288.9922
694.9480, 331.8716
696.1030, 230.7422
697.2580, 340.6030
698.4130, 292.4546
699.5670, 401.2964
700.7210, 369.1284
701.8750, 482.9497
703.0290, 421.7607
704.1830, 485.5596
705.3370, 333.3481
706.4900, 421.1245
707.6430, 326.8901
708.7970, 166.6431
709.9490, 158.3833
711.1020, 140.9224
712.2550, 155.8262
713.4070, 253.5278
714.5600, 389.2163
715.7120, 545.8906
716.8640, 671.0991
718.0160, 819.1973
719.1670, 1036.829
720.3190, 1200.446
721.4700, 1550.048
722.6210, 1707.634
723.7720, 1852.205
724.9230, 1861.759
726.0740, 1855.298
727.2250, 1537.821
728.3750, 1434.327
729.5250, 961.8154
730.6750, 760.2876
731.8250, 491.7422
732.9750, 320.1792
734.1240, 169.5986
735.2740, 236.0000
736.4230, 109.3833
737.5720, 89.74756
738.7210, 51.09277
739.8700, 40.41895
741.0190, 65.72217
742.1670, 16.00586
743.3150, 10.74219
744.4630, 9.536621
745.6110, 62.37695
746.7590, 51.29199
747.9070, 37.27588
749.0540, 39.32324
750.2020, 92.43408
751.3490, 4.637695
752.4960, 1.111816
753.6430, 63.18262
754.7890, 22.55518
755.9360, 73.98486
757.0820, 89.50000
758.2280, 91.10889
759.3740, 79.81201
760.5200, 84.60400
761.6660, 10.51221
762.8120, 138.4146
763.9570, 139.4614
765.1020, 43.37012
766.2470, 22.82959
767.3920, 30.91016
768.5370, 39.38477
769.6810, 52.74951
770.8260, 21.80957
771.9700, 14.67090
773.1140, 30.79199
774.2580, 1.781250
775.4020, 107.4053
776.5460, 76.13379
777.6890, 9.051270
778.8320, 48.80762
779.9750, 42.25684
781.1180, 9.712402
782.2610, 18.73242
783.4040, 2.812012
784.5460, 10.94287
785.6890, 23.12891
786.8310, 0.3779300
787.9730, 90.32324
789.1150, 41.00195
790.2560, 50.60498
791.3980, 22.18115
792.5390, 1.277344
793.6810, 63.21631
794.8220, 110.6802
795.9630, 89.11768
797.1030, 65.52881
798.2440, 85.91064
799.3840, 2.264648
800.5240, 43.26562
801.6650, 37.66650
802.8040, 92.08496
803.9440, 75.30371
805.0840, 116.4980
806.2230, 150.6938
807.3630, 156.8887
808.5020, 151.0869
809.6410, 100.3071
810.7790, 213.5615
811.9180, 166.8457
813.0570, 246.1562
814.1950, 274.4995
815.3330, 176.8647
816.4710, 294.2314
817.6090, 257.6099
818.7470, 194.9644
819.8840, 327.2998
821.0220, 162.6108
822.1590, 373.8975
823.2960, 314.1606
824.4330, 347.3999
825.5690, 290.6152
826.7060, 385.8086
827.8420, 369.9780
828.9790, 399.1240
830.1150, 419.2559
831.2510, 454.3638
832.3860, 461.4478
833.5220, 545.5083
834.6570, 386.5459
835.7930, 409.5591
836.9280, 477.5493
838.0630, 454.5171
839.1980, 532.4609
840.3320, 593.3813
841.4670, 652.2939
842.6010, 748.1836
843.7350, 812.0498
844.8690, 625.8936
846.0030, 829.7158
847.1370, 726.5146
848.2700, 804.2905
849.4040, 824.0439
850.5370, 1020.774
851.6700, 1013.482
852.8030, 1129.167
853.9360, 1178.830
855.0680, 1190.471
856.2000, 1372.088
857.3330, 1513.684
858.4650, 1580.258
859.5970, 1637.809
860.7290, 1814.338
861.8600, 1909.857
862.9920, 2138.355
864.1230, 2240.831
865.2540, 2612.285
866.3850, 2750.719
867.5160, 2891.132
868.6460, 3227.524
869.7770, 3364.896
870.9070, 3720.245
872.0370, 4062.574
873.1670, 4561.882
874.2970, 5087.169
875.4270, 5782.430
876.5570, 6467.520
877.6860, 7423.751
878.8150, 8583.978
879.9440, 10003.56
881.0730, 11674.16
882.2020, 13864.37
883.3300, 16276.22
884.4590, 19478.88
885.5870, 22444.38
886.7150, 25862.46
887.8430, 29217.02
888.9710, 32060.88
890.0990, 33438.65
891.2260, 33986.93
892.3530, 32360.94
893.4810, 29851.92
894.6080, 27074.77
895.7340, 24292.28
896.8610, 22287.45
897.9880, 21104.55
899.1140, 21016.28
900.2400, 20949.93
901.3660, 21063.08
902.4920, 20467.00
903.6180, 19160.77
904.7430, 17223.60
905.8690, 14828.58
906.9940, 12982.97
908.1190, 10809.30
909.2440, 9170.953
910.3690, 7613.061
911.4930, 6846.752
912.6180, 5912.983
913.7420, 5070.725
914.8660, 4694.843
915.9900, 4187.715
917.1140, 3870.068
918.2380, 3578.062
919.3610, 3417.168
920.4850, 3239.648
921.6080, 3139.807
922.7310, 3062.457
923.8540, 3035.892
924.9760, 3030.497
926.0990, 3116.624
927.2210, 3218.953
928.3440, 3380.451
929.4660, 3590.659
930.5880, 4016.359
931.7090, 4180.915
932.8310, 4531.184
933.9520, 5135.722
935.0740, 5743.160
936.1950, 6331.146
937.3160, 6816.801
938.4360, 7250.592
939.5570, 7769.986
940.6780, 8191.714
941.7980, 8715.480
942.9180, 9437.244
944.0380, 9998.008
945.1580, 10510.66
946.2780, 11176.72
947.3970, 11641.51
948.5170, 12261.29
949.6360, 12615.23
950.7550, 13022.32
951.8740, 13095.77
952.9930, 13103.58
954.1110, 12854.24
955.2300, 12578.05
956.3480, 12257.87
957.4660, 11663.69
958.5840, 11380.50
959.7020, 11316.31
960.8190, 11395.42
961.9370, 11031.23
963.0540, 10618.04
964.1710, 10096.90
965.2880, 9102.725
966.4050, 8129.548
967.5220, 7353.378
968.6380, 6457.208
969.7550, 5569.036
970.8710, 4854.867
971.9870, 4182.700
973.1030, 3615.532
974.2190, 3243.366
975.3340, 3068.716
976.4500, 2663.196
977.5650, 2429.383
978.6800, 2137.221
979.7950, 1961.273
980.9100, 1749.112
982.0250, 1573.954
983.1390, 1432.795
984.2530, 1389.637
985.3680, 1113.480
986.4820, 1164.325
987.5950, 1102.172
988.7090, 926.0200
989.8230, 860.8691
990.9360, 851.0371
992.0490, 967.5718
993.1620, 966.4258
994.2750, 1062.714
995.3880, 1076.981
996.5010, 1284.842
997.6130, 1388.703
998.7250, 1573.567
999.8370, 1652.529
1000.949, 1878.659
1002.061, 1833.536
1003.173, 1838.500
1004.284, 1497.375
1005.396, 1295.253
1006.507, 1179.134
1007.618, 1115.018
1008.729, 961.6982
1009.839, 714.8765
1010.950, 718.0571
1012.060, 629.9551
1013.171, 457.1250
1014.281, 500.1226
1015.391, 425.0630
1016.500, 436.0337
1017.610, 485.0332
1018.719, 450.0571
1019.829, 338.1060
1020.938, 335.1948
1022.047, 337.3008
1023.156, 204.4214
1024.264, 298.5752
1025.373, 300.7510
1026.481, 158.9897
1027.589, 231.3516
1028.697, 122.6445
1029.805, 192.9756
1030.913, 174.3457
1032.020, 120.7310
1033.128, 28.19971
1034.235, 247.8037
1035.342, 56.30518
1036.449, 80.83057
1037.556, 132.3657
1038.663, 51.92920
1039.769, 51.52441
1040.875, 101.1309
1041.981, 41.75928
1043.087, 99.40234
1044.193, 15.88965
1045.299, 38.13037
1046.404, 93.67627
1047.510, 144.4561
1048.615, 97.32471
1049.720, 36.74658
1050.825, 179.1353
1051.930, 8.916992
1053.034, 6.013672
1054.139, 78.89404
1055.243, 19.55078
1056.347, 13.45020
1057.451, 35.27295
1058.555, 9.759766
1059.658, 42.82715
1060.762, 20.83643
1061.865, 38.63867
1062.968, 71.30469
1064.071, 133.4355
1065.174, 65.79395
1066.277, 107.9985
1067.380, 89.97656
1068.482, 7.992188
1069.584, 94.35449
1070.686, 7.635742
1071.788, 152.4077
1072.890, 28.43262
1073.992, 54.45508
1075.093, 99.76904
1076.194, 78.79883
1077.295, 77.38916
1078.396, 40.85742
1079.497, 75.31494
1080.598, 69.83643
1081.698, 37.12744
1082.799, 13.93799
1083.899, 110.7397
1084.999, 64.57764
1086.099, 27.20703
1087.199, 153.7407
1088.298, 123.8931
1089.398, 86.10303
1090.497, 16.16113
1091.596, 235.1479
1092.695, 10.86182
1093.794, 135.2637
1094.892, 117.5229
1095.991, 46.48047
1097.089, 52.21289
1098.187, 88.19531
1099.285, 123.8071
1100.383, 25.79248
1101.481, 84.77979
1102.579, 161.1011
1103.676, 43.79150
1104.773, 108.7988
1105.870, 80.82568
1106.967, 64.16309
1108.064, 101.8179
1109.161, 131.7998
1110.257, 71.65723
1111.353, 4.193848
1112.449, 55.86328
1113.545, 114.8491
1114.641, 84.84961
1115.737, 117.8398
1116.832, 51.83057
1117.928, 92.05322
1119.023, 56.04639
1120.118, 103.0400
1121.213, 17.03662
1122.308, 79.03418
1123.402, 130.0317
1124.497, 62.03076
1125.591, 40.02930
1126.685, 46.92627
1127.779, 14.08740
1128.873, 48.06299
1129.967, 33.03906
1131.060, 3.017578
1132.153, 1.007324
1133.247, 15.96582
1134.340, 3.939453
1135.433, 66.91113
1136.525, 136.8833
1137.618, 138.8560
1138.710, 71.82812
1139.802, 5.800781
1140.895, 92.77197
1141.987, 17.25488
1143.078, 47.70752
1144.170, 1.679688
1145.261, 9.431152
1146.353, 50.64355
1147.444, 71.61426
1148.535, 74.12842
1149.626, 60.58447
1150.716, 94.55469
1151.807, 79.52539
1152.897, 126.5308
1153.988, 166.4985
1155.078, 105.5723
1156.168, 140.5571
1157.257, 30.82666
1158.347, 11.80908
1159.436, 48.78613
1160.526, 199.7612
1161.615, 70.73389
1162.704, 113.8809
1163.793, 6.153809
1164.881, 16.79834
1165.970, 118.9194
1167.058, 73.86230
1168.147, 74.80176
1169.235, 53.73828
1170.323, 71.67139
1171.410, 61.60156
1172.498, 50.52686
1173.585, 49.63818
1174.673, 39.36523
1175.760, 38.05127
1176.847, 34.16357
1177.934, 45.08203
1179.020, 31.99414
1180.107, 20.89990
1181.193, 35.18799
1182.279, 25.90039
1183.365, 34.67090
1184.451, 52.54785
1185.537, 3.293945
1186.623, 77.27344
1187.708, 12.12305
1188.793, 7.175293
1189.878, 109.8677
1190.963, 47.70215
1192.048, 8.141113
1193.133, 4.941406
1194.217, 34.20801
1195.302, 37.45703
1196.386, 2.742676
1197.470, 145.9517
1198.554, 57.76807
1199.638, 15.32910
1200.721, 124.9966
1201.805, 61.53613
1202.888, 68.18701
1203.971, 80.83008
1205.054, 19.33057
1206.137, 80.08838
1207.219, 37.29590
1208.302, 7.719727
1209.384, 38.63477
1210.466, 14.17773
1211.548, 89.70703
1212.630, 35.07422
1213.712, 15.72168
1214.794, 68.89551
1215.875, 20.54883
1216.956, 15.45703
1218.037, 29.50977
1219.118, 21.89258
1220.199, 54.33398
1221.280, 76.69824
1222.360, 127.0537
1223.441, 41.91992
1224.521, 20.33496
1225.601, 76.66113
1226.681, 42.91309
1227.760, 119.3643
1228.840, 9.366211
1229.919, 124.8789
1230.999, 104.1152
1232.078, 17.34277
1233.157, 8.991211
1234.236, 187.3750
1235.314, 76.57031
1236.393, 166.7646
1237.471, 153.4707
1238.549, 88.64258
1239.627, 3.800781
1240.705, 41.34375
1241.783, 63.28613
1242.860, 147.4980
1243.938, 79.05566
1245.015, 104.1572
1246.092, 185.2480
1247.169, 31.35254
1248.246, 168.4238
1249.323, 163.5205
1250.399, 155.0361
1251.475, 192.0762
1252.552, 161.6182
1253.628, 99.19531
1254.703, 135.2051
1255.779, 76.20410
1256.855, 75.35156
1257.930, 224.4033
1259.005, 104.5137
1260.080, 85.47168
1261.155, 180.3379
1262.230, 89.40625
1263.305, 125.3291
1264.379, 165.1562
1265.454, 207.1143
1266.528, 222.0127
1267.602, 224.0859
1268.676, 172.1133
1269.750, 127.8975
1270.823, 105.2461
1271.897, 88.92578
1272.970, 142.5742
1274.043, 140.1357
1275.116, 85.92871
1276.189, 177.6074
1277.261, 205.3994
1278.334, 86.39746
1279.406, 148.7148
1280.478, 137.0449
1281.550, 86.93945
1282.622, 122.6777
1283.694, 79.27832
1284.766, 150.0039
1285.837, 39.95117
1286.908, 100.8408
1287.979, 126.4121
1289.050, 171.1982
1290.121, 157.0586
1291.192, 59.73828
1292.262, 124.4453
1293.333, 124.0742
1294.403, 60.58105
1295.473, 149.3770
1296.543, 274.0205
1297.613, 117.0459
1298.682, 123.9785
1299.752, 218.8857
1300.821, 159.5186
1301.890, 219.2090
1302.959, 209.2529
1304.028, 283.7920
1305.096, 243.6279
1306.165, 160.2236
1307.233, 212.6768
1308.301, 120.0576
1309.370, 242.5547
1310.437, 173.9238
1311.505, 287.2393
1312.573, 234.6035
1313.640, 253.9980
1314.708, 187.8525
1315.775, 173.2520
1316.842, 312.4473
1317.908, 308.4971
1318.975, 91.02832
1320.042, 271.6504
1321.108, 186.4844
1322.174, 95.12598
1323.240, 318.2979
1324.306, 237.2383
1325.372, 156.3311
1326.438, 73.64551
