##NAMES=Kyanite
##RRUFFID=R050450
##IDEAL CHEMISTRY=Al_2_OSiO_4_
##LOCALITY=Switzerland
##OWNER=RRUFF
##SOURCE=Marcus Origlieri
##DESCRIPTION=Blue bladed crystals
##STATUS=The identification of this mineral has been confirmed by X-ray diffraction and chemical analysis
##URL=rruff.info/R050450
##MEASURED CHEMISTRY=Al_2.00_OSi_1.00_O_4_
##PIN_ID=M01978
##ORIENTATION=Laser parallel to -b* (0 -1 0). Fiducial mark perpendicular to laser is parallel to c [0 0 1]
148.7160, 0.0000000E+00
149.9470, 112.5859
151.1780, 1.709961
152.4080, 128.2090
153.6380, 124.4277
154.8690, 70.68652
156.0980, 2.258789
157.3280, 28.51953
158.5580, 9.159180
159.7870, 50.05469
161.0170, 43.03027
162.2460, 36.64014
163.4750, 53.97754
164.7030, 106.1626
165.9320, 102.8008
167.1600, 144.9907
168.3890, 227.0283
169.6170, 208.4194
170.8450, 262.7871
172.0730, 299.7617
173.3000, 366.0283
174.5280, 456.0444
175.7550, 614.9097
176.9820, 751.7168
178.2090, 735.3027
179.4350, 807.9277
180.6620, 594.3203
181.8880, 331.1782
183.1150, 352.3960
184.3410, 159.0513
185.5670, 86.21289
186.7920, 91.93945
188.0180, 162.2842
189.2430, 119.2910
190.4690, 105.0005
191.6940, 194.4468
192.9180, 158.2417
194.1430, 217.2246
195.3680, 183.7930
196.5920, 209.6328
197.8160, 128.1338
199.0400, 182.1699
200.2640, 164.8159
201.4880, 221.8818
202.7110, 268.8560
203.9350, 288.5308
205.1580, 134.0205
206.3810, 312.4458
207.6040, 196.7910
208.8270, 195.4126
210.0490, 338.9482
211.2710, 159.5879
212.4940, 73.33301
213.7160, 158.1753
214.9370, 198.1094
216.1590, 110.1289
217.3810, 238.2329
218.6020, 322.4219
219.8230, 343.6948
221.0440, 348.0513
222.2650, 616.4990
223.4860, 876.0347
224.7060, 1020.653
225.9260, 1044.356
227.1470, 1325.145
228.3670, 1293.016
229.5860, 980.9678
230.8060, 446.9990
232.0260, 251.1060
233.2450, 189.2871
234.4640, 59.54004
235.6830, 3.861816
236.9020, 28.25049
238.1200, 81.29736
239.3390, 4.214355
240.5570, 51.21484
241.7750, 68.41357
242.9930, 26.09863
244.2110, 29.16113
245.4290, 21.63037
246.6460, 109.4707
247.8630, 52.35840
249.0810, 11.70850
250.2980, 12.06543
251.5140, 144.2788
252.7310, 43.67188
253.9470, 53.59229
255.1640, 54.51953
256.3800, 126.3286
257.5960, 168.1362
258.8120, 316.0986
260.0270, 68.92773
261.2430, 233.6968
262.4580, 16.06104
263.6730, 153.5283
264.8880, 167.0732
266.1030, 49.59082
267.3170, 60.13574
268.5320, 98.45996
269.7460, 330.2920
270.9600, 178.2832
272.1740, 207.4141
273.3880, 455.6484
274.6010, 815.9199
275.8150, 1130.178
277.0280, 1387.341
278.2410, 1558.550
279.4540, 1577.764
280.6670, 1448.881
281.8790, 1113.005
283.0920, 735.1816
284.3040, 791.4111
285.5160, 695.6914
286.7280, 895.0254
287.9400, 1369.411
289.1510, 1979.849
290.3630, 2739.341
291.5740, 3698.884
292.7850, 4457.481
293.9960, 5067.132
295.2070, 5107.738
296.4170, 5449.739
297.6280, 7175.137
298.8380, 9718.224
300.0480, 11974.35
301.2580, 13896.53
302.4680, 14467.62
303.6770, 13314.87
304.8870, 9799.096
306.0960, 6503.396
307.3050, 3864.719
308.5140, 2268.061
309.7230, 1403.421
310.9310, 1167.794
312.1400, 1170.179
313.3480, 1198.575
314.5560, 1578.983
315.7640, 1774.404
316.9720, 1973.840
318.1790, 2194.280
319.3870, 2269.727
320.5940, 2369.179
321.8010, 3008.635
323.0080, 4031.089
324.2150, 5199.539
325.4210, 5927.985
326.6280, 6079.411
327.8340, 5714.839
329.0400, 4527.277
330.2460, 3028.725
331.4510, 1703.186
332.6570, 1213.660
333.8620, 908.1533
335.0680, 675.6641
336.2730, 783.1953
337.4780, 958.7480
338.6820, 1211.296
339.8870, 1613.759
341.0910, 1818.190
342.2950, 1872.613
343.5000, 1713.066
344.7030, 1373.533
345.9070, 872.0156
347.1110, 517.4531
348.3140, 527.8389
349.5170, 692.1484
350.7200, 958.5000
351.9230, 1634.797
353.1260, 1825.008
354.3290, 2230.233
355.5310, 2914.505
356.7330, 4006.824
357.9350, 5523.164
359.1370, 7091.578
360.3390, 8097.037
361.5400, 8244.541
362.7420, 7398.090
363.9430, 5510.687
365.1440, 3823.330
366.3450, 2886.017
367.5460, 2277.749
368.7460, 2547.526
369.9470, 2784.348
371.1470, 3431.216
372.3470, 4095.126
373.5470, 4871.082
374.7460, 5624.080
375.9460, 6325.122
377.1450, 6789.209
378.3450, 7087.340
379.5440, 6829.512
380.7430, 6366.316
381.9410, 6963.279
383.1400, 7825.100
384.3380, 8999.856
385.5370, 9726.888
386.7350, 9746.328
387.9320, 9056.259
389.1300, 8318.521
390.3280, 8217.013
391.5250, 8155.279
392.7220, 8206.029
393.9190, 8112.594
395.1160, 7160.727
396.3130, 6081.543
397.5100, 5281.271
398.7060, 4650.768
399.9020, 5097.639
401.0980, 6269.930
402.2940, 7935.742
403.4900, 9521.731
404.6860, 10239.76
405.8810, 10072.83
407.0760, 8483.936
408.2710, 6295.377
409.4660, 4205.107
410.6610, 3018.922
411.8550, 2117.271
413.0500, 1847.574
414.2440, 1574.914
415.4380, 1617.293
416.6320, 1751.708
417.8260, 2103.160
419.0190, 2214.647
420.2130, 2504.174
421.4060, 2182.735
422.5990, 1742.335
423.7920, 1674.971
424.9850, 1278.644
426.1770, 1311.355
427.3700, 1676.104
428.5620, 1982.889
429.7540, 2573.711
430.9460, 3320.571
432.1380, 4206.467
433.3290, 5519.400
434.5210, 6936.371
435.7120, 8589.395
436.9030, 10585.45
438.0940, 11076.54
439.2850, 11308.67
440.4750, 10322.83
441.6660, 8550.030
442.8560, 6257.263
444.0460, 4599.530
445.2360, 3626.832
446.4260, 3372.168
447.6160, 3337.539
448.8050, 3340.943
449.9940, 3034.382
451.1830, 2529.855
452.3720, 1758.362
453.5610, 1193.911
454.7500, 711.4951
455.9380, 339.1201
457.1260, 377.8135
458.3150, 361.5410
459.5020, 304.3213
460.6900, 323.1436
461.8780, 444.0244
463.0650, 495.9434
464.2530, 657.9277
465.4400, 782.9531
466.6270, 804.0547
467.8130, 832.1924
469.0000, 773.3691
470.1870, 774.6133
471.3730, 769.9072
472.5590, 977.2432
473.7450, 1061.621
474.9310, 1587.035
476.1160, 2315.514
477.3020, 3233.028
478.4870, 5120.578
479.6720, 6805.187
480.8570, 8722.860
482.0420, 11121.58
483.2270, 14751.35
484.4110, 19247.17
485.5960, 23345.04
486.7800, 25310.93
487.9640, 25270.88
489.1480, 22693.89
490.3310, 17998.95
491.5150, 13600.06
492.6980, 10111.20
493.8810, 7838.400
495.0640, 6258.648
496.2470, 5002.935
497.4300, 3785.289
498.6120, 2943.680
499.7950, 2338.126
500.9770, 1797.627
502.1590, 1680.182
503.3410, 1623.790
504.5220, 1477.450
505.7040, 1595.159
506.8850, 1842.912
508.0660, 2010.703
509.2470, 2347.531
510.4280, 2777.395
511.6090, 3103.303
512.7890, 3293.244
513.9700, 3090.242
515.1500, 2742.271
516.3300, 2124.337
517.5100, 1679.433
518.6900, 1195.560
519.8690, 822.8184
521.0490, 453.9082
522.2280, 265.1289
523.4070, 115.4023
524.5860, 28.70605
525.7640, 20.92285
526.9430, 219.5195
528.1210, 199.3779
529.3000, 265.8184
530.4780, 186.5498
531.6560, 178.3057
532.8330, 83.09766
534.0110, 159.8887
535.1880, 118.7100
536.3650, 150.5381
537.5430, 1.617188
538.7190, 109.2051
539.8960, 4.975586
541.0730, 183.1943
542.2490, 244.4414
543.4250, 374.6162
544.6020, 322.1201
545.7780, 500.5186
546.9530, 537.9395
548.1290, 427.3848
549.3040, 420.8535
550.4800, 387.3828
551.6550, 281.9766
552.8300, 316.6045
554.0040, 544.2666
555.1790, 756.9521
556.3540, 1037.658
557.5280, 1514.386
558.7020, 1860.135
559.8760, 2703.903
561.0500, 3222.694
562.2230, 4221.504
563.3970, 4582.335
564.5700, 4487.186
565.7430, 3988.056
566.9160, 3131.944
568.0890, 2573.854
569.2620, 2277.779
570.4340, 2347.725
571.6070, 2109.686
572.7790, 2196.717
573.9510, 1947.717
575.1230, 1795.967
576.2940, 1395.924
577.4660, 864.9736
578.6370, 588.0371
579.8080, 462.1191
580.9790, 254.2139
582.1500, 205.3262
583.3210, 200.4531
584.4910, 136.5938
585.6620, 159.7500
586.8320, 141.4004
588.0020, 193.1045
589.1720, 131.3027
590.3410, 127.5137
591.5110, 100.7393
592.6800, 121.9072
593.8500, 161.3672
595.0190, 228.3350
596.1880, 329.9414
597.3560, 469.8955
598.5250, 675.4717
599.6930, 822.8291
600.8620, 1216.689
602.0300, 1626.606
603.1970, 1947.830
604.3650, 2480.002
605.5330, 3026.039
606.7000, 3193.229
607.8680, 3135.842
609.0350, 2594.297
610.2020, 2303.320
611.3680, 1872.092
612.5350, 1615.927
613.7010, 1418.991
614.8680, 1279.735
616.0340, 1141.160
617.2000, 1202.021
618.3660, 1163.494
619.5310, 1120.805
620.6970, 1095.213
621.8620, 880.0742
623.0270, 888.2324
624.1920, 801.9629
625.3570, 1002.752
626.5220, 760.7939
627.6860, 1038.791
628.8500, 1226.475
630.0140, 1237.319
631.1780, 1171.275
632.3420, 1154.310
633.5060, 1206.010
634.6700, 1078.818
635.8330, 1127.867
636.9960, 1103.069
638.1590, 1081.744
639.3220, 996.9941
640.4850, 863.6328
641.6470, 729.2773
642.8100, 554.1836
643.9720, 339.7891
645.1340, 292.5293
646.2960, 101.8662
647.4570, 236.5225
648.6190, 257.7715
649.7800, 180.9893
650.9420, 298.7783
652.1030, 433.6650
653.2640, 382.5254
654.4240, 398.0635
655.5850, 538.1699
656.7450, 632.4668
657.9060, 631.9678
659.0660, 588.5664
660.2260, 616.9639
661.3850, 451.2783
662.5450, 526.3682
663.7040, 549.5762
664.8640, 598.6855
666.0230, 767.2842
667.1820, 753.5752
668.3410, 910.1387
669.4990, 884.7344
670.6580, 996.5508
671.8160, 952.5820
672.9740, 1018.945
674.1320, 809.8623
675.2900, 631.6113
676.4480, 474.3135
677.6050, 358.1855
678.7630, 418.2988
679.9200, 222.1787
681.0770, 391.5176
682.2340, 325.3994
683.3900, 402.4717
684.5470, 198.3125
685.7030, 254.1338
686.8590, 157.9395
688.0150, 171.7285
689.1710, 265.4971
690.3270, 112.2490
691.4830, 67.98242
692.6380, 78.69727
693.7930, 99.39258
694.9480, 133.0674
696.1030, 164.7236
697.2580, 51.36133
698.4130, 182.9766
699.5670, 159.5742
700.7210, 129.1494
701.8750, 348.7051
703.0290, 172.2383
704.1830, 212.7510
705.3370, 174.2432
706.4900, 238.7139
707.6430, 179.1631
708.7970, 99.59082
709.9490, 95.99707
711.1020, 68.37988
712.2550, 164.7412
713.4070, 29.07910
714.5600, 23.60938
715.7120, 273.6543
716.8640, 137.8916
718.0160, 164.1074
719.1670, 225.2998
720.3190, 163.4688
721.4700, 276.6123
722.6210, 306.7334
723.7720, 338.8301
724.9230, 357.9023
726.0740, 313.0107
727.2250, 290.6738
728.3750, 181.9727
729.5250, 173.9463
730.6750, 83.89453
731.8250, 10.69629
732.9750, 40.69922
734.1240, 10.55176
735.2740, 90.63574
736.4230, 64.08398
737.5720, 32.22461
738.7210, 8.402344
739.8700, 56.01172
741.0190, 26.49707
742.1670, 75.03027
743.3150, 7.356445
744.4630, 122.3008
745.6110, 86.92871
746.7590, 23.12988
747.9070, 86.70801
749.0540, 18.63965
750.2020, 17.37012
751.3490, 7.338867
752.4960, 72.25195
753.6430, 75.84668
754.7890, 60.95508
755.9360, 143.7246
757.0820, 57.53320
758.2280, 74.87402
759.3740, 2.301758
760.5200, 54.78320
761.6660, 20.65625
762.8120, 19.05469
763.9570, 12.41211
765.1020, 4.276367
766.2470, 63.01660
767.3920, 17.84082
768.5370, 3.726563
769.6810, 55.33594
770.8260, 47.63574
771.9700, 1.683594
773.1140, 54.21973
774.2580, 87.91113
775.4020, 104.8604
776.5460, 42.39941
777.6890, 14.73242
778.8320, 32.12402
779.9750, 36.58301
781.1180, 32.11133
782.2610, 18.62793
783.4040, 3.345703
784.5460, 19.93164
785.6890, 37.18555
786.8310, 38.40234
787.9730, 5.418945
789.1150, 59.70898
790.2560, 55.19824
791.3980, 111.8174
792.5390, 40.79980
793.6810, 163.7480
794.8220, 111.6670
795.9630, 85.55371
797.1030, 130.4092
798.2440, 147.2324
799.3840, 30.97168
800.5240, 165.7588
801.6650, 0.5390630
802.8040, 31.11621
803.9440, 134.7383
805.0840, 71.37109
806.2230, 18.99316
807.3630, 139.6416
808.5020, 170.2793
809.6410, 243.9209
810.7790, 174.5488
811.9180, 259.1748
813.0570, 80.81543
814.1950, 254.4492
815.3330, 193.0596
816.4710, 230.6582
817.6090, 80.23340
818.7470, 185.7764
819.8840, 136.2920
821.0220, 191.7793
822.1590, 254.2393
823.2960, 311.6719
824.4330, 220.0801
825.5690, 288.4619
826.7060, 195.8193
827.8420, 228.1504
828.9790, 259.4541
830.1150, 265.7314
831.2510, 253.9814
832.3860, 239.2090
833.5220, 288.4111
834.6570, 407.5898
835.7930, 203.7441
836.9280, 445.8721
838.0630, 320.9990
839.1980, 413.1123
840.3320, 281.1982
841.4670, 408.2578
842.6010, 236.2910
843.7350, 577.3193
844.8690, 290.3223
846.0030, 373.3037
847.1370, 344.2588
848.2700, 589.1387
849.4040, 510.0654
850.5370, 590.7305
851.6700, 605.7998
852.8030, 539.5303
853.9360, 556.3564
855.0680, 609.1562
856.2000, 563.9336
857.3330, 644.6865
858.4650, 668.1631
859.5970, 822.1152
860.7290, 765.7939
861.8600, 791.4463
862.9920, 850.0742
864.1230, 1019.679
865.2540, 1038.280
866.3850, 1035.866
867.5160, 1122.276
868.6460, 1028.544
869.7770, 1314.633
870.9070, 1102.791
872.0370, 1446.589
873.1670, 1572.753
874.2970, 1676.121
875.4270, 1811.986
876.5570, 2066.781
877.6860, 2197.273
878.8150, 2682.807
879.9440, 2784.459
881.0730, 3453.944
882.2020, 3802.995
883.3300, 4611.189
884.4590, 5292.799
885.5870, 6135.650
886.7150, 7028.542
887.8430, 7873.950
888.9710, 8666.784
890.0990, 8962.926
891.2260, 8929.611
892.3530, 8795.669
893.4810, 7933.875
894.6080, 7265.969
895.7340, 6554.604
896.8610, 6160.922
897.9880, 6063.656
899.1140, 5951.313
900.2400, 5917.713
901.3660, 5943.141
902.4920, 5811.899
903.6180, 5535.477
904.7430, 5113.114
905.8690, 4415.473
906.9940, 3926.163
908.1190, 3297.209
909.2440, 3041.643
910.3690, 2740.777
911.4930, 2528.419
912.6180, 2452.398
913.7420, 2492.109
914.8660, 2350.725
915.9900, 2356.929
917.1140, 2171.674
918.2380, 2289.135
919.3610, 2202.979
920.4850, 2131.506
921.6080, 2423.623
922.7310, 2353.721
923.8540, 2376.059
924.9760, 2497.277
926.0990, 2635.510
927.2210, 2739.041
928.3440, 2937.234
929.4660, 3167.968
930.5880, 3484.473
931.7090, 3963.873
932.8310, 4185.471
933.9520, 4643.195
935.0740, 5221.100
936.1950, 5581.999
937.3160, 5968.794
938.4360, 6385.762
939.5570, 6744.533
940.6780, 7148.791
941.7980, 7698.330
942.9180, 8215.892
944.0380, 9079.702
945.1580, 9618.656
946.2780, 10515.34
947.3970, 11199.72
948.5170, 12016.22
949.6360, 12664.31
950.7550, 13356.02
951.8740, 13531.00
952.9930, 13671.41
954.1110, 13567.21
955.2300, 13126.85
956.3480, 13210.60
957.4660, 12828.47
958.5840, 12950.64
959.7020, 12471.67
960.8190, 12869.72
961.9370, 12653.70
963.0540, 12266.37
964.1710, 11639.07
965.2880, 10619.68
966.4050, 9491.275
967.5220, 8393.243
968.6380, 7306.702
969.7550, 6367.551
970.8710, 5579.830
971.9870, 4821.193
973.1030, 4322.295
974.2190, 3845.844
975.3340, 3480.570
976.4500, 3075.104
977.5650, 2768.822
978.6800, 2457.389
979.7950, 2272.723
980.9100, 1984.361
982.0250, 1881.042
983.1390, 1680.846
984.2530, 1772.337
985.3680, 1590.041
986.4820, 1642.771
987.5950, 1601.523
988.7090, 1533.990
989.8230, 1623.163
990.9360, 1554.763
992.0490, 1783.209
993.1620, 1895.647
994.2750, 2046.374
995.3880, 2411.824
996.5010, 2809.242
997.6130, 3308.085
998.7250, 3790.368
999.8370, 3993.781
1000.949, 4449.407
1002.061, 4483.984
1003.173, 4170.744
1004.284, 3840.123
1005.396, 3090.500
1006.507, 2696.908
1007.618, 2149.691
1008.729, 1720.529
1009.839, 1434.080
1010.950, 1418.774
1012.060, 1226.502
1013.171, 1093.953
1014.281, 746.5996
1015.391, 808.0889
1016.500, 559.6230
1017.610, 682.4248
1018.719, 573.3096
1019.829, 484.1729
1020.938, 528.9688
1022.047, 478.9326
1023.156, 362.4482
1024.264, 519.9893
1025.373, 216.5254
1026.481, 270.3740
1027.589, 212.2324
1028.697, 350.9629
1029.805, 355.0029
1030.913, 287.0342
1032.020, 224.6338
1033.128, 149.0166
1034.235, 150.6191
1035.342, 185.6934
1036.449, 152.3242
1037.556, 4.396484
1038.663, 136.2666
1039.769, 54.52051
1040.875, 14.82324
1041.981, 22.83203
1043.087, 169.9238
1044.193, 74.93750
1045.299, 111.9766
1046.404, 160.6650
1047.510, 150.4717
1048.615, 180.5908
1049.720, 187.2002
1050.825, 172.0713
1051.930, 147.0479
1053.034, 83.74609
1054.139, 15.98340
1055.243, 23.83789
1056.347, 121.2354
1057.451, 64.98242
1058.555, 70.78223
1059.658, 165.8379
1060.762, 8.584961
1061.865, 151.1797
1062.968, 208.9160
1064.071, 177.7334
1065.174, 173.0664
1066.277, 61.91016
1067.380, 68.06152
1068.482, 35.98633
1069.584, 168.6914
1070.686, 35.41211
1071.788, 31.11328
1072.890, 104.8047
1073.992, 18.34180
1075.093, 219.3438
1076.194, 52.01758
1077.295, 32.68555
1078.396, 162.3418
1079.497, 81.00977
1080.598, 33.97461
1081.698, 0.5644530
1082.799, 114.4219
1083.899, 20.99023
1084.999, 47.10938
1086.099, 60.32031
1087.199, 44.97656
1088.298, 71.50586
1089.398, 40.72656
1090.497, 4.449219
1091.596, 2.044922
1092.695, 0.5292970
1093.794, 11.99805
1094.892, 83.45508
1095.991, 73.90430
1097.089, 197.3398
1098.187, 15.23047
1099.285, 7.177734
1100.383, 12.00781
1101.481, 34.37109
1102.579, 66.73828
1103.676, 99.90625
1104.773, 38.61328
1105.870, 165.6445
1106.967, 57.89453
1108.064, 178.1328
1109.161, 79.63867
1110.257, 94.53516
1111.353, 8.300781
1112.449, 72.84570
1113.545, 60.98047
1114.641, 79.89453
1115.737, 104.1738
1116.832, 52.23242
1117.928, 48.27930
1119.023, 41.39453
1120.118, 117.4180
1121.213, 5.431641
1122.308, 7.433594
1123.402, 180.4180
1124.497, 148.3945
1125.591, 40.36133
1126.685, 105.3145
1127.779, 116.2578
1128.873, 9.193359
1129.967, 68.88477
1131.060, 23.01367
1132.153, 57.83008
1133.247, 67.66211
1134.340, 25.48047
1135.433, 236.2871
1136.525, 119.0840
1137.618, 115.8691
1138.710, 25.64453
1139.802, 27.38867
1140.895, 85.14453
1141.987, 56.13086
1143.078, 47.54297
1144.170, 214.2031
1145.261, 73.85352
1146.353, 197.4922
1147.444, 109.1211
1148.535, 44.73633
1149.626, 32.33984
1150.716, 39.92578
1151.807, 56.26758
1152.897, 17.05664
1153.988, 128.6465
1155.078, 149.2246
1156.168, 146.7988
1157.257, 49.36328
1158.347, 51.91016
1159.436, 18.55664
1160.526, 16.94922
1161.615, 24.21289
1162.704, 164.0605
1163.793, 27.42383
1164.881, 144.0527
1165.970, 117.4727
1167.058, 249.9160
1168.147, 26.29102
1169.235, 76.47656
1170.323, 55.16602
1171.410, 165.1387
1172.498, 261.9492
1173.585, 27.09570
1174.673, 52.35742
1175.760, 45.60352
1176.847, 154.8320
1177.934, 107.2363
1179.020, 187.2480
1180.107, 63.43555
1181.193, 102.6055
1182.279, 79.76367
1183.365, 74.09570
1184.451, 20.98242
1185.537, 63.84180
1186.623, 24.71484
1187.708, 135.7383
1188.793, 11.25195
1189.878, 65.72852
1190.963, 284.6934
1192.048, 9.392578
1193.133, 138.3184
1194.217, 26.76758
1195.302, 50.89648
1196.386, 108.9199
1197.470, 33.65430
1198.554, 90.39844
1199.638, 307.9844
1200.721, 137.7520
1201.805, 292.3184
1202.888, 237.8477
1203.971, 101.5703
1205.054, 192.4199
1206.137, 179.1113
1207.219, 258.6602
1208.302, 153.1094
1209.384, 247.7598
1210.466, 0.2636720
1211.548, 174.1250
1212.630, 72.33984
1213.712, 270.9160
1214.794, 220.1973
1215.875, 86.57422
1216.956, 111.9863
1218.037, 237.3164
1219.118, 335.7422
1220.199, 7.021484
1221.280, 301.9785
1222.360, 161.0469
1223.441, 299.0762
1224.521, 208.1582
1225.601, 184.5234
1226.681, 205.8340
1227.760, 226.2207
1228.840, 315.5996
1229.919, 41.58008
1230.999, 410.0527
1232.078, 259.1133
1233.157, 168.2910
1234.236, 317.2246
1235.314, 181.9766
1236.393, 372.2520
1237.471, 253.3301
1238.549, 155.5820
1239.627, 179.6172
1240.705, 341.8008
1241.783, 468.1914
1242.860, 322.2539
1243.938, 417.2539
1245.015, 221.1094
1246.092, 194.2578
1247.169, 155.4121
1248.246, 107.9062
1249.323, 162.1387
1250.399, 140.2461
1251.475, 265.9062
1252.552, 360.5625
1253.628, 315.6328
1254.703, 367.6992
1255.779, 369.3320
1256.855, 329.5352
1257.930, 397.5605
1259.005, 294.3242
1260.080, 369.0664
1261.155, 288.2500
1262.230, 375.9922
1263.305, 367.7617
1264.379, 461.3379
1265.454, 488.2754
1266.528, 267.2051
1267.602, 279.1152
1268.676, 143.6816
1269.750, 195.1484
1270.823, 170.8906
1271.897, 188.8262
1272.970, 224.7500
1274.043, 295.8965
1275.116, 262.8906
1276.189, 313.7129
1277.261, 265.4727
1278.334, 226.9473
1279.406, 172.3574
1280.478, 186.7852
1281.550, 165.6641
1282.622, 255.4844
1283.694, 322.2246
1284.766, 240.0840
1285.837, 181.7988
1286.908, 259.2891
1287.979, 300.6699
1289.050, 158.9902
1290.121, 353.9180
1291.192, 257.1484
1292.262, 469.0430
1293.333, 555.9023
1294.403, 516.3008
1295.473, 461.4492
1296.543, 343.0527
1297.613, 162.4199
1298.682, 478.7754
1299.752, 652.8711
1300.821, 508.2891
1301.890, 988.0488
1302.959, 368.1504
1304.028, 418.3457
1305.096, 434.4980
1306.165, 400.0059
1307.233, 404.4414
1308.301, 408.9805
1309.370, 437.2109
1310.437, 431.9219
1311.505, 453.2109
1312.573, 449.5957
1313.640, 465.7539
1314.708, 434.1836
1315.775, 410.5488
1316.842, 361.1719
1317.908, 413.6504
1318.975, 308.7402
1320.042, 457.1289
1321.108, 435.6582
1322.174, 533.0293
1323.240, 401.4023
1324.306, 392.1543
1325.372, 402.7246
