##NAMES=Kyanite
##RRUFFID=R050450
##IDEAL CHEMISTRY=Al_2_OSiO_4_
##LOCALITY=Switzerland
##OWNER=RRUFF
##SOURCE=Marcus Origlieri
##DESCRIPTION=Blue bladed crystals
##STATUS=The identification of this mineral has been confirmed by X-ray diffraction and chemical analysis
##URL=rruff.info/R050450
##MEASURED CHEMISTRY=Al_2.00_OSi_1.00_O_4_
##PIN_ID=M00970
##ORIENTATION=Laser parallel to -a* (-1 0 0). Fiducial mark perpendicular to laser is parallel to b [0 1 0]
148.7160, 0.0000000E+00
149.9470, 47.51270
151.1780, 56.61084
152.4080, 51.29785
153.6380, 49.92090
154.8690, 9.889648
156.0980, 1.213379
157.3280, 47.69873
158.5580, 4.700684
159.7870, 104.2817
161.0170, 180.7554
162.2460, 156.4595
163.4750, 146.6631
164.7030, 156.2207
165.9320, 229.8140
167.1600, 123.3179
168.3890, 61.78760
169.6170, 90.20508
170.8450, 169.0410
172.0730, 99.30615
173.3000, 104.3496
174.5280, 60.14355
175.7550, 95.78613
176.9820, 148.6978
178.2090, 12.25537
179.4350, 39.15576
180.6620, 67.62646
181.8880, 12.26758
183.1150, 14.33545
184.3410, 43.87646
185.5670, 42.77246
186.7920, 31.51123
188.0180, 53.12158
189.2430, 38.62793
190.4690, 52.04590
191.6940, 7.842773
192.9180, 6.843750
194.1430, 60.53467
195.3680, 11.71045
196.5920, 161.0273
197.8160, 264.7549
199.0400, 324.4751
200.2640, 334.1953
201.4880, 250.9214
202.7110, 581.6787
203.9350, 817.7388
205.1580, 1093.685
206.3810, 1769.013
207.6040, 1824.510
208.8270, 1576.942
210.0490, 2390.460
211.2710, 613.0854
212.4940, 431.8271
213.7160, 141.6855
214.9370, 91.65381
216.1590, 3.275879
217.3810, 36.89453
218.6020, 18.16455
219.8230, 84.53174
221.0440, 180.9946
222.2650, 184.5610
223.4860, 407.2520
224.7060, 648.0508
225.9260, 886.9443
227.1470, 887.9219
228.3670, 690.9780
229.5860, 423.1089
230.8060, 185.3057
232.0260, 128.5586
233.2450, 7.137695
234.4640, 27.21387
235.6830, 2.393066
236.9020, 45.04102
238.1200, 25.49170
239.3390, 49.03027
240.5570, 119.4517
241.7750, 166.9707
242.9930, 294.5303
244.2110, 462.1113
245.4290, 418.7109
246.6460, 301.3428
247.8630, 347.0273
249.0810, 240.7607
250.2980, 406.5459
251.5140, 354.3770
252.7310, 229.2539
253.9470, 76.17383
255.1640, 5.860352
256.3800, 23.87695
257.5960, 57.85742
258.8120, 8.210938
260.0270, 35.39746
261.2430, 39.50684
262.4580, 92.29004
263.6730, 136.0225
264.8880, 232.7148
266.1030, 8.362305
267.3170, 45.91309
268.5320, 169.6182
269.7460, 420.2988
270.9600, 396.2295
272.1740, 534.3574
273.3880, 1164.689
274.6010, 1466.182
275.8150, 2315.773
277.0280, 3512.426
278.2410, 4246.100
279.4540, 3354.735
280.6670, 2074.264
281.8790, 1345.821
283.0920, 933.4209
284.3040, 612.0645
285.5160, 580.7510
286.7280, 837.4814
287.9400, 1199.256
289.1510, 2016.074
290.3630, 3115.937
291.5740, 4600.841
292.7850, 5025.791
293.9960, 5172.785
295.2070, 5034.065
296.4170, 6126.219
297.6280, 8646.234
298.8380, 12570.09
300.0480, 17871.83
301.2580, 23537.38
302.4680, 23162.71
303.6770, 17134.24
304.8870, 11092.36
306.0960, 6430.758
307.3050, 3588.086
308.5140, 2116.356
309.7230, 1140.557
310.9310, 813.7158
312.1400, 761.6846
313.3480, 681.6182
314.5560, 1225.249
315.7640, 1756.035
316.9720, 2460.896
318.1790, 3265.523
319.3870, 3720.212
320.5940, 4787.684
321.8010, 6915.430
323.0080, 10451.35
324.2150, 14697.15
325.4210, 19441.58
326.6280, 19726.34
327.8340, 14986.88
329.0400, 9782.114
330.2460, 5911.634
331.4510, 3162.207
332.6570, 1841.674
333.8620, 1259.487
335.0680, 782.2236
336.2730, 655.1543
337.4780, 709.2578
338.6820, 936.5820
339.8870, 1395.569
341.0910, 1816.346
342.2950, 1766.593
343.5000, 1590.877
344.7030, 1135.199
345.9070, 860.5576
347.1110, 770.9551
348.3140, 512.3760
349.5170, 836.8105
350.7200, 881.2539
351.9230, 1616.625
353.1260, 1752.904
354.3290, 2112.212
355.5310, 2787.564
356.7330, 4058.960
357.9350, 6208.399
359.1370, 8428.883
360.3390, 8063.078
361.5400, 9732.739
362.7420, 6897.169
363.9430, 4871.075
365.1440, 3221.769
366.3450, 2567.504
367.5460, 2626.279
368.7460, 3236.097
369.9470, 4196.953
371.1470, 5563.850
372.3470, 6567.786
373.5470, 6954.761
374.7460, 7587.775
375.9460, 8950.830
377.1450, 10788.92
378.3450, 11882.32
379.5440, 12166.49
380.7430, 13683.36
381.9410, 16968.61
383.1400, 22203.30
384.3380, 28304.97
385.5370, 31386.51
386.7350, 27856.53
387.9320, 21913.60
389.1300, 18057.69
390.3280, 16806.67
391.5250, 18454.34
392.7220, 19957.85
393.9190, 17344.40
395.1160, 13106.73
396.3130, 10241.40
397.5100, 8411.724
398.7060, 8428.997
399.9020, 10132.65
401.0980, 14080.52
402.2940, 19696.66
403.4900, 25803.54
404.6860, 28051.48
405.8810, 23998.33
407.0760, 17053.68
408.2710, 10653.45
409.4660, 6532.262
410.6610, 3807.199
411.8550, 2265.079
413.0500, 1540.214
414.2440, 883.4014
415.4380, 657.6211
416.6320, 517.8721
417.8260, 464.1504
419.0190, 368.4551
420.2130, 361.2939
421.4060, 421.1416
422.5990, 426.5234
423.7920, 568.9307
424.9850, 701.3643
426.1770, 1263.825
427.3700, 1729.311
428.5620, 2604.822
429.7540, 3324.358
430.9460, 4680.924
432.1380, 6483.539
433.3290, 8899.207
434.5210, 12064.90
435.7120, 15745.66
436.9030, 18219.46
438.0940, 19265.30
439.2850, 18772.18
440.4750, 15413.08
441.6660, 11142.01
442.8560, 7686.959
444.0460, 5661.935
445.2360, 4780.931
446.4260, 4954.951
447.6160, 5526.994
448.8050, 6069.059
449.9940, 5152.152
451.1830, 3746.268
452.3720, 2434.407
453.5610, 1623.571
454.7500, 984.7588
455.9380, 837.9756
457.1260, 833.2188
458.3150, 694.4912
459.5020, 937.7979
460.6900, 1100.149
461.8780, 1579.532
463.0650, 2123.949
464.2530, 2752.392
465.4400, 3185.871
466.6270, 3392.376
467.8130, 3086.911
469.0000, 2751.476
470.1870, 2497.072
471.3730, 2439.710
472.5590, 2397.385
473.7450, 2935.089
474.9310, 3868.818
476.1160, 5340.584
477.3020, 7843.390
478.4870, 10971.22
479.6720, 14238.08
480.8570, 17766.97
482.0420, 23508.90
483.2270, 32208.88
484.4110, 43662.89
485.5960, 55421.96
486.7800, 56159.03
487.9640, 56156.15
489.1480, 47641.29
490.3310, 36109.47
491.5150, 27344.66
492.6980, 21827.89
493.8810, 17757.14
495.0640, 14170.43
496.2470, 10893.77
497.4300, 8196.151
498.6120, 5997.582
499.7950, 4555.069
500.9770, 3344.600
502.1590, 2887.201
503.3410, 2274.843
504.5220, 2078.521
505.7040, 1730.220
506.8850, 1654.949
508.0660, 1665.721
509.2470, 1473.512
510.4280, 1570.352
511.6090, 1784.230
512.7890, 1638.129
513.9700, 1518.043
515.1500, 1422.980
516.3300, 849.9336
517.5100, 674.9033
518.6900, 501.8867
519.8690, 393.8857
521.0490, 204.9111
522.2280, 54.95215
523.4070, 66.00781
524.5860, 140.9209
525.7640, 2.108398
526.9430, 71.84082
528.1210, 14.80859
529.3000, 116.7715
530.4780, 115.7744
531.6560, 226.8184
532.8330, 140.9590
534.0110, 137.1562
535.1880, 136.4053
536.3650, 147.7080
537.5430, 152.0703
538.7190, 93.49609
539.8960, 109.9561
541.0730, 13.54395
542.2490, 128.9482
543.4250, 27.48926
544.6020, 105.9717
545.7780, 55.44336
546.9530, 167.9268
548.1290, 127.4248
549.3040, 186.9463
550.4800, 11.50293
551.6550, 112.1182
552.8300, 194.7422
554.0040, 332.6025
555.1790, 625.2969
556.3540, 975.3887
557.5280, 1182.728
558.7020, 1621.385
559.8760, 2402.048
561.0500, 3251.715
562.2230, 4342.387
563.3970, 4732.062
564.5700, 4384.742
565.7430, 3425.428
566.9160, 2485.113
568.0890, 2047.803
569.2620, 1645.495
570.4340, 1494.190
571.6070, 1303.178
572.7790, 1202.004
573.9510, 1118.603
575.1230, 947.0225
576.2940, 879.9932
577.4660, 731.8457
578.6370, 772.4971
579.8080, 695.5703
580.9790, 809.6494
582.1500, 895.7236
583.3210, 1047.443
584.4910, 1214.506
585.6620, 1478.196
586.8320, 1471.884
588.0020, 1298.568
589.1720, 1106.248
590.3410, 738.6885
591.5110, 676.3604
592.6800, 602.1992
593.8500, 650.1562
595.0190, 633.8164
596.1880, 650.4209
597.3560, 811.4551
598.5250, 869.6592
599.6930, 1033.339
600.8620, 1273.335
602.0300, 1617.984
603.1970, 1744.172
604.3650, 2098.110
605.5330, 2342.902
606.7000, 2521.678
607.8680, 2616.869
609.0350, 2356.641
610.2020, 2066.070
611.3680, 2014.808
612.5350, 1864.635
613.7010, 2044.895
614.8680, 2316.695
616.0340, 2449.922
617.2000, 2718.919
618.3660, 2847.955
619.5310, 3018.982
620.6970, 2912.052
621.8620, 2823.553
623.0270, 2934.273
624.1920, 3036.163
625.3570, 3356.111
626.5220, 3605.567
627.6860, 3860.699
628.8500, 4294.383
630.0140, 4666.195
631.1780, 5203.988
632.3420, 5724.281
633.5060, 6588.933
634.6700, 7513.581
635.8330, 8739.639
636.9960, 9517.128
638.1590, 9601.088
639.3220, 8831.108
640.4850, 7635.414
641.6470, 6292.615
642.8100, 5202.777
643.9720, 4381.984
645.1340, 3890.234
646.2960, 4056.188
647.4570, 4098.529
648.6190, 4281.995
649.7800, 4775.037
650.9420, 5283.517
652.1030, 5782.813
653.2640, 6764.783
654.4240, 7327.832
655.5850, 8099.872
656.7450, 8466.768
657.9060, 8013.643
659.0660, 7095.488
660.2260, 5901.916
661.3850, 4639.770
662.5450, 3785.539
663.7040, 3043.447
664.8640, 2556.350
666.0230, 2092.951
667.1820, 1923.438
668.3410, 1815.559
669.4990, 1709.543
670.6580, 1559.670
671.8160, 1336.771
672.9740, 1137.188
674.1320, 866.7646
675.2900, 774.3262
676.4480, 562.1191
677.6050, 495.5762
678.7630, 439.3945
679.9200, 470.2725
681.0770, 453.6523
682.2340, 408.3291
683.3900, 236.3301
684.5470, 274.6416
685.7030, 215.2012
686.8590, 151.1953
688.0150, 192.4385
689.1710, 189.6582
690.3270, 181.8545
691.4830, 151.0283
692.6380, 66.17871
693.7930, 40.69824
694.9480, 50.35449
696.1030, 40.11035
697.2580, 197.3721
698.4130, 184.3408
699.5670, 202.2852
700.7210, 288.2061
701.8750, 306.1016
703.0290, 333.2627
704.1830, 363.8203
705.3370, 326.6426
706.4900, 260.4414
707.6430, 162.2139
708.7970, 195.9609
709.9490, 65.68359
711.1020, 57.62109
712.2550, 54.00586
713.4070, 40.53125
714.5600, 95.96387
715.7120, 6.559570
716.8640, 71.20703
718.0160, 20.05859
719.1670, 58.28418
720.3190, 19.48145
721.4700, 28.63770
722.6210, 58.75879
723.7720, 350.8516
724.9230, 359.9180
726.0740, 382.9580
727.2250, 250.9736
728.3750, 35.96289
729.5250, 150.9199
730.6750, 92.85059
731.8250, 65.75488
732.9750, 205.6309
734.1240, 27.48047
735.2740, 55.29492
736.4230, 43.08105
737.5720, 2.835938
738.7210, 34.45410
739.8700, 23.19043
741.0190, 9.800781
742.1670, 59.36914
743.3150, 1.089844
744.4630, 88.40430
745.6110, 36.92285
746.7590, 84.31055
747.9070, 2.723633
749.0540, 15.09180
750.2020, 63.42285
751.3490, 28.72754
752.4960, 64.00293
753.6430, 3.250000
754.7890, 25.54492
755.9360, 35.60547
757.0820, 34.72559
758.2280, 30.81836
759.3740, 20.11914
760.5200, 56.10840
761.6660, 37.83008
762.8120, 29.25781
763.9570, 111.5977
765.1020, 49.57129
766.2470, 50.19434
767.3920, 30.06445
768.5370, 33.62012
769.6810, 9.278320
770.8260, 42.90234
771.9700, 62.50000
773.1140, 53.97168
774.2580, 93.51074
775.4020, 54.13477
776.5460, 119.8223
777.6890, 61.60840
778.8320, 172.4619
779.9750, 61.44336
781.1180, 0.5117190
782.2610, 78.43164
783.4040, 13.67090
784.5460, 68.81250
785.6890, 18.97656
786.8310, 98.25684
787.9730, 74.57227
789.1150, 26.04102
790.2560, 97.63574
791.3980, 7.785156
792.5390, 64.75977
793.6810, 95.29102
794.8220, 91.80176
795.9630, 181.2930
797.1030, 20.23633
798.2440, 72.20020
799.3840, 185.6162
800.5240, 43.01465
801.6650, 151.3926
802.8040, 190.7881
803.9440, 175.1660
805.0840, 49.54297
806.2230, 88.90527
807.3630, 35.27539
808.5020, 176.6543
809.6410, 124.0703
810.7790, 146.5039
811.9180, 152.9512
813.0570, 184.4141
814.1950, 269.8955
815.3330, 239.3975
816.4710, 202.9053
817.6090, 344.4238
818.7470, 226.9268
819.8840, 346.4453
821.0220, 218.9551
822.1590, 230.4512
823.2960, 222.9316
824.4330, 350.3975
825.5690, 377.8486
826.7060, 326.2852
827.8420, 370.7090
828.9790, 405.1182
830.1150, 417.2891
831.2510, 405.6182
832.3860, 365.5430
833.5220, 323.2139
834.6570, 352.5566
835.7930, 331.1055
836.9280, 349.2041
838.0630, 374.5078
839.1980, 480.8008
840.3320, 575.0811
841.4670, 602.3506
842.6010, 589.6084
843.7350, 617.8535
844.8690, 674.0879
846.0030, 689.2412
847.1370, 782.2354
848.2700, 782.3105
849.4040, 815.6055
850.5370, 917.0693
851.6700, 956.7227
852.8030, 981.9863
853.9360, 911.1934
855.0680, 1139.969
856.2000, 1220.729
857.3330, 1454.484
858.4650, 1350.588
859.5970, 1541.337
860.7290, 1486.449
861.8600, 1535.557
862.9920, 1474.657
864.1230, 1365.756
865.2540, 1315.085
866.3850, 1304.174
867.5160, 1236.086
868.6460, 1343.872
869.7770, 1350.970
870.9070, 1414.129
872.0370, 1325.867
873.1670, 1258.439
874.2970, 1397.561
875.4270, 1568.367
876.5570, 1670.565
877.6860, 1621.226
878.8150, 1789.134
879.9440, 1841.181
881.0730, 2091.235
882.2020, 2284.876
883.3300, 2363.928
884.4590, 2706.322
885.5870, 3001.409
886.7150, 3226.408
887.8430, 3527.976
888.9710, 3688.020
890.0990, 3865.626
891.2260, 4013.453
892.3530, 3941.229
893.4810, 4189.023
894.6080, 4157.761
895.7340, 4473.058
896.8610, 4908.123
897.9880, 5605.008
899.1140, 6010.823
900.2400, 6385.123
901.3660, 6567.734
902.4920, 6269.785
903.6180, 5883.692
904.7430, 5250.611
905.8690, 4531.018
906.9940, 4079.051
908.1190, 3441.074
909.2440, 3117.676
910.3690, 2773.839
911.4930, 2658.693
912.6180, 2603.328
913.7420, 2586.668
914.8660, 2516.101
915.9900, 2450.557
917.1140, 2354.960
918.2380, 2610.306
919.3610, 2625.937
920.4850, 2743.164
921.6080, 3022.533
922.7310, 3221.038
923.8540, 3400.096
924.9760, 3604.080
926.0990, 3922.237
927.2210, 4421.685
928.3440, 5094.388
929.4660, 5570.969
930.5880, 6192.560
931.7090, 6820.165
932.8310, 7850.217
933.9520, 8718.863
935.0740, 9555.575
936.1950, 10647.14
937.3160, 11638.48
938.4360, 12677.24
939.5570, 13552.00
940.6780, 14674.67
941.7980, 15298.45
942.9180, 16441.10
944.0380, 17551.93
945.1580, 18254.78
946.2780, 18815.64
947.3970, 18953.52
948.5170, 18951.41
949.6360, 18769.31
950.7550, 19236.23
951.8740, 19796.15
952.9930, 20583.09
954.1110, 21636.04
955.2300, 23179.00
956.3480, 25097.96
957.4660, 27132.95
958.5840, 28410.95
959.7020, 30250.95
960.8190, 31136.97
961.9370, 31634.00
963.0540, 30498.05
964.1710, 28779.10
965.2880, 25910.17
966.4050, 23020.28
967.5220, 19951.39
968.6380, 17514.53
969.7550, 14961.67
970.8710, 12805.83
971.9870, 11175.01
973.1030, 9412.192
974.2190, 8320.388
975.3340, 7031.599
976.4500, 6240.822
977.5650, 5552.058
978.6800, 5121.305
979.7950, 4446.564
980.9100, 3958.839
982.0250, 3669.128
983.1390, 3272.457
984.2530, 3015.825
985.3680, 2779.211
986.4820, 2497.646
987.5950, 2631.109
988.7090, 2171.615
989.8230, 2411.143
990.9360, 2350.684
992.0490, 2456.246
993.1620, 2603.826
994.2750, 2915.162
995.3880, 3236.031
996.5010, 3838.654
997.6130, 4352.881
998.7250, 5052.529
999.8370, 5846.244
1000.949, 6403.924
1002.061, 6493.833
1003.173, 6090.678
1004.284, 5122.465
1005.396, 4314.906
1006.507, 3398.557
1007.618, 2589.563
1008.729, 2289.703
1009.839, 1845.929
1010.950, 1985.270
1012.060, 1399.081
1013.171, 1296.163
1014.281, 1256.207
1015.391, 1020.432
1016.500, 1053.511
1017.610, 934.6680
1018.719, 914.7383
1019.829, 980.6621
1020.938, 971.8652
1022.047, 896.5615
1023.156, 876.5615
1024.264, 734.7363
1025.373, 776.8193
1026.481, 783.9229
1027.589, 688.0996
1028.697, 548.1797
1029.805, 621.2832
1030.913, 477.5098
1032.020, 394.9043
1033.128, 263.7344
1034.235, 268.9775
1035.342, 127.4229
1036.449, 273.7910
1037.556, 164.0391
1038.663, 102.2979
1039.769, 200.5693
1040.875, 5.944336
1041.981, 122.2588
1043.087, 163.6045
1044.193, 13.33984
1045.299, 101.0723
1046.404, 173.5303
1047.510, 202.0195
1048.615, 209.2324
1049.720, 210.0381
1050.825, 165.9189
1051.930, 110.8262
1053.034, 128.6738
1054.139, 21.45996
1055.243, 78.45020
1056.347, 141.3740
1057.451, 42.89258
1058.555, 36.96680
1059.658, 101.7539
1060.762, 58.51074
1061.865, 108.8760
1062.968, 77.62207
1064.071, 13.69531
1065.174, 10.39551
1066.277, 26.96094
1067.380, 167.4307
1068.482, 36.37695
1069.584, 31.77539
1070.686, 89.99609
1071.788, 222.8340
1072.890, 87.61230
1073.992, 103.3975
1075.093, 201.7617
1076.194, 272.0586
1077.295, 186.9238
1078.396, 328.8281
1079.497, 327.3760
1080.598, 424.1777
1081.698, 424.2441
1082.799, 350.0967
1083.899, 419.9082
1084.999, 483.7217
1086.099, 452.5371
1087.199, 328.3535
1088.298, 386.1719
1089.398, 357.1201
1090.497, 325.9414
1091.596, 318.7656
1092.695, 258.7383
1093.794, 292.6436
1094.892, 89.47070
1095.991, 158.2979
1097.089, 209.1270
1098.187, 25.95996
1099.285, 244.0342
1100.383, 114.8750
1101.481, 236.7158
1102.579, 50.55664
1103.676, 146.3955
1104.773, 131.2344
1105.870, 232.0742
1106.967, 197.9131
1108.064, 196.7510
1109.161, 390.5879
1110.257, 226.4229
1111.353, 260.2588
1112.449, 155.0947
1113.545, 239.9287
1114.641, 206.7617
1115.737, 212.5928
1116.832, 163.4209
1117.928, 137.2461
1119.023, 161.0713
1120.118, 216.8926
1121.213, 230.7109
1122.308, 147.5254
1123.402, 269.3379
1124.497, 96.14551
1125.591, 88.95020
1126.685, 199.7510
1127.779, 68.54883
1128.873, 6.657227
1129.967, 140.1250
1131.060, 27.90137
1132.153, 54.67871
1133.247, 4.450195
1134.340, 77.78613
1135.433, 59.93945
1136.525, 53.39648
1137.618, 39.76074
1138.710, 124.1318
1139.802, 29.57812
1140.895, 189.0508
1141.987, 30.62305
1143.078, 21.22168
1144.170, 11.16699
1145.261, 25.55273
1146.353, 41.06836
1147.444, 26.28809
1148.535, 22.36523
1149.626, 20.04492
1150.716, 32.75195
1151.807, 20.49219
1152.897, 91.24805
1153.988, 85.92871
1155.078, 38.10059
1156.168, 66.82227
1157.257, 46.58203
1158.347, 53.52734
1159.436, 159.6289
1160.526, 92.72266
1161.615, 61.80762
1162.704, 25.88965
1163.793, 11.66797
1164.881, 73.02930
1165.970, 33.09570
1167.058, 55.15527
1168.147, 122.2061
1169.235, 116.2471
1170.323, 245.2812
1171.410, 73.30469
1172.498, 153.3193
1173.585, 101.3232
1174.673, 95.68555
1175.760, 181.0879
1176.847, 189.9932
1177.934, 112.8877
1179.020, 88.77051
1180.107, 77.64160
1181.193, 117.4990
1182.279, 38.34473
1183.365, 53.70508
1184.451, 58.23145
1185.537, 49.51855
1186.623, 56.30469
1187.708, 111.0771
1188.793, 65.07617
1189.878, 164.2051
1190.963, 128.9365
1192.048, 5.394531
1193.133, 114.0840
1194.217, 44.76074
1195.302, 125.5791
1196.386, 75.01758
1197.470, 29.47168
1198.554, 79.93945
1199.638, 105.6035
1200.721, 221.2295
1201.805, 109.6553
1202.888, 192.0664
1203.971, 151.4639
1205.054, 37.84766
1206.137, 3.788086
1207.219, 12.46191
1208.302, 104.8242
1209.384, 34.09375
1210.466, 176.3428
1211.548, 70.57812
1212.630, 122.9404
1213.712, 201.1445
1214.794, 251.3330
1215.875, 220.5078
1216.956, 252.6689
1218.037, 187.8145
1219.118, 107.9463
1220.199, 166.0615
1221.280, 247.1826
1222.360, 105.2695
1223.441, 122.3389
1224.521, 246.3945
1225.601, 146.4336
1226.681, 180.4941
1227.760, 308.1396
1228.840, 89.38672
1229.919, 298.7246
1230.999, 260.6875
1232.078, 361.6328
1233.157, 458.5625
1234.236, 374.4775
1235.314, 331.3750
1236.393, 489.2568
1237.471, 370.1240
1238.549, 527.9736
1239.627, 409.8076
1240.705, 515.7393
1241.783, 505.9043
1242.860, 392.6885
1243.938, 333.4561
1245.015, 396.2080
1246.092, 393.9424
1247.169, 362.6621
1248.246, 551.3652
1249.323, 411.0684
1250.399, 494.7559
1251.475, 270.4258
1252.552, 543.0791
1253.628, 737.7158
1254.703, 499.3369
1255.779, 458.9424
1256.855, 484.5312
1257.930, 475.1025
1259.005, 567.0635
1260.080, 527.6094
1261.155, 457.9814
1262.230, 616.5137
1263.305, 579.8223
1264.379, 640.6758
1265.454, 744.0918
1266.528, 620.8516
1267.602, 676.6523
1268.676, 692.3486
1269.750, 621.7920
1270.823, 749.4453
1271.897, 747.0996
1272.970, 797.9805
1274.043, 686.7568
1275.116, 898.2949
1276.189, 682.3213
1277.261, 719.4707
1278.334, 782.7402
1279.406, 631.8984
1280.478, 565.5918
1281.550, 583.1689
1282.622, 522.7988
1283.694, 558.3818
1284.766, 479.4346
1285.837, 431.5879
1286.908, 511.9102
1287.979, 502.9902
1289.050, 559.1396
1290.121, 565.2754
1291.192, 739.9082
1292.262, 669.1348
1293.333, 804.6299
1294.403, 660.8652
1295.473, 787.8613
1296.543, 658.9277
1297.613, 664.2158
1298.682, 700.7852
1299.752, 612.7842
1300.821, 535.6797
1301.890, 606.6523
1302.959, 585.6094
1304.028, 747.8809
1305.096, 823.8086
1306.165, 704.7207
1307.233, 888.6201
1308.301, 762.4385
1309.370, 821.1904
1310.437, 947.0439
1311.505, 896.5742
1312.573, 897.1670
1313.640, 779.7568
1314.708, 834.2988
1315.775, 764.8525
1316.842, 817.6191
1317.908, 764.1846
1318.975, 850.9482
1320.042, 895.7002
1321.108, 812.7910
1322.174, 840.4277
1323.240, 717.9141
1324.306, 723.6787
1325.372, 615.5830
1326.438, 478.5781
