##NAMES=Kyanite
##RRUFFID=R050450
##IDEAL CHEMISTRY=Al_2_OSiO_4_
##LOCALITY=Switzerland
##OWNER=RRUFF
##SOURCE=Marcus Origlieri
##DESCRIPTION=Blue bladed crystals
##STATUS=The identification of this mineral has been confirmed by X-ray diffraction and chemical analysis
##URL=rruff.info/R050450
##MEASURED CHEMISTRY=Al_2.00_OSi_1.00_O_4_
##PIN_ID=M00770
##ORIENTATION=Laser parallel to (0 1 -1). Fiducial mark perpendicular to laser is parallel to -a [-1 0 0]
162.2460, 0.0000000E+00
163.4750, 24.94043
164.7030, 63.56836
165.9320, 34.01074
167.1600, 83.21875
168.3890, 100.7861
169.6170, 37.79688
170.8450, 149.2754
172.0730, 219.0459
173.3000, 216.6914
174.5280, 54.79004
175.7550, 226.2842
176.9820, 141.5273
178.2090, 142.9102
179.4350, 173.0430
180.6620, 176.3711
181.8880, 85.80566
183.1150, 59.28320
184.3410, 33.77344
185.5670, 21.72656
186.7920, 19.12500
188.0180, 41.30176
189.2430, 16.64258
190.4690, 0.9208980
191.6940, 42.24805
192.9180, 15.12988
194.1430, 9.738281
195.3680, 100.3418
196.5920, 175.0176
197.8160, 370.3770
199.0400, 601.4746
200.2640, 740.3506
201.4880, 888.0596
202.7110, 797.5723
203.9350, 1167.972
205.1580, 1204.263
206.3810, 1444.461
207.6040, 1369.584
208.8270, 1261.110
210.0490, 1141.555
211.2710, 921.3213
212.4940, 728.0986
213.7160, 348.9668
214.9370, 336.8096
216.1590, 253.2002
217.3810, 347.7520
218.6020, 204.4658
219.8230, 185.3545
221.0440, 378.4326
222.2650, 360.7100
223.4860, 379.1797
224.7060, 601.8262
225.9260, 656.6377
227.1470, 726.6094
228.3670, 698.7363
229.5860, 515.0166
230.8060, 273.4453
232.0260, 135.0225
233.2450, 59.74219
234.4640, 63.60449
235.6830, 87.59473
236.9020, 77.68457
238.1200, 37.87500
239.3390, 106.1660
240.5570, 159.5547
241.7750, 172.0391
242.9930, 250.6162
244.2110, 374.2822
245.4290, 299.0322
246.6460, 462.8682
247.8630, 358.7910
249.0810, 328.7969
250.2980, 206.8594
251.5140, 145.9434
252.7310, 123.1426
253.9470, 44.40625
255.1640, 123.2490
256.3800, 81.82520
257.5960, 140.3223
258.8120, 245.7402
260.0270, 58.91309
261.2430, 261.6338
262.4580, 3.415039
263.6730, 118.7402
264.8880, 282.8330
266.1030, 99.86035
267.3170, 38.17676
268.5320, 364.2812
269.7460, 587.4531
270.9600, 1084.693
272.1740, 1036.000
273.3880, 1118.414
274.6010, 1750.090
275.8150, 2274.054
277.0280, 2547.268
278.2410, 2867.737
279.4540, 2837.541
280.6670, 2664.558
281.8790, 2094.646
283.0920, 1638.699
284.3040, 1448.621
285.5160, 1268.604
286.7280, 1257.512
287.9400, 1637.350
289.1510, 2232.248
290.3630, 2959.205
291.5740, 4176.221
292.7850, 6179.298
293.9960, 8026.434
295.2070, 8975.630
296.4170, 8848.883
297.6280, 9764.200
298.8380, 12510.57
300.0480, 15016.01
301.2580, 16595.50
302.4680, 17128.05
303.6770, 16231.66
304.8870, 13304.33
306.0960, 9285.061
307.3050, 6034.850
308.5140, 3716.775
309.7230, 2049.841
310.9310, 1395.000
312.1400, 1184.230
313.3480, 1069.516
314.5560, 1662.852
315.7640, 2499.224
316.9720, 4052.618
318.1790, 6025.045
319.3870, 7626.506
320.5940, 8048.008
321.8010, 8928.546
323.0080, 11703.98
324.2150, 14341.41
325.4210, 15995.89
326.6280, 16812.41
327.8340, 15944.99
329.0400, 13282.61
330.2460, 9358.287
331.4510, 6144.006
332.6570, 3765.759
333.8620, 2377.535
335.0680, 1755.332
336.2730, 1327.769
337.4780, 1286.820
338.6820, 1303.443
339.8870, 1603.287
341.0910, 1807.231
342.2950, 1772.213
343.5000, 1852.233
344.7030, 1611.293
345.9070, 1234.393
347.1110, 1188.535
348.3140, 829.7188
349.5170, 918.9473
350.7200, 1181.220
351.9230, 1648.535
353.1260, 2348.898
354.3290, 2756.213
355.5310, 3020.419
356.7330, 3461.503
357.9350, 4666.641
359.1370, 5402.578
360.3390, 6318.518
361.5400, 6320.521
362.7420, 6211.588
363.9430, 5496.717
365.1440, 4838.908
366.3450, 4331.158
367.5460, 3998.471
368.7460, 4431.842
369.9470, 5608.273
371.1470, 6777.762
372.3470, 7409.311
373.5470, 8427.917
374.7460, 9214.580
375.9460, 10141.30
377.1450, 12201.07
378.3450, 14145.90
379.5440, 14646.79
380.7430, 15266.73
381.9410, 16859.72
383.1400, 19910.63
384.3380, 22724.56
385.5370, 24956.09
386.7350, 24957.54
387.9320, 22918.48
389.1300, 19730.23
390.3280, 18369.54
391.5250, 16956.23
392.7220, 15778.17
393.9190, 15296.16
395.1160, 14825.57
396.3130, 13497.02
397.5100, 12723.69
398.7060, 12063.50
399.9020, 11733.59
401.0980, 13216.65
402.2940, 16190.10
403.4900, 18649.37
404.6860, 19775.29
405.8810, 19172.25
407.0760, 16619.44
408.2710, 12635.82
409.4660, 8545.576
410.6610, 5317.233
411.8550, 3440.418
413.0500, 2188.648
414.2440, 1440.921
415.4380, 1039.238
416.6320, 973.5977
417.8260, 960.0010
419.0190, 965.4453
420.2130, 917.9307
421.4060, 828.4551
422.5990, 838.0166
423.7920, 934.6162
424.9850, 1110.251
426.1770, 1380.921
427.3700, 2102.627
428.5620, 3305.369
429.7540, 4581.146
430.9460, 6099.963
432.1380, 7813.814
433.3290, 9790.700
434.5210, 11242.63
435.7120, 12988.59
436.9030, 14889.58
438.0940, 15643.62
439.2850, 15398.69
440.4750, 14135.79
441.6660, 12170.92
442.8560, 9812.099
444.0460, 7384.307
445.2360, 5725.548
446.4260, 4934.824
447.6160, 4731.133
448.8050, 4621.478
449.9940, 4178.854
451.1830, 3630.265
452.3720, 2857.713
453.5610, 1891.197
454.7500, 1257.725
455.9380, 956.2900
457.1260, 808.8906
458.3150, 680.5293
459.5020, 789.2041
460.6900, 1061.916
461.8780, 1358.664
463.0650, 1565.447
464.2530, 2014.267
465.4400, 2084.122
466.6270, 2144.028
467.8130, 2342.978
469.0000, 2179.978
470.1870, 2245.015
471.3730, 2351.124
472.5590, 2575.270
473.7450, 3069.457
474.9310, 4039.709
476.1160, 5771.998
477.3020, 8982.326
478.4870, 13469.69
479.6720, 19229.11
480.8570, 24046.59
482.0420, 28533.13
483.2270, 33704.72
484.4110, 40976.35
485.5960, 47814.03
486.7800, 51982.75
487.9640, 52563.53
489.1480, 48782.34
490.3310, 41161.18
491.5150, 33132.07
492.6980, 25780.98
493.8810, 19886.93
495.0640, 15731.92
496.2470, 12135.97
497.4300, 9454.104
498.6120, 7245.282
499.7950, 5564.508
500.9770, 4315.783
502.1590, 3426.115
503.3410, 2730.498
504.5220, 2472.936
505.7040, 2169.426
506.8850, 2277.971
508.0660, 1969.587
509.2470, 2118.260
510.4280, 2180.987
511.6090, 2135.787
512.7890, 2080.690
513.9700, 2087.529
515.1500, 1700.456
516.3300, 1439.438
517.5100, 1018.450
518.6900, 750.4961
519.8690, 484.5752
521.0490, 290.6865
522.2280, 58.83887
523.4070, 135.0273
524.5860, 124.7461
525.7640, 123.5293
526.9430, 291.3340
528.1210, 148.2178
529.3000, 174.1416
530.4780, 205.1162
531.6560, 64.15820
532.8330, 165.2061
534.0110, 289.3027
535.1880, 203.5146
536.3650, 260.7959
537.5430, 137.1768
538.7190, 42.59473
539.8960, 22.01074
541.0730, 101.4180
542.2490, 4.820313
543.4250, 15.80957
544.6020, 53.49512
545.7780, 133.2607
546.9530, 69.04785
548.1290, 23.14453
549.3040, 83.66895
550.4800, 192.5273
551.6550, 20.47363
552.8300, 238.4590
554.0040, 302.4639
555.1790, 628.4883
556.3540, 1050.530
557.5280, 1405.592
558.7020, 1819.672
559.8760, 2190.770
561.0500, 2743.884
562.2230, 3145.018
563.3970, 3608.167
564.5700, 3653.334
565.7430, 3265.517
566.9160, 2690.716
568.0890, 2228.932
569.2620, 1743.162
570.4340, 1387.408
571.6070, 1142.670
572.7790, 1103.945
573.9510, 930.2363
575.1230, 823.5420
576.2940, 750.8613
577.4660, 696.1934
578.6370, 753.5410
579.8080, 914.9004
580.9790, 971.2734
582.1500, 1069.659
583.3210, 1380.059
584.4910, 1429.469
585.6620, 1648.892
586.8320, 1473.325
588.0020, 1402.771
589.1720, 1317.228
590.3410, 1111.695
591.5110, 737.1719
592.6800, 452.6602
593.8500, 484.1719
595.0190, 433.6777
596.1880, 546.1953
597.3560, 510.7256
598.5250, 599.5068
599.6930, 724.0107
600.8620, 787.6230
602.0300, 942.1836
603.1970, 1078.751
604.3650, 1202.326
605.5330, 1402.083
606.7000, 1472.727
607.8680, 1641.574
609.0350, 1612.244
610.2020, 1538.074
611.3680, 1526.756
612.5350, 1537.604
613.7010, 1560.666
614.8680, 1761.123
616.0340, 1777.748
617.2000, 1855.393
618.3660, 1894.023
619.5310, 1996.188
620.6970, 2011.813
621.8620, 2051.864
623.0270, 1866.275
624.1920, 2069.357
625.3570, 2053.187
626.5220, 2203.685
627.6860, 2746.549
628.8500, 3151.364
630.0140, 3882.502
631.1780, 4603.443
632.3420, 5197.660
633.5060, 6150.506
634.6700, 6897.217
635.8330, 7518.121
636.9960, 8087.559
638.1590, 8049.904
639.3220, 7828.699
640.4850, 7032.441
641.6470, 5774.960
642.8100, 4679.048
643.9720, 4102.409
645.1340, 3447.290
646.2960, 3114.201
647.4570, 2963.400
648.6190, 2880.680
649.7800, 3261.555
650.9420, 3692.419
652.1030, 4107.492
653.2640, 4642.785
654.4240, 4795.736
655.5850, 5293.814
656.7450, 5491.074
657.9060, 5467.300
659.0660, 4759.914
660.2260, 4420.938
661.3850, 3592.134
662.5450, 2990.254
663.7040, 2208.871
664.8640, 1875.480
666.0230, 1487.472
667.1820, 1356.104
668.3410, 1032.603
669.4990, 888.8047
670.6580, 1029.055
671.8160, 891.3740
672.9740, 713.4307
674.1320, 583.1367
675.2900, 447.9873
676.4480, 372.9482
677.6050, 442.5322
678.7630, 274.6367
679.9200, 360.9141
681.0770, 299.1309
682.2340, 322.7686
683.3900, 295.1543
684.5470, 389.2109
685.7030, 399.2510
686.8590, 343.2764
688.0150, 431.0732
689.1710, 246.0664
690.3270, 401.0439
691.4830, 222.0059
692.6380, 230.9492
693.7930, 234.8779
694.9480, 313.7881
696.1030, 389.6816
697.2580, 355.5576
698.4130, 349.5586
699.5670, 482.3994
700.7210, 501.2217
701.8750, 510.0254
703.0290, 390.8115
704.1830, 425.4902
705.3370, 369.7891
706.4900, 368.0586
707.6430, 352.7686
708.7970, 255.4600
709.9490, 348.1318
711.1020, 223.7842
712.2550, 275.4170
713.4070, 287.0283
714.5600, 217.6201
715.7120, 193.1914
716.8640, 358.7432
718.0160, 342.2725
719.1670, 454.7812
720.3190, 364.2695
721.4700, 460.8477
722.6210, 468.1826
723.7720, 525.6074
724.9230, 549.0098
726.0740, 449.3896
727.2250, 426.7490
728.3750, 388.0850
729.5250, 283.3984
730.6750, 359.6904
731.8250, 109.9600
732.9750, 20.20605
734.1240, 261.4189
735.2740, 117.6074
736.4230, 70.77246
737.5720, 173.9141
738.7210, 109.0303
739.8700, 132.1240
741.0190, 130.1934
742.1670, 145.2383
743.3150, 88.26074
744.4630, 9.744141
745.6110, 11.20117
746.7590, 13.89453
747.9070, 82.95605
749.0540, 93.21973
750.2020, 83.50879
751.3490, 14.21094
752.4960, 73.12695
753.6430, 162.4512
754.7890, 28.00488
755.9360, 180.5225
757.0820, 51.98340
758.2280, 4.436523
759.3740, 18.18848
760.5200, 23.87109
761.6660, 18.61328
762.8120, 106.5869
763.9570, 25.23926
765.1020, 31.12695
766.2470, 111.9219
767.3920, 60.94336
768.5370, 82.93555
769.6810, 54.90332
770.8260, 105.8408
771.9700, 13.24609
773.1140, 48.38867
774.2580, 152.6035
775.4020, 7.946289
776.5460, 15.33887
777.6890, 14.78711
778.8320, 59.29102
779.9750, 20.87402
781.1180, 41.51465
782.2610, 34.22461
783.4040, 51.00000
784.5460, 103.8477
785.6890, 57.79688
786.8310, 51.82227
787.9730, 115.9209
789.1150, 56.12793
790.2560, 38.59277
791.3980, 9.278320
792.5390, 58.07617
793.6810, 36.49609
794.8220, 37.03613
795.9630, 15.81250
797.1030, 49.01367
798.2440, 15.54688
799.3840, 0.8408200
800.5240, 7.813477
801.6650, 37.99707
802.8040, 3.385742
803.9440, 80.00098
805.0840, 63.23535
806.2230, 44.47754
807.3630, 63.73633
808.5020, 154.0146
809.6410, 132.2822
810.7790, 220.5625
811.9180, 126.8877
813.0570, 137.2363
814.1950, 25.63379
815.3330, 200.0303
816.4710, 98.41602
817.6090, 150.7812
818.7470, 310.1465
819.8840, 90.49121
821.0220, 180.8115
822.1590, 174.1094
823.2960, 234.3848
824.4330, 370.6348
825.5690, 219.8701
826.7060, 277.0820
827.8420, 314.2881
828.9790, 174.4775
830.1150, 410.6436
831.2510, 398.7959
832.3860, 370.9248
833.5220, 350.0303
834.6570, 131.1172
835.7930, 261.1777
836.9280, 252.2158
838.0630, 412.2334
839.1980, 381.2266
840.3320, 355.1982
841.4670, 441.1465
842.6010, 235.0732
843.7350, 410.9775
844.8690, 197.8584
846.0030, 360.7178
847.1370, 295.5557
848.2700, 321.3711
849.4040, 337.1641
850.5370, 395.9346
851.6700, 312.6836
852.8030, 425.4102
853.9360, 453.1152
855.0680, 378.7988
856.2000, 468.5205
857.3330, 465.1025
858.4650, 533.7227
859.5970, 544.3232
860.7290, 579.9043
861.8600, 706.4648
862.9920, 823.0049
864.1230, 795.5234
865.2540, 798.0234
866.3850, 820.5020
867.5160, 906.9619
868.6460, 1067.388
869.7770, 1129.810
870.9070, 1089.232
872.0370, 1053.630
873.1670, 1316.817
874.2970, 1528.190
875.4270, 1516.482
876.5570, 1666.817
877.6860, 1923.133
878.8150, 2096.438
879.9440, 2408.563
881.0730, 2875.072
882.2020, 3404.836
883.3300, 3938.035
884.4590, 4358.061
885.5870, 5278.221
886.7150, 5535.210
887.8430, 6362.998
888.9710, 6958.439
890.0990, 7373.700
891.2260, 7512.932
892.3530, 7938.165
893.4810, 8111.852
894.6080, 8418.059
895.7340, 8697.827
896.8610, 9147.245
897.9880, 9616.981
899.1140, 9937.951
900.2400, 10232.24
901.3660, 10041.17
902.4920, 10019.09
903.6180, 9152.690
904.7430, 8334.418
905.8690, 7274.916
906.9940, 6453.229
908.1190, 5231.217
909.2440, 4488.989
910.3690, 3767.215
911.4930, 3448.748
912.6180, 3179.585
913.7420, 3027.454
914.8660, 2728.531
915.9900, 2744.020
917.1140, 2740.215
918.2380, 3034.872
919.3610, 2911.604
920.4850, 3156.977
921.6080, 3201.225
922.7310, 3363.908
923.8540, 3369.487
924.9760, 3708.928
926.0990, 4097.031
927.2210, 4286.463
928.3440, 4747.152
929.4660, 5231.286
930.5880, 5835.381
931.7090, 6430.063
932.8310, 7172.346
933.9520, 7850.435
935.0740, 8646.906
936.1950, 9469.197
937.3160, 10345.99
938.4360, 11310.95
939.5570, 12260.33
940.6780, 12992.75
941.7980, 14096.59
942.9180, 14853.01
944.0380, 15806.83
945.1580, 16393.56
946.2780, 16704.70
947.3970, 17181.40
948.5170, 17046.23
949.6360, 17086.25
950.7550, 17246.10
951.8740, 17566.66
952.9930, 18062.45
954.1110, 19005.30
955.2300, 19948.17
956.3480, 21220.01
957.4660, 22625.04
958.5840, 23563.97
959.7020, 24649.79
960.8190, 25696.62
961.9370, 25744.60
963.0540, 25082.45
964.1710, 24086.49
965.2880, 22207.23
966.4050, 20011.04
967.5220, 17647.83
968.6380, 15574.17
969.7550, 13493.81
970.8710, 11824.59
971.9870, 10009.75
973.1030, 8636.521
974.2190, 7572.283
975.3340, 6572.311
976.4500, 5826.065
977.5650, 5209.814
978.6800, 4644.793
979.7950, 4143.535
980.9100, 3741.272
982.0250, 3316.005
983.1390, 2910.734
984.2530, 2840.457
985.3680, 2623.182
986.4820, 2363.898
987.5950, 2213.988
988.7090, 2028.699
989.8230, 1940.406
990.9360, 2020.500
992.0490, 1964.201
993.1620, 2041.146
994.2750, 2248.488
995.3880, 2549.180
996.5010, 2716.047
997.6130, 2991.883
998.7250, 3314.000
999.8370, 3776.682
1000.949, 4068.805
1002.061, 3912.844
1003.173, 3678.518
1004.284, 3425.650
1005.396, 2872.322
1006.507, 2529.541
1007.618, 2167.240
1008.729, 1718.908
1009.839, 1515.031
1010.950, 1196.131
1012.060, 955.2461
1013.171, 938.6992
1014.281, 880.0684
1015.391, 760.9961
1016.500, 738.2051
1017.610, 658.1523
1018.719, 582.8359
1019.829, 548.7402
1020.938, 543.2207
1022.047, 431.5000
1023.156, 364.7266
1024.264, 444.0938
1025.373, 478.8945
1026.481, 293.6426
1027.589, 223.8262
1028.697, 241.6016
1029.805, 172.5508
1030.913, 119.8379
1032.020, 192.7441
1033.128, 184.5566
1034.235, 70.38086
1035.342, 150.3027
1036.449, 136.1641
1037.556, 33.00000
1038.663, 170.3066
1039.769, 15.69141
1040.875, 163.0625
1041.981, 123.8848
1043.087, 103.1113
1044.193, 1.429688
1045.299, 101.4668
1046.404, 58.68359
1047.510, 56.94922
1048.615, 117.8848
1049.720, 61.79297
1050.825, 70.84570
1051.930, 20.77539
1053.034, 33.77539
1054.139, 39.80859
1055.243, 28.86133
1056.347, 105.0918
1057.451, 31.19727
1058.555, 106.3223
1059.658, 72.12500
1060.762, 9.060547
1061.865, 44.42578
1062.968, 74.77734
1064.071, 109.9980
1065.174, 113.0703
1066.277, 125.4473
1067.380, 76.68164
1068.482, 94.82812
1069.584, 58.35742
1070.686, 12.42773
1071.788, 17.73242
1072.890, 70.91602
1073.992, 38.59766
1075.093, 90.69922
1076.194, 246.9688
1077.295, 148.3223
1078.396, 12.46484
1079.497, 181.6172
1080.598, 63.20898
1081.698, 252.0820
1082.799, 167.5742
1083.899, 87.18555
1084.999, 239.2188
1086.099, 180.2129
1087.199, 6.482422
1088.298, 150.9141
1089.398, 42.96680
1090.497, 68.01758
1091.596, 148.0566
1092.695, 206.0918
1093.794, 73.87891
1094.892, 18.89844
1095.991, 39.06836
1097.089, 36.97266
1098.187, 116.9570
1099.285, 115.8809
1100.383, 4.199219
1101.481, 257.7070
1102.579, 222.6094
1103.676, 7.500000
1104.773, 246.3828
1105.870, 130.2559
1106.967, 40.12305
1108.064, 243.0215
1109.161, 140.8691
1110.257, 51.72852
1111.353, 441.5801
1112.449, 179.4219
1113.545, 238.2559
1114.641, 331.0820
1115.737, 168.9141
1116.832, 322.7773
1117.928, 450.6504
1119.023, 26.52344
1120.118, 318.3906
1121.213, 175.2461
1122.308, 27.10352
1123.402, 182.9492
1124.497, 62.78320
1125.591, 0.3945310
1126.685, 201.4141
1127.779, 83.21484
1128.873, 91.00781
1129.967, 23.78906
1131.060, 171.5625
1132.153, 23.32617
1133.247, 44.07422
1134.340, 152.8105
1135.433, 76.46289
1136.525, 237.2051
1137.618, 29.12109
1138.710, 129.9805
1139.802, 211.8496
1140.895, 31.14453
1141.987, 36.99805
1143.078, 9.207031
1144.170, 45.98633
1145.261, 28.25586
1146.353, 20.59766
1147.444, 19.05078
1148.535, 85.50000
1149.626, 162.9395
1150.716, 17.63281
1151.807, 74.23828
1152.897, 213.8848
1153.988, 39.86523
1155.078, 6.816406
1156.168, 143.8926
1157.257, 268.2520
1158.347, 58.40625
1159.436, 173.5469
1160.526, 77.32812
1161.615, 43.93750
1162.704, 138.9805
1163.793, 266.0078
1164.881, 186.3594
1165.970, 5.533203
1167.058, 158.5078
1168.147, 213.4668
1169.235, 0.5351560
1170.323, 123.3789
1171.410, 39.18750
1172.498, 237.6602
1173.585, 77.49219
1174.673, 34.30664
1175.760, 310.8711
1176.847, 96.64648
1177.934, 88.40625
1179.020, 179.1445
1180.107, 288.8672
1181.193, 215.5723
1182.279, 272.2598
1183.365, 274.7812
1184.451, 325.3633
1185.537, 335.9492
1186.623, 141.4707
1187.708, 233.0703
1188.793, 365.5566
1189.878, 96.11914
1190.963, 180.6602
1192.048, 100.7773
1193.133, 133.2676
1194.217, 164.7480
1195.302, 69.36133
1196.386, 250.0391
1197.470, 429.4082
1198.554, 248.7617
1199.638, 98.17188
1200.721, 177.8320
1201.805, 205.5488
1202.888, 290.7207
1203.971, 117.9707
1205.054, 157.6074
1206.137, 164.8164
1207.219, 143.0039
1208.302, 238.1699
1209.384, 188.9473
1210.466, 183.6406
1211.548, 145.3262
1212.630, 96.48828
1213.712, 67.54883
1214.794, 14.39844
1215.875, 24.77148
1216.956, 147.8125
1218.037, 107.7090
1219.118, 201.6211
1220.199, 279.4473
1221.280, 344.2324
1222.360, 366.0801
1223.441, 314.1426
1224.521, 267.9570
1225.601, 419.4277
1226.681, 283.9609
1227.760, 244.1445
1228.840, 409.8652
1229.919, 324.1855
1230.999, 259.3066
1232.078, 424.3125
1233.157, 223.9980
1234.236, 259.4609
1235.314, 383.5215
1236.393, 379.6328
1237.471, 193.9121
1238.549, 282.4375
1239.627, 249.3809
1240.705, 439.7617
1241.783, 389.4199
1242.860, 488.3926
1243.938, 324.8809
1245.015, 391.7168
1246.092, 355.5156
1247.169, 381.9961
1248.246, 501.8594
1249.323, 249.7324
1250.399, 410.0137
1251.475, 536.1719
1252.552, 309.0156
1253.628, 420.2227
1254.703, 330.4473
1255.779, 420.3047
1256.855, 338.4004
1257.930, 389.1953
1259.005, 370.8887
1260.080, 393.4121
1261.155, 366.9395
1262.230, 505.5059
1263.305, 266.3477
1264.379, 449.7344
1265.454, 332.6836
1266.528, 318.4082
1267.602, 123.8652
1268.676, 185.0430
1269.750, 89.36328
1270.823, 182.7148
1271.897, 194.7988
1272.970, 365.0996
1274.043, 246.0371
1275.116, 237.6191
1276.189, 190.4297
1277.261, 275.9199
1278.334, 404.0215
1279.406, 380.0039
1280.478, 426.8027
1281.550, 345.2090
1282.622, 15.49023
1283.694, 195.7090
1284.766, 95.00977
1285.837, 175.6211
1286.908, 290.1660
1287.979, 361.8535
1289.050, 423.8223
1290.121, 168.1230
1291.192, 446.3770
1292.262, 294.6504
1293.333, 137.3730
1294.403, 176.7246
1295.473, 341.9180
1296.543, 295.1191
1297.613, 454.3203
1298.682, 219.0195
1299.752, 420.0000
1300.821, 264.1973
1301.890, 266.5664
1302.959, 302.4629
1304.028, 337.2129
1305.096, 353.8730
1306.165, 424.0781
1307.233, 386.7266
1308.301, 350.7031
1309.370, 326.6562
1310.437, 397.5859
1311.505, 36.55273
1312.573, 337.4297
1313.640, 501.4062
1314.708, 235.2402
1315.775, 337.8984
1316.842, 296.7012
1317.908, 360.4844
1318.975, 501.8906
1320.042, 321.6289
1321.108, 206.0195
1322.174, 259.5215
1323.240, 114.1328
1324.306, 208.5449
1325.372, 323.2090
1326.438, 251.4199
1327.503, 193.0469
1328.568, 118.2734
1329.634, 228.1426
1330.699, 183.0527
1331.763, 242.2559
1332.828, 228.4766
1333.893, 263.8496
1334.957, 294.2305
1336.021, 266.4922
1337.085, 190.9434
1338.149, 200.3555
