##NAMES=Kyanite
##RRUFFID=R050450
##IDEAL CHEMISTRY=Al_2_OSiO_4_
##LOCALITY=Switzerland
##OWNER=RRUFF
##SOURCE=Marcus Origlieri
##DESCRIPTION=Blue bladed crystals
##STATUS=The identification of this mineral has been confirmed by X-ray diffraction and chemical analysis
##URL=rruff.info/R050450
##MEASURED CHEMISTRY=Al_2.00_OSi_1.00_O_4_
##PIN_ID=M01855
##ORIENTATION=Laser parallel to (1 1 0). Fiducial mark perpendicular to laser is parallel to c [0 0 1]
148.7160, 0.0000000E+00
149.9470, 0.5234380
151.1780, 46.09961
152.4080, 76.89453
153.6380, 48.45410
154.8690, 0.2333980
156.0980, 61.09863
157.3280, 26.87305
158.5580, 98.43066
159.7870, 50.52637
161.0170, 115.2852
162.2460, 138.0029
163.4750, 94.50000
164.7030, 116.5137
165.9320, 212.1416
167.1600, 132.2188
168.3890, 242.9629
169.6170, 98.01465
170.8450, 265.6738
172.0730, 273.9199
173.3000, 293.7520
174.5280, 285.0146
175.7550, 334.2246
176.9820, 423.1680
178.2090, 274.6611
179.4350, 327.5137
180.6620, 269.0518
181.8880, 74.33203
183.1150, 137.3984
184.3410, 81.70703
185.5670, 190.0449
186.7920, 102.6855
188.0180, 126.2363
189.2430, 11.71582
190.4690, 96.14062
191.6940, 8.477539
192.9180, 30.61133
194.1430, 54.29199
195.3680, 80.12793
196.5920, 50.97266
197.8160, 251.8271
199.0400, 316.6982
200.2640, 397.5898
201.4880, 380.5059
202.7110, 587.4502
203.9350, 843.9570
205.1580, 1267.612
206.3810, 1675.558
207.6040, 1832.290
208.8270, 1748.533
210.0490, 1573.373
211.2710, 1105.331
212.4940, 765.4180
213.7160, 480.6289
214.9370, 195.9600
216.1590, 247.4043
217.3810, 219.9590
218.6020, 149.6221
219.8230, 240.3926
221.0440, 339.0371
222.2650, 480.6133
223.4860, 710.3467
224.7060, 955.5391
225.9260, 1234.814
227.1470, 1619.175
228.3670, 1452.613
229.5860, 1199.127
230.8060, 786.7119
232.0260, 592.3594
233.2450, 329.0605
234.4640, 230.8145
235.6830, 19.62305
236.9020, 41.47559
238.1200, 68.39648
239.3390, 52.64160
240.5570, 66.26855
241.7750, 235.2344
242.9930, 323.2344
244.2110, 481.2305
245.4290, 439.2490
246.6460, 621.3203
247.8630, 383.4473
249.0810, 376.6318
250.2980, 484.8730
251.5140, 433.1631
252.7310, 333.5049
253.9470, 416.8965
255.1640, 219.3398
256.3800, 94.83398
257.5960, 116.6211
258.8120, 28.02246
260.0270, 75.62793
261.2430, 60.33008
262.4580, 27.08691
263.6730, 196.1025
264.8880, 133.2393
266.1030, 121.3369
267.3170, 27.40527
268.5320, 10.76562
269.7460, 139.8525
270.9600, 154.2900
272.1740, 187.9297
273.3880, 329.7500
274.6010, 817.7871
275.8150, 1075.905
277.0280, 1552.002
278.2410, 1897.136
279.4540, 1971.263
280.6670, 1816.330
281.8790, 1295.439
283.0920, 770.5947
284.3040, 852.7959
285.5160, 454.0420
286.7280, 756.3330
287.9400, 1073.670
289.1510, 1573.054
290.3630, 2341.482
291.5740, 3638.955
292.7850, 4832.473
293.9960, 6027.035
295.2070, 6488.725
296.4170, 6438.420
297.6280, 7983.419
298.8380, 11165.33
300.0480, 15207.15
301.2580, 18935.55
302.4680, 20784.33
303.6770, 19578.93
304.8870, 15924.67
306.0960, 11168.21
307.3050, 6807.867
308.5140, 3728.500
309.7230, 2108.101
310.9310, 1365.718
312.1400, 1240.322
313.3480, 900.5928
314.5560, 921.9756
315.7640, 1668.103
316.9720, 2202.310
318.1790, 3118.542
319.3870, 3632.805
320.5940, 4048.105
321.8010, 5097.445
323.0080, 7630.820
324.2150, 10497.23
325.4210, 13002.65
326.6280, 14461.11
327.8340, 14016.26
329.0400, 11414.77
330.2460, 8071.736
331.4510, 4965.321
332.6570, 2773.856
333.8620, 1524.510
335.0680, 881.7451
336.2730, 621.4170
337.4780, 500.7461
338.6820, 543.5117
339.8870, 656.9395
341.0910, 1063.618
342.2950, 942.1992
343.5000, 895.0645
344.7030, 946.9688
345.9070, 681.9121
347.1110, 427.8965
348.3140, 422.9189
349.5170, 425.9053
350.7200, 831.9316
351.9230, 1194.890
353.1260, 1639.766
354.3290, 1876.681
355.5310, 2126.641
356.7330, 2968.646
357.9350, 4374.695
359.1370, 5667.790
360.3390, 7084.928
361.5400, 7328.111
362.7420, 7014.336
363.9430, 5322.604
365.1440, 3697.916
366.3450, 2254.269
367.5460, 1926.663
368.7460, 1590.099
369.9470, 2088.578
371.1470, 2633.096
372.3470, 2940.656
373.5470, 3610.256
374.7460, 4597.896
375.9460, 5673.580
377.1450, 7336.301
378.3450, 8974.059
379.5440, 9840.859
380.7430, 10479.70
381.9410, 12830.98
383.1400, 16433.03
384.3380, 20371.15
385.5370, 23602.79
386.7350, 23957.54
387.9320, 21900.89
389.1300, 18940.90
390.3280, 16847.52
391.5250, 16181.06
392.7220, 16055.72
393.9190, 15383.43
395.1160, 13717.14
396.3130, 11190.51
397.5100, 9246.709
398.7060, 7498.539
399.9020, 7179.740
401.0980, 8244.215
402.2940, 11257.21
403.4900, 14124.96
404.6860, 16226.53
405.8810, 16175.14
407.0760, 14441.78
408.2710, 10639.41
409.4660, 7179.321
410.6610, 4469.891
411.8550, 2432.145
413.0500, 1455.947
414.2440, 1036.782
415.4380, 637.6484
416.6320, 415.5439
417.8260, 448.4697
419.0190, 198.4219
420.2130, 244.4023
421.4060, 345.4102
422.5990, 343.4443
423.7920, 422.5059
424.9850, 289.5938
426.1770, 631.7090
427.3700, 975.8516
428.5620, 1625.021
429.7540, 2487.219
430.9460, 3579.445
432.1380, 4965.700
433.3290, 6299.982
434.5210, 8236.291
435.7120, 10543.63
436.9030, 13187.00
438.0940, 15317.38
439.2850, 16129.79
440.4750, 15407.23
441.6660, 13333.69
442.8560, 10384.17
444.0460, 8041.680
445.2360, 6379.217
446.4260, 6119.775
447.6160, 6135.359
448.8050, 6782.969
449.9940, 6536.605
451.1830, 5682.266
452.3720, 4354.949
453.5610, 3132.661
454.7500, 2050.402
455.9380, 1424.174
457.1260, 1268.973
458.3150, 980.8008
459.5020, 1172.660
460.6900, 1230.546
461.8780, 1561.466
463.0650, 1927.438
464.2530, 2478.437
465.4400, 3034.492
466.6270, 3218.606
467.8130, 3151.756
469.0000, 3043.951
470.1870, 2754.176
471.3730, 2412.429
472.5590, 2636.710
473.7450, 2694.068
474.9310, 3300.494
476.1160, 4350.961
477.3020, 6509.488
478.4870, 9602.063
479.6720, 13050.70
480.8570, 16744.38
482.0420, 20724.15
483.2270, 26278.94
484.4110, 35281.80
485.5960, 44740.70
486.7800, 49793.62
487.9640, 49785.59
489.1480, 49183.56
490.3310, 41668.58
491.5150, 32442.63
492.6980, 24474.75
493.8810, 18366.94
495.0640, 14336.15
496.2470, 11058.40
497.4300, 8556.679
498.6120, 6488.018
499.7950, 4800.403
500.9770, 3697.828
502.1590, 3003.297
503.3410, 2353.803
504.5220, 1941.329
505.7040, 1698.888
506.8850, 1409.468
508.0660, 1387.070
509.2470, 1255.711
510.4280, 1278.399
511.6090, 1331.154
512.7890, 1271.943
513.9700, 1078.762
515.1500, 863.6025
516.3300, 726.4619
517.5100, 620.3389
518.6900, 245.2334
519.8690, 129.1455
521.0490, 130.0723
522.2280, 123.0146
523.4070, 116.9785
524.5860, 3.0273000E-02
525.7640, 4.030273
526.9430, 143.0039
528.1210, 18.02344
529.3000, 135.0400
530.4780, 108.0986
531.6560, 155.1885
532.8330, 249.3271
534.0110, 77.56641
535.1880, 169.8271
536.3650, 96.14941
537.5430, 161.5010
538.7190, 205.9160
539.8960, 75.41699
541.0730, 39.94043
542.2490, 52.52637
543.4250, 42.00000
544.6020, 214.5078
545.7780, 189.0283
546.9530, 383.5576
548.1290, 336.0938
549.3040, 303.6348
550.4800, 1.226563
551.6550, 102.9697
552.8300, 5.170898
554.0040, 16.77930
555.1790, 151.3936
556.3540, 226.3984
557.5280, 424.8906
558.7020, 603.1416
559.8760, 918.7715
561.0500, 1318.405
562.2230, 1671.041
563.3970, 2094.680
564.5700, 2176.321
565.7430, 1913.964
566.9160, 1583.609
568.0890, 1123.257
569.2620, 681.0410
570.4340, 325.9990
571.6070, 428.2236
572.7790, 459.4912
573.9510, 188.6309
575.1230, 192.7559
576.2940, 192.7363
577.4660, 80.60645
578.6370, 166.4619
579.8080, 198.5605
580.9790, 180.2051
582.1500, 339.8477
583.3210, 272.4873
584.4910, 298.1230
585.6620, 400.7568
586.8320, 369.3877
588.0020, 429.0146
589.1720, 391.6377
590.3410, 524.2559
591.5110, 250.8711
592.6800, 338.4805
593.8500, 423.8105
595.0190, 430.9922
596.1880, 562.9570
597.3560, 784.5527
598.5250, 978.0293
599.6930, 1095.455
600.8620, 1352.449
602.0300, 1679.531
603.1970, 2213.264
604.3650, 2546.416
605.5330, 3138.861
606.7000, 3332.824
607.8680, 3692.600
609.0350, 3331.406
610.2020, 3152.918
611.3680, 2798.896
612.5350, 2388.092
613.7010, 2513.207
614.8680, 2377.316
616.0340, 2411.439
617.2000, 2758.129
618.3660, 2813.348
619.5310, 3116.760
620.6970, 2950.652
621.8620, 2804.242
623.0270, 2811.346
624.1920, 2553.773
625.3570, 2848.797
626.5220, 3192.748
627.6860, 3173.398
628.8500, 3338.469
630.0140, 3441.805
631.1780, 3693.861
632.3420, 3912.094
633.5060, 4260.039
634.6700, 4740.469
635.8330, 5177.783
636.9960, 5737.947
638.1590, 5728.854
639.3220, 5833.650
640.4850, 5533.273
641.6470, 5055.209
642.8100, 4658.102
643.9720, 4336.398
645.1340, 3801.707
646.2960, 3823.527
647.4570, 3484.287
648.6190, 3541.430
649.7800, 4081.221
650.9420, 4386.359
652.1030, 5057.803
653.2640, 5598.391
654.4240, 6498.289
655.5850, 7045.672
656.7450, 7195.973
657.9060, 7272.086
659.0660, 7017.922
660.2260, 6265.092
661.3850, 5303.672
662.5450, 4153.783
663.7040, 3514.340
664.8640, 2865.816
666.0230, 2348.580
667.1820, 2106.850
668.3410, 1779.588
669.4990, 1827.266
670.6580, 1722.375
671.8160, 1426.941
672.9740, 1414.598
674.1320, 1232.900
675.2900, 859.5273
676.4480, 1037.689
677.6050, 658.6895
678.7630, 735.3320
679.9200, 443.0938
681.0770, 607.3887
682.2340, 639.2266
683.3900, 689.1172
684.5470, 494.0488
685.7030, 387.2188
686.8590, 497.9238
688.0150, 577.5957
689.1710, 356.2520
690.3270, 180.6543
691.4830, 93.45312
692.6380, 294.8867
693.7930, 239.3789
694.9480, 133.8359
696.1030, 267.2539
697.2580, 111.6387
698.4130, 263.9805
699.5670, 243.2891
700.7210, 243.5586
701.8750, 674.7949
703.0290, 463.9922
704.1830, 391.1543
705.3370, 550.2812
706.4900, 339.3711
707.6430, 212.4219
708.7970, 172.4375
709.9490, 110.3711
711.1020, 102.1816
712.2550, 134.2305
713.4070, 139.0801
714.5600, 174.8848
715.7120, 202.6484
716.8640, 207.3750
718.0160, 150.0586
719.1670, 380.7031
720.3190, 364.3066
721.4700, 606.8711
722.6210, 594.3984
723.7720, 826.8867
724.9230, 849.3359
726.0740, 996.7461
727.2250, 904.1152
728.3750, 637.4473
729.5250, 514.7402
730.6750, 381.9922
731.8250, 101.2051
732.9750, 137.3730
734.1240, 44.49414
735.2740, 276.5625
736.4230, 79.59180
737.5720, 85.57227
738.7210, 180.5059
739.8700, 39.39648
741.0190, 31.76758
742.1670, 139.9824
743.3150, 59.31445
744.4630, 67.71094
745.6110, 16.78320
746.7590, 17.78320
747.9070, 72.57031
749.0540, 172.8750
750.2020, 118.1367
751.3490, 23.64844
752.4960, 103.5195
753.6430, 8.513672
754.7890, 81.56250
755.9360, 10.76562
757.0820, 78.02148
758.2280, 22.39062
759.3740, 65.84375
760.5200, 113.5996
761.6660, 144.0020
762.8120, 5.250000
763.9570, 137.4336
765.1020, 10.57227
766.2470, 98.64844
767.3920, 65.67773
768.5370, 30.34180
769.6810, 129.4492
770.8260, 93.68945
771.9700, 9.953125
773.1140, 11.53320
774.2580, 19.94727
775.4020, 61.50391
776.5460, 66.59766
777.6890, 13.89648
778.8320, 51.70703
779.9750, 8.611328
781.1180, 106.4199
782.2610, 1.595703
783.4040, 78.32422
784.5460, 81.19727
785.6890, 28.97656
786.8310, 72.22070
787.9730, 142.5586
789.1150, 21.01953
790.2560, 8.556641
791.3980, 42.85156
792.5390, 108.1328
793.6810, 119.6191
794.8220, 155.8086
795.9630, 213.0625
797.1030, 125.2773
798.2440, 257.3418
799.3840, 9.607422
800.5240, 244.7051
801.6650, 222.7676
802.8040, 119.8086
803.9440, 133.8066
805.0840, 231.7969
806.2230, 103.7520
807.3630, 84.69531
808.5020, 2.384766
809.6410, 66.51562
810.7790, 120.4277
811.9180, 47.31641
813.0570, 142.1973
814.1950, 262.0586
815.3330, 147.9180
816.4710, 208.7891
817.6090, 231.6328
818.7470, 306.4512
819.8840, 254.2324
821.0220, 235.9785
822.1590, 170.6895
823.2960, 326.3594
824.4330, 406.0078
825.5690, 266.6191
826.7060, 280.1953
827.8420, 215.5566
828.9790, 397.5527
830.1150, 422.0508
831.2510, 425.3848
832.3860, 427.5566
833.5220, 383.9531
834.6570, 541.8203
835.7930, 427.1465
836.9280, 451.4570
838.0630, 306.7344
839.1980, 511.9824
840.3320, 515.1953
841.4670, 499.3730
842.6010, 644.5234
843.7350, 646.6387
844.8690, 554.5879
846.0030, 728.3320
847.1370, 913.7773
848.2700, 670.1504
849.4040, 888.6172
850.5370, 840.0664
851.6700, 867.6250
852.8030, 959.2617
853.9360, 936.8789
855.0680, 984.2188
856.2000, 1119.723
857.3330, 1211.713
858.4650, 1403.408
859.5970, 1526.078
860.7290, 1659.713
861.8600, 1784.316
862.9920, 1744.891
864.1230, 1913.436
865.2540, 1664.947
866.3850, 1730.430
867.5160, 1568.885
868.6460, 1668.586
869.7770, 1677.402
870.9070, 1716.400
872.0370, 1874.730
873.1670, 1757.217
874.2970, 1891.721
875.4270, 2202.621
876.5570, 2536.396
877.6860, 2803.494
878.8150, 3066.133
879.9440, 3548.494
881.0730, 3885.209
882.2020, 4544.170
883.3300, 5086.090
884.4590, 5636.270
885.5870, 6666.949
886.7150, 7552.367
887.8430, 8783.848
888.9710, 9336.293
890.0990, 10065.68
891.2260, 10490.48
892.3530, 10122.70
893.4810, 9048.689
894.6080, 8386.188
895.7340, 7094.949
896.8610, 6458.160
897.9880, 5854.047
899.1140, 5415.301
900.2400, 4963.605
901.3660, 4779.172
902.4920, 4557.479
903.6180, 4268.303
904.7430, 4128.367
905.8690, 3789.244
906.9940, 3334.699
908.1190, 3085.283
909.2440, 2939.295
910.3690, 2760.137
911.4930, 2546.344
912.6180, 2345.502
913.7420, 2432.689
914.8660, 2299.914
915.9900, 2420.020
917.1140, 2390.982
918.2380, 2368.412
919.3610, 2581.355
920.4850, 2607.307
921.6080, 2815.021
922.7310, 2866.855
923.8540, 3219.920
924.9760, 3260.326
926.0990, 3416.740
927.2210, 3891.906
928.3440, 4190.031
929.4660, 4744.207
930.5880, 5260.215
931.7090, 5819.152
932.8310, 6819.635
933.9520, 7362.615
935.0740, 8389.719
936.1950, 9301.457
937.3160, 10092.68
938.4360, 11044.68
939.5570, 11994.29
940.6780, 12756.73
941.7980, 13659.84
942.9180, 14653.78
944.0380, 15619.47
945.1580, 15935.23
946.2780, 16878.15
947.3970, 17297.69
948.5170, 17586.69
949.6360, 17709.18
950.7550, 17790.17
951.8740, 18184.43
952.9930, 18763.76
954.1110, 19073.27
955.2300, 19897.68
956.3480, 20764.00
957.4660, 22021.25
958.5840, 22863.41
959.7020, 24020.85
960.8190, 25572.30
961.9370, 25548.85
963.0540, 25169.14
964.1710, 24422.62
965.2880, 22600.00
966.4050, 20599.37
967.5220, 18174.99
968.6380, 16062.33
969.7550, 13744.86
970.8710, 11656.72
971.9870, 10543.18
973.1030, 8819.145
974.2190, 7543.861
975.3340, 6534.133
976.4500, 5836.959
977.5650, 5165.258
978.6800, 4389.176
979.7950, 3999.582
980.9100, 3656.914
982.0250, 3227.404
983.1390, 2757.775
984.2530, 2779.990
985.3680, 2437.182
986.4820, 2607.336
987.5950, 2134.480
988.7090, 2221.611
989.8230, 2269.828
990.9360, 2072.982
992.0490, 2390.078
993.1620, 2608.287
994.2750, 2671.359
995.3880, 3354.418
996.5010, 3644.467
997.6130, 4668.088
998.7250, 5254.113
999.8370, 6159.539
1000.949, 7020.320
1002.061, 7709.715
1003.173, 7294.957
1004.284, 6830.924
1005.396, 5950.434
1006.507, 4674.182
1007.618, 3745.689
1008.729, 3009.551
1009.839, 2532.912
1010.950, 2139.633
1012.060, 1616.164
1013.171, 1331.658
1014.281, 1421.924
1015.391, 1058.771
1016.500, 947.6328
1017.610, 963.0859
1018.719, 845.7539
1019.829, 921.1543
1020.938, 782.2480
1022.047, 783.8848
1023.156, 691.2949
1024.264, 754.6348
1025.373, 557.1855
1026.481, 781.4902
1027.589, 531.4102
1028.697, 475.0430
1029.805, 521.5254
1030.913, 482.5176
1032.020, 491.3438
1033.128, 252.7832
1034.235, 335.1738
1035.342, 79.67969
1036.449, 141.8242
1037.556, 127.5879
1038.663, 116.8438
1039.769, 43.97852
1040.875, 171.6250
1041.981, 43.31055
1043.087, 111.0332
1044.193, 120.5547
1045.299, 89.82812
1046.404, 239.2266
1047.510, 36.36914
1048.615, 2.429688
1049.720, 150.0527
1050.825, 37.09375
1051.930, 93.12891
1053.034, 96.69727
1054.139, 48.72656
1055.243, 30.84180
1056.347, 60.46094
1057.451, 28.14844
1058.555, 36.85938
1059.658, 8.472656
1060.762, 79.71094
1061.865, 25.62305
1062.968, 76.25977
1064.071, 0.8789060
1065.174, 47.82227
1066.277, 41.38086
1067.380, 15.70508
1068.482, 98.04492
1069.584, 60.50586
1070.686, 162.6074
1071.788, 28.58984
1072.890, 165.2266
1073.992, 114.9414
1075.093, 138.6934
1076.194, 363.2949
1077.295, 161.0605
1078.396, 239.1641
1079.497, 187.2090
1080.598, 348.0645
1081.698, 424.5664
1082.799, 357.0469
1083.899, 362.8184
1084.999, 422.3242
1086.099, 295.1504
1087.199, 484.1172
1088.298, 409.4980
1089.398, 140.8594
1090.497, 31.44141
1091.596, 232.8516
1092.695, 184.6738
1093.794, 162.1133
1094.892, 168.3398
1095.991, 176.5430
1097.089, 235.7246
1098.187, 294.8848
1099.285, 135.0234
1100.383, 355.1387
1101.481, 153.3496
1102.579, 39.58203
1103.676, 165.4336
1104.773, 41.42383
1105.870, 98.38477
1106.967, 378.3223
1108.064, 67.23828
1109.161, 192.1250
1110.257, 40.98828
1111.353, 160.8262
1112.449, 177.6387
1113.545, 137.4277
1114.641, 164.1934
1115.737, 199.9316
1116.832, 203.6484
1117.928, 221.3418
1119.023, 212.2109
1120.118, 244.6602
1121.213, 189.2852
1122.308, 202.8867
1123.402, 214.4648
1124.497, 185.0215
1125.591, 255.5488
1126.685, 271.0586
1127.779, 296.5410
1128.873, 77.00195
1129.967, 279.4336
1131.060, 119.8418
1132.153, 33.22656
1133.247, 122.5801
1134.340, 157.9062
1135.433, 326.2051
1136.525, 91.48438
1137.618, 236.2695
1138.710, 88.81250
1139.802, 21.86523
1140.895, 119.8867
1141.987, 34.87891
1143.078, 81.88672
1144.170, 88.87305
1145.261, 3.169922
1146.353, 123.1953
1147.444, 75.33008
1148.535, 110.4512
1149.626, 58.21484
1150.716, 119.9453
1151.807, 1.648438
1152.897, 63.40625
1153.988, 124.9316
1155.078, 142.5312
1156.168, 98.10156
1157.257, 158.6660
1158.347, 55.79883
1159.436, 87.65820
1160.526, 128.0879
1161.615, 119.5156
1162.704, 53.76953
1163.793, 13.97656
1164.881, 22.22266
1165.970, 46.59766
1167.058, 210.3281
1168.147, 60.40820
1169.235, 183.4531
1170.323, 7.560547
1171.410, 103.0547
1172.498, 92.98438
1173.585, 81.52930
1174.673, 131.3223
1175.760, 111.1211
1176.847, 286.6309
1177.934, 216.4062
1179.020, 342.7559
1180.107, 101.9219
1181.193, 350.6094
1182.279, 331.8691
1183.365, 107.3281
1184.451, 102.7734
1185.537, 39.22656
1186.623, 23.37305
1187.708, 84.09180
1188.793, 269.0918
1189.878, 80.86523
1190.963, 243.5039
1192.048, 60.62109
1193.133, 19.69727
1194.217, 107.0469
1195.302, 140.3320
1196.386, 133.2910
1197.470, 92.06836
1198.554, 292.8086
1199.638, 85.47266
1200.721, 122.6035
1201.805, 150.4375
1202.888, 230.6797
1203.971, 203.4609
1205.054, 2.003906
1206.137, 221.5918
1207.219, 180.3105
1208.302, 36.06836
1209.384, 104.5586
1210.466, 146.1523
1211.548, 241.7188
1212.630, 245.1426
1213.712, 18.77734
1214.794, 209.2559
1215.875, 128.7051
1216.956, 90.12891
1218.037, 368.5215
1219.118, 313.8906
1220.199, 138.0273
1221.280, 236.6445
1222.360, 89.93359
1223.441, 176.1602
1224.521, 281.2656
1225.601, 276.3672
1226.681, 404.4785
1227.760, 437.6387
1228.840, 297.7793
1229.919, 307.6309
1230.999, 191.7207
1232.078, 362.5918
1233.157, 413.0898
1234.236, 477.9590
1235.314, 594.2793
1236.393, 463.8086
1237.471, 514.7500
1238.549, 657.0938
1239.627, 465.9355
1240.705, 518.1152
1241.783, 618.7695
1242.860, 646.4688
1243.938, 649.9707
1245.015, 327.5605
1246.092, 761.2715
1247.169, 408.9707
1248.246, 488.6699
1249.323, 584.3477
1250.399, 493.0000
1251.475, 383.5312
1252.552, 676.0977
1253.628, 487.6855
1254.703, 452.1289
1255.779, 666.6738
1256.855, 717.1953
1257.930, 539.6953
1259.005, 518.5859
1260.080, 615.0996
1261.155, 669.1250
1262.230, 626.8496
1263.305, 750.8359
1264.379, 786.9453
1265.454, 759.2988
1266.528, 931.0781
1267.602, 934.5898
1268.676, 777.3125
1269.750, 845.6504
1270.823, 732.4531
1271.897, 775.6758
1272.970, 773.1621
1274.043, 839.2051
1275.116, 821.2949
1276.189, 814.8535
1277.261, 886.4297
1278.334, 767.7559
1279.406, 768.1191
1280.478, 574.7168
1281.550, 665.5898
1282.622, 676.9102
1283.694, 468.8203
1284.766, 796.4277
1285.837, 734.1895
1286.908, 435.8242
1287.979, 734.1367
1289.050, 722.4336
1290.121, 805.8770
1291.192, 723.7852
1292.262, 876.8809
1293.333, 965.5195
1294.403, 598.8242
1295.473, 1045.469
1296.543, 849.1465
1297.613, 992.1797
1298.682, 953.7129
1299.752, 843.3789
1300.821, 828.5410
1301.890, 832.1465
1302.959, 992.6875
1304.028, 917.9238
1305.096, 859.0586
1306.165, 953.7402
1307.233, 838.3184
1308.301, 866.9746
1309.370, 954.0508
1310.437, 927.6816
1311.505, 1278.311
1312.573, 1070.377
1313.640, 1102.404
1314.708, 1185.102
1315.775, 964.3203
1316.842, 1304.277
1317.908, 1001.855
1318.975, 1058.785
1320.042, 1182.350
1321.108, 1008.176
1322.174, 887.2715
1323.240, 1028.309
1324.306, 1151.641
1325.372, 846.7891
