##NAMES=Kyanite
##RRUFFID=R050450
##IDEAL CHEMISTRY=Al_2_OSiO_4_
##LOCALITY=Switzerland
##OWNER=RRUFF
##SOURCE=Marcus Origlieri
##DESCRIPTION=Blue bladed crystals
##STATUS=The identification of this mineral has been confirmed by X-ray diffraction and chemical analysis
##URL=rruff.info/R050450
##MEASURED CHEMISTRY=Al_2.00_OSi_1.00_O_4_
##PIN_ID=M00970
##ORIENTATION=Laser parallel to -a* (-1 0 0). Fiducial mark perpendicular to laser is parallel to b [0 1 0]
148.7160, 0.0000000E+00
149.9470, 0.7221680
151.1780, 37.95898
152.4080, 92.97754
153.6380, 68.16455
154.8690, 165.9116
156.0980, 81.80127
157.3280, 49.27344
158.5580, 79.89648
159.7870, 69.90186
161.0170, 93.06592
162.2460, 113.7031
163.4750, 94.94482
164.7030, 101.5620
165.9320, 121.7402
167.1600, 122.2466
168.3890, 45.68750
169.6170, 32.59082
170.8450, 58.39502
172.0730, 62.19824
173.3000, 122.1411
174.5280, 104.9106
175.7550, 119.8584
176.9820, 131.4629
178.2090, 128.2969
179.4350, 114.5781
180.6620, 92.01562
181.8880, 18.31299
183.1150, 33.99561
184.3410, 3.932617
185.5670, 24.42041
186.7920, 60.99707
188.0180, 12.21826
189.2430, 10.72852
190.4690, 106.1802
191.6940, 15.18799
192.9180, 5.318359
194.1430, 150.0215
195.3680, 127.4702
196.5920, 131.8462
197.8160, 259.1592
199.0400, 241.4185
200.2640, 292.6328
201.4880, 330.8096
202.7110, 445.0337
203.9350, 628.3726
205.1580, 721.3892
206.3810, 1298.648
207.6040, 1271.210
208.8270, 1067.157
210.0490, 659.1929
211.2710, 528.3301
212.4940, 369.5820
213.7160, 92.94434
214.9370, 70.41064
216.1590, 179.9712
217.3810, 4.623535
218.6020, 121.3662
219.8230, 6.196777
221.0440, 162.1152
222.2650, 264.1270
223.4860, 455.2402
224.7060, 480.4521
225.9260, 740.7554
227.1470, 641.1440
228.3670, 665.6099
229.5860, 400.1475
230.8060, 166.7534
232.0260, 111.4170
233.2450, 89.12549
234.4640, 21.88086
235.6830, 1.688965
236.9020, 94.54736
238.1200, 13.45605
239.3390, 100.3799
240.5570, 145.3140
241.7750, 158.2690
242.9930, 206.2417
244.2110, 358.2495
245.4290, 424.3008
246.6460, 314.3989
247.8630, 246.5435
249.0810, 217.7363
250.2980, 284.9731
251.5140, 227.2495
252.7310, 136.5615
253.9470, 47.91113
255.1640, 44.29492
256.3800, 100.2974
257.5960, 69.87305
258.8120, 93.58008
260.0270, 93.07520
261.2430, 40.38916
262.4580, 90.81104
263.6730, 177.1909
264.8880, 233.5293
266.1030, 121.8315
267.3170, 16.91162
268.5320, 259.7427
269.7460, 258.7202
270.9600, 374.9019
272.1740, 405.2490
273.3880, 772.8940
274.6010, 1173.774
275.8150, 1909.711
277.0280, 2673.613
278.2410, 2820.536
279.4540, 2240.391
280.6670, 1460.126
281.8790, 996.8662
283.0920, 647.6416
284.3040, 439.4526
285.5160, 429.2988
286.7280, 690.1807
287.9400, 975.0977
289.1510, 1652.050
290.3630, 2713.037
291.5740, 3633.060
292.7850, 3991.119
293.9960, 3933.212
295.2070, 3800.483
296.4170, 4748.080
297.6280, 6756.996
298.8380, 9661.884
300.0480, 13465.74
301.2580, 17121.55
302.4680, 16686.33
303.6770, 12310.06
304.8870, 8012.737
306.0960, 4859.330
307.3050, 2605.887
308.5140, 1421.424
309.7230, 859.9482
310.9310, 645.4629
312.1400, 607.8799
313.3480, 753.1646
314.5560, 893.1543
315.7640, 1473.912
316.9720, 2188.892
318.1790, 2489.924
319.3870, 2929.171
320.5940, 3579.439
321.8010, 5644.729
323.0080, 8190.037
324.2150, 11275.35
325.4210, 14455.67
326.6280, 14242.99
327.8340, 10741.13
329.0400, 7113.092
330.2460, 4343.326
331.4510, 2311.855
332.6570, 1368.032
333.8620, 738.7109
335.0680, 522.2910
336.2730, 480.6973
337.4780, 533.6348
338.6820, 725.3633
339.8870, 1062.830
341.0910, 1345.322
342.2950, 1375.842
343.5000, 1180.388
344.7030, 851.9609
345.9070, 578.5605
347.1110, 525.1895
348.3140, 514.1660
349.5170, 554.3643
350.7200, 851.9590
351.9230, 1134.432
353.1260, 1517.734
354.3290, 1718.076
355.5310, 2383.454
356.7330, 3593.871
357.9350, 4981.325
359.1370, 7005.723
360.3390, 8141.082
361.5400, 7471.645
362.7420, 5485.215
363.9430, 3724.850
365.1440, 2523.846
366.3450, 1981.552
367.5460, 2161.292
368.7460, 2565.068
369.9470, 3502.879
371.1470, 4567.723
372.3470, 5101.601
373.5470, 5347.514
374.7460, 5552.459
375.9460, 6439.438
377.1450, 7465.451
378.3450, 8150.495
379.5440, 8421.507
380.7430, 9494.173
381.9410, 12024.45
383.1400, 15345.57
384.3380, 19496.78
385.5370, 21262.31
386.7350, 18715.44
387.9320, 14577.74
389.1300, 12512.19
390.3280, 11799.38
391.5250, 12831.25
392.7220, 13682.42
393.9190, 11978.47
395.1160, 9138.738
396.3130, 7267.035
397.5100, 6103.844
398.7060, 6217.959
399.9020, 7496.258
401.0980, 10465.64
402.2940, 14213.05
403.4900, 18101.73
404.6860, 19188.44
405.8810, 16211.85
407.0760, 11341.39
408.2710, 7459.605
409.4660, 4404.783
410.6610, 2738.689
411.8550, 1597.558
413.0500, 1048.451
414.2440, 835.3711
415.4380, 600.3145
416.6320, 570.2812
417.8260, 570.2715
419.0190, 663.2822
420.2130, 655.3135
421.4060, 632.3662
422.5990, 450.4395
423.7920, 569.5352
424.9850, 775.6514
426.1770, 902.7910
427.3700, 1436.951
428.5620, 1979.134
429.7540, 2705.336
430.9460, 3574.562
432.1380, 4810.809
433.3290, 6508.095
434.5210, 8949.405
435.7120, 11656.73
436.9030, 12996.08
438.0940, 13860.46
439.2850, 13411.85
440.4750, 10857.25
441.6660, 8036.676
442.8560, 5423.117
444.0460, 4227.578
445.2360, 3525.055
446.4260, 3656.551
447.6160, 4201.064
448.8050, 4506.595
449.9940, 3794.145
451.1830, 2665.713
452.3720, 1865.300
453.5610, 1189.906
454.7500, 841.5332
455.9380, 649.1797
457.1260, 526.8467
458.3150, 584.5361
459.5020, 604.2510
460.6900, 816.9941
461.8780, 1047.760
463.0650, 1440.547
464.2530, 1974.376
465.4400, 2197.227
466.6270, 2182.101
467.8130, 2045.023
469.0000, 1794.982
470.1870, 1752.984
471.3730, 1670.043
472.5590, 1742.135
473.7450, 2126.271
474.9310, 2731.446
476.1160, 3824.646
477.3020, 5664.867
478.4870, 7796.117
479.6720, 10133.40
480.8570, 12789.71
482.0420, 17021.04
483.2270, 23538.41
484.4110, 31837.80
485.5960, 40347.21
486.7800, 44731.68
487.9640, 41489.15
489.1480, 33651.66
490.3310, 25356.20
491.5150, 19245.76
492.6980, 15132.34
493.8810, 11974.94
495.0640, 9526.562
496.2470, 7245.234
497.4300, 5452.928
498.6120, 4121.664
499.7950, 2944.446
500.9770, 2374.261
502.1590, 2046.109
503.3410, 1567.980
504.5220, 1445.880
505.7040, 1297.828
506.8850, 1233.795
508.0660, 1278.834
509.2470, 1259.932
510.4280, 1227.082
511.6090, 1366.247
512.7890, 1231.430
513.9700, 1206.644
515.1500, 1008.893
516.3300, 604.1592
517.5100, 561.4482
518.6900, 343.7598
519.8690, 114.0830
521.0490, 130.4277
522.2280, 48.78613
523.4070, 0.1806640
524.5860, 33.58398
525.7640, 63.00391
526.9430, 52.56348
528.1210, 63.14160
529.3000, 102.7383
530.4780, 104.3711
531.6560, 163.0400
532.8330, 140.7764
534.0110, 77.57031
535.1880, 157.3906
536.3650, 287.2803
537.5430, 159.3047
538.7190, 198.4004
539.8960, 154.5879
541.0730, 12.84375
542.2490, 46.89844
543.4250, 42.67285
544.6020, 106.4688
545.7780, 171.2734
546.9530, 208.0850
548.1290, 261.9102
549.3040, 202.7607
550.4800, 84.33887
551.6550, 115.5850
552.8300, 301.5381
554.0040, 288.4961
555.1790, 560.4600
556.3540, 799.4287
557.5280, 1087.402
558.7020, 1487.381
559.8760, 2209.364
561.0500, 3106.353
562.2230, 3690.344
563.3970, 4023.339
564.5700, 3623.341
565.7430, 2799.344
566.9160, 1936.351
568.0890, 1582.360
569.2620, 1171.372
570.4340, 1058.388
571.6070, 905.4062
572.7790, 828.6104
573.9510, 619.6924
575.1230, 588.0332
576.2940, 468.2559
577.4660, 504.3691
578.6370, 550.5430
579.8080, 474.5713
580.9790, 701.7959
582.1500, 745.8242
583.3210, 960.8730
584.4910, 1168.900
585.6620, 1238.930
586.8320, 1224.958
588.0020, 1120.984
589.1720, 798.0107
590.3410, 827.0352
591.5110, 585.0586
592.6800, 454.0811
593.8500, 403.1006
595.0190, 364.5957
596.1880, 533.6113
597.3560, 729.7734
598.5250, 648.0879
599.6930, 896.9141
600.8620, 1021.122
602.0300, 1317.416
603.1970, 1757.981
604.3650, 2148.793
605.5330, 2395.286
606.7000, 2540.081
607.8680, 2447.512
609.0350, 2196.326
610.2020, 1993.569
611.3680, 1698.412
612.5350, 1735.239
613.7010, 1747.789
614.8680, 1685.266
616.0340, 1886.851
617.2000, 2150.121
618.3660, 2126.332
619.5310, 2248.116
620.6970, 2181.227
621.8620, 2109.407
623.0270, 2191.936
624.1920, 2272.168
625.3570, 2521.955
626.5220, 2687.327
627.6860, 2903.122
628.8500, 3326.033
630.0140, 3684.682
631.1780, 3877.180
632.3420, 4379.365
633.5060, 4661.752
634.6700, 5224.486
635.8330, 5876.123
636.9960, 6245.797
638.1590, 6321.308
639.3220, 5714.512
640.4850, 4874.156
641.6470, 4137.431
642.8100, 3451.785
643.9720, 2945.461
645.1340, 2687.285
646.2960, 2653.365
647.4570, 2743.378
648.6190, 3061.532
649.7800, 3247.707
650.9420, 3705.626
652.1030, 4228.438
653.2640, 4743.750
654.4240, 5210.163
655.5850, 5824.023
656.7450, 6131.498
657.9060, 5916.509
659.0660, 5158.873
660.2260, 4472.969
661.3850, 3777.324
662.5450, 3047.330
663.7040, 2561.472
664.8640, 2101.682
666.0230, 2014.178
667.1820, 2047.273
668.3410, 1978.717
669.4990, 1910.050
670.6580, 2015.063
671.8160, 1760.885
672.9740, 1476.629
674.1320, 1382.949
675.2900, 867.3955
676.4480, 794.6660
677.6050, 578.8789
678.7630, 517.5879
679.9200, 369.9990
681.0770, 429.2324
682.2340, 301.1436
683.3900, 278.0352
684.5470, 398.0391
685.7030, 325.8877
686.8590, 188.7168
688.0150, 271.5254
689.1710, 381.3115
690.3270, 121.6904
691.4830, 320.4336
692.6380, 167.1553
693.7930, 193.8545
694.9480, 200.5322
696.1030, 328.1865
697.2580, 235.8203
698.4130, 276.4307
699.5670, 390.0195
700.7210, 338.5859
701.8750, 360.1299
703.0290, 478.6504
704.1830, 442.1484
705.3370, 314.6240
706.4900, 355.0762
707.6430, 377.5049
708.7970, 210.9111
709.9490, 136.2939
711.1020, 92.65234
712.2550, 28.01367
713.4070, 62.25977
714.5600, 91.50684
715.7120, 118.7285
716.8640, 104.9248
718.0160, 221.0967
719.1670, 94.24512
720.3190, 195.3662
721.4700, 137.4648
722.6210, 251.5400
723.7720, 328.5889
724.9230, 451.6143
726.0740, 362.6152
727.2250, 351.5928
728.3750, 291.5439
729.5250, 183.4717
730.6750, 167.3760
731.8250, 267.2549
732.9750, 50.10938
734.1240, 186.9355
735.2740, 111.7363
736.4230, 75.51270
737.5720, 32.25977
738.7210, 19.97656
739.8700, 78.65430
741.0190, 44.30566
742.1670, 41.07422
743.3150, 48.47949
744.4630, 32.00195
745.6110, 67.50684
746.7590, 26.09766
747.9070, 49.12012
749.0540, 58.98828
750.2020, 11.27246
751.3490, 39.12598
752.4960, 9.958008
753.6430, 37.00000
754.7890, 66.01074
755.9360, 77.85938
757.0820, 13.04785
758.2280, 96.85840
759.3740, 20.25977
760.5200, 5.566406
761.6660, 37.35254
762.8120, 4.109375
763.9570, 57.17578
765.1020, 19.46777
766.2470, 15.07617
767.3920, 47.34863
768.5370, 28.15820
769.6810, 93.63672
770.8260, 22.08887
771.9700, 15.50977
773.1140, 82.10156
774.2580, 15.20312
775.4020, 65.52539
776.5460, 61.32812
777.6890, 37.20215
778.8320, 32.13477
779.9750, 20.87598
781.1180, 24.14355
782.2610, 59.21387
783.4040, 32.64746
784.5460, 159.5186
785.6890, 130.8047
786.8310, 116.1963
787.9730, 38.31348
789.1150, 55.79980
790.2560, 41.74023
791.3980, 60.33496
792.5390, 30.00293
793.6810, 15.67871
794.8220, 9.403320
795.9630, 136.8359
797.1030, 12.94531
798.2440, 112.2354
799.3840, 61.60156
800.5240, 136.5000
801.6650, 3.409180
802.8040, 50.65039
803.9440, 68.68750
805.0840, 83.71582
806.2230, 70.73828
807.3630, 170.7617
808.5020, 1.791992
809.6410, 75.83594
810.7790, 119.8965
811.9180, 197.9541
813.0570, 95.03320
814.1950, 190.1660
815.3330, 120.3193
816.4710, 127.5068
817.6090, 227.7119
818.7470, 125.9053
819.8840, 183.0820
821.0220, 63.24121
822.1590, 166.3818
823.2960, 143.5049
824.4330, 220.6104
825.5690, 224.6992
826.7060, 140.7705
827.8420, 96.84277
828.9790, 227.9023
830.1150, 195.9453
831.2510, 314.9707
832.3860, 259.9824
833.5220, 327.9766
834.6570, 206.9551
835.7930, 243.9180
836.9280, 379.8652
838.0630, 459.7969
839.1980, 354.7129
840.3320, 491.6143
841.4670, 443.5010
842.6010, 366.3711
843.7350, 385.2285
844.8690, 611.0703
846.0030, 554.8975
847.1370, 625.7109
848.2700, 603.3242
849.4040, 506.0508
850.5370, 671.5039
851.6700, 593.0635
852.8030, 593.7227
853.9360, 839.3066
855.0680, 932.0254
856.2000, 845.5352
857.3330, 900.2285
858.4650, 1116.891
859.5970, 1092.558
860.7290, 1051.214
861.8600, 1248.857
862.9920, 1248.492
864.1230, 1059.116
865.2540, 1212.728
866.3850, 1046.329
867.5160, 1001.920
868.6460, 1076.520
869.7770, 1032.633
870.9070, 995.2109
872.0370, 1043.630
873.1670, 1010.886
874.2970, 1114.617
875.4270, 1134.953
876.5570, 1203.155
877.6860, 1391.173
878.8150, 1383.883
879.9440, 1529.903
881.0730, 1688.617
882.2020, 1900.685
883.3300, 2130.354
884.4590, 2336.580
885.5870, 2485.193
886.7150, 2878.828
887.8430, 2943.770
888.9710, 3325.812
890.0990, 3386.768
891.2260, 3496.039
892.3530, 3344.357
893.4810, 3412.089
894.6080, 3518.479
895.7340, 3668.805
896.8610, 3748.769
897.9880, 4040.828
899.1140, 4148.780
900.2400, 4657.906
901.3660, 4690.602
902.4920, 4466.161
903.6180, 4116.975
904.7430, 3936.920
905.8690, 3321.357
906.9940, 2912.193
908.1190, 2735.859
909.2440, 2457.606
910.3690, 2207.362
911.4930, 2253.214
912.6180, 2232.356
913.7420, 1952.045
914.8660, 2038.084
915.9900, 2177.031
917.1140, 2117.652
918.2380, 2300.109
919.3610, 2308.297
920.4850, 2529.535
921.6080, 2637.617
922.7310, 2796.660
923.8540, 2924.948
924.9760, 3130.329
926.0990, 3355.240
927.2210, 3737.041
928.3440, 4076.291
929.4660, 4686.998
930.5880, 5057.180
931.7090, 5608.994
932.8310, 6199.087
933.9520, 7353.500
935.0740, 7726.660
936.1950, 8578.060
937.3160, 9585.973
938.4360, 10242.58
939.5570, 11323.28
940.6780, 12026.05
941.7980, 12829.78
942.9180, 14028.69
944.0380, 15066.09
945.1580, 15835.90
946.2780, 16569.86
947.3970, 17246.82
948.5170, 17779.90
949.6360, 18329.73
950.7550, 18708.71
951.8740, 19163.70
952.9930, 19582.70
954.1110, 20135.71
955.2300, 20728.71
956.3480, 21597.60
957.4660, 22281.62
958.5840, 23113.65
959.7020, 23968.69
960.8190, 24586.74
961.9370, 24338.79
963.0540, 23327.85
964.1710, 21718.93
965.2880, 19819.00
966.4050, 17434.09
967.5220, 15183.18
968.6380, 13038.29
969.7550, 11394.39
970.8710, 9655.509
971.9870, 8457.630
973.1030, 7314.764
974.2190, 6304.902
975.3340, 5460.048
976.4500, 4773.203
977.5650, 4465.366
978.6800, 3719.536
979.7950, 3513.716
980.9100, 3095.901
982.0250, 2799.097
983.1390, 2513.301
984.2530, 2387.532
985.3680, 2185.965
986.4820, 2119.023
987.5950, 2007.283
988.7090, 1985.553
989.8230, 2070.830
990.9360, 1897.117
992.0490, 2175.413
993.1620, 2267.718
994.2750, 2417.031
995.3880, 2792.354
996.5010, 3329.377
997.6130, 3937.718
998.7250, 4466.066
999.8370, 5148.424
1000.949, 5582.893
1002.061, 5663.904
1003.173, 5205.289
1004.284, 4550.716
1005.396, 3773.121
1006.507, 2994.691
1007.618, 2181.355
1008.729, 1927.793
1009.839, 1597.538
1010.950, 1331.230
1012.060, 1182.930
1013.171, 981.6084
1014.281, 856.2002
1015.391, 804.9316
1016.500, 742.5840
1017.610, 827.1758
1018.719, 649.9180
1019.829, 809.4238
1020.938, 756.1992
1022.047, 614.6729
1023.156, 603.0508
1024.264, 717.0176
1025.373, 432.0137
1026.481, 596.9658
1027.589, 415.7383
1028.697, 541.8555
1029.805, 581.7627
1030.913, 297.6553
1032.020, 376.6055
1033.128, 240.5391
1034.235, 140.0254
1035.342, 357.9072
1036.449, 276.0322
1037.556, 183.9531
1038.663, 44.88281
1039.769, 99.81934
1040.875, 102.7656
1041.981, 236.7217
1043.087, 4.589844
1044.193, 233.4961
1045.299, 124.5303
1046.404, 202.6455
1047.510, 129.7334
1048.615, 106.8408
1049.720, 44.66113
1050.825, 64.79883
1051.930, 149.0898
1053.034, 67.54492
1054.139, 92.77148
1055.243, 137.0566
1056.347, 39.07520
1057.451, 137.6934
1058.555, 69.09766
1059.658, 79.77051
1060.762, 46.75488
1061.865, 35.82031
1062.968, 48.53809
1064.071, 61.25879
1065.174, 63.56641
1066.277, 32.76172
1067.380, 2.727539
1068.482, 56.84277
1069.584, 38.57324
1070.686, 238.9980
1071.788, 209.4248
1072.890, 187.2559
1073.992, 224.6895
1075.093, 83.34375
1076.194, 106.1836
1077.295, 112.6816
1078.396, 119.5645
1079.497, 193.4004
1080.598, 365.8467
1081.698, 406.2939
1082.799, 516.1221
1083.899, 352.5703
1084.999, 130.0186
1086.099, 352.6211
1087.199, 211.0703
1088.298, 194.5205
1089.398, 141.2275
1090.497, 139.9463
1091.596, 319.3965
1092.695, 178.2744
1093.794, 339.8506
1094.892, 241.5264
1095.991, 159.1797
1097.089, 158.6279
1098.187, 115.1025
1099.285, 82.64941
1100.383, 219.1221
1101.481, 78.59277
1102.579, 126.0625
1103.676, 58.53223
1104.773, 174.0000
1105.870, 142.4648
1106.967, 238.9297
1108.064, 165.3926
1109.161, 95.85449
1110.257, 188.3164
1111.353, 282.7744
1112.449, 103.2314
1113.545, 141.6855
1114.641, 148.1387
1115.737, 170.5908
1116.832, 155.0420
1117.928, 157.4902
1119.023, 165.8857
1120.118, 269.3799
1121.213, 188.8203
1122.308, 219.2578
1123.402, 258.6924
1124.497, 105.1240
1125.591, 84.55273
1126.685, 214.9775
1127.779, 9.601563
1128.873, 129.8086
1129.967, 60.21484
1131.060, 146.6152
1132.153, 36.01367
1133.247, 72.59375
1134.340, 120.7529
1135.433, 57.09570
1136.525, 114.4336
1137.618, 30.76465
1138.710, 12.09180
1139.802, 123.4131
1140.895, 46.26465
1141.987, 19.03906
1143.078, 22.33691
1144.170, 14.35645
1145.261, 20.06641
1146.353, 32.19922
1147.444, 61.46191
1148.535, 161.7178
1149.626, 56.96680
1150.716, 48.79004
1151.807, 163.5879
1152.897, 125.8184
1153.988, 123.4521
1155.078, 36.50684
1156.168, 33.40039
1157.257, 47.30078
1158.347, 184.1924
1159.436, 51.92285
1160.526, 73.93652
1161.615, 158.2148
1162.704, 71.53223
1163.793, 80.26855
1164.881, 6.002930
1165.970, 221.7246
1167.058, 50.44336
1168.147, 108.1689
1169.235, 121.8877
1170.323, 219.5977
1171.410, 199.2979
1172.498, 138.9893
1173.585, 3.324219
1174.673, 94.28418
1175.760, 117.9326
1176.847, 104.5723
1177.934, 134.2002
1179.020, 179.8174
1180.107, 16.57520
1181.193, 132.9961
1182.279, 92.55566
1183.365, 56.10449
1184.451, 131.6387
1185.537, 123.1621
1186.623, 21.67383
1187.708, 57.26562
1188.793, 146.3564
1189.878, 10.01270
1190.963, 107.3574
1192.048, 82.77637
1193.133, 69.90527
1194.217, 55.34375
1195.302, 62.42285
1196.386, 72.74609
1197.470, 115.3027
1198.554, 168.4346
1199.638, 146.0293
1200.721, 153.1445
1201.805, 182.2471
1202.888, 43.33691
1203.971, 163.4102
1205.054, 87.46973
1206.137, 37.48535
1207.219, 139.7129
1208.302, 42.85156
1209.384, 49.81250
1210.466, 206.7559
1211.548, 167.6875
1212.630, 54.60352
1213.712, 203.5029
1214.794, 217.3906
1215.875, 111.2627
1216.956, 328.1201
1218.037, 235.9727
1219.118, 88.80273
1220.199, 86.61621
1221.280, 200.4131
1222.360, 53.19727
1223.441, 123.0078
1224.521, 100.0488
1225.601, 105.8760
1226.681, 224.5938
1227.760, 265.0645
1228.840, 143.7549
1229.919, 208.4287
1230.999, 187.0898
1232.078, 309.7344
1233.157, 340.3887
1234.236, 290.0039
1235.314, 329.6035
1236.393, 330.3975
1237.471, 251.7881
1238.549, 365.5732
1239.627, 334.1143
1240.705, 364.6416
1241.783, 315.1533
1242.860, 282.7520
1243.938, 304.2793
1245.015, 339.3389
1246.092, 348.9521
1247.169, 363.3994
1248.246, 412.8438
1249.323, 488.6211
1250.399, 301.0332
1251.475, 467.4316
1252.552, 409.8135
1253.628, 333.1807
1254.703, 494.5303
1255.779, 362.8652
1256.855, 331.1826
1257.930, 417.7930
1259.005, 394.0771
1260.080, 468.3467
1261.155, 506.5996
1262.230, 437.7373
1263.305, 432.3232
1264.379, 538.5293
1265.454, 562.6865
1266.528, 618.8613
1267.602, 515.0312
1268.676, 550.1260
1269.750, 564.9688
1270.823, 679.2490
1271.897, 687.7207
1272.970, 701.1416
1274.043, 696.3525
1275.116, 668.5742
1276.189, 593.5264
1277.261, 534.4551
1278.334, 503.4541
1279.406, 582.5273
1280.478, 543.6484
1281.550, 519.0137
1282.622, 451.1836
1283.694, 446.4512
1284.766, 413.9639
1285.837, 476.2461
1286.908, 416.3135
1287.979, 341.1719
1289.050, 412.5781
1290.121, 407.3037
1291.192, 564.0459
1292.262, 467.7314
1293.333, 596.8096
1294.403, 777.2861
1295.473, 656.2354
1296.543, 657.4951
1297.613, 453.9355
1298.682, 466.9336
1299.752, 587.6367
1300.821, 585.3223
1301.890, 602.7021
1302.959, 548.6709
1304.028, 588.0469
1305.096, 536.9795
1306.165, 620.5459
1307.233, 610.1484
1308.301, 594.7373
1309.370, 624.4746
1310.437, 669.1816
1311.505, 703.6064
1312.573, 650.8594
1313.640, 835.3750
1314.708, 752.8682
1315.775, 776.6582
1316.842, 674.8457
1317.908, 631.2432
1318.975, 776.3838
1320.042, 804.7383
1321.108, 725.9834
1322.174, 429.0918
1323.240, 504.1963
1324.306, 506.7100
1325.372, 402.8613
1326.438, 536.1836
