##NAMES=Kyanite
##RRUFFID=R050450
##IDEAL CHEMISTRY=Al_2_OSiO_4_
##LOCALITY=Switzerland
##OWNER=RRUFF
##SOURCE=Marcus Origlieri
##DESCRIPTION=Blue bladed crystals
##STATUS=The identification of this mineral has been confirmed by X-ray diffraction and chemical analysis
##URL=rruff.info/R050450
##MEASURED CHEMISTRY=Al_2.00_OSi_1.00_O_4_
##PIN_ID=M01603
##ORIENTATION=Laser parallel to (-1 0 -1). Fiducial mark perpendicular to laser is parallel to b [0 1 0]
148.7160, 0.0000000E+00
149.9470, 1.087891
151.1780, 208.2256
152.4080, 184.9551
153.6380, 220.4648
154.8690, 104.5518
156.0980, 76.22363
157.3280, 36.12207
158.5580, 181.6572
159.7870, 171.3799
161.0170, 158.7578
162.2460, 101.2246
163.4750, 165.2480
164.7030, 265.6943
165.9320, 210.8447
167.1600, 188.0039
168.3890, 126.1875
169.6170, 102.9258
170.8450, 223.6797
172.0730, 318.6592
173.3000, 287.9316
174.5280, 181.5381
175.7550, 352.6797
176.9820, 233.0908
178.2090, 361.3916
179.4350, 180.3291
180.6620, 178.2227
181.8880, 141.5146
183.1150, 100.5312
184.3410, 110.8174
185.5670, 109.8652
186.7920, 91.82227
188.0180, 136.6650
189.2430, 57.29688
190.4690, 3.360352
191.6940, 51.98633
192.9180, 10.83398
194.1430, 70.02051
195.3680, 29.14941
196.5920, 76.67578
197.8160, 111.4521
199.0400, 190.1826
200.2640, 203.9238
201.4880, 265.7119
202.7110, 230.7715
203.9350, 495.1211
205.1580, 517.4629
206.3810, 773.1240
207.6040, 918.8311
208.8270, 824.2900
210.0490, 454.6748
211.2710, 338.6182
212.4940, 73.64941
213.7160, 7.768555
214.9370, 47.97070
216.1590, 207.2471
217.3810, 150.5928
218.6020, 237.0068
219.8230, 81.48828
221.0440, 231.0352
222.2650, 413.6738
223.4860, 465.4502
224.7060, 701.3584
225.9260, 958.3857
227.1470, 1155.518
228.3670, 967.7451
229.5860, 616.0547
230.8060, 162.4395
232.0260, 312.8887
233.2450, 49.38867
234.4640, 6.071289
235.6830, 72.50000
236.9020, 101.1055
238.1200, 98.74023
239.3390, 173.2529
240.5570, 191.0566
241.7750, 259.7334
242.9930, 250.4062
244.2110, 250.0020
245.4290, 353.4971
246.6460, 198.9902
247.8630, 237.5146
249.0810, 255.0742
250.2980, 149.6709
251.5140, 376.3008
252.7310, 336.9580
253.9470, 134.6387
255.1640, 175.2988
256.3800, 12.97559
257.5960, 58.32227
258.8120, 78.40723
260.0270, 300.1670
261.2430, 341.9570
262.4580, 47.77832
263.6730, 43.37109
264.8880, 215.5078
266.1030, 60.62598
267.3170, 203.6719
268.5320, 157.4668
269.7460, 16.79004
270.9600, 59.18750
272.1740, 208.6904
273.3880, 453.2959
274.6010, 936.0186
275.8150, 1357.510
277.0280, 1765.738
278.2410, 2000.604
279.4540, 1792.472
280.6670, 1012.224
281.8790, 517.8789
283.0920, 255.5566
284.3040, 252.2568
285.5160, 224.9834
286.7280, 411.7363
287.9400, 595.5137
289.1510, 1212.315
290.3630, 2173.145
291.5740, 3237.996
292.7850, 3716.876
293.9960, 3607.781
295.2070, 3125.971
296.4170, 3448.018
297.6280, 4787.525
298.8380, 7271.939
300.0480, 10410.24
301.2580, 14267.43
302.4680, 15979.52
303.6770, 12121.30
304.8870, 7149.174
306.0960, 3904.923
307.3050, 2102.541
308.5140, 1118.936
309.7230, 818.3418
310.9310, 474.6514
312.1400, 286.8496
313.3480, 523.9482
314.5560, 916.8203
315.7640, 1248.386
316.9720, 1787.011
318.1790, 1981.331
319.3870, 2209.629
320.5940, 2620.587
321.8010, 3650.901
323.0080, 5555.128
324.2150, 8087.459
325.4210, 11451.49
326.6280, 12879.49
327.8340, 10178.23
329.0400, 6313.670
330.2460, 3326.219
331.4510, 1883.789
332.6570, 955.2461
333.8620, 491.0537
335.0680, 310.2236
336.2730, 282.9980
337.4780, 206.2891
338.6820, 329.5059
339.8870, 435.8545
341.0910, 522.8740
342.2950, 521.3701
343.5000, 477.5322
344.7030, 408.5361
345.9070, 295.8496
347.1110, 109.2539
348.3140, 58.67188
349.5170, 67.06348
350.7200, 218.4756
351.9230, 427.8760
353.1260, 778.1260
354.3290, 833.2744
355.5310, 1226.442
356.7330, 1751.635
357.9350, 2644.866
359.1370, 3866.329
360.3390, 5272.361
361.5400, 5462.504
362.7420, 3746.449
363.9430, 2253.787
365.1440, 1345.456
366.3450, 1012.842
367.5460, 1174.249
368.7460, 1432.678
369.9470, 2066.127
371.1470, 3066.598
372.3470, 3958.088
373.5470, 4456.598
374.7460, 5132.758
375.9460, 5618.066
377.1450, 5851.082
378.3450, 6336.016
379.5440, 6232.816
380.7430, 6293.995
381.9410, 7041.006
383.1400, 9145.172
384.3380, 11775.41
385.5370, 13994.60
386.7350, 13052.50
387.9320, 9922.937
389.1300, 7785.498
390.3280, 7551.068
391.5250, 8669.337
392.7220, 10294.59
393.9190, 9815.973
395.1160, 6657.805
396.3130, 4605.823
397.5100, 3530.426
398.7060, 3263.406
399.9020, 3927.182
401.0980, 5532.668
402.2940, 7825.197
403.4900, 10577.87
404.6860, 12435.80
405.8810, 11367.75
407.0760, 7837.373
408.2710, 4602.340
409.4660, 2661.807
410.6610, 1538.602
411.8550, 857.8740
413.0500, 773.0615
414.2440, 371.8018
415.4380, 393.7549
416.6320, 578.9561
417.8260, 931.2002
419.0190, 1186.457
420.2130, 1422.730
421.4060, 1161.013
422.5990, 698.3135
423.7920, 363.6260
424.9850, 303.9482
426.1770, 196.2793
427.3700, 548.6211
428.5620, 847.9775
429.7540, 1206.349
430.9460, 1794.741
432.1380, 2704.186
433.3290, 3715.678
434.5210, 5228.183
435.7120, 6942.758
436.9030, 8478.429
438.0940, 9193.167
439.2850, 9263.920
440.4750, 8070.709
441.6660, 5990.496
442.8560, 4034.280
444.0460, 3135.062
445.2360, 2863.840
446.4260, 3128.613
447.6160, 3852.384
448.8050, 4461.162
449.9940, 4187.940
451.1830, 3002.714
452.3720, 1797.489
453.5610, 1096.271
454.7500, 751.0508
455.9380, 642.8438
457.1260, 604.6416
458.3150, 554.4424
459.5020, 578.0029
460.6900, 623.0693
461.8780, 795.9189
463.0650, 948.7822
464.2530, 1317.654
465.4400, 1613.559
466.6270, 1770.465
467.8130, 1594.386
469.0000, 1390.312
470.1870, 1274.242
471.3730, 1038.177
472.5590, 1231.135
473.7450, 1411.140
474.9310, 1748.151
476.1160, 2452.167
477.3020, 3592.186
478.4870, 5046.207
479.6720, 6881.238
480.8570, 8747.296
482.0420, 11714.36
483.2270, 16217.46
484.4110, 22301.56
485.5960, 29625.68
486.7800, 34962.79
487.9640, 34533.89
489.1480, 27433.00
490.3310, 19601.10
491.5150, 14138.19
492.6980, 10953.27
493.8810, 8579.354
495.0640, 6849.432
496.2470, 5244.501
497.4300, 3922.568
498.6120, 2901.629
499.7950, 2244.688
500.9770, 1739.744
502.1590, 1360.810
503.3410, 1261.873
504.5220, 998.9307
505.7040, 1003.983
506.8850, 1010.028
508.0660, 1028.068
509.2470, 996.1016
510.4280, 1022.127
511.6090, 1126.144
512.7890, 1251.151
513.9700, 1025.149
515.1500, 888.1387
516.3300, 728.1182
517.5100, 505.0859
518.6900, 303.0439
519.8690, 228.9912
521.0490, 137.9307
522.2280, 128.8662
523.4070, 1.207031
524.5860, 5.298828
525.7640, 92.41211
526.9430, 121.9990
528.1210, 116.5752
529.3000, 140.1787
530.4780, 77.60254
531.6560, 26.08594
532.8330, 34.39941
534.0110, 102.1348
535.1880, 19.74121
536.3650, 46.37891
537.5430, 112.0605
538.7190, 2.178711
539.8960, 158.6064
541.0730, 122.0264
542.2490, 132.1045
543.4250, 138.2910
544.6020, 377.9014
545.7780, 399.6455
546.9530, 240.2529
548.1290, 267.9990
549.3040, 132.7461
550.4800, 81.49121
551.6550, 21.70801
552.8300, 119.4141
554.0040, 173.3799
555.1790, 257.8379
556.3540, 554.5508
557.5280, 630.0957
558.7020, 898.9912
559.8760, 1306.250
561.0500, 1761.849
562.2230, 2685.521
563.3970, 2919.723
564.5700, 2527.768
565.7430, 2046.391
566.9160, 1411.655
568.0890, 1167.213
569.2620, 817.5518
570.4340, 807.2129
571.6070, 589.8945
572.7790, 585.2891
573.9510, 559.2998
575.1230, 645.6045
576.2940, 517.3359
577.4660, 699.4785
578.6370, 598.3662
579.8080, 698.2383
580.9790, 999.8389
582.1500, 854.6455
583.3210, 1165.711
584.4910, 1369.938
585.6620, 1505.349
586.8320, 1633.030
588.0020, 1526.249
589.1720, 1304.233
590.3410, 1142.714
591.5110, 1000.617
592.6800, 904.3809
593.8500, 914.9336
595.0190, 1012.920
596.1880, 1078.368
597.3560, 1214.438
598.5250, 1427.599
599.6930, 1639.684
600.8620, 1771.910
602.0300, 2168.853
603.1970, 2538.481
604.3650, 2915.876
605.5330, 3465.504
606.7000, 3719.936
607.8680, 3517.477
609.0350, 3332.180
610.2020, 2795.592
611.3680, 2309.977
612.5350, 2158.106
613.7010, 2138.990
614.8680, 1901.346
616.0340, 2045.407
617.2000, 2273.233
618.3660, 2390.545
619.5310, 2254.573
620.6970, 2243.298
621.8620, 2353.681
623.0270, 2292.398
624.1920, 2315.524
625.3570, 2409.077
626.5220, 2522.146
627.6860, 2696.047
628.8500, 2786.283
630.0140, 2914.717
631.1780, 3030.562
632.3420, 3192.446
633.5060, 3342.018
634.6700, 3267.768
635.8330, 3548.364
636.9960, 3781.915
638.1590, 3833.425
639.3220, 3662.588
640.4850, 3346.008
641.6470, 2767.921
642.8100, 2489.477
643.9720, 2077.763
645.1340, 2157.006
646.2960, 2070.203
647.4570, 1828.481
648.6190, 2222.770
649.7800, 2424.041
650.9420, 2705.062
652.1030, 2922.037
653.2640, 3400.969
654.4240, 3708.854
655.5850, 4094.695
656.7450, 4138.493
657.9060, 3965.247
659.0660, 3731.955
660.2260, 3227.621
661.3850, 2715.244
662.5450, 2029.775
663.7040, 1723.585
664.8640, 1402.212
666.0230, 1467.059
667.1820, 1264.964
668.3410, 1382.125
669.4990, 1325.723
670.6580, 1326.169
671.8160, 1276.578
672.9740, 900.2646
674.1320, 855.9395
675.2900, 731.4590
676.4480, 402.4824
677.6050, 456.3115
678.7630, 349.5293
679.9200, 224.2949
681.0770, 304.2832
682.2340, 241.9980
683.3900, 230.6904
684.5470, 149.4541
685.7030, 177.1719
686.8590, 38.84277
688.0150, 135.4561
689.1710, 133.8584
690.3270, 127.9951
691.4830, 42.44141
692.6380, 135.3193
693.7930, 48.16504
694.9480, 5.030273
696.1030, 2.974609
697.2580, 72.99121
698.4130, 51.87891
699.5670, 34.69824
700.7210, 118.4600
701.8750, 16.17480
703.0290, 57.82422
704.1830, 111.4229
705.3370, 189.9746
706.4900, 113.4805
707.6430, 33.93945
708.7970, 22.34277
709.9490, 1.687500
711.1020, 122.0371
712.2550, 100.8955
713.4070, 27.12207
714.5600, 193.9141
715.7120, 281.1230
716.8640, 198.5479
718.0160, 40.14453
719.1670, 84.83008
720.3190, 33.37305
721.4700, 127.5244
722.6210, 79.62988
723.7720, 264.6895
724.9230, 190.7070
726.0740, 291.6836
727.2250, 4.378906
728.3750, 209.4932
729.5250, 98.53418
730.6750, 122.1104
731.8250, 16.85449
732.9750, 56.54492
734.1240, 19.81152
735.2740, 34.76270
736.4230, 23.28906
737.5720, 2.232422
738.7210, 13.18555
739.8700, 82.44629
741.0190, 15.17871
742.1670, 3.023438
743.3150, 81.82812
744.4630, 75.22266
745.6110, 19.76855
746.7590, 17.17578
747.9070, 46.07422
749.0540, 40.93066
750.2020, 51.25586
751.3490, 144.5215
752.4960, 24.08789
753.6430, 70.65332
754.7890, 115.1807
755.9360, 225.6689
757.0820, 42.12305
758.2280, 102.5371
759.3740, 171.9141
760.5200, 79.25488
761.6660, 208.5576
762.8120, 93.82812
763.9570, 197.0605
765.1020, 280.2617
766.2470, 233.4307
767.3920, 280.5693
768.5370, 199.6768
769.6810, 177.7520
770.8260, 320.7949
771.9700, 227.8086
773.1140, 213.7920
774.2580, 269.7451
775.4020, 358.6787
776.5460, 33.59961
777.6890, 215.5098
778.8320, 67.40332
779.9750, 140.2695
781.1180, 244.1035
782.2610, 276.9199
783.4040, 241.7119
784.5460, 154.4844
785.6890, 139.2412
786.8310, 129.5889
787.9730, 259.6826
789.1150, 195.4014
790.2560, 222.1406
791.3980, 356.8535
792.5390, 258.6230
793.6810, 270.3926
794.8220, 432.1855
795.9630, 300.9844
797.1030, 239.7695
798.2440, 444.5293
799.3840, 355.2656
800.5240, 550.9785
801.6650, 292.6709
802.8040, 378.3486
803.9440, 258.0283
805.0840, 439.7178
806.2230, 461.4180
807.3630, 491.1348
808.5020, 399.8525
809.6410, 533.5566
810.7790, 399.2432
811.9180, 548.9365
813.0570, 443.6172
814.1950, 571.2930
815.3330, 551.9805
816.4710, 791.6514
817.6090, 487.8770
818.7470, 621.4805
819.8840, 536.8057
821.0220, 827.0664
822.1590, 638.9678
823.2960, 665.9697
824.4330, 779.7979
825.5690, 719.5898
826.7060, 914.3584
827.8420, 679.0879
828.9790, 575.4668
830.1150, 655.0146
831.2510, 558.0342
832.3860, 664.7646
833.5220, 578.6289
834.6570, 732.1045
835.7930, 748.1807
836.9280, 786.8809
838.0630, 877.4727
839.1980, 712.4971
840.3320, 1081.643
841.4670, 776.1738
842.6010, 1079.026
843.7350, 1044.552
844.8690, 998.2568
846.0030, 1180.604
847.1370, 1180.896
848.2700, 1365.437
849.4040, 1214.324
850.5370, 1337.883
851.6700, 1144.978
852.8030, 1481.626
853.9360, 1562.490
855.0680, 1491.335
856.2000, 1720.416
857.3330, 1678.252
858.4650, 1796.794
859.5970, 1698.139
860.7290, 1985.262
861.8600, 2133.078
862.9920, 1909.323
864.1230, 1666.764
865.2540, 1848.672
866.3850, 1667.122
867.5160, 1762.675
868.6460, 1602.404
869.7770, 1710.664
870.9070, 1661.424
872.0370, 1759.527
873.1670, 1533.504
874.2970, 1458.520
875.4270, 1465.357
876.5570, 1769.444
877.6860, 1565.812
878.8150, 1780.382
879.9440, 1853.691
881.0730, 1847.174
882.2020, 2069.531
883.3300, 2230.693
884.4590, 2321.113
885.5870, 2656.539
886.7150, 3199.186
887.8430, 3323.042
888.9710, 3714.435
890.0990, 3842.084
891.2260, 3986.937
892.3530, 3929.268
893.4810, 3695.848
894.6080, 3691.695
895.7340, 3566.851
896.8610, 3488.632
897.9880, 3748.971
899.1140, 3801.844
900.2400, 4124.215
901.3660, 4005.676
902.4920, 3580.144
903.6180, 3948.618
904.7430, 3209.023
905.8690, 3096.354
906.9940, 3030.867
908.1190, 2610.386
909.2440, 2634.912
910.3690, 2428.383
911.4930, 2330.311
912.6180, 2265.496
913.7420, 2372.807
914.8660, 2385.623
915.9900, 2330.969
917.1140, 2223.967
918.2380, 2163.363
919.3610, 2383.434
920.4850, 2463.637
921.6080, 2735.081
922.7310, 2670.291
923.8540, 2702.244
924.9760, 3016.453
926.0990, 3286.152
927.2210, 3440.139
928.3440, 3717.379
929.4660, 3920.044
930.5880, 4394.755
931.7090, 4893.652
932.8310, 5446.399
933.9520, 5842.150
935.0740, 6573.008
936.1950, 7138.822
937.3160, 7808.102
938.4360, 8119.986
939.5570, 8768.870
940.6780, 9504.769
941.7980, 10215.69
942.9180, 11089.63
944.0380, 11895.59
945.1580, 13182.59
946.2780, 13843.62
947.3970, 15171.67
948.5170, 16085.73
949.6360, 16852.79
950.7550, 17789.86
951.8740, 18117.93
952.9930, 17967.00
954.1110, 17853.08
955.2300, 17946.17
956.3480, 17442.25
957.4660, 17144.35
958.5840, 16945.46
959.7020, 17184.56
960.8190, 17168.68
961.9370, 17128.82
963.0540, 16800.95
964.1710, 15363.12
965.2880, 14025.34
966.4050, 12679.59
967.5220, 10972.87
968.6380, 9543.164
969.7550, 8346.502
970.8710, 7110.850
971.9870, 6140.207
973.1030, 5357.570
974.2190, 4548.953
975.3340, 3913.344
976.4500, 3388.742
977.5650, 2967.145
978.6800, 2719.555
979.7950, 2358.977
980.9100, 2218.410
982.0250, 1869.863
983.1390, 1930.369
984.2530, 1611.918
985.3680, 1460.479
986.4820, 1469.109
987.5950, 1525.830
988.7090, 1321.621
989.8230, 1272.441
990.9360, 1446.301
992.0490, 1403.172
993.1620, 1720.047
994.2750, 1915.930
995.3880, 2468.816
996.5010, 2789.709
997.6130, 3452.604
998.7250, 3959.516
999.8370, 4687.432
1000.949, 5048.355
1002.061, 5033.283
1003.173, 4823.223
1004.284, 4403.168
1005.396, 3442.133
1006.507, 2588.219
1007.618, 2167.199
1008.729, 1623.195
1009.839, 1308.199
1010.950, 1020.828
1012.060, 801.5078
1013.171, 926.2441
1014.281, 713.0273
1015.391, 604.1074
1016.500, 880.5430
1017.610, 726.6680
1018.719, 535.7559
1019.829, 920.8926
1020.938, 666.0488
1022.047, 710.4844
1023.156, 828.6914
1024.264, 470.0840
1025.373, 452.5059
1026.481, 795.2422
1027.589, 355.4570
1028.697, 497.6738
1029.805, 370.8926
1030.913, 384.1113
1032.020, 188.3301
1033.128, 0.5507810
1034.235, 223.0410
1035.342, 55.25781
1036.449, 163.4727
1037.556, 45.68750
1038.663, 72.94727
1039.769, 120.0703
1040.875, 44.91016
1041.981, 188.1172
1043.087, 44.67969
1044.193, 69.49609
1045.299, 100.3496
1046.404, 57.25195
1047.510, 19.18359
1048.615, 50.87500
1049.720, 31.06836
1050.825, 18.03320
1051.930, 31.00781
1053.034, 50.94727
1054.139, 36.02734
1055.243, 51.00000
1056.347, 123.0566
1057.451, 174.1855
1058.555, 16.58984
1059.658, 312.6211
1060.762, 92.99414
1061.865, 176.0098
1062.968, 112.4707
1064.071, 31.56055
1065.174, 194.5977
1066.277, 215.9414
1067.380, 37.85352
1068.482, 189.8203
1069.584, 11.05078
1070.686, 234.3711
1071.788, 343.6758
1072.890, 337.0859
1073.992, 334.2422
1075.093, 554.6914
1076.194, 542.4355
1077.295, 459.0078
1078.396, 672.3320
1079.497, 809.2422
1080.598, 812.4844
1081.698, 979.7168
1082.799, 1044.938
1083.899, 913.1484
1084.999, 880.3496
1086.099, 915.5430
1087.199, 862.7246
1088.298, 835.8984
1089.398, 822.1309
1090.497, 659.2148
1091.596, 787.3594
1092.695, 566.4922
1093.794, 580.6152
1094.892, 474.7285
1095.991, 467.8320
1097.089, 499.1035
1098.187, 323.0078
1099.285, 551.0801
1100.383, 509.1406
1101.481, 445.1914
1102.579, 529.2305
1103.676, 462.2598
1104.773, 553.2754
1105.870, 578.8223
1106.967, 815.2754
1108.064, 616.2559
1109.161, 537.2266
1110.257, 431.1836
1111.353, 677.1309
1112.449, 411.0684
1113.545, 515.9922
1114.641, 476.9043
1115.737, 358.8047
1116.832, 461.6934
1117.928, 395.5723
1119.023, 403.4375
1120.118, 454.2871
1121.213, 460.1250
1122.308, 555.9512
1123.402, 439.7637
1124.497, 515.5625
1125.591, 318.3516
1126.685, 242.1270
1127.779, 381.8867
1128.873, 498.6348
1129.967, 304.3711
1131.060, 338.0918
1132.153, 380.8008
1133.247, 385.4980
1134.340, 341.1797
1135.433, 204.8516
1136.525, 466.5078
1137.618, 96.15234
1138.710, 410.7832
1139.802, 204.3984
1140.895, 161.0020
1141.987, 50.59375
1143.078, 49.16602
1144.170, 24.71484
1145.261, 6.234375
1146.353, 30.28516
1147.444, 62.13477
1148.535, 148.5371
1149.626, 14.07227
1150.716, 182.2676
1151.807, 206.5938
1152.897, 114.0938
1153.988, 160.1152
1155.078, 80.31250
1156.168, 73.49414
1157.257, 52.66016
1158.347, 373.8047
1159.436, 205.9336
1160.526, 258.0527
1161.615, 339.1562
1162.704, 184.2480
1163.793, 249.3242
1164.881, 31.33984
1165.970, 354.3770
1167.058, 180.3984
1168.147, 235.4062
1169.235, 109.4023
1170.323, 9.615234
1171.410, 134.3203
1172.498, 205.2402
1173.585, 278.1504
1174.673, 230.1074
1175.760, 369.6035
1176.847, 151.1328
1177.934, 404.2363
1179.020, 361.2891
1180.107, 170.1191
1181.193, 120.5215
1182.279, 263.5156
1183.365, 30.16797
1184.451, 239.8711
1185.537, 156.6074
1186.623, 128.5430
1187.708, 158.9414
1188.793, 103.0781
1189.878, 71.72266
1190.963, 51.26758
1192.048, 77.82617
1193.133, 18.81445
1194.217, 88.59180
1195.302, 62.50391
1196.386, 68.29492
1197.470, 123.2051
1198.554, 76.84570
1199.638, 97.46680
1200.721, 115.5820
1201.805, 65.66602
1202.888, 21.09180
1203.971, 98.86523
1205.054, 0.3007810
1206.137, 109.5430
1207.219, 123.4512
1208.302, 72.42969
1209.384, 98.45117
1210.466, 118.4727
1211.548, 72.38867
1212.630, 227.2988
1213.712, 66.20508
1214.794, 184.1094
1215.875, 425.0059
1216.956, 410.8984
1218.037, 307.7871
1219.118, 157.6699
1220.199, 215.5527
1221.280, 248.4277
1222.360, 336.3008
1223.441, 256.1699
1224.521, 273.0352
1225.601, 222.8945
1226.681, 228.3730
1227.760, 235.0273
1228.840, 283.4609
1229.919, 244.3105
1230.999, 335.9961
1232.078, 315.4414
1233.157, 567.8457
1234.236, 440.6836
1235.314, 569.5215
1236.393, 645.3594
1237.471, 535.1914
1238.549, 593.0234
1239.627, 746.8535
1240.705, 620.6836
1241.783, 780.5371
1242.860, 654.3906
1243.938, 762.2422
1245.015, 656.1113
1246.092, 665.5996
1247.169, 899.8535
1248.246, 702.7715
1249.323, 829.6953
1250.399, 956.6211
1251.475, 869.5488
1252.552, 1074.480
1253.628, 1113.471
1254.703, 989.4648
1255.779, 1049.469
1256.855, 1265.477
1257.930, 1062.486
1259.005, 979.5078
1260.080, 1437.531
1261.155, 1320.580
1262.230, 1480.641
1263.305, 1534.699
1264.379, 1576.762
1265.454, 1863.830
1266.528, 1806.902
1267.602, 1734.863
1268.676, 1894.945
1269.750, 1778.029
1270.823, 1720.117
1271.897, 1821.619
1272.970, 1828.082
1274.043, 1752.521
1275.116, 1884.943
1276.189, 1758.080
1277.261, 1959.879
1278.334, 1720.002
1279.406, 1736.176
1280.478, 1642.309
1281.550, 1625.449
1282.622, 1619.365
1283.694, 1581.516
1284.766, 1605.322
1285.837, 1295.445
1286.908, 1547.092
1287.979, 1648.264
1289.050, 1426.441
1290.121, 1685.625
1291.192, 1691.812
1292.262, 1736.004
1293.333, 1964.201
1294.403, 1746.129
1295.473, 2019.334
1296.543, 1906.547
1297.613, 1793.762
1298.682, 2162.934
1299.752, 1973.613
1300.821, 2172.840
1301.890, 2018.076
1302.959, 2068.316
1304.028, 1946.568
1305.096, 2174.844
1306.165, 2315.146
1307.233, 2187.469
1308.301, 2338.801
1309.370, 2254.137
1310.437, 2387.482
1311.505, 2274.840
1312.573, 2524.152
1313.640, 2629.535
1314.708, 2484.924
1315.775, 2474.338
1316.842, 2310.791
1317.908, 2425.299
1318.975, 2467.801
1320.042, 2587.385
1321.108, 2296.596
1322.174, 2096.205
1323.240, 2139.418
1324.306, 1912.383
1325.372, 1726.168
1326.438, 1838.393
