##NAMES=Laumontite
##RRUFFID=R040020
##IDEAL CHEMISTRY=Ca(Si_4_Al_2_)O_12_&#183;4H_2_O
##LOCALITY=Pine Creek Tungsten mine, Bishop, Inyo County, California, USA
##OWNER=RRUFF
##SOURCE=University of Arizona Mineral Museum
##DESCRIPTION=Pale gray long prism coated with smaller crystals
##STATUS=The identification of this mineral has been confirmed by X-ray diffraction and chemical analysis
##URL=rruff.info/R040020
##MEASURED CHEMISTRY=(Ca_0.99_K_0.01_)_Σ=1_(Si_4.01_Al_1.99_)O_12_·4H_2_O; H_2_O estimated by difference
##PIN_ID=L00070
##ORIENTATION=Laser parallel to [-1 0 -1]. Fiducial mark perpendicular to laser is parallel to b* (0 1 0)
84.318, 0.000
85.707, 176.688
87.096, 519.921
88.485, 610.839
89.873, 475.976
91.262, 554.245
92.650, 423.348
94.038, 569.675
95.426, 455.514
96.813, 880.562
98.201, 957.533
99.588, 1193.925
100.975, 1777.770
102.362, 2417.979
103.748, 2914.537
105.135, 3147.415
106.521, 3546.130
107.907, 3979.499
109.292, 4426.244
110.678, 4655.383
112.063, 4956.202
113.448, 4898.176
114.833, 5510.910
116.218, 5854.133
117.602, 5678.021
118.987, 5483.651
120.371, 5024.301
121.755, 4679.313
123.138, 4169.033
124.522, 3913.113
125.905, 3690.651
127.288, 3460.265
128.671, 3599.523
130.053, 3197.023
131.436, 3522.006
132.818, 3624.533
134.200, 3614.812
135.582, 3983.046
136.963, 4169.414
138.345, 4374.072
139.726, 4677.162
141.107, 5018.803
142.488, 5139.098
143.868, 5218.149
145.248, 5116.037
146.629, 4882.833
148.008, 4459.564
149.388, 4026.051
150.768, 3612.722
152.147, 3054.724
153.526, 2712.213
154.905, 2484.509
156.284, 2208.841
157.662, 2285.541
159.040, 1920.015
160.418, 2148.758
161.796, 1966.079
163.174, 2197.623
164.551, 2295.753
165.929, 2245.271
167.306, 2558.852
168.683, 2448.814
170.059, 2770.700
171.436, 2803.280
172.812, 2739.605
174.188, 2806.819
175.564, 2536.546
176.939, 2478.271
178.315, 2229.258
179.690, 2100.254
181.065, 1811.830
182.440, 1652.896
183.814, 1434.260
185.188, 1215.930
186.563, 1057.790
187.937, 949.816
189.310, 911.984
190.684, 674.270
192.057, 596.661
193.430, 679.135
194.803, 361.679
196.176, 804.280
197.549, 626.931
198.921, 899.619
200.293, 802.335
201.665, 865.069
203.037, 807.804
204.408, 780.518
205.779, 713.188
207.150, 615.795
208.521, 678.322
209.892, 450.755
211.262, 273.083
212.633, 425.304
214.003, 207.417
215.373, 99.424
216.742, 51.327
218.112, 143.129
219.481, 74.829
220.850, 43.570
222.219, 62.068
223.588, 190.664
224.956, 99.358
226.324, 158.146
227.692, 167.031
229.060, 86.009
230.428, 135.083
231.795, 124.057
233.162, 243.367
234.529, 142.814
235.896, 352.507
237.263, 282.568
238.629, 3.008
239.995, 423.667
241.361, 144.022
242.727, 305.618
244.093, 187.653
245.458, 210.136
246.823, 243.043
248.188, 246.340
249.553, 265.877
250.917, 212.777
252.282, 208.111
253.646, 102.392
255.010, 95.900
256.374, 188.843
257.737, 88.607
259.101, 63.589
260.464, 124.441
261.827, 162.667
263.189, 11.035
264.552, 89.845
265.914, 219.023
267.276, 369.059
268.638, 396.653
270.000, 483.461
271.362, 484.546
272.723, 503.766
274.084, 551.496
275.445, 470.441
276.806, 746.821
278.166, 647.795
279.526, 1046.496
280.887, 919.212
282.246, 1037.829
283.606, 1204.570
284.966, 1140.015
286.325, 1418.217
287.684, 1625.653
289.043, 1712.767
290.402, 2069.998
291.760, 2176.336
293.118, 2452.910
294.477, 2578.637
295.834, 2774.137
297.192, 3100.219
298.550, 3315.293
299.907, 3670.170
301.264, 3904.855
302.621, 4649.358
303.978, 4993.684
305.334, 5857.838
306.690, 6851.830
308.046, 7635.662
309.402, 8669.339
310.758, 9352.864
312.113, 10376.240
313.469, 10649.462
314.824, 10632.484
316.179, 10365.325
317.533, 9677.824
318.888, 8999.891
320.242, 7891.508
321.596, 7372.751
322.950, 6853.545
324.304, 6693.833
325.657, 6693.748
327.010, 6753.145
328.363, 7142.081
329.716, 6920.592
331.069, 6338.660
332.421, 5836.345
333.774, 4813.764
335.126, 4210.957
336.478, 3457.997
337.829, 3084.922
339.181, 2561.768
340.532, 2308.572
341.883, 2345.337
343.234, 2082.062
344.585, 2308.744
345.935, 2425.386
347.285, 2311.988
348.635, 2958.545
349.985, 2615.061
351.335, 3101.529
352.684, 2627.955
354.034, 2424.333
355.383, 2100.664
356.731, 1866.949
358.080, 1753.188
359.429, 1459.375
360.777, 1365.517
362.125, 1171.609
363.473, 1077.653
364.820, 1083.648
366.168, 1009.594
367.515, 979.621
368.862, 921.340
370.209, 927.138
371.556, 922.889
372.902, 918.593
374.249, 963.872
375.595, 789.480
376.940, 1034.361
378.286, 1068.047
379.632, 1000.128
380.977, 1184.308
382.322, 987.074
383.667, 1133.342
385.012, 1068.348
386.356, 1065.188
387.700, 1107.665
389.044, 816.358
390.388, 944.402
391.732, 777.442
393.075, 697.317
394.419, 587.799
395.762, 630.706
397.105, 819.844
398.447, 685.745
399.790, 895.972
401.132, 883.689
402.474, 894.959
403.816, 1253.741
405.158, 1212.358
406.499, 1698.369
407.841, 1752.969
409.182, 1855.520
410.523, 2107.900
411.864, 1849.023
413.204, 2103.374
414.544, 1737.883
415.884, 1708.844
417.224, 1210.035
418.564, 1155.169
419.904, 1016.214
421.243, 558.743
422.582, 690.373
423.921, 432.606
425.260, 259.070
426.598, 179.046
427.937, 31.565
429.275, 314.926
430.613, 111.657
431.951, 121.908
433.288, 135.370
434.625, 121.197
435.963, 152.219
437.300, 104.788
438.636, 21.434
439.973, 121.859
441.309, 54.917
442.646, 78.196
443.981, 88.703
445.317, 214.272
446.653, 57.185
447.988, 190.027
449.323, 212.809
450.658, 125.543
451.993, 278.212
453.328, 160.824
454.662, 613.377
455.996, 395.874
457.331, 108.326
458.664, 460.718
459.998, 413.061
461.331, 635.354
462.665, 617.596
463.998, 889.812
465.330, 1022.362
466.663, 1054.506
467.996, 1456.660
469.328, 1478.757
470.660, 1780.811
471.992, 1972.819
473.323, 1794.825
474.655, 1846.787
475.986, 1798.759
477.317, 1880.709
478.648, 2043.997
479.979, 2035.900
481.309, 2458.429
482.640, 2760.742
483.970, 3512.651
485.300, 3895.273
486.629, 4847.122
487.959, 6729.211
489.288, 8121.054
490.617, 10562.838
491.946, 13074.737
493.275, 14886.477
494.603, 15808.194
495.932, 14970.213
497.260, 13391.896
498.588, 11234.192
499.916, 9305.841
501.243, 8037.469
502.571, 6849.077
503.898, 6890.668
505.225, 6452.240
506.552, 6833.795
507.878, 7405.332
509.205, 8046.850
510.531, 9068.352
511.857, 9609.831
513.183, 10911.298
514.508, 11342.747
515.834, 11904.174
517.159, 12325.589
518.484, 12366.986
519.809, 10828.365
521.133, 10069.730
522.458, 8801.078
523.782, 7612.410
525.106, 6243.730
526.430, 5475.031
527.754, 4816.316
529.077, 3967.586
530.400, 3378.844
531.723, 2860.107
533.046, 2701.353
534.369, 1972.668
535.692, 1873.706
537.014, 1674.941
538.336, 1256.332
539.658, 1377.536
540.980, 1099.201
542.301, 1130.734
543.623, 881.958
544.944, 694.001
546.265, 935.324
547.585, 566.755
548.906, 528.181
550.226, 599.669
551.547, 451.872
552.867, 603.343
554.186, 264.462
555.506, 325.928
556.825, 537.700
558.145, 419.584
559.464, 461.562
560.783, 363.560
562.101, 405.688
563.420, 417.874
564.738, 510.248
566.056, 442.605
567.374, 405.742
568.692, 620.662
570.009, 543.725
571.326, 597.331
572.643, 804.771
573.960, 788.521
575.277, 1038.895
576.594, 1012.879
577.910, 1340.736
579.226, 1544.580
580.542, 1648.043
581.858, 2211.438
583.173, 2315.350
584.489, 2911.410
585.804, 3564.572
587.119, 3916.398
588.434, 4970.133
589.748, 5034.229
591.063, 5657.297
592.377, 5970.039
593.691, 5824.289
595.005, 5872.156
596.318, 5557.229
597.632, 5225.283
598.945, 4377.900
600.258, 3656.576
601.571, 3402.164
602.884, 2798.566
604.196, 2422.098
605.508, 1894.383
606.821, 1487.682
608.132, 1633.740
609.444, 1065.887
610.756, 1129.258
612.067, 822.051
613.378, 705.361
614.689, 689.916
616.000, 522.365
617.311, 595.896
618.621, 349.541
619.931, 312.385
621.241, 580.715
622.551, 44.291
623.861, 552.660
625.170, 146.064
626.479, 209.781
627.788, 363.531
629.097, 167.104
630.406, 339.338
631.714, 182.934
633.023, 146.105
634.331, 345.967
635.639, 31.256
636.946, 249.904
638.254, 43.619
639.561, 86.355
640.868, 275.238
642.175, 28.160
643.482, 211.236
644.789, 146.527
646.095, 199.121
647.401, 212.668
648.707, 174.805
650.013, 427.746
651.319, 210.719
652.624, 133.223
653.929, 326.674
655.234, 59.145
656.539, 492.156
657.844, 214.613
659.148, 367.037
660.453, 479.447
661.757, 291.842
663.061, 544.221
664.364, 446.588
665.668, 678.938
666.971, 921.301
668.274, 893.650
669.577, 1225.986
670.880, 1538.305
672.183, 1230.613
673.485, 1712.904
674.787, 1655.557
676.089, 1827.822
677.391, 1590.068
678.693, 1432.303
679.994, 1295.211
681.296, 907.416
682.597, 959.604
683.898, 631.941
685.198, 544.100
686.499, 546.672
687.799, 573.469
689.099, 515.582
690.399, 207.793
691.699, 339.873
692.998, 221.939
694.298, 183.988
695.597, 266.018
696.896, 118.061
698.195, 150.553
699.493, 232.527
700.792, 44.490
702.090, 366.428
703.388, 218.346
704.686, 280.285
705.984, 372.168
707.281, 74.035
708.578, 555.877
709.876, 327.699
711.172, 349.508
712.469, 551.297
713.766, 463.064
715.062, 624.812
716.358, 246.539
717.654, 598.246
718.950, 379.932
720.246, 221.945
721.541, 273.584
722.836, 75.201
724.131, 18.654
725.426, 142.887
726.721, 35.096
728.015, 53.424
729.310, 37.990
730.604, 94.197
731.898, 17.092
733.191, 51.434
734.485, 69.748
735.778, 170.898
737.071, 137.848
738.364, 63.152
739.657, 25.877
740.950, 85.033
742.242, 205.914
743.535, 143.148
744.827, 317.590
746.118, 48.340
747.410, 139.182
748.702, 109.875
749.993, 59.402
751.284, 181.227
752.575, 98.139
753.866, 152.691
755.156, 103.217
756.447, 186.268
757.737, 164.109
759.027, 24.486
760.316, 164.928
761.606, 55.246
762.896, 24.471
764.185, 265.756
765.474, 125.959
766.763, 146.131
768.051, 166.271
769.340, 6.383
770.628, 176.451
771.916, 106.490
773.204, 76.498
774.492, 266.471
775.780, 53.580
777.067, 86.289
778.354, 54.260
779.641, 134.504
780.928, 45.123
782.215, 34.727
783.501, 74.295
784.787, 116.174
786.073, 63.250
787.359, 162.639
788.645, 238.055
789.930, 252.455
791.216, 99.773
792.501, 140.719
793.786, 247.729
795.071, 223.807
796.355, 194.932
797.640, 152.895
798.924, 8.430
800.208, 259.934
801.492, 28.492
802.775, 307.053
804.059, 275.441
805.342, 153.949
806.625, 442.424
807.908, 30.555
809.191, 418.969
810.474, 126.723
811.756, 255.078
813.038, 523.408
814.320, 371.715
815.602, 599.992
816.884, 528.242
818.165, 436.469
819.446, 844.666
820.727, 488.932
822.008, 477.078
823.289, 585.197
824.569, 353.291
825.850, 521.359
827.130, 389.879
828.410, 167.895
829.690, 545.879
830.969, 353.842
832.249, 371.773
833.528, 89.682
834.807, 357.557
836.086, 385.414
837.364, 213.250
838.643, 381.059
839.921, 148.840
841.199, 43.408
842.477, 564.277
843.755, 221.941
845.033, 359.494
846.310, 377.107
847.587, 304.670
848.864, 462.051
850.141, 239.594
851.418, 126.643
852.694, 353.801
853.971, 411.271
855.247, 377.932
856.523, 365.357
857.798, 232.695
859.074, 550.074
860.349, 297.426
861.624, 484.080
862.899, 521.387
864.174, 338.670
865.449, 485.930
866.723, 243.166
867.998, 370.377
869.272, 407.660
870.545, 374.920
871.819, 562.156
873.093, 149.395
874.366, 386.520
875.639, 473.711
876.912, 49.820
878.185, 824.900
879.458, 61.561
880.730, 267.777
882.002, 590.211
883.274, 83.592
884.546, 455.975
885.818, 161.963
887.090, 414.123
888.361, 460.281
889.632, 176.877
890.903, 513.520
892.174, 389.619
893.444, 263.230
894.715, 429.408
895.985, 176.068
897.255, 452.199
898.525, 449.053
899.795, 155.049
901.064, 421.402
902.334, 177.619
903.603, 558.883
904.872, 395.363
906.140, 104.121
907.409, 500.492
908.677, 176.633
909.946, 339.809
911.214, 356.176
912.482, 131.938
913.749, 458.311
915.017, 454.207
916.284, 267.418
917.551, 424.160
918.818, 310.301
920.085, 236.514
921.352, 342.793
922.618, 187.803
923.884, 584.094
925.150, 200.076
926.416, 575.918
927.682, 482.539
928.947, 423.652
930.213, 479.490
931.478, 600.512
932.743, 226.473
934.008, 892.100
935.272, 257.674
936.537, 783.396
937.801, 250.436
939.065, 156.092
940.329, 702.154
941.593, 38.500
942.856, 467.902
944.119, 565.898
945.383, 51.318
946.646, 767.691
947.908, 247.896
949.171, 544.043
950.433, 630.008
951.696, 313.742
952.958, 580.148
954.220, 405.584
955.481, 272.004
956.743, 528.416
958.004, 244.371
959.265, 380.777
960.526, 406.209
961.787, 252.605
963.048, 498.439
964.308, 134.807
965.569, 481.189
966.829, 437.566
968.089, 143.939
969.348, 500.311
970.608, 306.676
971.867, 156.961
973.126, 739.342
974.385, 135.641
975.644, 401.938
976.903, 588.227
978.161, 15.488
979.420, 600.789
980.678, 346.688
981.936, 212.955
983.193, 459.219
984.451, 95.486
985.708, 371.059
986.966, 439.295
988.223, 145.623
989.479, 641.787
990.736, 238.107
991.993, 434.000
993.249, 506.246
994.505, 332.557
995.761, 798.752
997.017, 535.762
998.272, 732.123
999.528, 909.344
1000.783, 695.697
1002.038, 1152.023
1003.293, 1218.873
1004.548, 975.223
1005.802, 1611.820
1007.057, 1228.898
1008.311, 1665.242
1009.565, 1571.777
1010.818, 1738.113
1012.072, 2214.445
1013.326, 2140.990
1014.579, 2437.318
1015.832, 2893.645
1017.085, 2599.967
1018.338, 3396.289
1019.590, 3124.980
1020.842, 3641.295
1022.095, 3987.611
1023.347, 4048.854
1024.599, 4444.816
1025.850, 4462.049
1027.102, 3789.135
1028.353, 4100.883
1029.604, 3241.586
1030.855, 2855.016
1032.106, 2641.328
1033.356, 1951.666
1034.607, 2081.564
1035.857, 1788.732
1037.107, 1215.074
1038.357, 1541.451
1039.607, 1036.436
1040.856, 1212.861
1042.106, 1249.273
1043.355, 881.482
1044.604, 1247.902
1045.852, 644.320
1047.101, 1000.652
1048.350, 1037.107
1049.598, 866.584
1050.846, 902.912
1052.094, 739.965
1053.342, 787.391
1054.589, 847.393
1055.837, 610.311
1057.084, 937.750
1058.331, 944.230
1059.578, 721.502
1060.824, 1048.031
1062.071, 1014.555
1063.317, 989.568
1064.563, 1326.080
1065.809, 982.674
1067.055, 1269.191
1068.301, 1585.699
1069.546, 942.699
1070.791, 1789.195
1072.036, 1455.684
1073.281, 1762.184
1074.526, 2108.676
1075.771, 1315.148
1077.015, 2201.629
1078.259, 2018.115
1079.503, 1754.629
1080.747, 2161.150
1081.991, 1737.701
1083.234, 2714.305
1084.478, 3150.914
1085.721, 2197.535
1086.964, 2594.164
1088.206, 2100.838
1089.449, 1517.521
1090.691, 1744.209
1091.934, 1729.652
1093.176, 1707.578
1094.418, 1824.395
1095.659, 1641.133
1096.901, 1798.008
1098.142, 1974.957
1099.384, 1692.047
1100.625, 2609.010
1101.865, 1755.996
1103.106, 2673.434
1104.347, 2850.432
1105.587, 2337.441
1106.827, 3255.168
1108.067, 2742.172
1109.307, 2439.182
1110.546, 2686.199
1111.786, 2023.217
1113.025, 2340.238
1114.264, 1847.260
1115.503, 1264.283
1116.742, 1691.529
1117.980, 878.557
1119.219, 855.586
1120.457, 1442.621
1121.695, 763.570
1122.933, 1020.473
1124.171, 957.350
1125.408, 404.223
1126.645, 891.094
1127.883, 447.404
1129.120, 534.168
1130.356, 880.928
1131.593, 687.691
1132.829, 846.127
1134.066, 442.785
1135.302, 30.551
1136.538, 913.947
1137.773, 330.508
1139.009, 387.055
1140.244, 554.068
1141.480, 80.529
1142.715, 567.039
1143.950, 444.018
1145.184, 60.412
1146.419, 610.994
1147.653, 37.375
1148.887, 643.748
1150.121, 440.121
1151.355, 16.486
1152.589, 883.451
1153.822, 189.809
1155.056, 76.162
1156.289, 852.506
1157.522, 198.844
1158.755, 415.162
1159.987, 491.750
1161.220, 208.055
1162.452, 444.350
1163.684, 300.633
1164.916, 306.906
1166.148, 813.160
1167.379, 330.594
1168.611, 305.545
1169.842, 422.910
1171.073, 50.980
1172.304, 625.096
1173.534, 52.006
1174.765, 88.057
1175.995, 764.090
1177.225, 39.443
1178.455, 93.449
1179.685, 432.506
1180.915, 31.809
1182.144, 593.838
1183.374, 90.219
1184.603, 235.859
1185.832, 771.252
1187.060, 102.936
1188.289, 242.369
1189.518, 637.648
1190.746, 57.096
1191.974, 628.104
1193.202, 293.277
1194.430, 408.418
1195.657, 563.531
1196.884, 170.578
1198.112, 484.385
1199.339, 149.285
1200.566, 65.219
1201.792, 680.012
1203.019, 414.830
1204.245, 140.135
1205.471, 814.479
1206.697, 109.676
1207.923, 624.230
1209.149, 478.760
1210.374, 96.781
1211.600, 697.617
1212.825, 281.932
1214.050, 366.293
1215.275, 630.484
1216.499, 185.201
1217.724, 459.322
1218.948, 663.410
1220.172, 419.889
1221.396, 633.803
1222.620, 385.150
1223.843, 372.393
1225.067, 709.645
1226.290, 436.908
1227.513, 584.178
1228.736, 671.457
1229.959, 468.744
1231.181, 906.047
1232.404, 403.350
1233.626, 390.660
1234.848, 617.973
1236.070, 645.291
1237.291, 622.607
1238.513, 769.920
1239.734, 97.232
1240.955, 814.547
1242.177, 501.863
1243.397, 529.180
1244.618, 1156.498
1245.838, 323.848
1247.059, 651.234
1248.279, 978.625
1249.499, 256.031
1250.719, 763.447
1251.938, 950.854
1253.158, 195.680
1254.377, 1072.889
1255.596, 429.322
1256.815, 496.535
1258.034, 1082.748
1259.253, 528.658
1260.471, 774.371
1261.689, 621.076
1262.907, 337.115
1264.125, 1083.844
1265.343, 800.602
1266.561, 407.668
1267.778, 984.750
1268.995, 499.041
1270.212, 828.408
1271.429, 773.619
1272.646, 419.018
1273.862, 876.779
1275.079, 606.855
1276.295, 471.834
1277.511, 767.758
1278.727, 59.715
1279.943, 776.232
1281.158, 472.188
1282.373, 221.840
1283.589, 1251.738
1284.804, 514.586
1286.019, 230.215
1287.233, 875.680
1288.448, 319.582
1289.662, 179.000
1290.876, 1053.943
1292.090, 180.938
1293.304, 673.219
1294.518, 758.328
1295.731, 333.463
1296.944, 658.564
1298.158, 183.578
1299.371, 548.500
1300.583, 783.324
1301.796, 378.043
1303.008, 492.648
1304.221, 864.523
1305.433, 268.840
1306.645, 1213.023
1307.856, 556.744
1309.068, 379.516
1310.280, 1233.203
1311.491, 364.906
1312.702, 428.281
1313.913, 981.502
1315.124, 94.574
1316.334, 986.846
1317.545, 529.518
1318.755, 142.365
1319.965, 1025.629
1321.175, 649.002
1322.385, 242.664
1323.594, 1110.713
1324.804, 354.619
1326.013, 556.910
1327.222, 917.785
1328.431, 120.588
1329.639, 661.707
1330.848, 529.229
1332.056, 140.318
1333.265, 988.564
1334.473, 388.918
1335.680, 378.908
1336.888, 857.328
1338.096, 286.592
1339.303, 595.480
1340.510, 463.996
1341.717, 45.156
1342.924, 912.375
1344.131, 273.771
1345.337, 6.584
1346.544, 1001.271
1347.750, 198.650
1348.956, 129.838
1350.162, 765.615
1351.367, 64.646
1352.573, 743.465
1353.778, 292.139
1354.983, 281.482
1356.188, 1060.188
1357.393, 284.764
1358.598, 197.338
1359.802, 1004.658
1361.007, 100.594
1362.211, 516.727
1363.415, 911.912
1364.619, 3.168
1365.822, 1004.748
1367.026, 0.000
##END=



