##NAMES=Laumontite
##RRUFFID=R040020
##IDEAL CHEMISTRY=Ca(Si_4_Al_2_)O_12_&#183;4H_2_O
##LOCALITY=Pine Creek Tungsten mine, Bishop, Inyo County, California, USA
##OWNER=RRUFF
##SOURCE=University of Arizona Mineral Museum
##DESCRIPTION=Pale gray long prism coated with smaller crystals
##STATUS=The identification of this mineral has been confirmed by X-ray diffraction and chemical analysis
##URL=rruff.info/R040020
##MEASURED CHEMISTRY=(Ca_0.99_K_0.01_)_Σ=1_(Si_4.01_Al_1.99_)O_12_·4H_2_O; H_2_O estimated by difference
##PIN_ID=l00206
##ORIENTATION=Laser parallel to b* (0 1 0). Fiducial mark perpendicular to laser is parallel to -c [0 0 -1]
121.897, 0.000
123.286, 8.583
124.675, 181.772
126.063, 175.035
127.452, 358.938
128.840, 636.746
130.228, 654.765
131.615, 1170.573
133.003, 1302.164
134.390, 1718.087
135.777, 1878.018
137.164, 2231.551
138.550, 2408.133
139.937, 2667.098
141.323, 2753.043
142.709, 2909.064
144.094, 2781.121
145.480, 2703.908
146.865, 2577.236
148.250, 2364.967
149.635, 2014.463
151.019, 1964.600
152.403, 1716.389
153.788, 1668.748
155.171, 1340.785
156.555, 1413.445
157.939, 1324.361
159.322, 1263.998
160.705, 1252.471
162.088, 1139.943
163.470, 1376.531
164.853, 1192.377
166.235, 1378.023
167.617, 1298.221
168.998, 1551.906
170.380, 1298.689
171.761, 1329.598
173.142, 1224.229
174.523, 1099.691
175.904, 1289.637
177.284, 982.123
178.664, 887.230
180.044, 934.684
181.424, 594.691
182.803, 536.080
184.183, 432.428
185.562, 577.699
186.940, 424.158
188.319, 256.451
189.698, 381.354
191.076, 115.666
192.454, 494.789
193.831, 279.779
195.209, 392.871
196.586, 285.809
197.963, 258.965
199.340, 352.658
200.717, 226.637
202.093, 300.770
203.470, 304.912
204.846, 269.117
206.221, 143.355
207.597, 172.129
208.972, 142.012
210.347, 116.447
211.722, 110.957
213.097, 5.535
214.472, 150.182
215.846, 194.895
217.220, 39.664
218.594, 44.488
219.967, 59.357
221.341, 5.732
222.714, 60.787
224.087, 145.816
225.460, 40.822
226.832, 185.809
228.204, 49.219
229.577, 75.744
230.948, 29.293
232.320, 24.320
233.692, 50.670
235.063, 14.320
236.434, 140.717
237.805, 134.215
239.175, 90.889
240.545, 46.027
241.916, 58.799
243.286, 116.408
244.655, 118.352
246.025, 96.920
247.394, 12.225
248.763, 57.564
250.132, 57.053
251.501, 71.631
252.869, 103.830
254.237, 19.340
255.605, 105.012
256.973, 79.119
258.340, 203.121
259.708, 58.068
261.075, 53.195
262.442, 2.707
263.808, 43.219
265.175, 134.428
266.541, 167.871
267.907, 241.219
269.273, 224.531
270.639, 228.537
272.004, 241.133
273.369, 507.066
274.734, 369.088
276.099, 470.391
277.463, 349.262
278.828, 586.223
280.192, 595.551
281.556, 692.684
282.919, 686.068
284.283, 739.725
285.646, 830.182
287.009, 822.617
288.372, 1038.137
289.734, 1114.113
291.097, 1280.080
292.459, 1266.305
293.821, 1532.998
295.183, 1389.521
296.544, 1786.131
297.905, 1652.807
299.266, 2049.523
300.627, 1986.260
301.988, 2163.043
303.348, 2519.816
304.709, 2736.576
306.069, 3203.307
307.428, 3550.000
308.788, 3886.662
310.147, 4073.279
311.507, 4195.658
312.865, 4206.344
314.224, 4172.770
315.583, 4119.125
316.941, 3895.391
318.299, 3851.576
319.657, 3987.672
321.015, 4173.674
322.372, 4669.596
323.729, 4985.436
325.086, 5471.205
326.443, 5626.904
327.800, 5352.539
329.156, 5098.113
330.512, 4313.625
331.868, 3769.051
333.224, 3244.426
334.579, 2679.734
335.935, 2154.951
337.290, 1919.893
338.645, 1594.555
339.999, 1409.090
341.354, 1013.576
342.708, 1077.955
344.062, 942.174
345.416, 1206.221
346.769, 830.137
348.123, 1023.938
349.476, 787.631
350.829, 871.299
352.182, 604.824
353.534, 788.246
354.887, 701.527
356.239, 554.896
357.591, 568.244
358.942, 581.580
360.294, 694.910
361.645, 578.229
362.996, 351.535
364.347, 634.828
365.698, 428.105
367.048, 631.367
368.398, 584.613
369.748, 467.834
371.098, 681.053
372.448, 634.240
373.797, 677.301
375.146, 780.322
376.495, 902.023
377.844, 1035.174
379.192, 1088.309
380.540, 1230.873
381.889, 1043.457
383.236, 1176.203
384.584, 997.189
385.932, 694.773
387.279, 676.998
388.626, 565.789
389.973, 495.457
391.319, 378.039
392.666, 365.250
394.012, 267.838
395.358, 180.314
396.704, 212.508
398.049, 172.967
399.394, 283.641
400.740, 266.441
402.084, 352.393
403.429, 560.562
404.774, 463.484
406.118, 608.600
407.462, 601.213
408.806, 327.332
410.150, 657.502
411.493, 436.125
412.836, 558.596
414.179, 300.900
415.522, 225.254
416.865, 164.891
418.207, 100.867
419.549, 161.371
420.891, 34.021
422.233, 6.111
423.575, 81.840
424.916, 141.268
426.257, 260.602
427.598, 247.070
428.939, 85.309
430.279, 52.254
431.619, 29.855
432.959, 162.539
434.299, 75.121
435.639, 277.162
436.978, 209.379
438.318, 38.498
439.657, 483.564
440.996, 55.598
442.334, 117.584
443.673, 139.539
445.011, 81.471
446.349, 36.611
447.687, 105.252
449.024, 77.090
450.361, 198.900
451.699, 370.684
453.036, 282.436
454.372, 214.160
455.709, 336.057
457.045, 387.715
458.381, 540.020
459.717, 521.918
461.053, 813.484
462.388, 756.102
463.724, 867.627
465.059, 1062.574
466.394, 1214.033
467.728, 1605.578
469.063, 1448.752
470.397, 1530.113
471.731, 1431.658
473.065, 1307.090
474.398, 1244.898
475.732, 1067.715
477.065, 948.949
478.398, 902.180
479.731, 893.350
481.063, 1154.488
482.396, 1036.234
483.728, 817.471
485.060, 1798.764
486.391, 1649.992
487.723, 2021.822
489.054, 2663.715
490.385, 3254.680
491.716, 3616.123
493.047, 3787.713
494.377, 3518.609
495.708, 3400.193
497.038, 3361.006
498.368, 3122.549
499.697, 2873.301
501.027, 3214.385
502.356, 3265.324
503.685, 3655.990
505.014, 4217.227
506.342, 4307.838
507.671, 5378.418
508.999, 5718.975
510.327, 6179.502
511.655, 6810.004
512.982, 7250.479
514.310, 7720.930
515.637, 7351.355
516.964, 7231.756
518.291, 6402.131
519.617, 5982.480
520.944, 5542.840
522.270, 4233.535
523.596, 3683.850
524.921, 3254.225
526.247, 2744.486
527.572, 2325.086
528.897, 1866.006
530.222, 1926.191
531.547, 1348.373
532.871, 1478.506
534.196, 1039.896
535.520, 1180.287
536.844, 971.178
538.167, 833.023
539.491, 763.174
540.814, 533.709
542.137, 558.318
543.460, 758.279
544.783, 355.039
546.105, 365.000
547.427, 695.074
548.749, 465.240
550.071, 395.256
551.393, 165.246
552.714, 265.230
554.035, 264.951
555.356, 334.271
556.677, 123.738
557.998, 273.965
559.318, 363.742
560.638, 193.656
561.958, 473.527
563.278, 203.707
564.597, 33.539
565.917, 334.434
567.236, 54.230
568.555, 384.754
569.874, 44.729
571.192, 275.422
572.511, 445.779
573.829, 370.977
575.147, 591.229
576.464, 371.779
577.782, 543.264
579.099, 612.791
580.416, 596.883
581.733, 891.426
583.050, 803.979
584.366, 1057.363
585.683, 1527.711
586.999, 1180.295
588.315, 1779.877
589.630, 1784.164
590.946, 1747.131
592.261, 1916.824
593.576, 1769.584
594.891, 2006.232
596.206, 1355.275
597.520, 1281.229
598.834, 1341.178
600.148, 1209.742
601.462, 978.688
602.776, 717.275
604.089, 656.852
605.402, 912.559
606.715, 680.904
608.028, 600.162
609.341, 338.836
610.653, 448.145
611.965, 407.104
613.277, 265.889
614.589, 434.793
615.901, 153.674
617.212, 243.100
618.523, 541.910
619.834, 149.311
621.145, 426.229
622.456, 25.152
623.766, 323.654
625.076, 292.867
626.386, 1.568
627.696, 410.543
629.006, 268.951
630.315, 487.406
631.624, 156.477
632.933, 4.990
634.242, 443.643
635.551, 1.965
636.859, 400.639
638.167, 429.766
639.475, 177.873
640.783, 300.922
642.090, 278.959
643.398, 287.881
644.705, 137.023
646.012, 114.951
647.318, 498.723
648.625, 216.576
649.931, 174.395
651.237, 332.795
652.543, 160.539
653.849, 469.473
655.155, 157.143
656.460, 404.777
657.765, 252.631
659.070, 280.193
660.375, 397.906
661.679, 195.400
662.984, 422.857
664.288, 560.283
665.592, 447.672
666.895, 605.031
668.199, 642.355
669.502, 579.676
670.805, 516.965
672.108, 474.221
673.411, 941.443
674.713, 448.635
676.016, 795.818
677.318, 541.678
678.620, 258.795
679.921, 486.875
681.223, 323.922
682.524, 440.932
683.825, 258.787
685.126, 175.727
686.427, 382.627
687.727, 10.252
689.028, 447.064
690.328, 54.248
691.628, 270.982
692.927, 148.150
694.227, 15.141
695.526, 311.949
696.825, 224.693
698.124, 188.775
699.423, 417.609
700.721, 222.242
702.020, 393.916
703.318, 334.193
704.616, 310.967
705.913, 477.018
707.211, 451.805
708.508, 688.604
709.805, 504.545
711.102, 620.186
712.399, 516.064
713.695, 121.045
714.992, 676.613
716.288, 292.381
717.584, 457.621
718.879, 273.600
720.175, 378.725
721.470, 93.027
722.765, 378.609
724.060, 174.109
725.355, 299.977
726.649, 124.121
727.944, 202.676
729.238, 41.941
730.532, 164.291
731.825, 49.553
733.119, 384.766
734.412, 270.172
735.705, 44.648
736.998, 58.871
738.291, 356.145
739.584, 28.844
740.876, 136.680
742.168, 231.617
743.460, 126.703
744.752, 511.637
746.043, 73.441
747.334, 151.879
748.626, 416.680
749.916, 69.656
751.207, 535.043
752.498, 119.711
753.788, 185.094
755.078, 269.695
756.368, 244.262
757.658, 638.812
758.947, 53.312
760.237, 167.770
761.526, 422.211
762.815, 86.617
764.104, 371.098
765.392, 265.434
766.680, 340.000
767.969, 304.266
769.257, 468.293
770.544, 473.789
771.832, 197.277
773.119, 341.297
774.406, 365.391
775.693, 71.641
776.980, 342.324
778.267, 262.801
779.553, 156.699
780.839, 270.441
782.125, 192.484
783.411, 336.598
784.697, 300.137
785.982, 143.859
787.267, 267.895
788.552, 131.082
789.837, 292.453
791.122, 193.926
792.406, 77.395
793.690, 360.820
794.974, 46.426
796.258, 536.758
797.542, 89.816
798.825, 32.875
800.108, 605.262
801.391, 62.473
802.674, 600.629
803.957, 313.188
805.239, 155.539
806.522, 658.520
807.804, 20.750
809.085, 453.691
810.367, 395.836
811.649, 238.719
812.930, 1041.203
814.211, 254.066
815.492, 836.859
816.772, 979.258
818.053, 771.992
819.333, 594.695
820.613, 457.375
821.893, 490.020
823.173, 629.328
824.452, 321.918
825.732, 564.480
827.011, 307.430
828.290, 499.941
829.568, 528.266
830.847, 109.277
832.125, 413.070
833.403, 55.031
834.681, 387.320
835.959, 399.496
837.236, 81.727
838.514, 413.562
839.791, 415.027
841.068, 107.168
842.345, 377.266
843.621, 189.352
844.898, 380.133
846.174, 171.859
847.450, 203.043
848.726, 233.215
850.001, 74.965
851.277, 486.383
852.552, 263.617
853.827, 44.555
855.102, 280.418
856.376, 57.824
857.651, 83.797
858.925, 575.293
860.199, 376.945
861.473, 178.598
862.746, 180.230
864.020, 311.832
865.293, 323.422
866.566, 350.652
867.839, 555.590
869.112, 357.172
870.384, 218.492
871.656, 170.035
872.928, 351.242
874.200, 212.746
875.472, 643.176
876.744, 5.355
878.015, 145.367
879.286, 676.602
880.557, 52.910
881.828, 437.855
883.098, 3.730
884.369, 584.289
885.639, 294.281
886.909, 175.578
888.178, 356.539
889.448, 52.262
890.717, 687.074
891.987, 498.352
893.256, 75.047
894.524, 425.422
895.793, 176.188
897.061, 316.496
898.330, 207.684
899.598, 81.621
900.865, 562.055
902.133, 156.730
903.401, 497.102
904.668, 478.207
905.935, 8.359
907.202, 668.762
908.468, 359.512
909.735, 180.145
911.001, 351.176
912.267, 440.934
913.533, 471.211
914.799, 392.203
916.064, 152.125
917.330, 253.094
918.595, 113.742
919.860, 384.688
921.124, 515.473
922.389, 23.609
923.653, 837.289
924.918, 127.590
926.182, 508.465
927.445, 419.328
928.709, 273.336
929.972, 364.227
931.236, 524.875
932.499, 405.070
933.761, 905.734
935.024, 86.078
936.286, 726.938
937.549, 567.707
938.811, 397.820
940.073, 1018.441
941.334, 558.871
942.596, 719.586
943.857, 1039.898
945.118, 659.715
946.379, 1600.512
947.640, 1276.316
948.900, 1617.094
950.161, 1216.941
951.421, 1086.523
952.681, 1437.270
953.940, 982.133
955.200, 602.871
956.459, 1113.598
957.719, 353.699
958.978, 774.414
960.236, 613.895
961.495, 494.598
962.753, 565.297
964.012, 285.754
965.270, 66.457
966.527, 446.965
967.785, 77.652
969.043, 158.324
970.300, 558.980
971.557, 249.617
972.814, 420.238
974.071, 149.176
975.327, 281.375
976.583, 281.922
977.840, 32.438
979.095, 422.949
980.351, 136.543
981.607, 223.941
982.862, 136.715
984.117, 417.191
985.372, 476.668
986.627, 157.148
987.882, 187.625
989.136, 217.223
990.390, 247.703
991.644, 538.188
992.898, 388.605
994.152, 219.102
995.405, 569.188
996.659, 350.344
997.912, 210.379
999.165, 640.551
1000.417, 520.891
1001.670, 895.238
1002.922, 746.000
1004.174, 456.578
1005.426, 863.719
1006.678, 427.828
1007.930, 964.344
1009.181, 924.734
1010.432, 685.410
1011.683, 1201.172
1012.934, 1141.574
1014.185, 1161.992
1015.435, 1653.090
1016.685, 1084.773
1017.935, 1855.473
1019.185, 1607.180
1020.435, 1647.883
1021.684, 2248.934
1022.934, 2039.703
1024.183, 2450.426
1025.432, 2191.188
1026.680, 1491.965
1027.929, 1991.508
1029.177, 1233.723
1030.425, 1474.477
1031.673, 1302.051
1032.921, 773.289
1034.169, 883.164
1035.416, 735.492
1036.663, 466.320
1037.911, 1066.969
1039.157, 290.281
1040.404, 1200.477
1041.650, 1081.387
1042.897, 682.785
1044.143, 1193.191
1045.389, 414.684
1046.634, 825.539
1047.880, 1026.637
1049.125, 622.570
1050.371, 1063.137
1051.615, 1145.871
1052.860, 598.059
1054.105, 1239.156
1055.349, 530.273
1056.593, 1180.664
1057.837, 531.805
1059.081, 672.965
1060.325, 1294.117
1061.568, 955.301
1062.812, 1086.496
1064.055, 1367.707
1065.298, 1148.895
1066.540, 1229.980
1067.783, 1391.133
1069.025, 1282.441
1070.267, 2243.605
1071.509, 1814.648
1072.751, 1994.516
1073.993, 2305.566
1075.234, 1806.441
1076.475, 2467.492
1077.716, 2148.543
1078.957, 1910.570
1080.198, 2341.648
1081.438, 1842.543
1082.679, 1793.609
1083.919, 2134.496
1085.159, 1455.062
1086.398, 2255.688
1087.638, 1906.270
1088.877, 1496.844
1090.116, 1977.398
1091.355, 1197.988
1092.594, 2179.480
1093.833, 1850.027
1095.071, 1270.555
1096.309, 1891.047
1097.547, 1691.539
1098.785, 1472.371
1100.023, 1942.812
1101.260, 1563.199
1102.498, 1984.148
1103.735, 2054.500
1104.972, 1805.184
1106.208, 2655.512
1107.445, 1525.789
1108.681, 1917.738
1109.918, 1668.000
1111.154, 1068.230
1112.389, 1724.324
1113.625, 1054.484
1114.860, 734.352
1116.096, 1214.316
1117.331, 743.148
1118.566, 952.211
1119.800, 940.344
1121.035, 267.582
1122.269, 1142.414
1123.503, 583.961
1124.737, 655.086
1125.971, 760.609
1127.205, 342.215
1128.438, 513.848
1129.671, 735.508
1130.904, 2.809
1132.137, 438.898
1133.370, 250.629
1134.602, 352.383
1135.834, 464.188
1137.066, 386.047
1138.298, 337.949
1139.530, 689.898
1140.762, 61.848
1141.993, 413.801
1143.224, 605.762
1144.455, 77.695
1145.686, 1129.586
1146.917, 301.492
1148.147, 233.426
1149.377, 245.387
1150.607, 187.383
1151.837, 939.422
1153.067, 161.473
1154.296, 46.523
1155.526, 525.445
1156.755, 157.430
1157.984, 759.434
1159.213, 68.629
1160.441, 473.230
1161.670, 605.211
1162.898, 167.203
1164.126, 49.223
1165.354, 721.254
1166.581, 156.699
1167.809, 545.367
1169.036, 177.453
1170.263, 199.555
1171.490, 351.695
1172.717, 253.859
1173.943, 276.043
1175.170, 518.242
1176.396, 0.473
1177.622, 882.738
1178.848, 255.043
1180.073, 187.395
1181.299, 919.773
1182.524, 32.203
1183.749, 344.676
1184.974, 647.203
1186.199, 160.227
1187.423, 862.398
1188.648, 455.074
1189.872, 207.805
1191.096, 410.508
1192.320, 203.293
1193.543, 766.184
1194.767, 309.219
1195.990, 187.543
1197.213, 1205.809
1198.436, 59.273
1199.659, 360.633
1200.881, 624.168
1202.104, 687.762
1203.326, 631.414
1204.548, 603.516
1205.770, 407.250
1206.991, 1199.469
1208.213, 423.234
1209.434, 386.531
1210.655, 1019.551
1211.876, 464.512
1213.096, 937.289
1214.317, 977.250
1215.537, 289.766
1216.757, 1300.609
1217.977, 621.828
1219.197, 342.496
1220.417, 1395.000
1221.636, 597.766
1222.855, 1054.711
1224.074, 1055.301
1225.293, 182.750
1226.512, 1305.270
1227.731, 961.906
1228.949, 321.078
1230.167, 1089.812
1231.385, 539.918
1232.603, 1107.598
1233.820, 738.105
1235.038, 515.215
1236.255, 1091.797
1237.472, 1197.816
1238.689, 123.160
1239.906, 1047.961
1241.122, 712.488
1242.338, 604.172
1243.555, 948.148
1244.771, 221.988
1245.986, 925.160
1247.202, 600.535
1248.417, 162.840
1249.633, 1255.508
1250.848, 222.035
1252.063, 548.645
1253.277, 985.656
1254.492, 61.543
1255.706, 987.879
1256.920, 1149.469
1258.134, 32.078
1259.348, 1088.980
1260.562, 675.902
1261.775, 658.891
1262.988, 264.156
1264.201, 64.594
1265.414, 103.227
1266.627, 0.000
##END=



