##NAMES=Laumontite
##RRUFFID=R040020
##IDEAL CHEMISTRY=Ca(Si_4_Al_2_)O_12_&#183;4H_2_O
##LOCALITY=Pine Creek Tungsten mine, Bishop, Inyo County, California, USA
##OWNER=RRUFF
##SOURCE=University of Arizona Mineral Museum
##DESCRIPTION=Pale gray long prism coated with smaller crystals
##STATUS=The identification of this mineral has been confirmed by X-ray diffraction and chemical analysis
##URL=rruff.info/R040020
##MEASURED CHEMISTRY=(Ca_0.99_K_0.01_)_Σ=1_(Si_4.01_Al_1.99_)O_12_·4H_2_O; H_2_O estimated by difference
##PIN_ID=L00070
##ORIENTATION=Laser parallel to [-1 0 -1]. Fiducial mark perpendicular to laser is parallel to b* (0 1 0)
53.701, 0.000
55.095, 51.486
56.488, 199.873
57.882, 214.462
59.275, 135.718
60.668, 47.651
62.061, 76.943
63.454, 20.604
64.846, 461.535
66.238, 805.861
67.630, 1108.781
69.022, 1143.554
70.413, 862.293
71.805, 672.330
73.196, 637.610
74.587, 690.768
75.978, 1043.818
77.368, 1417.765
78.758, 1832.877
80.149, 2269.056
81.538, 2326.050
82.928, 1823.651
84.318, 1441.705
85.707, 1430.089
87.096, 1058.710
88.485, 947.497
89.873, 356.392
91.262, 14.653
92.650, 265.678
94.038, 96.704
95.426, 232.249
96.813, 571.228
98.201, 1040.875
99.588, 1612.375
100.975, 2056.214
102.362, 2561.710
103.748, 3027.882
105.135, 3283.919
106.521, 3689.508
107.907, 4104.503
109.292, 4768.952
110.678, 4812.912
112.063, 5146.432
113.448, 4949.546
114.833, 5582.283
116.218, 6014.668
117.602, 5856.719
118.987, 5718.457
120.371, 5629.896
121.755, 5371.049
123.138, 4871.928
124.522, 4992.543
125.905, 4832.910
127.288, 4623.034
128.671, 4792.926
130.053, 4402.594
131.436, 4762.053
132.818, 4801.369
134.200, 4740.553
135.582, 4939.564
136.963, 5138.438
138.345, 5357.348
139.726, 5459.639
141.107, 5957.774
142.488, 5958.838
143.868, 6043.988
145.248, 6091.100
146.629, 5978.393
148.008, 5828.914
149.388, 5558.713
150.768, 5417.598
152.147, 5084.107
153.526, 4952.434
154.905, 4725.826
156.284, 4376.352
157.662, 4544.152
159.040, 4169.625
160.418, 4303.515
161.796, 3907.614
163.174, 4171.996
164.551, 4016.572
165.929, 4041.340
167.306, 4256.246
168.683, 4001.197
170.059, 4316.220
171.436, 4111.287
172.812, 4186.364
174.188, 4061.434
175.564, 3866.492
176.939, 3561.537
178.315, 3106.549
179.690, 3011.524
181.065, 2496.465
182.440, 2181.359
183.814, 2006.205
185.188, 1690.991
186.563, 1605.715
187.937, 1280.374
189.310, 1324.972
190.684, 1229.505
192.057, 1143.977
193.430, 1258.389
194.803, 1092.738
196.176, 1587.029
197.549, 1261.263
198.921, 1705.438
200.293, 1589.555
201.665, 1673.615
203.037, 1797.619
204.408, 1691.566
205.779, 1595.460
207.150, 1559.299
208.521, 1453.791
209.892, 1398.428
211.262, 1376.979
212.633, 1271.458
214.003, 1306.811
215.373, 1250.848
216.742, 1134.364
218.112, 1167.695
219.481, 978.041
220.850, 758.523
222.219, 758.969
223.588, 529.300
224.956, 399.435
226.324, 159.364
227.692, 259.093
229.060, 218.382
230.428, 42.494
231.795, 16.354
233.162, 24.364
234.529, 54.876
235.896, 156.042
237.263, 46.850
238.629, 89.366
239.995, 162.785
241.361, 16.149
242.727, 150.225
244.093, 36.393
245.458, 301.445
246.823, 7.190
248.188, 92.878
249.553, 131.480
250.917, 84.064
252.282, 59.557
253.646, 144.996
255.010, 199.719
256.374, 217.056
257.737, 258.183
259.101, 280.545
260.464, 405.676
261.827, 491.125
263.189, 538.629
264.552, 652.305
265.914, 651.377
267.276, 847.672
268.638, 928.062
270.000, 1044.448
271.362, 1078.124
272.723, 1117.384
274.084, 1142.274
275.445, 1088.299
276.806, 1120.705
278.166, 937.171
279.526, 1113.096
280.887, 1110.715
282.246, 1046.591
283.606, 1166.488
284.966, 1131.897
286.325, 1430.028
287.684, 1455.583
289.043, 1531.312
290.402, 1886.600
291.760, 1921.127
293.118, 2196.277
294.477, 2280.962
295.834, 2525.309
297.192, 2840.278
298.550, 3104.157
299.907, 3527.781
301.264, 3841.361
302.621, 4514.896
303.978, 5108.373
305.334, 6141.766
306.690, 7085.018
308.046, 7968.108
309.402, 9150.943
310.758, 9913.567
312.113, 10565.963
313.469, 10758.135
314.824, 10790.220
316.179, 10442.139
317.533, 9583.974
318.888, 8905.743
320.242, 8027.461
321.596, 7669.140
322.950, 7450.789
324.304, 7502.414
325.657, 8054.018
327.010, 8245.599
328.363, 8887.148
329.716, 8708.671
331.069, 8050.168
332.421, 7041.641
333.774, 5753.082
335.126, 4684.494
336.478, 3685.875
337.829, 3237.227
339.181, 2538.550
340.532, 2079.843
341.883, 1871.107
343.234, 1572.340
344.585, 1393.542
345.935, 1484.715
347.285, 1305.857
348.635, 1516.972
349.985, 1238.056
351.335, 1439.109
352.684, 1170.135
354.034, 1141.130
355.383, 992.097
356.731, 713.034
358.080, 773.944
359.429, 504.825
360.777, 545.676
362.125, 326.497
363.473, 417.286
364.820, 328.045
366.168, 238.770
367.515, 389.461
368.862, 350.121
370.209, 440.749
371.556, 311.346
372.902, 461.901
374.249, 572.415
375.595, 552.895
376.940, 923.340
378.286, 923.756
379.632, 1124.146
380.977, 1514.511
382.322, 1714.824
383.667, 1935.083
385.012, 1825.286
386.356, 1884.836
387.700, 1643.779
389.044, 1190.903
390.388, 1138.906
391.732, 776.509
393.075, 546.700
394.419, 380.456
395.762, 271.800
397.105, 371.049
398.447, 213.897
399.790, 303.550
401.132, 370.518
402.474, 322.875
403.816, 494.433
405.158, 447.577
406.499, 867.870
407.841, 785.633
409.182, 938.665
410.523, 1104.219
411.864, 928.555
413.204, 1183.944
414.544, 848.848
415.884, 925.077
417.224, 601.840
418.564, 478.806
419.904, 346.386
421.243, 74.180
422.582, 342.463
423.921, 141.134
425.260, 69.967
426.598, 20.758
427.937, 171.538
429.275, 22.447
430.613, 223.359
431.951, 134.427
433.288, 65.570
434.625, 156.787
435.963, 41.877
437.300, 279.496
438.636, 11.050
439.973, 17.397
441.309, 44.197
442.646, 4.158
443.981, 87.521
445.317, 80.716
446.653, 61.058
447.988, 17.103
449.323, 4.772
450.658, 53.329
451.993, 221.396
453.328, 59.430
454.662, 157.424
455.996, 225.383
457.331, 63.306
458.664, 311.191
459.998, 389.050
461.331, 546.888
462.665, 674.700
463.998, 842.485
465.330, 1120.746
466.663, 1148.486
467.996, 1456.204
469.328, 1693.896
470.660, 1881.597
471.992, 2119.273
473.323, 1796.951
474.655, 1774.608
475.986, 1672.246
477.317, 1729.917
478.648, 1948.051
479.979, 1865.708
481.309, 2393.562
482.640, 2551.535
483.970, 3389.227
485.300, 3757.731
486.629, 4735.520
487.959, 6443.163
489.288, 7940.947
490.617, 10318.561
491.946, 12527.298
493.275, 14314.864
494.603, 14932.411
495.932, 14229.939
497.260, 12807.442
498.588, 10845.404
499.916, 9192.869
501.243, 8220.308
502.571, 7157.726
503.898, 7315.119
505.225, 7102.494
506.552, 7589.845
507.878, 8187.174
509.205, 8724.480
510.531, 10041.765
511.857, 10649.027
513.183, 11906.265
514.508, 12343.483
515.834, 12760.678
517.159, 13177.853
518.484, 12175.001
519.809, 11481.710
521.133, 10288.570
522.458, 9074.501
523.782, 7960.799
525.106, 6596.711
526.430, 5662.235
527.754, 4678.375
529.077, 3974.337
530.400, 3360.666
531.723, 2896.455
533.046, 2722.861
534.369, 1959.713
535.692, 1906.470
537.014, 1713.339
538.336, 1340.303
539.658, 1297.127
540.980, 1104.759
542.301, 1031.541
543.623, 828.303
544.944, 625.471
546.265, 712.192
547.585, 598.896
548.906, 475.592
550.226, 422.274
551.547, 323.062
552.867, 505.645
554.186, 231.639
555.506, 287.226
556.825, 373.293
558.145, 278.816
559.464, 354.775
560.783, 301.097
562.101, 257.337
563.420, 264.256
564.738, 351.350
566.056, 308.338
567.374, 363.783
568.692, 522.929
570.009, 449.978
571.326, 479.901
572.643, 577.791
573.960, 565.745
575.277, 793.841
576.594, 711.699
577.910, 965.332
579.226, 1133.146
580.542, 1208.998
581.858, 1750.330
583.173, 1906.906
584.489, 2347.236
585.804, 2702.055
587.119, 2898.458
588.434, 3674.998
589.748, 3907.914
591.063, 4273.816
592.377, 4546.533
593.691, 4323.724
595.005, 4460.328
596.318, 4030.061
597.632, 3876.682
598.945, 3362.283
600.258, 2898.393
601.571, 2515.312
602.884, 2146.254
604.196, 1958.090
605.508, 1541.373
606.821, 1377.759
608.132, 1367.832
609.444, 964.052
610.756, 980.679
612.067, 806.476
613.378, 652.068
614.689, 607.929
616.000, 503.366
617.311, 620.358
618.621, 268.647
619.931, 485.696
621.241, 572.627
622.551, 129.856
623.861, 558.027
625.170, 295.061
626.479, 442.060
627.788, 455.915
629.097, 302.593
630.406, 374.831
631.714, 311.691
633.023, 378.476
634.331, 427.719
635.639, 154.225
636.946, 426.882
638.254, 245.023
639.561, 211.295
640.868, 348.521
642.175, 95.137
643.482, 261.964
644.789, 300.630
646.095, 256.924
647.401, 394.726
648.707, 20.737
650.013, 516.832
651.319, 1103.436
652.624, 649.375
653.929, 515.698
655.234, 181.397
656.539, 507.353
657.844, 362.998
659.148, 538.618
660.453, 514.425
661.757, 739.994
663.061, 765.536
664.364, 641.053
665.668, 946.544
666.971, 1142.010
668.274, 1067.448
669.577, 1592.862
670.880, 1638.304
672.183, 1773.666
673.485, 2039.003
674.787, 1894.675
676.089, 2299.961
677.391, 1755.224
678.693, 1680.460
679.994, 1536.503
681.296, 1082.139
682.597, 1067.311
683.898, 772.846
685.198, 667.976
686.499, 593.910
687.799, 612.459
689.099, 567.521
690.399, 402.560
691.699, 497.571
692.998, 372.558
694.298, 267.518
695.597, 392.450
696.896, 97.414
698.195, 342.551
699.493, 427.397
700.792, 192.218
702.090, 577.008
703.388, 381.772
704.686, 406.510
705.984, 461.221
707.281, 285.905
708.578, 710.562
709.876, 435.193
711.172, 629.677
712.469, 744.261
713.766, 548.821
715.062, 593.359
716.358, 567.874
717.654, 542.362
718.950, 501.976
720.246, 251.262
721.541, 335.667
722.836, 300.045
724.131, 147.181
725.426, 281.496
726.721, 13.792
728.015, 90.438
729.310, 74.630
730.604, 39.127
731.898, 93.245
733.191, 72.546
734.485, 31.448
735.778, 225.403
737.071, 199.952
738.364, 113.824
739.657, 202.431
740.950, 191.163
742.242, 84.738
743.535, 161.008
744.827, 142.457
746.118, 94.047
747.410, 169.387
748.702, 122.809
749.993, 16.752
751.284, 70.150
752.575, 156.410
753.866, 176.906
755.156, 9.803
756.447, 4.939
757.737, 478.152
759.027, 68.641
760.316, 114.670
761.606, 17.781
762.896, 49.141
764.185, 39.979
765.474, 106.848
766.763, 139.795
768.051, 282.715
769.340, 425.607
770.628, 218.477
771.916, 91.320
773.204, 4.131
774.492, 116.891
775.780, 139.621
777.067, 62.314
778.354, 4.477
779.641, 97.090
780.928, 99.670
782.215, 87.787
783.501, 164.664
784.787, 62.918
786.073, 109.418
787.359, 121.721
788.645, 176.008
789.930, 176.121
791.216, 72.266
792.501, 160.252
793.786, 211.461
795.071, 146.996
796.355, 114.732
797.640, 55.594
798.924, 12.879
800.208, 168.727
801.492, 0.143
802.775, 221.676
804.059, 192.025
805.342, 63.500
806.625, 214.943
807.908, 116.359
809.191, 337.742
810.474, 188.621
811.756, 329.951
813.038, 371.281
814.320, 202.561
815.602, 593.811
816.884, 535.035
818.165, 306.232
819.446, 797.406
820.727, 438.555
822.008, 259.680
823.289, 470.777
824.569, 231.852
825.850, 282.900
827.130, 314.266
828.410, 155.266
829.690, 486.238
830.969, 257.186
832.249, 288.109
833.528, 39.006
834.807, 129.875
836.086, 390.721
837.364, 141.543
838.643, 292.338
839.921, 33.111
841.199, 36.145
842.477, 454.545
843.755, 235.211
845.033, 335.852
846.310, 256.475
847.587, 247.074
848.864, 397.555
850.141, 208.129
851.418, 157.852
852.694, 338.381
853.971, 248.889
855.247, 428.945
856.523, 399.412
857.798, 269.857
859.074, 530.285
860.349, 300.691
861.624, 501.039
862.899, 401.406
864.174, 351.750
865.449, 642.080
866.723, 232.385
867.998, 492.672
869.272, 232.994
870.545, 303.293
871.819, 483.572
873.093, 203.898
874.366, 314.027
875.639, 304.320
876.912, 35.408
878.185, 634.201
879.458, 94.373
880.730, 291.695
882.002, 501.031
883.274, 110.295
884.546, 379.389
885.818, 158.693
887.090, 262.195
888.361, 441.209
889.632, 11.037
890.903, 516.477
892.174, 295.799
893.444, 441.088
894.715, 300.756
895.985, 0.027
897.255, 387.809
898.525, 267.234
899.795, 189.270
901.064, 188.807
902.334, 8.148
903.603, 356.857
904.872, 195.963
906.140, 144.027
907.409, 573.555
908.677, 39.205
909.946, 238.871
911.214, 358.818
912.482, 62.273
913.749, 331.473
915.017, 400.062
916.284, 164.707
917.551, 493.566
918.818, 152.691
920.085, 294.951
921.352, 701.799
922.618, 251.637
923.884, 691.197
925.150, 360.217
926.416, 698.117
927.682, 487.225
928.947, 526.418
930.213, 475.281
931.478, 733.168
932.743, 322.160
934.008, 831.154
935.272, 333.264
936.537, 642.520
937.801, 526.186
939.065, 355.195
940.329, 714.254
941.593, 210.822
942.856, 510.098
944.119, 543.186
945.383, 220.760
946.646, 780.174
947.908, 248.602
949.171, 717.607
950.433, 746.371
951.696, 583.266
952.958, 712.500
954.220, 430.195
955.481, 439.650
956.743, 498.986
958.004, 247.791
959.265, 287.229
960.526, 296.256
961.787, 215.877
963.048, 485.209
964.308, 14.822
965.569, 334.432
966.829, 333.824
968.089, 33.428
969.348, 443.029
970.608, 152.629
971.867, 42.223
973.126, 501.812
974.385, 171.402
975.644, 230.988
976.903, 280.518
978.161, 19.900
979.420, 309.676
980.678, 158.889
981.936, 128.459
983.193, 318.025
984.451, 57.623
985.708, 256.391
986.966, 456.652
988.223, 166.291
989.479, 515.541
990.736, 55.176
991.993, 473.980
993.249, 410.758
994.505, 300.385
995.761, 720.012
997.017, 580.139
998.272, 809.820
999.528, 1053.658
1000.783, 823.334
1002.038, 1302.957
1003.293, 1223.148
1004.548, 1142.830
1005.802, 1592.668
1007.057, 1033.053
1008.311, 1342.730
1009.565, 1203.168
1010.818, 1332.842
1012.072, 1682.512
1013.326, 1562.715
1014.579, 1722.381
1015.832, 1992.762
1017.085, 1892.855
1018.338, 2422.516
1019.590, 2134.625
1020.842, 2484.283
1022.095, 2723.951
1023.347, 2619.877
1024.599, 2969.539
1025.850, 2969.969
1027.102, 2440.195
1028.353, 2807.064
1029.604, 2051.395
1030.855, 2021.475
1032.106, 1881.139
1033.356, 1223.816
1034.607, 1503.145
1035.857, 1253.812
1037.107, 823.742
1038.357, 1083.453
1039.607, 687.646
1040.856, 926.648
1042.106, 956.422
1043.355, 768.445
1044.604, 1068.281
1045.852, 529.154
1047.101, 838.891
1048.350, 898.777
1049.598, 755.010
1050.846, 794.932
1052.094, 637.000
1053.342, 709.908
1054.589, 1109.830
1055.837, 549.752
1057.084, 910.314
1058.331, 850.281
1059.578, 579.832
1060.824, 979.818
1062.071, 999.797
1063.317, 1040.500
1064.563, 1360.502
1065.809, 1000.828
1067.055, 1400.977
1068.301, 1550.998
1069.546, 1151.582
1070.791, 1731.600
1072.036, 1491.611
1073.281, 1771.965
1074.526, 2451.971
1075.771, 1691.975
1077.015, 2221.984
1078.259, 2291.988
1079.503, 2071.992
1080.747, 2261.992
1081.991, 1831.996
1083.234, 2162.006
1084.478, 2122.012
1085.721, 1622.746
1086.964, 2042.791
1088.206, 1762.857
1089.449, 1522.924
1090.691, 1872.984
1091.934, 1723.096
1093.176, 1623.344
1094.418, 1733.475
1095.659, 1663.648
1096.901, 1803.814
1098.142, 1744.020
1099.384, 1454.559
1100.625, 2194.756
1101.865, 1714.955
1103.106, 2325.320
1104.347, 2435.502
1105.587, 1965.686
1106.827, 2597.168
1108.067, 2227.367
1109.307, 2168.131
1110.546, 2348.406
1111.786, 1718.621
1113.025, 1958.842
1114.264, 1839.037
1115.503, 1589.264
1116.742, 1830.104
1117.980, 1580.340
1119.219, 1450.580
1120.457, 1300.816
1121.695, 651.057
1122.933, 901.301
1124.171, 841.545
1125.408, 391.789
1126.645, 692.164
1127.883, 542.051
1129.120, 522.273
1130.356, 692.500
1131.593, 192.723
1132.829, 790.170
1134.066, 480.393
1135.302, 19.383
1136.538, 832.053
1137.773, 242.207
1139.009, 222.271
1140.244, 352.332
1141.480, 22.365
1142.715, 552.406
1143.950, 272.490
1145.184, 52.502
1146.419, 576.266
1147.653, 63.752
1148.887, 496.129
1150.121, 396.998
1151.355, 6.822
1152.589, 777.234
1153.822, 157.010
1155.056, 26.779
1156.289, 746.531
1157.522, 16.281
1158.755, 356.018
1159.987, 295.744
1161.220, 75.463
1162.452, 295.174
1163.684, 34.877
1164.916, 104.570
1166.148, 554.260
1167.379, 186.055
1168.611, 213.568
1169.842, 215.562
1171.073, 244.832
1172.304, 394.703
1173.534, 34.230
1174.765, 83.744
1175.995, 503.248
1177.225, 57.240
1178.455, 22.244
1179.685, 401.709
1180.915, 28.838
1182.144, 310.594
1183.374, 12.070
1184.603, 141.477
1185.832, 540.877
1187.060, 49.191
1188.289, 260.170
1189.518, 429.523
1190.746, 171.137
1191.974, 398.141
1193.202, 17.596
1194.430, 106.643
1195.657, 375.678
1196.884, 74.357
1198.112, 404.621
1199.339, 6.580
1200.566, 27.689
1201.792, 491.043
1203.019, 310.301
1204.245, 108.996
1205.471, 657.670
1206.697, 27.254
1207.923, 365.896
1209.149, 404.521
1210.374, 53.129
1211.600, 541.674
1212.825, 180.201
1214.050, 228.701
1215.275, 637.178
1216.499, 125.629
1217.724, 264.016
1218.948, 502.373
1220.172, 181.379
1221.396, 449.662
1222.620, 337.910
1223.843, 486.131
1225.067, 554.301
1226.290, 312.926
1227.513, 361.039
1228.736, 399.125
1229.959, 288.799
1231.181, 686.809
1232.404, 104.795
1233.626, 486.824
1234.848, 514.752
1236.070, 352.945
1237.291, 370.801
1238.513, 528.637
1239.734, 246.658
1240.955, 874.328
1242.177, 331.965
1243.397, 339.246
1244.618, 826.406
1245.838, 203.406
1247.059, 421.676
1248.279, 528.365
1249.499, 244.584
1250.719, 599.879
1251.938, 620.176
1253.158, 50.457
1254.377, 860.730
1255.596, 161.006
1256.815, 281.275
1258.034, 661.539
1259.253, 401.799
1260.471, 612.055
1261.689, 522.305
1262.907, 162.555
1264.125, 892.801
1265.343, 423.012
1266.561, 401.936
1267.778, 561.980
1268.995, 332.020
1270.212, 611.350
1271.429, 700.789
1272.646, 285.770
1273.862, 675.588
1275.079, 514.463
1276.295, 563.203
1277.511, 682.041
1278.727, 48.199
1279.943, 780.891
1281.158, 359.189
1282.373, 116.994
1283.589, 1132.543
1284.804, 430.820
1286.019, 328.334
1287.233, 851.338
1288.448, 459.357
1289.662, 294.393
1290.876, 1021.566
1292.090, 165.678
1293.304, 583.248
1294.518, 654.629
1295.731, 90.988
1296.944, 580.322
1298.158, 145.633
1299.371, 478.812
1300.583, 876.268
1301.796, 462.949
1303.008, 571.229
1304.221, 638.105
1305.433, 395.619
1306.645, 1202.912
1307.856, 461.096
1309.068, 318.691
1310.280, 1256.836
1311.491, 454.969
1312.702, 503.090
1313.913, 811.182
1315.124, 17.977
1316.334, 975.973
1317.545, 503.961
1318.755, 331.674
1319.965, 979.656
1321.175, 416.996
1322.385, 434.982
1323.594, 1102.674
1324.804, 368.031
1326.013, 514.721
1327.222, 832.318
1328.431, 39.945
1329.639, 576.133
1330.848, 523.518
1332.056, 190.809
1333.265, 1107.986
1334.473, 514.762
1335.680, 391.818
1336.888, 608.795
1338.096, 247.484
1339.303, 565.031
1340.510, 581.205
1341.717, 97.580
1342.924, 833.801
1344.131, 301.459
1345.337, 227.100
1346.544, 800.035
1347.750, 124.137
1348.956, 349.998
1350.162, 675.754
1351.367, 71.408
1352.573, 536.920
1353.778, 382.270
1354.983, 307.432
1356.188, 783.684
1357.393, 298.201
1358.598, 272.484
1359.802, 806.508
1361.007, 300.357
1362.211, 465.020
1363.415, 577.973
1364.619, 88.021
1365.822, 980.121
1367.026, 560.836
1368.229, 334.129
1369.432, 541.871
1370.635, 115.484
1371.838, 416.395
1373.041, 360.307
1374.243, 7.658
1375.446, 270.682
1376.648, 393.994
1377.850, 32.893
1379.052, 710.387
1380.253, 157.521
1381.455, 350.996
1382.656, 904.785
1383.857, 182.908
1385.058, 753.793
1386.259, 855.008
1387.459, 190.469
1388.660, 710.074
1389.860, 421.121
1391.060, 1.443
1392.260, 862.971
1393.460, 33.297
1394.660, 0.000
##END=



