##NAMES=Laumontite
##RRUFFID=R040020
##IDEAL CHEMISTRY=Ca(Si_4_Al_2_)O_12_&#183;4H_2_O
##LOCALITY=Pine Creek Tungsten mine, Bishop, Inyo County, California, USA
##OWNER=RRUFF
##SOURCE=University of Arizona Mineral Museum
##DESCRIPTION=Pale gray long prism coated with smaller crystals
##STATUS=The identification of this mineral has been confirmed by X-ray diffraction and chemical analysis
##URL=rruff.info/R040020
##MEASURED CHEMISTRY=(Ca_0.99_K_0.01_)_Σ=1_(Si_4.01_Al_1.99_)O_12_·4H_2_O; H_2_O estimated by difference
##PIN_ID=L00504
##ORIENTATION=Laser parallel to -c [0 0 -1]. Fiducial mark perpendicular to laser is parallel to b* (0 1 0)
113.448, 0.000
114.833, 114.371
116.218, 465.297
117.602, 294.416
118.987, 702.217
120.371, 759.410
121.755, 1024.584
123.138, 881.070
124.522, 1174.488
125.905, 1521.193
127.288, 1418.340
128.671, 1903.750
130.053, 1736.553
131.436, 1986.881
132.818, 2123.904
134.200, 1986.082
135.582, 2362.158
136.963, 2001.234
138.345, 1982.652
139.726, 1655.922
141.107, 1730.666
142.488, 1516.598
143.868, 1423.484
145.248, 1445.223
146.629, 1193.072
148.008, 1316.650
149.388, 1213.945
150.768, 1482.096
152.147, 1429.393
153.526, 1685.090
154.905, 2019.459
156.284, 1962.688
157.662, 2704.914
159.040, 2706.252
160.418, 3386.795
161.796, 3736.623
163.174, 4205.801
164.551, 4574.391
165.929, 4622.449
167.306, 5580.016
168.683, 5277.137
170.059, 5963.838
171.436, 5750.150
172.812, 5816.105
174.188, 5691.715
175.564, 5021.062
176.939, 4695.232
178.315, 4194.443
179.690, 4137.098
181.065, 3440.830
182.440, 2973.395
183.814, 2791.912
185.188, 2203.664
186.563, 2199.207
187.937, 1716.859
189.310, 1789.961
190.684, 1453.195
192.057, 1216.955
193.430, 1441.250
194.803, 846.666
196.176, 1562.857
197.549, 1209.141
198.921, 1345.701
200.293, 1352.488
201.665, 1449.459
203.037, 1876.633
204.408, 1513.900
205.779, 1881.281
207.150, 2078.764
208.521, 2576.328
209.892, 3163.975
211.262, 3531.693
212.633, 4849.480
214.003, 5347.334
215.373, 5935.238
216.742, 5903.188
218.112, 5981.172
219.481, 5399.186
220.850, 4237.225
222.219, 3765.279
223.588, 2623.346
224.956, 2081.426
226.324, 1489.506
227.692, 967.578
229.060, 855.625
230.428, 283.633
231.795, 421.578
233.162, 99.457
234.529, 47.266
235.896, 74.992
237.263, 347.320
238.629, 0.283
239.995, 322.178
241.361, 84.707
242.727, 427.305
244.093, 229.965
245.458, 272.693
246.823, 395.488
248.188, 118.348
249.553, 401.273
250.917, 194.268
252.282, 197.320
253.646, 180.443
255.010, 213.629
256.374, 194.494
257.737, 40.244
259.101, 173.406
260.464, 4.791
261.827, 31.895
263.189, 142.973
264.552, 165.428
265.914, 59.969
267.276, 308.223
268.638, 112.008
270.000, 344.953
271.362, 509.645
272.723, 480.316
274.084, 830.477
275.445, 704.043
276.806, 1321.094
278.166, 844.812
279.526, 1211.090
280.887, 1461.182
282.246, 1421.004
283.606, 1958.596
284.966, 1798.137
286.325, 2093.707
287.684, 2364.801
289.043, 2104.721
290.402, 3010.639
291.760, 2879.766
293.118, 3409.771
294.477, 3549.873
295.834, 3849.414
297.192, 4601.387
298.550, 4811.041
299.907, 5650.723
301.264, 6570.412
302.621, 7780.105
303.978, 9129.785
305.334, 10319.453
306.690, 12519.096
308.046, 13818.711
309.402, 15298.277
310.758, 16717.762
312.113, 17407.141
313.469, 17246.395
314.824, 16475.521
316.179, 15844.527
317.533, 14003.410
318.888, 12822.186
320.242, 11550.852
321.596, 11109.420
322.950, 11467.887
324.304, 11946.258
325.657, 13594.539
327.010, 14592.729
328.363, 15980.834
329.716, 16028.852
331.069, 14216.785
332.421, 12704.641
333.774, 10102.414
335.126, 8350.109
336.478, 6777.727
337.829, 5535.266
339.181, 4532.443
340.532, 3689.324
341.883, 3455.801
343.234, 2621.896
344.585, 2467.615
345.935, 2132.914
347.285, 1617.941
348.635, 1992.678
349.985, 1477.240
351.335, 1681.750
352.684, 1316.143
354.034, 1310.516
355.383, 1314.859
356.731, 989.176
358.080, 1273.459
359.429, 947.705
360.777, 1131.918
362.125, 1116.088
363.473, 1120.219
364.820, 1254.311
366.168, 1168.359
367.515, 1422.365
368.862, 1526.328
370.209, 1490.246
371.556, 1874.119
372.902, 2177.947
374.249, 2721.727
375.595, 2945.465
376.940, 3929.152
378.286, 4762.795
379.632, 5706.395
380.977, 7349.941
382.322, 8273.445
383.667, 9306.902
385.012, 9320.312
386.356, 8583.727
387.700, 7317.092
389.044, 5430.406
390.388, 4413.674
391.732, 3136.889
393.075, 2490.057
394.419, 1753.176
395.762, 1316.664
397.105, 1319.684
398.447, 578.291
399.790, 841.885
401.132, 743.764
402.474, 448.293
403.816, 496.117
405.158, 273.326
406.499, 662.748
407.841, 319.334
409.182, 528.264
410.523, 623.656
411.864, 151.707
413.204, 492.562
414.544, 443.102
415.884, 484.521
417.224, 243.746
418.564, 124.025
419.904, 252.822
421.243, 165.854
422.582, 214.457
423.921, 3.773
425.260, 40.961
426.598, 220.883
427.937, 287.311
429.275, 194.336
430.613, 244.080
431.951, 102.664
433.288, 78.648
434.625, 310.209
435.963, 50.631
437.300, 358.650
438.636, 101.766
439.973, 102.182
441.309, 127.455
442.646, 72.740
443.981, 57.057
445.317, 143.010
446.653, 6.986
447.988, 112.898
449.323, 202.705
450.658, 2.453
451.993, 492.082
453.328, 281.654
454.662, 291.164
455.996, 700.609
457.331, 129.998
458.664, 789.305
459.998, 718.551
461.331, 997.738
462.665, 1116.867
463.998, 1275.936
465.330, 1696.043
466.663, 1624.996
467.996, 2113.887
469.328, 2582.721
470.660, 2671.500
471.992, 3190.217
473.323, 2728.879
474.655, 2647.488
475.986, 2586.039
477.317, 2694.635
478.648, 3173.658
479.979, 3082.199
481.309, 3920.756
482.640, 3979.258
483.970, 5417.811
485.300, 6446.924
486.629, 7415.365
487.959, 10703.762
489.288, 12332.109
490.617, 16450.396
491.946, 20308.635
493.275, 22506.818
494.603, 23874.955
495.932, 22023.041
497.260, 19181.070
498.588, 15939.043
499.916, 13156.971
501.243, 11774.885
502.571, 10092.748
503.898, 10280.568
505.225, 10058.344
506.552, 10296.070
507.878, 11663.766
509.205, 12001.418
510.531, 13569.029
511.857, 14326.607
513.183, 16004.145
514.508, 16611.637
515.834, 16849.100
517.159, 17406.516
518.484, 16063.945
519.809, 14781.332
521.133, 13678.684
522.458, 11465.992
523.782, 10113.268
525.106, 8200.502
526.430, 7297.695
527.754, 6294.855
529.077, 5111.977
530.400, 4679.055
531.723, 3836.096
533.046, 3723.102
534.369, 2830.062
535.692, 2546.988
537.014, 2413.871
538.336, 1841.332
539.658, 1868.146
540.980, 1665.652
542.301, 1402.975
543.623, 1489.666
544.944, 1138.713
546.265, 1245.328
547.585, 891.902
548.906, 788.590
550.226, 1105.088
551.547, 691.613
552.867, 978.035
554.186, 334.418
555.506, 570.762
556.825, 777.064
558.145, 263.275
559.464, 789.605
560.783, 335.908
562.101, 401.752
563.420, 547.791
564.738, 662.086
566.056, 508.510
567.374, 373.926
568.692, 510.639
570.009, 497.164
571.326, 490.408
572.643, 707.023
573.960, 523.598
575.277, 940.873
576.594, 656.854
577.910, 730.943
579.226, 1177.096
580.542, 1005.777
581.858, 1563.076
583.173, 1691.918
584.489, 1879.664
585.804, 2565.490
587.119, 2456.740
588.434, 3336.836
589.748, 3300.713
591.063, 3631.463
592.377, 4114.201
593.691, 3263.820
595.005, 3829.697
596.318, 3426.229
597.632, 3299.430
598.945, 2892.996
600.258, 2244.377
601.571, 2336.580
602.884, 1751.967
604.196, 1597.430
605.508, 1476.002
606.821, 929.463
608.132, 1465.674
609.444, 754.760
610.756, 1010.822
612.067, 906.160
613.378, 521.508
614.689, 837.771
616.000, 571.375
617.311, 877.316
618.621, 433.232
619.931, 489.127
621.241, 944.996
622.551, 30.842
623.861, 997.613
625.170, 583.926
626.479, 689.693
627.788, 886.613
629.097, 682.391
630.406, 818.965
631.714, 775.889
633.023, 601.559
634.331, 671.289
635.639, 186.918
636.946, 706.139
638.254, 508.900
639.561, 584.477
640.868, 904.865
642.175, 200.391
643.482, 715.885
644.789, 874.346
646.095, 609.791
647.401, 1115.801
648.707, 431.195
650.013, 1186.875
651.319, 1013.184
652.624, 798.504
653.929, 1214.736
655.234, 670.008
656.539, 1185.254
657.844, 978.648
659.148, 1203.846
660.453, 1350.059
661.757, 1335.207
663.061, 1490.334
664.364, 1576.562
665.668, 1801.643
666.971, 2357.352
668.274, 2313.109
669.577, 2888.139
670.880, 3413.783
672.183, 3328.764
673.485, 3973.727
674.787, 3260.314
676.089, 3935.230
677.391, 3380.361
678.693, 2885.229
679.994, 2880.707
681.296, 1775.898
682.597, 1710.695
683.898, 1276.236
685.198, 1020.986
686.499, 1116.164
687.799, 741.047
689.099, 875.729
690.399, 390.389
691.699, 485.027
692.998, 479.641
694.298, 194.234
695.597, 338.799
696.896, 163.344
698.195, 197.857
699.493, 522.350
700.792, 163.184
702.090, 761.152
703.388, 365.469
704.686, 300.039
705.984, 874.311
707.281, 318.564
708.578, 1042.795
709.876, 857.004
711.172, 890.771
712.469, 1414.943
713.766, 1269.092
715.062, 1362.518
716.358, 956.629
717.654, 960.328
718.950, 1034.289
720.246, 568.377
721.541, 902.424
722.836, 616.455
724.131, 281.176
725.426, 655.170
726.721, 339.666
728.015, 323.691
729.310, 377.637
730.604, 172.479
731.898, 256.381
733.191, 260.266
734.485, 254.139
735.778, 627.994
737.071, 156.941
738.364, 446.854
739.657, 90.662
740.950, 274.488
742.242, 348.299
743.535, 207.805
744.827, 675.949
746.118, 100.219
747.410, 443.580
748.702, 317.379
749.993, 198.729
751.284, 505.043
752.575, 131.078
753.866, 233.061
755.156, 216.840
756.447, 289.340
757.737, 564.311
759.027, 7.988
760.316, 291.645
761.606, 285.316
762.896, 8.979
764.185, 792.615
765.474, 436.264
766.763, 349.895
768.051, 783.510
769.340, 237.111
770.628, 731.055
771.916, 604.627
773.204, 408.180
774.492, 651.717
775.780, 395.236
777.067, 528.734
778.354, 71.113
779.641, 174.568
780.928, 308.004
782.215, 21.422
783.501, 284.811
784.787, 88.180
786.073, 11.525
787.359, 468.662
788.645, 358.041
789.930, 495.885
791.216, 191.545
792.501, 248.627
793.786, 708.354
795.071, 368.912
796.355, 443.590
797.640, 465.453
798.924, 22.074
800.208, 330.348
801.492, 152.750
802.775, 405.133
804.059, 217.496
805.342, 59.844
806.625, 402.164
807.908, 64.473
809.191, 326.750
810.474, 329.016
811.756, 108.742
813.038, 293.418
814.320, 35.559
815.602, 297.676
816.884, 419.777
818.165, 11.863
819.446, 703.922
820.727, 130.637
822.008, 112.660
823.289, 374.656
824.569, 126.645
825.850, 428.605
827.130, 560.938
828.410, 167.129
829.690, 774.684
830.969, 216.484
832.249, 348.270
833.528, 120.039
834.807, 181.785
836.086, 433.535
837.364, 85.270
838.643, 476.984
839.921, 158.684
841.199, 223.312
842.477, 902.031
843.755, 323.688
845.033, 415.328
846.310, 656.965
847.587, 488.594
848.864, 689.594
850.141, 571.191
851.418, 332.047
852.694, 793.098
853.971, 524.723
855.247, 703.941
856.523, 775.547
857.798, 177.141
859.074, 1048.578
860.349, 480.156
861.624, 901.656
862.899, 1073.215
864.174, 644.766
865.449, 1226.305
866.723, 457.875
867.998, 769.441
869.272, 631.195
870.545, 492.938
871.819, 804.672
873.093, 226.480
874.366, 478.277
875.639, 780.059
876.912, 11.852
878.185, 1133.441
879.458, 105.215
880.730, 217.020
882.002, 1058.820
883.274, 10.676
884.546, 681.891
885.818, 263.449
887.090, 465.023
888.361, 866.562
889.632, 1.625
890.903, 998.496
892.174, 750.277
893.444, 361.184
894.715, 912.848
895.985, 354.672
897.255, 601.676
898.525, 893.484
899.795, 297.246
901.064, 569.039
902.334, 380.816
903.603, 798.391
904.872, 690.152
906.140, 91.969
907.409, 1023.395
908.677, 224.742
909.946, 396.621
911.214, 608.336
912.482, 198.645
913.749, 480.312
915.017, 821.949
916.284, 322.293
917.551, 653.996
918.818, 355.695
920.085, 517.383
921.352, 839.062
922.618, 70.453
923.884, 1142.109
925.150, 413.758
926.416, 555.398
927.682, 677.027
928.947, 618.648
930.213, 630.262
931.478, 1070.914
932.743, 361.988
934.008, 1163.582
935.272, 283.988
936.537, 1055.508
937.801, 616.195
939.065, 93.492
940.329, 1278.020
941.593, 14.559
942.856, 956.934
944.119, 894.805
945.383, 120.902
946.646, 960.535
947.908, 467.125
949.171, 398.555
950.433, 729.980
951.696, 348.410
952.958, 609.836
954.220, 530.660
955.481, 342.082
956.743, 933.180
958.004, 153.629
959.265, 465.039
960.526, 635.512
961.787, 256.922
963.048, 788.328
964.308, 361.559
965.569, 502.957
966.829, 533.316
968.089, 124.719
969.348, 756.117
970.608, 716.387
971.867, 142.215
973.126, 1398.500
974.385, 389.148
975.644, 370.504
976.903, 771.230
978.161, 2.578
979.420, 563.922
980.678, 333.641
981.936, 194.977
983.193, 886.445
984.451, 177.781
985.708, 168.480
986.966, 822.879
988.223, 124.297
989.479, 944.941
990.736, 116.445
991.993, 417.410
993.249, 709.070
994.505, 140.480
995.761, 1021.891
997.017, 645.285
998.272, 466.781
999.528, 1229.742
1000.783, 441.234
1002.038, 1352.727
1003.293, 1767.984
1004.548, 1159.477
1005.802, 1930.961
1007.057, 743.625
1008.311, 915.152
1009.565, 687.621
1010.818, 639.285
1012.072, 1160.809
1013.326, 813.816
1014.579, 725.340
1015.832, 1247.512
1017.085, 418.676
1018.338, 1500.176
1019.590, 779.090
1020.842, 1010.762
1022.095, 1162.242
1023.347, 732.438
1024.599, 1123.871
1025.850, 1445.668
1027.102, 610.191
1028.353, 1430.719
1029.604, 754.992
1030.855, 897.504
1032.106, 1318.867
1033.356, 645.816
1034.607, 1446.305
1035.857, 1307.695
1037.107, 450.059
1038.357, 1511.438
1039.607, 1026.086
1040.856, 1136.453
1042.106, 1547.848
1043.355, 986.156
1044.604, 1567.531
1045.852, 1048.887
1047.101, 970.609
1048.350, 1122.004
1049.598, 994.422
1050.846, 985.840
1052.094, 1237.250
1053.342, 1099.016
1054.589, 1710.453
1055.837, 591.879
1057.084, 1164.293
1058.331, 1345.730
1059.578, 767.375
1060.824, 1278.867
1062.071, 1640.352
1063.317, 1408.367
1064.563, 1699.828
1065.809, 1461.270
1067.055, 1722.707
1068.301, 2244.129
1069.546, 1235.527
1070.791, 2346.914
1072.036, 2048.277
1073.281, 1999.266
1074.526, 3000.598
1075.771, 1801.910
1077.015, 2523.207
1078.259, 2814.484
1079.503, 1905.742
1080.747, 2696.984
1081.991, 1948.207
1083.234, 1939.426
1084.478, 2490.613
1085.721, 1371.809
1086.964, 2283.004
1088.206, 1844.199
1089.449, 1521.586
1090.691, 2162.789
1091.934, 1993.250
1093.176, 1614.559
1094.418, 2095.930
1095.659, 1393.152
1096.901, 1914.594
1098.142, 1616.145
1099.384, 1037.699
1100.625, 2429.254
1101.865, 1030.824
1103.106, 1752.395
1104.347, 2323.965
1105.587, 995.539
1106.827, 2347.379
1108.067, 1768.957
1109.307, 1300.535
1110.546, 2032.102
1111.786, 1433.664
1113.025, 1855.227
1114.264, 1466.820
1115.503, 668.402
1116.742, 1839.980
1117.980, 861.559
1119.219, 523.055
1120.457, 1854.816
1121.695, 641.629
1122.933, 1143.105
1124.171, 1214.582
1125.408, 345.988
1126.645, 1297.109
1127.883, 787.840
1129.120, 348.836
1130.356, 1279.848
1131.593, 270.836
1132.829, 1102.867
1134.066, 1083.656
1135.302, 15.566
1136.538, 1636.641
1137.773, 667.352
1139.009, 367.941
1140.244, 1020.152
1141.480, 290.699
1142.715, 891.230
1143.950, 942.844
1145.184, 33.332
1146.419, 936.293
1147.653, 106.738
1148.887, 847.109
1150.121, 927.742
1151.355, 151.918
1152.589, 1458.348
1153.822, 468.590
1155.056, 158.824
1156.289, 1369.027
1157.522, 149.211
1158.755, 399.379
1159.987, 901.574
1161.220, 121.703
1162.452, 531.801
1163.684, 282.145
1164.916, 77.797
1166.148, 1172.195
1167.379, 677.836
1168.611, 401.910
1169.842, 711.754
1171.073, 218.555
1172.304, 951.031
1173.534, 370.586
1174.765, 40.113
1175.995, 1209.598
1177.225, 49.051
1178.455, 101.531
1179.685, 977.809
1180.915, 162.883
1182.144, 616.352
1183.374, 526.047
1184.603, 224.945
1185.832, 1323.816
1187.060, 43.207
1188.289, 421.977
1189.518, 1060.402
1190.746, 181.203
1191.974, 1027.078
1193.202, 815.324
1194.430, 373.535
1195.657, 951.707
1196.884, 223.617
1198.112, 531.660
1199.339, 519.660
1200.566, 377.613
1201.792, 1265.520
1203.019, 893.367
1204.245, 181.168
1205.471, 1618.910
1206.697, 417.059
1207.923, 874.664
1209.149, 1082.223
1210.374, 10.219
1211.600, 1057.199
1212.825, 624.586
1214.050, 592.816
1215.275, 1399.977
1216.499, 567.090
1217.724, 1014.160
1218.948, 1031.184
1220.172, 608.453
1221.396, 1025.359
1222.620, 1082.223
1223.843, 899.102
1225.067, 1405.820
1226.290, 952.781
1227.513, 879.395
1228.736, 1075.965
1229.959, 923.945
1231.181, 1298.840
1232.404, 639.988
1233.626, 771.137
1234.848, 832.316
1236.070, 1173.496
1237.291, 744.688
1238.513, 1225.891
1239.734, 547.082
1240.955, 1348.262
1242.177, 899.430
1243.397, 690.578
1244.618, 1971.715
1245.838, 582.844
1247.059, 853.953
1248.279, 1465.051
1249.499, 596.129
1250.719, 1077.246
1251.938, 1488.320
1253.158, 449.418
1254.377, 1880.473
1255.596, 761.109
1256.815, 738.004
1258.034, 1758.809
1259.253, 909.496
1260.471, 1339.742
1261.689, 1307.992
1262.907, 606.609
1264.125, 1937.066
1265.343, 1509.543
1266.561, 458.301
1267.778, 1556.910
1268.995, 1036.906
1270.212, 1305.039
1271.429, 1750.918
1272.646, 894.613
1273.862, 1403.531
1275.079, 1035.898
1276.295, 669.770
1277.511, 1504.336
1278.727, 185.742
1279.943, 1140.785
1281.158, 1057.359
1282.373, 259.680
1283.589, 1647.980
1284.804, 1069.082
1286.019, 95.988
1287.233, 1481.785
1288.448, 779.156
1289.662, 155.871
1290.876, 1690.961
1292.090, 282.152
1293.304, 865.066
1294.518, 1330.680
1295.731, 317.672
1296.944, 1014.645
1298.158, 451.594
1299.371, 818.527
1300.583, 1365.445
1301.796, 822.348
1303.008, 659.242
1304.221, 1116.121
1305.433, 72.883
1306.645, 1529.484
1307.856, 815.895
1309.068, 322.125
1310.280, 2098.156
1311.491, 823.977
1312.702, 569.574
1313.913, 1604.938
1315.124, 349.430
1316.334, 1714.277
1317.545, 1248.953
1318.755, 403.359
1319.965, 1657.555
1321.175, 1401.672
1322.385, 495.027
1323.594, 1908.836
1324.804, 793.477
1326.013, 869.016
1327.222, 2014.887
1328.431, 247.996
1329.639, 1118.066
1330.848, 1263.395
1332.056, 173.602
1333.265, 1895.238
1334.473, 872.484
1335.680, 565.359
1336.888, 1367.121
1338.096, 379.559
1339.303, 1061.672
1340.510, 1313.422
1341.717, 43.797
1342.924, 1185.727
1344.131, 755.875
1345.337, 215.562
1346.544, 1624.164
1347.750, 282.848
1348.956, 260.988
1350.162, 1468.562
1351.367, 65.383
1352.573, 788.258
1353.778, 716.551
1354.983, 140.555
1356.188, 1312.113
1357.393, 693.496
1358.598, 5.336
1359.802, 1622.613
1361.007, 431.805
1362.211, 590.891
1363.415, 1399.980
1364.619, 43.672
1365.822, 1432.031
1367.026, 1290.934
1368.229, 85.105
1369.432, 715.535
1370.635, 48.059
1371.838, 457.578
1373.041, 765.863
1374.243, 1.969
1375.446, 0.000
##END=



