##NAMES=Laumontite
##RRUFFID=R040020
##IDEAL CHEMISTRY=Ca(Si_4_Al_2_)O_12_&#183;4H_2_O
##LOCALITY=Pine Creek Tungsten mine, Bishop, Inyo County, California, USA
##OWNER=RRUFF
##SOURCE=University of Arizona Mineral Museum
##DESCRIPTION=Pale gray long prism coated with smaller crystals
##STATUS=The identification of this mineral has been confirmed by X-ray diffraction and chemical analysis
##URL=rruff.info/R040020
##MEASURED CHEMISTRY=(Ca_0.99_K_0.01_)_Σ=1_(Si_4.01_Al_1.99_)O_12_·4H_2_O; H_2_O estimated by difference
##PIN_ID=L00252
##ORIENTATION=Laser parallel to a [1 0 0]. Fiducial mark perpendicular to laser is parallel to b* (0 1 0)
130.0530, 0.0000000E+00
131.4360, 179.8770
132.8180, 440.4961
134.2000, 1341.559
135.5820, 2366.607
136.9630, 3977.854
138.3450, 5126.895
139.7260, 6521.150
141.1070, 8089.262
142.4880, 8755.590
143.8680, 9568.035
145.2480, 9299.117
146.6290, 8895.787
148.0080, 7949.207
149.3880, 7022.863
150.7680, 6046.355
152.1470, 4583.762
153.5260, 4023.830
154.9050, 3072.490
156.2840, 2475.680
157.6620, 2365.850
159.0400, 2111.828
160.4180, 2274.432
161.7960, 2114.318
163.1740, 2520.416
164.5510, 2653.963
165.9290, 3028.045
167.3060, 3417.079
168.6830, 3627.756
170.0590, 4012.488
171.4360, 3931.162
172.8120, 4485.178
174.1880, 4194.481
175.5640, 3975.093
176.9390, 3584.695
178.3150, 3322.075
179.6900, 3098.650
181.0650, 2430.580
182.4400, 2268.225
183.8140, 1804.721
185.1880, 1556.610
186.5630, 1433.114
187.9370, 1217.004
189.3100, 1081.084
190.6840, 876.1914
192.0570, 1023.043
193.4300, 894.9238
194.8030, 648.4238
196.1760, 851.4170
197.5490, 812.0264
198.9210, 902.8281
200.2930, 760.6309
201.6650, 913.4854
203.0370, 794.6455
204.4080, 763.8408
205.7790, 677.6396
207.1500, 606.2969
208.5210, 449.7109
209.8920, 364.0889
211.2620, 236.1025
212.6330, 149.3877
214.0030, 43.90918
215.3730, 50.28320
216.7420, 34.78613
218.1120, 220.9297
219.4810, 198.6201
220.8500, 85.48633
222.2190, 144.3643
223.5880, 342.4717
224.9560, 199.9033
226.3240, 236.7520
227.6920, 343.1143
229.0600, 279.0869
230.4280, 234.7539
231.7950, 310.1846
233.1620, 235.4453
234.5290, 270.6045
235.8960, 365.7236
237.2630, 370.8770
238.6290, 336.1328
239.9950, 461.5645
241.3610, 257.2881
242.7270, 263.3945
244.0930, 129.9277
245.4580, 216.9258
246.8230, 204.3594
248.1880, 142.2129
249.5530, 120.4746
250.9170, 49.15332
252.2820, 58.28320
253.6460, 102.0713
255.0100, 8.232422
256.3740, 130.8438
257.7370, 199.3936
259.1010, 347.0879
260.4640, 463.8730
261.8270, 409.7139
263.1890, 434.8613
264.5520, 439.0039
265.9140, 612.2471
267.2760, 684.5781
268.6380, 616.1104
270.0000, 817.0254
271.3620, 787.3398
272.7230, 997.1738
274.0840, 896.6533
275.4450, 915.8691
276.8060, 1025.828
278.1660, 857.6729
279.5260, 1243.098
280.8870, 1130.055
282.2460, 1381.243
283.6060, 1517.750
284.9660, 1723.690
286.3250, 1906.325
287.6840, 2047.943
289.0430, 2368.035
290.4020, 2667.443
291.7600, 3136.725
293.1180, 3464.973
294.4770, 3844.004
295.8340, 4696.582
297.1920, 5120.742
298.5500, 6085.605
299.9070, 6960.660
301.2640, 7935.584
302.6210, 9420.140
303.9780, 10724.16
305.3340, 12587.53
306.6900, 14550.16
308.0460, 16081.95
309.4020, 18162.84
310.7580, 19362.75
312.1130, 20691.63
313.4690, 20299.50
314.8240, 20526.33
316.1790, 19532.11
317.5330, 18576.84
318.8880, 18050.45
320.2420, 17392.94
321.5960, 18224.23
322.9500, 18944.21
324.3040, 21292.80
325.6570, 23320.06
327.0100, 24706.01
328.3630, 24751.40
329.7160, 24804.47
331.0690, 22717.13
332.4210, 19318.79
333.7740, 16059.45
335.1260, 13109.02
336.4780, 10467.31
337.8290, 8994.594
339.1810, 7390.834
340.5320, 6375.602
341.8830, 5689.031
343.2340, 4951.047
344.5850, 4691.797
345.9350, 4501.383
347.2850, 4209.424
348.6350, 4174.355
349.9850, 3897.218
351.3350, 3937.954
352.6840, 3356.970
354.0340, 3283.258
355.3830, 2900.188
356.7310, 2685.617
358.0800, 2618.670
359.4290, 2443.527
360.7770, 2387.995
362.1250, 2063.221
363.4730, 2297.264
364.8200, 2162.615
366.1680, 2107.005
367.5150, 2241.182
368.8620, 2124.699
370.2090, 2187.705
371.5560, 2219.020
372.9020, 2489.336
374.2490, 2637.484
375.5950, 2643.450
376.9400, 3195.154
378.2860, 3161.423
379.6320, 3783.225
380.9770, 3792.051
382.3220, 4040.561
383.6670, 3995.650
385.0120, 3467.257
386.3560, 3166.627
387.7000, 2465.127
389.0440, 2041.481
390.3880, 1781.318
391.7320, 1395.323
393.0750, 1342.246
394.4190, 1094.570
395.7620, 1311.709
397.1050, 1186.760
398.4470, 1215.959
399.7900, 1474.947
401.1320, 1526.229
402.4740, 1789.752
403.8160, 2116.212
405.1580, 2462.404
406.4990, 3017.097
407.8410, 3026.453
409.1820, 3476.728
410.5230, 3391.035
411.8640, 3286.839
413.2040, 3027.270
414.5440, 2307.295
415.8840, 2205.945
417.2240, 1279.426
418.5640, 1148.965
419.9040, 669.6699
421.2430, 392.1025
422.5820, 385.5830
423.9210, 128.7354
425.2600, 22.18848
426.5980, 84.22461
427.9370, 139.1348
429.2750, 13.70215
430.6130, 248.4990
431.9510, 62.42188
433.2880, 86.40625
434.6250, 99.44922
435.9630, 2.845703
437.3000, 146.0869
438.6360, 28.80469
439.9730, 37.87598
441.3090, 76.21289
442.6460, 44.15723
443.9810, 173.2012
445.3170, 262.8584
446.6530, 143.4746
447.9880, 444.1289
449.3230, 164.8574
450.6580, 485.6035
451.9930, 626.3711
453.3280, 687.1826
454.6620, 818.0371
455.9960, 1078.769
457.3310, 1009.366
458.6640, 1369.821
459.9980, 1650.129
461.3310, 2120.277
462.6650, 2320.297
463.9980, 3130.156
465.3300, 3519.891
466.6630, 4219.506
467.9960, 4728.960
469.3280, 5098.280
470.6600, 5477.449
471.9920, 5206.480
473.3230, 4825.414
474.6550, 4104.217
475.9860, 3652.885
477.3170, 3471.418
478.6480, 3239.822
479.9790, 3228.168
481.3090, 3646.441
482.6400, 3764.605
483.9700, 4892.729
485.3000, 5530.750
486.6290, 7218.695
487.9590, 9346.549
489.2880, 11454.32
490.6170, 14532.02
491.9460, 17109.63
493.2750, 19077.18
494.6030, 18904.65
495.9320, 18002.05
497.2600, 16189.39
498.5880, 14096.68
499.9160, 13263.91
501.2430, 12551.10
502.5710, 12818.25
503.8980, 14055.36
505.2250, 15072.43
506.5520, 17519.49
507.8780, 19546.53
509.2050, 22963.56
510.5310, 25730.60
511.8570, 28247.65
513.1830, 31594.73
514.5080, 32171.84
515.8340, 33108.98
517.1590, 32526.14
518.4840, 29953.36
519.8090, 27560.61
521.1330, 23967.92
522.4580, 20945.26
523.7820, 17482.64
525.1060, 14690.06
526.4300, 12597.52
527.7540, 10345.03
529.0770, 8872.449
530.4000, 7610.199
531.7230, 6497.895
533.0460, 5695.645
534.3690, 4683.465
535.6920, 4361.363
537.0140, 3549.637
538.3360, 3117.756
539.6580, 2875.972
540.9800, 2414.252
542.3010, 2212.600
543.6230, 1781.072
544.9440, 1769.684
546.2650, 1498.488
547.5850, 1217.443
548.9060, 1276.562
550.2260, 1055.869
551.5470, 935.3467
552.8670, 924.9824
554.1860, 594.6572
555.5060, 714.6289
556.8250, 534.7676
558.1450, 535.0967
559.4640, 665.6191
560.7830, 576.3223
562.1010, 607.2422
563.4200, 408.3203
564.7380, 679.5605
566.0560, 460.9258
567.3740, 622.6064
568.6920, 894.3047
570.0090, 606.2539
571.3260, 1000.739
572.6430, 1028.918
573.9600, 1274.992
575.2770, 1607.951
576.5940, 1635.812
577.9100, 2176.926
579.2260, 2470.611
580.5420, 2973.937
581.8580, 3768.529
583.1730, 4572.812
584.4890, 5567.758
585.8040, 6357.289
587.1190, 7565.391
588.4340, 8725.958
589.7480, 9400.476
591.0630, 10520.85
592.3770, 10530.20
593.6910, 10590.36
595.0050, 10331.83
596.3180, 9370.880
597.6320, 8671.548
598.9450, 7183.469
600.2580, 6376.887
601.5710, 5371.342
602.8840, 4525.717
604.1960, 3982.463
605.5080, 3255.220
606.8210, 2852.773
608.1320, 2665.355
609.4440, 2108.796
610.7560, 2076.658
612.0670, 1503.400
613.3780, 1520.170
614.6890, 1258.730
616.0000, 1166.796
617.3110, 1205.447
618.6210, 791.2725
619.9310, 974.2979
621.2410, 1149.693
622.5510, 592.8623
623.8610, 1047.364
625.1700, 571.1016
626.4790, 849.6094
627.7880, 534.4307
629.0970, 640.7568
630.4060, 725.0791
631.7140, 531.5811
633.0230, 635.6982
634.3310, 399.1055
635.6390, 392.5615
636.9460, 511.8145
638.2540, 196.1650
639.5610, 640.5479
640.8680, 330.1709
642.1750, 273.6689
643.4820, 432.3086
644.7890, 415.9492
646.0950, 510.3652
647.4010, 315.5098
648.7070, 358.4121
650.0130, 612.1729
651.3190, 395.0801
652.6240, 488.1055
653.9290, 511.6035
655.2340, 554.5146
656.5390, 797.4277
657.8440, 410.3428
659.1480, 893.2607
660.4530, 646.1787
661.7570, 1019.100
663.0610, 1142.021
664.3640, 1154.945
665.6680, 1547.871
666.9710, 1650.798
668.2740, 2013.727
669.5770, 2436.655
670.8800, 2529.586
672.1830, 3032.516
673.4850, 2835.459
674.7870, 2938.389
676.0890, 2931.317
677.3910, 2444.626
678.6930, 2267.690
679.9940, 1682.125
681.2960, 1385.124
682.5970, 1058.801
683.8980, 811.9824
685.1980, 624.8936
686.4990, 402.2393
687.7990, 529.7676
689.0990, 492.6670
690.3990, 186.1328
691.6990, 349.0186
692.9980, 112.2441
694.2980, 335.4707
695.5970, 388.3330
696.8960, 211.1855
698.1950, 474.0303
699.4930, 406.9365
700.7920, 419.9258
702.0900, 722.7373
703.3880, 565.6045
704.6860, 868.3906
705.9840, 1011.163
707.2810, 1053.919
708.5780, 1536.660
709.8760, 1389.385
711.1720, 2052.092
712.4690, 1817.480
713.7660, 1697.496
715.0620, 1620.144
716.3580, 1063.137
717.6540, 1175.742
718.9500, 778.3232
720.2460, 540.8799
721.5410, 573.4111
722.8360, 186.0195
724.1310, 218.6143
725.4260, 191.0635
726.7210, 26.15918
728.0150, 93.79395
729.3100, 51.51367
730.6040, 50.70020
731.8980, 247.1240
733.1910, 134.4492
734.4850, 7.449219
735.7780, 0.6982420
737.0710, 198.5430
738.3640, 36.87988
739.6570, 54.58594
740.9500, 66.95215
742.2420, 88.46875
743.5350, 160.2529
744.8270, 151.7285
746.1180, 43.27344
747.4100, 184.7236
748.7020, 16.30078
749.9930, 57.70020
751.2840, 19.06836
752.5750, 139.5908
753.8660, 51.63574
755.1560, 167.1738
756.4470, 181.6533
757.7370, 0.7421880
759.0270, 199.8906
760.3160, 40.80176
761.6060, 198.5488
762.8960, 101.9365
764.1850, 152.3838
765.4740, 37.20996
766.7630, 16.88672
768.0510, 16.63672
769.3400, 46.45996
770.6280, 37.17188
771.9160, 46.36914
773.2040, 3.542969
774.4920, 116.6104
775.7800, 13.10840
777.0670, 117.2334
778.3540, 137.7061
779.6410, 91.68164
780.9280, 38.97461
782.2150, 30.27930
783.5010, 0.5234380
784.7870, 131.3965
786.0730, 2.409180
787.3590, 56.50684
788.6450, 175.3711
789.9300, 164.1934
791.2160, 207.0283
792.5010, 128.4297
793.7860, 50.03027
795.0710, 211.5625
796.3550, 156.6611
797.6400, 35.15820
798.9240, 122.9307
800.2080, 50.97559
801.4920, 28.96680
802.7750, 366.8975
804.0590, 94.78906
805.3420, 452.6357
806.6250, 270.4424
807.9080, 158.2100
809.1910, 595.9336
810.4740, 373.6191
811.7560, 641.2646
813.0380, 698.8721
814.3200, 776.4414
815.6020, 1063.971
816.8840, 851.4609
818.1650, 918.9121
819.4460, 1086.324
820.7270, 583.6963
822.0080, 761.0303
823.2890, 628.3262
824.5690, 595.5820
825.8500, 472.7998
827.1300, 289.9775
828.4100, 307.1152
829.6900, 354.2148
830.9690, 201.2744
832.2490, 258.2920
833.5280, 55.26855
834.8070, 272.1914
836.0860, 109.0742
837.3640, 225.9121
838.6430, 322.7080
839.9210, 10.53516
841.1990, 13.85938
842.4770, 422.7344
843.7550, 149.2891
845.0330, 305.8008
846.3100, 202.2725
847.5870, 198.4277
848.8640, 364.8154
850.1410, 301.1650
851.4180, 297.4756
852.6940, 263.7480
853.9710, 240.3818
855.2470, 326.1758
856.5230, 262.3330
857.7980, 308.4512
859.0740, 444.5312
860.3490, 390.5732
861.6240, 556.5791
862.8990, 342.5469
864.1740, 368.4756
865.4490, 304.3877
866.7230, 260.2598
867.9980, 406.0947
869.2720, 181.9395
870.5450, 417.7432
871.8190, 443.5098
873.0930, 319.2656
874.3660, 304.9873
875.6390, 240.7051
876.9120, 236.2178
878.1850, 521.8193
879.4580, 177.3115
880.7300, 260.3516
882.0020, 399.7607
883.2740, 251.3643
884.5460, 336.1113
885.8180, 76.06250
887.0900, 472.7803
888.3610, 286.9453
889.6320, 140.7148
890.9030, 523.2334
892.1740, 45.02930
893.4440, 475.7656
894.7150, 270.3486
895.9850, 134.9971
897.2550, 439.9053
898.5250, 184.7402
899.7950, 269.1240
901.0640, 164.0615
902.3340, 197.9404
903.6030, 462.3145
904.8720, 256.1436
906.1400, 221.0205
907.4090, 395.2627
908.6770, 61.81836
909.9460, 499.9414
911.2140, 172.3359
912.4820, 252.7441
913.7490, 406.6514
915.0170, 286.9512
916.2840, 461.1387
917.5510, 265.5068
918.8180, 185.4297
920.0850, 506.4512
921.3520, 377.4229
922.6180, 516.5781
923.8840, 816.2051
925.1500, 505.2227
926.4160, 1027.047
927.6820, 611.6494
928.9470, 793.8623
930.2130, 778.2842
931.4780, 841.3525
932.7430, 785.1719
934.0080, 774.1992
935.2720, 596.8984
936.5370, 978.0781
937.8010, 641.2480
939.0650, 782.2246
940.3290, 1275.572
941.5930, 979.6172
942.8560, 1833.598
944.1190, 1951.773
945.3830, 2204.838
946.6460, 2957.863
947.9080, 2975.639
949.1710, 3799.525
950.4330, 3308.268
951.6960, 3021.998
952.9580, 2924.943
954.2200, 1967.154
955.4810, 1821.600
956.7430, 1455.180
958.0040, 909.6074
959.2650, 993.9062
960.5260, 717.7383
961.7870, 652.1465
963.0480, 846.5508
964.3080, 380.9453
965.5690, 625.3340
966.8290, 229.7168
968.0890, 264.0918
969.3480, 488.4609
970.6080, 172.8242
971.8670, 307.1836
973.1260, 591.5371
974.3850, 235.8809
975.6440, 490.2246
976.9030, 334.5586
978.1610, 328.8906
979.4200, 303.2012
980.6780, 287.5215
981.9360, 421.8359
983.1930, 335.7637
984.4510, 309.9355
985.7080, 562.7305
986.9660, 406.9531
988.2230, 470.5117
989.4790, 694.5566
990.7360, 588.8633
991.9930, 838.7285
993.2490, 728.4043
994.5050, 762.7012
995.7610, 1006.420
997.0170, 940.7090
998.2720, 1204.717
999.5280, 1348.707
1000.783, 1423.055
1002.038, 2067.400
1003.293, 1891.742
1004.548, 2216.029
1005.802, 2540.648
1007.057, 2445.004
1008.311, 3029.291
1009.565, 2943.980
1010.818, 3608.332
1012.072, 4263.027
1013.326, 4477.381
1014.579, 5671.734
1015.832, 5930.195
1017.085, 6304.549
1018.338, 7658.857
1019.590, 7673.961
1020.842, 9277.949
1022.095, 10042.51
1023.347, 10792.97
1024.599, 12087.33
1025.850, 11499.73
1027.102, 10823.99
1028.353, 10058.22
1029.604, 7844.812
1030.855, 7448.955
1032.106, 5623.320
1033.356, 4472.842
1034.607, 4147.252
1035.857, 3074.412
1037.107, 2738.229
1038.357, 2542.750
1039.607, 2008.615
1040.856, 2112.799
1042.106, 1637.650
1043.355, 1572.148
1044.604, 1796.771
1045.852, 1104.582
1047.101, 1518.922
1048.350, 1103.551
1049.598, 1227.457
1050.846, 1372.086
1052.094, 1066.498
1053.342, 1441.330
1054.589, 1505.988
1055.837, 871.6777
1057.084, 1676.396
1058.331, 1341.105
1059.578, 1384.293
1060.824, 1869.109
1062.071, 1743.938
1063.317, 2199.396
1064.563, 2314.287
1065.809, 2430.068
1067.055, 3005.025
1068.301, 3199.977
1069.546, 3325.805
1070.791, 4490.791
1072.036, 4465.791
1073.281, 5640.811
1074.526, 6215.850
1075.771, 6001.404
1077.015, 7026.488
1078.259, 6611.621
1079.503, 6716.938
1080.747, 6542.148
1081.991, 5767.758
1083.234, 6093.045
1084.478, 5558.371
1085.721, 5174.250
1086.964, 5259.621
1088.206, 4565.430
1089.449, 4710.893
1090.691, 4706.367
1091.934, 4451.859
1093.176, 4817.365
1094.418, 4642.951
1095.659, 4819.242
1096.901, 5274.910
1098.142, 5270.662
1099.384, 5716.701
1100.625, 6322.506
1101.865, 6418.320
1103.106, 7714.221
1104.347, 8050.082
1105.587, 7965.953
1106.827, 8951.840
1108.067, 7917.736
1109.307, 7594.850
1110.546, 6700.777
1111.786, 5706.715
1113.025, 5452.664
1114.264, 4108.625
1115.503, 3594.598
1116.742, 3590.580
1117.980, 2526.570
1119.219, 2472.574
1120.457, 2228.562
1121.695, 1514.561
1122.933, 1820.510
1124.171, 1206.420
1125.408, 1152.287
1126.645, 1188.166
1127.883, 943.9707
1129.120, 1049.748
1130.356, 735.4473
1131.593, 671.1562
1132.829, 968.1641
1134.066, 713.8008
1135.302, 449.4297
1136.538, 939.4688
1137.773, 325.0410
1139.009, 781.2949
1140.244, 396.7910
1141.480, 402.3145
1142.715, 708.1055
1143.950, 283.6270
1145.184, 469.1484
1146.419, 480.2266
1147.653, 135.7480
1148.887, 721.2754
1150.121, 366.8008
1151.355, 152.3281
1152.589, 572.3984
1153.822, 37.92773
1155.056, 323.4531
1156.289, 549.2676
1157.522, 64.79102
1158.755, 440.3145
1159.987, 66.08789
1161.220, 301.6016
1162.452, 438.2773
1163.684, 66.21875
1164.916, 259.2637
1166.148, 415.0801
1167.379, 169.4609
1168.611, 405.9473
1169.842, 111.5859
1171.073, 93.02344
1172.304, 472.3301
1173.534, 122.3223
1174.765, 342.9805
1175.995, 288.2793
1177.225, 186.4258
1178.455, 138.7930
1179.685, 234.1504
1180.915, 70.69727
1182.144, 464.4180
1183.374, 190.4707
1184.603, 224.5859
1185.832, 409.3848
1187.060, 165.8242
1188.289, 248.8223
1189.518, 123.4551
1190.746, 48.06641
1191.974, 242.6562
1193.202, 32.53711
1194.430, 371.9707
1195.657, 276.8164
1196.884, 128.7344
1198.112, 395.6484
1199.339, 134.4980
1200.566, 159.7812
1201.792, 464.0215
1203.019, 18.58203
1204.245, 202.7480
1205.471, 376.8906
1206.697, 18.98828
1207.923, 385.1211
1209.149, 239.3379
1210.374, 73.37891
1211.600, 537.1016
1212.825, 41.57422
1214.050, 465.1582
1215.275, 268.6699
1216.499, 42.39844
1217.724, 645.7070
1218.948, 348.8223
1220.172, 351.7500
1221.396, 434.5059
1222.620, 97.12305
1223.843, 613.6582
1225.067, 460.2090
1226.290, 186.7793
1227.513, 513.3652
1228.736, 149.9629
1229.959, 376.5742
1231.181, 693.1973
1232.404, 109.8379
1233.626, 636.4805
1234.848, 153.1367
1236.070, 409.7988
1237.291, 646.4707
1238.513, 453.1504
1239.734, 269.8320
1240.955, 786.5156
1242.177, 113.2070
1243.397, 499.9023
1244.618, 796.6074
1245.838, 203.3184
1247.059, 730.0371
1248.279, 396.7637
1249.499, 263.5039
1250.719, 800.2539
1251.938, 447.0039
1253.158, 403.7480
1254.377, 870.4766
1255.596, 97.22070
1256.815, 793.9805
1258.034, 700.6699
1259.253, 527.2871
1260.471, 723.9219
1261.689, 329.9336
1262.907, 506.5352
1264.125, 1032.684
1265.343, 438.8203
1266.561, 739.5625
1267.778, 766.1250
1268.995, 306.9414
1270.212, 753.9512
1271.429, 558.1328
1272.646, 614.2871
1273.862, 781.3574
1275.079, 339.2715
1276.295, 644.9238
1277.511, 420.4902
1278.727, 57.63086
1279.943, 931.5684
1281.158, 331.5703
1282.373, 13.17773
1283.589, 866.0137
1284.804, 83.38086
1286.019, 356.2578
1287.233, 660.9121
1288.448, 170.3066
1289.662, 483.8379
1290.876, 676.8594
1292.090, 198.5820
1293.304, 714.3320
1294.518, 298.9102
1295.731, 292.5254
1296.944, 527.0762
1298.158, 18.78516
1299.371, 624.8730
1300.583, 477.9688
1301.796, 181.2578
1303.008, 655.2441
1304.221, 369.1074
1305.433, 191.3418
1306.645, 814.9004
1307.856, 77.64062
1309.068, 330.7207
1310.280, 953.7754
1311.491, 176.6465
1312.702, 756.1641
1313.913, 528.5586
1315.124, 200.7344
1316.334, 1102.686
1317.545, 324.4785
1318.755, 346.2578
1319.965, 928.4199
1321.175, 440.7578
1322.385, 623.6426
1323.594, 632.4062
1324.804, 225.7637
1326.013, 794.0449
1327.222, 515.1562
1328.431, 427.9062
1329.639, 671.6680
1330.848, 334.4531
1332.056, 336.0645
1333.265, 738.4043
1334.473, 278.8906
1335.680, 597.8027
1336.888, 216.4375
1338.096, 120.2578
1339.303, 679.1797
1340.510, 95.97070
1341.717, 222.8301
1342.924, 520.5215
1344.131, 52.27344
1345.337, 434.3027
1346.544, 489.3594
1347.750, 85.37109
1348.956, 530.4414
1350.162, 598.5508
1351.367, 217.5645
1352.573, 716.4336
1353.778, 122.9277
1354.983, 397.9434
1356.188, 627.7480
1357.393, 1.003906
1358.598, 283.3008
1359.802, 409.6719
1361.007, 8.267578
1362.211, 429.9922
1363.415, 118.0254
1364.619, 47.34961
1365.822, 619.8887
1367.026, 0.0000000E+00
##END=



