##NAMES=Laumontite
##RRUFFID=R040020
##IDEAL CHEMISTRY=Ca(Si_4_Al_2_)O_12_&#183;4H_2_O
##LOCALITY=Pine Creek Tungsten mine, Bishop, Inyo County, California, USA
##OWNER=RRUFF
##SOURCE=University of Arizona Mineral Museum
##DESCRIPTION=Pale gray long prism coated with smaller crystals
##STATUS=The identification of this mineral has been confirmed by X-ray diffraction and chemical analysis
##URL=rruff.info/R040020
##MEASURED CHEMISTRY=(Ca_0.99_K_0.01_)_Σ=1_(Si_4.01_Al_1.99_)O_12_·4H_2_O; H_2_O estimated by difference
##PIN_ID=L00252
##ORIENTATION=Laser parallel to a [1 0 0]. Fiducial mark perpendicular to laser is parallel to b* (0 1 0)
128.6710, 0.0000000E+00
130.0530, 22.07031
131.4360, 307.3379
132.8180, 626.2871
134.2000, 1541.301
135.5820, 2048.900
136.9630, 3118.549
138.3450, 3992.697
139.7260, 4922.793
141.1070, 6003.828
142.4880, 6446.531
143.8680, 7224.111
145.2480, 6984.949
146.6290, 6880.881
148.0080, 6106.129
149.3880, 5539.822
150.7680, 4951.521
152.1470, 3892.496
153.5260, 3759.793
154.9050, 2880.951
156.2840, 2706.836
157.6620, 2564.880
159.0400, 2456.560
160.4180, 2656.938
161.7960, 2244.156
163.1740, 2836.646
164.5510, 2585.398
165.9290, 2982.289
167.3060, 3226.301
168.6830, 3237.420
170.0590, 3807.474
171.4360, 3591.723
172.8120, 3775.943
174.1880, 3366.286
175.5640, 3264.153
176.9390, 2754.407
178.3150, 2461.220
179.6900, 2379.814
181.0650, 1897.205
182.4400, 1829.910
183.8140, 1479.830
185.1880, 1455.205
186.5630, 1354.582
187.9370, 1309.765
189.3100, 1198.301
190.6840, 1111.038
192.0570, 1345.726
193.4300, 1202.889
194.8030, 1148.507
196.1760, 1446.418
197.5490, 1365.551
198.9210, 1718.763
200.2930, 1618.362
201.6650, 1736.682
203.0370, 1599.569
204.4080, 1492.518
205.7790, 1415.785
207.1500, 1244.407
208.5210, 1237.307
209.8920, 1008.540
211.2620, 999.8799
212.6330, 1022.076
214.0030, 845.1611
215.3730, 869.1113
216.7420, 693.8740
218.1120, 809.3926
219.4810, 385.6006
220.8500, 402.4336
222.2190, 219.8252
223.5880, 57.71582
224.9560, 126.0420
226.3240, 145.2598
227.6920, 186.2578
229.0600, 207.0117
230.4280, 217.5664
231.7950, 277.9658
233.1620, 378.2441
234.5290, 248.4395
235.8960, 368.5967
237.2630, 258.7783
238.6290, 319.0508
239.9950, 399.4941
241.3610, 120.1855
242.7270, 291.1709
244.0930, 152.4502
245.4580, 274.0020
246.8230, 35.79688
248.1880, 147.8154
249.5530, 6.9335997E-02
250.9170, 7.429688
252.2820, 105.3301
253.6460, 181.6484
255.0100, 148.3486
256.3740, 224.7500
257.7370, 440.7764
259.1010, 396.3018
260.4640, 591.1025
261.8270, 515.0654
263.1890, 739.5713
264.5520, 803.3330
265.9140, 944.5791
267.2760, 1134.979
268.6380, 1104.683
270.0000, 1283.750
271.3620, 1232.326
272.7230, 1340.504
274.0840, 1218.403
275.4450, 956.7861
276.8060, 1017.580
278.1660, 722.3887
279.5260, 1167.287
280.8870, 831.8115
282.2460, 961.9443
283.6060, 1158.367
284.9660, 1121.557
286.3250, 1426.148
287.6840, 1456.079
289.0430, 1555.867
290.4020, 1944.631
291.7600, 2171.744
293.1180, 2478.975
294.4770, 2867.424
295.8340, 3237.332
297.1920, 3697.747
298.5500, 4288.347
299.9070, 4988.922
301.2640, 5799.314
302.6210, 6850.586
303.9780, 7969.119
305.3340, 9318.396
306.6900, 10757.18
308.0460, 12275.40
309.4020, 13682.99
310.7580, 14619.94
312.1130, 15486.23
313.4690, 15211.88
314.8240, 15506.88
316.1790, 14691.25
317.5330, 13834.95
318.8880, 13377.91
320.2420, 12690.07
321.5960, 13231.34
322.9500, 13811.66
324.3040, 15361.03
325.6570, 16769.51
327.0100, 17637.20
328.3630, 17678.35
329.7160, 17710.57
331.0690, 16226.32
332.4210, 13801.45
333.7740, 11415.98
335.1260, 9249.919
336.4780, 7493.275
337.8290, 6586.022
339.1810, 5128.078
340.5320, 4499.299
341.8830, 3919.313
343.2340, 3408.115
344.5850, 3345.586
345.9350, 3001.830
347.2850, 3006.402
348.6350, 2839.182
349.9850, 2710.053
351.3350, 2589.518
352.6840, 2387.586
354.0340, 2294.060
355.3830, 1931.597
356.7310, 1968.328
358.0800, 1804.551
359.4290, 1652.086
360.7770, 1639.247
362.1250, 1534.666
363.4730, 1686.088
364.8200, 1534.803
366.1680, 1502.936
367.5150, 1690.607
368.8620, 1667.946
370.2090, 1744.572
371.5560, 1731.198
372.9020, 2026.741
374.2490, 2182.295
375.5950, 2298.112
376.9400, 2802.517
378.2860, 2847.185
379.6320, 3540.438
380.9770, 3774.707
382.3220, 3904.336
383.6670, 3894.343
385.0120, 3390.767
386.3560, 3171.245
387.7000, 2614.883
389.0440, 1973.310
390.3880, 1629.320
391.7320, 1374.178
393.0750, 1218.516
394.4190, 849.2012
395.7620, 1093.721
397.1050, 936.5176
398.4470, 811.8955
399.7900, 1054.287
401.1320, 1093.020
402.4740, 1386.827
403.8160, 1438.291
405.1580, 1739.151
406.4990, 2118.848
407.8410, 2101.049
409.1820, 2498.338
410.5230, 2428.735
411.8640, 2328.544
413.2040, 2148.965
414.5440, 1702.462
415.8840, 1510.094
417.2240, 976.9922
418.5640, 825.7070
419.9040, 477.5088
421.2430, 268.8096
422.5820, 251.9570
423.9210, 95.44727
425.2600, 29.07031
426.5980, 6.045898
427.9370, 100.5439
429.2750, 105.7871
430.6130, 117.9492
431.9510, 40.90234
433.2880, 244.0176
434.6250, 116.6611
435.9630, 99.73242
437.3000, 183.8545
438.6360, 47.70117
439.9730, 37.26465
441.3090, 114.1084
442.6460, 109.5967
443.9810, 175.6416
445.3170, 202.5156
446.6530, 79.24219
447.9880, 277.2832
449.3230, 215.5176
450.6580, 404.0684
451.9930, 522.6260
453.3280, 521.2334
454.6620, 649.7354
455.9960, 718.1250
457.3310, 656.4014
458.6640, 1004.557
459.9980, 1022.603
461.3310, 1330.530
462.6650, 1528.365
463.9980, 2196.078
465.3300, 2443.684
466.6630, 2741.219
467.9960, 3258.638
469.3280, 3455.965
470.6600, 3773.230
471.9920, 3620.387
473.3230, 3167.475
474.6550, 2764.462
475.9860, 2411.347
477.3170, 2478.199
478.6480, 2325.053
479.9790, 2431.793
481.3090, 2648.441
482.6400, 2845.008
483.9700, 3781.557
485.3000, 4218.029
486.6290, 5604.459
487.9590, 7330.820
489.2880, 9017.115
490.6170, 11923.35
491.9460, 13989.64
493.2750, 15745.75
494.6030, 15861.78
495.9320, 14817.76
497.2600, 13153.69
498.5880, 11139.56
499.9160, 10315.39
501.2430, 9431.166
502.5710, 9356.901
503.8980, 10322.60
505.2250, 10758.26
506.5520, 12363.90
507.8780, 13879.52
509.2050, 15945.13
510.5310, 18190.74
511.8570, 20016.34
513.1830, 22321.96
514.5080, 22647.60
515.8340, 23533.23
517.1590, 23048.89
518.4840, 21224.57
519.8090, 19170.26
521.1330, 16635.96
522.4580, 14891.67
523.7820, 12227.41
525.1060, 10443.15
526.4300, 8918.900
527.7540, 7294.672
529.0770, 6510.452
530.4000, 5266.252
531.7230, 4552.068
533.0460, 4117.904
534.3690, 3083.815
535.6920, 3039.688
537.0140, 2395.655
538.3360, 2161.576
539.6580, 1887.523
540.9800, 1603.497
542.3010, 1499.513
543.6230, 1125.641
544.9440, 1172.337
546.2650, 1098.540
547.5850, 834.8135
548.9060, 701.2217
550.2260, 587.7754
551.5470, 604.4785
552.8670, 471.3340
554.1860, 267.1562
555.5060, 414.3721
556.8250, 201.2383
558.1450, 307.9463
559.4640, 265.6709
560.7830, 243.5684
562.1010, 161.6621
563.4200, 179.8779
564.7380, 210.4404
566.0560, 166.7725
567.3740, 306.3564
568.6920, 405.7129
570.0090, 395.4570
571.3260, 535.1748
572.6430, 566.8623
573.9600, 893.6475
575.2770, 993.4775
576.5940, 1040.629
577.9100, 1506.778
579.2260, 1656.140
580.5420, 1966.395
581.8580, 2763.991
583.1730, 3121.018
584.4890, 3825.660
585.8040, 4382.951
587.1190, 5249.430
588.4340, 6281.049
589.7480, 6856.236
591.0630, 7385.047
592.3770, 7735.473
593.6910, 7670.812
595.0050, 7636.677
596.3180, 6930.301
597.6320, 6415.773
598.9450, 5424.083
600.2580, 5000.016
601.5710, 4037.410
602.8840, 3407.756
604.1960, 2958.410
605.5080, 2226.622
606.8210, 1990.217
608.1320, 1732.654
609.4440, 1332.293
610.7560, 1409.783
612.0670, 1009.861
613.3780, 919.7402
614.6890, 811.4922
616.0000, 791.5166
617.3110, 914.7598
618.6210, 396.0859
619.9310, 683.3828
621.2410, 623.6611
622.5510, 376.6523
623.8610, 788.4834
625.1700, 358.8398
626.4790, 624.2969
627.7880, 516.2998
629.0970, 526.6533
630.4060, 516.0713
631.7140, 266.7930
633.0230, 467.0605
634.3310, 332.9824
635.6390, 102.6885
636.9460, 401.7158
638.2540, 162.0342
639.5610, 392.3242
640.8680, 258.4980
642.1750, 208.6055
643.4820, 266.6211
644.7890, 267.2617
646.0950, 337.7959
647.4010, 247.7051
648.7070, 137.2920
650.0130, 527.5625
651.3190, 266.9717
652.6240, 436.3916
653.9290, 336.4951
655.2340, 275.8857
656.5390, 445.9766
657.8440, 335.3574
659.1480, 644.7314
660.4530, 614.0996
661.7570, 863.4629
663.0610, 922.8213
664.3640, 872.1709
665.6680, 1241.517
666.9710, 1400.856
668.2740, 1730.189
669.5770, 1959.518
670.8800, 2049.358
672.1830, 2398.673
673.4850, 2398.293
674.7870, 2487.971
676.0890, 2497.411
677.3910, 1956.695
678.6930, 1995.973
679.9940, 1470.465
681.2960, 1199.726
682.5970, 1009.489
683.8980, 600.1787
685.1980, 619.5098
686.4990, 409.9590
687.7990, 549.8193
689.0990, 419.0225
690.3990, 188.6582
691.6990, 337.8398
692.9980, 187.7100
694.2980, 236.8691
695.5970, 266.0166
696.8960, 475.7988
698.1950, 394.9238
699.4930, 194.7305
700.7920, 73.82910
702.0900, 522.9453
703.3880, 392.0117
704.6860, 571.1084
705.9840, 680.1455
707.2810, 629.1680
708.5780, 978.1738
709.8760, 817.1611
711.1720, 1246.138
712.4690, 1195.093
713.7660, 1314.031
715.0620, 1092.953
716.3580, 671.9570
717.6540, 940.8359
718.9500, 579.6904
720.2460, 389.0791
721.5410, 397.8867
722.8360, 16.66797
724.1310, 95.92871
725.4260, 34.64453
726.7210, 64.37207
728.0150, 26.98145
729.3100, 118.3877
730.6040, 101.0420
731.8980, 120.4961
733.1910, 101.4883
734.4850, 106.7812
735.7780, 14.98242
737.0710, 143.3486
738.3640, 5.269531
739.6570, 106.7891
740.9500, 171.1709
742.2420, 9.108398
743.5350, 42.66504
744.8270, 145.1855
746.1180, 6.978516
747.4100, 240.8174
748.7020, 141.3770
749.9930, 56.32812
751.2840, 74.01367
752.5750, 118.3105
753.8660, 89.34082
755.1560, 103.1104
756.4470, 125.1846
757.7370, 2.156250
759.0270, 0.4677730
760.3160, 196.7764
761.6060, 46.00977
762.8960, 28.87012
764.1850, 198.2051
765.4740, 94.75488
766.7630, 152.1816
768.0510, 199.0781
769.3400, 5.941406
770.6280, 162.7480
771.9160, 20.48242
773.2040, 16.21777
774.4920, 87.13281
775.7800, 99.41309
777.0670, 14.08105
778.3540, 157.6426
779.6410, 78.65430
780.9280, 55.08789
782.2150, 158.9199
783.5010, 77.10547
784.7870, 116.9111
786.0730, 38.95117
787.3590, 94.76758
788.6450, 219.4580
789.9300, 226.1406
791.2160, 268.3955
792.5010, 76.96387
793.7860, 82.28223
795.0710, 222.4414
796.3550, 122.6582
797.6400, 92.28516
798.9240, 42.66406
800.2080, 47.56543
801.4920, 162.4209
802.7750, 237.2383
804.0590, 71.88281
805.3420, 286.6230
806.6250, 271.3281
807.9080, 106.0020
809.1910, 440.6309
810.4740, 105.2266
811.7560, 419.7812
813.0380, 494.3047
814.3200, 388.7891
815.6020, 703.2402
816.8840, 577.6582
818.1650, 582.0410
819.4460, 726.3906
820.7270, 340.7051
822.0080, 574.9844
823.2890, 369.2305
824.5690, 143.4414
825.8500, 337.6113
827.1300, 191.7500
828.4100, 175.8496
829.6900, 229.9121
830.9690, 273.9395
832.2490, 277.9316
833.5280, 38.11133
834.8070, 315.7656
836.0860, 139.6074
837.3640, 33.41016
838.6430, 237.1660
839.9210, 40.88867
841.1990, 104.5625
842.4770, 388.1992
843.7550, 151.8008
845.0330, 305.3105
846.3100, 88.84180
847.5870, 312.2617
848.8640, 295.7207
850.1410, 99.14648
851.4180, 292.5332
852.6940, 85.88672
853.9710, 329.1348
855.2470, 241.8438
856.5230, 315.0957
857.7980, 238.3125
859.0740, 381.5039
860.3490, 284.6621
861.6240, 407.7871
862.8990, 320.8828
864.1740, 423.9434
865.4490, 407.0059
866.7230, 340.0332
867.9980, 473.0312
869.2720, 216.0840
870.5450, 379.1055
871.8190, 392.0957
873.0930, 105.0645
874.3660, 368.0000
875.6390, 290.9219
876.9120, 112.9023
878.1850, 565.1738
879.4580, 37.19922
880.7300, 259.3008
882.0020, 369.4844
883.2740, 34.65234
884.5460, 456.7910
885.8180, 61.63672
887.0900, 517.4941
888.3610, 219.5547
889.6320, 30.02344
890.9030, 582.9922
892.1740, 93.68555
893.4440, 358.7832
894.7150, 241.0020
895.9850, 112.2070
897.2550, 480.7090
898.5250, 242.7441
899.7950, 383.0176
901.0640, 325.4199
902.3340, 277.8203
903.6030, 519.4375
904.8720, 191.0977
906.1400, 144.6895
907.4090, 526.3574
908.6770, 40.73242
909.9460, 583.6367
911.2140, 123.8750
912.4820, 203.9238
913.7490, 445.9062
915.0170, 423.3359
916.2840, 641.6777
917.5510, 413.6074
918.8180, 417.9141
920.0850, 699.6055
921.3520, 641.4688
922.6180, 701.4316
923.8840, 1093.096
925.1500, 721.5176
926.4160, 1291.830
927.6820, 986.1504
928.9470, 1177.463
930.2130, 1076.037
931.4780, 975.7500
932.7430, 936.9180
934.0080, 922.9609
935.2720, 632.4336
936.5370, 903.5410
937.8010, 635.5605
939.0650, 696.2559
940.3290, 1137.389
941.5930, 622.8477
942.8560, 1354.504
944.1190, 1276.820
945.3830, 1397.830
946.6460, 2198.850
947.9080, 1883.969
949.1710, 2525.137
950.4330, 2228.383
951.6960, 2048.988
952.9580, 1969.688
954.2200, 1170.994
955.4810, 1122.609
956.7430, 963.5273
958.0040, 715.2949
959.2650, 747.0352
960.5260, 498.0801
961.7870, 589.8242
963.0480, 690.8555
964.3080, 162.5859
965.5690, 644.3105
966.8290, 296.0293
968.0890, 207.7402
969.3480, 539.4453
970.6080, 201.1465
971.8670, 302.8418
973.1260, 534.5293
974.3850, 196.2129
975.6440, 457.8887
976.9030, 349.0410
978.1610, 200.7051
979.4200, 402.0508
980.6780, 253.3242
981.9360, 464.8242
983.1930, 256.4648
984.4510, 358.1367
985.7080, 504.5781
986.9660, 436.2402
988.2230, 517.4297
989.4790, 597.6816
990.7360, 239.2773
991.9930, 859.7402
993.2490, 640.7754
994.5050, 702.4551
995.7610, 1013.686
997.0170, 835.3555
998.2720, 1256.352
999.5280, 1338.287
1000.783, 1609.977
1002.038, 2021.166
1003.293, 1783.037
1004.548, 2144.023
1005.802, 2206.381
1007.057, 1928.029
1008.311, 2529.705
1009.565, 2322.539
1010.818, 2944.205
1012.072, 3265.910
1013.326, 3387.896
1014.579, 4509.559
1015.832, 4548.793
1017.085, 4810.449
1018.338, 6022.102
1019.590, 5764.859
1020.842, 7156.406
1022.095, 7508.438
1023.347, 8212.719
1024.599, 9163.801
1025.850, 8710.420
1027.102, 8002.057
1028.353, 7733.180
1029.604, 5936.463
1030.855, 5737.053
1032.106, 4308.719
1033.356, 3361.020
1034.607, 3291.762
1035.857, 2374.754
1037.107, 2105.814
1038.357, 2097.551
1039.607, 1539.836
1040.856, 1958.133
1042.106, 1199.914
1043.355, 1334.096
1044.604, 1545.912
1045.852, 802.3418
1047.101, 1203.844
1048.350, 1165.672
1049.598, 1083.875
1050.846, 1355.711
1052.094, 777.4707
1053.342, 1210.504
1054.589, 1272.387
1055.837, 694.9473
1057.084, 1427.000
1058.331, 988.9160
1059.578, 1081.012
1060.824, 1582.998
1062.071, 1354.912
1063.317, 1757.363
1064.563, 1749.363
1065.809, 1695.234
1067.055, 2597.271
1068.301, 2539.305
1069.546, 2611.986
1070.791, 3464.045
1072.036, 3316.100
1073.281, 4158.160
1074.526, 4470.211
1075.771, 4272.562
1077.015, 5094.639
1078.259, 4716.760
1079.503, 4728.887
1080.747, 4741.039
1081.991, 4123.250
1083.234, 4535.473
1084.478, 3977.727
1085.721, 3660.475
1086.964, 4162.803
1088.206, 3235.184
1089.449, 3497.582
1090.691, 3409.988
1091.934, 3422.473
1093.176, 3794.967
1094.418, 3527.555
1095.659, 3750.154
1096.901, 4022.760
1098.142, 3775.451
1099.384, 4288.629
1100.625, 5021.377
1101.865, 4604.141
1103.106, 5847.086
1104.347, 5849.873
1105.587, 5812.672
1106.827, 6755.480
1108.067, 5738.297
1109.307, 5461.613
1110.546, 4914.449
1111.786, 4097.297
1113.025, 4240.150
1114.264, 3123.012
1115.503, 2576.029
1116.742, 2708.902
1117.980, 1741.773
1119.219, 1734.652
1120.457, 1787.492
1121.695, 1220.340
1122.933, 1433.062
1124.171, 985.7715
1125.408, 1068.451
1126.645, 1061.143
1127.883, 653.7598
1129.120, 846.3789
1130.356, 638.9941
1131.593, 641.6152
1132.829, 1032.000
1134.066, 434.4648
1135.302, 547.4355
1136.538, 910.6699
1137.773, 353.0859
1139.009, 675.4238
1140.244, 357.7598
1141.480, 340.0996
1142.715, 582.8594
1143.950, 165.1934
1145.184, 377.4980
1146.419, 517.0371
1147.653, 109.3340
1148.887, 721.6328
1150.121, 133.9277
1151.355, 126.2227
1152.589, 789.3633
1153.822, 11.66016
1155.056, 173.9473
1156.289, 536.2305
1157.522, 11.48828
1158.755, 440.7812
1159.987, 173.0488
1161.220, 105.3105
1162.452, 527.5664
1163.684, 110.1895
1164.916, 222.0098
1166.148, 334.2617
1167.379, 323.5586
1168.611, 438.5215
1169.842, 100.8750
1171.073, 27.06836
1172.304, 534.9629
1173.534, 63.01367
1174.765, 278.9785
1175.995, 340.9629
1177.225, 167.0586
1178.455, 284.7539
1179.685, 196.5566
1180.915, 48.19336
1182.144, 369.8203
1183.374, 1.435547
1184.603, 433.0352
1185.832, 354.5078
1187.060, 304.0371
1188.289, 387.3047
1189.518, 248.6426
1190.746, 20.03320
1191.974, 471.2539
1193.202, 47.47461
1194.430, 303.7520
1195.657, 234.9570
1196.884, 73.86719
1198.112, 477.2500
1199.339, 128.0547
1200.566, 22.96484
1201.792, 483.9531
1203.019, 65.19727
1204.245, 176.1445
1205.471, 527.0762
1206.697, 77.99609
1207.923, 598.9043
1209.149, 260.6133
1210.374, 121.5039
1211.600, 502.1914
1212.825, 25.34570
1214.050, 605.2559
1215.275, 515.8262
1216.499, 86.27930
1217.724, 596.6777
1218.948, 276.7617
1220.172, 436.8047
1221.396, 546.5508
1222.620, 166.0508
1223.843, 669.2812
1225.067, 392.5273
1226.290, 285.7891
1227.513, 589.0645
1228.736, 362.3496
1229.959, 675.6445
1231.181, 748.9512
1232.404, 152.2676
1233.626, 645.5918
1234.848, 458.9199
1236.070, 272.2559
1237.291, 625.5938
1238.513, 418.9336
1239.734, 272.2773
1240.955, 755.6270
1242.177, 338.9766
1243.397, 662.3281
1244.618, 795.6836
1245.838, 169.0430
1247.059, 852.4082
1248.279, 545.7793
1249.499, 249.1602
1250.719, 712.5508
1251.938, 545.8691
1253.158, 439.1328
1254.377, 1062.348
1255.596, 185.5742
1256.815, 708.8125
1258.034, 692.0215
1259.253, 514.8770
1260.471, 877.6074
1261.689, 279.8652
1262.907, 433.0410
1264.125, 1194.559
1265.343, 417.2441
1266.561, 809.6035
1267.778, 682.6895
1268.995, 494.8379
1270.212, 1003.082
1271.429, 528.2754
1272.646, 600.8672
1273.862, 845.5098
1275.079, 336.8223
1276.295, 647.1113
1277.511, 619.4668
1278.727, 71.57227
1279.943, 1085.693
1281.158, 129.8438
1282.373, 118.3887
1283.589, 962.4219
1284.804, 284.6953
1286.019, 274.7832
1287.233, 845.6816
1288.448, 135.8047
1289.662, 526.1934
1290.876, 810.1523
1292.090, 68.77930
1293.304, 741.0977
1294.518, 462.1621
1295.731, 382.6758
1296.944, 763.7012
1298.158, 84.63477
1299.371, 785.4688
1300.583, 515.2793
1301.796, 395.8750
1303.008, 696.3535
1304.221, 326.7012
1305.433, 446.9141
1306.645, 1136.982
1307.856, 245.7559
1309.068, 535.0645
1310.280, 1034.609
1311.491, 233.9727
1312.702, 821.8496
1313.913, 630.7910
1315.124, 179.1152
1316.334, 1257.650
1317.545, 256.1113
1318.755, 484.8457
1319.965, 933.9766
1321.175, 423.2422
1322.385, 822.6211
1323.594, 756.4395
1324.804, 414.2578
1326.013, 826.5430
1327.222, 575.6934
1328.431, 233.1777
1329.639, 842.1582
1330.848, 462.7676
1332.056, 490.6172
1333.265, 974.6758
1334.473, 291.8926
1335.680, 748.8320
1336.888, 375.4648
1338.096, 241.7695
1339.303, 837.8125
1340.510, 193.2402
1341.717, 347.0723
1342.924, 852.0586
1344.131, 33.39453
1345.337, 460.5820
1346.544, 655.4219
1347.750, 81.98828
1348.956, 698.2461
1350.162, 446.0938
1351.367, 244.1465
1352.573, 752.2676
1353.778, 30.58203
1354.983, 549.3496
1356.188, 793.5078
1357.393, 11.33398
1358.598, 588.9551
1359.802, 611.7285
1361.007, 244.5098
1362.211, 791.7793
1363.415, 419.0508
1364.619, 13.09375
1365.822, 759.1738
1367.026, 0.0000000E+00
##END=



