##NAMES=Laverovite
##RRUFFID=R060216
##IDEAL CHEMISTRY=K_2_NaMn^2+^_7_Zr^4+^_2_(Si_4_O_12_)_2_O_2_(OH)_4_F
##LOCALITY=Desourdy Quarry, Mont Saint-Hilaire, Rouville County, Quebec, Canada
##OWNER=RRUFF
##SOURCE=Royal Ontario Museum
##DESCRIPTION=Brown fragment showing lamellar habit. Type sample
##STATUS=The identification of this mineral has been confirmed by X-ray diffraction and chemical analysis
##URL=rruff.info/R060216
##MEASURED CHEMISTRY=(K_1.74_Na_0.18_[box]_0.08_)_Σ=2_(Na_0.92_Ca_0.08_)_Σ=1_(Mn_4.09_Fe^2+^_2.67_Mg_0.24_)_Σ=7_(Zr_1.42_Ti_0.58_)_Σ=2_(Si_7.86_Al_0.14_)_Σ=8_O_26_((OH)_3.14_O_0.86_)_Σ=4_
##PIN_ID=L00725
##ORIENTATION=Laser parallel to c* (0 0 1). Fiducial mark perpendicular to laser is parallel to a [1 0 0]
148.8670, 0.0000000E+00
150.0940, 1.156250
151.3210, 417.6660
152.5490, 948.5020
153.7750, 772.9316
155.0020, 145.2617
156.2290, 444.9648
157.4550, 30.94727
158.6810, 65.84961
159.9080, 199.7754
161.1340, 439.8516
162.3590, 734.4785
163.5850, 1613.900
164.8110, 2458.535
166.0360, 3157.621
167.2610, 3568.072
168.4860, 3681.375
169.7110, 3813.732
170.9360, 3769.553
172.1610, 3554.852
173.3850, 3198.953
174.6100, 2938.955
175.8340, 2583.211
177.0580, 2316.570
178.2820, 1784.906
179.5050, 2042.158
180.7290, 1744.041
181.9520, 1449.951
183.1760, 989.1934
184.3990, 995.5312
185.6220, 1451.514
186.8450, 1955.393
188.0670, 2182.848
189.2900, 1736.949
190.5120, 1619.832
191.7340, 1682.609
192.9560, 2017.361
194.1780, 2461.146
195.4000, 2553.014
196.6220, 2792.012
197.8430, 3395.176
199.0640, 3512.545
200.2860, 3909.152
201.5070, 4837.031
202.7270, 6151.207
203.9480, 7103.695
205.1690, 5457.518
206.3890, 3038.697
207.6090, 2230.246
208.8290, 2433.176
210.0490, 2662.283
211.2690, 4023.688
212.4890, 3655.416
213.7080, 4589.248
214.9280, 5206.713
216.1470, 5684.584
217.3660, 6054.814
218.5850, 6708.301
219.8030, 7050.344
221.0220, 7539.318
222.2400, 7748.750
223.4590, 8461.086
224.6770, 8530.836
225.8950, 8835.748
227.1120, 9219.922
228.3300, 9323.832
229.5480, 9788.875
230.7650, 10119.07
231.9820, 10470.16
233.1990, 10599.53
234.4160, 10677.80
235.6330, 10843.90
236.8490, 10776.79
238.0660, 10518.47
239.2820, 10572.93
240.4980, 10343.16
241.7140, 9882.172
242.9300, 9588.949
244.1460, 8946.496
245.3610, 8204.809
246.5770, 7748.891
247.7920, 6895.684
249.0070, 6297.414
250.2220, 5459.715
251.4370, 4956.852
252.6510, 4591.750
253.8660, 3937.412
255.0800, 3804.830
256.2940, 3254.992
257.5080, 3220.871
258.7220, 3235.469
259.9360, 4377.781
261.1490, 3504.379
262.3630, 3422.557
263.5760, 2526.029
264.7890, 1915.230
266.0020, 1691.162
267.2150, 1585.824
268.4270, 1125.223
269.6400, 1125.357
270.8520, 647.2305
272.0640, 485.8477
273.2760, 266.2129
274.4880, 289.3223
275.7000, 139.1309
276.9120, 80.79688
278.1230, 12.16797
279.3340, 78.70508
280.5450, 111.1738
281.7560, 398.1172
282.9670, 116.6895
284.1780, 388.8613
285.3880, 270.8613
286.5980, 147.9004
287.8090, 186.6309
289.0190, 218.7051
290.2290, 82.33984
291.4380, 3.611328
292.6480, 169.5000
293.8570, 202.2109
295.0670, 266.9609
296.2760, 324.7715
297.4850, 486.4238
298.6930, 583.8242
299.9020, 805.0625
301.1110, 910.4121
302.3190, 790.2695
303.5270, 1071.871
304.7350, 872.0664
305.9430, 1136.568
307.1510, 1146.016
308.3580, 1064.125
309.5660, 1050.746
310.7730, 1291.262
311.9800, 1414.834
313.1870, 1537.285
314.3940, 1818.137
315.6010, 2038.680
316.8070, 2238.668
318.0130, 2408.275
319.2200, 2587.500
320.4260, 2861.412
321.6310, 3184.594
322.8370, 3654.475
324.0430, 4071.809
325.2480, 4028.549
326.4540, 4089.572
327.6590, 4021.422
328.8640, 4159.062
330.0680, 4162.080
331.2730, 4292.662
332.4780, 4272.619
333.6820, 4432.354
334.8860, 4540.871
336.0900, 4628.178
337.2940, 4660.277
338.4980, 4714.178
339.7010, 4889.879
340.9050, 4860.383
342.1080, 5110.695
343.3110, 5056.820
344.5140, 5068.762
345.7170, 4764.518
346.9200, 4641.096
348.1220, 4588.500
349.3240, 4641.730
350.5270, 4453.789
351.7290, 4691.682
352.9310, 4557.406
354.1320, 4350.969
355.3340, 4647.363
356.5350, 4689.551
357.7370, 4853.502
358.9380, 4875.117
360.1390, 4911.254
361.3400, 5281.742
362.5400, 5306.518
363.7410, 5289.785
364.9410, 5466.662
366.1410, 5497.271
367.3410, 5397.689
368.5410, 5444.939
369.7410, 5260.047
370.9400, 5401.020
372.1400, 5100.852
373.3390, 5303.555
374.5380, 5209.117
375.7370, 5228.543
376.9360, 5220.836
378.1350, 5255.988
379.3330, 5277.004
380.5310, 5427.887
381.7300, 5201.631
382.9280, 5342.242
384.1260, 5024.910
385.3230, 4702.064
386.5210, 4377.283
387.7180, 4238.367
388.9160, 3908.271
390.1130, 3806.152
391.3100, 3553.852
392.5060, 3289.838
393.7030, 3081.879
394.9000, 2906.205
396.0960, 2540.410
397.2920, 2649.494
398.4880, 2502.459
399.6840, 2184.309
400.8800, 2060.039
402.0750, 1885.658
403.2710, 1994.160
404.4660, 1745.074
405.6610, 1621.838
406.8560, 1450.016
408.0510, 1296.943
409.2450, 1049.053
410.4400, 1057.916
411.6340, 878.6758
412.8280, 812.3340
414.0220, 812.8887
415.2160, 707.5918
416.4100, 558.5137
417.6030, 774.5898
418.7970, 592.8594
419.9900, 450.5488
421.1830, 337.2793
422.3760, 494.5469
423.5690, 506.0547
424.7610, 710.4688
425.9540, 469.8203
427.1460, 364.6250
428.3380, 253.0840
429.5300, 103.2109
430.7220, 56.43945
431.9140, 185.1758
433.1050, 216.0254
434.2970, 91.45117
435.4880, 170.6895
436.6790, 375.0293
437.8700, 160.6953
439.0610, 392.6191
440.2510, 401.4238
441.4420, 475.2617
442.6320, 339.9512
443.8220, 500.1543
445.0120, 208.4707
446.2020, 303.6230
447.3910, 276.0000
448.5810, 390.5781
449.7700, 251.5117
450.9600, 474.7559
452.1490, 249.8633
453.3370, 270.3672
454.5260, 357.3711
455.7150, 266.6914
456.9030, 280.2754
458.0910, 203.1270
459.2800, 122.2031
460.4670, 174.5410
461.6550, 218.1934
462.8430, 244.7559
464.0300, 131.2324
465.2180, 392.6191
466.4050, 495.9238
467.5920, 327.1582
468.7790, 818.3145
469.9650, 689.4004
471.1520, 699.4141
472.3380, 872.3613
473.5250, 985.2402
474.7110, 1011.223
475.8970, 872.8008
477.0820, 1088.484
478.2680, 945.1055
479.4540, 964.6680
480.6390, 1083.170
481.8240, 1083.133
483.0090, 1049.088
484.1940, 1316.332
485.3780, 1226.609
486.5630, 1448.834
487.7470, 1466.988
488.9320, 1296.127
490.1160, 1439.201
491.3000, 1460.227
492.4830, 1265.203
493.6670, 1588.137
494.8500, 1816.025
496.0340, 1425.871
497.2170, 1785.676
498.4000, 1613.438
499.5820, 1508.158
500.7650, 1313.842
501.9480, 1322.492
503.1300, 1595.107
504.3120, 1369.691
505.4940, 1601.248
506.6760, 1523.781
507.8580, 1251.295
509.0390, 1426.785
510.2210, 1467.258
511.4020, 1460.713
512.5830, 1172.148
513.7640, 1303.572
514.9450, 1340.980
516.1250, 1227.373
517.3060, 1327.754
518.4860, 1113.123
519.6660, 1149.484
520.8460, 1044.834
522.0260, 1058.176
523.2060, 1250.510
524.3850, 1057.836
525.5650, 1224.160
526.7440, 1204.480
527.9230, 1095.795
529.1020, 1230.107
530.2810, 1297.420
531.4590, 1101.740
532.6380, 1269.061
533.8160, 1359.379
534.9940, 1642.709
536.1720, 1564.107
537.3500, 1700.533
538.5270, 1900.014
539.7050, 1896.568
540.8820, 2119.184
542.0590, 2225.871
543.2360, 2581.643
544.4130, 2906.520
545.5900, 3027.492
546.7660, 3598.580
547.9430, 4087.799
549.1190, 4462.139
550.2950, 4938.574
551.4710, 5561.781
552.6470, 5773.166
553.8220, 6270.912
554.9980, 6802.525
556.1730, 6984.318
557.3480, 7429.832
558.5230, 7322.877
559.6980, 7442.012
560.8730, 7236.572
562.0470, 6975.387
563.2220, 6937.391
564.3960, 6440.133
565.5700, 6569.336
566.7440, 6187.633
567.9170, 5742.346
569.0910, 5548.639
570.2640, 5190.492
571.4380, 5102.896
572.6110, 4946.004
573.7840, 4392.883
574.9570, 4390.734
576.1290, 4344.732
577.3020, 4052.209
578.4740, 4173.160
579.6460, 4143.871
580.8180, 3902.457
581.9900, 3900.389
583.1620, 3562.426
584.3330, 3765.117
585.5040, 3790.076
586.6760, 3992.672
587.8470, 3760.637
589.0180, 4556.680
590.1880, 3929.885
591.3590, 4099.176
592.5290, 4006.824
593.7000, 3745.967
594.8700, 3745.209
596.0400, 3710.381
597.2090, 3671.402
598.3790, 3702.457
599.5490, 3751.527
600.7180, 3553.096
601.8870, 3612.975
603.0560, 3517.170
604.2250, 3571.609
605.3940, 3298.707
606.5620, 3541.035
607.7300, 3488.834
608.8990, 3644.152
610.0670, 3571.119
611.2350, 3598.170
612.4020, 3840.303
613.5700, 3894.520
614.7370, 4093.820
615.9050, 4202.209
617.0720, 4111.684
618.2390, 4390.242
619.4060, 4450.891
620.5720, 4587.621
621.7390, 4840.441
622.9050, 5102.350
624.0710, 5380.346
625.2370, 5908.430
626.4030, 6530.602
627.5690, 6575.865
628.7340, 6981.215
629.9000, 7121.658
631.0650, 7647.186
632.2300, 7217.809
633.3950, 8254.520
634.5600, 8236.320
635.7240, 9113.211
636.8890, 9671.195
638.0530, 10418.27
639.2170, 11404.05
640.3810, 12413.70
641.5450, 13810.05
642.7080, 15271.49
643.8720, 17367.03
645.0350, 19236.66
646.1980, 21480.39
647.3610, 23985.20
648.5240, 26641.11
649.6870, 29834.11
650.8490, 32180.20
652.0120, 34576.39
653.1740, 35695.68
654.3360, 35802.05
655.4980, 34791.52
656.6600, 32957.09
657.8210, 30464.75
658.9830, 27761.50
660.1440, 25042.35
661.3050, 22504.29
662.4660, 20133.32
663.6270, 18323.46
664.7870, 16844.68
665.9480, 15413.89
667.1080, 14526.41
668.2680, 13522.91
669.4280, 13138.51
670.5880, 12798.55
671.7480, 12249.33
672.9070, 12298.21
674.0670, 12075.25
675.2260, 12207.29
676.3850, 12120.54
677.5440, 11994.59
678.7030, 12542.68
679.8610, 12877.84
681.0200, 13047.90
682.1780, 13415.50
683.3360, 13806.94
684.4940, 14162.04
685.6520, 14311.69
686.8090, 14952.52
687.9670, 15375.58
689.1240, 15611.92
690.2810, 15123.98
691.4380, 15825.56
692.5950, 15645.12
693.7520, 15545.78
694.9080, 15712.92
696.0650, 16029.44
697.2210, 15895.58
698.3770, 16266.15
699.5330, 15636.09
700.6880, 16334.64
701.8440, 15810.12
702.9990, 15730.04
704.1550, 15636.42
705.3100, 16269.08
706.4650, 15969.11
707.6190, 16172.66
708.7740, 16430.03
709.9290, 16488.50
711.0830, 16562.62
712.2370, 16621.89
713.3910, 16552.75
714.5450, 16562.55
715.6980, 16537.05
716.8520, 16093.24
718.0050, 15551.61
719.1580, 15116.10
720.3110, 14718.77
721.4640, 13789.63
722.6170, 13363.70
723.7700, 12619.92
724.9220, 12080.36
726.0740, 11523.92
727.2260, 10921.63
728.3780, 10691.48
729.5300, 9762.504
730.6810, 9303.660
731.8330, 9109.008
732.9840, 8434.480
734.1350, 8168.088
735.2860, 7755.848
736.4370, 7698.738
737.5880, 7344.754
738.7380, 6911.877
739.8880, 6505.084
741.0390, 6306.334
742.1890, 6128.625
743.3380, 5857.764
744.4880, 5930.320
745.6380, 5450.723
746.7870, 5270.156
747.9360, 5065.621
749.0850, 5147.121
750.2340, 4820.648
751.3830, 4749.207
752.5310, 4591.793
753.6800, 4454.029
754.8280, 4500.055
755.9760, 4332.727
757.1240, 4181.426
758.2720, 4254.154
759.4190, 4274.908
760.5670, 3929.688
761.7140, 4167.494
762.8610, 3689.328
764.0080, 3675.186
765.1550, 3618.068
766.3020, 3607.977
767.4480, 3422.908
768.5950, 3281.863
769.7410, 3195.844
770.8870, 2963.846
772.0330, 2845.867
773.1780, 2881.912
774.3240, 2582.977
775.4690, 2372.062
776.6140, 2338.164
777.7590, 2312.287
778.9040, 2191.430
780.0490, 2221.588
781.1940, 1988.764
782.3380, 1823.957
783.4820, 1857.164
784.6260, 1573.389
785.7700, 1573.629
786.9140, 1498.881
788.0580, 1397.148
789.2010, 1503.428
790.3450, 1234.721
791.4880, 1056.023
792.6310, 1200.338
793.7730, 1106.664
794.9160, 968.0020
796.0590, 942.3457
797.2010, 916.6992
798.3430, 743.0625
799.4850, 598.4336
800.6270, 504.8086
801.7690, 511.1953
802.9100, 301.5840
804.0520, 386.9805
805.1930, 298.3828
806.3340, 212.7891
807.4750, 0.8027340
808.6160, 67.59961
809.7560, 116.0039
810.8970, 18.41211
812.0370, 248.1855
813.1770, 77.91602
814.3170, 157.6953
815.4570, 232.5664
816.5960, 196.5684
817.7360, 205.6895
818.8750, 272.9297
820.0140, 297.3340
821.1530, 302.9141
822.2920, 338.4980
823.4310, 416.6406
824.5690, 351.8516
825.7070, 272.2793
826.8460, 231.8770
827.9840, 315.6309
829.1220, 199.5859
830.2590, 308.6816
831.3970, 439.9785
832.5340, 346.5469
833.6710, 311.3379
834.8080, 381.8770
835.9450, 374.5801
837.0820, 429.0684
838.2190, 392.8301
839.3550, 348.8438
840.4910, 449.0918
841.6270, 84.62695
842.7630, 215.2598
843.8990, 269.0586
845.0350, 25.94922
846.1700, 24.08984
847.3060, 51.19336
848.4410, 74.38477
849.5760, 4.671875
850.7100, 59.44922
851.8450, 45.59766
852.9800, 201.1777
854.1140, 290.7461
855.2480, 188.2988
856.3820, 587.8340
857.5160, 407.3535
858.6500, 330.8555
859.7830, 553.3398
860.9170, 661.8047
862.0500, 603.2500
863.1830, 798.6719
864.3160, 1008.076
865.4480, 992.4551
866.5810, 1015.816
867.7130, 1017.150
868.8460, 1086.461
869.9780, 1373.746
871.1100, 1319.012
872.2410, 1657.250
873.3730, 1815.461
874.5050, 1897.648
875.6360, 2058.809
876.7670, 2134.941
877.8980, 2225.045
879.0290, 2316.225
880.1590, 2332.176
881.2900, 2428.199
882.4200, 2672.193
883.5500, 2683.160
884.6800, 2915.096
885.8100, 2989.004
886.9400, 3116.883
888.0690, 3134.771
889.1990, 3236.732
890.3280, 3331.680
891.4570, 3571.596
892.5860, 3661.295
893.7140, 3803.740
894.8430, 3956.379
895.9710, 3966.354
897.1000, 4133.373
898.2280, 4231.555
899.3560, 4390.436
900.4830, 4528.508
901.6110, 4642.805
902.7380, 4912.846
903.8660, 4900.623
904.9930, 5362.611
906.1200, 5411.570
907.2460, 5698.508
908.3730, 5744.420
909.5000, 5987.301
910.6260, 6315.148
911.7520, 6350.971
912.8780, 6508.775
914.0040, 6618.559
915.1290, 6982.312
916.2550, 7020.037
917.3800, 7334.730
918.5050, 7488.391
919.6300, 7712.027
920.7550, 7964.449
921.8800, 8241.184
923.0040, 8383.986
924.1290, 8349.262
925.2530, 8418.748
926.3770, 8421.199
927.5010, 8642.625
928.6250, 8622.020
929.7480, 8668.400
930.8720, 8920.746
931.9950, 8815.090
933.1180, 8783.408
934.2410, 8975.707
935.3640, 9069.977
936.4860, 8864.234
937.6090, 8760.465
938.7310, 8900.664
939.8530, 8714.842
940.9750, 8763.006
942.0970, 8735.158
943.2180, 8713.953
944.3400, 8768.072
945.4610, 8762.057
946.5820, 8853.133
947.7030, 8785.178
948.8240, 8819.074
949.9450, 8798.242
951.0650, 8898.441
952.1860, 8668.629
953.3060, 8291.977
954.4260, 7865.848
955.5460, 7512.936
956.6650, 7163.428
957.7850, 6779.445
958.9040, 6418.334
960.0230, 6008.066
961.1420, 5677.580
962.2610, 5084.498
963.3800, 4747.963
964.4990, 4338.518
965.6170, 4395.033
966.7350, 4037.186
967.8530, 3689.033
968.9710, 3623.943
970.0890, 3177.312
971.2070, 3165.992
972.3240, 2833.182
973.4410, 2903.521
974.5580, 2749.506
975.6750, 2534.105
976.7920, 2367.482
977.9090, 2450.574
979.0250, 2347.203
980.1410, 2157.090
981.2580, 2183.945
982.3740, 2070.025
983.4890, 2105.584
984.6050, 1994.453
985.7200, 2177.535
986.8360, 2233.039
987.9510, 2266.984
989.0660, 2184.943
990.1810, 2115.906
991.2950, 2313.883
992.4100, 2199.863
993.5240, 2535.855
994.6390, 2462.857
995.7530, 2587.871
996.8660, 2707.893
997.9800, 2766.945
999.0940, 2879.969
1000.207, 3008.023
1001.320, 3173.088
1002.433, 3322.164
1003.546, 3262.250
1004.659, 3487.346
1005.772, 3663.779
1006.884, 3916.891
1007.996, 4269.016
1009.108, 4584.150
1010.220, 4706.396
1011.332, 4854.551
1012.444, 5219.906
1013.555, 5474.082
1014.666, 5726.270
1015.777, 6152.346
1016.888, 6682.670
1017.999, 6944.885
1019.110, 7429.113
1020.220, 7772.348
1021.331, 8222.539
1022.441, 8416.498
1023.551, 9161.469
1024.661, 9346.742
1025.770, 9756.027
1026.880, 9919.533
1027.989, 10325.87
1029.098, 10472.23
1030.207, 10575.38
1031.316, 10597.92
1032.425, 10509.68
1033.533, 10381.35
1034.642, 10136.38
1035.750, 9746.975
1036.858, 9277.424
1037.966, 8724.617
1039.073, 8288.258
1040.181, 7607.314
1041.288, 7231.902
1042.396, 7004.473
1043.503, 6299.104
1044.610, 6094.781
1045.716, 5694.539
1046.823, 5269.506
1047.929, 4865.912
1049.036, 4698.340
1050.142, 4423.141
1051.248, 4108.707
1052.353, 3871.479
1053.459, 3629.402
1054.564, 3532.143
1055.670, 3335.877
1056.775, 3131.854
1057.880, 3242.375
1058.985, 2879.119
1060.089, 2929.982
1061.194, 2861.770
1062.298, 2574.900
1063.402, 2722.742
1064.506, 2584.783
1065.610, 2627.643
1066.713, 2305.668
1067.817, 2609.141
1068.920, 2594.045
1070.023, 2348.658
1071.126, 2583.559
1072.229, 2516.727
1073.332, 2464.230
1074.435, 2464.547
1075.537, 2445.406
1076.639, 2368.010
1077.741, 2383.068
1078.843, 2499.090
1079.945, 2313.080
1081.046, 2429.207
1082.148, 2371.297
1083.249, 2372.219
1084.350, 2742.691
1085.451, 2456.791
1086.551, 2478.865
1087.652, 2606.143
1088.752, 2185.195
1089.853, 2644.797
1090.953, 2529.684
1092.053, 2550.383
1093.152, 2469.805
1094.252, 2566.188
1095.351, 2839.293
1096.451, 2846.975
1097.550, 2601.723
1098.649, 2448.609
1099.748, 2324.521
1100.846, 2239.645
1101.945, 2054.959
1103.043, 1970.883
1104.141, 1814.402
1105.239, 1743.975
1106.337, 1652.668
1107.434, 1490.346
1108.532, 1433.285
1109.629, 1457.131
1110.726, 1300.031
1111.823, 1168.412
1112.920, 1100.117
1114.017, 867.2930
1115.113, 775.6953
1116.210, 682.6973
1117.306, 788.3965
1118.402, 626.7949
1119.498, 744.9102
1120.593, 947.5840
1121.689, 799.0215
1122.784, 723.2734
1123.879, 692.5312
1124.974, 505.4355
1126.069, 471.8379
1127.164, 491.4082
1128.259, 365.6328
1129.353, 415.6875
1130.447, 308.9414
1131.541, 326.8574
1132.635, 290.4629
1133.729, 135.6445
1134.822, 100.9277
1135.916, 195.0977
1137.009, 15.75391
1138.102, 124.3828
1139.195, 279.5039
1140.288, 151.0078
1141.380, 0.1074220
1142.473, 131.3848
1143.565, 2.751953
1144.657, 155.3066
1145.749, 184.4473
1146.841, 127.7695
1147.932, 202.0703
1149.024, 191.5820
1150.115, 65.04883
1151.206, 233.0547
1152.297, 137.8379
1153.388, 387.3086
1154.479, 51.17773
1155.569, 137.0430
1156.659, 185.1152
1157.750, 325.6113
1158.839, 114.0293
1159.929, 192.5605
1161.019, 283.3223
1162.108, 28.80078
1163.198, 401.7676
1164.287, 96.28906
1165.376, 84.80664
1166.465, 57.63867
1167.553, 45.26367
1168.642, 20.13086
1169.730, 33.97656
1170.818, 15.47266
1171.906, 54.03516
1172.994, 62.61719
1174.082, 52.08789
1175.170, 43.92188
1176.257, 20.56836
1177.344, 22.66016
1178.431, 122.4297
1179.518, 122.4258
1180.605, 36.47852
1181.691, 98.07812
1182.778, 52.32617
1183.864, 27.09180
1184.950, 68.59766
1186.036, 73.84375
1187.122, 31.99023
1188.207, 133.1074
1189.292, 83.57031
1190.378, 59.63672
1191.463, 80.69531
1192.548, 24.27344
1193.632, 75.68359
1194.717, 52.38672
1195.801, 16.32617
1196.886, 2.044922
1197.970, 178.3281
1199.054, 45.59570
1200.137, 152.0664
1201.221, 86.70703
1202.305, 18.53320
1203.388, 18.90234
1204.471, 30.75781
1205.554, 10.03516
1206.637, 39.53711
1207.719, 78.68164
1208.802, 85.76172
1209.884, 94.53906
1210.966, 87.47070
1212.048, 98.96094
1213.130, 85.15625
1214.212, 121.3164
1215.293, 146.4434
1216.374, 168.9902
1217.456, 143.6074
1218.536, 220.0938
1219.617, 114.8926
1220.698, 93.85742
1221.778, 149.7852
1222.859, 252.6738
1223.939, 220.2090
1225.019, 124.2129
1226.099, 320.3945
1227.178, 376.3281
1228.258, 120.4473
1229.337, 98.13281
1230.417, 27.26758
1231.496, 55.63086
1232.574, 264.4062
1233.653, 158.2988
1234.732, 364.4492
1235.810, 279.0430
1236.888, 36.33984
1237.966, 401.1914
1239.044, 117.0000
1240.122, 144.7559
1241.199, 173.4629
1242.277, 155.1270
1243.354, 340.7383
1244.431, 101.5645
1245.508, 325.5117
1246.585, 247.9824
1247.661, 264.8438
1248.738, 238.4453
1249.814, 317.7715
1250.890, 259.1309
1251.966, 429.5586
1253.042, 300.8672
1254.117, 162.5605
1255.193, 270.8691
1256.268, 231.2891
1257.343, 365.7891
1258.418, 146.7344
1259.493, 304.6250
1260.567, 163.6934
1261.642, 219.9043
1262.716, 351.6426
1263.790, 130.6680
1264.864, 321.5703
1265.938, 402.1543
1267.011, 394.3672
1268.085, 328.8574
1269.158, 234.4258
1270.231, 361.8164
1271.304, 284.2070
1272.377, 167.6211
1273.450, 333.1836
1274.522, 310.5547
1275.594, 268.7109
1276.666, 498.1016
1277.738, 415.4824
1278.810, 296.3867
1279.882, 407.5781
1280.953, 315.5762
1282.025, 341.2969
1283.096, 446.4043
1284.167, 291.5605
1285.238, 334.2969
1286.308, 169.9648
1287.379, 140.6230
1288.449, 241.1582
1289.519, 371.0254
1290.589, 355.6660
1291.659, 262.8750
1292.729, 305.8457
1293.798, 308.1816
1294.868, 281.0977
1295.937, 261.7207
1297.006, 385.1074
1298.075, 110.8633
1299.143, 301.3984
1300.212, 370.9746
1301.280, 219.6973
1302.348, 285.7422
1303.416, 203.4512
1304.484, 170.4844
1305.552, 115.9863
1306.620, 82.83398
1307.687, 93.02539
1308.754, 81.79492
1309.821, 162.1074
1310.888, 257.6348
