##NAMES=Laverovite
##RRUFFID=R060216
##IDEAL CHEMISTRY=K_2_NaMn^2+^_7_Zr^4+^_2_(Si_4_O_12_)_2_O_2_(OH)_4_F
##LOCALITY=Desourdy Quarry, Mont Saint-Hilaire, Rouville County, Quebec, Canada
##OWNER=RRUFF
##SOURCE=Royal Ontario Museum
##DESCRIPTION=Brown fragment showing lamellar habit. Type sample
##STATUS=The identification of this mineral has been confirmed by X-ray diffraction and chemical analysis
##URL=rruff.info/R060216
##MEASURED CHEMISTRY=(K_1.74_Na_0.18_[box]_0.08_)_Σ=2_(Na_0.92_Ca_0.08_)_Σ=1_(Mn_4.09_Fe^2+^_2.67_Mg_0.24_)_Σ=7_(Zr_1.42_Ti_0.58_)_Σ=2_(Si_7.86_Al_0.14_)_Σ=8_O_26_((OH)_3.14_O_0.86_)_Σ=4_
##PIN_ID=L00627
##ORIENTATION=Laser parallel to (1 0 1). Fiducial mark perpendicular to laser is parallel to b [0 1 0]
217.3660, 0.0000000E+00
218.5850, 47.21875
219.8030, 209.8379
221.0220, 312.0254
222.2400, 5.058594
223.4590, 420.7656
224.6770, 503.9902
225.8950, 517.0059
227.1120, 232.1836
228.3300, 399.9551
229.5480, 383.1543
230.7650, 341.5957
231.9820, 424.9844
233.1990, 520.3613
234.4160, 286.4648
235.6330, 603.7129
236.8490, 430.3027
238.0660, 485.9570
239.2820, 439.8164
240.4980, 329.3926
241.7140, 442.1738
242.9300, 29.59961
244.1460, 146.7480
245.3610, 45.63281
246.5770, 280.5645
247.7920, 305.4434
249.0070, 255.9668
250.2220, 208.7129
251.4370, 159.4199
252.6510, 271.5039
253.8660, 332.6250
255.0800, 342.6680
256.2940, 155.3281
257.5080, 221.8203
258.7220, 186.4395
259.9360, 146.8418
261.1490, 249.0137
262.3630, 89.80078
263.5760, 189.5898
264.7890, 185.8809
266.0020, 229.4785
267.2150, 170.6113
268.4270, 49.20898
269.6400, 393.9297
270.8520, 97.83398
272.0640, 126.4395
273.2760, 218.2051
274.4880, 257.4160
275.7000, 263.9531
276.9120, 478.5625
278.1230, 342.9785
279.3340, 87.02148
280.5450, 96.66016
281.7560, 160.8555
282.9670, 343.6211
284.1780, 284.9785
285.3880, 362.9355
286.5980, 368.5176
287.8090, 523.7422
289.0190, 297.6250
290.2290, 514.2656
291.4380, 592.8965
292.6480, 403.4785
293.8570, 543.9922
295.0670, 436.4375
296.2760, 485.8027
297.4850, 551.0996
298.6930, 539.2871
299.9020, 609.0410
301.1110, 519.3164
302.3190, 633.1465
303.5270, 674.8086
304.7350, 536.2871
305.9430, 702.6152
307.1510, 826.7832
308.3580, 824.8008
309.5660, 777.6758
310.7730, 870.3965
311.9800, 883.6367
313.1870, 695.6328
314.3940, 866.7422
315.6010, 892.8242
316.8070, 955.1016
318.0130, 1077.865
319.2200, 908.1895
320.4260, 742.6699
321.6310, 897.7832
322.8370, 1004.332
324.0430, 1042.334
325.2480, 904.2910
326.4540, 1022.068
327.6590, 1035.465
328.8640, 1039.723
330.0680, 1181.939
331.2730, 1064.137
332.4780, 1200.410
333.6820, 1242.619
334.8860, 1338.830
336.0900, 1321.701
337.2940, 1322.705
338.4980, 1417.771
339.7010, 1458.420
340.9050, 1408.559
342.1080, 1475.371
343.3110, 1331.523
344.5140, 1370.936
345.7170, 1489.631
346.9200, 1442.266
348.1220, 1508.930
349.3240, 1532.055
350.5270, 1358.031
351.7290, 1526.855
352.9310, 1547.186
354.1320, 1639.299
355.3340, 1515.656
356.5350, 1497.383
357.7370, 1618.449
358.9380, 1548.379
360.1390, 1502.039
361.3400, 1602.016
362.5400, 1432.039
363.7410, 1542.955
364.9410, 1750.045
366.1410, 1347.504
367.3410, 1276.260
368.5410, 1451.934
369.7410, 1386.131
370.9400, 1306.082
372.1400, 1500.803
373.3390, 1358.312
374.5380, 1327.615
375.7370, 1304.678
376.9360, 1247.291
378.1350, 1390.689
379.3330, 1160.801
380.5310, 1229.801
381.7300, 1018.625
382.9280, 904.2812
384.1260, 1073.779
385.3230, 1026.080
386.5210, 1004.271
387.7180, 853.7949
388.9160, 737.5352
390.1130, 894.1133
391.3100, 820.8906
392.5060, 839.0469
393.7030, 809.1797
394.9000, 786.0234
396.0960, 764.6328
397.2920, 749.3555
398.4880, 733.8652
399.6840, 704.4570
400.8800, 762.8438
402.0750, 659.7559
403.2710, 597.3809
404.4660, 365.6348
405.6610, 484.5195
406.8560, 355.0898
408.0510, 317.0879
409.2450, 323.9727
410.4400, 287.5977
411.6340, 198.7910
412.8280, 248.8574
414.0220, 283.0293
415.2160, 213.3965
416.4100, 318.4609
417.6030, 187.7188
418.7970, 82.07031
419.9900, 111.3691
421.1830, 59.28711
422.3760, 138.7422
423.5690, 113.6699
424.7610, 25.89453
425.9540, 128.5352
427.1460, 15.14648
428.3380, 45.83984
429.5300, 57.82031
430.7220, 127.0781
431.9140, 57.56445
433.1050, 90.63477
434.2970, 127.3242
435.4880, 22.30078
436.6790, 178.8770
437.8700, 76.28906
439.0610, 77.28516
440.2510, 30.93359
441.4420, 87.15234
442.6320, 111.7949
443.8220, 34.00781
445.0120, 13.06250
446.2020, 81.37891
447.3910, 32.47266
448.5810, 193.2012
449.7700, 170.1484
450.9600, 155.8633
452.1490, 125.1309
453.3370, 73.99414
454.5260, 59.81055
455.7150, 69.57812
456.9030, 146.8613
458.0910, 174.8184
459.2800, 5.908203
460.4670, 91.10352
461.6550, 74.39648
462.8430, 53.44922
464.0300, 174.2500
465.2180, 33.62109
466.4050, 151.9043
467.5920, 166.7129
468.7790, 228.7031
469.9650, 188.0527
471.1520, 178.9180
472.3380, 272.1738
473.5250, 308.5664
474.7110, 255.6367
475.8970, 319.9121
477.0820, 174.4902
478.2680, 181.1016
479.4540, 199.6738
480.6390, 111.1953
481.8240, 218.7031
483.0090, 270.2617
484.1940, 200.6562
485.3780, 344.1113
486.5630, 386.6973
487.7470, 121.7852
488.9320, 370.4336
490.1160, 70.86523
491.3000, 43.29492
492.4830, 246.7168
493.6670, 121.1348
494.8500, 8.552734
496.0340, 129.9648
497.2170, 14.36719
498.4000, 135.7852
499.5820, 13.19141
500.7650, 38.59570
501.9480, 146.9980
503.1300, 17.40039
504.3120, 27.80078
505.4940, 10.16016
506.6760, 159.4746
507.8580, 22.24219
509.0390, 51.99805
510.2210, 6.783203
511.4020, 134.3984
512.5830, 65.55078
513.7640, 68.67188
514.9450, 7.765625
516.1250, 25.83008
517.3060, 52.12891
518.4860, 77.87305
519.6660, 64.85352
520.8460, 6.810547
522.0260, 33.74805
523.2060, 269.6660
524.3850, 101.5625
525.5650, 263.4453
526.7440, 228.3105
527.9230, 335.1582
529.1020, 197.9922
530.2810, 201.8203
531.4590, 386.6445
532.6380, 510.4805
533.8160, 651.3184
534.9940, 618.1523
536.1720, 509.0020
537.3500, 496.8496
538.5270, 699.7031
539.7050, 640.6016
540.8820, 756.5430
542.0590, 785.5000
543.2360, 878.5039
544.4130, 1140.535
545.5900, 1115.625
546.7660, 1070.340
547.9430, 1450.566
549.1190, 1430.365
550.2950, 1345.074
551.4710, 1585.881
552.6470, 1432.561
553.8220, 1503.715
554.9980, 1677.406
556.1730, 1841.320
557.3480, 1726.883
558.5230, 1879.203
559.6980, 1781.857
560.8730, 1876.355
562.0470, 2022.420
563.2220, 2048.664
564.3960, 2357.211
565.5700, 2345.947
566.7440, 2327.064
567.9170, 2153.291
569.0910, 2156.451
570.2640, 1989.742
571.4380, 1909.375
572.6110, 2132.748
573.7840, 2209.562
574.9570, 2150.387
576.1290, 2290.992
577.3020, 2455.275
578.4740, 2380.021
579.6460, 2230.896
580.8180, 2395.004
581.9900, 2118.111
583.1620, 2229.787
584.3330, 2493.012
585.5040, 2146.223
586.6760, 2375.844
587.8470, 2149.283
589.0180, 2354.896
590.1880, 2395.525
591.3590, 2404.707
592.5290, 2337.898
593.7000, 2553.131
594.8700, 2400.686
596.0400, 2627.246
597.2090, 2474.387
598.3790, 2487.150
599.5490, 2697.070
600.7180, 2535.232
601.8870, 2573.795
603.0560, 2874.271
604.2250, 2872.617
605.3940, 2793.744
606.5620, 2701.980
607.7300, 2812.682
608.8990, 3260.330
610.0670, 3040.863
611.2350, 3149.275
612.4020, 3304.701
613.5700, 3185.322
614.7370, 3351.975
615.9050, 3437.654
617.0720, 3406.361
618.2390, 3504.025
619.4060, 3558.771
620.5720, 3772.570
621.7390, 3935.135
622.9050, 3936.992
624.0710, 3686.883
625.2370, 4022.803
626.4030, 4525.758
627.5690, 4259.742
628.7340, 4637.695
629.9000, 4753.746
631.0650, 4746.602
632.2300, 4854.400
633.3950, 5383.547
634.5600, 5336.727
635.7240, 5620.557
636.8890, 5845.805
638.0530, 6061.771
639.2170, 6435.086
640.3810, 6591.168
641.5450, 7133.418
642.7080, 7146.832
643.8720, 7140.109
645.0350, 7565.490
646.1980, 7968.855
647.3610, 8135.412
648.5240, 8424.424
649.6870, 8379.051
650.8490, 8622.482
652.0120, 9039.184
653.1740, 8572.920
654.3360, 8662.689
655.4980, 8265.494
656.6600, 8260.344
657.8210, 7889.109
658.9830, 7816.033
660.1440, 7442.996
661.3050, 7174.986
662.4660, 6969.025
663.6270, 6466.105
664.7870, 6392.223
665.9480, 6052.383
667.1080, 5963.580
668.2680, 5850.818
669.4280, 5673.098
670.5880, 5475.996
671.7480, 5456.824
672.9070, 5126.875
674.0670, 5343.176
675.2260, 5629.697
676.3850, 5352.164
677.5440, 5014.480
678.7030, 5273.281
679.8610, 4815.629
681.0200, 4780.080
682.1780, 4745.629
683.3360, 4707.041
684.4940, 4635.545
685.6520, 4547.371
686.8090, 4606.391
687.9670, 4642.863
689.1240, 4691.141
690.2810, 4579.004
691.4380, 4682.480
692.5950, 4568.369
693.7520, 4630.336
694.9080, 4586.830
696.0650, 4640.322
697.2210, 4464.791
698.3770, 4581.621
699.5330, 4474.057
700.6880, 4680.715
701.8440, 4195.838
702.9990, 4281.090
704.1550, 4302.104
705.3100, 4314.627
706.4650, 4178.197
707.6190, 4275.852
708.7740, 4350.559
709.9290, 4191.312
711.0830, 3971.105
712.2370, 4051.984
713.3910, 3802.926
714.5450, 4021.941
715.6980, 3917.045
716.8520, 3719.201
718.0050, 3823.455
719.1580, 3636.779
720.3110, 3828.174
721.4640, 3559.629
722.6170, 3489.152
723.7700, 3497.756
724.9220, 3277.416
726.0740, 3188.129
727.2260, 3255.912
728.3780, 2908.750
729.5300, 2980.689
730.6810, 3077.715
731.8330, 3146.834
732.9840, 3095.621
734.1350, 3098.295
735.2860, 2905.619
736.4370, 2858.980
737.5880, 2667.379
738.7380, 2665.809
739.8880, 2631.277
741.0390, 2479.783
742.1890, 2693.328
743.3380, 2611.908
744.4880, 2452.521
745.6380, 2116.170
746.7870, 2546.855
747.9360, 2475.574
749.0850, 2187.322
750.2340, 2203.107
751.3830, 2229.926
752.5310, 1932.773
753.6800, 1959.656
754.8280, 2002.570
755.9760, 2185.518
757.1240, 2131.496
758.2720, 1876.510
759.4190, 2257.559
760.5670, 2100.641
761.7140, 1820.758
762.8610, 2102.906
764.0080, 1924.094
765.1550, 1868.309
766.3020, 1861.562
767.4480, 1874.846
768.5950, 1760.164
769.7410, 1750.518
770.8870, 1722.908
772.0330, 1640.271
773.1780, 1758.789
774.3240, 1565.281
775.4690, 1533.811
776.6140, 1610.377
777.7590, 1412.975
778.9040, 1517.609
780.0490, 1099.279
781.1940, 1183.984
782.3380, 1006.723
783.4820, 1018.498
784.6260, 1028.311
785.7700, 1018.158
786.9140, 972.0449
788.0580, 1016.965
789.2010, 941.5859
790.3450, 700.9160
791.4880, 810.9473
792.6310, 581.0098
793.7730, 467.1113
794.9160, 456.2461
796.0590, 570.4238
797.2010, 264.6367
798.3430, 396.8848
799.4850, 372.1680
800.6270, 193.4883
801.7690, 181.8438
802.9100, 129.2344
804.0520, 246.6602
805.1930, 322.1230
806.3340, 173.6211
807.4750, 2.154297
808.6160, 17.28906
809.7560, 20.71484
810.8970, 3.125000
812.0370, 68.51562
813.1770, 3.910156
814.3170, 0.7187500
815.4570, 201.6328
816.5960, 192.0508
817.7360, 80.52734
818.8750, 175.0176
820.0140, 134.5605
821.1530, 227.1406
822.2920, 268.8008
823.4310, 288.5586
824.5690, 94.42773
825.7070, 219.3105
826.8460, 229.2695
827.9840, 11.31250
829.1220, 136.3379
830.2590, 247.3984
831.3970, 274.5508
832.5340, 29.80469
833.6710, 478.0488
834.8080, 35.49414
835.9450, 271.9336
837.0820, 275.4746
838.2190, 247.1152
839.3550, 21.84570
840.4910, 37.26172
841.6270, 53.72852
842.7630, 90.05273
843.8990, 38.41211
845.0350, 96.80664
846.1700, 86.23633
847.3060, 25.70117
848.4410, 81.19727
849.5760, 315.7305
850.7100, 264.2969
851.8450, 31.89648
852.9800, 355.5293
854.1140, 592.1973
855.2480, 331.8984
856.3820, 526.6348
857.5160, 779.4023
858.6500, 426.2051
859.7830, 439.0391
860.9170, 618.9062
862.0500, 558.8086
863.1830, 474.7422
864.3160, 906.7070
865.4480, 956.7051
866.5810, 865.7363
867.7130, 1220.799
868.8460, 1169.896
869.9780, 1410.021
871.1100, 1417.291
872.2410, 1016.371
873.3730, 1358.590
874.5050, 1543.842
875.6360, 1461.127
876.7670, 1759.445
877.8980, 1648.801
879.0290, 1664.188
880.1590, 1767.605
881.2900, 1770.100
882.4200, 1843.625
883.5500, 1972.180
884.6800, 1848.770
885.8100, 1973.395
886.9400, 1913.086
888.0690, 2063.834
889.1990, 2061.641
890.3280, 2208.500
891.4570, 2332.418
892.5860, 2544.371
893.7140, 2626.445
894.8430, 2701.809
895.9710, 2809.660
897.1000, 2805.852
898.2280, 2845.084
899.3560, 2951.352
900.4830, 3104.662
901.6110, 3141.395
902.7380, 3134.400
903.8660, 3257.852
904.9930, 3242.367
906.1200, 3252.939
907.2460, 3506.570
908.3730, 3626.273
909.5000, 3548.008
910.6260, 3612.775
911.7520, 3643.574
912.8780, 3664.064
914.0040, 3607.359
915.1290, 3759.346
916.2550, 3912.367
917.3800, 3958.426
918.5050, 4152.543
919.6300, 4321.688
920.7550, 4088.900
921.8800, 4072.184
923.0040, 4207.533
924.1290, 4165.947
925.2530, 4215.412
926.3770, 4337.912
927.5010, 4282.443
928.6250, 4524.004
929.7480, 4710.623
930.8720, 4691.277
931.9950, 4641.963
933.1180, 4980.721
934.2410, 4861.533
935.3640, 4685.379
936.4860, 5009.258
937.6090, 4707.164
938.7310, 5191.105
939.8530, 5044.072
940.9750, 5054.080
942.0970, 5065.121
943.2180, 5032.607
944.3400, 5032.238
945.4610, 5129.717
946.5820, 5341.010
947.7030, 5277.189
948.8240, 5167.520
949.9450, 4988.082
951.0650, 4967.242
952.1860, 4967.924
953.3060, 5071.604
954.4260, 4852.258
955.5460, 5002.115
956.6650, 4795.947
957.7850, 4999.531
958.9040, 4869.986
960.0230, 4849.061
961.1420, 4885.398
962.2610, 4663.230
963.3800, 4738.406
964.4990, 4671.559
965.6170, 4787.393
966.7350, 4506.873
967.8530, 4642.426
968.9710, 4357.070
970.0890, 4810.436
971.2070, 4665.266
972.3240, 4517.945
973.4410, 4775.236
974.5580, 4591.480
975.6750, 4534.035
976.7920, 4808.199
977.9090, 4626.404
979.0250, 4851.641
980.1410, 4768.912
981.2580, 4739.227
982.3740, 4815.580
983.4890, 4910.969
984.6050, 4944.352
985.7200, 5103.844
986.8360, 5049.328
987.9510, 5160.846
989.0660, 5140.406
990.1810, 5301.002
991.2950, 5091.629
992.4100, 5520.285
993.5240, 5362.980
994.6390, 5804.703
995.7530, 5460.461
996.8660, 5416.246
997.9800, 5780.064
999.0940, 5820.918
1000.207, 5676.799
1001.320, 5911.766
1002.433, 5772.703
1003.546, 6461.744
1004.659, 6197.768
1005.772, 6327.758
1006.884, 6120.805
1007.996, 6088.883
1009.108, 6311.115
1010.220, 6349.934
1011.332, 6506.018
1012.444, 6574.273
1013.555, 6502.855
1014.666, 6768.582
1015.777, 6865.879
1016.888, 7019.195
1017.999, 6932.354
1019.110, 6684.166
1020.220, 6742.617
1021.331, 6772.904
1022.441, 6725.887
1023.551, 6954.768
1024.661, 6608.984
1025.770, 6830.059
1026.880, 6634.027
1027.989, 6665.852
1029.098, 6678.516
1030.207, 6559.373
1031.316, 6442.152
1032.425, 6345.379
1033.533, 6091.266
1034.642, 5788.922
1035.750, 5648.664
1036.858, 5733.305
1037.966, 5201.031
1039.073, 5120.152
1040.181, 5239.242
1041.288, 5031.992
1042.396, 5011.674
1043.503, 4601.250
1044.610, 4617.498
1045.716, 4465.090
1046.823, 4398.926
1047.929, 4265.273
1049.036, 3874.018
1050.142, 4104.324
1051.248, 3709.523
1052.353, 3751.852
1053.459, 3656.650
1054.564, 3775.533
1055.670, 3488.785
1056.775, 3620.443
1057.880, 3195.268
1058.985, 3070.576
1060.089, 3077.316
1061.194, 2983.725
1062.298, 2802.688
1063.402, 3072.354
1064.506, 2760.574
1065.610, 2722.238
1066.713, 2579.201
1067.817, 2420.148
1068.920, 2517.395
1070.023, 2437.242
1071.126, 2499.432
1072.229, 2446.621
1073.332, 2352.719
1074.435, 2224.121
1075.537, 2268.562
1076.639, 1966.377
1077.741, 2145.531
1078.843, 2209.029
1079.945, 1984.041
1081.046, 1789.129
1082.148, 1921.566
1083.249, 1882.416
1084.350, 1887.424
1085.451, 1669.291
1086.551, 1740.223
1087.652, 1778.779
1088.752, 1378.922
1089.853, 1697.885
1090.953, 1510.600
1092.053, 1481.463
1093.152, 1445.654
1094.252, 1307.457
1095.351, 1143.984
1096.451, 1214.008
1097.550, 1310.473
1098.649, 1089.801
1099.748, 996.6855
1100.846, 829.8027
1101.945, 1111.844
1103.043, 885.3730
1104.141, 932.1914
1105.239, 774.1934
1106.337, 752.8613
1107.434, 1006.725
1108.532, 653.0449
1109.629, 782.9922
1110.726, 565.6914
1111.823, 685.6816
1112.920, 544.1543
1114.017, 506.1934
1115.113, 699.8301
1116.210, 546.2871
1117.306, 552.2129
1118.402, 714.3633
1119.498, 920.0879
1120.593, 782.3535
1121.689, 815.4082
1122.784, 737.3125
1123.879, 904.7598
1124.974, 598.5820
1126.069, 641.6211
1127.164, 453.1191
1128.259, 437.2637
1129.353, 242.5898
1130.447, 248.7617
1131.541, 143.4902
1132.635, 62.05859
1133.729, 95.42969
1134.822, 68.36523
1135.916, 113.1250
1137.009, 181.8770
1138.102, 131.7832
1139.195, 173.6816
1140.288, 81.50195
1141.380, 6.376953
1142.473, 13.20703
1143.565, 121.7148
1144.657, 56.62891
1145.749, 147.6211
1146.841, 197.6738
1147.932, 187.7988
1149.024, 0.7265630
1150.115, 56.09180
1151.206, 117.5254
1152.297, 81.17578
1153.388, 90.43555
1154.479, 39.19727
1155.569, 90.55664
1156.659, 52.90820
1157.750, 130.9473
1158.839, 190.7656
1159.929, 8.287109
1161.019, 9.054688
1162.108, 5.466797
1163.198, 14.04883
1164.287, 8.767578
1165.376, 29.19922
1166.465, 35.33008
1167.553, 64.10352
1168.642, 79.98633
1169.730, 68.98242
1170.818, 67.08594
1171.906, 108.1074
1172.994, 53.54297
1174.082, 70.12891
1175.170, 130.6543
1176.257, 52.88281
1177.344, 103.3223
1178.431, 78.53125
1179.518, 69.09570
1180.605, 31.12891
1181.691, 56.90820
1182.778, 142.9375
1183.864, 96.22266
1184.950, 112.5195
1186.036, 69.68945
1187.122, 91.15430
1188.207, 29.20312
1189.292, 47.93555
1190.378, 96.99805
1191.463, 145.9961
1192.548, 60.07227
1193.632, 35.73633
1194.717, 196.4707
1195.801, 116.8574
1196.886, 41.34375
1197.970, 30.05469
1199.054, 194.3750
1200.137, 98.63086
1201.221, 71.81641
1202.305, 208.9297
1203.388, 7.976563
1204.471, 61.20508
1205.554, 152.0859
1206.637, 109.2051
1207.719, 219.9473
1208.802, 60.62305
1209.884, 66.78125
1210.966, 51.32031
1212.048, 28.02930
1213.130, 1.291016
1214.212, 104.4492
1215.293, 60.46484
1216.374, 118.4883
1217.456, 168.3652
1218.536, 269.1738
1219.617, 129.9160
1220.698, 166.5820
1221.778, 375.1777
1222.859, 54.70703
1223.939, 78.15039
1225.019, 240.5156
1226.099, 359.8125
1227.178, 260.0430
1228.258, 125.2031
1229.337, 185.2832
1230.417, 157.2891
1231.496, 84.48242
1232.574, 123.3340
1233.653, 234.1055
1234.732, 201.8008
1235.810, 125.4219
1236.888, 242.9629
1237.966, 164.4297
1239.044, 215.8145
1240.122, 270.1387
1241.199, 197.3750
1242.277, 137.5352
1243.354, 91.61914
1244.431, 263.6133
1245.508, 299.5332
1246.585, 422.3848
1247.661, 360.1641
1248.738, 216.8711
1249.814, 73.50391
1250.890, 166.0469
1251.966, 392.5410
1253.042, 256.1055
1254.117, 184.4531
1255.193, 338.7227
1256.268, 221.9219
1257.343, 299.1738
1258.418, 247.3184
1259.493, 131.2930
1260.567, 374.1816
1261.642, 405.0000
1262.716, 421.6895
1263.790, 321.3711
1264.864, 332.9180
1265.938, 326.4766
1267.011, 280.4766
1268.085, 273.3672
1269.158, 283.1504
1270.231, 109.3730
1271.304, 198.8691
1272.377, 13.04492
1273.450, 115.0332
1274.522, 246.1250
1275.594, 315.9648
1276.666, 345.9180
1277.738, 178.9746
1278.810, 265.3086
1279.882, 250.0684
1280.953, 222.9629
1282.025, 339.7910
1283.096, 194.5547
1284.167, 311.4258
1285.238, 321.4980
1286.308, 385.2207
1287.379, 337.2930
1288.449, 317.0996
1289.519, 411.5332
1290.589, 448.1992
1291.659, 395.7441
1292.729, 461.2754
1293.798, 316.0312
1294.868, 355.8906
1295.937, 471.9297
1297.006, 420.2109
1298.075, 481.6934
1299.143, 500.2656
1300.212, 321.5234
1301.280, 482.9219
1302.348, 503.9238
1303.416, 372.5820
1304.484, 530.5645
1305.552, 306.4863
1306.620, 323.2949
1307.687, 453.5312
1308.754, 469.3262
1309.821, 347.5000
1310.888, 472.7539
1311.955, 320.8008
1313.021, 313.3203
1314.088, 342.7031
1315.154, 263.6582
1316.220, 437.1562
1317.286, 394.4316
1318.352, 476.1680
1319.417, 300.4141
1320.483, 334.9355
1321.548, 379.0176
1322.613, 464.2461
1323.678, 308.7910
1324.743, 292.8379
1325.807, 285.5293
1326.872, 451.1797
1327.936, 446.9668
1329.000, 427.6055
1330.064, 299.2324
1331.128, 367.4219
1332.191, 200.7383
1333.255, 335.7949
1334.318, 190.5625
1335.381, 488.0547
1336.444, 410.4980
1337.507, 518.7793
1338.569, 370.2715
1339.632, 453.3125
1340.694, 370.8086
1341.756, 488.8398
1342.818, 469.0664
1343.880, 282.4004
1344.941, 309.3008
1346.003, 310.7090
1347.064, 437.6387
1348.125, 392.4746
1349.186, 261.5645
1350.247, 359.5234
1351.308, 307.1191
1352.368, 330.8164
1353.428, 303.0742
1354.489, 354.9766
1355.549, 259.2246
1356.608, 237.6094
1357.668, 262.6387
1358.727, 158.0039
1359.787, 355.0332
1360.846, 308.1914
1361.905, 465.0684
1362.964, 402.7656
1364.022, 237.0898
1365.081, 294.8809
1366.139, 289.1680
1367.197, 208.7676
1368.255, 389.5566
1369.313, 338.9941
1370.371, 525.8457
