##NAMES=Laverovite
##RRUFFID=R060216
##IDEAL CHEMISTRY=K_2_NaMn^2+^_7_Zr^4+^_2_(Si_4_O_12_)_2_O_2_(OH)_4_F
##LOCALITY=Desourdy Quarry, Mont Saint-Hilaire, Rouville County, Quebec, Canada
##OWNER=RRUFF
##SOURCE=Royal Ontario Museum
##DESCRIPTION=Brown fragment showing lamellar habit. Type sample
##STATUS=The identification of this mineral has been confirmed by X-ray diffraction and chemical analysis
##URL=rruff.info/R060216
##MEASURED CHEMISTRY=(K_1.74_Na_0.18_[box]_0.08_)_Σ=2_(Na_0.92_Ca_0.08_)_Σ=1_(Mn_4.09_Fe^2+^_2.67_Mg_0.24_)_Σ=7_(Zr_1.42_Ti_0.58_)_Σ=2_(Si_7.86_Al_0.14_)_Σ=8_O_26_((OH)_3.14_O_0.86_)_Σ=4_
##PIN_ID=L01682
##ORIENTATION=Laser parallel to (0 -1 -1). Fiducial mark perpendicular to laser is parallel to a [1 0 0]
159.9080, 0.0000000E+00
161.1340, 36.45312
162.3590, 327.4922
163.5850, 846.0127
164.8110, 1496.319
166.0360, 2088.372
167.2610, 1927.278
168.4860, 2297.521
169.7110, 2457.459
170.9360, 2486.953
172.1610, 2199.796
173.3850, 1744.673
174.6100, 1676.783
175.8340, 1764.547
177.0580, 1548.739
178.2820, 1691.760
179.5050, 1497.947
180.7290, 1607.291
181.9520, 1690.547
183.1760, 1458.556
184.3990, 1837.470
185.6220, 2109.890
186.8450, 2428.312
188.0670, 2328.012
189.2900, 2448.574
190.5120, 2655.526
191.7340, 3018.589
192.9560, 3314.970
194.1780, 3705.090
195.4000, 4854.455
196.6220, 4761.181
197.8430, 4160.486
199.0640, 4702.533
200.2860, 5752.458
201.5070, 7129.365
202.7270, 7018.342
203.9480, 4740.469
205.1690, 1795.807
206.3890, 339.4121
207.6090, 212.6680
208.8290, 231.6895
210.0490, 132.4395
211.2690, 199.8213
212.4890, 135.4795
213.7080, 481.3887
214.9280, 469.9570
216.1470, 581.4473
217.3660, 646.9541
218.5850, 679.4697
219.8030, 1039.055
221.0220, 1200.631
222.2400, 1167.404
223.4590, 1215.757
224.6770, 1314.462
225.8950, 1366.645
227.1120, 1373.346
228.3300, 1296.127
229.5480, 1383.745
230.7650, 1280.470
231.9820, 1293.765
233.1990, 1383.032
234.4160, 1343.376
235.6330, 1294.022
236.8490, 1182.863
238.0660, 1129.900
239.2820, 1246.061
240.4980, 1190.304
241.7140, 1120.604
242.9300, 1174.940
244.1460, 1006.296
245.3610, 1092.648
246.5770, 903.9727
247.7920, 783.2607
249.0070, 670.5049
250.2220, 700.6953
251.4370, 598.8242
252.6510, 400.1846
253.8660, 556.4326
255.0800, 630.7119
256.2940, 627.3799
257.5080, 314.1074
258.7220, 400.4941
259.9360, 326.4746
261.1490, 245.8350
262.3630, 388.1719
263.5760, 119.2539
264.7890, 257.8223
266.0020, 233.5312
267.2150, 270.3945
268.4270, 46.68555
269.6400, 113.8320
270.8520, 173.1641
272.0640, 204.2998
273.2760, 295.5752
274.4880, 47.98926
275.7000, 44.53906
276.9120, 93.22559
278.1230, 61.95215
279.3340, 143.0049
280.5450, 87.09570
281.7560, 112.3203
282.9670, 101.6797
284.1780, 104.7158
285.3880, 81.27051
286.5980, 147.8936
287.8090, 62.99902
289.0190, 27.51270
290.2290, 9.434570
291.4380, 31.81543
292.6480, 145.5049
293.8570, 223.3340
295.0670, 232.2832
296.2760, 319.0625
297.4850, 329.1436
298.6930, 348.1680
299.9020, 547.3721
301.1110, 497.1230
302.3190, 571.6367
303.5270, 709.1855
304.7350, 534.9072
305.9430, 714.4600
307.1510, 667.4521
308.3580, 664.6924
309.5660, 1002.508
310.7730, 1071.588
311.9800, 1093.761
313.1870, 1079.168
314.3940, 1103.994
315.6010, 1284.137
316.8070, 1263.673
318.0130, 1350.872
319.2200, 1348.828
320.4260, 1470.112
321.6310, 1510.130
322.8370, 1593.925
324.0430, 1613.097
325.2480, 1698.037
326.4540, 1831.124
327.6590, 1788.856
328.8640, 2076.660
330.0680, 1813.276
331.2730, 1747.374
332.4780, 1887.611
333.6820, 1816.483
334.8860, 1818.280
336.0900, 1753.836
337.2940, 1738.237
338.4980, 1950.430
339.7010, 1932.443
340.9050, 1882.286
342.1080, 1794.964
343.3110, 1887.484
344.5140, 1949.854
345.7170, 1798.072
346.9200, 1834.148
348.1220, 1866.085
349.3240, 1781.884
350.5270, 1760.550
351.7290, 1803.084
352.9310, 1925.773
354.1320, 1896.262
355.3340, 1934.213
356.5350, 1920.826
357.7370, 2120.697
358.9380, 2176.439
360.1390, 2183.544
361.3400, 2338.961
362.5400, 2219.443
363.7410, 2162.572
364.9410, 2263.392
366.1410, 2386.842
367.3410, 2209.930
368.5410, 2258.744
369.7410, 2169.389
370.9400, 2197.844
372.1400, 2143.213
373.3390, 2136.508
374.5380, 2078.730
375.7370, 2065.891
376.9360, 2115.982
378.1350, 2015.036
379.3330, 2042.956
380.5310, 1873.833
381.7300, 1841.639
382.9280, 1788.367
384.1260, 1809.021
385.3230, 1832.599
386.5210, 1806.102
387.7180, 1767.528
388.9160, 1721.877
390.1130, 1676.150
391.3100, 1591.347
392.5060, 1571.465
393.7030, 1467.509
394.9000, 1346.476
396.0960, 1241.366
397.2920, 1240.972
398.4880, 1250.922
399.6840, 1238.587
400.8800, 1270.179
402.0750, 1200.457
403.2710, 1086.903
404.4660, 1097.064
405.6610, 1009.807
406.8560, 816.0391
408.0510, 693.8916
409.2450, 697.4395
410.4400, 755.8027
411.6340, 568.2471
412.8280, 633.9424
414.0220, 563.3184
415.2160, 491.2432
416.4100, 419.2598
417.6030, 324.4736
418.7970, 204.1553
419.9900, 212.9814
421.1830, 178.6816
422.3760, 20.99902
423.5690, 169.1240
424.7610, 238.7959
425.9540, 229.2900
427.1460, 89.29102
428.3380, 8.237305
429.5300, 76.85059
430.7220, 165.5039
431.9140, 24.53516
433.1050, 57.01855
434.2970, 121.6709
435.4880, 55.13770
436.6790, 57.65430
437.8700, 106.2529
439.0610, 15.51465
440.2510, 138.2500
441.4420, 218.1455
442.6320, 102.2217
443.8220, 252.8721
445.0120, 115.7686
446.2020, 107.8047
447.3910, 217.0449
448.5810, 172.6689
449.7700, 183.2959
450.9600, 93.10645
452.1490, 94.05664
453.3370, 61.86914
454.5260, 13.36914
455.7150, 16.69043
456.9030, 40.11426
458.0910, 30.90234
459.2800, 33.70215
460.4670, 6.971680
461.6550, 48.15430
462.8430, 67.25684
464.0300, 86.27930
465.2180, 104.2246
466.4050, 216.0957
467.5920, 233.8965
468.7790, 160.6289
469.9650, 355.2891
471.1520, 268.8867
472.3380, 293.7988
473.5250, 477.8896
474.7110, 249.3018
475.8970, 339.6553
477.0820, 278.9512
478.2680, 416.1904
479.4540, 279.3750
480.6390, 537.5029
481.8240, 452.5791
483.0090, 382.6016
484.1940, 506.5732
485.3780, 473.4941
486.5630, 507.6943
487.7470, 455.1846
488.9320, 584.9580
490.1160, 476.6826
491.3000, 543.3613
492.4830, 474.9941
493.6670, 623.5820
494.8500, 553.1250
496.0340, 479.6582
497.2170, 596.1885
498.4000, 516.6953
499.5820, 425.1943
500.7650, 482.8027
501.9480, 318.0703
503.1300, 515.4492
504.3120, 498.7910
505.4940, 561.0977
506.6760, 424.3740
507.8580, 442.6172
509.0390, 365.8311
510.2210, 393.0176
511.4020, 297.1787
512.5830, 368.3154
513.7640, 368.4258
514.9450, 292.5137
516.1250, 273.5781
517.3060, 334.6201
518.4860, 263.6387
519.6660, 306.6348
520.8460, 349.6113
522.0260, 228.5654
523.2060, 285.5000
524.3850, 396.4141
525.5650, 246.3086
526.7440, 151.1836
527.9230, 346.0420
529.1020, 553.8809
530.2810, 357.0225
531.4590, 243.5068
532.6380, 303.2930
533.8160, 405.0654
534.9940, 904.8203
536.1720, 928.5771
537.3500, 869.5488
538.5270, 875.0449
539.7050, 576.7842
540.8820, 582.5107
542.0590, 566.2539
543.2360, 728.0332
544.4130, 783.8408
545.5900, 829.6846
546.7660, 891.5469
547.9430, 1033.156
549.1190, 1056.704
550.2950, 1173.399
551.4710, 1201.533
552.6470, 1382.687
553.8220, 1546.326
554.9980, 1691.339
556.1730, 1812.124
557.3480, 2020.823
558.5230, 2071.453
559.6980, 1949.983
560.8730, 1904.592
562.0470, 1985.531
563.2220, 1908.313
564.3960, 1901.894
565.5700, 1934.018
566.7440, 1832.934
567.9170, 1714.987
569.0910, 1637.840
570.2640, 1581.803
571.4380, 1545.581
572.6110, 1523.900
573.7840, 1552.160
574.9570, 1584.702
576.1290, 1493.432
577.3020, 1370.551
578.4740, 1352.629
579.6460, 1302.766
580.8180, 1193.622
581.9900, 1495.999
583.1620, 1468.480
584.3330, 1472.039
585.5040, 1396.905
586.6760, 1409.186
587.8470, 1460.100
589.0180, 1381.297
590.1880, 1532.424
591.3590, 1406.033
592.5290, 1505.455
593.7000, 1444.975
594.8700, 1460.673
596.0400, 1562.577
597.2090, 1454.437
598.3790, 1640.992
599.5490, 1678.293
600.7180, 1779.816
601.8870, 1694.113
603.0560, 1711.882
604.2250, 1740.872
605.3940, 1697.036
606.5620, 1812.318
607.7300, 1887.113
608.8990, 1993.027
610.0670, 2011.802
611.2350, 2051.086
612.4020, 2053.286
613.5700, 2054.636
614.7370, 2120.113
615.9050, 2169.372
617.0720, 2062.830
618.2390, 2354.041
619.4060, 2563.422
620.5720, 2695.200
621.7390, 2517.414
622.9050, 2739.484
624.0710, 2801.301
625.2370, 2856.586
626.4030, 3135.017
627.5690, 3002.327
628.7340, 3277.187
629.9000, 3389.451
631.0650, 3576.126
632.2300, 3601.569
633.3950, 3676.851
634.5600, 3914.962
635.7240, 4027.934
636.8890, 4264.932
638.0530, 4485.961
639.2170, 4979.020
640.3810, 5114.107
641.5450, 5529.225
642.7080, 6040.369
643.8720, 6282.547
645.0350, 6914.754
646.1980, 7505.990
647.3610, 8310.257
648.5240, 8923.556
649.6870, 9438.885
650.8490, 10289.24
652.0120, 10712.63
653.1740, 10989.05
654.3360, 11085.51
655.4980, 10713.99
656.6600, 10597.58
657.8210, 10307.05
658.9830, 9684.627
660.1440, 9150.236
661.3050, 8337.876
662.4660, 7951.548
663.6270, 7294.251
664.7870, 6741.988
665.9480, 6163.756
667.1080, 5754.555
668.2680, 5400.387
669.4280, 5196.249
670.5880, 4981.145
671.7480, 4761.072
672.9070, 4664.032
674.0670, 4503.024
675.2260, 4086.414
676.3850, 4308.263
677.5440, 4448.210
678.7030, 4515.932
679.8610, 4268.697
681.0200, 4427.752
682.1780, 4430.868
683.3360, 4424.648
684.4940, 4644.379
685.6520, 4448.055
686.8090, 4670.533
687.9670, 4718.069
689.1240, 4927.773
690.2810, 4777.322
691.4380, 4840.044
692.5950, 4929.082
693.7520, 4906.874
694.9080, 4934.132
696.0650, 4936.943
697.2210, 5078.613
698.3770, 4898.599
699.5330, 4980.113
700.6880, 4932.400
701.8440, 5086.211
702.9990, 5064.289
704.1550, 5243.954
705.3100, 5039.053
706.4650, 5219.361
707.6190, 5166.079
708.7740, 5192.457
709.9290, 5470.929
711.0830, 5223.045
712.2370, 5271.278
713.3910, 5404.927
714.5450, 5275.244
715.6980, 5242.838
716.8520, 5190.070
718.0050, 5023.351
719.1580, 5025.148
720.3110, 4683.127
721.4640, 4617.553
722.6170, 4476.061
723.7700, 4265.621
724.9220, 4100.277
726.0740, 3760.987
727.2260, 3685.750
728.3780, 3510.596
729.5300, 3503.508
730.6810, 3295.492
731.8330, 3226.523
732.9840, 3060.601
734.1350, 2983.715
735.2860, 2872.852
736.4370, 2852.013
737.5880, 2727.202
738.7380, 2560.419
739.8880, 2544.646
741.0390, 2589.893
742.1890, 2328.148
743.3380, 2215.417
744.4880, 2269.694
745.6380, 2142.122
746.7870, 1961.277
747.9360, 2131.578
749.0850, 1925.889
750.2340, 1959.202
751.3830, 1859.521
752.5310, 1882.846
753.6800, 1860.175
754.8280, 1804.509
755.9760, 1721.845
757.1240, 1668.186
758.2720, 1779.529
759.4190, 1668.877
760.5670, 1473.228
761.7140, 1535.582
762.8610, 1642.938
764.0080, 1467.296
765.1550, 1544.657
766.3020, 1484.021
767.4480, 1488.387
768.5950, 1336.753
769.7410, 1439.123
770.8870, 1300.054
772.0330, 1332.866
773.1780, 1133.240
774.3240, 1204.615
775.4690, 1186.991
776.6140, 1069.558
777.7590, 1075.744
778.9040, 947.1211
780.0490, 914.5000
781.1940, 954.8789
782.3380, 788.2568
783.4820, 648.7959
784.6260, 807.0449
785.7700, 883.3613
786.9140, 882.1699
788.0580, 571.2666
789.2010, 660.3027
790.3450, 589.0469
791.4880, 511.2520
792.6310, 656.5732
793.7730, 390.7656
794.9160, 532.5449
796.0590, 511.6133
797.2010, 565.1699
798.3430, 457.4746
799.4850, 399.5781
800.6270, 502.9902
801.7690, 517.0879
802.9100, 390.8467
804.0520, 449.1309
805.1930, 177.6934
806.3340, 195.6055
807.4750, 338.3633
808.6160, 220.2178
809.7560, 281.4785
810.8970, 274.3975
812.0370, 43.16699
813.1770, 179.2363
814.3170, 168.0957
815.4570, 82.81836
816.5960, 121.0430
817.7360, 96.89062
818.8750, 164.3086
820.0140, 118.5381
821.1530, 161.6973
822.2920, 81.80664
823.4310, 258.9775
824.5690, 271.3018
825.7070, 135.7891
826.8460, 243.3672
827.9840, 165.0928
829.1220, 152.9268
830.2590, 179.5322
831.3970, 153.9150
832.5340, 209.0713
833.6710, 206.3604
834.8080, 273.7812
835.9450, 26.36914
837.0820, 196.9971
838.2190, 140.7520
839.3550, 32.60742
840.4910, 120.5049
841.6270, 174.4932
842.7630, 81.59668
843.8990, 39.77051
845.0350, 48.99121
846.1700, 129.2656
847.3060, 10.63477
848.4410, 107.0361
849.5760, 17.52246
850.7100, 5.955078
851.8450, 30.59277
852.9800, 52.81445
854.1140, 116.2129
855.2480, 1.601563
856.3820, 1.038086
857.5160, 125.2939
858.6500, 287.6152
859.7830, 103.9277
860.9170, 105.2314
862.0500, 308.5234
863.1830, 398.8057
864.3160, 330.3975
865.4480, 585.3379
866.5810, 231.5869
867.7130, 346.8262
868.8460, 433.0527
869.9780, 381.2676
871.1100, 440.4697
872.2410, 586.6611
873.3730, 501.8418
874.5050, 643.0088
875.6360, 572.1641
876.7670, 689.3076
877.8980, 762.4385
879.0290, 775.5576
880.1590, 663.6641
881.2900, 785.7598
882.4200, 853.8418
883.5500, 997.9131
884.6800, 902.9717
885.8100, 1209.019
886.9400, 1002.053
888.0690, 938.0762
889.1990, 1125.109
890.3280, 1221.133
891.4570, 1218.145
892.5860, 1256.146
893.7140, 1249.134
894.8430, 1345.111
895.9710, 1353.356
897.1000, 1398.410
898.2280, 1445.973
899.3560, 1417.903
900.4830, 1514.830
901.6110, 1397.761
902.7380, 1525.699
903.8660, 1567.642
904.9930, 1752.587
906.1200, 1744.520
907.2460, 1707.442
908.3730, 1887.354
909.5000, 1817.257
910.6260, 1958.159
911.7520, 2085.067
912.8780, 2148.982
914.0040, 2272.103
915.1290, 2239.832
916.2550, 2426.742
917.3800, 2400.642
918.5050, 2393.529
919.6300, 2416.488
920.7550, 2637.562
921.8800, 2776.718
923.0040, 2838.327
924.1290, 2590.279
925.2530, 2742.115
926.3770, 2733.669
927.5010, 2718.648
928.6250, 2926.788
929.7480, 2793.490
930.8720, 2768.428
931.9950, 2870.392
933.1180, 3005.348
934.2410, 2915.326
935.3640, 2926.320
936.4860, 2828.313
937.6090, 3132.307
938.7310, 3146.316
939.8530, 3257.327
940.9750, 3199.371
942.0970, 3171.411
943.2180, 3169.441
944.3400, 3339.468
945.4610, 3393.492
946.5820, 3377.534
947.7030, 3651.980
948.8240, 3393.030
949.9450, 3598.070
951.0650, 3474.842
952.1860, 3535.875
953.3060, 3637.578
954.4260, 3447.956
955.5460, 3226.113
956.6650, 3285.474
957.7850, 3077.765
958.9040, 2915.854
960.0230, 2849.094
961.1420, 2774.769
962.2610, 2526.627
963.3800, 2548.336
964.4990, 2528.750
965.6170, 2228.442
966.7350, 2346.694
967.8530, 2055.437
968.9710, 2151.307
970.0890, 1897.912
971.2070, 2022.015
972.3240, 1893.381
973.4410, 1912.273
974.5580, 1940.545
975.6750, 1901.000
976.7920, 1982.701
977.9090, 1778.222
979.0250, 1825.359
980.1410, 2024.910
981.2580, 2111.419
982.3740, 1900.349
983.4890, 1954.250
984.6050, 1978.773
985.7200, 1851.684
986.8360, 1943.717
987.9510, 2091.521
989.0660, 2078.658
990.1810, 2126.344
991.2950, 2328.885
992.4100, 2278.057
993.5240, 2352.240
994.6390, 2260.437
995.7530, 2410.646
996.8660, 2323.866
997.9800, 2405.101
999.0940, 2314.347
1000.207, 2291.605
1001.320, 2587.875
1002.433, 2720.158
1003.546, 2684.454
1004.659, 2895.763
1005.772, 2618.084
1006.884, 2793.418
1007.996, 2798.766
1009.108, 3053.126
1010.220, 3042.500
1011.332, 3293.887
1012.444, 3254.286
1013.555, 3305.698
1014.666, 3302.125
1015.777, 3490.564
1016.888, 3686.018
1017.999, 3816.484
1019.110, 3988.525
1020.220, 4050.457
1021.331, 4250.965
1022.441, 4527.319
1023.551, 4600.106
1024.661, 4795.668
1025.770, 4903.229
1026.880, 5077.803
1027.989, 4988.391
1029.098, 5098.992
1030.207, 6378.607
1031.316, 7106.236
1032.425, 6433.549
1033.533, 5384.857
1034.642, 5123.762
1035.750, 4882.566
1036.858, 4600.294
1037.966, 4353.746
1039.073, 4185.469
1040.181, 4092.329
1041.288, 3826.019
1042.396, 3933.211
1043.503, 3732.045
1044.610, 3434.301
1045.716, 3255.668
1046.823, 2999.521
1047.929, 3199.390
1049.036, 2764.363
1050.142, 2833.133
1051.248, 2570.073
1052.353, 2637.946
1053.459, 2650.629
1054.564, 2263.979
1055.670, 2304.317
1056.775, 2176.717
1057.880, 2145.221
1058.985, 2191.164
1060.089, 1974.015
1061.194, 1949.954
1062.298, 1879.664
1063.402, 1971.339
1064.506, 1902.566
1065.610, 1993.343
1066.713, 1851.388
1067.817, 1805.181
1068.920, 1795.259
1070.023, 1807.109
1071.126, 1807.921
1072.229, 1710.196
1073.332, 1663.355
1074.435, 1661.782
1075.537, 1644.601
1076.639, 1661.275
1077.741, 1592.083
1078.843, 1614.238
1079.945, 1625.390
1081.046, 1701.158
1082.148, 1461.297
1083.249, 1613.441
1084.350, 1616.958
1085.451, 1534.616
1086.551, 1725.445
1087.652, 1474.721
1088.752, 1418.039
1089.853, 1418.553
1090.953, 1298.113
1092.053, 1416.814
1093.152, 1417.614
1094.252, 1287.764
1095.351, 1177.461
1096.451, 1350.218
1097.550, 1219.336
1098.649, 1238.207
1099.748, 1066.134
1100.846, 1164.131
1101.945, 1175.648
1103.043, 1309.802
1104.141, 1021.054
1105.239, 868.6611
1106.337, 884.0244
1107.434, 762.3779
1108.532, 839.6914
1109.629, 769.1143
1110.726, 806.5723
1111.823, 872.0557
1112.920, 768.5664
1114.017, 953.1250
1115.113, 960.7012
1116.210, 1287.320
1117.306, 1293.957
1118.402, 1835.607
1119.498, 1740.279
1120.593, 2003.958
1121.689, 2297.643
1122.784, 2113.343
1123.879, 2032.056
1124.974, 1726.778
1126.069, 1665.716
1127.164, 1381.444
1128.259, 1336.175
1129.353, 863.9082
1130.447, 598.6494
1131.541, 490.3984
1132.635, 310.1494
1133.729, 814.9033
1134.822, 508.0723
1135.916, 413.4229
1137.009, 416.1875
1138.102, 128.9502
1139.195, 269.9922
1140.288, 168.7646
1141.380, 61.53809
1142.473, 192.3115
1143.565, 69.08691
1144.657, 65.86035
1145.749, 92.64062
1146.841, 127.4941
1147.932, 97.30176
1149.024, 121.1094
1150.115, 196.9160
1151.206, 67.72168
1152.297, 98.52832
1153.388, 97.66504
1154.479, 11.90332
1155.569, 3.854492
1156.659, 43.60938
1157.750, 52.36230
1158.839, 58.12891
1159.929, 82.89355
1161.019, 131.6562
1162.108, 154.4160
1163.198, 45.17285
1164.287, 30.07227
1165.376, 60.33496
1166.465, 73.37695
1167.553, 54.95996
1168.642, 49.32520
1169.730, 40.27832
1170.818, 11.87988
1171.906, 102.4766
1172.994, 5.929688
1174.082, 33.34766
1175.170, 54.78906
1176.257, 55.38965
1177.344, 93.78711
1178.431, 33.63574
1179.518, 14.05273
1180.605, 107.9219
1181.691, 150.8770
1182.778, 179.2783
1183.864, 52.32715
1184.950, 29.97363
1186.036, 28.64941
1187.122, 76.35547
1188.207, 29.11914
1189.292, 101.0879
1190.378, 0.6513670
1191.463, 128.4688
1192.548, 3.627930
1193.632, 106.2900
1194.717, 122.2842
1195.801, 18.63770
1196.886, 93.45312
1197.970, 72.61230
1199.054, 12.55078
1200.137, 8.078125
1201.221, 70.35254
1202.305, 13.18555
1203.388, 137.9795
1204.471, 10.11133
1205.554, 44.01367
1206.637, 18.52441
1207.719, 1.897461
1208.802, 70.42676
1209.884, 92.98047
1210.966, 62.62305
1212.048, 160.7139
1213.130, 193.0430
1214.212, 5.638672
1215.293, 49.64844
1216.374, 151.9248
1217.456, 126.1904
1218.536, 170.4463
1219.617, 82.69141
1220.698, 80.92383
1221.778, 68.43555
1222.859, 66.64160
1223.939, 36.83398
1225.019, 135.0078
1226.099, 142.1689
1227.178, 55.31738
1228.258, 242.4492
1229.337, 153.9863
1230.417, 215.2949
1231.496, 48.54785
1232.574, 207.6162
1233.653, 117.1152
1234.732, 58.40527
1235.810, 169.4219
1236.888, 125.8730
1237.966, 155.4072
1239.044, 194.4570
1240.122, 178.4316
1241.199, 218.3906
1242.277, 258.3301
1243.354, 248.2539
1244.431, 212.1719
1245.508, 239.5293
1246.585, 242.6035
1247.661, 235.2852
1248.738, 270.1348
1249.814, 238.8076
1250.890, 209.8877
1251.966, 347.3252
1253.042, 238.1162
1254.117, 295.4395
1255.193, 113.1914
1256.268, 180.9209
1257.343, 185.6309
1258.418, 316.3193
1259.493, 254.9961
1260.567, 204.2646
1261.642, 256.8945
1262.716, 351.6367
1263.790, 270.7705
1264.864, 256.0264
1265.938, 204.5723
1267.011, 191.7412
1268.085, 116.0254
1269.158, 239.5098
1270.231, 242.9717
1271.304, 382.4141
1272.377, 343.8340
1273.450, 231.2334
1274.522, 213.9863
1275.594, 171.8867
1276.666, 279.0215
1277.738, 265.3984
1278.810, 323.8457
1279.882, 366.1143
1280.953, 305.5908
1282.025, 336.3398
1283.096, 363.7607
1284.167, 320.1143
1285.238, 443.3994
1286.308, 297.5557
1287.379, 310.1309
1288.449, 348.2227
1289.519, 277.4170
1290.589, 370.4639
1291.659, 455.6035
1292.729, 284.7646
1293.798, 421.5352
1294.868, 446.1445
1295.937, 246.9814
1297.006, 423.3525
1298.075, 360.6045
1299.143, 366.4678
1300.212, 309.4395
1301.280, 316.5391
1302.348, 325.0830
1303.416, 242.7930
1304.484, 292.0723
1305.552, 248.2275
1306.620, 410.8877
1307.687, 259.5215
1308.754, 188.7119
1309.821, 375.2783
1310.888, 479.9795
1311.955, 506.8936
1313.021, 220.2314
1314.088, 334.8115
1315.154, 289.1182
1316.220, 233.7910
1317.286, 404.4678
1318.352, 166.5449
1319.417, 335.7910
1320.483, 333.7471
