##NAMES=Laverovite
##RRUFFID=R060216
##IDEAL CHEMISTRY=K_2_NaMn^2+^_7_Zr^4+^_2_(Si_4_O_12_)_2_O_2_(OH)_4_F
##LOCALITY=Desourdy Quarry, Mont Saint-Hilaire, Rouville County, Quebec, Canada
##OWNER=RRUFF
##SOURCE=Royal Ontario Museum
##DESCRIPTION=Brown fragment showing lamellar habit. Type sample
##STATUS=The identification of this mineral has been confirmed by X-ray diffraction and chemical analysis
##URL=rruff.info/R060216
##MEASURED CHEMISTRY=(K_1.74_Na_0.18_[box]_0.08_)_Σ=2_(Na_0.92_Ca_0.08_)_Σ=1_(Mn_4.09_Fe^2+^_2.67_Mg_0.24_)_Σ=7_(Zr_1.42_Ti_0.58_)_Σ=2_(Si_7.86_Al_0.14_)_Σ=8_O_26_((OH)_3.14_O_0.86_)_Σ=4_
##PIN_ID=M00393
##ORIENTATION=Laser parallel to a* (1 0 0). Fiducial mark perpendicular to laser is parallel to b [0 1 0]
121.8270, 0.0000000E+00
123.0580, 110.2109
124.2880, 2.164063
125.5190, 359.2832
126.7490, 613.4316
127.9790, 846.5332
129.2090, 1019.172
130.4390, 425.8516
131.6680, 480.3984
132.8980, 598.3027
134.1270, 504.9590
135.3560, 792.5938
136.5850, 849.3242
137.8140, 785.0312
139.0430, 474.5312
140.2710, 152.2832
141.5000, 204.5410
142.7280, 182.2930
143.9560, 51.55469
145.1840, 63.87109
146.4120, 283.4473
147.6390, 40.97461
148.8670, 367.8359
150.0940, 546.0000
151.3210, 267.4277
152.5490, 400.0938
153.7750, 15.02930
155.0020, 43.03320
156.2290, 100.7402
157.4550, 8.630859
158.6810, 33.12891
159.9080, 234.7500
161.1340, 637.4883
162.3590, 656.6914
163.5850, 956.2656
164.8110, 1043.359
166.0360, 1057.621
167.2610, 1175.941
168.4860, 1195.758
169.7110, 1381.812
170.9360, 1269.363
172.1610, 1245.982
173.3850, 1286.664
174.6100, 1159.775
175.8340, 1024.164
177.0580, 925.9629
178.2820, 952.7891
179.5050, 715.6348
180.7290, 734.4902
181.9520, 847.3535
183.1760, 866.2188
184.3990, 804.0781
185.6220, 589.9316
186.8450, 758.7715
188.0670, 1044.598
189.2900, 911.4062
190.5120, 1113.191
191.7340, 1028.953
192.9560, 1110.688
194.1780, 1613.395
195.4000, 1292.129
196.6220, 1342.961
197.8430, 1897.844
199.0640, 2023.740
200.2860, 2290.648
201.5070, 2050.193
202.7270, 1369.479
203.9480, 1060.400
205.1690, 757.8379
206.3890, 892.6035
207.6090, 824.4785
208.8290, 1241.613
210.0490, 1281.045
211.2690, 1730.816
212.4890, 2048.773
213.7080, 1847.961
214.9280, 1893.238
216.1470, 2242.465
217.3660, 2472.676
218.5850, 2602.004
219.8030, 2716.346
221.0220, 2638.645
222.2400, 2665.883
223.4590, 2837.068
224.6770, 2995.189
225.8950, 3115.248
227.1120, 2941.242
228.3300, 3303.180
229.5480, 3317.053
230.7650, 3240.867
231.9820, 3431.625
233.1990, 3405.320
234.4160, 3202.961
235.6330, 3545.543
236.8490, 3291.068
238.0660, 3286.535
239.2820, 3207.939
240.4980, 3007.289
241.7140, 2595.576
242.9300, 2595.807
244.1460, 2299.980
245.3610, 2114.100
246.5770, 2084.162
247.7920, 1584.166
249.0070, 1647.115
250.2220, 1462.010
251.4370, 1202.820
252.6510, 1303.732
253.8660, 1328.633
255.0800, 1281.670
256.2940, 947.6211
257.5080, 984.1582
258.7220, 872.1016
259.9360, 753.9160
261.1490, 842.5078
262.3630, 549.9375
263.5760, 635.1543
264.7890, 569.5059
266.0020, 430.0137
267.2150, 463.1543
268.4270, 394.7871
269.6400, 172.8574
270.8520, 192.4961
272.0640, 224.0840
273.2760, 160.8457
274.4880, 299.5684
275.7000, 205.3398
276.9120, 160.3105
278.1230, 160.2051
279.3340, 27.98047
280.5450, 27.19922
281.7560, 53.54883
282.9670, 39.44922
284.1780, 127.2305
285.3880, 3.644531
286.5980, 76.27148
287.8090, 26.64648
289.0190, 5.451172
290.2290, 4.158203
291.4380, 51.30469
292.6480, 49.46094
293.8570, 268.6504
295.0670, 238.2578
296.2760, 175.4219
297.4850, 390.4121
298.6930, 297.7109
299.9020, 478.2773
301.1110, 458.4453
302.3190, 279.5996
303.5270, 402.0371
304.7350, 238.5352
305.9430, 456.8008
307.1510, 316.7461
308.3580, 296.1680
309.5660, 586.6797
310.7730, 293.0762
311.9800, 486.8262
313.1870, 793.4102
314.3940, 645.8887
315.6010, 769.5859
316.8070, 990.9629
318.0130, 832.5273
319.2200, 1023.129
320.4260, 1006.086
321.6310, 1052.289
322.8370, 1124.426
324.0430, 1250.342
325.2480, 1118.498
326.4540, 1380.332
327.6590, 1138.137
328.8640, 1144.918
330.0680, 1187.674
331.2730, 1460.402
332.4780, 1379.105
333.6820, 1476.783
334.8860, 1456.438
336.0900, 1363.064
337.2940, 1345.666
338.4980, 1546.244
339.7010, 1514.793
340.9050, 1286.318
342.1080, 1625.820
343.3110, 1778.293
344.5140, 1464.738
345.7170, 1515.158
346.9200, 1516.512
348.1220, 1309.818
349.3240, 1283.088
350.5270, 1257.287
351.7290, 1337.430
352.9310, 1301.508
354.1320, 1428.559
355.3340, 1353.260
356.5350, 1546.570
357.7370, 1277.531
358.9380, 1346.457
360.1390, 1408.352
361.3400, 1505.213
362.5400, 1453.045
363.7410, 1521.787
364.9410, 1313.602
366.1410, 1520.332
367.3410, 1441.027
368.5410, 1335.691
369.7410, 1419.322
370.9400, 1296.924
372.1400, 1592.490
373.3390, 1257.023
374.5380, 1599.529
375.7370, 1486.004
376.9360, 1255.445
378.1350, 1263.855
379.3330, 1469.238
380.5310, 1444.590
381.7300, 1445.910
382.9280, 1268.201
384.1260, 1316.463
385.3230, 1366.697
386.5210, 1118.900
387.7180, 1247.078
388.9160, 1017.229
390.1130, 771.3477
391.3100, 1011.441
392.5060, 758.5098
393.7030, 750.5508
394.9000, 788.5645
396.0960, 507.5508
397.2920, 786.5156
398.4880, 247.4531
399.6840, 490.3672
400.8800, 350.2559
402.0750, 317.1191
403.2710, 486.9570
404.4660, 405.7773
405.6610, 396.5703
406.8560, 169.3418
408.0510, 364.0918
409.2450, 112.8184
410.4400, 20.51953
411.6340, 274.1758
412.8280, 62.18945
414.0220, 89.35938
415.2160, 13.11914
416.4100, 117.3438
417.6030, 135.7812
418.7970, 0.1933590
419.9900, 97.55664
421.1830, 106.8906
422.3760, 127.2012
423.5690, 133.3730
424.7610, 138.5625
425.9540, 56.23438
427.1460, 117.0742
428.3380, 173.9785
429.5300, 63.55078
430.7220, 65.66602
431.9140, 64.65625
433.1050, 198.7461
434.2970, 107.7910
435.4880, 264.2695
436.6790, 34.31641
437.8700, 51.16016
439.0610, 140.7012
440.2510, 266.3574
441.4420, 240.5508
442.6320, 3.810547
443.8220, 161.2246
445.0120, 169.3789
446.2020, 72.64062
447.3910, 313.9785
448.5810, 151.4863
449.7700, 18.93359
450.9600, 102.3555
452.1490, 73.75977
453.3370, 94.14258
454.5260, 72.49414
455.7150, 151.1973
456.9030, 51.99023
458.0910, 60.84180
459.2800, 9.732422
460.4670, 16.34375
461.6550, 7.400391
462.8430, 138.4336
464.0300, 66.45312
465.2180, 73.45312
466.4050, 118.4395
467.5920, 51.41016
468.7790, 297.3633
469.9650, 266.9355
471.1520, 308.5898
472.3380, 392.1426
473.5250, 301.0430
474.7110, 393.9297
475.8970, 303.8066
477.0820, 320.6660
478.2680, 272.5156
479.4540, 318.6641
480.6390, 474.1797
481.8240, 469.9922
483.0090, 523.7930
484.1940, 659.5840
485.3780, 424.3633
486.5630, 535.1309
487.7470, 548.8906
488.9320, 764.6387
490.1160, 726.3770
491.3000, 760.1836
492.4830, 670.8223
493.6670, 728.5312
494.8500, 787.2324
496.0340, 777.9219
497.2170, 747.3047
498.4000, 692.2812
499.5820, 582.9492
500.7650, 574.6113
501.9480, 431.2637
503.1300, 507.9102
504.3120, 376.5488
505.4940, 589.1816
506.6760, 381.8086
507.8580, 512.4277
509.0390, 199.0430
510.2210, 469.6504
511.4020, 498.2539
512.5830, 520.8535
513.7640, 339.4473
514.9450, 529.0352
516.1250, 542.6191
517.3060, 175.2012
518.4860, 522.7754
519.6660, 274.3477
520.8460, 345.9180
522.0260, 930.4844
523.2060, 599.0352
524.3850, 506.6426
525.5650, 488.2559
526.7440, 451.8652
527.9230, 531.4727
529.1020, 382.0801
530.2810, 598.7070
531.4590, 553.3340
532.6380, 487.9590
533.8160, 488.6230
534.9940, 564.3203
536.1720, 347.1230
537.3500, 476.9453
538.5270, 712.7715
539.7050, 588.6250
540.8820, 910.4785
542.0590, 863.3340
543.2360, 875.1914
544.4130, 969.0625
545.5900, 959.9590
546.7660, 1098.900
547.9430, 1168.900
549.1190, 1406.703
550.2950, 1688.818
551.4710, 1794.465
552.6470, 1913.275
553.8220, 2139.373
554.9980, 2049.125
556.1730, 2098.732
557.3480, 2256.730
558.5230, 2265.658
559.6980, 2312.381
560.8730, 2290.211
562.0470, 2254.768
563.2220, 2115.875
564.3960, 2073.207
565.5700, 1687.332
566.7440, 1866.693
567.9170, 1657.824
569.0910, 1466.283
570.2640, 1574.859
571.4380, 1702.787
572.6110, 1469.900
573.7840, 1364.051
574.9570, 1200.826
576.1290, 1169.465
577.3020, 1016.340
578.4740, 973.7559
579.6460, 981.5039
580.8180, 934.9941
581.9900, 1019.199
583.1620, 1120.100
584.3330, 1181.418
585.5040, 1238.461
586.6760, 935.0781
587.8470, 1143.859
589.0180, 1053.578
590.1880, 1453.539
591.3590, 1300.820
592.5290, 1194.629
593.7000, 1081.340
594.8700, 1143.164
596.0400, 1022.629
597.2090, 1020.914
598.3790, 1159.984
599.5490, 1014.484
600.7180, 983.2969
601.8870, 998.9180
603.0560, 1082.500
604.2250, 1084.285
605.3940, 1052.676
606.5620, 1178.699
607.7300, 1005.934
608.8990, 1064.922
610.0670, 1178.227
611.2350, 1312.551
612.4020, 1506.891
613.5700, 1714.254
614.7370, 997.6289
615.9050, 1251.023
617.0720, 1232.438
618.2390, 1298.871
619.4060, 1228.320
620.5720, 1305.922
621.7390, 1452.277
622.9050, 1372.785
624.0710, 1473.309
625.2370, 1410.852
626.4030, 1569.410
627.5690, 1603.930
628.7340, 1885.590
629.9000, 1786.203
631.0650, 2041.836
632.2300, 2220.492
633.3950, 2124.164
634.5600, 2307.852
635.7240, 2483.559
636.8890, 2681.289
638.0530, 3088.031
639.2170, 3099.797
640.3810, 3618.574
641.5450, 3715.375
642.7080, 4259.895
643.8720, 4791.031
645.0350, 5469.887
646.1980, 6171.762
647.3610, 6978.648
648.5240, 7518.562
649.6870, 8497.492
650.8490, 8546.441
652.0120, 8928.406
653.1740, 9251.383
654.3360, 9130.387
655.4980, 8686.406
656.6600, 8348.445
657.8210, 7691.500
658.9830, 6998.574
660.1440, 6389.668
661.3050, 5493.777
662.4660, 5084.320
663.6270, 4582.715
664.7870, 4030.758
665.9480, 3709.379
667.1080, 3659.445
668.2680, 3266.660
669.4280, 3216.539
670.5880, 3062.375
671.7480, 2943.598
672.9070, 2958.840
674.0670, 2894.906
675.2260, 3108.137
676.3850, 3180.832
677.5440, 3259.449
678.7030, 3133.238
679.8610, 3249.641
681.0200, 3288.094
682.1780, 3302.484
683.3360, 3544.688
684.4940, 3567.375
685.6520, 3501.656
686.8090, 3709.387
687.9670, 3868.934
689.1240, 3800.824
690.2810, 3931.762
691.4380, 4372.379
692.5950, 4290.969
693.7520, 4084.562
694.9080, 4314.203
696.0650, 4150.570
697.2210, 4385.648
698.3770, 4084.945
699.5330, 4440.141
700.6880, 4033.859
701.8440, 4165.344
702.9990, 4208.969
704.1550, 4316.594
705.3100, 4282.359
706.4650, 4390.629
707.6190, 4512.910
708.7740, 4779.996
709.9290, 4790.703
711.0830, 4561.445
712.2370, 4626.188
713.3910, 4447.961
714.5450, 4538.098
715.6980, 4493.988
716.8520, 4651.500
718.0050, 4449.516
719.1580, 4477.434
720.3110, 4150.395
721.4640, 4074.438
722.6170, 3830.555
723.7700, 3831.672
724.9220, 3853.840
726.0740, 3499.062
727.2260, 3366.570
728.3780, 3324.395
729.5300, 3126.238
730.6810, 3148.574
731.8330, 2867.906
732.9840, 2581.234
734.1350, 2624.832
735.2860, 2699.910
736.4370, 2559.301
737.5880, 2435.691
738.7380, 2333.094
739.8880, 2310.504
741.0390, 2033.914
742.1890, 2058.320
743.3380, 1877.723
744.4880, 1832.117
745.6380, 1867.512
746.7870, 1969.902
747.9360, 1796.285
749.0850, 1749.664
750.2340, 1684.035
751.3830, 1608.406
752.5310, 1595.766
753.6800, 1692.406
754.8280, 1591.359
755.9760, 1796.809
757.1240, 1644.145
758.2720, 1302.469
759.4190, 1634.789
760.5670, 1397.102
761.7140, 1171.406
762.8610, 1254.707
764.0080, 1234.000
765.1550, 1051.285
766.3020, 1178.559
767.4480, 978.8281
768.5950, 980.0859
769.7410, 1274.340
770.8870, 878.5859
772.0330, 976.8203
773.1780, 876.0508
774.3240, 757.2734
775.4690, 473.4844
776.6140, 565.6836
777.7590, 391.1289
778.9040, 780.0625
780.0490, 340.2383
781.1940, 389.4023
782.3380, 593.5586
783.4820, 168.7109
784.6260, 547.8477
785.7700, 140.9688
786.9140, 234.0859
788.0580, 430.1953
789.2010, 306.2930
790.3450, 331.3750
791.4880, 153.4570
792.6310, 462.5195
793.7730, 177.5742
794.9160, 402.6133
796.0590, 156.6523
797.2010, 260.6719
798.3430, 444.6836
799.4850, 44.31641
800.6270, 33.64062
801.7690, 113.4219
802.9100, 92.43359
804.0520, 28.28125
805.1930, 155.1133
806.3340, 58.06641
807.4750, 98.69922
808.6160, 94.44922
809.7560, 131.8086
810.8970, 88.17188
812.0370, 360.6055
813.1770, 64.25391
814.3170, 44.02734
815.4570, 79.69922
816.5960, 104.4961
817.7360, 95.67969
818.8750, 207.8398
820.0140, 19.00391
821.1530, 56.89062
822.2920, 130.8398
823.4310, 184.1953
824.5690, 180.5000
825.7070, 169.3906
826.8460, 105.8242
827.9840, 36.35156
829.1220, 67.00781
830.2590, 82.58594
831.3970, 82.32031
832.5340, 157.1289
833.6710, 104.0586
834.8080, 139.0742
835.9450, 137.2070
837.0820, 49.44531
838.2190, 236.7461
839.3550, 171.7930
840.4910, 316.3164
841.6270, 177.1758
842.7630, 9.796875
843.8990, 277.5391
845.0350, 482.8633
846.1700, 222.1680
847.3060, 600.4609
848.4410, 189.7383
849.5760, 199.4453
850.7100, 21.75391
851.8450, 101.4453
852.9800, 137.3711
854.1140, 89.69922
855.2480, 136.7539
856.3820, 211.7969
857.5160, 224.8203
858.6500, 396.8320
859.7830, 267.8242
860.9170, 309.8008
862.0500, 156.7578
863.1830, 51.70312
864.3160, 391.6250
865.4480, 236.5312
866.5810, 479.4219
867.7130, 332.2930
868.8460, 238.1484
869.9780, 627.9844
871.1100, 473.8047
872.2410, 265.6133
873.3730, 548.3984
874.5050, 650.1719
875.6360, 614.9219
876.7670, 573.6562
877.8980, 670.1797
879.0290, 694.8320
880.1590, 767.3867
881.2900, 796.2383
882.4200, 770.0859
883.5500, 677.7578
884.6800, 625.4180
885.8100, 692.0625
886.9400, 586.6875
888.0690, 775.2930
889.1990, 695.8867
890.3280, 899.4648
891.4570, 825.0352
892.5860, 824.5664
893.7140, 739.3047
894.8430, 821.6367
895.9710, 857.1484
897.1000, 720.6836
898.2280, 773.2109
899.3560, 889.7461
900.4830, 1036.301
901.6110, 811.8789
902.7380, 697.4453
903.8660, 1182.004
904.9930, 751.5508
906.1200, 1135.086
907.2460, 760.6016
908.3730, 1323.109
909.5000, 1117.594
910.6260, 1465.066
911.7520, 1313.523
912.8780, 1226.965
914.0040, 1192.398
915.1290, 1137.812
916.2550, 1136.859
917.3800, 1209.598
918.5050, 1171.965
919.6300, 1177.328
920.7550, 1212.672
921.8800, 1080.008
923.0040, 1546.352
924.1290, 1396.680
925.2530, 1352.051
926.3770, 1244.402
927.5010, 1218.793
928.6250, 1293.195
929.7480, 1132.582
930.8720, 1253.957
931.9950, 1403.316
933.1180, 1300.660
934.2410, 1462.055
935.3640, 1238.027
936.4860, 1443.148
937.6090, 1487.633
938.7310, 1312.969
939.8530, 1396.012
940.9750, 1508.344
942.0970, 1242.016
943.2180, 1285.301
944.3400, 1206.555
945.4610, 1292.383
946.5820, 1449.891
947.7030, 1067.234
948.8240, 1364.125
949.9450, 1407.090
951.0650, 1368.902
952.1860, 1162.098
953.3060, 1372.246
954.4260, 953.4609
955.5460, 1164.875
956.6650, 1083.859
957.7850, 1234.156
958.9040, 909.0547
960.0230, 889.1484
961.1420, 903.9062
962.2610, 704.6133
963.3800, 814.6562
964.4990, 764.7539
965.6170, 399.8398
966.7350, 508.9219
967.8530, 611.2852
968.9710, 645.9688
970.0890, 721.4375
971.2070, 736.0117
972.3240, 736.0898
973.4410, 499.4062
974.5580, 708.5977
975.6750, 647.7930
976.7920, 441.8516
977.9090, 602.4180
979.0250, 728.6289
980.1410, 666.8438
981.2580, 706.0664
982.3740, 775.2930
983.4890, 558.5234
984.6050, 453.7617
985.7200, 721.6367
986.8360, 861.8125
987.9510, 643.4531
989.0660, 532.6016
990.1810, 695.8750
991.2950, 489.1523
992.4100, 766.4453
993.5240, 701.7383
994.6390, 775.0430
995.7530, 818.3555
996.8660, 954.6797
997.9800, 989.7539
999.0940, 915.0898
1000.207, 1188.438
1001.320, 1003.797
1002.433, 1296.160
1003.546, 1361.535
1004.659, 1404.918
1005.772, 1246.312
1006.884, 1499.719
1007.996, 1518.129
1009.108, 1560.551
1010.220, 1861.980
1011.332, 2062.426
1012.444, 2058.879
1013.555, 2045.340
1014.666, 2233.812
1015.777, 2165.293
1016.888, 2420.211
1017.999, 2450.715
1019.110, 2528.230
1020.220, 2799.758
1021.331, 2797.297
1022.441, 2911.844
1023.551, 3114.398
1024.661, 3357.965
1025.770, 3282.547
1026.880, 3511.609
1027.989, 3365.211
1029.098, 3594.824
1030.207, 3472.422
1031.316, 3234.875
1032.425, 3236.320
1033.533, 3214.586
1034.642, 2982.777
1035.750, 3172.836
1036.858, 2887.520
1037.966, 2711.691
1039.073, 2499.398
1040.181, 2186.121
1041.288, 2217.855
1042.396, 2224.602
1043.503, 1937.355
1044.610, 1841.121
1045.716, 1714.895
1046.823, 1692.680
1047.929, 1585.477
1049.036, 1590.289
1050.142, 1430.105
1051.248, 1893.938
1052.353, 1574.684
1053.459, 2119.535
1054.564, 1115.406
1055.670, 1290.402
1056.775, 1332.293
1057.880, 1234.617
1058.985, 1122.531
1060.089, 1191.965
1061.194, 948.9961
1062.298, 1119.938
1063.402, 932.8906
1064.506, 944.8555
1065.610, 878.8320
1066.713, 900.8281
1067.817, 952.8203
1068.920, 959.8438
1070.023, 740.7227
1071.126, 699.8008
1072.229, 882.8867
1073.332, 1010.988
1074.435, 653.0977
1075.537, 1143.246
1076.639, 829.3984
1077.741, 384.5625
1078.843, 1029.336
1079.945, 885.5938
1081.046, 983.9727
1082.148, 1357.379
1083.249, 693.8047
1084.350, 418.2656
1085.451, 1040.738
1086.551, 885.2227
1087.652, 1001.723
1088.752, 750.2461
1089.853, 993.8086
1090.953, 920.4219
1092.053, 1075.109
1093.152, 935.8672
1094.252, 882.6875
1095.351, 1289.559
1096.451, 1002.316
1097.550, 1129.402
1098.649, 788.3828
1099.748, 553.4102
1100.846, 483.5039
1101.945, 592.6445
1103.043, 643.8477
1104.141, 662.1094
1105.239, 535.4062
1106.337, 638.7852
1107.434, 301.1758
1108.532, 488.5781
1109.629, 221.0469
1110.726, 326.5430
1111.823, 564.0508
1112.920, 179.5664
1114.017, 169.0938
1115.113, 261.6367
1116.210, 471.1836
1117.306, 251.7422
1118.402, 334.3320
1119.498, 461.9297
1120.593, 97.58203
1121.689, 718.2500
1122.784, 319.9258
1123.879, 540.6133
1124.974, 348.3125
1126.069, 165.0195
1127.164, 388.7422
1128.259, 386.4688
1129.353, 237.2070
1130.447, 306.9805
1131.541, 489.7617
1132.635, 177.5664
1133.729, 312.3789
1134.822, 641.2305
1135.916, 313.0938
1137.009, 54.96484
1138.102, 234.8477
1139.195, 317.7344
1140.288, 230.6406
1141.380, 329.5469
1142.473, 310.4688
1143.565, 227.3945
1144.657, 127.3359
1145.749, 180.2812
1146.841, 155.2422
1147.932, 175.7930
1149.024, 136.1016
1150.115, 23.04297
1151.206, 458.9883
1152.297, 182.9492
1153.388, 101.9219
1154.479, 248.9141
1155.569, 214.9297
1156.659, 235.0273
1157.750, 72.01562
1158.839, 174.9922
1159.929, 65.01172
1161.019, 159.9414
1162.108, 37.94531
1163.198, 91.95703
1164.287, 151.9844
1165.376, 134.0781
1166.465, 27.23438
1167.553, 39.08203
1168.642, 6.660156
1169.730, 33.25781
1170.818, 10.09766
1171.906, 9.937500
1172.994, 15.78516
1174.082, 225.6484
1175.170, 172.5117
1176.257, 132.3828
1177.344, 175.5234
1178.431, 72.14844
1179.518, 155.0430
1180.605, 105.9414
1181.691, 167.8438
1182.778, 11.24219
1183.864, 113.6602
1184.950, 241.5703
1186.036, 84.51562
1187.122, 258.3594
1188.207, 199.7578
1189.292, 180.0195
1190.378, 184.1953
1191.463, 81.50000
1192.548, 136.1445
1193.632, 319.7969
1194.717, 226.4570
1195.801, 115.1172
1196.886, 237.2109
1197.970, 177.3320
1199.054, 20.88281
1200.137, 4.562500
1201.221, 66.04688
1202.305, 19.55469
1203.388, 88.27344
1204.471, 80.89844
1205.554, 174.5234
1206.637, 213.1602
1207.719, 138.7930
1208.802, 3.433594
1209.884, 422.0781
1210.966, 365.7188
1212.048, 217.3711
1213.130, 328.0312
1214.212, 88.69531
1215.293, 347.3672
1216.374, 25.03516
1217.456, 248.2500
1218.536, 185.9219
1219.617, 361.6016
1220.698, 356.4922
1221.778, 419.9688
1222.859, 300.6484
1223.939, 352.3320
1225.019, 230.0156
1226.099, 126.6992
1227.178, 169.3867
1228.258, 515.0742
1229.337, 186.7617
1230.417, 302.4492
1231.496, 367.1367
1232.574, 167.0859
1233.653, 377.7734
1234.732, 171.4766
1235.810, 371.1641
1236.888, 224.8438
1237.966, 549.5195
1239.044, 483.5625
1240.122, 201.8750
1241.199, 447.5430
1242.277, 266.2109
1243.354, 141.8789
1244.431, 633.5352
1245.508, 258.1914
1246.585, 355.8438
1247.661, 280.4883
1248.738, 125.1602
1249.814, 327.7969
1250.890, 351.4336
1251.966, 396.0625
1253.042, 306.6836
1254.117, 206.3047
1255.193, 40.00000
1256.268, 305.6094
1257.343, 486.2148
1258.418, 70.19531
1259.493, 182.8516
1260.567, 124.6328
1261.642, 364.1797
1262.716, 604.9062
1263.790, 257.1797
1264.864, 280.7461
1265.938, 465.3047
1267.011, 89.86328
1268.085, 264.4141
1269.158, 295.9492
1270.231, 312.5078
1271.304, 166.1406
1272.377, 251.2188
1273.450, 220.7305
1274.522, 170.2383
1275.594, 186.2539
1276.666, 151.2227
1277.738, 104.2852
1278.810, 279.9102
1279.882, 69.46875
1280.953, 246.3438
1282.025, 346.7344
1283.096, 378.7188
1284.167, 123.1797
1285.238, 235.3008
1286.308, 199.2461
1287.379, 153.6953
