##NAMES=Laverovite
##RRUFFID=R060216
##IDEAL CHEMISTRY=K_2_NaMn^2+^_7_Zr^4+^_2_(Si_4_O_12_)_2_O_2_(OH)_4_F
##LOCALITY=Desourdy Quarry, Mont Saint-Hilaire, Rouville County, Quebec, Canada
##OWNER=RRUFF
##SOURCE=Royal Ontario Museum
##DESCRIPTION=Brown fragment showing lamellar habit. Type sample
##STATUS=The identification of this mineral has been confirmed by X-ray diffraction and chemical analysis
##URL=rruff.info/R060216
##MEASURED CHEMISTRY=(K_1.74_Na_0.18_[box]_0.08_)_Σ=2_(Na_0.92_Ca_0.08_)_Σ=1_(Mn_4.09_Fe^2+^_2.67_Mg_0.24_)_Σ=7_(Zr_1.42_Ti_0.58_)_Σ=2_(Si_7.86_Al_0.14_)_Σ=8_O_26_((OH)_3.14_O_0.86_)_Σ=4_
##PIN_ID=L00725
##ORIENTATION=Laser parallel to c* (0 0 1). Fiducial mark perpendicular to laser is parallel to a [1 0 0]
114.4400, 0.0000000E+00
115.6710, 495.5996
116.9030, 988.2129
118.1340, 390.3613
119.3650, 345.6836
120.5960, 219.9609
121.8270, 1.195313
123.0580, 680.4336
124.2880, 1766.570
125.5190, 1997.129
126.7490, 1732.770
127.9790, 2076.803
129.2090, 2168.299
130.4390, 2157.357
131.6680, 1994.062
132.8980, 1528.422
134.1270, 989.2480
135.3560, 359.4355
136.5850, 91.20898
137.8140, 69.92188
139.0430, 58.15430
140.2710, 9.611328
141.5000, 47.22656
142.7280, 104.7461
143.9560, 0.6269530
145.1840, 84.28906
146.4120, 187.8594
147.6390, 909.9629
148.8670, 1447.924
150.0940, 1024.670
151.3210, 648.1328
152.5490, 1033.908
153.7750, 1445.170
155.0020, 1394.906
156.2290, 1822.125
157.4550, 2006.158
158.6810, 2263.107
159.9080, 2730.420
161.1340, 3350.461
162.3590, 4468.018
163.5850, 5566.916
164.8110, 6436.463
166.0360, 7796.996
167.2610, 8132.596
168.4860, 8621.348
169.7110, 8791.281
170.9360, 8557.410
172.1610, 8414.762
173.3850, 7648.352
174.6100, 6561.197
175.8340, 6006.312
177.0580, 5303.711
178.2820, 4510.396
179.5050, 4296.391
180.7290, 3770.699
181.9520, 3384.338
183.1760, 2819.311
184.3990, 2770.629
185.6220, 2991.307
186.8450, 3133.352
188.0670, 2761.891
189.2900, 2467.281
190.5120, 2784.537
191.7340, 2762.664
192.9560, 3110.662
194.1780, 3368.902
195.4000, 3802.160
196.6220, 4307.844
197.8430, 4836.619
199.0640, 4972.145
200.2860, 5623.502
201.5070, 6238.648
202.7270, 7436.609
203.9480, 7333.484
205.1690, 6194.145
206.3890, 4789.498
207.6090, 3841.127
208.8290, 3582.043
210.0490, 3545.738
211.2690, 3639.920
212.4890, 4004.219
213.7080, 4270.314
214.9280, 4774.230
216.1470, 4646.875
217.3660, 4857.734
218.5850, 5455.945
219.8030, 5638.646
221.0220, 5976.996
222.2400, 6130.000
223.4590, 6307.660
224.6770, 6818.977
225.8950, 7128.951
227.1120, 7384.588
228.3300, 7987.887
229.5480, 8383.854
230.7650, 8731.477
231.9820, 9241.752
233.1990, 9529.672
234.4160, 10225.22
235.6330, 10643.41
236.8490, 11017.23
238.0660, 11214.68
239.2820, 11877.76
240.4980, 11781.48
241.7140, 11872.84
242.9300, 11791.84
244.1460, 11096.49
245.3610, 10331.78
246.5770, 9460.727
247.7920, 8661.332
249.0070, 7904.594
250.2220, 7148.518
251.4370, 6040.109
252.6510, 5676.367
253.8660, 4815.301
255.0800, 4396.910
256.2940, 3961.199
257.5080, 3641.168
258.7220, 3817.826
259.9360, 4576.174
261.1490, 5087.189
262.3630, 3630.938
263.5760, 2850.770
264.7890, 2384.590
266.0020, 2139.707
267.2150, 2098.949
268.4270, 2012.119
269.6400, 1777.461
270.8520, 1586.855
272.0640, 1339.953
273.2760, 1027.293
274.4880, 782.7461
275.7000, 761.7012
276.9120, 520.3574
278.1230, 555.9629
279.3340, 303.0469
280.5450, 89.11914
281.7560, 95.23438
282.9670, 14.36133
284.1780, 91.64453
285.3880, 14.11719
286.5980, 259.3789
287.8090, 201.7793
289.0190, 298.5234
290.2290, 11.50977
291.4380, 159.7715
292.6480, 27.19141
293.8570, 39.54883
295.0670, 219.8652
296.2760, 69.42383
297.4850, 254.4844
298.6930, 304.7188
299.9020, 444.3301
301.1110, 620.5176
302.3190, 636.6191
303.5270, 573.1582
304.7350, 593.0645
305.9430, 666.1348
307.1510, 628.6836
308.3580, 717.2070
309.5660, 662.0898
310.7730, 852.5293
311.9800, 1056.418
313.1870, 959.4297
314.3940, 900.1855
315.6010, 1090.682
316.8070, 1245.930
318.0130, 1259.936
319.2200, 1276.703
320.4260, 1485.234
321.6310, 1577.533
322.8370, 1840.609
324.0430, 2101.467
325.2480, 1923.109
326.4540, 2160.539
327.6590, 2191.848
328.8640, 2281.771
330.0680, 2316.578
331.2730, 2662.184
332.4780, 2735.586
333.6820, 2865.793
334.8860, 2935.803
336.0900, 2978.615
337.2940, 3082.232
338.4980, 3513.650
339.7010, 3621.867
340.9050, 3809.861
342.1080, 3674.617
343.3110, 3565.070
344.5140, 3718.160
345.7170, 3631.875
346.9200, 3743.156
348.1220, 3812.883
349.3240, 3761.084
350.5270, 3807.883
351.7290, 3626.273
352.9310, 4086.322
354.1320, 3574.086
355.3340, 4084.551
356.5350, 3854.725
357.7370, 4037.617
358.9380, 4064.268
360.1390, 4052.316
361.3400, 4104.518
362.5400, 4131.846
363.7410, 4073.629
364.9410, 4090.232
366.1410, 4057.656
367.3410, 4001.902
368.5410, 3948.086
369.7410, 3784.871
370.9400, 3811.596
372.1400, 3588.148
373.3390, 3564.531
374.5380, 3663.746
375.7370, 3809.795
376.9360, 3893.279
378.1350, 4100.182
379.3330, 4002.961
380.5310, 4429.361
381.7300, 4144.602
382.9280, 4085.688
384.1260, 4290.619
385.3230, 4048.398
386.5210, 3946.025
387.7180, 3653.508
388.9160, 3320.836
390.1130, 3177.023
391.3100, 3084.064
392.5060, 2877.961
393.7030, 2595.719
394.9000, 2582.338
396.0960, 2321.820
397.2920, 2225.166
398.4880, 1985.377
399.6840, 1806.457
400.8800, 1696.404
402.0750, 1787.223
403.2710, 1539.914
404.4660, 1617.480
405.6610, 1271.863
406.8560, 1135.062
408.0510, 1010.076
409.2450, 833.9062
410.4400, 692.5469
411.6340, 693.9961
412.8280, 665.2578
414.0220, 411.3359
415.2160, 515.2148
416.4100, 378.9102
417.6030, 556.6621
418.7970, 405.2070
419.9900, 312.4785
421.1830, 290.4023
422.3760, 383.4258
423.5690, 249.0215
424.7610, 71.31641
425.9540, 362.2148
427.1460, 154.6582
428.3380, 416.8750
429.5300, 429.2266
430.7220, 525.5801
431.9140, 242.2773
433.1050, 471.1270
434.2970, 702.7363
435.4880, 243.5508
436.6790, 1072.920
437.8700, 712.6406
439.0610, 790.9082
440.2510, 680.0586
441.4420, 720.3398
442.6320, 732.6250
443.8220, 513.7188
445.0120, 395.5156
446.2020, 333.7578
447.3910, 207.6855
448.5810, 317.7207
449.7700, 114.1094
450.9600, 221.4121
452.1490, 21.77344
453.3370, 40.92383
454.5260, 327.9062
455.7150, 457.5215
456.9030, 690.2578
458.0910, 946.4336
459.2800, 1224.045
460.4670, 1420.236
461.6550, 1620.416
462.8430, 2010.600
464.0300, 2350.594
465.2180, 2710.910
466.4050, 2918.752
467.5920, 3112.373
468.7790, 3254.182
469.9650, 3298.139
471.1520, 3396.023
472.3380, 3360.848
473.5250, 3279.605
474.7110, 3081.303
475.8970, 3085.941
477.0820, 2811.520
478.2680, 2813.043
479.4540, 2687.512
480.6390, 2516.924
481.8240, 2614.287
483.0090, 2544.598
484.1940, 2594.859
485.3780, 2385.076
486.5630, 2294.246
487.7470, 2514.371
488.9320, 2134.461
490.1160, 2288.512
491.3000, 1913.527
492.4830, 1669.512
493.6670, 1898.469
494.8500, 1523.398
496.0340, 1372.305
497.2170, 1249.188
498.4000, 1171.049
499.5820, 986.8926
500.7650, 946.7227
501.9480, 921.5371
503.1300, 858.3418
504.3120, 754.1348
505.4940, 792.9160
506.6760, 650.6934
507.8580, 418.4629
509.0390, 471.1602
510.2210, 348.9922
511.4020, 385.7520
512.5830, 342.5137
513.7640, 184.2754
514.9450, 297.0410
516.1250, 139.8125
517.3060, 89.58984
518.4860, 196.3730
519.6660, 91.57812
520.8460, 159.9707
522.0260, 135.7871
523.2060, 155.4570
524.3850, 161.4609
525.5650, 214.3223
526.7440, 320.2031
527.9230, 323.1016
529.1020, 369.0234
530.2810, 396.9648
531.4590, 330.9297
532.6380, 580.9199
533.8160, 576.9355
534.9940, 780.9785
536.1720, 863.0527
537.3500, 1036.156
538.5270, 1198.291
539.7050, 1322.459
540.8820, 1783.662
542.0590, 1882.900
543.2360, 2290.176
544.4130, 3049.500
545.5900, 3576.865
546.7660, 3950.375
547.9430, 4636.980
549.1190, 5636.258
550.2950, 6745.188
551.4710, 6921.551
552.6470, 8015.492
553.8220, 8741.645
554.9980, 9474.895
556.1730, 10017.93
557.3480, 10341.02
558.5230, 10369.26
559.6980, 10252.00
560.8730, 10166.07
562.0470, 10035.68
563.2220, 9740.381
564.3960, 9094.180
565.5700, 8762.045
566.7440, 8326.680
567.9170, 7939.924
569.0910, 7552.229
570.2640, 7134.461
571.4380, 6954.793
572.6110, 6311.221
573.7840, 6177.598
574.9570, 5870.988
576.1290, 5561.572
577.3020, 5277.129
578.4740, 5018.498
579.6460, 4772.305
580.8180, 4595.898
581.9900, 4386.277
583.1620, 4433.840
584.3330, 4261.271
585.5040, 4343.062
586.6760, 4452.875
587.8470, 4468.176
589.0180, 4587.029
590.1880, 4594.609
591.3590, 4602.598
592.5290, 4634.498
593.7000, 4728.922
594.8700, 4616.674
596.0400, 4581.867
597.2090, 4401.820
598.3790, 4417.090
599.5490, 4563.195
600.7180, 4485.613
601.8870, 4722.178
603.0560, 4953.895
604.2250, 4695.758
605.3940, 4988.770
606.5620, 5231.926
607.7300, 5354.225
608.8990, 5424.664
610.0670, 5641.250
611.2350, 5767.977
612.4020, 6115.852
613.5700, 6410.869
614.7370, 6403.033
615.9050, 6800.342
617.0720, 6776.801
618.2390, 7299.406
619.4060, 7819.158
620.5720, 7930.059
621.7390, 8172.105
622.9050, 8422.305
624.0710, 8828.656
625.2370, 9159.014
626.4030, 9548.805
627.5690, 10048.61
628.7340, 10435.56
629.9000, 11066.67
631.0650, 11741.93
632.2300, 11758.34
633.3950, 12518.91
634.5600, 13051.62
635.7240, 13958.50
636.8890, 14651.52
638.0530, 15520.70
639.2170, 16545.04
640.3810, 17868.53
641.5450, 19394.18
642.7080, 20939.98
643.8720, 22911.94
645.0350, 25079.06
646.1980, 27409.32
647.3610, 29803.76
648.5240, 32758.34
649.6870, 35853.09
650.8490, 38590.98
652.0120, 40726.04
653.1740, 42030.25
654.3360, 42426.62
655.4980, 41485.15
656.6600, 40065.84
657.8210, 37585.69
658.9830, 35354.68
660.1440, 33344.84
661.3050, 31064.35
662.4660, 28883.64
663.6270, 27219.27
664.7870, 26021.06
665.9480, 25030.02
667.1080, 24385.12
668.2680, 24145.39
669.4280, 23699.81
670.5880, 23870.40
671.7480, 23816.14
672.9070, 24377.04
674.0670, 24998.10
675.2260, 25204.31
676.3850, 25865.68
677.5440, 26677.22
678.7030, 27355.91
679.8610, 28391.75
681.0200, 29285.75
682.1780, 29679.92
683.3360, 30858.38
684.4940, 31867.85
685.6520, 32322.04
686.8090, 33126.33
687.9670, 33781.58
689.1240, 34193.03
690.2810, 34524.04
691.4380, 35028.19
692.5950, 35209.77
693.7520, 35602.07
694.9080, 35402.26
696.0650, 35418.00
697.2210, 35638.59
698.3770, 35282.99
699.5330, 35646.98
700.6880, 35412.55
701.8440, 34997.04
702.9990, 34870.45
704.1550, 34419.05
705.3100, 34226.63
706.4650, 33975.40
707.6190, 33852.91
708.7740, 33412.79
709.9290, 32928.91
711.0830, 32476.54
712.2370, 31922.98
713.3910, 31217.79
714.5450, 30737.81
715.6980, 30154.51
716.8520, 29471.78
718.0050, 28917.78
719.1580, 28162.65
720.3110, 27389.52
721.4640, 26745.20
722.6170, 25935.39
723.7700, 25100.71
724.9220, 24494.18
726.0740, 23878.52
727.2260, 22837.45
728.3780, 22412.81
729.5300, 21583.37
730.6810, 20835.07
731.8330, 20063.94
732.9840, 19078.91
734.1350, 18485.98
735.2860, 17908.14
736.4370, 17186.82
737.5880, 16826.69
738.7380, 15910.09
739.8880, 15589.57
741.0390, 14816.12
742.1890, 14520.75
743.3380, 13815.46
744.4880, 13417.24
745.6380, 13014.10
746.7870, 12907.03
747.9360, 12429.03
749.0850, 12306.11
750.2340, 11987.25
751.3830, 11605.47
752.5310, 11424.76
753.6800, 10985.12
754.8280, 10742.55
755.9760, 10760.04
757.1240, 10213.61
758.2720, 9987.236
759.4190, 9816.359
760.5670, 9444.850
761.7140, 9373.502
762.8610, 8928.385
764.0080, 8563.332
765.1550, 8315.340
766.3020, 8062.402
767.4480, 7624.525
768.5950, 7345.709
769.7410, 6973.947
770.8870, 6610.244
772.0330, 6364.596
773.1780, 6143.000
774.3240, 5876.459
775.4690, 5599.971
776.6140, 5391.676
777.7590, 5144.080
778.9040, 4993.814
780.0490, 4718.527
781.1940, 4603.289
782.3380, 4439.098
783.4820, 4124.953
784.6260, 3815.852
785.7700, 3769.799
786.9140, 3598.785
788.0580, 3397.816
789.2010, 3323.578
790.3450, 3153.490
791.4880, 3043.152
792.6310, 2841.344
793.7730, 2584.570
794.9160, 2302.836
796.0590, 2268.139
797.2010, 2043.475
798.3430, 2032.844
799.4850, 1733.248
800.6270, 1827.684
801.7690, 1513.150
802.9100, 1168.646
804.0520, 1216.170
805.1930, 1132.725
806.3340, 911.3027
807.4750, 847.9102
808.6160, 650.5430
809.7560, 652.1973
810.8970, 509.8750
812.0370, 536.5762
813.1770, 389.2988
814.3170, 254.0371
815.4570, 233.7988
816.5960, 76.57422
817.7360, 222.3672
818.8750, 70.17773
820.0140, 13.99805
821.1530, 226.8145
822.2920, 377.3594
823.4310, 202.7227
824.5690, 345.1895
825.7070, 287.8398
826.8460, 264.6465
827.9840, 237.5977
829.1220, 364.6875
830.2590, 399.9863
831.3970, 517.5156
832.5340, 375.3379
833.6710, 237.3887
834.8080, 593.5918
835.9450, 404.1406
837.0820, 501.9414
838.2190, 366.0488
839.3550, 437.3926
840.4910, 402.0137
841.6270, 171.8984
842.7630, 295.5684
843.8990, 203.1680
845.0350, 399.5781
846.1700, 242.2617
847.3060, 346.1367
848.4410, 368.2656
849.5760, 299.6582
850.7100, 185.2852
851.8450, 251.0879
852.9800, 142.1035
854.1140, 223.2793
855.2480, 308.6602
856.3820, 29.29688
857.5160, 162.0410
858.6500, 234.0312
859.7830, 145.2793
860.9170, 116.0879
862.0500, 176.0430
863.1830, 121.9590
864.3160, 306.8203
865.4480, 302.6523
866.5810, 611.4531
867.7130, 482.2559
868.8460, 602.0234
869.9780, 791.7578
871.1100, 779.4609
872.2410, 1053.129
873.3730, 918.7617
874.5050, 1359.359
875.6360, 1313.924
876.7670, 1368.469
877.8980, 1498.984
879.0290, 1770.469
880.1590, 1722.920
881.2900, 1968.334
882.4200, 2175.721
883.5500, 2179.092
884.6800, 2283.490
885.8100, 2557.895
886.9400, 2474.309
888.0690, 2839.707
889.1990, 2949.098
890.3280, 3120.457
891.4570, 3337.658
892.5860, 3355.059
893.7140, 3617.314
894.8430, 3642.541
895.9710, 3647.725
897.1000, 3933.891
898.2280, 3863.035
899.3560, 3986.164
900.4830, 4477.248
901.6110, 4290.289
902.7380, 4507.287
903.8660, 4656.273
904.9930, 4874.246
906.1200, 4910.178
907.2460, 5056.086
908.3730, 5071.957
909.5000, 5241.787
910.6260, 5402.572
911.7520, 5841.312
912.8780, 5994.057
914.0040, 5897.752
915.1290, 6141.400
916.2550, 5967.035
917.3800, 6404.621
918.5050, 6647.160
919.6300, 6701.135
920.7550, 6930.121
921.8800, 6962.543
923.0040, 6893.963
924.1290, 6979.332
925.2530, 7161.652
926.3770, 7287.924
927.5010, 7300.463
928.6250, 7428.391
929.7480, 7316.039
930.8720, 7226.729
931.9950, 7248.852
933.1180, 7515.922
934.2410, 7388.939
935.3640, 7351.904
936.4860, 7108.824
937.6090, 7286.703
938.7310, 7371.527
939.8530, 7466.305
940.9750, 7251.023
942.0970, 7273.686
943.2180, 7210.291
944.3400, 7314.846
945.4610, 7124.348
946.5820, 7266.793
947.7030, 7084.180
948.8240, 7171.510
949.9450, 6948.781
951.0650, 7134.996
952.1860, 7751.152
953.3060, 6893.252
954.4260, 6862.295
955.5460, 7580.137
956.6650, 5890.064
957.7850, 5656.375
958.9040, 5322.678
960.0230, 4941.115
961.1420, 4722.721
962.2610, 4359.336
963.3800, 4078.287
964.4990, 3802.682
965.6170, 3558.576
966.7350, 3328.756
967.8530, 3185.352
968.9710, 2961.289
970.0890, 2805.496
971.2070, 2658.236
972.3240, 2386.492
973.4410, 2485.943
974.5580, 2245.586
975.6750, 2272.141
976.7920, 2237.830
977.9090, 2132.459
979.0250, 2129.596
980.1410, 1936.125
981.2580, 1989.254
982.3740, 2242.596
983.4890, 2083.922
984.6050, 1864.043
985.7200, 2028.732
986.8360, 1863.061
987.9510, 1802.006
989.0660, 2140.639
990.1810, 1898.703
991.2950, 1950.098
992.4100, 2008.965
993.5240, 2208.629
994.6390, 2239.459
995.7530, 2244.387
996.8660, 2520.654
997.9800, 2737.520
999.0940, 2530.098
1000.207, 2668.660
1001.320, 3009.381
1002.433, 3182.908
1003.546, 3370.873
1004.659, 3774.363
1005.772, 3707.176
1006.884, 3883.777
1007.996, 4346.500
1009.108, 4639.420
1010.220, 4799.016
1011.332, 5077.307
1012.444, 5666.258
1013.555, 5798.535
1014.666, 6236.480
1015.777, 6799.938
1016.888, 7065.094
1017.999, 7232.115
1019.110, 7437.434
1020.220, 7837.527
1021.331, 7855.115
1022.441, 8121.359
1023.551, 8252.672
1024.661, 8404.938
1025.770, 8400.619
1026.880, 8333.598
1027.989, 8182.234
1029.098, 8406.033
1030.207, 8106.639
1031.316, 8394.039
1032.425, 7953.744
1033.533, 7903.746
1034.642, 7704.703
1035.750, 7196.176
1036.858, 7200.594
1037.966, 7177.510
1039.073, 6689.562
1040.181, 6472.484
1041.288, 6040.838
1042.396, 5842.199
1043.503, 5681.574
1044.610, 5673.289
1045.716, 5364.736
1046.823, 5066.152
1047.929, 4856.496
1049.036, 4860.578
1050.142, 4856.160
1051.248, 4831.180
1052.353, 4911.422
1053.459, 4584.475
1054.564, 4569.496
1055.670, 4290.682
1056.775, 4297.516
1057.880, 4182.336
1058.985, 4070.309
1060.089, 4165.156
1061.194, 4227.199
1062.298, 4136.242
1063.402, 3994.141
1064.506, 3871.314
1065.610, 3913.031
1066.713, 3985.986
1067.817, 3983.850
1068.920, 3932.506
1070.023, 3909.814
1071.126, 3879.576
1072.229, 3968.592
1073.332, 3940.945
1074.435, 3962.061
1075.537, 3982.223
1076.639, 3987.980
1077.741, 3975.014
1078.843, 3995.713
1079.945, 3740.605
1081.046, 3625.000
1082.148, 3743.486
1083.249, 3754.016
1084.350, 3505.449
1085.451, 3314.057
1086.551, 3261.098
1087.652, 3258.836
1088.752, 2870.805
1089.853, 2842.621
1090.953, 2674.629
1092.053, 2757.010
1093.152, 2716.008
1094.252, 2440.643
1095.351, 2322.262
1096.451, 2196.424
1097.550, 2042.074
1098.649, 2048.441
1099.748, 1787.338
1100.846, 1651.117
1101.945, 1647.797
1103.043, 1559.732
1104.141, 1297.604
1105.239, 1101.363
1106.337, 1222.461
1107.434, 1199.156
1108.532, 1043.594
1109.629, 1001.414
1110.726, 963.1426
1111.823, 735.7559
1112.920, 1418.816
1114.017, 487.6855
1115.113, 1166.488
1116.210, 679.3965
1117.306, 608.6758
1118.402, 328.7305
1119.498, 493.0859
1120.593, 375.5449
1121.689, 447.2930
1122.784, 417.6367
1123.879, 338.2188
1124.974, 179.7246
1126.069, 451.1250
1127.164, 162.6270
1128.259, 384.0000
1129.353, 468.3535
1130.447, 661.7871
1131.541, 181.1055
1132.635, 117.4570
1133.729, 218.7441
1134.822, 7.919922
1135.916, 190.0664
1137.009, 40.36133
1138.102, 89.45312
1139.195, 60.09766
1140.288, 12.13867
1141.380, 44.85352
1142.473, 23.26953
1143.565, 11.14062
1144.657, 2.992188
1145.749, 13.15820
1146.841, 22.50195
1147.932, 64.75781
1149.024, 237.0742
1150.115, 145.4590
1151.206, 173.1328
1152.297, 68.78125
1153.388, 94.58594
1154.479, 15.48242
1155.569, 2.613281
1156.659, 49.66602
1157.750, 40.31445
1158.839, 18.35938
1159.929, 33.55273
1161.019, 64.56836
1162.108, 60.76953
1163.198, 81.04688
1164.287, 205.8281
1165.376, 21.39648
1166.465, 78.02734
1167.553, 106.4258
1168.642, 81.97461
1169.730, 17.37305
1170.818, 65.32031
1171.906, 8.099609
1172.994, 8.062500
1174.082, 81.47266
1175.170, 41.55469
1176.257, 167.3906
1177.344, 71.52734
1178.431, 79.40820
1179.518, 96.73242
1180.605, 51.01953
1181.691, 37.73438
1182.778, 19.59180
1183.864, 83.01953
1184.950, 40.33008
1186.036, 118.8223
1187.122, 32.56445
1188.207, 33.18750
1189.292, 25.49219
1190.378, 106.2480
1191.463, 103.8965
1192.548, 92.99414
1193.632, 10.91602
1194.717, 46.97852
1195.801, 37.92383
1196.886, 105.7344
1197.970, 121.9629
1199.054, 6.302734
1200.137, 0.6289060
1201.221, 132.9941
1202.305, 24.70703
1203.388, 222.3086
1204.471, 221.8164
1205.554, 95.60547
1206.637, 34.04102
1207.719, 81.42969
1208.802, 119.7793
1209.884, 95.08984
1210.966, 182.3652
1212.048, 156.6035
1213.130, 141.8047
1214.212, 159.9707
1215.293, 121.6816
1216.374, 75.00195
1217.456, 103.1719
1218.536, 260.4746
1219.617, 292.4512
1220.698, 266.6289
1221.778, 188.0840
1222.859, 334.2773
1223.939, 162.4297
1225.019, 180.2363
1226.099, 309.0078
1227.178, 208.7012
1228.258, 300.6133
1229.337, 206.5547
1230.417, 257.1699
1231.496, 295.7461
1232.574, 272.2852
1233.653, 476.7832
1234.732, 141.6621
1235.810, 321.2031
1236.888, 74.14062
1237.966, 296.4980
1239.044, 218.9805
1240.122, 261.2578
1241.199, 111.5312
1242.277, 224.6543
1243.354, 289.1426
1244.431, 428.1738
1245.508, 409.9590
1246.585, 263.7695
1247.661, 378.6660
1248.738, 280.6875
1249.814, 267.7383
1250.890, 217.9297
1251.966, 355.2383
1253.042, 287.1387
1254.117, 320.1699
1255.193, 434.0371
1256.268, 313.8184
1257.343, 359.2480
1258.418, 403.9316
1259.493, 322.5938
1260.567, 369.2324
1261.642, 311.4570
1262.716, 419.4492
1263.790, 416.9121
1264.864, 504.5254
1265.938, 301.8379
1267.011, 365.7773
1268.085, 206.9922
1269.158, 520.4062
1270.231, 365.7227
1271.304, 310.3066
1272.377, 534.1113
1273.450, 415.4824
1274.522, 268.1719
1275.594, 216.5879
1276.666, 470.9551
1277.738, 384.6387
1278.810, 307.8867
1279.882, 368.3594
1280.953, 318.1484
