##NAMES=Laverovite
##RRUFFID=R060216
##IDEAL CHEMISTRY=K_2_NaMn^2+^_7_Zr^4+^_2_(Si_4_O_12_)_2_O_2_(OH)_4_F
##LOCALITY=Desourdy Quarry, Mont Saint-Hilaire, Rouville County, Quebec, Canada
##OWNER=RRUFF
##SOURCE=Royal Ontario Museum
##DESCRIPTION=Brown fragment showing lamellar habit. Type sample
##STATUS=The identification of this mineral has been confirmed by X-ray diffraction and chemical analysis
##URL=rruff.info/R060216
##MEASURED CHEMISTRY=(K_1.74_Na_0.18_[box]_0.08_)_Σ=2_(Na_0.92_Ca_0.08_)_Σ=1_(Mn_4.09_Fe^2+^_2.67_Mg_0.24_)_Σ=7_(Zr_1.42_Ti_0.58_)_Σ=2_(Si_7.86_Al_0.14_)_Σ=8_O_26_((OH)_3.14_O_0.86_)_Σ=4_
##PIN_ID=L00587
##ORIENTATION=Laser parallel to -b* (0 -1 0). Fiducial mark perpendicular to laser is parallel to -c [0 0 -1]
225.9640, 0.0000000E+00
227.1850, 323.1348
228.4070, 42.11328
229.6280, 245.5625
230.8490, 374.1582
232.0700, 437.8711
233.2910, 470.0332
234.5120, 578.9707
235.7320, 707.7266
236.9530, 693.3906
238.1730, 753.8047
239.3930, 730.5859
240.6130, 926.5312
241.8320, 873.8691
243.0520, 1122.082
244.2710, 1049.760
245.4900, 927.5762
246.7090, 959.2793
247.9280, 980.3047
249.1470, 1039.574
250.3650, 1134.691
251.5840, 1179.850
252.8020, 1222.117
254.0200, 1552.725
255.2370, 1611.443
256.4550, 1913.516
257.6720, 2066.508
258.8900, 2078.285
260.1070, 1526.404
261.3240, 1702.006
262.5400, 1585.781
263.7570, 1457.312
264.9730, 1734.654
266.1900, 1481.055
267.4060, 1148.633
268.6220, 927.3594
269.8370, 708.5859
271.0530, 745.9785
272.2680, 374.1621
273.4830, 530.1855
274.6980, 283.7852
275.9130, 311.2598
277.1280, 556.9902
278.3420, 378.7266
279.5570, 224.5410
280.7710, 231.3945
281.9850, 286.0938
283.1990, 154.9141
284.4120, 204.2207
285.6260, 419.4180
286.8390, 180.6387
288.0520, 456.4961
289.2650, 382.8926
290.4780, 515.8145
291.6910, 463.2559
292.9030, 664.2363
294.1160, 844.7969
295.3280, 695.9512
296.5400, 590.7715
297.7510, 750.2305
298.9630, 693.3789
300.1740, 718.3125
301.3860, 489.1133
302.5970, 508.8086
303.8080, 428.3809
305.0180, 406.8613
306.2290, 356.2559
307.4390, 206.5488
308.6500, 74.75586
309.8600, 122.5996
311.0700, 15.03320
312.2790, 142.7695
313.4890, 56.46289
314.6980, 222.8145
315.9080, 58.28516
317.1170, 113.8770
318.3250, 159.5879
319.5340, 198.4219
320.7430, 65.37305
321.9510, 100.4512
323.1590, 70.33594
324.3670, 65.01562
325.5750, 109.5020
326.7830, 113.8770
327.9900, 180.1211
329.1980, 252.2344
330.4050, 289.6992
331.6120, 248.6133
332.8190, 598.8906
334.0250, 577.2012
335.2320, 800.9102
336.4380, 772.3457
337.6440, 1182.400
338.8500, 1251.357
340.0560, 1469.186
341.2620, 1586.287
342.4670, 1832.766
343.6730, 2023.791
344.8780, 1977.107
346.0830, 2182.559
347.2870, 2231.826
348.4920, 2167.328
349.6970, 2244.898
350.9010, 2207.637
352.1050, 2309.766
353.3090, 2454.342
354.5130, 2265.336
355.7160, 2441.416
356.9200, 2581.764
358.1230, 2606.977
359.3260, 2610.287
360.5290, 2692.160
361.7320, 2725.246
362.9340, 2763.635
364.1370, 2801.461
365.3390, 2646.545
366.5410, 2581.736
367.7430, 2965.125
368.9450, 2534.057
370.1460, 2667.186
371.3480, 3188.611
372.5490, 3157.713
373.7500, 2450.711
374.9510, 2315.918
376.1520, 2301.574
377.3520, 1967.227
378.5520, 2116.994
379.7530, 1940.156
380.9530, 1844.441
382.1530, 1762.697
383.3520, 1546.490
384.5520, 1553.490
385.7510, 1553.012
386.9500, 1563.457
388.1490, 1557.055
389.3480, 1388.293
390.5470, 1582.115
391.7450, 1419.131
392.9440, 1489.934
394.1420, 1363.711
395.3400, 1525.209
396.5380, 1522.250
397.7350, 1520.197
398.9330, 1398.057
400.1300, 1411.828
401.3270, 1507.512
402.5240, 1314.105
403.7210, 1200.613
404.9180, 1535.033
406.1140, 1337.369
407.3110, 1131.615
408.5070, 1187.783
409.7030, 1376.867
410.8990, 1146.867
412.0940, 1249.789
413.2900, 1414.617
414.4850, 1289.328
415.6800, 1407.744
416.8750, 1539.885
418.0700, 1560.764
419.2650, 1529.512
420.4590, 1466.074
421.6530, 1486.584
422.8470, 1455.041
424.0410, 1567.445
425.2350, 1428.789
426.4290, 1319.168
427.6220, 1181.408
428.8160, 1014.389
430.0090, 781.4219
431.2020, 754.3691
432.3940, 615.2324
433.5870, 432.0098
434.7790, 423.1172
435.9720, 424.3203
437.1640, 333.8555
438.3560, 143.3105
439.5470, 92.67969
440.7390, 117.0430
441.9300, 34.90234
443.1220, 148.8789
444.3130, 158.9727
445.5040, 143.9414
446.6940, 179.6855
447.8850, 146.2500
449.0750, 210.9590
450.2660, 241.8262
451.4560, 149.8613
452.6460, 320.0410
453.8350, 127.4043
455.0250, 225.6074
456.2140, 88.26758
457.4040, 37.46094
458.5930, 186.0449
459.7820, 60.72461
460.9700, 194.7949
462.1590, 44.80859
463.3470, 7.289063
464.5350, 239.6211
465.7240, 126.7227
466.9110, 117.1113
468.0990, 110.1328
469.2870, 88.27539
470.4740, 53.45703
471.6610, 256.5664
472.8480, 295.6133
474.0350, 275.5957
475.2220, 385.5156
476.4090, 291.3555
477.5950, 273.0234
478.7810, 288.4727
479.9670, 212.6680
481.1530, 448.6035
482.3390, 386.2500
483.5240, 444.6035
484.7100, 386.7109
485.8950, 354.6758
487.0800, 353.4453
488.2650, 386.0312
489.4490, 398.5488
490.6340, 287.0117
491.8180, 183.4219
493.0030, 342.7812
494.1870, 305.1016
495.3700, 152.3867
496.5540, 271.6309
497.7380, 291.8418
498.9210, 355.0195
500.1040, 302.1699
501.2870, 19.28711
502.4700, 104.3672
503.6530, 144.4062
504.8350, 135.4082
506.0180, 252.3750
507.2000, 164.3145
508.3820, 104.2051
509.5640, 180.0566
510.7450, 76.87695
511.9270, 143.6582
513.1080, 187.4004
514.2890, 263.0996
515.4700, 187.7520
516.6510, 53.35352
517.8320, 17.10938
519.0130, 52.29297
520.1930, 237.7500
521.3730, 166.0938
522.5530, 151.3789
523.7330, 17.60547
524.9130, 69.76172
526.0920, 42.85742
527.2710, 99.88867
528.4510, 110.8574
529.6300, 206.7676
530.8080, 38.62109
531.9870, 32.41016
533.1660, 76.71680
534.3440, 283.8086
535.5220, 182.4277
536.7000, 225.0273
537.8780, 319.6250
539.0560, 328.2207
540.2330, 411.8145
541.4110, 499.4277
542.5880, 694.0176
543.7650, 699.6211
544.9420, 800.2188
546.1180, 1057.793
547.2950, 1296.322
548.4710, 1473.902
549.6470, 1586.523
550.8230, 1676.176
551.9990, 1792.848
553.1750, 2167.543
554.3500, 2179.244
555.5260, 2526.988
556.7010, 2596.777
557.8760, 2607.547
559.0510, 2601.332
560.2250, 2604.115
561.4000, 2475.902
562.5740, 2348.713
563.7480, 2296.008
564.9220, 2126.393
566.0960, 2063.250
567.2700, 1984.078
568.4430, 1739.932
569.6170, 1649.746
570.7900, 1644.521
571.9630, 1569.266
573.1360, 1529.977
574.3080, 1328.648
575.4810, 1262.939
576.6530, 1150.154
577.8250, 1138.332
578.9980, 971.0938
580.1690, 1020.652
581.3410, 1070.600
582.5130, 1161.564
583.6840, 1063.672
584.8550, 1302.607
586.0260, 1062.904
587.1970, 1314.137
588.3680, 1291.119
589.5380, 1262.199
590.7080, 1321.227
591.8790, 1260.318
593.0490, 1426.195
594.2190, 1297.402
595.3880, 1381.717
596.5580, 1418.928
597.7270, 1198.783
598.8960, 1296.395
600.0650, 1348.734
601.2340, 1203.090
602.4030, 1051.295
603.5710, 1069.277
604.7400, 1307.977
605.9080, 1188.141
607.0760, 1228.350
608.2440, 1258.439
609.4120, 1294.492
610.5790, 1377.350
611.7460, 1345.574
612.9140, 1340.863
614.0810, 1553.303
615.2480, 1617.648
616.4140, 1639.445
617.5810, 1573.838
618.7470, 1897.145
619.9130, 1719.514
621.0790, 1932.559
622.2450, 2041.576
623.4110, 2065.344
624.5770, 2050.344
625.7420, 2147.859
626.9070, 2241.871
628.0720, 2305.408
629.2370, 2434.195
630.4020, 2582.043
631.5660, 2660.379
632.7310, 2780.092
633.8950, 2879.031
635.0590, 3025.520
636.2230, 3175.312
637.3870, 3409.619
638.5500, 3604.658
639.7140, 3890.309
640.8770, 4162.389
642.0400, 4540.873
643.2030, 5026.393
644.3660, 5457.268
645.5280, 6273.086
646.6910, 6715.441
647.8530, 7216.441
649.0150, 8085.059
650.1770, 8710.145
651.3390, 9413.582
652.5000, 9816.535
653.6620, 9840.680
654.8230, 9581.150
655.9840, 9231.320
657.1450, 8712.672
658.3060, 7850.855
659.4660, 7141.246
660.6270, 6577.670
661.7870, 5971.805
662.9470, 5253.893
664.1070, 4886.062
665.2670, 4805.719
666.4260, 4437.180
667.5860, 4512.107
668.7450, 4300.559
669.9040, 4190.500
671.0630, 4136.107
672.2220, 4038.617
673.3800, 4136.816
674.5390, 4226.609
675.6970, 4480.949
676.8550, 4567.059
678.0130, 4765.896
679.1710, 4668.055
680.3290, 5264.559
681.4860, 5139.344
682.6430, 5325.926
683.8000, 5591.758
684.9570, 5742.408
686.1140, 5901.418
687.2710, 6106.875
688.4270, 6249.846
689.5840, 6335.031
690.7400, 6558.180
691.8960, 6551.934
693.0520, 6740.344
694.2070, 6784.338
695.3630, 7117.387
696.5180, 7095.740
697.6730, 7193.375
698.8280, 7393.684
699.9830, 7255.734
701.1380, 7556.893
702.2920, 7537.482
703.4470, 7403.789
704.6010, 7524.520
705.7550, 7619.207
706.9090, 7572.180
708.0620, 7861.973
709.2160, 7729.756
710.3690, 7535.033
711.5220, 8003.791
712.6750, 7939.535
713.8280, 7904.041
714.9810, 7971.832
716.1340, 7706.434
717.2860, 7820.139
718.4380, 7639.832
719.5900, 7585.521
720.7420, 7350.223
721.8940, 7318.980
723.0450, 7119.770
724.1970, 6827.625
725.3480, 6863.547
726.4990, 6655.529
727.6500, 6577.590
728.8010, 6251.715
729.9510, 6002.920
731.1020, 5828.215
732.2520, 5714.574
733.4020, 5811.045
734.5520, 5455.572
735.7020, 5494.186
736.8510, 4912.848
738.0010, 4897.523
739.1500, 4678.271
740.2990, 4581.057
741.4480, 4573.914
742.5970, 4214.805
743.7450, 4294.709
744.8940, 4198.609
746.0420, 4061.508
747.1900, 3998.365
748.3380, 3972.299
749.4860, 3745.193
750.6330, 3966.094
751.7810, 3895.986
752.9280, 3829.873
754.0750, 3957.752
755.2220, 3911.625
756.3690, 3857.490
757.5160, 3926.350
758.6620, 3669.201
759.8090, 3605.049
760.9550, 3974.887
762.1010, 3514.719
763.2470, 3878.537
764.3920, 3634.352
765.5380, 3784.156
766.6830, 3377.955
767.8280, 3303.744
768.9730, 2938.527
770.1180, 2636.305
771.2630, 2877.076
772.4070, 2686.842
773.5520, 2711.602
774.6960, 2293.355
775.8400, 2351.105
776.9840, 2213.852
778.1280, 2088.586
779.2710, 1894.316
780.4140, 2074.051
781.5580, 1880.781
782.7010, 1622.510
783.8440, 1768.236
784.9860, 1577.957
786.1290, 1791.672
787.2710, 1396.387
788.4140, 1541.098
789.5560, 1702.807
790.6980, 1560.512
791.8390, 1454.793
792.9810, 1125.908
794.1220, 1031.600
795.2640, 895.2910
796.4050, 841.9863
797.5460, 742.6836
798.6860, 627.3750
799.8270, 590.0625
800.9680, 503.7480
802.1080, 372.4316
803.2480, 391.1172
804.3880, 213.8008
805.5280, 447.4844
806.6670, 272.1641
807.8070, 36.83984
808.9460, 212.5117
810.0850, 18.18555
811.2240, 66.84961
812.3630, 106.4961
813.5020, 162.9199
814.6400, 136.4531
815.7790, 141.0840
816.9170, 225.8145
818.0550, 54.69141
819.1930, 194.6250
820.3300, 118.6836
821.4680, 51.83398
822.6050, 34.96094
823.7430, 335.2520
824.8800, 279.6660
826.0170, 267.2559
827.1530, 203.0137
828.2900, 212.9043
829.4260, 159.9336
830.5620, 297.0703
831.6990, 298.3887
832.8340, 48.88867
833.9700, 181.4414
835.1060, 113.1113
836.2410, 125.6465
837.3760, 191.8496
838.5120, 167.6797
839.6470, 227.7559
840.7810, 123.9766
841.9160, 8.281250
843.0500, 196.6113
844.1850, 42.93555
845.3190, 84.48047
846.4530, 10.02539
847.5870, 132.5547
848.7200, 38.08398
849.8540, 3.611328
850.9870, 129.1250
852.1200, 87.64062
853.2530, 375.1543
854.3860, 410.6680
855.5190, 862.1836
856.6510, 692.6973
857.7840, 779.5332
858.9160, 713.7266
860.0480, 736.2441
861.1800, 932.7598
862.3110, 1055.277
863.4430, 1051.797
864.5740, 1140.314
865.7060, 1283.830
866.8370, 1269.350
867.9680, 1309.867
869.0980, 1451.385
870.2290, 1624.900
871.3590, 1727.580
872.4900, 1886.936
873.6200, 2020.451
874.7500, 2264.965
875.8790, 2433.480
877.0090, 2308.992
878.1380, 2437.504
879.2680, 2679.014
880.3970, 2793.523
881.5260, 2979.035
882.6550, 3116.543
883.7830, 3129.053
884.9120, 3157.578
886.0400, 3537.119
887.1680, 3547.680
888.2960, 3622.258
889.4240, 3808.850
890.5520, 3833.453
891.6790, 3791.064
892.8070, 3961.678
893.9340, 4316.301
895.0610, 4457.207
896.1880, 4447.555
897.3140, 4669.189
898.4410, 4749.578
899.5670, 4859.469
900.6940, 5004.119
901.8200, 5191.770
902.9450, 5324.479
904.0710, 5586.189
905.1970, 5638.906
906.3220, 5710.629
907.4470, 6009.352
908.5730, 6062.078
909.6980, 6256.811
910.8220, 6212.553
911.9470, 6277.312
913.0710, 6578.076
914.1960, 6854.861
915.3200, 6674.652
916.4440, 7174.453
917.5680, 7002.258
918.6910, 6841.066
919.8150, 7056.910
920.9380, 6950.537
922.0610, 7095.613
923.1840, 7056.477
924.3070, 6999.342
925.4300, 7083.217
926.5520, 6986.098
927.6750, 6923.994
928.7970, 6891.898
929.9190, 6919.812
931.0410, 6819.277
932.1630, 6559.715
933.2840, 6599.699
934.4060, 6658.691
935.5270, 6419.703
936.6480, 6491.773
937.7690, 6233.852
938.8900, 6142.965
940.0100, 6251.092
941.1310, 5997.229
942.2510, 6045.402
943.3710, 6027.527
944.4910, 6108.740
945.6110, 6127.664
946.7310, 6119.895
947.8500, 5895.188
948.9690, 5724.920
950.0890, 5717.293
951.2080, 5654.361
952.3260, 5337.105
953.4450, 5348.580
954.5640, 5211.275
955.6820, 4863.736
956.8000, 4612.414
957.9180, 4175.748
959.0360, 3874.648
960.1540, 3587.072
961.2710, 3252.291
962.3890, 3111.572
963.5060, 2816.285
964.6230, 2466.359
965.7400, 2389.867
966.8570, 2345.373
967.9730, 2074.084
969.0900, 1918.549
970.2060, 1749.855
971.3220, 1598.443
972.4380, 1591.953
973.5540, 1447.066
974.6700, 1609.523
975.7850, 1444.574
976.9010, 1247.891
978.0160, 1510.562
979.1310, 1293.656
980.2460, 1306.783
981.3600, 1423.434
982.4750, 1504.629
983.5890, 1416.859
984.7030, 1345.402
985.8170, 1356.715
986.9310, 1440.064
988.0450, 1534.443
989.1590, 1495.863
990.2720, 1830.316
991.3850, 1723.807
992.4980, 1838.334
993.6110, 1747.898
994.7240, 1861.076
995.8370, 1961.641
996.9490, 2066.801
998.0620, 2273.508
999.1740, 2350.277
1000.286, 2605.086
1001.398, 2726.930
1002.509, 2645.881
1003.621, 2696.799
1004.732, 3247.857
1005.843, 3061.879
1006.954, 3601.955
1008.065, 3668.068
1009.176, 3826.217
1010.286, 4187.402
1011.397, 4444.641
1012.507, 4663.924
1013.617, 5177.246
1014.727, 5396.605
1015.837, 5629.004
1016.946, 6019.453
1018.056, 6436.877
1019.165, 6676.977
1020.274, 7231.811
1021.383, 7634.652
1022.492, 7671.029
1023.601, 7831.564
1024.709, 8271.213
1025.817, 8556.965
1026.926, 8840.988
1028.034, 9028.234
1029.141, 9222.664
1030.249, 9161.795
1031.357, 9254.719
1032.464, 9074.684
1033.571, 8651.545
1034.678, 8718.580
1035.785, 8142.984
1036.892, 7886.090
1037.999, 7673.229
1039.105, 6831.400
1040.211, 6698.605
1041.317, 6151.121
1042.423, 5712.127
1043.529, 5399.021
1044.635, 4626.521
1045.740, 4570.904
1046.845, 4140.609
1047.951, 4031.236
1049.056, 3837.723
1050.160, 3612.244
1051.265, 3427.797
1052.370, 3191.350
1053.474, 3131.971
1054.578, 3112.627
1055.682, 2962.314
1056.786, 2623.035
1057.890, 2501.787
1058.993, 2670.822
1060.097, 2454.570
1061.200, 2593.422
1062.303, 2465.211
1063.406, 2341.127
1064.509, 2560.449
1065.612, 2494.438
1066.714, 2267.463
1067.816, 2311.320
1068.919, 2358.055
1070.021, 2257.184
1071.122, 2257.789
1072.224, 2134.303
1073.326, 2209.520
1074.427, 2139.389
1075.528, 2237.715
1076.629, 2232.023
1077.730, 2062.359
1078.831, 2087.730
1079.931, 2004.896
1081.032, 2128.885
1082.132, 1912.438
1083.232, 1889.062
1084.332, 1883.236
1085.432, 1778.031
1086.531, 1607.693
1087.631, 1768.846
1088.730, 1772.113
1089.829, 1748.908
1090.928, 2007.004
1092.027, 1370.713
1093.126, 1401.045
1094.224, 1128.484
1095.323, 1179.174
1096.421, 917.7949
1097.519, 886.0215
1098.617, 962.5898
1099.715, 809.1348
1100.812, 997.1348
1101.910, 1003.205
1103.007, 688.7305
1104.104, 587.4824
1105.201, 844.4492
1106.298, 639.2891
1107.394, 544.8418
1108.491, 726.2207
1109.587, 420.8184
1110.683, 521.3555
1111.779, 529.0078
1112.875, 393.6797
1113.971, 425.9570
1115.066, 473.0977
1116.162, 317.1680
1117.257, 514.9336
1118.352, 439.7148
1119.447, 459.5332
1120.542, 474.3613
1121.636, 431.4551
1122.731, 467.3574
1123.825, 308.4805
1124.919, 428.3750
1126.013, 115.2930
1127.107, 184.2207
1128.200, 345.1680
1129.294, 361.1934
1130.387, 108.2578
1131.480, 194.7949
1132.573, 144.7969
1133.666, 3.187500
1134.759, 188.8398
1135.851, 3.669922
1136.944, 151.4004
1138.036, 174.4023
1139.128, 318.4961
1140.220, 211.5977
1141.312, 150.7129
1142.403, 85.04492
1143.495, 71.86914
1144.586, 181.0352
1145.677, 200.3965
1146.768, 75.78906
1147.859, 5.011719
1148.950, 96.54688
1150.040, 109.2988
1151.130, 121.9414
1152.221, 100.0078
1153.311, 87.90820
1154.401, 66.83203
1155.490, 67.76758
1156.580, 199.5801
1157.669, 47.36914
1158.759, 33.79102
1159.848, 210.8379
1160.937, 45.11328
1162.025, 11.10742
1163.114, 63.24805
1164.202, 32.54688
1165.291, 60.53906
1166.379, 233.3730
1167.467, 121.6094
1168.555, 233.5918
1169.642, 141.5371
1170.730, 443.5605
1171.817, 85.54492
1172.905, 36.53125
1173.992, 18.48242
1175.078, 72.50391
1176.165, 6.453125
1177.252, 72.36719
1178.338, 3.154297
1179.425, 299.1895
1180.511, 57.09180
1181.597, 81.10352
1182.682, 108.0020
1183.768, 105.8359
1184.854, 222.6816
1185.939, 178.5117
1187.024, 92.33984
1188.109, 106.8320
1189.194, 2.1484001E-02
1190.279, 13.92188
1191.363, 92.86523
1192.448, 11.34961
1193.532, 128.4199
1194.616, 161.4297
1195.700, 248.7656
1196.784, 165.1348
1197.867, 36.21289
1198.951, 159.6738
1200.034, 263.0918
1201.117, 90.10156
1202.200, 10.42773
1203.283, 89.84961
1204.366, 88.73633
1205.448, 46.39453
1206.531, 261.0742
1207.613, 482.3770
1208.695, 893.6543
1209.777, 4.636719
1210.859, 7.048828
1211.940, 52.26367
1213.022, 64.63281
1214.103, 24.82227
1215.184, 117.9902
1216.265, 20.41211
1217.346, 245.5742
1218.427, 16.23242
1219.507, 66.87109
1220.587, 161.0176
1221.668, 17.91211
1222.748, 135.1074
1223.828, 183.1094
1224.907, 40.88867
1225.987, 177.0293
1227.066, 121.0508
1228.146, 78.70898
1229.225, 85.01367
1230.304, 111.0039
1231.382, 254.3145
1232.461, 33.03711
1233.540, 30.71875
1234.618, 6.632813
1235.696, 82.04688
1236.774, 108.4414
1237.852, 29.60547
1238.930, 127.9941
1240.007, 52.61328
1241.085, 195.6914
1242.162, 515.9707
1243.239, 264.0684
1244.316, 216.6406
1245.393, 28.83789
1246.469, 189.9883
1247.546, 216.1074
1248.622, 160.2559
1249.698, 195.3945
1250.774, 116.7598
1251.850, 163.7617
1252.926, 121.7363
1254.001, 216.6777
1255.077, 180.0293
1256.152, 269.7109
1257.227, 271.7207
1258.302, 173.5996
1259.377, 22.61133
1260.451, 112.0918
1261.526, 196.7578
1262.600, 618.3906
1263.674, 352.8809
1264.748, 39.23047
1265.822, 223.0352
1266.896, 19.73438
1267.969, 352.1113
1269.043, 445.4531
1270.116, 344.7617
1271.189, 39.10742
1272.262, 52.35352
1273.335, 278.4746
1274.407, 187.3672
1275.480, 183.4629
1276.552, 227.6836
1277.624, 180.3066
1278.696, 217.0781
1279.768, 307.9004
1280.840, 231.0586
1281.911, 284.6797
1282.982, 251.7754
1284.054, 413.7109
1285.125, 5.466797
1286.196, 285.2344
1287.266, 202.6641
1288.337, 372.2969
1289.407, 329.8965
1290.478, 191.4707
1291.548, 234.5566
1292.618, 221.0664
1293.688, 280.0234
1294.757, 282.4727
1295.827, 361.5566
1296.896, 437.9453
1297.965, 401.3047
1299.034, 367.6289
1300.103, 285.9238
1301.172, 310.6973
1302.241, 285.9316
1303.309, 313.5527
1304.377, 244.5684
1305.445, 191.7051
1306.513, 175.5234
1307.581, 160.0684
1308.649, 436.4258
1309.716, 223.4102
1310.784, 272.3652
1311.851, 400.3223
1312.918, 245.2129
1313.985, 494.0703
1315.052, 505.8945
1316.118, 522.8770
1317.185, 339.6406
1318.251, 183.1113
1319.317, 360.8711
1320.383, 438.5254
1321.449, 344.2461
1322.514, 171.8379
1323.580, 146.0078
1324.645, 76.50781
1325.711, 112.5332
1326.776, 115.1641
1327.840, 176.9141
1328.905, 165.2676
1329.970, 210.8887
1331.034, 366.1016
1332.099, 290.3535
1333.163, 263.9570
1334.227, 291.0918
1335.290, 181.2402
1336.354, 294.3574
1337.418, 111.4375
1338.481, 185.3105
1339.544, 255.2207
1340.607, 187.1992
1341.670, 326.1211
1342.733, 300.5371
1343.795, 166.3398
1344.858, 244.7754
1345.920, 49.52539
1346.982, 270.0938
1348.044, 217.7207
1349.106, 385.4180
1350.168, 347.5449
1351.229, 348.8691
1352.291, 225.6836
1353.352, 248.0547
1354.413, 197.4512
1355.474, 32.81445
1356.534, 87.98438
1357.595, 165.5469
1358.656, 115.7949
1359.716, 320.0156
1360.776, 369.8184
1361.836, 315.8555
1362.896, 240.8848
1363.955, 206.5000
1365.015, 93.47266
1366.074, 73.71875
1367.134, 316.6777
1368.193, 226.7441
1369.252, 398.6875
1370.310, 158.7012
1371.369, 64.57617
1372.427, 299.4199
1373.486, 272.9023
1374.544, 297.6855
1375.602, 150.4414
1376.660, 15.14844
1377.717, 260.8340
