##NAMES=Laverovite
##RRUFFID=R060216
##IDEAL CHEMISTRY=K_2_NaMn^2+^_7_Zr^4+^_2_(Si_4_O_12_)_2_O_2_(OH)_4_F
##LOCALITY=Desourdy Quarry, Mont Saint-Hilaire, Rouville County, Quebec, Canada
##OWNER=RRUFF
##SOURCE=Royal Ontario Museum
##DESCRIPTION=Brown fragment showing lamellar habit. Type sample
##STATUS=The identification of this mineral has been confirmed by X-ray diffraction and chemical analysis
##URL=rruff.info/R060216
##MEASURED CHEMISTRY=(K_1.74_Na_0.18_[box]_0.08_)_Σ=2_(Na_0.92_Ca_0.08_)_Σ=1_(Mn_4.09_Fe^2+^_2.67_Mg_0.24_)_Σ=7_(Zr_1.42_Ti_0.58_)_Σ=2_(Si_7.86_Al_0.14_)_Σ=8_O_26_((OH)_3.14_O_0.86_)_Σ=4_
##PIN_ID=L01980
##ORIENTATION=Laser parallel to (1 1 0). Fiducial mark perpendicular to laser is parallel to c [0 0 1]
116.5390, 0.0000000E+00
117.7770, 318.3965
119.0130, 331.9648
120.2500, 49.64453
121.4870, 512.8672
122.7230, 1080.740
123.9590, 1135.137
125.1950, 906.9355
126.4310, 1149.447
127.6670, 1423.367
128.9030, 1763.438
130.1380, 2188.125
131.3730, 2613.365
132.6080, 2676.359
133.8430, 3212.205
135.0780, 3859.828
136.3120, 4687.768
137.5470, 6065.391
138.7810, 7510.633
140.0150, 8367.424
141.2480, 9216.016
142.4820, 9284.480
143.7160, 10155.67
144.9490, 10017.24
146.1820, 9964.113
147.4150, 8770.246
148.6480, 8524.566
149.8800, 7093.408
151.1130, 6353.820
152.3450, 5842.312
153.5770, 5093.055
154.8090, 4947.951
156.0410, 4629.723
157.2720, 4187.414
158.5040, 4563.951
159.7350, 4576.279
160.9660, 4863.367
162.1970, 5579.219
163.4270, 6096.863
164.6580, 6414.336
165.8880, 6591.670
167.1180, 6414.848
168.3480, 6073.834
169.5780, 5693.561
170.8080, 5370.990
172.0370, 4552.066
173.2670, 3596.734
174.4960, 2997.955
175.7250, 2632.697
176.9540, 1902.932
178.1820, 1537.641
179.4110, 1263.799
180.6390, 607.3887
181.8670, 216.3750
183.0950, 29.25781
184.3230, 140.5293
185.5500, 66.46875
186.7780, 157.1016
188.0050, 368.4531
189.2320, 427.5566
190.4590, 3.482422
191.6850, 167.4746
192.9120, 65.34180
194.1380, 531.1504
195.3650, 548.9902
196.5910, 641.8809
197.8160, 936.8477
199.0420, 1175.902
200.2680, 1762.076
201.4930, 2320.383
202.7180, 2340.887
203.9430, 1748.598
205.1680, 1197.719
206.3930, 812.6191
207.6170, 878.3359
208.8410, 841.8945
210.0660, 949.3516
211.2890, 1005.676
212.5130, 1632.900
213.7370, 1636.957
214.9600, 1920.680
216.1840, 1918.789
217.4070, 1616.059
218.6300, 1723.365
219.8520, 1704.643
221.0750, 1655.936
222.2970, 1877.225
223.5200, 1697.502
224.7420, 1937.756
225.9640, 1742.883
227.1850, 2025.738
228.4070, 2169.518
229.6280, 2184.254
230.8490, 2401.949
232.0700, 2356.652
233.2910, 2502.396
234.5120, 2328.172
235.7320, 2494.998
236.9530, 2783.908
238.1730, 2802.867
239.3930, 2714.848
240.6130, 2698.941
241.8320, 2675.031
243.0520, 2974.096
244.2710, 2681.170
245.4900, 2851.184
246.7090, 2929.102
247.9280, 2851.961
249.1470, 2880.609
250.3650, 2608.859
251.5840, 2773.711
252.8020, 2626.441
254.0200, 2618.031
255.2370, 2686.475
256.4550, 2070.762
257.6720, 2374.604
258.8900, 2518.070
260.1070, 2509.910
261.3240, 1896.225
262.5400, 2064.113
263.7570, 1913.445
264.9730, 1544.162
266.1900, 1446.541
267.4060, 1196.074
268.6220, 1270.699
269.8370, 1113.951
271.0530, 1025.738
272.2680, 982.9863
273.4830, 927.7930
274.6980, 903.6309
275.9130, 878.9375
277.1280, 961.5176
278.3420, 889.3457
279.5570, 901.0879
280.7710, 828.6523
281.9850, 908.2422
283.1990, 966.6582
284.4120, 1069.975
285.6260, 1124.385
286.8390, 1242.184
288.0520, 1296.916
289.2650, 1413.117
290.4780, 1594.334
291.6910, 1641.051
292.9030, 1626.535
294.1160, 1989.945
295.3280, 1625.834
296.5400, 2046.279
297.7510, 1878.576
298.9630, 1914.748
300.1740, 1963.027
301.3860, 1901.279
302.5970, 1958.416
303.8080, 1809.375
305.0180, 1825.432
306.2290, 1781.121
307.4390, 1831.027
308.6500, 1748.154
309.8600, 1885.807
311.0700, 1977.531
312.2790, 1767.379
313.4890, 1971.332
314.6980, 1821.678
315.9080, 1741.594
317.1170, 1723.750
318.3250, 1725.693
319.5340, 1983.455
320.7430, 1899.906
321.9510, 2069.320
323.1590, 2286.004
324.3670, 2378.066
325.5750, 2501.180
326.7830, 2782.686
327.9900, 3024.242
329.1980, 3367.094
330.4050, 3449.309
331.6120, 3801.672
332.8190, 4149.318
334.0250, 4544.723
335.2320, 4661.660
336.4380, 4836.773
337.6440, 5520.799
338.8500, 5844.877
340.0560, 5896.453
341.2620, 6037.930
342.4670, 6284.105
343.6730, 6324.984
344.8780, 6591.867
346.0830, 6654.850
347.2870, 6764.777
348.4920, 6742.525
349.6970, 6635.398
350.9010, 6506.965
352.1050, 6438.318
353.3090, 6164.504
354.5130, 5963.371
355.7160, 5590.840
356.9200, 5430.658
358.1230, 5461.904
359.3260, 5127.486
360.5290, 5110.480
361.7320, 4646.434
362.9340, 4557.262
364.1370, 4484.445
365.3390, 4342.711
366.5410, 4036.574
367.7430, 3778.273
368.9450, 3809.506
370.1460, 3608.682
371.3480, 3582.416
372.5490, 3460.072
373.7500, 3434.652
374.9510, 3378.416
376.1520, 3346.504
377.3520, 3284.201
378.5520, 3296.848
379.7530, 3165.189
380.9530, 3057.307
382.1530, 2952.578
383.3520, 2953.184
384.5520, 2755.887
385.7510, 2723.092
386.9500, 2751.361
388.1490, 2556.668
389.3480, 2561.258
390.5470, 2466.494
391.7450, 2397.838
392.9440, 2485.904
394.1420, 2249.242
395.3400, 2118.426
396.5380, 1928.453
397.7350, 2055.328
398.9330, 1773.051
400.1300, 1849.619
401.3270, 1695.033
402.5240, 1606.295
403.7210, 1485.404
404.9180, 1364.357
406.1140, 1202.160
407.3110, 1282.811
408.5070, 1141.338
409.7030, 1219.746
410.8990, 996.0469
412.0940, 1049.201
413.2900, 1073.047
414.4850, 1092.328
415.6800, 1114.176
416.8750, 1109.773
418.0700, 1045.479
419.2650, 1104.932
420.4590, 1107.254
421.6530, 1129.439
422.8470, 1208.490
424.0410, 967.4023
425.2350, 598.1797
426.4290, 675.8047
427.6220, 712.2852
428.8160, 352.6191
430.0090, 372.7969
431.2020, 94.81250
432.3940, 396.6328
433.5870, 156.2949
434.7790, 38.77734
435.9720, 148.9590
437.1640, 226.0176
438.3560, 232.4395
439.5470, 272.2266
440.7390, 222.4023
441.9300, 270.9395
443.1220, 370.8652
444.3130, 323.0684
445.5040, 368.8672
446.6940, 318.2246
447.8850, 367.8535
449.0750, 394.9219
450.2660, 388.4434
451.4560, 380.4121
452.6460, 316.8262
453.8350, 255.6523
455.0250, 306.8535
456.2140, 39.46289
457.4040, 93.33594
458.5930, 111.5000
459.7820, 16.85742
460.9700, 205.5352
462.1590, 212.7520
463.3470, 318.7949
464.5350, 314.2188
465.7240, 70.37500
466.9110, 206.8770
468.0990, 191.2051
469.2870, 86.35547
470.4740, 153.3125
471.6610, 273.0898
472.8480, 30.70312
474.0350, 338.1113
475.2220, 174.3574
476.4090, 414.4434
477.5950, 719.4062
478.7810, 1132.268
479.9670, 120.9824
481.1530, 371.5312
482.3390, 236.9199
483.5240, 236.1406
484.7100, 282.1914
485.8950, 162.0781
487.0800, 17.79297
488.2650, 259.3008
489.4490, 37.35547
490.6340, 167.7539
491.8180, 17.30859
493.0030, 51.41211
494.1870, 58.05273
495.3700, 130.2441
496.5540, 105.6309
497.7380, 8.232422
498.9210, 65.10352
500.1040, 172.3242
501.2870, 35.63672
502.4700, 160.3301
503.6530, 52.52930
504.8350, 86.95117
506.0180, 79.38477
507.2000, 23.44531
508.3820, 75.52539
509.5640, 39.67383
510.7450, 5.078125
511.9270, 72.66992
513.1080, 180.5137
514.2890, 77.33594
515.4700, 99.09766
516.6510, 55.13477
517.8320, 20.30859
519.0130, 15.06445
520.1930, 155.7246
521.3730, 241.7656
522.5530, 36.10156
523.7330, 104.3770
524.9130, 19.28906
526.0920, 157.8730
527.2710, 34.89062
528.4510, 176.7559
529.6300, 364.4785
530.8080, 254.0684
531.9870, 296.5195
533.1660, 334.8359
534.3440, 382.0215
535.5220, 635.0742
536.7000, 751.0098
537.8780, 974.8242
539.0560, 982.5195
540.2330, 1210.098
541.4110, 1356.561
542.5880, 1577.906
543.7650, 1892.139
544.9420, 2280.254
546.1180, 2236.258
547.2950, 2832.148
548.4710, 3076.926
549.6470, 3588.594
550.8230, 3594.164
551.9990, 4232.688
553.1750, 4433.152
554.3500, 4474.576
555.5260, 4758.598
556.7010, 4623.283
557.8760, 4829.623
559.0510, 4683.947
560.2250, 4467.273
561.4000, 4520.594
562.5740, 4389.928
563.7480, 4099.297
564.9220, 4081.738
566.0960, 3856.201
567.2700, 3772.520
568.4430, 3661.164
569.6170, 3457.984
570.7900, 3133.318
571.9630, 3105.729
573.1360, 2931.604
574.3080, 2971.117
575.4810, 3057.705
576.6530, 2696.861
577.8250, 3008.279
578.9980, 2762.803
580.1690, 2798.863
581.3410, 3117.361
582.5130, 3287.895
583.6840, 2956.297
584.8550, 3152.354
586.0260, 3108.348
587.1970, 2937.414
588.3680, 3149.615
589.5380, 3296.668
590.7080, 3237.004
591.8790, 3362.734
593.0490, 3475.969
594.2190, 3685.205
595.3880, 3608.305
596.5580, 3768.223
597.7270, 3735.961
598.8960, 3542.363
600.0650, 3961.857
601.2340, 3924.162
602.4030, 3901.127
603.5710, 4243.129
604.7400, 4380.889
605.9080, 4395.590
607.0760, 4571.934
608.2440, 4678.801
609.4120, 4665.521
610.5790, 4812.531
611.7460, 5073.836
612.9140, 5130.193
614.0810, 5270.154
615.2480, 5449.738
616.4140, 5888.246
617.5810, 6117.109
618.7470, 6333.227
619.9130, 6436.930
621.0790, 6684.855
622.2450, 6951.459
623.4110, 7152.459
624.5770, 7350.451
625.7420, 7787.637
626.9070, 8117.008
628.0720, 8026.275
629.2370, 8496.332
630.4020, 8654.332
631.5660, 9043.773
632.7310, 9412.246
633.8950, 9774.273
635.0590, 10091.40
636.2230, 10503.58
637.3870, 10776.96
638.5500, 11388.61
639.7140, 11916.78
640.8770, 12440.71
642.0400, 13613.52
643.2030, 13712.11
644.3660, 14752.60
645.5280, 15637.07
646.6910, 16249.05
647.8530, 17282.80
649.0150, 18005.82
650.1770, 18316.85
651.3390, 18809.22
652.5000, 18317.50
653.6620, 18159.38
654.8230, 17671.61
655.9840, 17065.08
657.1450, 16650.22
658.3060, 15665.62
659.4660, 15278.46
660.6270, 14493.71
661.7870, 13643.73
662.9470, 13275.84
664.1070, 13071.66
665.2670, 13048.01
666.4260, 12597.13
667.5860, 12559.61
668.7450, 12505.89
669.9040, 12559.70
671.0630, 12962.68
672.2220, 13019.58
673.3800, 13335.69
674.5390, 13719.04
675.6970, 13877.44
676.8550, 14230.85
678.0130, 14280.28
679.1710, 14721.60
680.3290, 15288.21
681.4860, 15500.71
682.6430, 15977.22
683.8000, 16306.76
684.9570, 16439.32
686.1140, 16687.91
687.2710, 17044.52
688.4270, 17000.15
689.5840, 17417.39
690.7400, 17766.01
691.8960, 18211.85
693.0520, 17927.31
694.2070, 18349.59
695.3630, 18424.23
696.5180, 18550.30
697.6730, 18651.90
698.8280, 18941.10
699.9830, 19057.52
701.1380, 19024.70
702.2920, 19408.76
703.4470, 19337.91
704.6010, 19367.65
705.7550, 19322.53
706.9090, 19220.17
708.0620, 19231.26
709.2160, 19183.30
710.3690, 19128.86
711.5220, 19126.22
712.6750, 18995.77
713.8280, 18931.62
714.9810, 18769.75
716.1340, 18355.41
717.2860, 18062.87
718.4380, 17756.27
719.5900, 17175.21
720.7420, 17108.83
721.8940, 16971.56
723.0450, 16653.42
724.1970, 16730.43
725.3480, 15950.58
726.4990, 15168.89
727.6500, 15239.33
728.8010, 14676.93
729.9510, 14180.70
731.1020, 13494.62
732.2520, 13268.70
733.4020, 12719.92
734.5520, 12549.27
735.7020, 12099.75
736.8510, 11975.31
738.0010, 11785.95
739.1500, 11523.62
740.2990, 11237.35
741.4480, 11100.11
742.5970, 10797.90
743.7450, 10487.71
744.8940, 10528.55
746.0420, 10294.42
747.1900, 10007.32
748.3380, 10132.25
749.4860, 9979.223
750.6330, 9756.223
751.7810, 9890.246
752.9280, 9814.324
754.0750, 9922.424
755.2220, 9606.555
756.3690, 9407.707
757.5160, 9250.883
758.6620, 9158.076
759.8090, 9017.049
760.9550, 8947.549
762.1010, 8826.828
763.2470, 8618.141
764.3920, 8540.479
765.5380, 8254.852
766.6830, 8166.273
767.8280, 8189.721
768.9730, 7643.236
770.1180, 7384.783
771.2630, 7561.389
772.4070, 7266.035
773.5520, 7101.750
774.6960, 6980.502
775.8400, 6749.330
776.9840, 6855.207
778.1280, 6610.156
779.2710, 6293.137
780.4140, 6684.160
781.5580, 6189.273
782.7010, 5825.453
783.8440, 5745.703
784.9860, 5873.988
786.1290, 5216.328
787.2710, 5363.703
788.4140, 5131.137
789.5560, 4683.617
790.6980, 4579.164
791.8390, 4547.740
792.9810, 4255.355
794.1220, 3993.000
795.2640, 3520.680
796.4050, 3477.410
797.5460, 3225.178
798.6860, 3140.027
799.8270, 2537.977
800.9680, 2335.979
802.1080, 2146.010
803.2480, 1992.285
804.3880, 1789.652
805.5280, 1873.330
806.6670, 1512.500
807.8070, 1210.693
808.9460, 1268.918
810.0850, 1003.168
811.2240, 900.4453
812.3630, 651.7441
813.5020, 603.0664
814.6400, 488.4082
815.7790, 400.5078
816.9170, 528.1484
818.0550, 290.5488
819.1930, 348.9688
820.3300, 284.4082
821.4680, 72.86719
822.6050, 234.3438
823.7430, 51.83789
824.8800, 51.34961
826.0170, 5.878906
827.1530, 229.5918
828.2900, 148.9004
829.4260, 221.8438
830.5620, 184.6250
831.6990, 235.5039
832.8340, 383.5078
833.9700, 309.7148
835.1060, 365.0898
836.2410, 318.6602
837.3760, 408.4062
838.5120, 484.3711
839.6470, 611.6016
840.7810, 428.1621
841.9160, 460.9551
843.0500, 392.0020
844.1850, 473.2656
845.3190, 429.8008
846.4530, 342.5508
847.5870, 383.5039
848.7200, 353.6738
849.8540, 310.0391
850.9870, 281.8691
852.1200, 130.2832
853.2530, 173.0703
854.3860, 121.9609
855.5190, 77.92969
856.6510, 170.0449
857.7840, 193.0371
858.9160, 371.0430
860.0480, 493.0645
861.1800, 409.0977
862.3110, 605.1426
863.4430, 705.1973
864.5740, 636.2637
865.7060, 858.3496
866.8370, 968.4707
867.9680, 1162.607
869.0980, 1295.803
870.2290, 1251.045
871.3590, 1444.320
872.4900, 1808.635
873.6200, 1617.018
874.7500, 2317.441
875.8790, 2415.873
877.0090, 2334.375
878.1380, 2353.885
879.2680, 2480.434
880.3970, 2731.994
881.5260, 3040.584
882.6550, 3255.191
883.7830, 3351.879
884.9120, 3553.605
886.0400, 3725.367
887.1680, 3891.422
888.2960, 4273.990
889.4240, 4250.859
890.5520, 4495.734
891.6790, 4655.611
892.8070, 4714.557
893.9340, 4749.535
895.0610, 5098.523
896.1880, 5426.588
897.3140, 5498.703
898.4410, 5872.865
899.5670, 6136.068
900.6940, 6344.289
901.8200, 6666.514
902.9450, 6672.754
904.0710, 6844.045
905.1970, 7150.348
906.3220, 7431.684
907.4470, 7578.027
908.5730, 7768.369
909.6980, 7924.742
910.8220, 8155.115
911.9470, 8293.438
913.0710, 8457.535
914.1960, 8603.430
915.3200, 8757.934
916.4440, 8925.457
917.5680, 9093.988
918.6910, 9034.516
919.8150, 8996.047
920.9380, 9031.578
922.0610, 9155.111
923.1840, 9091.078
924.3070, 9091.227
925.4300, 9019.812
926.5520, 9000.424
927.6750, 8895.025
928.7970, 8955.629
929.9190, 8755.227
931.0410, 8794.816
932.1630, 8610.406
933.2840, 8591.990
934.4060, 8529.570
935.5270, 8314.145
936.6480, 8190.715
937.7690, 7947.301
938.8900, 7860.621
940.0100, 7768.906
941.1310, 7696.045
942.2510, 7685.641
943.3710, 7668.234
944.4910, 7684.824
945.6110, 7426.691
946.7310, 7533.973
947.8500, 6825.535
948.9690, 6776.088
950.0890, 6399.625
951.2080, 6202.154
952.3260, 5962.668
953.4450, 5686.623
954.5640, 5453.156
955.6820, 5141.162
956.8000, 4975.643
957.9180, 4577.109
959.0360, 4418.566
960.1540, 4129.010
961.2710, 4146.852
962.3890, 3675.332
963.5060, 3573.600
964.6230, 3170.260
965.7400, 3251.105
966.8570, 3005.617
967.9730, 2671.725
969.0900, 2702.334
970.2060, 2756.340
971.3220, 2437.145
972.4380, 2293.203
973.5540, 2217.395
974.6700, 2180.506
975.7850, 2037.051
976.9010, 2171.469
978.0160, 2132.152
979.1310, 2338.684
980.2460, 2224.896
981.3600, 2267.551
982.4750, 2369.605
983.5890, 2286.514
984.7030, 2450.148
985.8170, 2622.543
986.9310, 2742.449
988.0450, 2811.672
989.1590, 2998.084
990.2720, 3403.086
991.3850, 3542.693
992.4980, 3850.168
993.6110, 4366.662
994.7240, 4051.357
995.8370, 4773.879
996.9490, 4851.412
998.0620, 5144.293
999.1740, 5314.090
1000.286, 5962.303
1001.398, 6574.299
1002.509, 6740.645
1003.621, 7419.824
1004.732, 7660.840
1005.843, 8575.713
1006.954, 9195.715
1008.065, 10100.74
1009.176, 10690.91
1010.286, 11514.74
1011.397, 12053.39
1012.507, 12644.44
1013.617, 13703.36
1014.727, 14532.79
1015.837, 15595.60
1016.946, 16294.67
1018.056, 17468.36
1019.165, 18300.50
1020.274, 19065.38
1021.383, 20024.07
1022.492, 20533.37
1023.601, 20855.86
1024.709, 21569.13
1025.817, 21940.99
1026.926, 21915.01
1028.034, 22251.02
1029.141, 22591.70
1030.249, 22070.99
1031.357, 22155.43
1032.464, 21470.94
1033.571, 20864.32
1034.678, 20356.83
1035.785, 19275.02
1036.892, 18577.16
1037.999, 17643.38
1039.105, 16689.84
1040.211, 15733.20
1041.317, 14968.58
1042.423, 13764.88
1043.529, 12838.45
1044.635, 12242.01
1045.740, 11565.25
1046.845, 10548.98
1047.951, 10188.82
1049.056, 9458.285
1050.160, 9021.281
1051.265, 8684.107
1052.370, 8174.414
1053.474, 7598.119
1054.578, 7368.123
1055.682, 6908.941
1056.786, 6417.043
1057.890, 6101.607
1058.993, 6277.420
1060.097, 6520.254
1061.200, 6122.549
1062.303, 5620.707
1063.406, 5189.770
1064.509, 5166.535
1065.612, 4842.580
1066.714, 5086.801
1067.816, 4720.676
1068.919, 4632.123
1070.021, 4898.145
1071.122, 4591.484
1072.224, 4444.430
1073.326, 4367.445
1074.427, 4548.598
1075.528, 4356.441
1076.629, 4186.170
1077.730, 4284.947
1078.831, 4127.568
1079.931, 3921.969
1081.032, 3653.080
1082.132, 3770.021
1083.232, 3673.699
1084.332, 3712.348
1085.432, 3731.129
1086.531, 3424.922
1087.631, 3427.250
1088.730, 3378.391
1089.829, 2932.434
1090.928, 2650.723
1092.027, 2766.176
1093.126, 2432.590
1094.224, 2402.988
1095.323, 2294.879
1096.421, 1994.527
1097.519, 1916.230
1098.617, 1841.777
1099.715, 1805.516
1100.812, 1628.152
1101.910, 1452.027
1103.007, 1462.996
1104.104, 1212.832
1105.201, 974.1094
1106.298, 1098.137
1107.394, 834.3086
1108.491, 849.3047
1109.587, 630.1289
1110.683, 484.0000
1111.779, 510.8242
1112.875, 735.6484
1113.971, 529.3594
1115.066, 578.1562
1116.162, 599.4258
1117.257, 367.3516
1118.352, 238.3281
1119.447, 223.3242
1120.542, 318.3398
1121.636, 275.2578
1122.731, 10.45312
1123.825, 263.5195
1124.919, 325.3008
1126.013, 160.1289
1127.107, 447.8242
1128.200, 266.6406
1129.294, 138.4180
1130.387, 6.546875
1131.480, 82.84766
1132.573, 10.28516
1133.666, 160.7578
1134.759, 124.3750
1135.851, 72.10938
1136.944, 99.94141
1138.036, 195.8828
1139.128, 114.9883
1140.220, 133.7891
1141.312, 220.1406
1142.403, 275.4141
1143.495, 93.08203
1144.586, 8.308594
1145.677, 48.35547
1146.768, 5.121094
1147.859, 246.9531
1148.950, 95.98047
1150.040, 70.12500
1151.130, 26.61328
1152.221, 235.6992
1153.311, 5.203125
1154.401, 105.2109
1155.490, 160.5703
1156.580, 186.1211
1157.669, 59.98438
1158.759, 33.04688
1159.848, 227.9844
1160.937, 125.2148
1162.025, 110.5820
1163.114, 95.09375
1164.202, 3.273438
1165.291, 113.5586
1166.379, 7.789063
1167.467, 134.0586
1168.555, 33.94141
1169.642, 74.12109
1170.730, 145.6953
1171.817, 140.4531
1172.905, 37.84375
1173.992, 94.75391
1175.078, 88.70703
1176.165, 67.29688
1177.252, 76.99219
1178.338, 139.7812
1179.425, 5.714844
1180.511, 19.26562
1181.597, 255.1680
1182.682, 172.0117
1183.768, 66.80469
1184.854, 56.53516
1185.939, 69.19531
1187.024, 109.2070
1188.109, 33.24219
1189.194, 40.37500
1190.279, 228.8984
1191.363, 120.1133
1192.448, 424.2734
1193.532, 162.3750
1194.616, 229.4258
1195.700, 278.3828
1196.784, 73.35547
1197.867, 191.2227
1198.951, 289.0391
1200.034, 26.20312
1201.117, 102.4531
1202.200, 59.04297
1203.283, 55.57031
1204.366, 27.97656
1205.448, 63.37109
1206.531, 187.6484
1207.613, 171.7188
1208.695, 203.0312
1209.777, 251.1367
1210.859, 314.1875
1211.940, 350.1836
1213.022, 406.1328
1214.103, 444.0547
1215.184, 142.9336
1216.265, 361.7578
1217.346, 41.52734
1218.427, 267.2227
1219.507, 284.8672
1220.587, 219.4570
1221.668, 552.9922
1222.748, 547.4766
1223.828, 478.9102
1224.907, 309.2969
1225.987, 372.6367
1227.066, 366.9258
1228.146, 175.1758
1229.225, 1.628906
1230.304, 512.5117
1231.382, 380.6016
1232.461, 376.6367
1233.540, 437.6211
1234.618, 341.5547
1235.696, 531.4336
1236.774, 649.2578
1237.852, 252.0312
1238.930, 317.7383
1240.007, 327.9102
1241.085, 363.9961
1242.162, 388.5156
1243.239, 582.9961
1244.316, 491.4102
1245.393, 336.7695
1246.469, 498.0664
1247.546, 656.2930
1248.622, 448.4609
1249.698, 498.5625
1250.774, 397.6016
1251.850, 614.5742
1252.926, 622.3320
1254.001, 232.1719
1255.077, 582.9414
1256.152, 252.4531
1257.227, 779.0859
1258.302, 696.6562
1259.377, 364.8281
1260.451, 481.0312
1261.526, 505.7656
1262.600, 695.6641
1263.674, 654.1641
1264.748, 562.7773
1265.822, 595.5078
1266.896, 634.3281
1267.969, 520.9688
1269.043, 606.5273
1270.116, 304.8984
1271.189, 562.5508
1272.262, 929.3477
1273.335, 583.6836
1274.407, 673.1094
1275.480, 630.9688
1276.552, 668.3984
1277.624, 530.5156
1278.696, 593.9727
1279.768, 468.9258
1280.840, 427.1016
1281.911, 778.4062
1282.982, 565.0547
