##NAMES=Laverovite
##RRUFFID=R060216
##IDEAL CHEMISTRY=K_2_NaMn^2+^_7_Zr^4+^_2_(Si_4_O_12_)_2_O_2_(OH)_4_F
##LOCALITY=Desourdy Quarry, Mont Saint-Hilaire, Rouville County, Quebec, Canada
##OWNER=RRUFF
##SOURCE=Royal Ontario Museum
##DESCRIPTION=Brown fragment showing lamellar habit. Type sample
##STATUS=The identification of this mineral has been confirmed by X-ray diffraction and chemical analysis
##URL=rruff.info/R060216
##MEASURED CHEMISTRY=(K_1.74_Na_0.18_[box]_0.08_)_Σ=2_(Na_0.92_Ca_0.08_)_Σ=1_(Mn_4.09_Fe^2+^_2.67_Mg_0.24_)_Σ=7_(Zr_1.42_Ti_0.58_)_Σ=2_(Si_7.86_Al_0.14_)_Σ=8_O_26_((OH)_3.14_O_0.86_)_Σ=4_
##PIN_ID=L00627
##ORIENTATION=Laser parallel to (1 0 1). Fiducial mark perpendicular to laser is parallel to b [0 1 0]
217.3660, 0.0000000E+00
218.5850, 1.500000
219.8030, 183.6719
221.0220, 130.2188
222.2400, 414.3867
223.4590, 510.7617
224.6770, 342.2578
225.8950, 316.0078
227.1120, 29.73242
228.3300, 359.5996
229.5480, 357.0723
230.7650, 127.8203
231.9820, 341.8711
233.1990, 130.3047
234.4160, 427.1641
235.6330, 329.4219
236.8490, 556.2734
238.0660, 92.54883
239.2820, 369.9629
240.4980, 276.2461
241.7140, 368.1895
242.9300, 410.3516
244.1460, 7.013672
245.3610, 288.4023
246.5770, 119.9668
247.7920, 41.23828
249.0070, 192.5938
250.2220, 358.5508
251.4370, 463.3184
252.6510, 510.8887
253.8660, 325.3047
255.0800, 403.8691
256.2940, 367.8750
257.5080, 325.3984
258.7220, 420.4336
259.9360, 258.6133
261.1490, 356.7344
262.3630, 345.3984
263.5760, 377.8301
264.7890, 301.5176
266.0020, 256.5332
267.2150, 313.6250
268.4270, 313.3730
269.6400, 223.7480
270.8520, 252.1074
272.0640, 71.52734
273.2760, 75.65625
274.4880, 160.1172
275.7000, 80.00391
276.9120, 114.3574
278.1230, 106.0410
279.3340, 99.48633
280.5450, 37.68555
281.7560, 52.04883
282.9670, 38.08789
284.1780, 25.13086
285.3880, 3.314453
286.5980, 35.42188
287.8090, 187.8613
289.0190, 269.5586
290.2290, 297.8730
291.4380, 86.27930
292.6480, 218.6934
293.8570, 187.9707
295.0670, 441.3750
296.2760, 264.5859
297.4850, 356.6777
298.6930, 394.6211
299.9020, 378.4043
301.1110, 326.9980
302.3190, 223.4004
303.5270, 417.5898
304.7350, 139.5352
305.9430, 323.2109
307.1510, 348.9316
308.3580, 334.0938
309.5660, 548.3965
310.7730, 724.0469
311.9800, 607.4824
313.1870, 752.0312
314.3940, 619.6699
315.6010, 645.8066
316.8070, 703.9824
318.0130, 693.0312
319.2200, 739.6523
320.4260, 884.1250
321.6310, 816.2285
322.8370, 1144.123
324.0430, 1014.930
325.2480, 979.1055
326.4540, 1249.520
327.6590, 1349.189
328.8640, 1539.510
330.0680, 1631.699
331.2730, 1764.830
332.4780, 1728.408
333.6820, 1880.088
334.8860, 1858.938
336.0900, 1935.793
337.2940, 2139.658
338.4980, 2069.328
339.7010, 2211.754
340.9050, 2222.055
342.1080, 2366.574
343.3110, 2320.850
344.5140, 2345.215
345.7170, 2330.203
346.9200, 2153.971
348.1220, 2208.939
349.3240, 2189.078
350.5270, 2179.471
351.7290, 2223.527
352.9310, 2227.701
354.1320, 2177.428
355.3340, 2161.033
356.5350, 2101.979
357.7370, 2110.777
358.9380, 2032.010
360.1390, 2210.369
361.3400, 1938.879
362.5400, 2180.867
363.7410, 2281.717
364.9410, 1707.758
366.1410, 1857.086
367.3410, 1807.875
368.5410, 1964.211
369.7410, 1739.164
370.9400, 1661.518
372.1400, 1631.865
373.3390, 1770.293
374.5380, 1656.299
375.7370, 1665.406
376.9360, 1575.459
378.1350, 1677.438
379.3330, 1443.574
380.5310, 1484.307
381.7300, 1313.648
382.9280, 1413.451
384.1260, 1381.057
385.3230, 1426.912
386.5210, 1042.768
387.7180, 1311.424
388.9160, 1038.186
390.1130, 1202.553
391.3100, 1262.623
392.5060, 1176.504
393.7030, 873.8262
394.9000, 1102.373
396.0960, 736.8438
397.2920, 790.0508
398.4880, 888.2910
399.6840, 717.7461
400.8800, 746.5684
402.0750, 632.1973
403.2710, 714.0781
404.4660, 679.9648
405.6610, 474.2285
406.8560, 418.3008
408.0510, 645.3828
409.2450, 418.0469
410.4400, 774.2656
411.6340, 686.1621
412.8280, 620.8926
414.0220, 606.9121
415.2160, 458.7363
416.4100, 261.4570
417.6030, 204.1250
418.7970, 242.8145
419.9900, 261.2480
421.1830, 294.0508
422.3760, 332.5684
423.5690, 257.6523
424.7610, 33.37109
425.9540, 45.26172
427.1460, 24.54688
428.3380, 119.0625
429.5300, 125.0078
430.7220, 207.6699
431.9140, 85.09375
433.1050, 2.283203
434.2970, 39.21875
435.4880, 76.17188
436.6790, 108.1191
437.8700, 106.6270
439.0610, 55.49805
440.2510, 143.5527
441.4420, 86.03516
442.6320, 222.4941
443.8220, 140.1914
445.0120, 218.3242
446.2020, 173.4883
447.3910, 107.4727
448.5810, 193.9277
449.7700, 102.6816
450.9600, 60.64453
452.1490, 230.2188
453.3370, 57.28711
454.5260, 175.7598
455.7150, 195.8242
456.9030, 72.58789
458.0910, 152.8516
459.2800, 85.12500
460.4670, 129.2578
461.6550, 14.58008
462.8430, 22.06055
464.0300, 87.61328
465.2180, 87.05859
466.4050, 28.35156
467.5920, 110.5215
468.7790, 8.431641
469.9650, 148.1348
471.1520, 10.83203
472.3380, 74.24609
473.5250, 109.8789
474.7110, 51.55273
475.8970, 40.92578
477.0820, 31.33203
478.2680, 17.47070
479.4540, 145.2559
480.6390, 11.51562
481.8240, 136.6953
483.0090, 158.3320
484.1940, 227.2461
485.3780, 193.6328
486.5630, 191.6172
487.7470, 292.0195
488.9320, 335.6484
490.1160, 290.0137
491.3000, 361.6445
492.4830, 223.6855
493.6670, 269.6309
494.8500, 84.02148
496.0340, 68.52344
497.2170, 76.91406
498.4000, 169.3496
499.5820, 181.7832
500.7650, 107.2012
501.9480, 65.62109
503.1300, 97.03906
504.3120, 140.5410
505.4940, 2.250000
506.6760, 61.03320
507.8580, 211.0938
509.0390, 72.15234
510.2210, 86.14062
511.4020, 4.935547
512.5830, 63.92578
513.7640, 134.7266
514.9450, 79.46875
516.1250, 157.1582
517.3060, 392.7910
518.4860, 360.3770
519.6660, 245.9102
520.8460, 380.4004
522.0260, 311.8477
523.2060, 524.2539
524.3850, 356.6191
525.5650, 254.9492
526.7440, 388.2441
527.9230, 645.5078
529.1020, 636.8164
530.2810, 744.9355
531.4590, 825.1152
532.6380, 810.2715
533.8160, 880.4062
534.9940, 815.5293
536.1720, 975.6387
537.3500, 1210.729
538.5270, 1102.621
539.7050, 1508.686
540.8820, 1074.740
542.0590, 1515.584
543.2360, 1596.580
544.4130, 1959.191
545.5900, 1714.217
546.7660, 2128.131
547.9430, 2254.252
549.1190, 2230.176
550.2950, 2526.107
551.4710, 2673.156
552.6470, 2931.539
553.8220, 2942.414
554.9980, 2904.035
556.1730, 2942.230
557.3480, 2987.924
558.5230, 3056.494
559.6980, 3093.551
560.8730, 3365.221
562.0470, 3340.191
563.2220, 3421.586
564.3960, 3554.439
565.5700, 3347.936
566.7440, 3438.000
567.9170, 3616.846
569.0910, 3818.078
570.2640, 3733.609
571.4380, 3758.080
572.6110, 3900.209
573.7840, 3773.732
574.9570, 3963.613
576.1290, 4004.355
577.3020, 4013.969
578.4740, 4059.781
579.6460, 4010.859
580.8180, 4311.441
581.9900, 4375.541
583.1620, 4421.422
584.3330, 4172.910
585.5040, 4570.740
586.6760, 4599.852
587.8470, 4444.967
589.0180, 4676.410
590.1880, 4878.637
591.3590, 5055.785
592.5290, 5119.902
593.7000, 5218.439
594.8700, 5305.035
596.0400, 5238.391
597.2090, 5209.688
598.3790, 5301.928
599.5490, 5890.340
600.7180, 5692.211
601.8870, 6076.527
603.0560, 5901.254
604.2250, 5983.076
605.3940, 6091.855
606.5620, 6206.756
607.7300, 6466.105
608.8990, 6577.912
610.0670, 6833.225
611.2350, 6915.129
612.4020, 7005.889
613.5700, 7254.344
614.7370, 7286.066
615.9050, 7483.004
617.0720, 7627.547
618.2390, 7868.141
619.4060, 7948.746
620.5720, 7931.104
621.7390, 8404.924
622.9050, 8762.449
624.0710, 8501.172
625.2370, 8835.117
626.4030, 8983.123
627.5690, 9243.191
628.7340, 9348.324
629.9000, 9569.523
631.0650, 9785.852
632.2300, 10054.11
633.3950, 10271.50
634.5600, 10698.96
635.7240, 11049.45
636.8890, 11160.89
638.0530, 11685.55
639.2170, 12128.27
640.3810, 12424.06
641.5450, 12915.92
642.7080, 13248.85
643.8720, 13392.84
645.0350, 13993.14
646.1980, 14270.19
647.3610, 14505.15
648.5240, 14583.43
649.6870, 14942.78
650.8490, 14992.20
652.0120, 15068.59
653.1740, 14833.16
654.3360, 14960.79
655.4980, 14992.51
656.6600, 14618.30
657.8210, 14001.17
658.9830, 14102.12
660.1440, 13567.14
661.3050, 13627.24
662.4660, 13215.42
663.6270, 12786.67
664.7870, 12702.01
665.9480, 12481.42
667.1080, 12255.91
668.2680, 12046.49
669.4280, 11744.14
670.5880, 11538.88
671.7480, 11726.70
672.9070, 11351.60
674.0670, 11387.58
675.2260, 11331.64
676.3850, 11033.79
677.5440, 11412.02
678.7030, 11144.34
679.8610, 11029.74
681.0200, 11113.22
682.1780, 11079.54
683.3360, 10843.59
684.4940, 10832.94
685.6520, 10864.88
686.8090, 10901.32
687.9670, 11050.16
689.1240, 10604.86
690.2810, 10800.73
691.4380, 10784.99
692.5950, 10433.09
693.7520, 10719.56
694.9080, 10215.44
696.0650, 10275.43
697.2210, 10416.26
698.3770, 10357.74
699.5330, 10310.63
700.6880, 10238.81
701.8440, 10158.95
702.9990, 10092.32
704.1550, 9944.926
705.3100, 9934.176
706.4650, 9668.832
707.6190, 9571.336
708.7740, 9569.707
709.9290, 9508.953
711.0830, 9293.629
712.2370, 9337.766
713.3910, 8998.768
714.5450, 8897.430
715.6980, 8703.832
716.8520, 8792.484
718.0050, 8557.941
719.1580, 8374.523
720.3110, 8390.473
721.4640, 8213.279
722.6170, 8121.199
723.7700, 7845.275
724.9220, 7888.484
726.0740, 7616.443
727.2260, 7325.344
728.3780, 7205.965
729.5300, 7127.730
730.6810, 6974.617
731.8330, 6618.582
732.9840, 6721.699
734.1350, 6508.922
735.2860, 6596.283
736.4370, 6320.785
737.5880, 6121.395
738.7380, 6021.129
739.8880, 6004.975
741.0390, 5850.943
742.1890, 5819.002
743.3380, 5669.879
744.4880, 5498.352
745.6380, 5358.639
746.7870, 5342.006
747.9360, 5170.484
749.0850, 5062.043
750.2340, 4957.203
751.3830, 4833.486
752.5310, 4686.324
753.6800, 4472.234
754.8280, 4283.240
755.9760, 4573.316
757.1240, 4502.473
758.2720, 4145.703
759.4190, 4273.004
760.5670, 4046.383
761.7140, 4073.834
762.8610, 3815.357
764.0080, 3654.949
765.1550, 3690.613
766.3020, 3673.348
767.4480, 3544.332
768.5950, 3535.738
769.7410, 3287.973
770.8870, 3378.990
772.0330, 3164.078
773.1780, 3022.238
774.3240, 2912.469
775.4690, 2889.785
776.6140, 2731.652
777.7590, 2670.389
778.9040, 2474.156
780.0490, 2496.756
781.1940, 2348.430
782.3380, 2258.170
783.4820, 2052.008
784.6260, 1972.916
785.7700, 2025.902
786.9140, 1733.961
788.0580, 1777.088
789.2010, 1616.287
790.3450, 1607.557
791.4880, 1521.896
792.6310, 1322.307
793.7730, 1315.785
794.9160, 1348.336
796.0590, 1360.957
797.2010, 1306.404
798.3430, 974.4043
799.4850, 1092.232
800.6270, 1009.127
801.7690, 698.0938
802.9100, 865.1289
804.0520, 688.2305
805.1930, 930.4043
806.3340, 371.6445
807.4750, 290.9512
808.6160, 667.3262
809.7560, 301.7695
810.8970, 221.2812
812.0370, 178.8594
813.1770, 206.5059
814.3170, 302.2188
815.4570, 103.9941
816.5960, 133.8398
817.7360, 141.7500
818.8750, 49.27539
820.0140, 332.2656
821.1530, 224.0078
822.2920, 8.474609
823.4310, 181.5566
824.5690, 44.66406
825.7070, 120.7383
826.8460, 180.8164
827.9840, 203.9238
829.1220, 234.8848
830.2590, 275.6445
831.3970, 243.5508
832.5340, 334.8887
833.6710, 329.3301
834.8080, 338.6426
835.9450, 196.5234
837.0820, 291.2148
838.2190, 324.9922
839.3550, 261.8691
840.4910, 375.8203
841.6270, 191.8984
842.7630, 252.0195
843.8990, 302.2109
845.0350, 260.5000
846.1700, 182.8633
847.3060, 206.2656
848.4410, 98.72070
849.5760, 80.82227
850.7100, 64.58203
851.8450, 15.97266
852.9800, 119.3320
854.1140, 191.2910
855.2480, 73.97266
856.3820, 27.71289
857.5160, 259.4941
858.6500, 74.33398
859.7830, 131.2285
860.9170, 380.1758
862.0500, 233.1797
863.1830, 477.2383
864.3160, 490.3496
865.4480, 622.5156
866.5810, 662.7324
867.7130, 794.0000
868.8460, 844.8926
869.9780, 798.6914
871.1100, 959.1172
872.2410, 808.5918
873.3730, 856.1211
874.5050, 915.6992
875.6360, 961.3398
876.7670, 1040.000
877.8980, 1124.934
879.0290, 1208.631
880.1590, 1300.525
881.2900, 1404.469
882.4200, 1451.281
883.5500, 1490.514
884.6800, 1471.631
885.8100, 1492.846
886.9400, 1534.135
888.0690, 1589.520
889.1990, 1664.008
890.3280, 1783.561
891.4570, 1920.215
892.5860, 1872.982
893.7140, 1877.918
894.8430, 2094.697
895.9710, 1944.648
897.1000, 2113.646
898.2280, 2140.750
899.3560, 2361.855
900.4830, 2321.082
901.6110, 2209.289
902.7380, 2399.314
903.8660, 2537.418
904.9930, 2626.258
906.1200, 2518.369
907.2460, 2664.689
908.3730, 2709.297
909.5000, 2749.818
910.6260, 2932.160
911.7520, 2853.279
912.8780, 3033.518
914.0040, 3110.389
915.1290, 3234.609
916.2550, 3256.420
917.3800, 3309.906
918.5050, 3488.430
919.6300, 3368.850
920.7550, 3703.316
921.8800, 3825.859
923.0040, 3998.480
924.1290, 4036.750
925.2530, 4108.533
926.3770, 4170.828
927.5010, 4162.471
928.6250, 4185.352
929.7480, 4216.271
930.8720, 4113.275
931.9950, 4424.320
933.1180, 4465.430
934.2410, 4339.578
935.3640, 4527.773
936.4860, 4532.014
937.6090, 4713.297
938.7310, 4749.613
939.8530, 4971.967
940.9750, 4823.352
942.0970, 4931.779
943.2180, 4914.242
944.3400, 5227.742
945.4610, 5393.273
946.5820, 5419.838
947.7030, 5302.438
948.8240, 5471.113
949.9450, 5439.045
951.0650, 5623.182
952.1860, 5755.340
953.3060, 5838.223
954.4260, 5721.541
955.5460, 5844.426
956.6650, 5871.225
957.7850, 5904.398
958.9040, 6070.967
960.0230, 5982.941
961.1420, 6150.227
962.2610, 6211.045
963.3800, 6317.918
964.4990, 6320.576
965.6170, 6352.594
966.7350, 6488.836
967.8530, 6563.312
968.9710, 6548.859
970.0890, 6651.170
971.2070, 6551.619
972.3240, 6845.240
973.4410, 6787.488
974.5580, 7021.160
975.6750, 7120.633
976.7920, 7468.117
977.9090, 7377.336
979.0250, 7465.836
980.1410, 7640.621
981.2580, 7902.646
982.3740, 7928.422
983.4890, 8090.848
984.6050, 8454.582
985.7200, 8458.789
986.8360, 8578.398
987.9510, 8858.922
989.0660, 9090.797
990.1810, 9054.709
991.2950, 9423.375
992.4100, 9555.359
993.5240, 9738.381
994.6390, 9980.607
995.7530, 9765.523
996.8660, 10294.64
997.9800, 10436.80
999.0940, 10421.98
1000.207, 10874.21
1001.320, 10848.46
1002.433, 11199.75
1003.546, 11352.06
1004.659, 11604.40
1005.772, 11767.67
1006.884, 11773.04
1007.996, 12044.99
1009.108, 12028.04
1010.220, 12166.71
1011.332, 12721.23
1012.444, 12959.61
1013.555, 13112.84
1014.666, 12942.85
1015.777, 13608.89
1016.888, 13256.75
1017.999, 13391.11
1019.110, 13518.71
1020.220, 13517.81
1021.331, 13697.55
1022.441, 13798.73
1023.551, 13276.20
1024.661, 13561.24
1025.770, 13225.42
1026.880, 13459.42
1027.989, 13229.54
1029.098, 13183.83
1030.207, 13279.65
1031.316, 12491.89
1032.425, 11982.52
1033.533, 11765.32
1034.642, 11444.55
1035.750, 11267.72
1036.858, 10703.06
1037.966, 10605.33
1039.073, 10393.60
1040.181, 9890.293
1041.288, 9762.305
1042.396, 9145.633
1043.503, 8923.242
1044.610, 8564.832
1045.716, 8210.957
1046.823, 7998.512
1047.929, 7716.568
1049.036, 7420.621
1050.142, 7288.180
1051.248, 6867.932
1052.353, 6743.102
1053.459, 6509.559
1054.564, 6155.959
1055.670, 5859.883
1056.775, 5687.422
1057.880, 5518.119
1058.985, 5285.449
1060.089, 5140.445
1061.194, 4827.703
1062.298, 4861.420
1063.402, 4922.684
1064.506, 4563.451
1065.610, 4504.568
1066.713, 4474.246
1067.817, 4078.457
1068.920, 4120.697
1070.023, 3989.184
1071.126, 3672.174
1072.229, 3619.559
1073.332, 3623.184
1074.435, 3593.549
1075.537, 3445.084
1076.639, 3199.863
1077.741, 3073.322
1078.843, 3084.211
1079.945, 2885.492
1081.046, 2884.012
1082.148, 2783.330
1083.249, 2614.230
1084.350, 2676.502
1085.451, 2489.209
1086.551, 2374.213
1087.652, 2300.191
1088.752, 2289.576
1089.853, 2031.457
1090.953, 1873.463
1092.053, 1815.318
1093.152, 1973.025
1094.252, 1672.143
1095.351, 1698.492
1096.451, 1479.803
1097.550, 1475.814
1098.649, 1458.146
1099.748, 1312.160
1100.846, 1135.520
1101.945, 1235.662
1103.043, 1094.645
1104.141, 868.2441
1105.239, 936.7988
1106.337, 856.3477
1107.434, 947.3242
1108.532, 986.3477
1109.629, 975.5254
1110.726, 768.3066
1111.823, 815.0020
1112.920, 759.7422
1114.017, 700.7383
1115.113, 783.9961
1116.210, 606.8008
1117.306, 686.9434
1118.402, 663.9961
1119.498, 688.2949
1120.593, 609.9238
1121.689, 563.3828
1122.784, 619.3203
1123.879, 618.6250
1124.974, 529.0137
1126.069, 556.2285
1127.164, 373.5371
1128.259, 374.2891
1129.353, 454.4863
1130.447, 370.7461
1131.541, 399.1465
1132.635, 385.6543
1133.729, 172.9766
1134.822, 303.4844
1135.916, 227.7402
1137.009, 67.87891
1138.102, 33.87500
1139.195, 42.20508
1140.288, 9.744141
1141.380, 123.0684
1142.473, 108.7012
1143.565, 30.34570
1144.657, 36.08789
1145.749, 93.72656
1146.841, 96.89648
1147.932, 8.042969
1149.024, 29.78516
1150.115, 143.0283
1151.206, 69.49023
1152.297, 141.5303
1153.388, 178.6133
1154.479, 21.87695
1155.569, 172.9033
1156.659, 205.1582
1157.750, 57.22949
1158.839, 89.31055
1159.929, 44.20996
1161.019, 86.31250
1162.108, 70.86133
1163.198, 11.74902
1164.287, 124.7578
1165.376, 161.9688
1166.465, 0.4541020
1167.553, 97.29883
1168.642, 47.37695
1169.730, 125.5713
1170.818, 147.3604
1171.906, 119.3711
1172.994, 123.4053
1174.082, 63.21191
1175.170, 61.96484
1176.257, 5.937500
1177.344, 3.967773
1178.431, 13.27637
1179.518, 101.2500
1180.605, 10.64355
1181.691, 72.12891
1182.778, 49.33203
1183.864, 37.46289
1184.950, 67.92773
1186.036, 75.63867
1187.122, 17.91797
1188.207, 72.29297
1189.292, 115.8027
1190.378, 10.77246
1191.463, 1.532227
1192.548, 87.72559
1193.632, 109.1680
1194.717, 85.76660
1195.801, 26.38965
1196.886, 93.87402
1197.970, 23.81348
1199.054, 60.33301
1200.137, 49.17773
1201.221, 155.5000
1202.305, 235.7666
1203.388, 198.6025
1204.471, 56.31055
1205.554, 208.2842
1206.637, 89.18262
1207.719, 216.0195
1208.802, 163.7598
1209.884, 126.4277
1210.966, 92.86328
1212.048, 122.5420
1213.130, 320.8574
1214.212, 61.09082
1215.293, 92.22266
1216.374, 283.2588
1217.456, 147.2129
1218.536, 223.0752
1219.617, 333.8535
1220.698, 153.5498
1221.778, 174.1533
1222.859, 376.6680
1223.939, 280.4922
1225.019, 608.4512
1226.099, 247.7236
1227.178, 325.9092
1228.258, 144.0107
1229.337, 344.2217
1230.417, 275.1436
1231.496, 339.9785
1232.574, 204.3096
1233.653, 252.9668
1234.732, 270.9443
1235.810, 342.4248
1236.888, 293.8203
1237.966, 269.2793
1239.044, 422.4961
1240.122, 326.6279
1241.199, 395.6719
1242.277, 426.6289
1243.354, 330.6367
1244.431, 248.4316
1245.508, 151.1318
1246.585, 430.7314
1247.661, 350.2490
1248.738, 364.6758
1249.814, 415.9746
1250.890, 356.2656
1251.966, 363.4258
1253.042, 326.4980
1254.117, 258.5098
1255.193, 346.3975
1256.268, 416.1953
1257.343, 598.2549
1258.418, 488.5605
1259.493, 159.4229
1260.567, 465.0908
1261.642, 182.7490
1262.716, 520.0986
1263.790, 520.2754
1264.864, 484.3691
1265.938, 500.3799
1267.011, 555.9961
1268.085, 232.2881
1269.158, 480.6270
1270.231, 281.0225
1271.304, 406.9180
1272.377, 413.3994
1273.450, 274.4463
1274.522, 429.0918
1275.594, 330.5781
1276.666, 341.3955
1277.738, 274.2256
1278.810, 367.4951
1279.882, 373.4678
1280.953, 477.8691
1282.025, 440.6504
1283.096, 429.5830
1284.167, 347.0977
1285.238, 347.5332
1286.308, 372.5518
1287.379, 336.9033
1288.449, 282.8652
1289.519, 363.8750
1290.589, 412.5918
1291.659, 306.2275
1292.729, 308.4150
1293.798, 308.4287
1294.868, 318.8750
1295.937, 378.3086
1297.006, 390.5176
1298.075, 383.0938
1299.143, 236.2451
1300.212, 235.1201
1301.280, 361.3809
1302.348, 156.5947
1303.416, 274.3770
1304.484, 286.8516
1305.552, 286.7188
1306.620, 426.0859
1307.687, 280.8848
1308.754, 335.3477
1309.821, 284.7705
1310.888, 364.6641
1311.955, 324.4609
1313.021, 185.9355
1314.088, 220.2549
1315.154, 417.6885
1316.220, 160.9463
1317.286, 378.2666
1318.352, 345.3291
1319.417, 500.7412
1320.483, 386.1074
1321.548, 374.1064
1322.613, 298.0840
1323.678, 345.3672
1324.743, 147.3164
1325.807, 201.4883
1326.872, 425.1445
1327.936, 171.4385
1329.000, 276.3740
1330.064, 261.7324
1331.128, 319.6250
1332.191, 191.2070
1333.255, 493.0420
1334.318, 318.3486
1335.381, 263.3896
1336.444, 391.9434
1337.507, 290.2979
1338.569, 234.2715
1339.632, 337.4492
1340.694, 339.7539
1341.756, 393.4004
1342.818, 380.5283
1343.880, 280.2900
1344.941, 339.6084
1346.003, 315.8936
1347.064, 343.7764
1348.125, 389.1416
1349.186, 357.3271
1350.247, 435.6309
1351.308, 442.3428
1352.368, 456.7695
1353.428, 421.8125
1354.489, 451.5557
1355.549, 283.5225
1356.608, 183.1611
1357.668, 313.1035
1358.727, 322.7080
1359.787, 89.53711
1360.846, 247.5273
1361.905, 128.2236
1362.964, 372.6523
1364.022, 250.5625
1365.081, 185.1162
1366.139, 269.3564
1367.197, 250.1914
1368.255, 265.5811
1369.313, 274.4951
1370.371, 186.9580
