##NAMES=Laverovite
##RRUFFID=R060216
##IDEAL CHEMISTRY=K_2_NaMn^2+^_7_Zr^4+^_2_(Si_4_O_12_)_2_O_2_(OH)_4_F
##LOCALITY=Desourdy Quarry, Mont Saint-Hilaire, Rouville County, Quebec, Canada
##OWNER=RRUFF
##SOURCE=Royal Ontario Museum
##DESCRIPTION=Brown fragment showing lamellar habit. Type sample
##STATUS=The identification of this mineral has been confirmed by X-ray diffraction and chemical analysis
##URL=rruff.info/R060216
##MEASURED CHEMISTRY=(K_1.74_Na_0.18_[box]_0.08_)_Σ=2_(Na_0.92_Ca_0.08_)_Σ=1_(Mn_4.09_Fe^2+^_2.67_Mg_0.24_)_Σ=7_(Zr_1.42_Ti_0.58_)_Σ=2_(Si_7.86_Al_0.14_)_Σ=8_O_26_((OH)_3.14_O_0.86_)_Σ=4_
##PIN_ID=L00587
##ORIENTATION=Laser parallel to -b* (0 -1 0). Fiducial mark perpendicular to laser is parallel to -c [0 0 -1]
146.1820, 0.0000000E+00
147.4150, 554.9922
148.6480, 15.06641
149.8800, 4.2969000E-02
151.1130, 845.7988
152.3450, 1838.473
153.5770, 1479.184
154.8090, 1759.951
156.0410, 1615.139
157.2720, 1751.094
158.5040, 2133.064
159.7350, 3273.301
160.9660, 4051.033
162.1970, 5332.295
163.4270, 6648.682
164.6580, 7713.104
165.8880, 8402.195
167.1180, 8995.793
168.3480, 9207.125
169.5780, 9361.848
170.8080, 9235.930
172.0370, 8487.145
173.2670, 7712.129
174.4960, 7001.369
175.7250, 6271.229
176.9540, 6271.301
178.1820, 5981.662
179.4110, 6041.371
180.6390, 5482.303
181.8670, 4917.641
183.0950, 4829.771
184.3230, 4930.309
185.5500, 4569.594
186.7780, 4723.572
188.0050, 4188.285
189.2320, 3619.748
190.4590, 3320.965
191.6850, 2939.918
192.9120, 2879.562
194.1380, 2831.846
195.3650, 2613.707
196.5910, 2513.086
197.8160, 2484.926
199.0420, 2767.156
200.2680, 3282.387
201.4930, 3798.094
202.7180, 4321.801
203.9430, 2953.062
205.1680, 1115.990
206.3930, 15.33984
207.6170, 499.1914
208.8410, 454.6309
210.0660, 344.9902
211.2890, 210.2930
212.5130, 194.5449
213.7370, 1.041016
214.9600, 633.0234
216.1840, 287.8262
217.4070, 551.6719
218.6300, 599.6680
219.8520, 453.1094
221.0750, 764.2969
222.2970, 1046.111
223.5200, 1042.598
224.7420, 1375.557
225.9640, 1465.234
227.1850, 1952.854
228.4070, 2119.270
229.6280, 2552.387
230.8490, 2403.176
232.0700, 2452.477
233.2910, 2581.221
234.5120, 2684.352
235.7320, 2675.865
236.9530, 2467.510
238.1730, 2501.379
239.3930, 2410.984
240.6130, 2313.188
241.8320, 2353.023
243.0520, 2107.324
244.2710, 1983.443
245.4900, 1777.373
246.7090, 1493.107
247.9280, 1469.639
249.1470, 1338.977
250.3650, 1255.723
251.5840, 1031.363
252.8020, 715.8359
254.0200, 928.2012
255.2370, 1051.826
256.4550, 1091.475
257.6720, 796.1777
258.8900, 933.0312
260.1070, 896.4902
261.3240, 852.6953
262.5400, 1049.953
263.7570, 802.6016
264.9730, 995.7383
266.1900, 973.2500
267.4060, 1130.961
268.6220, 1010.516
269.8370, 1148.906
271.0530, 1197.141
272.2680, 1439.215
273.4830, 1385.123
274.6980, 1531.873
275.9130, 2119.459
277.1280, 2465.889
278.3420, 2178.160
279.5570, 2394.270
280.7710, 2341.225
281.9850, 2405.023
283.1990, 2446.666
284.4120, 2443.152
285.6260, 2663.514
286.8390, 2590.430
288.0520, 2857.756
289.2650, 2742.850
290.4780, 2866.211
291.6910, 3022.873
292.9030, 3080.336
294.1160, 3218.682
295.3280, 3040.604
296.5400, 3108.822
297.7510, 3097.652
298.9630, 3003.676
300.1740, 2559.904
301.3860, 2556.428
302.5970, 2378.166
303.8080, 2201.543
305.0180, 2270.305
306.2290, 1901.801
307.4390, 1964.901
308.6500, 1853.924
309.8600, 1854.395
311.0700, 1520.006
312.2790, 1732.869
313.4890, 1517.498
314.6980, 1519.355
315.9080, 1429.064
317.1170, 1303.469
318.3250, 1384.999
319.5340, 1296.028
320.7430, 1412.694
321.9510, 1336.303
323.1590, 1379.890
324.3670, 1322.376
325.5750, 1384.426
326.7830, 1391.907
327.9900, 1274.019
329.1980, 1559.990
330.4050, 1555.933
331.6120, 1811.486
332.8190, 1750.282
334.0250, 2368.797
335.2320, 2246.590
336.4380, 2724.814
337.6440, 2297.891
338.8500, 2449.473
340.0560, 2537.232
341.2620, 2572.848
342.4670, 2917.303
343.6730, 2823.888
344.8780, 3107.289
346.0830, 3170.369
347.2870, 3193.265
348.4920, 3569.138
349.6970, 3598.727
350.9010, 3708.380
352.1050, 3630.039
353.3090, 4071.748
354.5130, 4205.969
355.7160, 4396.222
356.9200, 4503.531
358.1230, 4614.895
359.3260, 4914.826
360.5290, 5278.811
361.7320, 5469.157
362.9340, 5649.389
364.1370, 5985.428
365.3390, 5950.650
366.5410, 6156.639
367.7430, 6318.935
368.9450, 6397.309
370.1460, 6281.521
371.3480, 6095.098
372.5490, 6178.176
373.7500, 6125.051
374.9510, 6005.707
376.1520, 5523.615
377.3520, 5409.910
378.5520, 5019.560
379.7530, 5084.074
380.9530, 4674.259
382.1530, 4497.294
383.3520, 4282.119
384.5520, 3940.816
385.7510, 3886.393
386.9500, 3670.845
388.1490, 3582.176
389.3480, 3462.382
390.5470, 3413.818
391.7450, 3568.435
392.9440, 3453.279
394.1420, 3618.006
395.3400, 3791.614
396.5380, 3603.109
397.7350, 3564.855
398.9330, 3460.973
400.1300, 3337.305
401.3270, 3209.989
402.5240, 3034.020
403.7210, 2847.872
404.9180, 2610.619
406.1140, 2332.189
407.3110, 2583.729
408.5070, 1944.882
409.7030, 1759.217
410.8990, 1969.451
412.0940, 1358.582
413.2900, 1847.617
414.4850, 1343.552
415.6800, 1205.388
416.8750, 1113.127
418.0700, 1179.771
419.2650, 1048.319
420.4590, 1024.773
421.6530, 1057.136
422.8470, 985.7988
424.0410, 764.5879
425.2350, 806.6738
426.4290, 895.6689
427.6220, 520.5742
428.8160, 234.0566
430.0090, 370.9268
431.2020, 419.1436
432.3940, 383.4971
433.5870, 12.91016
434.7790, 74.53027
435.9720, 37.32617
437.1640, 156.4629
438.3560, 149.6953
439.5470, 15.39355
440.7390, 156.2949
441.9300, 175.4736
443.1220, 112.0605
444.3130, 68.73633
445.5040, 46.40527
446.6940, 190.4707
447.8850, 259.8252
449.0750, 381.5059
450.2660, 240.5732
451.4560, 278.9521
452.6460, 287.6611
453.8350, 214.7012
455.0250, 308.0312
456.2140, 286.6973
457.4040, 201.6846
458.5930, 205.9482
459.7820, 223.4863
460.9700, 184.7363
462.1590, 193.8350
463.3470, 169.7246
464.5350, 203.3105
465.7240, 208.1562
466.9110, 270.2588
468.0990, 88.64258
469.2870, 55.20508
470.4740, 5.925781
471.6610, 24.96484
472.8480, 187.9541
474.0350, 49.83496
475.2220, 66.48242
476.4090, 145.9551
477.5950, 80.37988
478.7810, 57.61426
479.9670, 39.74414
481.1530, 4.227539
482.3390, 236.6865
483.5240, 48.50977
484.7100, 261.2354
485.8950, 205.8701
487.0800, 223.4150
488.2650, 272.8721
489.4490, 290.2422
490.6340, 268.5273
491.8180, 308.7275
493.0030, 265.8447
494.1870, 317.6387
495.3700, 255.8828
496.5540, 340.9873
497.7380, 321.1846
498.9210, 192.4443
500.1040, 191.7285
501.2870, 135.0303
502.4700, 239.2998
503.6530, 323.4951
504.8350, 290.6299
506.0180, 360.6963
507.2000, 384.4258
508.3820, 247.6318
509.5640, 438.4971
510.7450, 389.2959
511.9270, 397.0381
513.1080, 277.6953
514.2890, 363.2939
515.4700, 377.8291
516.6510, 451.2998
517.8320, 298.7109
519.0130, 171.0566
520.1930, 287.3359
521.3730, 282.5527
522.5530, 323.7080
523.7330, 320.8057
524.9130, 356.6943
526.0920, 380.2881
527.2710, 409.0752
528.4510, 456.6289
529.6300, 449.4492
530.8080, 534.2158
531.9870, 626.9297
533.1660, 523.5928
534.3440, 638.2051
535.5220, 682.3184
536.7000, 977.2812
537.8780, 892.7461
539.0560, 899.1641
540.2330, 1114.538
541.4110, 1452.874
542.5880, 1715.174
543.7650, 1842.437
544.9420, 2115.655
546.1180, 2537.842
547.2950, 2789.017
548.4710, 3282.183
549.6470, 3803.358
550.8230, 4022.539
551.9990, 4596.740
553.1750, 4697.974
554.3500, 4817.240
555.5260, 5221.555
556.7010, 5355.916
557.8760, 5169.328
559.0510, 4999.793
560.2250, 4813.346
561.4000, 4824.967
562.5740, 4662.677
563.7480, 4427.482
564.9220, 4080.345
566.0960, 3817.388
567.2700, 3787.706
568.4430, 3368.489
569.6170, 3312.779
570.7900, 2993.326
571.9630, 3047.034
573.1360, 2680.002
574.3080, 2648.834
575.4810, 2489.506
576.6530, 2488.157
577.8250, 2504.991
578.9980, 2528.482
580.1690, 2602.521
581.3410, 2626.090
582.5130, 2629.930
583.6840, 2550.672
584.8550, 2825.553
586.0260, 2790.221
587.1970, 3103.410
588.3680, 3132.680
589.5380, 3141.725
590.7080, 3475.268
591.8790, 3323.803
593.0490, 3314.080
594.2190, 3436.973
595.3880, 3430.611
596.5580, 3425.199
597.7270, 3400.867
598.8960, 3384.049
600.0650, 3252.982
601.2340, 3233.018
602.4030, 3116.693
603.5710, 3414.012
604.7400, 3391.064
605.9080, 3262.234
607.0760, 3447.328
608.2440, 3393.762
609.4120, 3653.840
610.5790, 3651.260
611.7460, 3746.977
612.9140, 3670.793
614.0810, 3866.633
615.2480, 3993.859
616.4140, 3943.832
617.5810, 4366.080
618.7470, 4396.854
619.9130, 4249.539
621.0790, 4607.178
622.2450, 4830.281
623.4110, 4867.184
624.5770, 5123.201
625.7420, 5367.348
626.9070, 5458.332
628.0720, 5647.461
629.2370, 5849.871
630.4020, 6135.426
631.5660, 6423.963
632.7310, 6741.742
633.8950, 6930.418
635.0590, 7533.383
636.2230, 7682.166
637.3870, 8223.379
638.5500, 8774.580
639.7140, 9442.316
640.8770, 10168.60
642.0400, 11132.76
643.2030, 11942.91
644.3660, 13071.48
645.5280, 14380.99
646.6910, 15825.86
647.8530, 17280.91
649.0150, 18706.46
650.1770, 20033.88
651.3390, 21049.17
652.5000, 21449.56
653.6620, 21317.53
654.8230, 20445.94
655.9840, 19107.48
657.1450, 17438.17
658.3060, 16136.54
659.4660, 14770.44
660.6270, 13401.91
661.7870, 12130.43
662.9470, 11420.21
664.1070, 10692.06
665.2670, 10207.03
666.4260, 9773.047
667.5860, 9438.107
668.7450, 9154.207
669.9040, 9215.352
671.0630, 9199.539
672.2220, 9237.156
673.3800, 9236.039
674.5390, 9512.354
675.6970, 9627.713
676.8550, 9835.119
678.0130, 10135.57
679.1710, 10627.06
680.3290, 10857.82
681.4860, 11252.03
682.6430, 11415.27
683.8000, 11667.95
684.9570, 12091.74
686.1140, 12725.79
687.2710, 12820.92
688.4270, 13127.34
689.5840, 13213.07
690.7400, 13405.72
691.8960, 13636.88
693.0520, 14048.62
694.2070, 14067.59
695.3630, 14342.03
696.5180, 14326.67
697.6730, 14333.68
698.8280, 14523.17
699.9830, 14957.51
701.1380, 14721.91
702.2920, 14904.37
703.4470, 15184.81
704.6010, 15077.88
705.7550, 15256.82
706.9090, 15598.42
708.0620, 15357.81
709.2160, 15640.87
710.3690, 15689.69
711.5220, 15908.11
712.6750, 16011.98
713.8280, 16032.07
714.9810, 16123.30
716.1340, 15857.88
717.2860, 15847.56
718.4380, 15557.65
719.5900, 15369.70
720.7420, 14987.36
721.8940, 14882.58
723.0450, 14554.89
724.1970, 14060.25
725.3480, 13838.69
726.4990, 13506.20
727.6500, 13301.82
728.8010, 12594.57
729.9510, 12293.47
731.1020, 12002.50
732.2520, 11814.65
733.4020, 11471.94
734.5520, 10858.34
735.7020, 10667.88
736.8510, 10355.52
738.0010, 10020.29
739.1500, 9976.188
740.2990, 9453.172
741.4480, 9315.252
742.5970, 8930.660
743.7450, 8755.770
744.8940, 8864.117
746.0420, 8569.600
747.1900, 8537.203
748.3380, 8664.875
749.4860, 8404.602
750.6330, 8523.375
751.7810, 8286.195
752.9280, 8349.109
754.0750, 8418.055
755.2220, 8376.051
756.3690, 8271.129
757.5160, 8430.236
758.6620, 8448.371
759.8090, 8278.539
760.9550, 8115.742
762.1010, 7873.973
763.2470, 8113.230
764.3920, 7664.512
765.5380, 7653.820
766.6830, 7493.148
767.8280, 7045.502
768.9730, 6762.877
770.1180, 6778.273
771.2630, 6573.693
772.4070, 6150.133
773.5520, 6025.592
774.6960, 5656.072
775.8400, 5601.570
776.9840, 5447.090
778.1280, 5113.631
779.2710, 4873.191
780.4140, 5002.773
781.5580, 4437.375
782.7010, 4404.992
783.8440, 4343.629
784.9860, 3988.283
786.1290, 3905.949
787.2710, 3739.965
788.4140, 3746.334
789.5560, 3428.047
790.6980, 3365.775
791.8390, 3143.520
792.9810, 2998.275
794.1220, 2813.047
795.2640, 2495.826
796.4050, 2417.623
797.5460, 2130.438
798.6860, 2094.264
799.8270, 1745.102
800.9680, 1754.953
802.1080, 1451.816
803.2480, 1138.689
804.3880, 1041.574
805.5280, 1011.473
806.6670, 979.3809
807.8070, 842.9492
808.9460, 652.2324
810.0850, 568.1738
811.2240, 515.1250
812.3630, 345.0879
813.5020, 252.0645
814.6400, 260.0488
815.7790, 92.04688
816.9170, 12.94727
818.0550, 2.044922
819.1930, 4.037109
820.3300, 74.02148
821.4680, 2.826172
822.6050, 102.0020
823.7430, 97.07812
824.8800, 173.2070
826.0170, 140.4336
827.1530, 199.7383
828.2900, 237.1562
829.4260, 243.5918
830.5620, 292.4023
831.6990, 281.2559
832.8340, 298.2715
833.9700, 301.5762
835.1060, 418.8164
836.2410, 350.4102
837.3760, 429.2051
838.5120, 444.2402
839.6470, 394.5273
840.7810, 419.0391
841.9160, 384.7910
843.0500, 359.7637
844.1850, 292.9453
845.3190, 78.29883
846.4530, 90.15625
847.5870, 210.2012
848.7200, 34.81836
849.8540, 107.4766
850.9870, 172.2109
852.1200, 288.0605
853.2530, 113.0840
854.3860, 68.18555
855.5190, 74.65039
856.6510, 17.49219
857.7840, 230.3125
858.9160, 199.1367
860.0480, 251.9668
861.1800, 120.7988
862.3110, 296.6367
863.4430, 303.5078
864.5740, 373.3223
865.7060, 489.1699
866.8370, 502.0176
867.9680, 658.8711
869.0980, 618.7383
870.2290, 864.6074
871.3590, 792.4746
872.4900, 852.3418
873.6200, 1135.213
874.7500, 1204.086
875.8790, 1224.957
877.0090, 1203.826
878.1380, 1296.695
879.2680, 1303.566
880.3970, 1265.434
881.5260, 1620.301
882.6550, 1659.166
883.7830, 1472.025
884.9120, 1707.881
886.0400, 1679.734
887.1680, 1721.582
888.2960, 1821.439
889.4240, 1765.293
890.5520, 1939.150
891.6790, 1891.000
892.8070, 1986.846
893.9340, 2089.705
895.0610, 2264.557
896.1880, 2163.418
897.3140, 2340.271
898.4410, 2329.121
899.5670, 2417.965
900.6940, 2460.809
901.8200, 2592.645
902.9450, 2660.488
904.0710, 2657.322
905.1970, 2863.154
906.3220, 3017.980
907.4470, 3147.803
908.5730, 3154.619
909.6980, 3193.432
910.8220, 3323.248
911.9470, 3339.816
913.0710, 3403.896
914.1960, 3481.738
915.3200, 3609.592
916.4440, 3741.443
917.5680, 3636.287
918.6910, 4006.135
919.8150, 3736.990
920.9380, 3514.838
922.0610, 3881.682
923.1840, 3757.557
924.3070, 3905.424
925.4300, 3782.295
926.5520, 3825.158
927.6750, 3901.029
928.7970, 3930.895
929.9190, 3823.781
931.0410, 3897.689
932.1630, 3712.598
933.2840, 3843.500
934.4060, 3798.396
935.5270, 3785.291
936.6480, 3801.604
937.7690, 3767.090
938.8900, 3765.346
940.0100, 3820.381
941.1310, 3828.488
942.2510, 4038.633
943.3710, 4143.822
944.4910, 4229.070
945.6110, 4141.742
946.7310, 4160.645
947.8500, 4124.637
948.9690, 4025.340
950.0890, 4036.689
951.2080, 3944.049
952.3260, 3911.184
953.4450, 3902.902
954.5640, 3669.637
955.6820, 3476.984
956.8000, 3363.250
957.9180, 3157.309
959.0360, 3204.520
960.1540, 2920.102
961.2710, 2763.602
962.3890, 2758.287
963.5060, 2392.494
964.6230, 2309.174
965.7400, 2391.662
966.8570, 2205.775
967.9730, 2211.717
969.0900, 2121.359
970.2060, 2084.574
971.3220, 1896.000
972.4380, 1838.447
973.5540, 1790.396
974.6700, 1975.387
975.7850, 1700.305
976.9010, 1944.332
978.0160, 1855.902
979.1310, 2174.645
980.2460, 1943.785
981.3600, 2009.225
982.4750, 2180.125
983.5890, 2143.621
984.7030, 2376.965
985.8170, 2649.250
986.9310, 2606.273
988.0450, 2651.291
989.1590, 2916.029
990.2720, 3211.953
991.3850, 3383.355
992.4980, 3312.340
993.6110, 3541.357
994.7240, 3704.400
995.8370, 4300.475
996.9490, 4428.910
998.0620, 4989.711
999.1740, 5070.871
1000.286, 5357.062
1001.398, 5931.281
1002.509, 5895.102
1003.621, 6424.379
1004.732, 7035.686
1005.843, 7398.023
1006.954, 7872.020
1008.065, 8624.416
1009.176, 9205.855
1010.286, 9820.330
1011.397, 10511.83
1012.507, 11429.30
1013.617, 12201.86
1014.727, 13041.45
1015.837, 13918.34
1016.946, 14778.18
1018.056, 15681.38
1019.165, 16604.07
1020.274, 17552.80
1021.383, 18533.77
1022.492, 19343.56
1023.601, 20241.37
1024.709, 21030.21
1025.817, 21912.09
1026.926, 22421.48
1028.034, 23006.40
1029.141, 23406.24
1030.249, 23430.22
1031.357, 23284.22
1032.464, 22870.53
1033.571, 21903.57
1034.678, 21183.65
1035.785, 20330.02
1036.892, 18669.17
1037.999, 17737.34
1039.105, 16686.55
1040.211, 15698.78
1041.317, 14437.05
1042.423, 13521.33
1043.529, 12293.15
1044.635, 11612.35
1045.740, 10402.06
1046.845, 9861.012
1047.951, 8987.193
1049.056, 8445.645
1050.160, 7905.115
1051.265, 7522.625
1052.370, 6953.098
1053.474, 6459.645
1054.578, 6114.219
1055.682, 6376.430
1056.786, 7097.215
1057.890, 6712.055
1058.993, 6091.727
1060.097, 5051.371
1061.200, 4913.189
1062.303, 4703.406
1063.406, 4656.820
1064.509, 4370.801
1065.612, 4399.617
1066.714, 4223.531
1067.816, 4442.393
1068.919, 4061.438
1070.021, 3990.133
1071.122, 4170.014
1072.224, 4084.293
1073.326, 3949.143
1074.427, 3737.359
1075.528, 3567.818
1076.629, 3867.949
1077.730, 3557.674
1078.831, 3467.631
1079.931, 3884.391
1081.032, 4327.000
1082.132, 3757.367
1083.232, 3459.553
1084.332, 3066.705
1085.432, 2890.133
1086.531, 2669.500
1087.631, 2745.900
1088.730, 2370.135
1089.829, 2367.535
1090.928, 2516.961
1092.027, 2230.607
1093.126, 2028.137
1094.224, 1937.881
1095.323, 1865.828
1096.421, 1676.477
1097.519, 1655.209
1098.617, 1535.500
1099.715, 1300.363
1100.812, 1261.877
1101.910, 1144.010
1103.007, 1318.016
1104.104, 1065.096
1105.201, 1008.266
1106.298, 1089.480
1107.394, 890.3496
1108.491, 721.5391
1109.587, 821.9453
1110.683, 705.1055
1111.779, 646.6406
1112.875, 743.9434
1113.971, 452.2871
1115.066, 490.1230
1116.162, 440.5742
1117.257, 594.2676
1118.352, 389.8906
1119.447, 476.6113
1120.542, 313.3281
1121.636, 488.9824
1122.731, 195.0039
1123.825, 506.0039
1124.919, 336.6719
1126.013, 539.4551
1127.107, 428.9395
1128.200, 426.8301
1129.294, 219.6660
1130.387, 159.8125
1131.480, 149.6055
1132.573, 216.6309
1133.666, 99.17969
1134.759, 108.1426
1135.851, 228.1035
1136.944, 262.8945
1138.036, 37.11328
1139.128, 95.17773
1140.220, 59.44922
1141.312, 11.39453
1142.403, 204.9648
1143.495, 45.81055
1144.586, 143.4746
1145.677, 157.2578
1146.768, 251.1484
1147.859, 171.1152
1148.950, 144.5312
1150.040, 292.3027
1151.130, 97.86719
1152.221, 72.51172
1153.311, 83.23828
1154.401, 40.85938
1155.490, 49.81055
1156.580, 6.826172
1157.669, 89.51953
1158.759, 148.2793
1159.848, 57.56055
1160.937, 128.0156
1162.025, 82.42188
1163.114, 231.1426
1164.202, 10.08789
1165.291, 77.45117
1166.379, 36.70898
1167.467, 280.2949
1168.555, 174.0996
1169.642, 166.4004
1170.730, 57.46289
1171.817, 40.22656
1172.905, 11.39844
1173.992, 31.00781
1175.078, 17.66992
1176.165, 57.92188
1177.252, 59.55859
1178.338, 45.24805
1179.425, 149.3027
1180.511, 127.5605
1181.597, 28.19727
1182.682, 8.992188
1183.768, 341.5000
1184.854, 168.6211
1185.939, 113.1719
1187.024, 170.1172
1188.109, 13.16406
1189.194, 74.18750
1190.279, 13.80273
1191.363, 48.16602
1192.448, 66.75195
1193.532, 67.86328
1194.616, 38.35938
1195.700, 154.1562
1196.784, 73.93164
1197.867, 100.6289
1198.951, 339.0215
1200.034, 124.5215
1201.117, 1.822266
1202.200, 43.70508
1203.283, 249.0703
1204.366, 109.8672
1205.448, 144.0176
1206.531, 185.0176
1207.613, 14.89258
1208.695, 225.5449
1209.777, 29.81250
1210.859, 10.13086
1211.940, 90.05078
1213.022, 16.15234
1214.103, 190.8867
1215.184, 97.44141
1216.265, 120.8008
1217.346, 121.1328
1218.427, 178.4395
1219.507, 138.7637
1220.587, 147.4512
1221.668, 106.3867
1222.748, 54.71094
1223.828, 104.5000
1224.907, 99.36133
1225.987, 216.1602
1227.066, 247.6113
1228.146, 55.74414
1229.225, 73.09375
1230.304, 28.65234
1231.382, 22.94922
1232.461, 166.7773
1233.540, 86.26562
1234.618, 101.5312
1235.696, 111.1387
1236.774, 201.2148
1237.852, 158.1992
1238.930, 138.4121
1240.007, 255.2324
1241.085, 163.7402
1242.162, 235.4570
1243.239, 238.7012
1244.316, 142.9062
1245.393, 312.1758
1246.469, 196.4824
1247.546, 98.93359
1248.622, 233.3613
1249.698, 295.0332
1250.774, 69.22266
1251.850, 192.3672
1252.926, 203.2207
1254.001, 119.0312
1255.077, 302.7930
1256.152, 173.5137
1257.227, 167.1914
1258.302, 256.8223
1259.377, 185.4121
1260.451, 313.9766
1261.526, 219.4785
1262.600, 250.9980
1263.674, 232.8398
1264.748, 104.2168
1265.822, 352.5352
1266.896, 400.8125
1267.969, 285.4141
1269.043, 8.564453
1270.116, 325.6895
1271.189, 184.7754
1272.262, 173.8125
1273.335, 414.2578
1274.407, 202.2090
1275.480, 311.1211
1276.552, 202.1914
1277.624, 315.0078
1278.696, 372.2578
1279.768, 170.9922
1280.840, 302.6777
1281.911, 288.5547
1282.982, 252.0234
1284.054, 418.2539
1285.125, 220.7656
1286.196, 334.2148
1287.266, 260.1426
1288.337, 186.5195
1289.407, 352.9570
1290.478, 349.2422
1291.548, 343.0234
1292.618, 258.2246
1293.688, 363.1016
1294.757, 238.1992
1295.827, 76.00977
1296.896, 148.8398
1297.965, 284.2246
1299.034, 190.1250
1300.103, 244.9824
1301.172, 325.7930
1302.241, 179.3965
1303.309, 296.3027
1304.377, 233.1250
1305.445, 334.2852
1306.513, 500.3145
1307.581, 249.0918
1308.649, 335.5820
