##NAMES=Laverovite
##RRUFFID=R060216
##IDEAL CHEMISTRY=K_2_NaMn^2+^_7_Zr^4+^_2_(Si_4_O_12_)_2_O_2_(OH)_4_F
##LOCALITY=Desourdy Quarry, Mont Saint-Hilaire, Rouville County, Quebec, Canada
##OWNER=RRUFF
##SOURCE=Royal Ontario Museum
##DESCRIPTION=Brown fragment showing lamellar habit. Type sample
##STATUS=The identification of this mineral has been confirmed by X-ray diffraction and chemical analysis
##URL=rruff.info/R060216
##MEASURED CHEMISTRY=(K_1.74_Na_0.18_[box]_0.08_)_Σ=2_(Na_0.92_Ca_0.08_)_Σ=1_(Mn_4.09_Fe^2+^_2.67_Mg_0.24_)_Σ=7_(Zr_1.42_Ti_0.58_)_Σ=2_(Si_7.86_Al_0.14_)_Σ=8_O_26_((OH)_3.14_O_0.86_)_Σ=4_
##PIN_ID=M00393
##ORIENTATION=Laser parallel to a* (1 0 0). Fiducial mark perpendicular to laser is parallel to b [0 1 0]
121.8270, 0.0000000E+00
123.0580, 0.2890630
124.2880, 9.347656
125.5190, 173.4238
126.7490, 150.1641
127.9790, 227.3945
129.2090, 159.3906
130.4390, 42.45117
131.6680, 63.34570
132.8980, 103.6816
134.1270, 332.6328
135.3560, 293.3359
136.5850, 552.5762
137.8140, 497.1484
139.0430, 571.8633
140.2710, 123.5625
141.5000, 264.1406
142.7280, 2.478516
143.9560, 440.6797
145.1840, 297.6992
146.4120, 336.5332
147.6390, 691.0820
148.8670, 987.2363
150.0940, 1264.891
151.3210, 1381.959
152.5490, 1359.369
153.7750, 1545.057
155.0020, 1539.975
156.2290, 1872.086
157.4550, 2411.383
158.6810, 2487.910
159.9080, 3180.680
161.1340, 3914.680
162.3590, 4436.045
163.5850, 5071.785
164.8110, 5607.920
166.0360, 5984.828
167.2610, 6685.209
168.4860, 6798.301
169.7110, 7111.695
170.9360, 6985.562
172.1610, 6961.578
173.3850, 6819.488
174.6100, 6048.242
175.8340, 5625.824
177.0580, 5197.229
178.2820, 4786.467
179.5050, 4342.074
180.7290, 4004.377
181.9520, 3645.922
183.1760, 3353.768
184.3990, 3047.195
185.6220, 2765.480
186.8450, 2554.633
188.0670, 2284.680
189.2900, 2433.625
190.5120, 2416.547
191.7340, 2268.656
192.9560, 2149.113
194.1780, 2282.189
195.4000, 1952.545
196.6220, 2426.029
197.8430, 2398.674
199.0640, 2445.307
200.2860, 2795.836
201.5070, 2468.744
202.7270, 1684.826
203.9480, 1585.578
205.1690, 1383.027
206.3890, 1374.076
207.6090, 1418.545
208.8290, 1330.072
210.0490, 1658.889
211.2690, 1687.242
212.4890, 1873.234
213.7080, 1849.611
214.9280, 1725.605
216.1470, 1598.223
217.3660, 1638.117
218.5850, 1599.850
219.8030, 1664.223
221.0220, 1550.953
222.2400, 1439.758
223.4590, 1494.014
224.6770, 1319.182
225.8950, 1350.117
227.1120, 1160.234
228.3300, 962.2559
229.5480, 1180.186
230.7650, 1018.025
231.9820, 1073.775
233.1990, 1116.432
234.4160, 1007.992
235.6330, 918.4648
236.8490, 868.5586
238.0660, 798.4590
239.2820, 745.3262
240.4980, 728.4160
241.7140, 776.4062
242.9300, 799.3379
244.1460, 786.1738
245.3610, 792.9531
246.5770, 767.7500
247.7920, 592.9590
249.0070, 745.8809
250.2220, 822.8516
251.4370, 828.5566
252.6510, 547.2715
253.8660, 636.7910
255.0800, 577.2168
256.2940, 512.4805
257.5080, 656.3164
258.7220, 419.3750
259.9360, 561.9824
261.1490, 560.9766
262.3630, 633.4902
263.5760, 561.2109
264.7890, 534.0762
266.0020, 652.1055
267.2150, 682.8555
268.4270, 582.2266
269.6400, 638.9043
270.8520, 516.2285
272.0640, 543.6660
273.2760, 463.6309
274.4880, 657.2695
275.7000, 577.4395
276.9120, 455.6270
278.1230, 424.7539
279.3340, 191.1914
280.5450, 475.4414
281.7560, 266.7617
282.9670, 14.21680
284.1780, 394.2480
285.3880, 227.5586
286.5980, 214.2227
287.8090, 162.0254
289.0190, 84.09375
290.2290, 108.4863
291.4380, 216.0742
292.6480, 169.6895
293.8570, 62.88867
295.0670, 178.2910
296.2760, 77.42383
297.4850, 299.0039
298.6930, 150.2402
299.9020, 39.52539
301.1110, 31.93945
302.3190, 151.9160
303.5270, 249.6309
304.7350, 198.5137
305.9430, 120.9375
307.1510, 271.4258
308.3580, 189.8750
309.5660, 335.6504
310.7730, 331.7129
311.9800, 506.4102
313.1870, 229.7734
314.3940, 243.6758
315.6010, 83.40234
316.8070, 226.8926
318.0130, 62.31250
319.2200, 362.4434
320.4260, 311.4980
321.6310, 385.5488
322.8370, 299.4492
324.0430, 305.2695
325.2480, 312.0137
326.4540, 472.6816
327.6590, 334.2773
328.8640, 472.7969
330.0680, 591.2441
331.2730, 562.6191
332.4780, 644.9219
333.6820, 643.1973
334.8860, 877.3574
336.0900, 830.4941
337.2940, 872.5117
338.4980, 945.5137
339.7010, 948.1270
340.9050, 975.5117
342.1080, 1023.395
343.3110, 989.0430
344.5140, 1015.967
345.7170, 1010.789
346.9200, 934.9434
348.1220, 979.2031
349.3240, 1051.111
350.5270, 999.1934
351.7290, 1147.168
352.9310, 1124.459
354.1320, 1044.197
355.3340, 969.9609
356.5350, 910.3438
357.7370, 850.1602
358.9380, 1048.959
360.1390, 888.0410
361.3400, 984.5527
362.5400, 862.3984
363.7410, 650.4902
364.9410, 937.1641
366.1410, 544.8223
367.3410, 663.4023
368.5410, 665.2168
369.7410, 813.0449
370.9400, 520.2773
372.1400, 741.3848
373.3390, 605.0742
374.5380, 549.2891
375.7370, 577.3340
376.9360, 515.8848
378.1350, 518.9355
379.3330, 360.7520
380.5310, 692.5039
381.7300, 343.5566
382.9280, 522.3438
384.1260, 296.7930
385.3230, 550.1719
386.5210, 398.5879
387.7180, 341.8223
388.9160, 331.9844
390.1130, 128.0762
391.3100, 253.0898
392.5060, 381.0293
393.7030, 79.89648
394.9000, 215.6797
396.0960, 46.38672
397.2920, 14.00000
398.4880, 1.486328
399.6840, 61.07227
400.8800, 3.777344
402.0750, 29.40039
403.2710, 172.5254
404.4660, 17.61914
405.6610, 122.8730
406.8560, 94.33008
408.0510, 11.99414
409.2450, 51.86328
410.4400, 35.09375
411.6340, 30.08789
412.8280, 48.13281
414.0220, 34.90039
415.2160, 89.51562
416.4100, 26.30859
417.6030, 32.76953
418.7970, 43.74023
419.9900, 47.25977
421.1830, 72.39062
422.3760, 36.08203
423.5690, 46.08594
424.7610, 16.35742
425.9540, 42.20117
427.1460, 85.28125
428.3380, 118.7832
429.5300, 220.0586
430.7220, 72.19922
431.9140, 148.9727
433.1050, 43.92383
434.2970, 198.9355
435.4880, 64.56055
436.6790, 212.7246
437.8700, 243.6035
439.0610, 203.8223
440.2510, 139.4141
441.4420, 9.982422
442.6320, 61.74023
443.8220, 287.3438
445.0120, 105.4492
446.2020, 206.8047
447.3910, 108.7559
448.5810, 200.4219
449.7700, 165.4512
450.9600, 156.2812
452.1490, 320.7012
453.3370, 283.6699
454.5260, 201.5566
455.7150, 94.85156
456.9030, 182.1777
458.0910, 155.2266
459.2800, 278.1602
460.4670, 211.2852
461.6550, 287.9004
462.8430, 260.4727
464.0300, 226.7754
465.2180, 289.3281
466.4050, 353.4668
467.5920, 333.5742
468.7790, 396.6523
469.9650, 362.2812
471.1520, 327.3438
472.3380, 322.2324
473.5250, 383.3477
474.7110, 317.7754
475.8970, 189.1523
477.0820, 315.4785
478.2680, 178.7598
479.4540, 465.9902
480.6390, 83.17383
481.8240, 390.3086
483.0090, 317.3926
484.1940, 124.4336
485.3780, 156.4258
486.5630, 228.3711
487.7470, 337.2734
488.9320, 24.13086
490.1160, 298.9395
491.3000, 3.296875
492.4830, 210.4199
493.6670, 206.0957
494.8500, 25.72656
496.0340, 134.3145
497.2170, 72.86328
498.4000, 108.3672
499.5820, 6.164063
500.7650, 10.32227
501.9480, 77.63672
503.1300, 41.02148
504.3120, 52.73242
505.4940, 6.500000
506.6760, 28.30469
507.8580, 102.1562
509.0390, 36.91797
510.2210, 208.0410
511.4020, 94.12500
512.5830, 149.7246
513.7640, 221.4590
514.9450, 119.7695
516.1250, 113.1543
517.3060, 112.6133
518.4860, 129.1367
519.6660, 69.73828
520.8460, 71.38867
522.0260, 96.94336
523.2060, 127.4121
524.3850, 144.8945
525.5650, 93.20312
526.7440, 131.4141
527.9230, 165.5430
529.1020, 234.9766
530.2810, 39.23633
531.4590, 115.4395
532.6380, 161.1738
533.8160, 69.01172
534.9940, 308.3730
536.1720, 294.0625
537.3500, 231.6484
538.5270, 224.1680
539.7050, 440.0977
540.8820, 474.0977
542.0590, 467.3750
543.2360, 501.2637
544.4130, 530.0781
545.5900, 791.4219
546.7660, 737.5098
547.9430, 654.0234
549.1190, 732.3594
550.2950, 1146.389
551.4710, 1193.473
552.6470, 1159.799
553.8220, 1334.348
554.9980, 1374.818
556.1730, 1397.174
557.3480, 1590.656
558.5230, 1840.242
559.6980, 1975.877
560.8730, 1901.094
562.0470, 2182.514
563.2220, 1627.791
564.3960, 1243.922
565.5700, 943.2695
566.7440, 956.6035
567.9170, 993.2637
569.0910, 971.5605
570.2640, 726.0547
571.4380, 918.2871
572.6110, 661.4453
573.7840, 861.3203
574.9570, 751.9453
576.1290, 838.3906
577.3020, 779.8555
578.4740, 694.5312
579.6460, 829.4180
580.8180, 765.2539
581.9900, 819.9551
583.1620, 844.2969
584.3330, 912.8398
585.5040, 899.2520
586.6760, 1038.119
587.8470, 1124.549
589.0180, 1023.629
590.1880, 1110.152
591.3590, 1314.652
592.5290, 1405.209
593.7000, 1278.445
594.8700, 1350.660
596.0400, 1543.570
597.2090, 1378.068
598.3790, 1643.975
599.5490, 2144.816
600.7180, 1670.221
601.8870, 2711.447
603.0560, 2164.904
604.2250, 1769.385
605.3940, 1861.809
606.5620, 1948.332
607.7300, 2341.881
608.8990, 2220.482
610.0670, 2199.105
611.2350, 2021.750
612.4020, 2232.422
613.5700, 2551.113
614.7370, 2529.826
615.9050, 2923.566
617.0720, 2926.289
618.2390, 2872.082
619.4060, 2974.850
620.5720, 3040.689
621.7390, 3177.145
622.9050, 3277.033
624.0710, 3336.947
625.2370, 3487.709
626.4030, 3560.648
627.5690, 3646.643
628.7340, 3846.660
629.9000, 3855.186
631.0650, 4121.260
632.2300, 4168.621
633.3950, 4119.750
634.5600, 4252.904
635.7240, 4491.680
636.8890, 4792.887
638.0530, 4998.953
639.2170, 5150.217
640.3810, 5036.885
641.5450, 5264.514
642.7080, 5514.801
643.8720, 5670.605
645.0350, 5953.107
646.1980, 6440.154
647.3610, 6551.590
648.5240, 6989.980
649.6870, 7468.404
650.8490, 7460.549
652.0120, 8052.639
653.1740, 7427.281
654.3360, 7821.014
655.4980, 7560.125
656.6600, 7246.678
657.8210, 7040.367
658.9830, 6914.336
660.1440, 6668.125
661.3050, 6466.938
662.4660, 6608.785
663.6270, 6104.293
664.7870, 6658.043
665.9480, 5817.098
667.1080, 6174.191
668.2680, 6016.215
669.4280, 5887.391
670.5880, 5910.609
671.7480, 5871.020
672.9070, 6183.184
674.0670, 6029.539
675.2260, 6284.941
676.3850, 6569.395
677.5440, 6588.184
678.7030, 6800.457
679.8610, 6886.082
681.0200, 7036.785
682.1780, 7242.574
683.3360, 7161.438
684.4940, 7638.359
685.6520, 7873.398
686.8090, 7622.520
687.9670, 8063.738
689.1240, 8241.055
690.2810, 8166.441
691.4380, 8312.906
692.5950, 8623.438
693.7520, 8629.051
694.9080, 8707.742
696.0650, 9119.402
697.2210, 9034.363
698.3770, 9178.660
699.5330, 9265.727
700.6880, 9236.781
701.8440, 9232.898
702.9990, 9254.781
704.1550, 9320.008
705.3100, 9198.328
706.4650, 9368.090
707.6190, 9494.062
708.7740, 9474.250
709.9290, 9758.836
711.0830, 9462.090
712.2370, 9474.750
713.3910, 9811.805
714.5450, 9726.609
715.6980, 9837.793
716.8520, 9778.195
718.0050, 9915.090
719.1580, 9498.840
720.3110, 9578.391
721.4640, 9296.469
722.6170, 9237.191
723.7700, 9078.273
724.9220, 8739.379
726.0740, 8608.629
727.2260, 8555.188
728.3780, 8239.145
729.5300, 8221.195
730.6810, 8212.328
731.8330, 8167.938
732.9840, 8088.254
734.1350, 7679.602
735.2860, 7472.254
736.4370, 7799.719
737.5880, 7114.020
738.7380, 7313.469
739.8880, 7042.023
741.0390, 6945.523
742.1890, 7037.055
743.3380, 6796.598
744.4880, 6679.172
745.6380, 6716.766
746.7870, 6596.637
747.9360, 6672.277
749.0850, 6607.949
750.2340, 6596.637
751.3830, 6306.348
752.5310, 6261.078
753.6800, 6108.832
754.8280, 6475.770
755.9760, 6458.570
757.1240, 6261.391
758.2720, 6378.227
759.4190, 6198.094
760.5670, 6641.984
761.7140, 6608.895
762.8610, 6273.824
764.0080, 6360.777
765.1550, 6094.750
766.3020, 6127.746
767.4480, 6072.766
768.5950, 5930.730
769.7410, 5876.863
770.8870, 5776.945
772.0330, 5676.047
773.1780, 5685.172
774.3240, 5528.320
775.4690, 5403.484
776.6140, 5308.672
777.7590, 5326.875
778.9040, 5291.105
780.0490, 4894.355
781.1940, 5097.625
782.3380, 4892.922
783.4820, 4609.250
784.6260, 4721.602
785.7700, 4859.973
786.9140, 4479.383
788.0580, 4106.816
789.2010, 3875.312
790.3450, 3582.844
791.4880, 3390.395
792.6310, 3254.473
793.7730, 2991.668
794.9160, 3097.363
796.0590, 2833.094
797.2010, 2829.863
798.3430, 2599.664
799.4850, 2450.488
800.6270, 1949.352
801.7690, 2147.246
802.9100, 1803.184
804.0520, 1815.137
805.1930, 1664.105
806.3340, 1356.117
807.4750, 1453.148
808.6160, 1225.188
809.7560, 1363.250
810.8970, 1133.324
812.0370, 996.4141
813.1770, 954.5156
814.3170, 1087.633
815.4570, 806.7617
816.5960, 836.9023
817.7360, 498.0547
818.8750, 646.2227
820.0140, 555.3984
821.1530, 646.5898
822.2920, 572.7930
823.4310, 572.5039
824.5690, 460.2305
825.7070, 499.4648
826.8460, 413.7031
827.9840, 266.9531
829.1220, 198.2109
830.2590, 225.4805
831.3970, 166.7539
832.5340, 88.96875
833.6710, 54.72656
834.8080, 144.5156
835.9450, 138.3711
837.0820, 148.6992
838.2190, 116.7734
839.3550, 128.1445
840.4910, 41.86719
841.6270, 130.1133
842.7630, 28.16406
843.8990, 266.2383
845.0350, 136.4531
846.1700, 363.7500
847.3060, 245.2461
848.4410, 37.87891
849.5760, 221.5430
850.7100, 101.3242
851.8450, 252.1719
852.9800, 129.1680
854.1140, 59.76172
855.2480, 288.3125
856.3820, 124.5469
857.5160, 29.13672
858.6500, 60.18359
859.7830, 561.4492
860.9170, 258.6055
862.0500, 481.7227
863.1830, 70.64844
864.3160, 58.07031
865.4480, 281.5352
866.5810, 186.1719
867.7130, 160.9219
868.8460, 143.2227
869.9780, 329.3672
871.1100, 29.51172
872.2410, 40.64844
873.3730, 14.77734
874.5050, 57.89062
875.6360, 41.84375
876.7670, 110.1094
877.8980, 50.21484
879.0290, 122.3164
880.1590, 157.4141
881.2900, 56.51172
882.4200, 74.39844
883.5500, 299.6289
884.6800, 52.69141
885.8100, 305.7695
886.9400, 115.8398
888.0690, 178.9414
889.1990, 209.0391
890.3280, 14.13281
891.4570, 143.2109
892.5860, 254.2852
893.7140, 292.3906
894.8430, 323.4883
895.9710, 200.6172
897.1000, 158.7344
898.2280, 181.8516
899.3560, 211.9609
900.4830, 478.0703
901.6110, 360.1797
902.7380, 379.2812
903.8660, 479.3711
904.9930, 397.4648
906.1200, 213.5508
907.2460, 291.6328
908.3730, 478.7070
909.5000, 300.7969
910.6260, 420.8789
911.7520, 342.9570
912.8780, 432.0312
914.0040, 336.1211
915.1290, 348.2070
916.2550, 463.2891
917.3800, 383.3906
918.5050, 580.5352
919.6300, 216.6797
920.7550, 604.8164
921.8800, 587.0000
923.0040, 893.1758
924.1290, 556.3477
925.2530, 573.5078
926.3770, 565.7031
927.5010, 487.8945
928.6250, 641.0938
929.7480, 760.3164
930.8720, 709.5312
931.9950, 541.7773
933.1180, 1005.020
934.2410, 1160.250
935.3640, 1070.473
936.4860, 652.6914
937.6090, 776.8984
938.7310, 1001.098
939.8530, 843.2812
940.9750, 1033.461
942.0970, 1115.625
943.2180, 920.8008
944.3400, 1167.961
945.4610, 1037.117
946.5820, 905.2617
947.7030, 867.3945
948.8240, 1126.516
949.9450, 1231.652
951.0650, 1057.773
952.1860, 905.8867
953.3060, 1114.992
954.4260, 1143.094
955.5460, 1333.180
956.6650, 949.2617
957.7850, 1242.332
958.9040, 1115.395
960.0230, 926.4453
961.1420, 1018.480
962.2610, 903.5078
963.3800, 1162.527
964.4990, 919.5469
965.6170, 1006.559
966.7350, 1153.559
967.8530, 1097.656
968.9710, 1210.531
970.0890, 1111.145
971.2070, 1308.031
972.3240, 1243.988
973.4410, 1434.938
974.5580, 1283.168
975.6750, 1234.098
976.7920, 1496.996
977.9090, 1399.703
979.0250, 1804.859
980.1410, 1738.070
981.2580, 1561.930
982.3740, 1661.137
983.4890, 1546.992
984.6050, 2028.535
985.7200, 1883.551
986.8360, 2262.039
987.9510, 2245.176
989.0660, 2612.031
990.1810, 2675.066
991.2950, 2686.328
992.4100, 2740.098
993.5240, 3002.926
994.6390, 3184.789
995.7530, 3619.965
996.8660, 3701.812
997.9800, 4063.168
999.0940, 4195.258
1000.207, 4345.289
1001.320, 4768.273
1002.433, 5027.863
1003.546, 5696.664
1004.659, 5913.520
1005.772, 6342.094
1006.884, 6999.883
1007.996, 7158.875
1009.108, 7881.742
1010.220, 8345.531
1011.332, 9392.406
1012.444, 9570.273
1013.555, 10394.15
1014.666, 11334.03
1015.777, 11868.91
1016.888, 12863.55
1017.999, 13275.64
1019.110, 13734.13
1020.220, 14407.02
1021.331, 15341.08
1022.441, 15899.18
1023.551, 16642.07
1024.661, 17118.85
1025.770, 17503.86
1026.880, 18069.38
1027.989, 18101.28
1029.098, 18509.49
1030.207, 18779.41
1031.316, 18641.31
1032.425, 18090.23
1033.533, 17319.47
1034.642, 17095.38
1035.750, 16239.30
1036.858, 15346.21
1037.966, 13881.12
1039.073, 13461.05
1040.181, 12555.96
1041.288, 11866.01
1042.396, 11102.84
1043.503, 10346.77
1044.610, 9418.793
1045.716, 8776.719
1046.823, 8089.699
1047.929, 7668.895
1049.036, 7252.824
1050.142, 6795.266
1051.248, 6267.562
1052.353, 5982.742
1053.459, 5587.840
1054.564, 5172.297
1055.670, 5001.328
1056.775, 4747.582
1057.880, 4617.504
1058.985, 4531.875
1060.089, 4348.180
1061.194, 4250.730
1062.298, 4400.918
1063.402, 3985.922
1064.506, 4114.340
1065.610, 3946.574
1066.713, 3710.766
1067.817, 3479.668
1068.920, 3450.820
1070.023, 3502.082
1071.126, 3337.977
1072.229, 3164.867
1073.332, 3426.781
1074.435, 3066.668
1075.537, 3129.664
1076.639, 2957.039
1077.741, 2934.922
1078.843, 2853.875
1079.945, 2799.750
1081.046, 2635.621
1082.148, 2678.215
1083.249, 2492.086
1084.350, 2290.945
1085.451, 2069.234
1086.551, 2000.535
1087.652, 1892.113
1088.752, 1910.801
1089.853, 1808.828
1090.953, 1845.016
1092.053, 1819.855
1093.152, 1830.695
1094.252, 1787.633
1095.351, 1745.863
1096.451, 1502.117
1097.550, 1621.941
1098.649, 1251.996
1099.748, 1129.820
1100.846, 896.6641
1101.945, 1036.637
1103.043, 843.5312
1104.141, 765.4570
1105.239, 770.0430
1106.337, 589.4844
1107.434, 853.4375
1108.532, 530.3867
1109.629, 376.3750
1110.726, 578.3711
1111.823, 383.4414
1112.920, 395.5430
1114.017, 368.7422
1115.113, 468.0117
1116.210, 378.2891
1117.306, 708.6328
1118.402, 197.0000
1119.498, 464.4414
1120.593, 610.9180
1121.689, 219.3906
1122.784, 269.9727
1123.879, 483.5547
1124.974, 386.1445
1126.069, 443.7500
1127.164, 277.3516
1128.259, 287.9531
1129.353, 129.5469
1130.447, 86.16797
1131.541, 32.80469
1132.635, 176.9102
1133.729, 65.68359
1134.822, 152.5039
1135.916, 83.32031
1137.009, 247.1328
1138.102, 234.9453
1139.195, 24.09766
1140.288, 124.9141
1141.380, 195.7305
1142.473, 98.53906
1143.565, 234.3750
1144.657, 225.1758
1145.749, 336.9922
1146.841, 322.8008
1147.932, 278.6055
1149.024, 133.5547
1150.115, 59.80078
1151.206, 64.92578
1152.297, 115.3633
1153.388, 3.281250
1154.479, 84.91406
1155.569, 39.54688
1156.659, 3.820313
1157.750, 115.1992
1158.839, 169.3516
1159.929, 98.09766
1161.019, 61.39062
1162.108, 262.8711
1163.198, 254.3477
1164.287, 0.8242190
1165.376, 63.28516
1166.465, 112.7852
1167.553, 250.2734
1168.642, 216.8711
1169.730, 160.7383
1170.818, 157.7109
1171.906, 43.17578
1172.994, 54.36719
1174.082, 127.0508
1175.170, 52.48047
1176.257, 117.9023
1177.344, 70.68359
1178.431, 17.67969
1179.518, 103.0352
1180.605, 76.61328
1181.691, 201.3203
1182.778, 27.85156
1183.864, 49.01562
1184.950, 170.9414
1186.036, 6.304688
1187.122, 107.6016
1188.207, 137.0195
1189.292, 120.5430
1190.378, 7.527344
1191.463, 43.10156
1192.548, 84.80469
1193.632, 80.20312
1194.717, 135.8203
1195.801, 25.82812
1196.886, 36.67578
1197.970, 116.5117
1199.054, 46.89062
1200.137, 23.39844
1201.221, 149.4219
1202.305, 192.6758
1203.388, 105.8125
1204.471, 189.9805
1205.554, 31.45703
1206.637, 15.23047
1207.719, 177.5977
1208.802, 98.17188
1209.884, 184.9805
1210.966, 208.4922
1212.048, 55.78516
1213.130, 180.3594
1214.212, 200.0547
1215.293, 2.507813
1216.374, 216.4258
1217.456, 44.48828
1218.536, 12.01172
1219.617, 84.55078
1220.698, 47.66016
1221.778, 183.3008
1222.859, 152.7266
1223.939, 107.2422
1225.019, 126.5977
1226.099, 37.75000
1227.178, 138.6094
1228.258, 82.20312
1229.337, 141.4727
1230.417, 226.9883
1231.496, 111.6445
1232.574, 208.8750
1233.653, 23.57031
1234.732, 19.81250
1235.810, 33.44531
1236.888, 211.4375
1237.966, 528.8086
1239.044, 381.1719
1240.122, 430.5273
1241.199, 402.8711
1242.277, 389.2070
1243.354, 291.5312
1244.431, 230.8477
1245.508, 250.5195
1246.585, 245.4375
1247.661, 262.7148
1248.738, 361.9805
1249.814, 314.2344
1250.890, 367.4766
1251.966, 152.7070
1253.042, 566.9258
1254.117, 164.3555
1255.193, 351.5430
1256.268, 509.7148
1257.343, 511.8984
1258.418, 448.3789
1259.493, 324.2695
1260.567, 334.4609
1261.642, 74.63281
1262.716, 445.7891
1263.790, 201.9336
1264.864, 328.0547
1265.938, 191.7500
1267.011, 643.0156
1268.085, 92.60156
1269.158, 514.6602
1270.231, 611.0234
1271.304, 498.0586
1272.377, 548.5273
1273.450, 436.5156
1274.522, 315.4922
1275.594, 387.8438
1276.666, 210.7930
1277.738, 183.7539
1278.810, 497.4844
1279.882, 173.0039
1280.953, 354.5664
1282.025, 453.5391
1283.096, 487.0977
1284.167, 233.8047
1285.238, 351.0977
1286.308, 319.4570
1287.379, 274.8242
