##NAMES=Laverovite
##RRUFFID=R060216
##IDEAL CHEMISTRY=K_2_NaMn^2+^_7_Zr^4+^_2_(Si_4_O_12_)_2_O_2_(OH)_4_F
##LOCALITY=Desourdy Quarry, Mont Saint-Hilaire, Rouville County, Quebec, Canada
##OWNER=RRUFF
##SOURCE=Royal Ontario Museum
##DESCRIPTION=Brown fragment showing lamellar habit. Type sample
##STATUS=The identification of this mineral has been confirmed by X-ray diffraction and chemical analysis
##URL=rruff.info/R060216
##MEASURED CHEMISTRY=(K_1.74_Na_0.18_[box]_0.08_)_Σ=2_(Na_0.92_Ca_0.08_)_Σ=1_(Mn_4.09_Fe^2+^_2.67_Mg_0.24_)_Σ=7_(Zr_1.42_Ti_0.58_)_Σ=2_(Si_7.86_Al_0.14_)_Σ=8_O_26_((OH)_3.14_O_0.86_)_Σ=4_
##PIN_ID=M00393
##ORIENTATION=Laser parallel to a* (1 0 0). Fiducial mark perpendicular to laser is parallel to b [0 1 0]
121.8270, 0.0000000E+00
123.0580, 1.929688
124.2880, 342.8340
125.5190, 159.8535
126.7490, 367.7168
127.9790, 410.8848
129.2090, 548.6055
130.4390, 370.3047
131.6680, 542.2344
132.8980, 948.0195
134.1270, 1024.311
135.3560, 1414.350
136.5850, 1463.525
137.8140, 1826.854
139.0430, 1502.217
140.2710, 946.5215
141.5000, 765.6719
142.7280, 619.5762
143.9560, 433.1660
145.1840, 260.3750
146.4120, 125.8574
147.6390, 0.4257810
148.8670, 513.1934
150.0940, 409.4121
151.3210, 319.0547
152.5490, 204.0957
153.7750, 187.5391
155.0020, 29.36328
156.2290, 15.57812
157.4550, 35.14844
158.6810, 393.9922
159.9080, 584.0898
161.1340, 1080.422
162.3590, 1208.711
163.5850, 1784.744
164.8110, 1540.705
166.0360, 1832.840
167.2610, 1959.146
168.4860, 2530.604
169.7110, 2315.215
170.9360, 2301.977
172.1610, 2162.910
173.3850, 1953.027
174.6100, 2011.320
175.8340, 1825.785
177.0580, 1728.414
178.2820, 1526.197
179.5050, 1310.133
180.7290, 1270.211
181.9520, 1016.424
183.1760, 875.7676
184.3990, 1140.229
185.6220, 1023.914
186.8450, 730.5859
188.0670, 1033.688
189.2900, 1148.609
190.5120, 1386.256
191.7340, 1326.271
192.9560, 1408.365
194.1780, 1306.537
195.4000, 1097.764
196.6220, 1352.979
197.8430, 1643.211
199.0640, 1640.486
200.2860, 2098.809
201.5070, 1445.225
202.7270, 1035.727
203.9480, 409.2461
205.1690, 371.7754
206.3890, 278.3281
207.6090, 293.8594
208.8290, 290.3809
210.0490, 351.3906
211.2690, 458.5078
212.4890, 544.1094
213.7080, 535.7383
214.9280, 624.4023
216.1470, 568.1172
217.3660, 617.8594
218.5850, 623.3867
219.8030, 581.3359
221.0220, 629.7734
222.2400, 512.6641
223.4590, 499.0566
224.6770, 467.1152
225.8950, 459.9883
227.1120, 545.1582
228.3300, 551.5020
229.5480, 677.8340
230.7650, 452.1582
231.9820, 578.5664
233.1990, 364.9961
234.4160, 639.5020
235.6330, 581.0566
236.8490, 608.6016
238.0660, 508.1621
239.2820, 477.7578
240.4980, 351.3359
241.7140, 303.9043
242.9300, 273.4668
244.1460, 72.06445
245.3610, 110.1699
246.5770, 166.3027
247.7920, 35.47656
249.0070, 134.5156
250.2220, 228.5898
251.4370, 250.8301
252.6510, 14.01562
253.8660, 91.79688
255.0800, 49.03125
256.2940, 0.1289060
257.5080, 158.0156
258.7220, 65.20703
259.9360, 89.31445
261.1490, 92.97266
262.3630, 165.6309
263.5760, 88.77148
264.7890, 58.02539
266.0020, 176.7480
267.2150, 212.6387
268.4270, 264.7969
269.6400, 71.21875
270.8520, 352.8301
272.0640, 224.3203
273.2760, 233.1074
274.4880, 423.9590
275.7000, 403.8223
276.9120, 247.9883
278.1230, 420.9961
279.3340, 241.3008
280.5450, 35.31055
281.7560, 399.3906
282.9670, 365.9785
284.1780, 301.3496
285.3880, 342.4551
286.5980, 583.6152
287.8090, 536.8262
289.0190, 550.4492
290.2290, 619.8418
291.4380, 336.2598
292.6480, 623.5703
293.8570, 490.9668
295.0670, 458.2168
296.2760, 575.8281
297.4850, 554.4844
298.6930, 385.0098
299.9020, 766.8008
301.1110, 433.7754
302.3190, 698.3652
303.5270, 578.9688
304.7350, 827.8438
305.9430, 788.4844
307.1510, 691.6855
308.3580, 551.2852
309.5660, 703.1699
310.7730, 719.4570
311.9800, 637.4570
313.1870, 728.4316
314.3940, 850.7266
315.6010, 538.5293
316.8070, 531.6211
318.0130, 473.9082
319.2200, 822.0215
320.4260, 532.0879
321.6310, 618.2266
322.8370, 675.6582
324.0430, 645.2246
325.2480, 578.9102
326.4540, 780.7031
327.6590, 564.5547
328.8640, 526.5605
330.0680, 857.4746
331.2730, 349.2500
332.4780, 684.6777
333.6820, 765.5586
334.8860, 708.3223
336.0900, 642.5430
337.2940, 777.8008
338.4980, 670.6602
339.7010, 774.2129
340.9050, 630.7812
342.1080, 811.7910
343.3110, 696.4746
344.5140, 887.4824
345.7170, 856.1367
346.9200, 802.4355
348.1220, 759.5391
349.3240, 819.4375
350.5270, 779.9824
351.7290, 921.0723
352.9310, 780.4512
354.1320, 922.1836
355.3340, 902.7715
356.5350, 843.7871
357.7370, 1109.523
358.9380, 1040.734
360.1390, 876.4258
361.3400, 1086.895
362.5400, 1112.354
363.7410, 1070.607
364.9410, 1154.910
366.1410, 1275.209
367.3410, 1335.400
368.5410, 1355.992
369.7410, 1326.398
370.9400, 1183.734
372.1400, 1446.988
373.3390, 1189.434
374.5380, 1310.125
375.7370, 1161.559
376.9360, 1235.010
378.1350, 1109.928
379.3330, 975.8262
380.5310, 901.3125
381.7300, 1075.150
382.9280, 888.5508
384.1260, 1020.867
385.3230, 953.0410
386.5210, 948.4414
387.7180, 756.2129
388.9160, 806.0020
390.1130, 1170.740
391.3100, 883.7578
392.5060, 850.8691
393.7030, 1012.998
394.9000, 843.8984
396.0960, 964.9551
397.2920, 912.2246
398.4880, 556.6016
399.6840, 836.9473
400.8800, 624.2363
402.0750, 616.5137
403.2710, 596.4941
404.4660, 699.7012
405.6610, 530.8770
406.8560, 488.0176
408.0510, 496.1289
409.2450, 382.2930
410.4400, 282.2461
411.6340, 316.2539
412.8280, 136.2363
414.0220, 217.1973
415.2160, 56.13086
416.4100, 275.0352
417.6030, 278.9121
418.7970, 19.23633
419.9900, 184.5508
421.1830, 273.3105
422.3760, 180.0449
423.5690, 101.2520
424.7610, 200.3477
425.9540, 96.91797
427.1460, 164.4980
428.3380, 327.2402
429.5300, 414.0254
430.7220, 428.9434
431.9140, 156.7949
433.1050, 255.2559
434.2970, 205.1582
435.4880, 148.9355
436.6790, 299.5039
437.8700, 68.97461
439.0610, 216.2012
440.2510, 212.5801
441.4420, 277.9590
442.6320, 193.8398
443.8220, 155.8633
445.0120, 267.3535
446.2020, 296.0352
447.3910, 194.5898
448.5810, 264.1719
449.7700, 28.10547
450.9600, 60.17578
452.1490, 207.9082
453.3370, 113.7891
454.5260, 185.9180
455.7150, 194.6934
456.9030, 295.1113
458.0910, 191.5215
459.2800, 196.0898
460.4670, 71.82422
461.6550, 180.6523
462.8430, 52.63477
464.0300, 117.7070
465.2180, 92.10156
466.4050, 125.1250
467.5920, 17.52148
468.7790, 33.87891
469.9650, 225.6406
471.1520, 186.1309
472.3380, 206.5879
473.5250, 13.01172
474.7110, 189.6172
475.8970, 204.5977
477.0820, 229.7832
478.2680, 113.9355
479.4540, 102.0488
480.6390, 194.1328
481.8240, 83.81836
483.0090, 49.12695
484.1940, 147.0371
485.3780, 40.08789
486.5630, 139.7090
487.7470, 136.5273
488.9320, 69.11133
490.1160, 102.7129
491.3000, 147.2793
492.4830, 34.81250
493.6670, 92.30078
494.8500, 41.24219
496.0340, 0.1406250
497.2170, 197.4648
498.4000, 89.76172
499.5820, 151.0234
500.7650, 50.25000
501.9480, 14.44531
503.1300, 21.58984
504.3120, 195.6992
505.4940, 307.7734
506.6760, 144.1797
507.8580, 214.7422
509.0390, 233.6328
510.2210, 7.492188
511.4020, 167.3125
512.5830, 11.09766
513.7640, 188.8398
514.9450, 249.4453
516.1250, 68.08984
517.3060, 44.41016
518.4860, 108.0234
519.6660, 38.57812
520.8460, 262.7539
522.0260, 74.06250
523.2060, 247.3320
524.3850, 19.42188
525.5650, 87.76953
526.7440, 112.9297
527.9230, 49.06250
529.1020, 191.1602
530.2810, 189.2305
531.4590, 0.7304690
532.6380, 104.2773
533.8160, 195.2500
534.9940, 59.19531
536.1720, 196.1133
537.3500, 314.0273
538.5270, 246.9180
539.7050, 305.7812
540.8820, 506.6211
542.0590, 314.4570
543.2360, 424.2656
544.4130, 531.0469
545.5900, 285.8086
546.7660, 683.5508
547.9430, 628.2656
549.1190, 831.9609
550.2950, 826.6484
551.4710, 1001.312
552.6470, 916.9961
553.8220, 1214.664
554.9980, 917.9141
556.1730, 840.4766
557.3480, 1127.297
558.5230, 1225.930
559.6980, 749.5391
560.8730, 993.1992
562.0470, 1022.621
563.2220, 921.2930
564.3960, 1001.770
565.5700, 681.3633
566.7440, 826.9492
567.9170, 843.1641
569.0910, 906.6445
570.2640, 593.5117
571.4380, 744.3711
572.6110, 936.2578
573.7840, 569.8008
574.9570, 843.6992
576.1290, 513.4492
577.3020, 662.9688
578.4740, 568.9258
579.6460, 595.0625
580.8180, 620.8477
581.9900, 701.6250
583.1620, 594.5781
584.3330, 627.2930
585.5040, 645.8555
586.6760, 617.7969
587.8470, 740.7227
589.0180, 1088.375
590.1880, 1603.262
591.3590, 1020.582
592.5290, 751.4883
593.7000, 1057.105
594.8700, 998.3125
596.0400, 1154.797
597.2090, 1075.293
598.3790, 1028.461
599.5490, 876.1094
600.7180, 1122.461
601.8870, 1166.598
603.0560, 1202.898
604.2250, 1004.234
605.3940, 1226.480
606.5620, 1100.422
607.7300, 1093.207
608.8990, 1436.855
610.0670, 1198.383
611.2350, 1293.840
612.4020, 1479.117
613.5700, 1230.473
614.7370, 1211.941
615.9050, 1337.738
617.0720, 1049.055
618.2390, 1424.473
619.4060, 1467.395
620.5720, 1509.266
621.7390, 1671.512
622.9050, 1688.035
624.0710, 1575.531
625.2370, 1769.555
626.4030, 1615.883
627.5690, 1987.871
628.7340, 1761.191
629.9000, 1845.840
631.0650, 1787.656
632.2300, 1720.660
633.3950, 1931.988
634.5600, 2144.754
635.7240, 2413.203
636.8890, 2546.277
638.0530, 2622.473
639.2170, 2818.219
640.3810, 2780.219
641.5450, 2958.719
642.7080, 2877.711
643.8720, 3151.910
645.0350, 3733.086
646.1980, 3980.441
647.3610, 3910.727
648.5240, 4322.984
649.6870, 4509.324
650.8490, 4814.234
652.0120, 4761.297
653.1740, 5015.398
654.3360, 4678.551
655.4980, 4808.484
656.6600, 4593.137
657.8210, 4322.016
658.9830, 4014.844
660.1440, 3789.180
661.3050, 3556.496
662.4660, 3380.586
663.6270, 3275.508
664.7870, 3113.227
665.9480, 3110.000
667.1080, 3043.883
668.2680, 2587.504
669.4280, 2744.723
670.5880, 3055.941
671.7480, 2712.078
672.9070, 3104.957
674.0670, 2975.219
675.2260, 2835.922
676.3850, 2966.457
677.5440, 2967.766
678.7030, 2983.078
679.8610, 3157.391
681.0200, 3400.961
682.1780, 3516.270
683.3360, 3472.582
684.4940, 3597.191
685.6520, 3498.508
686.8090, 3787.816
687.9670, 3959.129
689.1240, 3845.246
690.2810, 3881.992
691.4380, 3834.160
692.5950, 4017.848
693.7520, 4188.547
694.9080, 3989.125
696.0650, 4119.086
697.2210, 4136.070
698.3770, 4359.582
699.5330, 4106.617
700.6880, 4327.816
701.8440, 4482.875
702.9990, 4285.602
704.1550, 4593.488
705.3100, 4064.035
706.4650, 4638.742
707.6190, 4657.547
708.7740, 4545.484
709.9290, 4809.340
711.0830, 4481.844
712.2370, 4853.273
713.3910, 4519.734
714.5450, 4484.977
715.6980, 4559.078
716.8520, 4570.336
718.0050, 4514.867
719.1580, 4439.500
720.3110, 4414.957
721.4640, 4334.699
722.6170, 4322.305
723.7700, 4232.727
724.9220, 4175.996
726.0740, 4227.438
727.2260, 4006.660
728.3780, 3894.867
729.5300, 3702.066
730.6810, 3780.266
731.8330, 3436.453
732.9840, 3611.633
734.1350, 3430.805
735.2860, 3428.965
736.4370, 3223.121
737.5880, 3148.191
738.7380, 3227.641
739.8880, 3004.992
741.0390, 2960.363
742.1890, 3014.781
743.3380, 2904.227
744.4880, 2881.699
745.6380, 2927.172
746.7870, 2931.676
747.9360, 2772.188
749.0850, 2667.711
750.2340, 3018.219
751.3830, 2505.723
752.5310, 2724.219
753.6800, 2775.715
754.8280, 2613.258
755.9760, 2746.297
757.1240, 2560.324
758.2720, 2774.852
759.4190, 2540.363
760.5670, 2558.875
761.7140, 2412.406
762.8610, 2693.938
764.0080, 2556.461
765.1550, 2554.996
766.3020, 2587.523
767.4480, 2468.090
768.5950, 2605.652
769.7410, 2290.211
770.8870, 2358.758
772.0330, 2222.305
773.1780, 2381.844
774.3240, 2269.395
775.4690, 2089.949
776.6140, 2028.492
777.7590, 1987.031
778.9040, 1790.562
780.0490, 2002.090
781.1940, 2292.617
782.3380, 1968.137
783.4820, 1764.648
784.6260, 1481.156
785.7700, 1646.699
786.9140, 1624.234
788.0580, 1606.762
789.2010, 1622.289
790.3450, 1507.812
791.4880, 1460.328
792.6310, 1267.840
793.7730, 1229.414
794.9160, 1254.984
796.0590, 1028.566
797.2010, 871.1445
798.3430, 786.3555
799.4850, 947.3047
800.6270, 601.8750
801.7690, 549.4336
802.9100, 605.0000
804.0520, 407.5625
805.1930, 522.1133
806.3340, 543.6680
807.4750, 573.2109
808.6160, 604.7422
809.7560, 199.2695
810.8970, 441.7930
812.0370, 214.3125
813.1770, 71.17578
814.3170, 279.2734
815.4570, 262.7188
816.5960, 123.1523
817.7360, 37.41406
818.8750, 145.9688
820.0140, 194.3477
821.1530, 53.71484
822.2920, 201.0742
823.4310, 147.4258
824.5690, 170.7617
825.7070, 42.91016
826.8460, 23.37891
827.9840, 138.3477
829.1220, 37.82422
830.2590, 36.98438
831.3970, 66.13672
832.5340, 69.73047
833.6710, 85.65234
834.8080, 82.35156
835.9450, 117.6523
837.0820, 103.7461
838.2190, 180.9180
839.3550, 223.2109
840.4910, 193.7227
841.6270, 44.21484
842.7630, 285.8320
843.8990, 23.37109
845.0350, 305.4336
846.1700, 33.42969
847.3060, 139.4727
848.4410, 138.6133
849.5760, 4.148438
850.7100, 136.1133
851.8450, 70.47656
852.9800, 152.8984
854.1140, 1.574219
855.2480, 40.01953
856.3820, 75.54297
857.5160, 123.1797
858.6500, 58.46875
859.7830, 62.65234
860.9170, 109.4961
862.0500, 65.65234
863.1830, 237.8008
864.3160, 304.9375
865.4480, 329.5508
866.5810, 260.4023
867.7130, 424.3047
868.8460, 110.4102
869.9780, 163.5078
871.1100, 370.6016
872.2410, 313.6875
873.3730, 513.7617
874.5050, 330.8281
875.6360, 263.9062
876.7670, 526.9688
877.8980, 251.0273
879.0290, 292.0742
880.1590, 225.1172
881.2900, 500.1484
882.4200, 326.1719
883.5500, 410.1875
884.6800, 309.1914
885.8100, 465.1875
886.9400, 325.1875
888.0690, 638.2031
889.1990, 507.2188
890.3280, 653.2461
891.4570, 492.2930
892.5860, 635.3438
893.7140, 755.3828
894.8430, 684.7930
895.9710, 661.4492
897.1000, 621.4805
898.2280, 685.4961
899.3560, 544.5117
900.4830, 843.5117
901.6110, 639.5352
902.7380, 1032.555
903.8660, 658.5625
904.9930, 1035.566
906.1200, 987.5625
907.2460, 841.5469
908.3730, 905.5234
909.5000, 958.5117
910.6260, 940.4844
911.7520, 778.5039
912.8780, 994.5352
914.0040, 809.5820
915.1290, 945.6250
916.2550, 1148.660
917.3800, 1180.688
918.5050, 948.7500
919.6300, 1137.805
920.7550, 1045.852
921.8800, 1210.934
923.0040, 1180.996
924.1290, 990.0625
925.2530, 1174.117
926.3770, 1161.164
927.5010, 1337.203
928.6250, 1354.238
929.7480, 1480.262
930.8720, 1262.277
931.9950, 1223.289
933.1180, 972.3320
934.2410, 1048.387
935.3640, 1426.488
936.4860, 1000.586
937.6090, 1173.707
938.7310, 1372.832
939.8530, 1283.941
940.9750, 1591.094
942.0970, 1444.242
943.2180, 1456.383
944.3400, 1603.516
945.4610, 1561.637
946.5820, 1548.758
947.7030, 1375.871
948.8240, 1367.719
949.9450, 1725.816
951.0650, 2102.910
952.1860, 1583.000
953.3060, 1433.820
954.4260, 1449.902
955.5460, 1168.973
956.6650, 1217.738
957.7850, 1314.797
958.9040, 982.8555
960.0230, 1120.906
961.1420, 1007.145
962.2610, 906.7500
963.3800, 978.9336
964.4990, 935.5859
965.6170, 727.2305
966.7350, 793.9961
967.8530, 1084.371
968.9710, 616.7188
970.0890, 844.5352
971.2070, 870.8281
972.3240, 604.9688
973.4410, 913.2461
974.5580, 927.8594
975.6750, 738.3125
976.7920, 898.1445
977.9090, 1045.801
979.0250, 976.3711
980.1410, 1025.805
981.2580, 943.3164
982.3740, 852.1797
983.4890, 798.1133
984.6050, 1068.020
985.7200, 1230.141
986.8360, 1173.398
987.9510, 1206.508
989.0660, 1150.332
990.1810, 1076.062
991.2950, 1127.098
992.4100, 1421.176
993.5240, 1383.340
994.6390, 1459.281
995.7530, 1653.367
996.8660, 1516.293
997.9800, 1926.430
999.0940, 1923.582
1000.207, 2310.742
1001.320, 2077.914
1002.433, 2606.098
1003.546, 2784.293
1004.659, 2818.496
1005.772, 3059.711
1006.884, 3140.934
1007.996, 3252.172
1009.108, 3511.996
1010.220, 3991.254
1011.332, 4109.523
1012.444, 4273.801
1013.555, 5000.094
1014.666, 5072.391
1015.777, 4986.703
1016.888, 5576.027
1017.999, 6101.363
1019.110, 6207.703
1020.220, 6724.703
1021.331, 7352.840
1022.441, 7334.777
1023.551, 7879.418
1024.661, 7770.148
1025.770, 8006.328
1026.880, 8628.750
1027.989, 8858.180
1029.098, 8309.141
1030.207, 8589.594
1031.316, 8480.055
1032.425, 8388.531
1033.533, 8141.012
1034.642, 7937.129
1035.750, 7486.645
1036.858, 7290.160
1037.966, 6952.684
1039.073, 6426.219
1040.181, 5800.762
1041.288, 5425.320
1042.396, 4960.867
1043.503, 5056.641
1044.610, 4233.156
1045.716, 4138.430
1046.823, 3882.066
1047.929, 3447.414
1049.036, 3796.797
1050.142, 2968.441
1051.248, 3121.086
1052.353, 3144.750
1053.459, 2611.418
1054.564, 2594.047
1055.670, 2859.734
1056.775, 2156.434
1057.880, 2380.141
1058.985, 2218.863
1060.089, 2223.586
1061.194, 1931.324
1062.298, 2074.070
1063.402, 2391.832
1064.506, 2702.598
1065.610, 2047.902
1066.713, 1871.523
1067.817, 2013.098
1068.920, 1828.902
1070.023, 1610.605
1071.126, 1738.430
1072.229, 1609.727
1073.332, 1936.840
1074.435, 1593.688
1075.537, 1691.539
1076.639, 1625.398
1077.741, 1391.266
1078.843, 1671.141
1079.945, 1664.031
1081.046, 1289.918
1082.148, 1286.844
1083.249, 1329.777
1084.350, 1200.723
1085.451, 1393.672
1086.551, 1088.648
1087.652, 1350.629
1088.752, 1126.621
1089.853, 1225.625
1090.953, 1327.637
1092.053, 1453.652
1093.152, 984.6836
1094.252, 793.7383
1095.351, 1123.805
1096.451, 679.9219
1097.550, 889.0508
1098.649, 796.1875
1099.748, 820.3398
1100.846, 751.5234
1101.945, 801.7461
1103.043, 911.9766
1104.141, 664.2578
1105.239, 183.5820
1106.337, 617.9688
1107.434, 781.4375
1108.532, 314.9727
1109.629, 657.5352
1110.726, 338.1914
1111.823, 484.8594
1112.920, 227.6250
1114.017, 437.4180
1115.113, 389.2578
1116.210, 188.1562
1117.306, 173.0703
1118.402, 399.0391
1119.498, 312.0391
1120.593, 367.0977
1121.689, 526.1758
1122.784, 489.2617
1123.879, 294.3789
1124.974, 382.4570
1126.069, 514.0742
1127.164, 569.8008
1128.259, 553.6953
1129.353, 250.5781
1130.447, 318.0938
1131.541, 237.1016
1132.635, 150.0117
1133.729, 269.7344
1134.822, 8.402344
1135.916, 124.8594
1137.009, 90.52344
1138.102, 125.2188
1139.195, 10.46094
1140.288, 58.11719
1141.380, 22.78516
1142.473, 222.0078
1143.565, 486.3242
1144.657, 403.6484
1145.749, 313.9805
1146.841, 190.3203
1147.932, 112.6641
1149.024, 39.67578
1150.115, 58.37109
1151.206, 52.26562
1152.297, 70.92188
1153.388, 49.61328
1154.479, 93.57031
1155.569, 94.07031
1156.659, 33.86328
1157.750, 120.3281
1158.839, 298.5234
1159.929, 45.27344
1161.019, 134.9141
1162.108, 192.1016
1163.198, 307.3008
1164.287, 38.50391
1165.376, 109.2891
1166.465, 24.87891
1167.553, 84.05469
1168.642, 94.28125
1169.730, 233.5156
1170.818, 447.8242
1171.906, 23.17188
1172.994, 49.45703
1174.082, 249.8906
1175.170, 155.7539
1176.257, 87.48438
1177.344, 84.24219
1178.431, 99.95703
1179.518, 251.1562
1180.605, 30.36328
1181.691, 153.4297
1182.778, 329.7031
1183.864, 155.8359
1184.950, 119.0273
1186.036, 161.0469
1187.122, 147.1250
1188.207, 257.2031
1189.292, 280.2891
1190.378, 340.8008
1191.463, 369.5977
1192.548, 428.5703
1193.632, 264.6719
1194.717, 205.8125
1195.801, 139.0430
1196.886, 31.98438
1197.970, 189.9453
1199.054, 261.9805
1200.137, 127.0859
1201.221, 99.76562
1202.305, 557.6250
1203.388, 155.5156
1204.471, 303.2500
1205.554, 111.0547
1206.637, 59.85547
1207.719, 149.6602
1208.802, 379.5078
1209.884, 211.3555
1210.966, 189.2109
1212.048, 81.07812
1213.130, 172.9453
1214.212, 138.8164
1215.293, 109.6875
1216.374, 437.5664
1217.456, 295.4453
1218.536, 504.3242
1219.617, 370.2109
1220.698, 114.0938
1221.778, 298.9766
1222.859, 345.8672
1223.939, 80.75781
1225.019, 355.6484
1226.099, 266.5352
1227.178, 263.4297
1228.258, 559.3242
1229.337, 569.2148
1230.417, 356.1094
1231.496, 495.0039
1232.574, 468.9023
1233.653, 362.7969
1234.732, 457.6914
1235.810, 504.5859
1236.888, 62.48047
1237.966, 706.3750
1239.044, 177.2656
1240.122, 397.1602
1241.199, 406.0508
1242.277, 427.9375
1243.354, 652.8242
1244.431, 672.7070
1245.508, 274.5898
1246.585, 319.4688
1247.661, 517.3398
1248.738, 724.2148
1249.814, 408.0820
1250.890, 535.9414
1251.966, 399.7969
1253.042, 115.6523
1254.117, 114.4961
1255.193, 430.3359
1256.268, 468.1680
1257.343, 619.9922
1258.418, 539.8164
1259.493, 565.6094
1260.567, 386.4414
1261.642, 503.2461
1262.716, 345.0391
1263.790, 332.8711
1264.864, 266.6172
1265.938, 414.3906
1267.011, 439.1602
1268.085, 469.9180
1269.158, 327.8086
1270.231, 234.9727
1271.304, 252.7070
1272.377, 376.4336
1273.450, 499.1484
1274.522, 522.9727
1275.594, 532.6719
1276.666, 600.1562
1277.738, 432.0469
1278.810, 514.4375
1279.882, 692.0547
1280.953, 791.0586
1282.025, 817.1055
1283.096, 557.3008
1284.167, 665.4297
1285.238, 624.9336
1286.308, 581.8711
1287.379, 747.8359
