##NAMES=Laverovite
##RRUFFID=R060216
##IDEAL CHEMISTRY=K_2_NaMn^2+^_7_Zr^4+^_2_(Si_4_O_12_)_2_O_2_(OH)_4_F
##LOCALITY=Desourdy Quarry, Mont Saint-Hilaire, Rouville County, Quebec, Canada
##OWNER=RRUFF
##SOURCE=Royal Ontario Museum
##DESCRIPTION=Brown fragment showing lamellar habit. Type sample
##STATUS=The identification of this mineral has been confirmed by X-ray diffraction and chemical analysis
##URL=rruff.info/R060216
##MEASURED CHEMISTRY=(K_1.74_Na_0.18_[box]_0.08_)_Σ=2_(Na_0.92_Ca_0.08_)_Σ=1_(Mn_4.09_Fe^2+^_2.67_Mg_0.24_)_Σ=7_(Zr_1.42_Ti_0.58_)_Σ=2_(Si_7.86_Al_0.14_)_Σ=8_O_26_((OH)_3.14_O_0.86_)_Σ=4_
##PIN_ID=L01682
##ORIENTATION=Laser parallel to (0 -1 -1). Fiducial mark perpendicular to laser is parallel to a [1 0 0]
159.9080, 0.0000000E+00
161.1340, 6.052734
162.3590, 524.8848
163.5850, 978.8428
164.8110, 1363.562
166.0360, 2230.117
167.2610, 2236.186
168.4860, 2554.600
169.7110, 2928.636
170.9360, 2772.533
172.1610, 2326.563
173.3850, 2052.085
174.6100, 1871.043
175.8340, 1726.430
177.0580, 1784.627
178.2820, 1753.041
179.5050, 1471.379
180.7290, 1486.313
181.9520, 1368.588
183.1760, 1391.992
184.3990, 1817.878
185.6220, 2183.387
186.8450, 2171.576
188.0670, 2466.815
189.2900, 2955.828
190.5120, 2997.361
191.7340, 3048.272
192.9560, 3451.044
194.1780, 3538.605
195.4000, 3834.860
196.6220, 4266.242
197.8430, 4347.339
199.0640, 4848.814
200.2860, 6089.870
201.5070, 7204.542
202.7270, 7153.700
203.9480, 4856.345
205.1690, 2106.525
206.3890, 419.3301
207.6090, 111.1367
208.8290, 339.7891
210.0490, 148.7275
211.2690, 155.7393
212.4890, 27.70703
213.7080, 46.72168
214.9280, 106.2363
216.1470, 79.66113
217.3660, 267.3594
218.5850, 223.1777
219.8030, 405.2412
221.0220, 508.5840
222.2400, 719.0430
223.4590, 776.9297
224.6770, 895.9502
225.8950, 1091.565
227.1120, 1109.628
228.3300, 1356.465
229.5480, 1286.668
230.7650, 1296.974
231.9820, 1545.628
233.1990, 1468.259
234.4160, 1756.743
235.6330, 1825.998
236.8490, 2022.290
238.0660, 2039.815
239.2820, 2052.097
240.4980, 1763.174
241.7140, 1920.121
242.9300, 1994.150
244.1460, 1798.024
245.3610, 2167.875
246.5770, 2180.451
247.7920, 2157.998
249.0070, 1395.436
250.2220, 1256.371
251.4370, 1146.293
252.6510, 1015.194
253.8660, 723.6006
255.0800, 850.9863
256.2940, 896.3623
257.5080, 863.9160
258.7220, 521.2783
259.9360, 578.6318
261.1490, 475.6289
262.3630, 365.9209
263.5760, 479.4297
264.7890, 181.4600
266.0020, 291.2158
267.2150, 262.8721
268.4270, 343.4121
269.6400, 84.63281
270.8520, 143.7168
272.0640, 194.6611
273.2760, 129.4648
274.4880, 33.87207
275.7000, 196.6494
276.9120, 314.0332
278.1230, 136.5889
279.3340, 61.38965
280.5450, 2.365234
281.7560, 85.44238
282.9670, 72.09082
284.1780, 179.2295
285.3880, 66.11230
286.5980, 91.00000
287.8090, 120.1582
289.0190, 126.3213
290.2290, 140.0596
291.4380, 152.0586
292.6480, 128.1963
293.8570, 143.3340
295.0670, 54.08398
296.2760, 23.13477
297.4850, 102.7129
298.6930, 4.043945
299.9020, 124.5049
301.1110, 112.1807
302.3190, 185.7637
303.5270, 64.71680
304.7350, 143.7764
305.9430, 133.2324
307.1510, 310.1143
308.3580, 135.1543
309.5660, 274.8389
310.7730, 301.6006
311.9800, 237.4980
313.1870, 369.4707
314.3940, 452.5215
315.6010, 303.1279
316.8070, 337.8770
318.0130, 237.3877
319.2200, 238.7012
320.4260, 281.7842
321.6310, 345.6504
322.8370, 364.2988
324.0430, 308.7305
325.2480, 410.9414
326.4540, 477.9365
327.6590, 631.7207
328.8640, 623.2979
330.0680, 496.0400
331.2730, 655.2012
332.4780, 644.1992
333.6820, 680.0332
334.8860, 768.7002
336.0900, 850.1973
337.2940, 697.5029
338.4980, 872.5977
339.7010, 804.4736
340.9050, 780.1299
342.1080, 839.5693
343.3110, 872.7969
344.5140, 952.8213
345.7170, 1026.647
346.9200, 1074.279
348.1220, 1097.146
349.3240, 974.9941
350.5270, 1128.086
351.7290, 1039.013
352.9310, 1087.843
354.1320, 912.9355
355.3340, 1132.643
356.5350, 903.5332
357.7370, 1029.418
358.9380, 958.1445
360.1390, 1018.813
361.3400, 987.0947
362.5400, 973.9463
363.7410, 1163.234
364.9410, 1001.993
366.1410, 1015.384
367.3410, 1145.318
368.5410, 1008.870
369.7410, 1074.003
370.9400, 1099.703
372.1400, 1033.532
373.3390, 1064.190
374.5380, 992.8838
375.7370, 1060.577
376.9360, 1090.100
378.1350, 1151.468
379.3330, 1184.007
380.5310, 1115.082
381.7300, 1205.173
382.9280, 1250.117
384.1260, 1170.955
385.3230, 1400.738
386.5210, 1346.376
387.7180, 1236.923
388.9160, 1066.396
390.1130, 1184.796
391.3100, 1131.129
392.5060, 1156.397
393.7030, 908.6045
394.9000, 903.7520
396.0960, 743.8379
397.2920, 791.8652
398.4880, 728.8320
399.6840, 794.7412
400.8800, 725.5889
402.0750, 602.3818
403.2710, 632.5039
404.4660, 608.8125
405.6610, 404.6406
406.8560, 470.9131
408.0510, 475.6504
409.2450, 287.7080
410.4400, 388.2168
411.6340, 394.4150
412.8280, 206.2754
414.0220, 460.4141
415.2160, 285.4707
416.4100, 146.5869
417.6030, 288.2119
418.7970, 165.8535
419.9900, 93.92480
421.1830, 403.2646
422.3760, 326.0430
423.5690, 169.1406
424.7610, 194.0723
425.9540, 68.50586
427.1460, 61.78320
428.3380, 2.342773
429.5300, 68.99707
430.7220, 131.8965
431.9140, 48.65332
433.1050, 69.80762
434.2970, 49.16797
435.4880, 115.5908
436.6790, 112.8564
437.8700, 196.0791
439.0610, 166.8027
440.2510, 148.1025
441.4420, 268.1855
442.6320, 176.2285
443.8220, 198.3643
445.0120, 179.4219
446.2020, 48.99219
447.3910, 104.4648
448.5810, 31.83594
449.7700, 191.6455
450.9600, 225.9639
452.1490, 68.30762
453.3370, 581.6348
454.5260, 494.8252
455.7150, 124.9629
456.9030, 233.6123
458.0910, 201.7324
459.2800, 209.5664
460.4670, 331.6934
461.6550, 317.2959
462.8430, 427.8242
464.0300, 482.0244
465.2180, 512.8955
466.4050, 649.8477
467.5920, 640.1475
468.7790, 707.3457
469.9650, 639.8740
471.1520, 677.9844
472.3380, 780.9990
473.5250, 874.4297
474.7110, 795.4775
475.8970, 736.4336
477.0820, 707.4951
478.2680, 701.8828
479.4540, 791.2305
480.6390, 695.2373
481.8240, 735.5098
483.0090, 697.7461
484.1940, 706.9482
485.3780, 678.9248
486.5630, 661.8799
487.7470, 650.3525
488.9320, 636.4258
490.1160, 714.4697
491.3000, 734.4844
492.4830, 600.4707
493.6670, 725.4316
494.8500, 636.3662
496.0340, 633.6504
497.2170, 604.9062
498.4000, 575.3037
499.5820, 530.3281
500.7650, 423.3330
501.9480, 481.3193
503.1300, 516.2871
504.3120, 407.2393
505.4940, 404.0947
506.6760, 389.0947
507.8580, 361.0020
509.0390, 328.1387
510.2210, 325.7852
511.4020, 256.0127
512.5830, 248.7461
513.7640, 249.4053
514.9450, 235.2744
516.1250, 98.14258
517.3060, 22.00977
518.4860, 24.87988
519.6660, 11.75391
520.8460, 24.06934
522.0260, 123.5088
523.2060, 1.609375
524.3850, 56.27832
525.5650, 209.1729
526.7440, 0.9267580
527.9230, 72.98047
529.1020, 16.89844
530.2810, 170.8232
531.4590, 158.4590
532.6380, 230.7031
533.8160, 299.6602
534.9940, 31.62695
536.1720, 261.6318
537.3500, 192.6475
538.5270, 243.6768
539.7050, 336.7344
540.8820, 461.8203
542.0590, 379.9414
543.2360, 413.0791
544.4130, 505.2510
545.5900, 439.4443
546.7660, 667.6660
547.9430, 836.2285
549.1190, 916.1387
550.2950, 1182.153
551.4710, 1328.494
552.6470, 1385.356
553.8220, 1590.324
554.9980, 1793.488
556.1730, 1881.984
557.3480, 2054.871
558.5230, 1998.951
559.6980, 2142.092
560.8730, 2320.760
562.0470, 2197.707
563.2220, 2385.761
564.3960, 1996.582
565.5700, 2090.818
566.7440, 2036.378
567.9170, 1975.982
569.0910, 1873.814
570.2640, 1804.729
571.4380, 1570.098
572.6110, 1629.337
573.7840, 1432.763
574.9570, 1342.762
576.1290, 1313.344
577.3020, 1083.111
578.4740, 1226.658
579.6460, 1210.652
580.8180, 1059.925
581.9900, 1049.677
583.1620, 995.1094
584.3330, 1052.657
585.5040, 1091.029
586.6760, 1044.382
587.8470, 1020.560
589.0180, 966.5791
590.1880, 1009.360
591.3590, 908.3994
592.5290, 1090.169
593.7000, 967.8164
594.8700, 1056.700
596.0400, 1035.636
597.2090, 1136.623
598.3790, 1168.658
599.5490, 1311.739
600.7180, 1176.871
601.8870, 1290.053
603.0560, 1386.293
604.2250, 1270.588
605.3940, 1828.938
606.5620, 1728.341
607.7300, 1703.793
608.8990, 1719.301
610.0670, 1706.396
611.2350, 1825.463
612.4020, 1890.114
613.5700, 2091.813
614.7370, 2208.511
615.9050, 2190.354
617.0720, 2457.195
618.2390, 2620.084
619.4060, 2610.018
620.5720, 2895.995
621.7390, 2947.021
622.9050, 3032.094
624.0710, 3311.211
625.2370, 3414.375
626.4030, 3557.586
627.5690, 3628.844
628.7340, 3849.147
629.9000, 4067.738
631.0650, 4249.348
632.2300, 4607.342
633.3950, 4683.834
634.5600, 4943.375
635.7240, 5126.961
636.8890, 5483.598
638.0530, 5853.279
639.2170, 6161.011
640.3810, 6580.789
641.5450, 7066.613
642.7080, 7483.486
643.8720, 8033.408
645.0350, 8572.375
646.1980, 9216.389
647.3610, 10164.45
648.5240, 10817.57
649.6870, 11709.72
650.8490, 12931.93
652.0120, 13041.19
653.1740, 13400.49
654.3360, 13509.84
655.4980, 13193.24
656.6600, 13057.69
657.8210, 12433.18
658.9830, 11886.72
660.1440, 12622.31
661.3050, 10704.71
662.4660, 10246.40
663.6270, 10564.07
664.7870, 9544.858
665.9480, 10200.69
667.1080, 10222.51
668.2680, 8171.434
669.4280, 7570.410
670.5880, 7219.432
671.7480, 7184.501
672.9070, 6931.618
674.0670, 6931.783
675.2260, 6945.076
676.3850, 6874.336
677.5440, 6923.751
678.7030, 6912.512
679.8610, 7001.727
681.0200, 7057.492
682.1780, 7130.982
683.3360, 7354.128
684.4940, 7341.993
685.6520, 7525.652
686.8090, 7739.222
687.9670, 7580.021
689.1240, 7750.000
690.2810, 7884.718
691.4380, 7792.295
692.5950, 8028.210
693.7520, 7850.576
694.9080, 7936.637
696.0650, 8148.552
697.2210, 7835.493
698.3770, 8100.760
699.5330, 8066.168
700.6880, 7834.924
701.8440, 7731.443
702.9990, 7677.305
704.1550, 7465.238
705.3100, 7692.481
706.4650, 7523.820
707.6190, 7389.395
708.7740, 7413.738
709.9290, 7315.078
711.0830, 7262.500
712.2370, 7069.974
713.3910, 7054.285
714.5450, 6916.071
715.6980, 6910.947
716.8520, 6758.635
718.0050, 6520.530
719.1580, 6426.887
720.3110, 6348.555
721.4640, 6120.982
722.6170, 5921.170
723.7700, 5827.424
724.9220, 5577.754
726.0740, 5357.146
727.2260, 5098.570
728.3780, 5175.040
729.5300, 4953.097
730.6810, 4746.098
731.8330, 4753.675
732.9840, 4382.282
734.1350, 4286.905
735.2860, 4101.545
736.4370, 3882.199
737.5880, 3955.867
738.7380, 3761.550
739.8880, 3631.247
741.0390, 3682.957
742.1890, 3336.681
743.3380, 3206.417
744.4880, 3148.166
745.6380, 3043.928
746.7870, 3056.703
747.9360, 2946.487
749.0850, 2941.285
750.2340, 2722.092
751.3830, 2645.911
752.5310, 2639.741
753.6800, 2476.582
754.8280, 2438.180
755.9760, 2655.290
757.1240, 2219.158
758.2720, 2458.036
759.4190, 2236.924
760.5670, 2245.818
761.7140, 2139.723
762.8610, 2049.635
764.0080, 1976.554
765.1550, 1963.480
766.3020, 1868.414
767.4480, 1916.354
768.5950, 1747.303
769.7410, 1727.256
770.8870, 1711.215
772.0330, 1561.181
773.1780, 1411.150
774.3240, 1506.126
775.4690, 1278.105
776.6140, 1211.091
777.7590, 1189.081
778.9040, 1239.074
780.0490, 1139.070
781.1940, 1076.071
782.3380, 1078.074
783.4820, 980.0820
784.6260, 954.0908
785.7700, 825.1035
786.9140, 856.1182
788.0580, 890.1348
789.2010, 706.1523
790.3450, 663.1729
791.4880, 632.1934
792.6310, 927.2158
793.7730, 643.2393
794.9160, 414.2617
796.0590, 892.2861
797.2010, 432.3105
798.3430, 352.3340
799.4850, 449.3584
800.6270, 322.3828
801.7690, 399.4062
802.9100, 350.4287
804.0520, 188.4492
805.1930, 309.4688
806.3340, 150.4854
807.4750, 331.5010
808.6160, 33.51270
809.7560, 156.5234
810.8970, 155.5303
812.0370, 86.46582
813.1770, 51.48535
814.3170, 14.43066
815.4570, 37.62988
816.5960, 41.72070
817.7360, 65.84570
818.8750, 19.97949
820.0140, 51.20215
821.1530, 11.57324
822.2920, 20.57324
823.4310, 82.92871
824.5690, 84.25684
825.7070, 132.6484
826.8460, 174.1289
827.9840, 169.7246
829.1220, 77.43164
830.2590, 178.2021
831.3970, 219.0908
832.5340, 183.1201
833.6710, 38.27148
834.8080, 312.4688
835.9450, 137.8604
837.0820, 221.3496
838.2190, 215.9854
839.3550, 44.76465
840.4910, 28.59766
841.6270, 191.4775
842.7630, 44.48828
843.8990, 54.55469
845.0350, 77.57227
846.1700, 51.09473
847.3060, 133.1465
848.4410, 11.51270
849.5760, 150.9189
850.7100, 55.55957
851.8450, 19.02344
852.9800, 9.658203
854.1140, 123.1406
855.2480, 55.15527
856.3820, 9.564453
857.5160, 17.07227
858.6500, 125.8789
859.7830, 75.07422
860.9170, 200.2539
862.0500, 299.4199
863.1830, 176.5742
864.3160, 217.7119
865.4480, 245.8369
866.5810, 250.9463
867.7130, 259.0420
868.8460, 287.1221
869.9780, 318.6484
871.1100, 368.2393
872.2410, 393.2744
873.3730, 537.2959
874.5050, 559.3018
875.6360, 566.2910
876.7670, 499.2676
877.8980, 613.2275
879.0290, 653.1719
880.1590, 745.1016
881.2900, 787.0195
882.4200, 864.9219
883.5500, 828.8096
884.6800, 808.6816
885.8100, 784.5371
886.9400, 942.3848
888.0690, 1016.215
889.1990, 1104.030
890.3280, 1025.830
891.4570, 1158.614
892.5860, 1106.385
893.7140, 1188.139
894.8430, 1105.879
895.9710, 1205.603
897.1000, 1294.318
898.2280, 1428.017
899.3560, 1283.699
900.4830, 1395.368
901.6110, 1404.021
902.7380, 1407.889
903.8660, 1425.281
904.9930, 1455.889
906.1200, 1482.885
907.2460, 1628.067
908.3730, 1602.635
909.5000, 1585.189
910.6260, 1735.734
911.7520, 1748.652
912.8780, 1645.780
914.0040, 1869.290
915.1290, 1859.805
916.2550, 1821.305
917.3800, 1925.802
918.5050, 1933.373
919.6300, 1994.977
920.7550, 2029.275
921.8800, 2120.767
923.0040, 2134.239
924.1290, 2170.710
925.2530, 2250.167
926.3770, 2268.285
927.5010, 2268.907
928.6250, 2298.554
929.7480, 2266.986
930.8720, 2172.402
931.9950, 2236.824
933.1180, 2231.233
934.2410, 2384.627
935.3640, 2186.021
936.4860, 2319.408
937.6090, 2307.785
938.7310, 2415.148
939.8530, 2407.494
940.9750, 2320.856
942.0970, 2628.236
943.2180, 2513.681
944.3400, 2573.041
945.4610, 2503.426
946.5820, 2674.799
947.7030, 2651.075
948.8240, 2569.420
949.9450, 2728.776
951.0650, 2686.602
952.1860, 2507.131
953.3060, 2598.142
954.4260, 2538.490
955.5460, 2442.217
956.6650, 2446.254
957.7850, 2264.530
958.9040, 2226.943
960.0230, 2070.165
961.1420, 2217.242
962.2610, 1975.614
963.3800, 1989.173
964.4990, 1842.456
965.6170, 1803.321
966.7350, 1747.532
967.8530, 1649.918
968.9710, 1565.325
970.0890, 1469.447
971.2070, 1624.455
972.3240, 1505.156
973.4410, 1412.135
974.5580, 1487.804
975.6750, 1274.433
976.7920, 1232.790
977.9090, 1211.321
979.0250, 1213.925
980.1410, 1304.560
981.2580, 1328.556
982.3740, 1327.373
983.4890, 1322.790
984.6050, 1371.423
985.7200, 1397.638
986.8360, 1402.824
987.9510, 1446.834
989.0660, 1379.466
990.1810, 1497.648
991.2950, 1443.991
992.4100, 1464.941
993.5240, 1528.229
994.6390, 1538.298
995.7530, 1471.811
996.8660, 1619.107
997.9800, 1619.947
999.0940, 1623.710
1000.207, 1768.017
1001.320, 1815.325
1002.433, 1808.639
1003.546, 1990.955
1004.659, 1934.275
1005.772, 1907.599
1006.884, 1972.926
1007.996, 2082.256
1009.108, 2234.592
1010.220, 2309.930
1011.332, 2455.272
1012.444, 2519.619
1013.555, 2558.969
1014.666, 2772.066
1015.777, 2929.425
1016.888, 2859.807
1017.999, 2901.174
1019.110, 3271.545
1020.220, 3083.087
1021.331, 3132.355
1022.441, 2948.738
1023.551, 2893.131
1024.661, 2795.523
1025.770, 2838.241
1026.880, 2864.643
1027.989, 2822.178
1029.098, 2714.588
1030.207, 2589.186
1031.316, 2635.664
1032.425, 2577.087
1033.533, 2549.768
1034.642, 2422.232
1035.750, 2382.670
1036.858, 2119.475
1037.966, 2152.360
1039.073, 2089.923
1040.181, 2149.283
1041.288, 2021.743
1042.396, 2049.418
1043.503, 1880.305
1044.610, 1956.776
1045.716, 1909.910
1046.823, 1831.875
1047.929, 1879.293
1049.036, 1771.847
1050.142, 1697.144
1051.248, 1792.811
1052.353, 1862.369
1053.459, 1697.334
1054.564, 2098.340
1055.670, 1849.713
1056.775, 1809.601
1057.880, 1619.392
1058.985, 1590.680
1060.089, 1518.232
1061.194, 1560.764
1062.298, 1769.296
1063.402, 1364.020
1064.506, 1422.945
1065.610, 1655.650
1066.713, 1435.277
1067.817, 1570.652
1068.920, 1539.005
1070.023, 1523.786
1071.126, 1662.164
1072.229, 1580.035
1073.332, 1488.559
1074.435, 1540.828
1075.537, 1454.853
1076.639, 1463.722
1077.741, 1556.348
1078.843, 1606.936
1079.945, 1503.658
1081.046, 1543.268
1082.148, 1300.191
1083.249, 1386.112
1084.350, 1370.330
1085.451, 1433.636
1086.551, 1407.527
1087.652, 1378.174
1088.752, 1291.837
1089.853, 1035.736
1090.953, 1239.147
1092.053, 1283.861
1093.152, 1308.311
1094.252, 1082.097
1095.351, 1103.646
1096.451, 1048.973
1097.550, 919.1738
1098.649, 985.2686
1099.748, 890.5615
1100.846, 871.5156
1101.945, 928.6299
1103.043, 887.8379
1104.141, 880.8291
1105.239, 860.3643
1106.337, 793.6904
1107.434, 768.3047
1108.532, 643.0596
1109.629, 555.5840
1110.726, 577.9609
1111.823, 492.9355
1112.920, 565.1787
1114.017, 479.3662
1115.113, 495.9912
1116.210, 594.6279
1117.306, 533.3145
1118.402, 524.0000
1119.498, 510.6895
1120.593, 447.6768
1121.689, 325.1807
1122.784, 313.9229
1123.879, 437.2988
1124.974, 330.0586
1126.069, 382.9854
1127.164, 488.7461
1128.259, 269.4941
1129.353, 343.2393
1130.447, 198.9814
1131.541, 210.7695
1132.635, 183.8047
1133.729, 290.1875
1134.822, 140.9375
1135.916, 246.6826
1137.009, 260.4355
1138.102, 169.1865
1139.195, 138.9346
1140.288, 163.6768
1141.380, 128.2949
1142.473, 242.1475
1143.565, 89.87695
1144.657, 96.59961
1145.749, 24.68066
1146.841, 56.02539
1147.932, 22.72461
1149.024, 69.41797
1150.115, 74.10449
1151.206, 29.21484
1152.297, 133.4473
1153.388, 260.1035
1154.479, 37.75391
1155.569, 116.4062
1156.659, 5.947266
1157.750, 114.6875
1158.839, 15.31738
1159.929, 71.93945
1161.019, 24.44531
1162.108, 38.14941
1163.198, 89.73633
1164.287, 1.317383
1165.376, 49.88672
1166.465, 60.71777
1167.553, 2.997070
1168.642, 103.5439
1169.730, 0.9228520
1170.818, 16.40234
1171.906, 136.0986
1172.994, 20.59082
1174.082, 18.92773
1175.170, 157.5293
1176.257, 7.021484
1177.344, 15.58887
1178.431, 72.17969
1179.518, 67.17676
1180.605, 36.47754
1181.691, 45.83203
1182.778, 86.86816
1183.864, 76.63184
1184.950, 2.452148
1186.036, 168.7070
1187.122, 34.14258
1188.207, 40.96973
1189.292, 125.9297
1190.378, 93.08398
1191.463, 318.0879
1192.548, 218.0811
1193.632, 59.06348
1194.717, 68.96484
1195.801, 67.94727
1196.886, 88.84863
1197.970, 42.26270
1199.054, 9.418945
1200.137, 7.396484
1201.221, 56.19141
1202.305, 41.97363
1203.388, 89.25879
1204.471, 100.5635
1205.554, 127.9463
1206.637, 13.42090
1207.719, 108.0703
1208.802, 8.548828
1209.884, 88.00391
1210.966, 122.4482
1212.048, 75.12109
1213.130, 60.24316
1214.212, 35.40723
1215.293, 41.89453
1216.374, 87.81934
1217.456, 174.3906
1218.536, 175.5889
1219.617, 83.26074
1220.698, 45.57031
1221.778, 177.5449
1222.859, 28.64648
1223.939, 163.0547
1225.019, 11.87695
1226.099, 70.84766
1227.178, 76.28320
1228.258, 115.2246
1229.337, 85.80762
1230.417, 12.28320
1231.496, 188.6738
1232.574, 217.7705
1233.653, 201.6064
1234.732, 61.43262
1235.810, 54.70996
1236.888, 102.4863
1237.966, 74.24316
1239.044, 143.9795
1240.122, 6.697266
1241.199, 144.4297
1242.277, 136.0928
1243.354, 4.262695
1244.431, 179.3438
1245.508, 277.9316
1246.585, 375.5928
1247.661, 330.1025
1248.738, 363.6455
1249.814, 151.2656
1250.890, 262.7559
1251.966, 203.2266
1253.042, 53.67676
1254.117, 261.1035
1255.193, 124.5088
1256.268, 163.8926
1257.343, 211.2559
1258.418, 221.5996
1259.493, 171.0859
1260.567, 374.4004
1261.642, 271.1006
1262.716, 341.5781
1263.790, 315.8271
1264.864, 280.0742
1265.938, 362.2881
1267.011, 365.1260
1268.085, 324.2871
1269.158, 327.5156
1270.231, 444.8301
1271.304, 268.9297
1272.377, 360.2930
1273.450, 302.6133
1274.522, 450.7588
1275.594, 484.8047
1276.666, 427.1299
1277.738, 601.9854
1278.810, 370.9395
1279.882, 341.8818
1280.953, 438.7412
1282.025, 502.6338
1283.096, 428.5049
1284.167, 373.5908
1285.238, 548.4346
1286.308, 516.3457
1287.379, 539.2529
1288.449, 571.6104
1289.519, 581.6406
1290.589, 453.1846
1291.659, 534.9932
1292.729, 475.8223
1293.798, 539.2373
1294.868, 580.0244
1295.937, 549.6533
1297.006, 671.8984
1298.075, 586.4863
1299.143, 588.7139
1300.212, 606.1494
1301.280, 516.6875
1302.348, 332.6299
1303.416, 530.5811
1304.484, 647.9707
1305.552, 687.2461
1306.620, 415.8340
1307.687, 540.9141
1308.754, 510.6240
1309.821, 470.8828
1310.888, 657.0088
1311.955, 611.6299
1313.021, 499.5088
1314.088, 539.9824
1315.154, 477.3408
1316.220, 452.7021
1317.286, 523.7344
1318.352, 595.2119
1319.417, 491.4092
1320.483, 707.6133
