##NAMES=Laverovite
##RRUFFID=R060216
##IDEAL CHEMISTRY=K_2_NaMn^2+^_7_Zr^4+^_2_(Si_4_O_12_)_2_O_2_(OH)_4_F
##LOCALITY=Desourdy Quarry, Mont Saint-Hilaire, Rouville County, Quebec, Canada
##OWNER=RRUFF
##SOURCE=Royal Ontario Museum
##DESCRIPTION=Brown fragment showing lamellar habit. Type sample
##STATUS=The identification of this mineral has been confirmed by X-ray diffraction and chemical analysis
##URL=rruff.info/R060216
##MEASURED CHEMISTRY=(K_1.74_Na_0.18_[box]_0.08_)_Σ=2_(Na_0.92_Ca_0.08_)_Σ=1_(Mn_4.09_Fe^2+^_2.67_Mg_0.24_)_Σ=7_(Zr_1.42_Ti_0.58_)_Σ=2_(Si_7.86_Al_0.14_)_Σ=8_O_26_((OH)_3.14_O_0.86_)_Σ=4_
##PIN_ID=L00725
##ORIENTATION=Laser parallel to c* (0 0 1). Fiducial mark perpendicular to laser is parallel to a [1 0 0]
114.4400, 0.0000000E+00
115.6710, 282.6055
116.9030, 1500.773
118.1340, 1217.338
119.3650, 785.9023
120.5960, 206.6426
121.8270, 4.777344
123.0580, 376.8145
124.2880, 1370.090
125.5190, 2126.621
126.7490, 1699.621
127.9790, 1736.457
129.2090, 2241.662
130.4390, 2783.049
131.6680, 2464.047
132.8980, 2456.416
134.1270, 1984.623
135.3560, 1341.914
136.5850, 1125.160
137.8140, 824.3008
139.0430, 739.2754
140.2710, 584.1816
141.5000, 388.0410
142.7280, 539.1426
143.9560, 18.62109
145.1840, 178.6016
146.4120, 77.96875
147.6390, 210.8672
148.8670, 1087.074
150.0940, 241.3848
151.3210, 186.5352
152.5490, 11.62305
153.7750, 830.0957
155.0020, 459.8711
156.2290, 514.9336
157.4550, 455.2500
158.6810, 539.7949
159.9080, 679.5547
161.1340, 1078.617
162.3590, 1235.980
163.5850, 2351.824
164.8110, 2828.350
166.0360, 3495.521
167.2610, 4156.109
168.4860, 4026.887
169.7110, 4334.748
170.9360, 4312.676
172.1610, 4598.670
173.3850, 3773.711
174.6100, 3538.799
175.8340, 4363.922
177.0580, 2437.074
178.2820, 1946.250
179.5050, 2266.447
180.7290, 1694.660
181.9520, 1640.889
183.1760, 1303.127
184.3990, 1223.385
185.6220, 1475.666
186.8450, 1356.967
188.0670, 1440.379
189.2900, 1507.242
190.5120, 1670.250
191.7340, 1710.559
192.9560, 2063.041
194.1780, 2447.656
195.4000, 2681.355
196.6220, 2839.086
197.8430, 3415.789
199.0640, 3660.439
200.2860, 3967.008
201.5070, 4695.455
202.7270, 5916.721
203.9480, 5999.752
205.1690, 4659.762
206.3890, 2726.736
207.6090, 1509.787
208.8290, 1315.914
210.0490, 1287.592
211.2690, 1514.777
212.4890, 1954.811
213.7080, 2235.975
214.9280, 2618.697
216.1470, 3079.086
217.3660, 2985.412
218.5850, 3423.680
219.8030, 3567.053
221.0220, 3903.543
222.2400, 4237.410
223.4590, 4385.766
224.6770, 4978.064
225.8950, 5015.301
227.1120, 5545.482
228.3300, 5668.604
229.5480, 6283.666
230.7650, 6894.672
231.9820, 6918.621
233.1990, 7624.512
234.4160, 7810.344
235.6330, 8438.121
236.8490, 8665.838
238.0660, 9443.500
239.2820, 9715.113
240.4980, 10222.68
241.7140, 10627.18
242.9300, 10655.63
244.1460, 10705.01
245.3610, 11136.38
246.5770, 11270.69
247.7920, 11323.95
249.0070, 11423.20
250.2220, 11528.45
251.4370, 12039.80
252.6510, 12064.19
253.8660, 12848.71
255.0800, 13218.25
256.2940, 13891.76
257.5080, 14944.20
258.7220, 15267.56
259.9360, 16994.86
261.1490, 18788.34
262.3630, 17700.16
263.5760, 16686.18
264.7890, 15076.14
266.0020, 13946.43
267.2150, 13009.82
268.4270, 12125.88
269.6400, 10553.95
270.8520, 9216.309
272.0640, 7861.990
273.2760, 6629.977
274.4880, 5655.246
275.7000, 5037.613
276.9120, 4354.883
278.1230, 3348.828
279.3340, 3137.111
280.5450, 2563.086
281.7560, 1866.965
282.9670, 1810.393
284.1780, 1413.639
285.3880, 1318.635
286.5980, 1083.863
287.8090, 747.5957
289.0190, 646.7500
290.2290, 685.2305
291.4380, 588.6836
292.6480, 420.0391
293.8570, 533.4590
295.0670, 564.4707
296.2760, 251.7266
297.4850, 252.7773
298.6930, 105.8086
299.9020, 141.6777
301.1110, 328.9258
302.3190, 238.0195
303.5270, 360.8945
304.7350, 79.59766
305.9430, 72.09570
307.1510, 69.55078
308.3580, 79.16797
309.5660, 58.40430
310.7730, 57.99414
311.9800, 28.75977
313.1870, 56.46484
314.3940, 75.33594
315.6010, 129.7480
316.8070, 103.8145
318.0130, 205.0527
319.2200, 51.26172
320.4260, 237.9043
321.6310, 311.5098
322.8370, 454.0801
324.0430, 359.6211
325.2480, 470.1270
326.4540, 637.5977
327.6590, 645.0391
328.8640, 817.4492
330.0680, 1057.832
331.2730, 1035.184
332.4780, 917.5059
333.6820, 1404.799
334.8860, 1072.061
336.0900, 1152.291
337.2940, 1170.486
338.4980, 1273.645
339.7010, 1312.516
340.9050, 1447.854
342.1080, 1401.902
343.3110, 1315.920
344.5140, 1316.525
345.7170, 1563.836
346.9200, 1325.740
348.1220, 1377.609
349.3240, 1432.441
350.5270, 1269.238
351.7290, 1451.988
352.9310, 1425.686
354.1320, 1492.340
355.3340, 1675.943
356.5350, 1536.480
357.7370, 1825.943
358.9380, 1803.451
360.1390, 1725.238
361.3400, 1913.742
362.5400, 1908.139
363.7410, 2006.395
364.9410, 2027.383
366.1410, 1987.320
367.3410, 1933.521
368.5410, 2072.371
369.7410, 1763.305
370.9400, 1854.139
372.1400, 1800.611
373.3390, 2016.459
374.5380, 1873.959
375.7370, 1938.816
376.9360, 2198.004
378.1350, 2351.238
379.3330, 2436.303
380.5310, 2399.201
381.7300, 2582.455
382.9280, 2549.389
384.1260, 2537.816
385.3230, 2540.791
386.5210, 2452.680
387.7180, 2587.844
388.9160, 2693.383
390.1130, 2618.141
391.3100, 2735.139
392.5060, 2716.566
393.7030, 2817.281
394.9000, 2530.771
396.0960, 2892.828
397.2920, 3058.863
398.4880, 2819.674
399.6840, 2686.441
400.8800, 3171.168
402.0750, 3315.852
403.2710, 3138.498
404.4660, 3112.105
405.6610, 3162.621
406.8560, 3200.281
408.0510, 3304.402
409.2450, 3449.674
410.4400, 3588.730
411.6340, 3813.000
412.8280, 3973.066
414.0220, 4200.592
415.2160, 4445.016
416.4100, 4552.906
417.6030, 4849.740
418.7970, 4856.523
419.9900, 4880.461
421.1830, 4896.988
422.3760, 4701.621
423.5690, 4714.246
424.7610, 4482.840
425.9540, 4297.404
427.1460, 4126.939
428.3380, 3948.455
429.5300, 3515.945
430.7220, 2995.416
431.9140, 2849.875
433.1050, 2377.312
434.2970, 2123.770
435.4880, 1731.211
436.6790, 1366.051
437.8700, 1455.379
439.0610, 750.8164
440.2510, 586.1191
441.4420, 215.5742
442.6320, 363.4395
443.8220, 50.56445
445.0120, 137.9004
446.2020, 234.8047
447.3910, 241.4531
448.5810, 340.5645
449.7700, 449.1660
450.9600, 357.3242
452.1490, 488.8496
453.3370, 590.1230
454.5260, 221.1543
455.7150, 301.9453
456.9030, 306.8047
458.0910, 30.88477
459.2800, 75.43359
460.4670, 86.54492
461.6550, 315.4492
462.8430, 592.6387
464.0300, 643.7891
465.2180, 881.3145
466.4050, 855.4180
467.5920, 1069.107
468.7790, 1006.244
469.9650, 1257.064
471.1520, 1229.898
472.3380, 1126.039
473.5250, 1352.148
474.7110, 1123.234
475.8970, 1174.293
477.0820, 1126.328
478.2680, 1045.334
479.4540, 1008.316
480.6390, 993.2734
481.8240, 889.2070
483.0090, 885.0254
484.1940, 898.9980
485.3780, 856.8574
486.5630, 833.8535
487.7470, 835.1543
488.9320, 759.2949
490.1160, 790.0586
491.3000, 780.8008
492.4830, 681.9238
493.6670, 703.2227
494.8500, 538.8965
496.0340, 509.5527
497.2170, 481.5449
498.4000, 533.7988
499.5820, 414.3887
500.7650, 235.9609
501.9480, 142.5098
503.1300, 185.0371
504.3120, 125.5430
505.4940, 18.02148
506.6760, 253.4727
507.8580, 282.9043
509.0390, 158.3203
510.2210, 226.7148
511.4020, 192.0898
512.5830, 200.4492
513.7640, 32.79297
514.9450, 25.88867
516.1250, 11.38867
517.3060, 135.6387
518.4860, 40.87109
519.6660, 17.08398
520.8460, 86.26953
522.0260, 20.43945
523.2060, 108.4141
524.3850, 27.65820
525.5650, 132.2871
526.7440, 143.3164
527.9230, 128.4375
529.1020, 79.62109
530.2810, 126.8457
531.4590, 245.1406
532.6380, 121.5195
533.8160, 50.96875
534.9940, 139.4395
536.1720, 6.085938
537.3500, 70.66797
538.5270, 60.54883
539.7050, 691.1113
540.8820, 428.9629
542.0590, 555.9141
543.2360, 1459.945
544.4130, 1275.061
545.5900, 1145.260
546.7660, 1494.584
547.9430, 1829.988
549.1190, 2293.436
550.2950, 2918.982
551.4710, 3383.590
552.6470, 3778.344
553.8220, 4185.219
554.9980, 4415.178
556.1730, 4744.238
557.3480, 4909.996
558.5230, 5115.648
559.6980, 5114.973
560.8730, 4986.365
562.0470, 4925.820
563.2220, 4668.281
564.3960, 4391.814
565.5700, 4345.383
566.7440, 4163.949
567.9170, 3970.516
569.0910, 3823.076
570.2640, 3498.645
571.4380, 3219.211
572.6110, 3078.773
573.7840, 2882.332
574.9570, 2846.887
576.1290, 2759.443
577.3020, 2549.992
578.4740, 2472.545
579.6460, 2542.094
580.8180, 2318.641
581.9900, 2316.189
583.1620, 2506.484
584.3330, 2398.414
585.5040, 2468.346
586.6760, 2387.832
587.8470, 2380.270
589.0180, 2479.336
590.1880, 2396.234
591.3590, 2656.381
592.5290, 2409.365
593.7000, 2523.178
594.8700, 2577.732
596.0400, 2521.553
597.2090, 2147.426
598.3790, 2270.121
599.5490, 2364.268
600.7180, 2202.750
601.8870, 2402.053
603.0560, 2351.371
604.2250, 2618.250
605.3940, 2576.152
606.5620, 2828.080
607.7300, 2777.029
608.8990, 2747.000
610.0670, 3077.994
611.2350, 2866.006
612.4020, 2810.035
613.5700, 3119.086
614.7370, 3366.152
615.9050, 3546.236
617.0720, 3459.338
618.2390, 3863.459
619.4060, 3855.596
620.5720, 3920.752
621.7390, 4196.926
622.9050, 4429.117
624.0710, 4616.328
625.2370, 4651.555
626.4030, 5017.803
627.5690, 5270.070
628.7340, 5173.355
629.9000, 5697.656
631.0650, 6117.977
632.2300, 6192.320
633.3950, 6677.680
634.5600, 7001.059
635.7240, 7359.455
636.8890, 7970.873
638.0530, 8343.312
639.2170, 9158.768
640.3810, 9779.246
641.5450, 10443.61
642.7080, 11682.62
643.8720, 12798.86
645.0350, 14187.88
646.1980, 15732.49
647.3610, 17258.09
648.5240, 19142.70
649.6870, 21549.03
650.8490, 23116.69
652.0120, 25013.24
653.1740, 25542.87
654.3360, 26062.83
655.4980, 25352.41
656.6600, 24239.31
657.8210, 22829.84
658.9830, 20983.01
660.1440, 19508.12
661.3050, 17681.57
662.4660, 16477.79
663.6270, 15184.81
664.7870, 14264.14
665.9480, 13650.96
667.1080, 13037.21
668.2680, 12649.83
669.4280, 12184.06
670.5880, 12577.15
671.7480, 12186.12
672.9070, 12559.26
674.0670, 12525.36
675.2260, 12535.79
676.3850, 12969.57
677.5440, 13338.29
678.7030, 13674.52
679.8610, 14377.70
681.0200, 14488.33
682.1780, 15035.09
683.3360, 15585.50
684.4940, 15899.12
685.6520, 16416.32
686.8090, 16725.50
687.9670, 17116.51
689.1240, 17376.49
690.2810, 17471.76
691.4380, 17747.28
692.5950, 17900.34
693.7520, 17913.73
694.9080, 18166.43
696.0650, 18297.76
697.2210, 18253.06
698.3770, 17968.16
699.5330, 18135.86
700.6880, 17963.55
701.8440, 17865.25
702.9990, 17843.46
704.1550, 17718.26
705.3100, 17526.67
706.4650, 17517.02
707.6190, 17376.36
708.7740, 17235.45
709.9290, 17244.43
711.0830, 16949.76
712.2370, 16788.07
713.3910, 16656.38
714.5450, 16499.68
715.6980, 16261.12
716.8520, 15772.28
718.0050, 15616.57
719.1580, 15168.85
720.3110, 14526.13
721.4640, 14209.41
722.6170, 13671.68
723.7700, 13257.95
724.9220, 12686.05
726.0740, 12257.75
727.2260, 11644.06
728.3780, 11221.60
729.5300, 11071.24
730.6810, 10275.02
731.8330, 10101.91
732.9840, 9856.957
734.1350, 9185.180
735.2860, 8986.477
736.4370, 8673.875
737.5880, 8291.371
738.7380, 7974.893
739.8880, 7609.455
741.0390, 7310.016
742.1890, 7109.453
743.3380, 6855.127
744.4880, 6732.670
745.6380, 6583.211
746.7870, 6324.742
747.9360, 6148.268
749.0850, 5923.119
750.2340, 5741.311
751.3830, 5449.809
752.5310, 5482.307
753.6800, 5225.803
754.8280, 5276.289
755.9760, 5035.768
757.1240, 5160.242
758.2720, 4946.709
759.4190, 5026.174
760.5670, 5248.629
761.7140, 4549.080
762.8610, 4276.525
764.0080, 4347.965
765.1550, 4202.395
766.3020, 4049.824
767.4480, 3841.244
768.5950, 3683.061
769.7410, 3468.072
770.8870, 3307.639
772.0330, 3138.621
773.1780, 2927.275
774.3240, 2774.664
775.4690, 2707.051
776.6140, 2520.432
777.7590, 2915.809
778.9040, 2431.180
780.0490, 1875.547
781.1940, 3813.910
782.3380, 2355.275
783.4820, 2468.967
784.6260, 1586.996
785.7700, 1612.354
786.9140, 1514.707
788.0580, 1615.061
789.2010, 1391.406
790.3450, 1148.750
791.4880, 1192.090
792.6310, 1051.428
793.7730, 1056.775
794.9160, 905.6152
796.0590, 824.4707
797.2010, 581.8164
798.3430, 603.1641
799.4850, 447.5078
800.6270, 600.8516
801.7690, 409.2246
802.9100, 287.5938
804.0520, 277.9961
805.1930, 1.433594
806.3340, 20.86328
807.4750, 38.28906
808.6160, 129.2734
809.7560, 94.11914
810.8970, 13.46094
812.0370, 198.0762
813.1770, 215.8047
814.3170, 366.6816
815.4570, 262.7910
816.5960, 306.0820
817.7360, 344.5762
818.8750, 266.2949
820.0140, 276.1953
821.1530, 279.2832
822.2920, 431.5645
823.4310, 256.1094
824.5690, 125.8340
825.7070, 316.8086
826.8460, 193.7109
827.9840, 500.8984
829.1220, 414.3887
830.2590, 261.1406
831.3970, 330.0703
832.5340, 325.2129
833.6710, 311.5664
834.8080, 226.1230
835.9450, 190.8379
837.0820, 207.6895
838.2190, 37.31445
839.3550, 218.7012
840.4910, 85.86719
841.6270, 47.88867
842.7630, 187.6348
843.8990, 171.3789
845.0350, 25.12305
846.1700, 344.8477
847.3060, 227.5703
848.4410, 300.2969
849.5760, 612.0215
850.7100, 580.7461
851.8450, 822.4727
852.9800, 913.1973
854.1140, 1065.926
855.2480, 1206.656
856.3820, 1225.383
857.5160, 1494.115
858.6500, 1746.848
859.7830, 1904.584
860.9170, 1914.322
862.0500, 2172.061
863.1830, 2325.805
864.3160, 2819.549
865.4480, 2973.297
866.5810, 3272.045
867.7130, 3537.795
868.8460, 3691.545
869.9780, 3955.535
871.1100, 4179.047
872.2410, 4415.799
873.3730, 4806.582
874.5050, 5132.361
875.6360, 5432.150
876.7670, 5860.941
877.8980, 6118.738
879.0290, 6358.533
880.1590, 6825.332
881.2900, 7438.143
882.4200, 7651.955
883.5500, 8107.773
884.6800, 8346.947
885.8100, 9001.512
886.9400, 8984.414
888.0690, 9271.355
889.1990, 10110.31
890.3280, 10202.28
891.4570, 10688.26
892.5860, 10691.25
893.7140, 11369.26
894.8430, 11657.30
895.9710, 12236.36
897.1000, 12722.47
898.2280, 13286.63
899.3560, 13809.84
900.4830, 14418.14
901.6110, 14772.35
902.7380, 15633.69
903.8660, 16002.05
904.9930, 16515.41
906.1200, 17206.82
907.2460, 17857.23
908.3730, 18359.64
909.5000, 19151.10
910.6260, 19756.58
911.7520, 20351.14
912.8780, 21559.74
914.0040, 22532.36
915.1290, 22804.99
916.2550, 22925.65
917.3800, 23565.37
918.5050, 23893.12
919.6300, 24388.87
920.7550, 25127.65
921.8800, 25497.49
923.0040, 25839.34
924.1290, 26308.22
925.2530, 26393.12
926.3770, 26731.04
927.5010, 26929.01
928.6250, 26957.92
929.7480, 27237.89
930.8720, 27169.88
931.9950, 27202.92
933.1180, 27226.96
934.2410, 27204.02
935.3640, 27096.12
936.4860, 27011.00
937.6090, 26866.89
938.7310, 26767.66
939.8530, 26547.91
940.9750, 26495.86
942.0970, 26383.93
943.2180, 26152.76
944.3400, 26337.49
945.4610, 26049.79
946.5820, 26035.71
947.7030, 25766.99
948.8240, 25629.07
949.9450, 25326.22
951.0650, 25059.94
952.1860, 24418.36
953.3060, 23539.36
954.4260, 22522.27
955.5460, 21607.58
956.6650, 20212.70
957.7850, 18801.29
958.9040, 17280.92
960.0230, 16437.77
961.1420, 14939.68
962.2610, 13746.13
963.3800, 12738.80
964.4990, 11392.75
965.6170, 10332.39
966.7350, 9574.781
967.8530, 8702.566
968.9710, 8231.307
970.0890, 7335.508
971.2070, 6690.031
972.3240, 5950.609
973.4410, 5834.209
974.5580, 5423.330
975.6750, 5163.910
976.7920, 4513.900
977.9090, 4506.000
979.0250, 3959.139
980.1410, 3959.914
981.2580, 3521.164
982.3740, 3272.455
983.4890, 3199.793
984.6050, 3055.172
985.7200, 3119.609
986.8360, 3021.086
987.9510, 3200.607
989.0660, 3036.969
990.1810, 3019.920
991.2950, 2810.412
992.4100, 2878.094
993.5240, 2823.818
994.6390, 2777.582
995.7530, 2689.391
996.8660, 2810.236
997.9800, 2924.125
999.0940, 2935.055
1000.207, 3050.025
1001.320, 3080.035
1002.433, 3208.090
1003.546, 3273.184
1004.659, 3424.988
1005.772, 3629.758
1006.884, 3750.914
1007.996, 3933.170
1009.108, 4077.787
1010.220, 4360.684
1011.332, 4457.848
1012.444, 4950.408
1013.555, 5192.863
1014.666, 5630.955
1015.777, 5721.541
1016.888, 5973.303
1017.999, 6007.146
1019.110, 6445.764
1020.220, 6685.373
1021.331, 6756.928
1022.441, 6910.820
1023.551, 7265.680
1024.661, 7315.420
1025.770, 7404.566
1026.880, 7385.867
1027.989, 7380.191
1029.098, 7449.547
1030.207, 7351.934
1031.316, 7540.352
1032.425, 7228.178
1033.533, 7285.152
1034.642, 6673.945
1035.750, 6833.840
1036.858, 6626.215
1037.966, 5994.840
1039.073, 5617.346
1040.181, 5687.727
1041.288, 5305.293
1042.396, 5144.330
1043.503, 4583.670
1044.610, 4505.377
1045.716, 4270.836
1046.823, 4080.488
1047.929, 3788.211
1049.036, 3771.330
1050.142, 3842.850
1051.248, 3422.682
1052.353, 3234.822
1053.459, 3423.027
1054.564, 3115.172
1055.670, 3210.578
1056.775, 3166.342
1057.880, 2964.334
1058.985, 2658.543
1060.089, 2987.400
1061.194, 2777.594
1062.298, 2827.982
1063.402, 2729.566
1064.506, 2711.055
1065.610, 2652.307
1066.713, 2726.494
1067.817, 2707.031
1068.920, 2617.561
1070.023, 2846.984
1071.126, 2837.014
1072.229, 2529.670
1073.332, 2658.629
1074.435, 2740.053
1075.537, 2834.258
1076.639, 2791.855
1077.741, 2898.477
1078.843, 2754.160
1079.945, 2589.805
1081.046, 2779.367
1082.148, 2728.357
1083.249, 2739.029
1084.350, 2789.877
1085.451, 2442.461
1086.551, 2576.736
1087.652, 2455.508
1088.752, 2480.402
1089.853, 2492.590
1090.953, 2395.775
1092.053, 2254.990
1093.152, 2271.781
1094.252, 2209.291
1095.351, 1961.051
1096.451, 1845.432
1097.550, 1828.693
1098.649, 1710.615
1099.748, 1665.268
1100.846, 1651.146
1101.945, 1386.914
1103.043, 1393.152
1104.141, 1251.500
1105.239, 1147.885
1106.337, 1212.799
1107.434, 1069.480
1108.532, 977.5547
1109.629, 860.0645
1110.726, 851.5742
1111.823, 676.4023
1112.920, 479.1973
1114.017, 684.3574
1115.113, 471.0664
1116.210, 610.7891
1117.306, 446.5352
1118.402, 508.5293
1119.498, 225.4551
1120.593, 590.9492
1121.689, 773.4355
1122.784, 426.0273
1123.879, 318.5000
1124.974, 483.2129
1126.069, 441.0117
1127.164, 467.5156
1128.259, 319.9590
1129.353, 239.5254
1130.447, 207.1699
1131.541, 52.06836
1132.635, 85.79102
1133.729, 33.58008
1134.822, 53.43945
1135.916, 154.2559
1137.009, 14.37109
1138.102, 143.0156
1139.195, 209.2656
1140.288, 62.88867
1141.380, 19.60156
1142.473, 30.18359
1143.565, 1.994141
1144.657, 23.99023
1145.749, 69.05664
1146.841, 11.22070
1147.932, 1.853516
1149.024, 122.6270
1150.115, 179.6426
1151.206, 45.72656
1152.297, 124.8945
1153.388, 63.62695
1154.479, 42.92383
1155.569, 15.80469
1156.659, 23.18945
1157.750, 58.56641
1158.839, 71.98438
1159.929, 101.4941
1161.019, 131.0703
1162.108, 144.7266
1163.198, 164.4941
1164.287, 148.1895
1165.376, 3.818359
1166.465, 253.2109
1167.553, 19.36719
1168.642, 33.25195
1169.730, 111.9863
1170.818, 113.8086
1171.906, 82.08594
1172.994, 81.23047
1174.082, 51.72070
1175.170, 278.2930
1176.257, 33.05664
1177.344, 33.89258
1178.431, 108.2012
1179.518, 68.73633
1180.605, 120.7676
1181.691, 59.91992
1182.778, 52.83789
1183.864, 2.095703
1184.950, 154.2461
1186.036, 47.27344
1187.122, 32.60352
1188.207, 2.449219
1189.292, 32.06250
1190.378, 44.40039
1191.463, 16.63477
1192.548, 35.80469
1193.632, 13.92578
1194.717, 94.41016
1195.801, 125.9453
1196.886, 149.8398
1197.970, 57.88086
1199.054, 24.13281
1200.137, 100.4707
1201.221, 76.55859
1202.305, 97.90234
1203.388, 81.26758
1204.471, 65.91406
1205.554, 207.2676
1206.637, 75.48828
1207.719, 106.6582
1208.802, 131.7773
1209.884, 146.2754
1210.966, 189.0137
1212.048, 128.5059
1213.130, 219.5996
1214.212, 204.4844
1215.293, 114.5117
1216.374, 163.2949
1217.456, 122.5410
1218.536, 308.2168
1219.617, 264.9199
1220.698, 80.61719
1221.778, 359.1660
1222.859, 200.7695
1223.939, 296.4219
1225.019, 257.7754
1226.099, 166.5508
1227.178, 213.7930
1228.258, 319.9746
1229.337, 182.1016
1230.417, 171.1680
1231.496, 202.1738
1232.574, 472.1152
1233.653, 343.8320
1234.732, 539.4355
1235.810, 234.2930
1236.888, 310.0059
1237.966, 228.6523
1239.044, 433.2383
1240.122, 426.1895
1241.199, 295.6582
1242.277, 17.44531
1243.354, 223.3672
1244.431, 169.7090
1245.508, 333.1484
1246.585, 88.25586
1247.661, 270.6211
1248.738, 288.5703
1249.814, 420.4785
1250.890, 448.5352
1251.966, 370.1191
1253.042, 472.8438
1254.117, 341.5098
1255.193, 321.2930
1256.268, 392.6758
1257.343, 425.1582
1258.418, 376.9512
1259.493, 358.7656
1260.567, 297.0703
1261.642, 338.4219
1262.716, 321.7695
1263.790, 304.8008
1264.864, 320.5938
1265.938, 520.8516
1267.011, 469.5742
1268.085, 427.6445
1269.158, 286.7129
1270.231, 362.5840
1271.304, 440.2812
1272.377, 430.1172
1273.450, 397.6270
1274.522, 313.2598
1275.594, 387.0957
1276.666, 299.4238
1277.738, 323.0820
1278.810, 436.1094
1279.882, 410.3477
1280.953, 430.7617
