##NAMES=Laverovite
##RRUFFID=R060216
##IDEAL CHEMISTRY=K_2_NaMn^2+^_7_Zr^4+^_2_(Si_4_O_12_)_2_O_2_(OH)_4_F
##LOCALITY=Desourdy Quarry, Mont Saint-Hilaire, Rouville County, Quebec, Canada
##OWNER=RRUFF
##SOURCE=Royal Ontario Museum
##DESCRIPTION=Brown fragment showing lamellar habit. Type sample
##STATUS=The identification of this mineral has been confirmed by X-ray diffraction and chemical analysis
##URL=rruff.info/R060216
##MEASURED CHEMISTRY=(K_1.74_Na_0.18_[box]_0.08_)_Σ=2_(Na_0.92_Ca_0.08_)_Σ=1_(Mn_4.09_Fe^2+^_2.67_Mg_0.24_)_Σ=7_(Zr_1.42_Ti_0.58_)_Σ=2_(Si_7.86_Al_0.14_)_Σ=8_O_26_((OH)_3.14_O_0.86_)_Σ=4_
##PIN_ID=L01682
##ORIENTATION=Laser parallel to (0 -1 -1). Fiducial mark perpendicular to laser is parallel to a [1 0 0]
159.9080, 0.0000000E+00
161.1340, 8.200195
162.3590, 684.8135
163.5850, 1182.534
164.8110, 1663.664
166.0360, 2081.299
167.2610, 1901.092
168.4860, 2131.297
169.7110, 2396.385
170.9360, 2575.820
172.1610, 2072.092
173.3850, 1655.115
174.6100, 1770.729
175.8340, 1494.497
177.0580, 1873.826
178.2820, 1755.783
179.5050, 1614.116
180.7290, 1505.365
181.9520, 1502.846
183.1760, 1669.777
184.3990, 1980.551
185.6220, 2478.011
186.8450, 2553.768
188.0670, 2692.482
189.2900, 2859.854
190.5120, 2979.681
191.7340, 3359.697
192.9560, 3632.221
194.1780, 3879.071
195.4000, 4259.224
196.6220, 4450.973
197.8430, 4668.062
199.0640, 5030.775
200.2860, 6356.733
201.5070, 7508.651
202.7270, 7090.326
203.9480, 4725.731
205.1690, 1793.886
206.3890, 237.7959
207.6090, 242.5205
208.8290, 264.0547
210.0490, 225.8223
211.2690, 159.8164
212.4890, 82.97363
213.7080, 147.5635
214.9280, 169.9619
216.1470, 10.17969
217.3660, 42.22949
218.5850, 115.1201
219.8030, 247.8594
221.0220, 106.7197
222.2400, 76.64062
223.4590, 139.8105
224.6770, 389.3516
225.8950, 461.3438
227.1120, 388.3721
228.3300, 820.2549
229.5480, 512.3848
230.7650, 659.0352
231.9820, 633.8721
233.1990, 865.5635
234.4160, 855.0967
235.6330, 794.7500
236.8490, 762.1846
238.0660, 1008.884
239.2820, 1155.809
240.4980, 1225.019
241.7140, 952.7969
242.9300, 1111.690
244.1460, 1095.742
245.3610, 1072.322
246.5770, 1289.214
247.7920, 1273.205
249.0070, 1316.674
250.2220, 1256.125
251.4370, 1592.554
252.6510, 1416.961
253.8660, 1393.345
255.0800, 1276.090
256.2940, 1587.430
257.5080, 1810.090
258.7220, 1948.758
259.9360, 1753.561
261.1490, 1989.245
262.3630, 2052.257
263.5760, 2108.105
264.7890, 2039.249
266.0020, 1968.552
267.2150, 1785.822
268.4270, 1690.063
269.6400, 1485.269
270.8520, 1247.471
272.0640, 1238.663
273.2760, 878.8301
274.4880, 864.9756
275.7000, 932.1016
276.9120, 749.2490
278.1230, 532.4189
279.3340, 416.5410
280.5450, 180.6113
281.7560, 319.6318
282.9670, 33.60059
284.1780, 473.5205
285.3880, 70.61035
286.5980, 100.2100
287.8090, 67.01855
289.0190, 26.29688
290.2290, 0.3789060
291.4380, 129.9941
292.6480, 35.41504
293.8570, 62.11230
295.0670, 160.5645
296.2760, 40.88281
297.4850, 53.04102
298.6930, 59.39258
299.9020, 2.544922
301.1110, 157.4092
302.3190, 4.151367
303.5270, 73.36035
304.7350, 82.46777
305.9430, 17.55664
307.1510, 179.2510
308.3580, 21.79395
309.5660, 220.0117
310.7730, 381.7539
311.9800, 106.3760
313.1870, 25.67676
314.3940, 2.266602
315.6010, 129.8613
316.8070, 165.5127
318.0130, 223.0352
319.2200, 33.05078
320.4260, 366.3428
321.6310, 197.8535
322.8370, 365.3105
324.0430, 332.9053
325.2480, 212.8301
326.4540, 374.7910
327.6590, 424.8115
328.8640, 417.6533
330.0680, 458.1670
331.2730, 457.2559
332.4780, 490.1494
333.6820, 344.7539
334.8860, 565.7344
336.0900, 698.4092
337.2940, 747.4990
338.4980, 462.7715
339.7010, 609.0000
340.9050, 582.4648
342.1080, 548.7803
343.3110, 755.5273
344.5140, 812.5312
345.7170, 791.9111
346.9200, 831.5273
348.1220, 832.4805
349.3240, 838.8428
350.5270, 776.9023
351.7290, 875.0215
352.9310, 869.9541
354.1320, 912.5107
355.3340, 783.4424
356.5350, 974.7041
357.7370, 811.3652
358.9380, 784.2080
360.1390, 783.0088
361.3400, 914.0332
362.5400, 824.6504
363.7410, 754.6562
364.9410, 804.8447
366.1410, 749.8350
367.3410, 844.3750
368.5410, 706.1143
369.7410, 754.4912
370.9400, 546.4932
372.1400, 693.3828
373.3390, 633.2178
374.5380, 635.7988
375.7370, 709.3359
376.9360, 676.5352
378.1350, 738.3896
379.3330, 739.0293
380.5310, 625.7461
381.7300, 486.3672
382.9280, 701.0830
384.1260, 827.4561
385.3230, 873.3613
386.5210, 582.5225
387.7180, 722.8740
388.9160, 692.0303
390.1130, 652.0420
391.3100, 858.5869
392.5060, 789.1592
393.7030, 542.2285
394.9000, 682.0596
396.0960, 679.9932
397.2920, 660.7441
398.4880, 633.4199
399.6840, 645.0625
400.8800, 520.6738
402.0750, 521.2568
403.2710, 610.8115
404.4660, 702.3418
405.6610, 753.9648
406.8560, 738.2109
408.0510, 867.7715
409.2450, 642.1973
410.4400, 586.5967
411.6340, 517.9707
412.8280, 554.3203
414.0220, 557.5547
415.2160, 517.9443
416.4100, 664.5107
417.6030, 762.4727
418.7970, 848.6992
419.9900, 876.8926
421.1830, 913.4512
422.3760, 851.2373
423.5690, 883.3691
424.7610, 822.9424
425.9540, 717.0264
427.1460, 634.2910
428.3380, 718.3291
429.5300, 575.4072
430.7220, 664.2354
431.9140, 483.5459
433.1050, 425.4170
434.2970, 382.9658
435.4880, 231.3389
436.6790, 217.6523
437.8700, 110.7871
439.0610, 163.0254
440.2510, 85.44043
441.4420, 22.42578
442.6320, 46.55664
443.8220, 172.1934
445.0120, 102.3232
446.2020, 81.43848
447.3910, 79.97656
448.5810, 181.6211
449.7700, 157.1094
450.9600, 101.0801
452.1490, 3.831055
453.3370, 17.89258
454.5260, 34.25586
455.7150, 20.89062
456.9030, 16.48340
458.0910, 15.78711
459.2800, 185.6533
460.4670, 81.57129
461.6550, 72.84668
462.8430, 51.59961
464.0300, 268.4658
465.2180, 203.3486
466.4050, 173.1152
467.5920, 242.6992
468.7790, 362.5508
469.9650, 177.2236
471.1520, 271.0605
472.3380, 341.8281
473.5250, 189.6719
474.7110, 236.4893
475.8970, 331.2812
477.0820, 242.6270
478.2680, 299.3701
479.4540, 342.0898
480.6390, 308.7852
481.8240, 251.4561
483.0090, 301.1045
484.1940, 265.7275
485.3780, 338.3291
486.5630, 215.9072
487.7470, 287.4619
488.9320, 230.9941
490.1160, 198.5049
491.3000, 237.9932
492.4830, 175.4590
493.6670, 194.4131
494.8500, 183.3281
496.0340, 171.8086
497.2170, 179.3535
498.4000, 108.9521
499.5820, 300.5830
500.7650, 190.1953
501.9480, 157.7891
503.1300, 57.36133
504.3120, 26.92383
505.4940, 37.46484
506.6760, 10.77441
507.8580, 6.451172
509.0390, 58.95312
510.2210, 20.40625
511.4020, 90.83887
512.5830, 161.2520
513.7640, 189.6494
514.9450, 159.0303
516.1250, 67.39746
517.3060, 130.7471
518.4860, 127.0820
519.6660, 38.40234
520.8460, 67.70801
522.0260, 108.5029
523.2060, 90.73438
524.3850, 201.6787
525.5650, 229.0605
526.7440, 77.34961
527.9230, 47.20801
529.1020, 0.9765630
530.2810, 56.25488
531.4590, 128.9541
532.6380, 128.9678
533.8160, 52.39258
534.9940, 133.2500
536.1720, 70.84082
537.3500, 36.82324
538.5270, 70.08496
539.7050, 131.2500
540.8820, 182.4521
542.0590, 178.6865
543.2360, 317.9619
544.4130, 326.9395
545.5900, 374.9590
546.7660, 458.9219
547.9430, 448.3027
549.1190, 598.7314
550.2950, 648.1934
551.4710, 715.7021
552.6470, 792.2041
553.8220, 911.7441
554.9980, 1013.315
556.1730, 1136.878
557.3480, 1142.488
558.5230, 1188.438
559.6980, 1236.110
560.8730, 1208.466
562.0470, 1220.123
563.2220, 1274.783
564.3960, 1112.449
565.5700, 1170.117
566.7440, 1024.794
567.9170, 1123.467
569.0910, 1062.181
570.2640, 996.8867
571.4380, 948.6523
572.6110, 933.4160
573.7840, 907.2119
574.9570, 753.0273
576.1290, 748.8271
577.3020, 880.3906
578.4740, 724.9160
579.6460, 597.9961
580.8180, 754.3037
581.9900, 577.8252
583.1620, 635.8809
584.3330, 704.9307
585.5040, 680.2061
586.6760, 728.9014
587.8470, 597.0322
589.0180, 755.3076
590.1880, 646.2607
591.3590, 790.8701
592.5290, 464.9502
593.7000, 698.2334
594.8700, 841.8916
596.0400, 904.2480
597.2090, 630.4844
598.3790, 788.2822
599.5490, 773.5713
600.7180, 963.8711
601.8870, 896.9922
603.0560, 809.3516
604.2250, 837.5225
605.3940, 1089.239
606.5620, 1252.542
607.7300, 1332.171
608.8990, 1078.294
610.0670, 1255.387
611.2350, 1259.580
612.4020, 1256.820
613.5700, 1494.595
614.7370, 1436.812
615.9050, 1507.983
617.0720, 1557.738
618.2390, 1642.339
619.4060, 1671.523
620.5720, 1845.711
621.7390, 1933.903
622.9050, 2100.099
624.0710, 2018.299
625.2370, 1961.503
626.4030, 2248.711
627.5690, 2211.924
628.7340, 2514.141
629.9000, 2504.361
631.0650, 2541.587
632.2300, 2655.815
633.3950, 2919.050
634.5600, 2983.288
635.7240, 3159.530
636.8890, 3252.777
638.0530, 3508.029
639.2170, 3682.925
640.3810, 3977.333
641.5450, 4153.594
642.7080, 4402.859
643.8720, 4715.744
645.0350, 5078.512
646.1980, 5435.338
647.3610, 6381.064
648.5240, 7510.781
649.6870, 7170.736
650.8490, 7861.544
652.0120, 7342.660
653.1740, 7705.961
654.3360, 7549.262
655.4980, 7533.570
656.6600, 7260.645
657.8210, 7058.498
658.9830, 6773.568
660.1440, 6440.271
661.3050, 6114.400
662.4660, 5645.421
663.6270, 5377.672
664.7870, 4843.019
665.9480, 4943.365
667.1080, 4787.598
668.2680, 4483.971
669.4280, 4147.234
670.5880, 4270.900
671.7480, 3822.541
672.9070, 3597.608
674.0670, 3720.580
675.2260, 3772.954
676.3850, 3752.876
677.5440, 3756.478
678.7030, 3726.434
679.8610, 3754.117
681.0200, 3690.186
682.1780, 3939.959
683.3360, 4097.035
684.4940, 4170.674
685.6520, 3910.583
686.8090, 4085.168
687.9670, 4089.430
689.1240, 4082.627
690.2810, 4320.008
691.4380, 4232.471
692.5950, 4356.500
693.7520, 4343.213
694.9080, 4427.756
696.0650, 4334.510
697.2210, 4400.385
698.3770, 4358.402
699.5330, 4293.754
700.6880, 4394.096
701.8440, 4389.832
702.9990, 4346.282
704.1550, 4199.809
705.3100, 4261.992
706.4650, 4133.567
707.6190, 4180.570
708.7740, 3979.864
709.9290, 4096.788
711.0830, 3984.065
712.2370, 4045.335
713.3910, 4155.595
714.5450, 4310.607
715.6980, 4052.260
716.8520, 3966.225
718.0050, 3597.773
719.1580, 3541.994
720.3110, 3526.209
721.4640, 3516.451
722.6170, 3391.693
723.7700, 3316.331
724.9220, 3168.260
726.0740, 3071.599
727.2260, 2888.964
728.3780, 2769.354
729.5300, 2666.093
730.6810, 2534.498
731.8330, 2458.791
732.9840, 2374.303
734.1350, 2249.822
735.2860, 2279.338
736.4370, 2131.859
737.5880, 2112.387
738.7380, 2135.915
739.8880, 1975.492
741.0390, 1836.062
742.1890, 2009.623
743.3380, 1749.178
744.4880, 1814.720
745.6380, 1768.254
746.7870, 1628.776
747.9360, 1671.288
749.0850, 1532.979
750.2340, 1512.279
751.3830, 1480.759
752.5310, 1525.228
753.6800, 1422.056
754.8280, 1429.202
755.9760, 1361.566
757.1240, 1302.990
758.2720, 1521.402
759.4190, 1323.804
760.5670, 1465.193
761.7140, 1416.572
762.8610, 1209.940
764.0080, 1326.297
765.1550, 1216.950
766.3020, 1113.975
767.4480, 1109.297
768.5950, 1155.607
769.7410, 1006.908
770.8870, 964.1963
772.0330, 968.4746
773.1780, 803.7412
774.3240, 834.9971
775.4690, 725.2412
776.6140, 614.4756
777.7590, 734.6992
778.9040, 678.9121
780.0490, 695.1143
781.1940, 667.3066
782.3380, 630.4902
783.4820, 548.6650
784.6260, 497.0410
785.7700, 601.9912
786.9140, 399.1426
788.0580, 414.2861
789.2010, 476.4199
790.3450, 401.9072
791.4880, 391.5908
792.6310, 371.7666
793.7730, 300.8613
794.9160, 196.9463
796.0590, 186.0215
797.2010, 193.0869
798.3430, 154.1445
799.4850, 187.1924
800.6270, 154.2539
801.7690, 103.3057
802.9100, 235.3477
804.0520, 95.71094
805.1930, 46.41699
806.3340, 22.44238
807.4750, 140.5459
808.6160, 41.37402
809.7560, 147.7188
810.8970, 114.8887
812.0370, 43.14844
813.1770, 48.42969
814.3170, 156.7637
815.4570, 96.20898
816.5960, 138.8613
817.7360, 124.8760
818.8750, 152.0771
820.0140, 81.90527
821.1530, 83.80371
822.2920, 84.77539
823.4310, 143.8203
824.5690, 181.9697
825.7070, 119.2412
826.8460, 178.7744
827.9840, 38.91113
829.1220, 146.5830
830.2590, 110.1836
831.3970, 56.13379
832.5340, 175.5605
833.6710, 114.3730
834.8080, 117.2695
835.9450, 161.7461
837.0820, 111.7529
838.2190, 3.248047
839.3550, 31.27441
840.4910, 1.339844
841.6270, 28.42871
842.7630, 19.44336
843.8990, 106.6953
845.0350, 95.08691
846.1700, 75.13965
847.3060, 180.5752
848.4410, 167.2832
849.5760, 159.9834
850.7100, 69.67773
851.8450, 20.36523
852.9800, 154.0420
854.1140, 193.7129
855.2480, 218.3779
856.3820, 368.0361
857.5160, 307.6885
858.6500, 479.3340
859.7830, 450.9736
860.9170, 586.6074
862.0500, 632.7344
863.1830, 485.8545
864.3160, 706.4697
865.4480, 734.0781
866.5810, 714.6797
867.7130, 622.2744
868.8460, 921.8633
869.9780, 731.4453
871.1100, 1048.021
872.2410, 1003.590
873.3730, 1012.152
874.5050, 976.7100
875.6360, 1082.260
876.7670, 1153.805
877.8980, 1290.343
879.0290, 1325.875
880.1590, 1435.400
881.2900, 1506.922
882.4200, 1582.437
883.5500, 1634.948
884.6800, 1655.454
885.8100, 1720.955
886.9400, 1791.451
888.0690, 1889.861
889.1990, 2023.429
890.3280, 2124.910
891.4570, 2174.388
892.5860, 2277.861
893.7140, 2366.201
894.8430, 2495.820
895.9710, 2551.818
897.1000, 2682.771
898.2280, 2765.240
899.3560, 2827.707
900.4830, 2839.180
901.6110, 2950.669
902.7380, 3115.162
903.8660, 3054.652
904.9930, 3213.193
906.1200, 3348.732
907.2460, 3556.271
908.3730, 3598.807
909.5000, 3736.385
910.6260, 4027.972
911.7520, 4011.252
912.8780, 4309.388
914.0040, 4519.223
915.1290, 4645.494
916.2550, 4438.064
917.3800, 4661.570
918.5050, 4712.345
919.6300, 4756.046
920.7550, 5040.233
921.8800, 4881.325
923.0040, 4996.709
924.1290, 5060.496
925.2530, 5086.284
926.3770, 5043.081
927.5010, 5118.654
928.6250, 5060.688
929.7480, 5172.493
930.8720, 5307.301
931.9950, 5270.125
933.1180, 5285.947
934.2410, 5487.770
935.3640, 5461.592
936.4860, 5542.415
937.6090, 5684.232
938.7310, 5853.062
939.8530, 5901.629
940.9750, 5996.471
942.0970, 6046.771
943.2180, 6168.526
944.3400, 6271.145
945.4610, 6323.258
946.5820, 6408.421
947.7030, 6379.883
948.8240, 6445.603
949.9450, 6373.922
951.0650, 6320.240
952.1860, 6203.072
953.3060, 6072.020
954.4260, 5903.240
955.5460, 5589.490
956.6650, 5478.635
957.7850, 4969.735
958.9040, 4861.151
960.0230, 4485.199
961.1420, 4414.225
962.2610, 3931.559
963.3800, 3779.379
964.4990, 3477.820
965.6170, 3184.590
966.7350, 2989.138
967.8530, 2894.287
968.9710, 2521.943
970.0890, 2472.465
971.2070, 2282.663
972.3240, 2402.877
973.4410, 2129.707
974.5580, 1948.832
975.6750, 1837.887
976.7920, 1996.296
977.9090, 1824.318
979.0250, 1717.926
980.1410, 1801.680
981.2580, 1700.834
982.3740, 1820.312
983.4890, 1696.686
984.6050, 1610.078
985.7200, 1604.477
986.8360, 1562.663
987.9510, 1774.138
989.0660, 1553.600
990.1810, 1666.078
991.2950, 1623.576
992.4100, 1539.091
993.5240, 1655.623
994.6390, 1658.174
995.7530, 1707.741
996.8660, 1660.327
997.9800, 1706.931
999.0940, 1720.321
1000.207, 1715.670
1001.320, 1762.848
1002.433, 1777.521
1003.546, 1788.215
1004.659, 1917.925
1005.772, 1997.652
1006.884, 2034.758
1007.996, 2104.861
1009.108, 2171.943
1010.220, 2134.743
1011.332, 2290.562
1012.444, 2223.396
1013.555, 2329.822
1014.666, 2469.123
1015.777, 2531.015
1016.888, 2420.258
1017.999, 2584.185
1019.110, 2709.130
1020.220, 2663.131
1021.331, 3359.111
1022.441, 3184.110
1023.551, 3156.198
1024.661, 2951.198
1025.770, 2828.251
1026.880, 2830.326
1027.989, 2814.383
1029.098, 2841.490
1030.207, 2359.304
1031.316, 2539.057
1032.425, 2630.539
1033.533, 2640.398
1034.642, 2318.989
1035.750, 2425.582
1036.858, 2358.104
1037.966, 2296.040
1039.073, 2462.250
1040.181, 2185.093
1041.288, 2347.271
1042.396, 2344.445
1043.503, 2070.288
1044.610, 2028.590
1045.716, 1821.868
1046.823, 1859.245
1047.929, 1777.046
1049.036, 1709.444
1050.142, 1644.450
1051.248, 1647.883
1052.353, 1580.935
1053.459, 1481.009
1054.564, 1515.028
1055.670, 1497.366
1056.775, 1482.109
1057.880, 1486.880
1058.985, 1555.505
1060.089, 1519.077
1061.194, 1534.626
1062.298, 1513.527
1063.402, 1421.732
1064.506, 1453.377
1065.610, 1344.079
1066.713, 1372.685
1067.817, 1321.301
1068.920, 1437.941
1070.023, 1317.688
1071.126, 1382.172
1072.229, 1262.044
1073.332, 1465.028
1074.435, 1576.206
1075.537, 1607.101
1076.639, 1299.878
1077.741, 1428.239
1078.843, 1379.411
1079.945, 1323.504
1081.046, 1508.004
1082.148, 1249.328
1083.249, 1430.065
1084.350, 1435.423
1085.451, 1271.768
1086.551, 1065.415
1087.652, 1248.525
1088.752, 1095.896
1089.853, 1108.375
1090.953, 1046.738
1092.053, 1080.902
1093.152, 1022.021
1094.252, 1022.283
1095.351, 943.4395
1096.451, 972.0029
1097.550, 971.6719
1098.649, 878.1211
1099.748, 941.1904
1100.846, 837.3955
1101.945, 825.1699
1103.043, 868.0146
1104.141, 755.8721
1105.239, 721.7129
1106.337, 573.7803
1107.434, 779.6670
1108.532, 630.5469
1109.629, 556.4541
1110.726, 670.3887
1111.823, 528.6064
1112.920, 686.5586
1114.017, 437.5410
1115.113, 669.5293
1116.210, 649.5225
1117.306, 484.5205
1118.402, 557.6943
1119.498, 673.7080
1120.593, 671.7246
1121.689, 588.8643
1122.784, 659.8994
1123.879, 597.9385
1124.974, 654.1221
1126.069, 679.2910
1127.164, 484.3379
1128.259, 406.3867
1129.353, 323.4385
1130.447, 442.4932
1131.541, 306.5469
1132.635, 290.6045
1133.729, 61.67480
1134.822, 141.7334
1135.916, 159.7939
1137.009, 144.6250
1138.102, 154.5576
1139.195, 164.6494
1140.288, 99.04297
1141.380, 190.1055
1142.473, 156.1699
1143.565, 170.2344
1144.657, 99.41113
1145.749, 26.47656
1146.841, 117.5400
1147.932, 17.39844
1149.024, 58.65820
1150.115, 36.71387
1151.206, 1.1719000E-02
1152.297, 26.83496
1153.388, 36.90137
1154.479, 33.01367
1155.569, 0.5351560
1156.659, 71.13184
1157.750, 46.81445
1158.839, 26.78223
1159.929, 62.23535
1161.019, 5.249023
1162.108, 21.25879
1163.198, 133.2656
1164.287, 38.73145
1165.376, 77.75000
1166.465, 27.81445
1167.553, 49.10156
1168.642, 203.1758
1169.730, 2.285156
1170.818, 110.3145
1171.906, 139.3604
1172.994, 165.3789
1174.082, 39.21387
1175.170, 85.79688
1176.257, 139.5166
1177.344, 47.15137
1178.431, 209.3164
1179.518, 26.58691
1180.605, 19.25391
1181.691, 68.31738
1182.778, 17.90918
1183.864, 49.11816
1184.950, 87.84766
1186.036, 26.63770
1187.122, 40.87793
1188.207, 8.684570
1189.292, 21.18555
1190.378, 1.083984
1191.463, 30.00000
1192.548, 10.07520
1193.632, 5.136719
1194.717, 32.81836
1195.801, 47.18945
1196.886, 136.1885
1197.970, 90.17773
1199.054, 75.15918
1200.137, 54.13086
1201.221, 7.092773
1202.305, 0.9628910
1203.388, 56.04395
1204.471, 0.8232420
1205.554, 50.33301
1206.637, 43.46191
1207.719, 51.75488
1208.802, 34.97461
1209.884, 45.69238
1210.966, 69.23633
1212.048, 94.75000
1213.130, 82.80176
1214.212, 102.4424
1215.293, 55.10352
1216.374, 41.74902
1217.456, 17.38184
1218.536, 74.99316
1219.617, 59.58984
1220.698, 98.17285
1221.778, 23.74219
1222.859, 16.70996
1223.939, 24.20508
1225.019, 35.64746
1226.099, 141.6572
1227.178, 21.04785
1228.258, 72.41113
1229.337, 157.7666
1230.417, 50.90137
1231.496, 186.3682
1232.574, 116.6221
1233.653, 113.8584
1234.732, 156.0791
1235.810, 73.28418
1236.888, 122.4717
1237.966, 209.6426
1239.044, 127.7988
1240.122, 123.9385
1241.199, 67.19336
1242.277, 204.3662
1243.354, 136.4502
1244.431, 171.6162
1245.508, 139.1445
1246.585, 171.2070
1247.661, 97.22266
1248.738, 204.6816
1249.814, 172.8672
1250.890, 117.9375
1251.966, 146.5459
1253.042, 204.5693
1254.117, 113.4775
1255.193, 118.3652
1256.268, 277.7129
1257.343, 236.0811
1258.418, 244.2881
1259.493, 324.1309
1260.567, 156.9248
1261.642, 227.7012
1262.716, 151.3760
1263.790, 178.9951
1264.864, 194.0684
1265.938, 286.9873
1267.011, 273.6699
1268.085, 351.3779
1269.158, 366.0234
1270.231, 382.2305
1271.304, 357.7314
1272.377, 391.4844
1273.450, 136.2207
1274.522, 340.0049
1275.594, 455.4902
1276.666, 487.4043
1277.738, 185.1777
1278.810, 314.3701
1279.882, 270.9082
1280.953, 223.8574
1282.025, 413.5576
1283.096, 160.1270
1284.167, 345.9756
1285.238, 356.4102
1286.308, 447.1211
1287.379, 362.1484
1288.449, 331.7344
1289.519, 476.1201
1290.589, 524.3887
1291.659, 421.2070
1292.729, 516.8945
1293.798, 255.5352
1294.868, 303.2705
1295.937, 488.5586
1297.006, 394.0186
1298.075, 480.3799
1299.143, 505.2480
1300.212, 195.7207
1301.280, 468.1348
1302.348, 478.4912
1303.416, 238.4961
1304.484, 485.4316
1305.552, 274.3789
1306.620, 234.4736
1307.687, 303.2432
1308.754, 256.1211
1309.821, 410.0791
1310.888, 372.2656
1311.955, 315.5615
1313.021, 332.2090
1314.088, 132.7578
1315.154, 333.3633
1316.220, 262.3105
1317.286, 328.7832
1318.352, 423.8848
1319.417, 286.6553
1320.483, 397.5254
