##NAMES=Lawsonite
##RRUFFID=R050042
##IDEAL CHEMISTRY=CaAl_2_Si_2_O_7_(OH)_2_&#183;H_2_O
##LOCALITY=California, USA
##OWNER=RRUFF
##SOURCE=University of Arizona Mineral Museum
##DESCRIPTION=White to colorless fragments
##STATUS=The identification of this mineral has been confirmed by X-ray diffraction and chemical analysis
##URL=rruff.info/R050042
##MEASURED CHEMISTRY=(Ca_0.98_Fe^2+^_0.02_)Al_2.00_Si_2.00_O_7_(OH)_2_Â·H_2_O
##PIN_ID=L00478
##ORIENTATION=Laser parallel to -b* (0 -1 0). Fiducial mark perpendicular to laser is parallel to c [0 0 1]
143.816, 0.000
145.202, 1.834
146.589, 77.114
147.975, 118.920
149.360, 202.363
150.746, 135.591
152.131, 185.396
153.516, 293.497
154.901, 271.016
156.286, 370.146
157.670, 257.828
159.055, 293.469
160.439, 282.190
161.822, 315.543
163.206, 334.617
164.589, 346.205
165.972, 274.390
167.355, 256.070
168.738, 346.532
170.121, 255.847
171.503, 333.120
172.885, 340.509
174.267, 385.555
175.648, 414.743
177.029, 338.874
178.411, 438.279
179.792, 332.802
181.172, 353.206
182.553, 370.247
183.933, 498.601
185.313, 466.024
186.693, 446.960
188.072, 527.383
189.452, 475.247
190.831, 412.450
192.210, 526.948
193.588, 343.860
194.967, 380.007
196.345, 383.737
197.723, 393.359
199.101, 355.128
200.479, 288.649
201.856, 233.609
203.233, 197.679
204.610, 156.111
205.987, 149.517
207.363, 110.867
208.740, 98.343
210.116, 63.570
211.492, 45.138
212.867, 36.517
214.243, 35.884
215.618, 30.239
216.993, 40.584
218.367, 77.920
219.742, 6.752
221.116, 11.432
222.490, 112.118
223.864, 42.810
225.238, 2.506
226.611, 80.135
227.985, 45.506
229.357, 44.638
230.730, 57.544
232.103, 38.223
233.475, 18.004
234.847, 9.877
236.219, 28.979
237.591, 37.021
238.962, 23.204
240.334, 68.483
241.705, 23.833
243.075, 48.242
244.446, 51.685
245.816, 115.143
247.186, 138.603
248.556, 150.042
249.926, 198.441
251.296, 222.792
252.665, 246.083
254.034, 213.316
255.403, 236.484
256.771, 298.574
258.140, 342.577
259.508, 301.484
260.876, 404.284
262.244, 475.974
263.611, 511.568
264.978, 622.038
266.346, 849.291
267.712, 941.391
269.079, 1165.315
270.446, 1248.079
271.812, 1474.728
273.178, 1728.308
274.544, 1842.833
275.909, 2350.306
277.275, 2427.734
278.640, 2725.137
280.005, 3015.519
281.369, 3179.887
282.734, 3494.241
284.098, 4178.590
285.462, 4832.938
286.826, 5417.292
288.190, 6021.650
289.553, 6236.013
290.916, 6230.381
292.279, 5854.753
293.642, 5059.130
295.004, 4383.511
296.367, 3587.895
297.729, 2952.283
299.091, 2391.673
300.452, 1944.067
301.814, 1647.465
303.175, 1359.865
304.536, 1298.277
305.897, 978.707
307.257, 1030.153
308.618, 904.062
309.978, 745.636
311.338, 734.191
312.698, 735.573
314.057, 661.787
315.416, 610.077
316.776, 671.403
318.134, 687.333
319.493, 623.558
320.851, 790.430
322.210, 671.534
323.568, 778.160
324.925, 885.854
326.283, 855.951
327.640, 961.039
328.998, 872.728
330.354, 926.978
331.711, 987.919
333.068, 890.777
334.424, 948.743
335.780, 942.941
337.136, 1034.705
338.491, 1061.927
339.847, 1034.572
341.202, 1105.864
342.557, 1177.646
343.912, 1216.135
345.266, 1357.290
346.621, 1414.300
347.975, 1521.217
349.329, 1573.360
350.682, 1897.979
352.036, 1840.921
353.389, 2408.897
354.742, 2294.501
356.095, 2400.490
357.448, 2594.622
358.800, 2667.845
360.152, 3016.053
361.504, 3100.283
362.856, 3274.342
364.208, 3378.115
365.559, 3501.510
366.910, 3654.627
368.261, 3667.424
369.612, 3760.192
370.962, 3672.540
372.313, 3774.768
373.663, 3746.509
375.012, 3597.941
376.362, 3689.235
377.712, 3510.574
379.061, 3391.832
380.410, 3333.381
381.758, 3295.602
383.107, 3275.459
384.455, 3145.107
385.804, 3058.518
387.151, 3106.358
388.499, 3116.810
389.847, 3222.467
391.194, 3300.372
392.541, 3718.404
393.888, 3855.696
395.235, 4504.267
396.581, 5064.168
397.927, 5784.641
399.273, 6566.542
400.619, 6998.605
401.965, 7580.457
403.310, 7432.973
404.655, 7044.877
406.000, 6377.167
407.345, 5399.513
408.689, 4572.513
410.034, 3825.715
411.378, 3359.019
412.722, 2802.640
414.065, 2359.360
415.409, 2183.177
416.752, 1782.853
418.095, 1632.624
419.438, 1515.654
420.781, 1403.866
422.123, 1271.906
423.465, 1101.375
424.807, 999.114
426.149, 1041.843
427.490, 910.564
428.832, 948.279
430.173, 908.292
431.514, 896.688
432.855, 868.384
434.195, 865.076
435.535, 863.761
436.875, 935.044
438.215, 1057.121
439.555, 1128.793
440.894, 1259.462
442.234, 1390.127
443.573, 1460.787
444.911, 1575.200
446.250, 1629.773
447.588, 1748.740
448.927, 1712.383
450.265, 1774.020
451.602, 1784.652
452.940, 1861.279
454.277, 1848.634
455.614, 1809.519
456.951, 1838.171
458.288, 1691.797
459.624, 1687.537
460.961, 1626.133
462.297, 1320.541
463.633, 1246.601
464.968, 849.498
466.304, 815.341
467.639, 594.186
468.974, 505.000
470.309, 381.504
471.643, 257.583
472.978, 236.957
474.312, 234.740
475.646, 147.061
476.980, 88.145
478.313, 20.161
479.647, 17.074
480.980, 55.818
482.313, 71.969
483.645, 11.573
484.978, 9.951
486.310, 32.224
487.642, 4.363
488.974, 38.699
490.306, 78.939
491.637, 32.646
492.968, 65.507
494.299, 2.726
495.630, 115.551
496.961, 165.878
498.291, 21.590
499.622, 86.595
500.952, 119.505
502.281, 188.365
503.611, 151.413
504.940, 191.349
506.269, 151.897
507.598, 141.521
508.927, 202.914
510.256, 211.286
511.584, 122.640
512.912, 247.973
514.240, 376.292
515.568, 363.598
516.895, 318.889
518.222, 337.169
519.549, 399.437
520.876, 444.694
522.203, 439.938
523.529, 449.176
524.856, 535.404
526.182, 601.624
527.508, 633.949
528.833, 670.060
530.159, 755.269
531.484, 753.475
532.809, 882.675
534.134, 893.875
535.458, 1063.075
536.782, 974.285
538.107, 1239.496
539.431, 1391.714
540.754, 1461.946
542.078, 1779.173
543.401, 1881.406
544.724, 2200.646
546.047, 2333.920
547.370, 2767.222
548.692, 3130.526
550.015, 3413.858
551.337, 4097.205
552.659, 4710.565
553.980, 5603.942
555.302, 6637.331
556.623, 7780.726
557.944, 9304.124
559.265, 10397.518
560.586, 11940.910
561.906, 13154.301
563.226, 13137.683
564.546, 13331.062
565.866, 12394.439
567.186, 11417.811
568.505, 10361.173
569.824, 8874.524
571.143, 8147.867
572.462, 7191.199
573.781, 6524.520
575.099, 6097.830
576.417, 5721.127
577.735, 5344.414
579.053, 5007.689
580.370, 4780.959
581.688, 4424.206
583.005, 3977.439
584.322, 3710.655
585.639, 3223.857
586.955, 2877.043
588.271, 2480.213
589.588, 2123.366
590.903, 1996.504
592.219, 1749.625
593.535, 1549.730
594.850, 1341.821
596.165, 1188.713
597.480, 1048.953
598.794, 929.996
600.109, 800.022
601.423, 693.032
602.737, 606.027
604.051, 561.005
605.365, 581.968
606.678, 447.914
607.991, 439.845
609.304, 413.760
610.617, 291.658
611.930, 298.541
613.242, 263.407
614.554, 160.258
615.866, 164.093
617.178, 134.912
618.490, 186.713
619.801, 2.503
621.112, 51.249
622.423, 87.981
623.734, 6.694
625.045, 95.378
626.355, 100.044
627.665, 100.309
628.975, 25.254
630.285, 13.796
631.594, 74.688
632.904, 4.242
634.213, 1.109
635.522, 75.253
636.831, 5.268
638.139, 77.834
639.447, 22.329
640.756, 46.327
642.063, 30.119
643.371, 26.249
644.679, 122.054
645.986, 94.154
647.293, 44.846
648.600, 96.996
649.907, 46.854
651.213, 0.915
652.519, 27.396
653.825, 4.319
655.131, 43.061
656.437, 25.471
657.743, 95.670
659.048, 40.230
660.353, 3.589
661.658, 20.411
662.962, 90.568
664.267, 64.555
665.571, 181.490
666.875, 195.679
668.179, 299.896
669.483, 351.551
670.786, 383.095
672.089, 443.439
673.392, 488.776
674.695, 491.104
675.998, 670.422
677.300, 779.732
678.602, 1021.032
679.904, 1074.941
681.206, 1346.225
682.508, 1617.592
683.809, 1880.751
685.111, 2522.009
686.412, 3003.260
687.712, 3564.502
689.013, 4605.734
690.313, 5506.960
691.614, 6958.178
692.914, 8211.695
694.213, 9152.898
695.513, 10035.864
696.812, 9990.021
698.112, 9381.200
699.411, 8312.368
700.709, 7023.531
702.008, 5864.687
703.306, 4748.475
704.604, 3719.611
705.902, 3091.418
707.200, 2422.538
708.498, 2103.650
709.795, 1594.754
711.092, 1485.849
712.389, 1056.937
713.686, 918.015
714.983, 889.085
716.279, 592.305
717.575, 652.359
718.871, 476.414
720.167, 410.453
721.463, 366.483
722.758, 405.506
724.053, 316.521
725.348, 243.527
726.643, 160.527
727.937, 312.519
729.232, 86.505
730.526, 273.482
731.820, 64.453
733.114, 113.417
734.407, 116.374
735.701, 26.323
736.994, 158.268
738.287, 49.203
739.579, 32.135
740.872, 75.059
742.164, 35.977
743.456, 39.890
744.748, 66.797
746.040, 73.698
747.332, 54.595
748.623, 42.484
749.914, 33.370
751.205, 24.117
752.496, 80.126
753.787, 32.996
755.077, 122.862
756.367, 177.725
757.657, 98.581
758.947, 65.434
760.236, 63.282
761.526, 144.127
762.815, 157.969
764.104, 59.806
765.393, 172.640
766.681, 300.471
767.969, 221.298
769.258, 251.122
770.546, 212.904
771.833, 130.704
773.121, 355.383
774.408, 184.196
775.695, 288.189
776.982, 282.523
778.269, 308.014
779.556, 364.549
780.842, 318.076
782.128, 431.626
783.414, 274.444
784.700, 394.647
785.986, 374.513
787.271, 398.932
788.556, 367.771
789.841, 416.809
791.126, 381.195
792.411, 399.999
793.695, 424.255
794.979, 362.005
796.263, 488.373
797.547, 335.772
798.831, 303.435
800.114, 405.100
801.397, 338.534
802.680, 439.044
803.963, 332.350
805.246, 318.878
806.528, 318.314
807.810, 266.117
809.092, 405.392
810.374, 272.259
811.656, 412.814
812.937, 396.443
814.218, 237.124
815.499, 306.599
816.780, 327.170
818.061, 318.117
819.341, 168.973
820.621, 250.046
821.901, 291.131
823.181, 122.227
824.461, 153.331
825.740, 164.446
827.019, 65.570
828.299, 236.705
829.577, 217.849
830.856, 59.016
832.134, 140.193
833.413, 28.612
834.691, 122.599
835.969, 6.181
837.246, 64.917
838.524, 86.339
839.801, 87.605
841.078, 168.882
842.355, 70.170
843.632, 41.479
844.908, 162.799
846.185, 75.869
847.461, 55.453
848.736, 63.214
850.012, 91.886
851.288, 129.428
852.563, 20.752
853.838, 82.089
855.113, 3.438
856.388, 85.200
857.662, 196.153
858.937, 32.480
860.211, 118.890
861.485, 70.278
862.758, 51.681
864.032, 163.096
865.305, 114.522
866.578, 75.964
867.851, 177.418
869.124, 11.114
870.397, 140.367
871.669, 1.863
872.941, 103.375
874.213, 84.902
875.485, 96.444
876.757, 148.000
878.028, 159.579
879.299, 281.172
880.570, 212.779
881.841, 184.403
883.112, 236.041
884.382, 377.694
885.652, 249.364
886.922, 311.048
888.192, 422.747
889.462, 304.453
890.731, 626.184
892.000, 537.931
893.269, 599.692
894.538, 581.473
895.807, 713.268
897.075, 875.080
898.344, 986.908
899.612, 1178.753
900.880, 1290.612
902.147, 1412.490
903.415, 1894.385
904.682, 1916.295
905.949, 2248.225
907.216, 2860.170
908.483, 3172.133
909.749, 3564.113
911.016, 4046.109
912.282, 4678.125
913.548, 5220.156
914.814, 5582.207
916.079, 5634.273
917.344, 5616.358
918.610, 5678.461
919.875, 5620.579
921.139, 5282.717
922.404, 5294.870
923.668, 5507.043
924.932, 5439.231
926.196, 5921.441
927.460, 6173.666
928.724, 7025.918
929.987, 7928.190
931.251, 8920.478
932.514, 10273.104
933.776, 11805.438
935.039, 13147.789
936.301, 14520.193
937.564, 15812.621
938.826, 16375.063
940.088, 16417.555
941.349, 15890.079
942.611, 14682.625
943.872, 13595.218
945.133, 12057.837
946.394, 10890.503
947.655, 9483.199
948.915, 8695.935
950.176, 7668.704
951.436, 6921.504
952.696, 6344.361
953.955, 5559.354
955.215, 5282.280
956.474, 4975.258
957.734, 4678.275
958.993, 4411.314
960.251, 4118.627
961.510, 3927.484
962.768, 3611.700
964.027, 3381.901
965.285, 3174.812
966.542, 2876.279
967.800, 2779.580
969.057, 2503.274
970.315, 2346.571
971.572, 2279.994
972.829, 2123.328
974.085, 1956.678
975.342, 1860.042
976.598, 1643.424
977.854, 1756.820
979.110, 1620.233
980.366, 1373.666
981.621, 1460.445
982.877, 1203.909
984.132, 1449.077
985.387, 1264.523
986.641, 1278.037
987.896, 1239.123
989.150, 1120.775
990.404, 1064.338
991.658, 1067.918
992.912, 931.519
994.166, 977.614
995.419, 931.245
996.672, 994.928
997.925, 916.292
999.178, 739.979
1000.431, 961.926
1001.683, 782.693
1002.936, 846.455
1004.188, 720.307
1005.440, 724.099
1006.691, 567.953
1007.943, 779.899
1009.194, 543.781
1010.445, 727.007
1011.696, 601.980
1012.947, 655.918
1014.197, 679.881
1015.448, 613.857
1016.698, 607.883
1017.948, 741.944
1019.198, 595.999
1020.447, 670.421
1021.697, 554.692
1022.946, 568.818
1024.195, 643.686
1025.444, 447.857
1026.692, 642.063
1027.941, 557.843
1029.189, 432.159
1030.437, 516.423
1031.685, 450.887
1032.933, 495.177
1034.180, 439.534
1035.427, 433.978
1036.675, 358.338
1037.922, 442.710
1039.168, 357.093
1040.415, 491.490
1041.661, 435.916
1042.907, 490.334
1044.153, 555.159
1045.399, 329.603
1046.645, 514.054
1047.890, 448.737
1049.135, 553.254
1050.380, 537.738
1051.625, 482.465
1052.870, 456.969
1054.114, 361.881
1055.359, 346.419
1056.603, 346.166
1057.847, 275.938
1059.090, 340.512
1060.334, 335.096
1061.577, 239.928
1062.820, 204.525
1064.063, 169.529
1065.306, 184.153
1066.549, 108.776
1067.791, 103.650
1069.033, 138.289
1070.275, 212.937
1071.517, 117.804
1072.759, 182.462
1074.000, 127.127
1075.241, 121.990
1076.482, 206.667
1077.723, 31.352
1078.964, 246.167
1080.204, 20.862
1081.445, 14.434
1082.685, 160.271
1083.925, 114.982
1085.164, 139.699
1086.404, 144.420
1087.643, 59.172
1088.883, 83.898
1090.122, 58.643
1091.360, 13.468
1092.599, 27.684
1093.837, 52.938
1095.076, 67.681
1096.314, 42.421
1097.552, 167.164
1098.789, 131.906
1100.027, 36.649
1101.264, 91.561
1102.501, 53.699
1103.738, 71.022
1104.975, 36.286
1106.211, 171.006
1107.448, 45.724
1108.684, 60.532
1109.920, 5.246
1111.156, 30.001
1112.391, 104.699
1113.627, 100.603
1114.862, 114.050
1116.097, 1.301
1117.332, 12.061
1118.566, 112.574
1119.801, 2.794
1121.035, 42.480
1122.269, 317.138
1123.503, 301.787
1124.737, 216.520
1125.971, 61.138
1127.204, 95.751
1128.437, 21.286
1129.670, 63.980
1130.903, 30.583
1132.136, 34.220
1133.368, 49.271
1134.600, 115.233
1135.832, 130.269
1137.064, 44.229
1138.296, 70.242
1139.527, 25.059
1140.759, 91.000
1141.990, 44.209
1143.221, 60.465
1144.452, 7.667
1145.682, 82.231
1146.912, 106.750
1148.143, 36.210
1149.373, 31.016
1150.602, 97.562
1151.832, 12.177
1153.062, 107.031
1154.291, 41.769
1155.520, 2.989
1156.749, 61.988
1157.978, 107.752
1159.206, 7.468
1160.434, 198.494
1161.663, 115.496
1162.891, 109.766
1164.118, 192.873
1165.346, 67.236
1166.573, 162.072
1167.801, 15.059
1169.028, 49.536
1170.254, 164.867
1171.481, 12.134
1172.708, 116.199
1173.934, 135.949
1175.160, 0.332
1176.386, 84.391
1177.612, 243.508
1178.837, 67.613
1180.063, 242.474
1181.288, 110.927
1182.513, 94.827
1183.738, 223.272
1184.962, 147.820
1186.187, 171.660
1187.411, 176.565
1188.635, 130.680
1189.859, 304.773
1191.083, 49.804
1192.306, 153.535
1193.529, 197.481
1194.753, 91.713
1195.976, 136.009
1197.198, 270.203
1198.421, 94.106
1199.643, 318.071
1200.866, 66.045
1202.088, 269.590
1203.310, 293.279
1204.531, 70.094
1205.753, 273.562
1206.974, 207.269
1208.195, 111.125
1209.416, 254.520
1210.637, 78.074
1211.857, 172.959
1213.078, 196.277
1214.298, 120.568
1215.518, 203.833
1216.738, 257.643
1217.958, 131.017
1219.177, 244.242
1220.396, 317.996
1221.615, 141.510
1222.834, 295.096
1224.053, 238.628
1225.272, 162.536
1226.490, 385.791
1227.708, 209.824
1228.926, 262.516
1230.144, 206.711
1231.362, 230.054
1232.579, 241.688
1233.796, 196.274
1235.013, 259.128
1236.230, 201.964
1237.447, 185.599
1238.664, 238.398
1239.880, 231.181
1241.096, 264.752
1242.312, 260.346
1243.528, 270.219
1244.744, 222.924
1245.959, 235.608
1247.174, 178.274
1248.389, 270.919
1249.604, 281.440
1250.819, 104.021
1252.033, 356.581
1253.248, 279.120
1254.462, 201.635
1255.676, 384.127
1256.890, 217.147
1258.103, 308.510
1259.317, 370.928
1260.530, 258.807
1261.743, 331.169
1262.956, 16.565
1264.169, 275.277
1265.381, 307.497
1266.594, 99.763
1267.806, 221.868
1269.018, 223.939
1270.229, 209.229
1271.441, 301.224
1272.652, 243.144
1273.864, 85.144
1275.075, 206.944
1276.286, 265.370
1277.496, 107.171
1278.707, 137.119
1279.917, 246.156
1281.127, 267.700
1282.337, 211.533
1283.547, 42.982
1284.757, 134.396
1285.966, 45.770
1287.175, 137.330
1288.385, 156.147
1289.593, 7.412
1290.802, 178.586
1292.011, 189.726
1293.219, 29.168
1294.427, 121.885
1295.635, 22.893
1296.843, 165.155
1298.051, 116.005
1299.258, 113.103
1300.465, 77.699
1301.672, 97.745
1302.879, 48.472
1304.086, 119.188
1305.292, 38.763
1306.499, 9.350
1307.705, 220.138
1308.911, 89.358
1310.117, 191.065
1311.322, 101.433
1312.528, 88.216
1313.733, 151.589
1314.938, 61.678
1316.143, 1.877
1317.348, 241.320
1318.552, 38.573
1319.757, 151.466
1320.961, 219.907
1322.165, 30.218
1323.369, 199.680
1324.572, 79.313
1325.776, 20.907
1326.979, 308.775
1328.182, 21.654
1329.385, 97.974
1330.588, 267.562
1331.790, 67.118
1332.993, 156.629
1334.195, 156.087
1335.397, 55.527
1336.599, 274.534
1337.801, 173.879
1339.002, 113.188
1340.203, 102.238
1341.404, 111.428
1342.605, 160.625
1343.806, 139.552
1345.007, 21.328
1346.207, 297.357
1347.407, 186.391
1348.607, 4.611
1349.807, 263.934
1351.007, 162.851
1352.207, 121.734
1353.406, 240.345
1354.605, 179.165
1355.804, 37.557
1357.003, 276.306
1358.201, 65.032
1359.400, 313.487
1360.598, 102.157
1361.796, 180.800
1362.994, 209.201
1364.192, 97.799
1365.389, 126.373
1366.587, 110.495
1367.784, 113.272
1368.981, 71.795
1370.178, 160.283
1371.374, 58.786
1372.571, 207.281
1373.767, 46.010
1374.963, 114.492
1376.159, 192.896
1377.355, 121.235
1378.550, 221.879
1379.746, 252.396
1380.941, 72.980
1382.136, 323.517
1383.331, 294.011
1384.526, 74.286
1385.720, 394.705
1386.914, 274.512
1388.109, 274.752
1389.303, 375.003
1390.496, 235.263
1391.690, 215.526
1392.883, 370.595
1394.077, 209.997
1395.270, 220.008
1396.463, 259.899
1397.655, 248.791
1398.848, 388.576
1400.040, 97.248
1401.232, 227.165
1402.425, 335.108
1403.616, 102.642
1404.808, 281.634
1405.999, 377.631
1407.191, 230.691
1408.382, 376.918
1409.573, 155.426
1410.764, 240.090
1411.954, 336.543
1413.145, 17.171
1414.335, 268.217
1415.525, 284.939
1416.715, 120.771
1417.905, 247.368
1419.094, 161.621
1420.283, 121.619
1421.473, 282.633
1422.662, 259.490
1423.850, 240.913
1425.039, 391.473
1426.228, 157.924
1427.416, 204.997
1428.604, 181.005
1429.792, 67.706
1430.980, 153.690
1432.167, 260.446
1433.355, 110.962
1434.542, 302.773
1435.729, 169.854
1436.916, 266.579
1438.103, 260.990
1439.289, 13.438
1440.475, 252.812
1441.662, 429.664
1442.848, 125.026
1444.033, 280.369
1445.219, 295.320
1446.405, 80.199
1447.590, 213.745
1448.775, 279.558
1449.960, 26.142
1451.145, 390.887
1452.329, 155.439
1453.514, 221.526
1454.698, 407.460
1455.882, 193.229
1457.066, 278.931
1458.250, 334.468
1459.433, 169.849
1460.616, 423.728
1461.800, 187.553
1462.983, 202.465
1464.165, 437.393
1465.348, 151.864
1466.531, 248.131
1467.713, 383.004
1468.895, 147.714
1470.077, 222.626
1471.259, 377.988
1472.440, 213.492
1473.622, 179.015
1474.803, 353.768
1475.984, 179.162
1477.165, 194.709
1478.346, 340.263
1479.526, 171.187
1480.707, 356.566
1481.887, 201.916
1483.067, 297.137
1484.247, 252.556
1485.426, 6.910
1486.606, 332.272
1487.785, 357.585
1488.964, 122.861
1490.143, 208.148
1491.322, 253.528
1492.501, 138.949
1493.679, 234.834
1494.858, 70.812
1496.036, 276.849
1497.214, 332.947
1498.391, 99.122
1499.569, 245.501
1500.746, 142.143
1501.924, 28.946
1503.101, 315.983
1504.277, 183.288
1505.454, 40.898
1506.631, 388.855
1507.807, 27.169
1508.983, 195.924
1510.159, 405.205
1511.335, 4.897
1512.511, 235.749
1513.686, 297.311
1514.862, 0.030
1516.037, 299.167
1517.212, 93.549
1518.387, 0.000
##END=



