##NAMES=Lawsonite
##RRUFFID=R050042
##IDEAL CHEMISTRY=CaAl_2_Si_2_O_7_(OH)_2_&#183;H_2_O
##LOCALITY=California, USA
##OWNER=RRUFF
##SOURCE=University of Arizona Mineral Museum
##DESCRIPTION=White to colorless fragments
##STATUS=The identification of this mineral has been confirmed by X-ray diffraction and chemical analysis
##URL=rruff.info/R050042
##MEASURED CHEMISTRY=(Ca_0.98_Fe^2+^_0.02_)Al_2.00_Si_2.00_O_7_(OH)_2_Â·H_2_O
##PIN_ID=L00444
##ORIENTATION=Laser parallel to a* (1 0 0). Fiducial mark perpendicular to laser is parallel to b [0 1 0]
139.655, 0.000
141.042, 28.602
142.429, 111.410
143.816, 152.254
145.202, 171.964
146.589, 270.179
147.975, 378.838
149.360, 370.092
150.746, 430.236
152.131, 460.395
153.516, 494.779
154.901, 466.739
156.286, 468.810
157.670, 500.315
159.055, 537.265
160.439, 552.025
161.822, 568.633
163.206, 572.417
164.589, 533.179
165.972, 606.243
167.355, 543.763
168.738, 715.360
170.121, 528.018
171.503, 610.443
172.885, 465.536
174.267, 524.378
175.648, 679.763
177.029, 601.511
178.411, 616.699
179.792, 583.882
181.172, 677.104
182.553, 688.577
183.933, 773.945
185.313, 694.366
186.693, 744.931
188.072, 672.291
189.452, 625.157
190.831, 656.743
192.210, 680.467
193.588, 468.235
194.967, 578.021
196.345, 381.816
197.723, 451.608
199.101, 356.405
200.479, 403.259
201.856, 318.267
203.233, 347.618
204.610, 251.775
205.987, 182.633
207.363, 195.042
208.740, 147.840
210.116, 151.546
211.492, 123.083
212.867, 112.391
214.243, 74.481
215.618, 39.932
216.993, 3.712
218.367, 34.019
219.742, 34.985
221.116, 48.176
222.490, 130.516
223.864, 50.779
225.238, 112.960
226.611, 78.065
227.985, 117.105
229.357, 76.090
230.730, 0.095
232.103, 21.246
233.475, 178.842
234.847, 191.040
236.219, 264.515
237.591, 314.318
238.962, 516.048
240.334, 625.073
241.705, 902.482
243.075, 1127.282
244.446, 1243.901
245.816, 1506.465
247.186, 1698.927
248.556, 2041.289
249.926, 2329.549
251.296, 2613.702
252.665, 3076.748
254.034, 3356.685
255.403, 3756.502
256.771, 4206.615
258.140, 4736.817
259.508, 5258.078
260.876, 5810.320
262.244, 6613.863
263.611, 7448.456
264.978, 8574.604
266.346, 9539.073
267.712, 10792.743
269.079, 12256.772
270.446, 13584.257
271.812, 15345.622
273.178, 16738.678
274.544, 17681.320
275.909, 18776.652
277.275, 18571.090
278.640, 18399.812
280.005, 17029.908
281.369, 15868.079
282.734, 13965.511
284.098, 12452.308
285.462, 10748.004
286.826, 9233.011
288.190, 8197.979
289.553, 6912.907
290.916, 5987.790
292.279, 5132.627
293.642, 4407.421
295.004, 4002.169
296.367, 3366.874
297.729, 3071.537
299.091, 2553.164
300.452, 2156.750
301.814, 1968.296
303.175, 1747.811
304.536, 1663.837
305.897, 1432.211
307.257, 1269.724
308.618, 1145.247
309.978, 1004.740
311.338, 932.144
312.698, 850.663
314.057, 875.616
315.416, 757.643
316.776, 750.499
318.134, 741.175
319.493, 603.670
320.851, 686.981
322.210, 546.105
323.568, 696.036
324.925, 905.751
326.283, 990.227
327.640, 630.457
328.998, 615.458
330.354, 723.248
331.711, 575.840
333.068, 579.232
334.424, 579.432
335.780, 471.444
337.136, 547.251
338.491, 498.853
339.847, 612.244
341.202, 451.417
342.557, 591.319
343.912, 491.865
345.266, 474.958
346.621, 532.643
347.975, 590.910
349.329, 634.895
350.682, 683.280
352.036, 698.460
353.389, 762.155
354.742, 724.815
356.095, 745.439
357.448, 737.765
358.800, 684.316
360.152, 744.385
361.504, 685.378
362.856, 789.109
364.208, 776.002
365.559, 707.506
366.910, 791.097
368.261, 614.206
369.612, 785.688
370.962, 539.221
372.313, 605.285
373.663, 522.336
375.012, 572.973
376.362, 539.421
377.712, 333.258
379.061, 432.372
380.410, 257.166
381.758, 235.543
383.107, 224.816
384.455, 137.219
385.804, 187.408
387.151, 58.561
388.499, 143.758
389.847, 15.099
391.194, 40.069
392.541, 32.738
393.888, 127.699
395.235, 36.899
396.581, 76.836
397.927, 27.558
399.273, 75.752
400.619, 146.829
401.965, 14.173
403.310, 78.502
404.655, 21.077
406.000, 23.588
407.345, 80.962
408.689, 41.404
410.034, 131.285
411.378, 97.931
412.722, 8.902
414.065, 192.202
415.409, 139.517
416.752, 140.277
418.095, 70.247
419.438, 167.168
420.781, 184.043
422.123, 219.870
423.465, 204.644
424.807, 216.360
426.149, 317.014
427.490, 405.600
428.832, 338.083
430.173, 512.424
431.514, 548.664
432.855, 540.790
434.195, 695.785
435.535, 660.684
436.875, 825.488
438.215, 1142.188
439.555, 1165.829
440.894, 1426.437
442.234, 1495.006
443.573, 1796.543
444.911, 2123.054
446.250, 2227.540
447.588, 2711.004
448.927, 3023.452
450.265, 3545.883
451.602, 3978.302
452.940, 4710.703
454.277, 5433.756
455.614, 6266.125
456.951, 7308.541
458.288, 7800.877
459.624, 8493.198
460.961, 8785.505
462.297, 8397.898
463.633, 7991.878
464.968, 6935.347
466.304, 6411.551
467.639, 5519.837
468.974, 4671.940
470.309, 4088.585
471.643, 3340.582
472.978, 2964.915
474.312, 2568.786
475.646, 2281.928
476.980, 1987.715
478.313, 1690.450
479.647, 1611.135
480.980, 1433.698
482.313, 1315.285
483.645, 1209.496
484.978, 1094.937
486.310, 1070.432
487.642, 927.831
488.974, 919.187
490.306, 868.436
491.637, 800.705
492.968, 815.698
494.299, 760.661
495.630, 806.583
496.961, 818.015
498.291, 750.731
499.622, 729.226
500.952, 708.157
502.281, 769.380
503.611, 681.161
504.940, 733.495
506.269, 754.752
507.598, 745.226
508.927, 745.946
510.256, 728.828
511.584, 669.685
512.912, 744.554
514.240, 797.403
515.568, 890.247
516.895, 705.084
518.222, 860.899
519.549, 890.709
520.876, 865.500
522.203, 967.271
523.529, 843.023
524.856, 1079.754
526.182, 975.485
527.508, 1054.198
528.833, 1102.896
530.159, 1162.579
531.484, 1231.953
532.809, 1279.628
534.134, 1474.953
535.458, 1544.487
536.782, 1503.884
538.107, 1792.422
539.431, 1783.385
540.754, 1931.458
542.078, 2260.411
543.401, 2289.337
544.724, 2617.395
546.047, 2746.213
547.370, 3223.121
548.692, 3601.677
550.015, 3817.593
551.337, 4440.449
552.659, 4943.992
553.980, 5871.641
555.302, 6858.951
556.623, 7829.919
557.944, 9283.992
559.265, 10035.060
560.586, 11151.679
561.906, 12136.637
563.226, 11697.574
564.546, 11814.497
565.866, 10301.521
567.186, 9382.352
568.505, 8089.910
569.824, 6787.619
571.143, 6006.232
572.462, 4851.662
573.781, 4221.227
575.099, 3670.359
576.417, 3109.509
577.735, 2817.773
579.053, 2267.170
580.370, 2216.721
581.688, 1726.499
583.005, 1536.219
584.322, 1405.995
585.639, 1148.197
586.955, 1170.779
588.271, 943.086
589.588, 700.815
590.903, 663.544
592.219, 530.270
593.535, 587.996
594.850, 514.723
596.165, 283.449
597.480, 348.177
598.794, 210.905
600.109, 451.637
601.423, 219.369
602.737, 185.104
604.051, 237.841
605.365, 126.581
606.678, 134.323
607.991, 90.068
609.304, 188.550
610.617, 17.301
611.930, 19.944
613.242, 124.808
614.554, 0.438
615.866, 80.317
617.178, 28.077
618.490, 27.841
619.801, 2.390
621.112, 43.619
622.423, 32.861
623.734, 90.109
625.045, 129.391
626.355, 45.279
627.665, 102.044
628.975, 30.597
630.285, 58.756
631.594, 50.124
632.904, 35.505
634.213, 20.108
635.522, 69.729
636.831, 17.358
638.139, 29.995
639.447, 27.642
640.756, 73.298
642.063, 222.964
643.371, 123.639
644.679, 231.325
645.986, 259.021
647.293, 228.727
648.600, 326.445
649.907, 219.173
651.213, 335.915
652.519, 400.668
653.825, 375.081
655.131, 513.173
656.437, 580.255
657.743, 608.065
659.048, 725.967
660.353, 792.187
661.658, 906.078
662.962, 1032.004
664.267, 1132.891
665.571, 1369.297
666.875, 1352.154
668.179, 1793.084
669.483, 1802.350
670.786, 1933.900
672.089, 2308.858
673.392, 2623.625
674.695, 3144.623
675.998, 3429.506
677.300, 3850.754
678.602, 4681.795
679.904, 5152.850
681.206, 6283.920
682.508, 7168.826
683.809, 8549.925
685.111, 10451.109
686.412, 12172.236
687.712, 14863.383
689.013, 18440.795
690.313, 21841.973
691.614, 26973.168
692.914, 30284.377
694.213, 33825.605
695.513, 35416.852
696.812, 34208.125
698.112, 31629.414
699.411, 27400.727
700.709, 23222.064
702.008, 18753.436
703.306, 15404.825
704.604, 12476.252
705.902, 10147.703
707.200, 8409.194
708.498, 6930.734
709.795, 5582.323
711.092, 5073.988
712.389, 3935.686
713.686, 3417.441
714.983, 2979.247
716.279, 2501.110
717.575, 2403.053
718.871, 1865.040
720.167, 1757.088
721.463, 1419.171
722.758, 1261.289
724.053, 1213.470
725.348, 905.683
726.643, 1017.971
727.937, 880.287
729.232, 512.647
730.526, 775.032
731.820, 547.442
733.114, 649.880
734.407, 472.349
735.701, 414.842
736.994, 487.359
738.287, 314.903
739.579, 372.471
740.872, 251.062
742.164, 204.678
743.456, 360.313
744.748, 202.973
746.040, 307.652
747.332, 166.354
748.623, 178.074
749.914, 251.817
751.205, 186.581
752.496, 125.367
753.787, 206.175
755.077, 152.003
756.367, 190.853
757.657, 131.725
758.947, 134.619
760.236, 217.537
761.526, 121.475
762.815, 322.436
764.104, 4.581
765.393, 228.416
766.681, 241.437
767.969, 223.811
769.258, 266.876
770.546, 165.901
771.833, 363.012
773.121, 356.146
774.408, 109.305
775.695, 412.384
776.982, 303.882
778.269, 295.899
779.556, 525.159
780.842, 272.306
782.128, 475.606
783.414, 504.338
784.700, 307.688
785.986, 468.675
787.271, 310.094
788.556, 332.216
789.841, 345.667
791.126, 399.146
792.411, 362.648
793.695, 166.177
794.979, 359.731
796.263, 223.312
797.547, 176.919
798.831, 210.551
800.114, 154.211
801.397, 37.896
802.680, 191.608
803.963, 55.346
805.246, 89.110
806.528, 22.900
807.810, 13.283
809.092, 29.447
810.374, 93.598
811.656, 38.239
812.937, 42.104
814.218, 34.005
815.499, 49.897
816.780, 109.152
818.061, 47.779
819.341, 118.262
820.621, 44.325
821.901, 59.620
823.181, 173.409
824.461, 12.481
825.740, 88.536
827.019, 84.586
828.299, 39.358
829.577, 86.667
830.856, 2.698
832.134, 11.294
833.413, 5.315
834.691, 99.363
835.969, 86.562
837.246, 7.539
838.524, 1.665
839.801, 25.817
841.078, 119.997
842.355, 135.796
843.632, 118.434
844.908, 182.690
846.185, 26.975
847.461, 221.287
848.736, 45.627
850.012, 180.021
851.288, 344.441
852.563, 118.891
853.838, 263.368
855.113, 207.871
856.388, 322.403
857.662, 406.962
858.937, 241.549
860.211, 426.162
861.485, 330.818
862.758, 345.501
864.032, 380.242
865.305, 305.010
866.578, 369.804
867.851, 394.625
869.124, 349.473
870.397, 514.381
871.669, 329.315
872.941, 544.275
874.213, 479.278
875.485, 584.308
876.757, 699.362
878.028, 655.565
879.299, 699.553
880.570, 664.688
881.841, 679.847
883.112, 715.032
884.382, 920.242
885.652, 905.479
886.922, 1020.739
888.192, 976.026
889.462, 1101.340
890.731, 1156.677
892.000, 1292.039
893.269, 1407.427
894.538, 1342.840
895.807, 1578.278
897.075, 1693.741
898.344, 1769.241
899.612, 2144.766
900.880, 2110.314
902.147, 2245.890
903.415, 2771.489
904.682, 2597.121
905.949, 2842.777
907.216, 3078.458
908.483, 3384.167
909.749, 3869.900
911.016, 3785.658
912.282, 4581.441
913.548, 4757.248
914.814, 4903.082
916.079, 5458.943
917.344, 5664.093
918.610, 6530.001
919.875, 6985.934
921.139, 7731.896
922.404, 8547.880
923.668, 9373.893
924.932, 10419.926
926.196, 12085.986
927.460, 13192.069
928.724, 15768.182
929.987, 17044.324
931.251, 20060.494
932.514, 22846.709
933.776, 25612.973
935.039, 28359.264
936.301, 29875.600
937.564, 31211.951
938.826, 31208.344
940.088, 29244.771
941.349, 27541.229
942.611, 24337.705
943.872, 21364.207
945.133, 18730.732
946.394, 15657.280
947.655, 13403.850
948.915, 11780.442
950.176, 9757.058
951.436, 8603.696
952.696, 7260.355
953.955, 6417.036
955.215, 5763.740
956.474, 4850.463
957.734, 4447.211
958.993, 4083.980
960.251, 3350.124
961.510, 3455.626
962.768, 2848.174
964.027, 2545.029
965.285, 2361.907
966.542, 2067.312
967.800, 1918.808
969.057, 1600.702
970.315, 1657.673
971.572, 1629.158
972.829, 1234.232
974.085, 1401.268
975.342, 1060.001
976.598, 976.484
977.854, 1002.578
979.110, 755.920
980.366, 844.005
981.621, 817.332
982.877, 544.298
984.132, 761.696
985.387, 518.937
986.641, 626.196
987.896, 667.180
989.150, 404.489
990.404, 561.747
991.658, 489.097
992.912, 586.478
994.166, 519.311
995.419, 426.729
996.672, 544.171
997.925, 441.631
999.178, 399.108
1000.431, 622.646
1001.683, 470.161
1002.936, 577.697
1004.188, 545.248
1005.440, 502.820
1006.691, 460.430
1007.943, 468.058
1009.194, 505.708
1010.445, 603.377
1011.696, 424.216
1012.947, 551.934
1014.197, 496.705
1015.448, 654.459
1016.698, 552.271
1017.948, 490.095
1019.198, 647.948
1020.447, 673.596
1021.697, 521.482
1022.946, 599.393
1024.195, 751.052
1025.444, 618.989
1026.692, 656.963
1027.941, 585.272
1029.189, 593.273
1030.437, 701.516
1031.685, 639.549
1032.933, 767.631
1034.180, 595.727
1035.427, 633.832
1036.675, 751.991
1037.922, 740.333
1039.168, 938.515
1040.415, 1076.723
1041.661, 1024.941
1042.907, 1343.171
1044.153, 1391.578
1045.399, 1499.832
1046.645, 1828.100
1047.890, 1828.895
1049.135, 1977.182
1050.380, 1955.483
1051.625, 1803.940
1052.870, 1822.262
1054.114, 1432.207
1055.359, 1410.547
1056.603, 1368.896
1057.847, 967.978
1059.090, 1016.347
1060.334, 844.837
1061.577, 823.354
1062.820, 831.753
1064.063, 681.024
1065.306, 739.438
1066.549, 676.938
1067.791, 466.512
1069.033, 584.954
1070.275, 523.403
1071.517, 392.054
1072.759, 290.686
1074.000, 259.150
1075.241, 487.943
1076.482, 376.563
1077.723, 295.294
1078.964, 344.007
1080.204, 122.497
1081.445, 390.991
1082.685, 259.489
1083.925, 208.529
1085.164, 247.039
1086.404, 265.552
1087.643, 334.632
1088.883, 283.159
1090.122, 151.716
1091.360, 200.244
1092.599, 129.706
1093.837, 67.963
1095.076, 156.492
1096.314, 145.021
1097.552, 313.884
1098.789, 152.412
1100.027, 10.940
1101.264, 229.648
1102.501, 68.178
1103.738, 136.718
1104.975, 165.244
1106.211, 93.768
1107.448, 112.889
1108.684, 111.408
1109.920, 19.929
1111.156, 118.820
1112.391, 27.364
1113.627, 26.548
1114.862, 255.088
1116.097, 86.368
1117.332, 124.306
1118.566, 82.823
1119.801, 51.553
1121.035, 160.618
1122.269, 229.162
1123.503, 227.701
1124.737, 196.492
1125.971, 54.937
1127.204, 274.896
1128.437, 16.539
1129.670, 2.071
1130.903, 180.672
1132.136, 0.751
1133.368, 150.780
1134.600, 129.313
1135.832, 122.159
1137.064, 248.354
1138.296, 27.214
1139.527, 45.667
1140.759, 216.729
1141.990, 184.621
1143.221, 144.014
1144.452, 172.994
1145.682, 51.405
1146.912, 259.873
1148.143, 91.606
1149.373, 16.836
1150.602, 195.614
1151.832, 23.835
1153.062, 202.785
1154.291, 35.739
1155.520, 44.410
1156.749, 214.289
1157.978, 122.650
1159.206, 38.851
1160.434, 192.723
1161.663, 98.866
1162.891, 180.429
1164.118, 88.238
1165.346, 96.253
1166.573, 177.161
1167.801, 103.546
1169.028, 114.351
1170.254, 154.647
1171.481, 37.312
1172.708, 300.540
1173.934, 573.912
1175.160, 32.032
1176.386, 210.075
1177.612, 39.669
1178.837, 167.359
1180.063, 193.860
1181.288, 91.934
1182.513, 179.566
1183.738, 207.208
1184.962, 64.969
1186.187, 202.538
1187.411, 113.817
1188.635, 121.345
1189.859, 319.483
1191.083, 78.002
1192.306, 185.463
1193.529, 173.619
1194.753, 1.035
1195.976, 218.747
1197.198, 247.817
1198.421, 95.143
1199.643, 323.200
1200.866, 21.320
1202.088, 298.559
1203.310, 246.123
1204.531, 54.820
1205.753, 391.980
1206.974, 121.198
1208.195, 118.608
1209.416, 235.691
1210.637, 53.110
1211.857, 170.150
1213.078, 267.404
1214.298, 106.125
1215.518, 273.070
1216.738, 281.001
1217.958, 117.896
1219.177, 124.762
1220.396, 181.828
1221.615, 99.332
1222.834, 136.479
1224.053, 112.964
1225.272, 119.959
1226.490, 237.410
1227.708, 204.730
1228.926, 191.374
1230.144, 89.637
1231.362, 286.606
1232.579, 373.538
1233.796, 92.558
1235.013, 289.244
1236.230, 185.812
1237.447, 232.426
1238.664, 178.852
1239.880, 95.269
1241.096, 291.648
1242.312, 208.010
1243.528, 124.653
1244.744, 270.972
1245.959, 227.267
1247.174, 164.407
1248.389, 350.658
1249.604, 206.884
1250.819, 303.079
1252.033, 279.250
1253.248, 105.514
1254.462, 241.636
1255.676, 257.730
1256.890, 134.611
1258.103, 270.659
1259.317, 106.668
1260.530, 223.382
1261.743, 269.328
1262.956, 30.662
1264.169, 316.678
1265.381, 172.524
1266.594, 119.845
1267.806, 305.638
1269.018, 281.376
1270.229, 177.978
1271.441, 323.651
1272.652, 66.296
1273.864, 281.831
1275.075, 216.384
1276.286, 221.810
1277.496, 227.373
1278.707, 12.537
1279.917, 277.859
1281.127, 313.473
1282.337, 31.141
1283.547, 136.400
1284.757, 271.463
1285.966, 16.473
1287.175, 181.846
1288.385, 155.088
1289.593, 99.979
1290.802, 204.829
1292.011, 189.639
1293.219, 174.620
1294.427, 173.316
1295.635, 108.005
1296.843, 223.090
1298.051, 87.713
1299.258, 27.710
1300.465, 116.817
1301.672, 31.303
1302.879, 175.746
1304.086, 140.154
1305.292, 8.635
1306.499, 145.669
1307.705, 42.896
1308.911, 112.899
1310.117, 213.441
1311.322, 2.460
1312.528, 41.592
1313.733, 207.830
1314.938, 1.800
1316.143, 165.725
1317.348, 195.881
1318.552, 50.266
1319.757, 123.521
1320.961, 136.950
1322.165, 10.656
1323.369, 274.157
1324.572, 102.234
1325.776, 111.300
1326.979, 234.784
1328.182, 121.768
1329.385, 171.602
1330.588, 224.763
1331.790, 21.946
1332.993, 271.293
1334.195, 84.499
1335.397, 47.663
1336.599, 310.629
1337.801, 73.720
1339.002, 256.774
1340.203, 127.271
1341.404, 10.254
1342.605, 233.194
1343.806, 65.957
1345.007, 58.830
1346.207, 310.015
1347.407, 122.781
1348.607, 15.513
1349.807, 237.486
1351.007, 0.146
1352.207, 132.659
1353.406, 245.121
1354.605, 117.675
1355.804, 199.333
1357.003, 141.826
1358.201, 4.290
1359.400, 276.500
1360.598, 38.902
1361.796, 251.271
1362.994, 253.444
1364.192, 145.592
1365.389, 177.891
1366.587, 143.479
1367.784, 92.061
1368.981, 134.051
1370.178, 56.255
1371.374, 68.469
1372.571, 230.671
1373.767, 2.871
1374.963, 104.523
1376.159, 106.735
1377.355, 11.091
1378.550, 150.531
1379.746, 173.666
1380.941, 154.935
1382.136, 348.955
1383.331, 192.405
1384.526, 206.061
1385.720, 460.009
1386.914, 123.719
1388.109, 317.552
1389.303, 300.719
1390.496, 44.471
1391.690, 367.774
1392.883, 320.715
1394.077, 291.929
1395.270, 305.250
1396.463, 168.156
1397.655, 211.350
1398.848, 283.293
1400.040, 46.587
1401.232, 289.834
1402.425, 229.599
1403.616, 50.410
1404.808, 373.146
1405.999, 282.873
1407.191, 154.954
1408.382, 397.831
1409.573, 0.467
1410.764, 312.916
1411.954, 238.983
1413.145, 29.130
1414.335, 351.312
1415.525, 329.206
1416.715, 167.285
1417.905, 335.962
1419.094, 206.742
1420.283, 125.718
1421.473, 370.400
1422.662, 151.916
1423.850, 71.662
1425.039, 330.639
1426.228, 88.114
1427.416, 259.828
1428.604, 166.146
1429.792, 25.426
1430.980, 306.069
1432.167, 157.251
1433.355, 166.216
1434.542, 355.265
1435.729, 66.270
1436.916, 235.314
1438.103, 252.800
1439.289, 13.569
1440.475, 344.453
1441.662, 252.714
1442.848, 102.151
1444.033, 322.907
1445.219, 223.438
1446.405, 113.168
1447.590, 341.553
1448.775, 119.343
1449.960, 198.720
1451.145, 414.216
1452.329, 45.672
1453.514, 384.833
1454.698, 185.250
1455.882, 84.896
1457.066, 273.189
1458.250, 243.192
1459.433, 163.111
1460.616, 362.643
1461.800, 210.436
1462.983, 269.962
1464.165, 417.634
1465.348, 56.640
1466.531, 272.078
1467.713, 341.127
1468.895, 207.789
1470.077, 306.870
1471.259, 216.070
1472.440, 224.897
1473.622, 363.120
1474.803, 242.219
1475.984, 261.940
1477.165, 330.415
1478.346, 280.097
1479.526, 199.114
1480.707, 368.812
1481.887, 206.996
1483.067, 356.621
1484.247, 126.229
1485.426, 165.830
1486.606, 475.516
1487.785, 326.385
1488.964, 195.850
1490.143, 355.283
1491.322, 74.723
1492.501, 314.176
1493.679, 313.687
1494.858, 53.036
1496.036, 352.866
1497.214, 282.810
1498.391, 82.856
1499.569, 472.995
1500.746, 73.231
1501.924, 223.553
1503.101, 384.026
1504.277, 24.588
1505.454, 345.565
1506.631, 397.075
1507.807, 8.881
1508.983, 331.054
1510.159, 313.640
1511.335, 3.302
1512.511, 400.338
1513.686, 184.366
1514.862, 139.594
1516.037, 393.614
1517.212, 55.205
1518.387, 152.238
1519.561, 420.340
1520.736, 0.846
1521.910, 0.000
##END=



