##NAMES=Lawsonite
##RRUFFID=R050042
##IDEAL CHEMISTRY=CaAl_2_Si_2_O_7_(OH)_2_&#183;H_2_O
##LOCALITY=California, USA
##OWNER=RRUFF
##SOURCE=University of Arizona Mineral Museum
##DESCRIPTION=White to colorless fragments
##STATUS=The identification of this mineral has been confirmed by X-ray diffraction and chemical analysis
##URL=rruff.info/R050042
##MEASURED CHEMISTRY=(Ca_0.98_Fe^2+^_0.02_)Al_2.00_Si_2.00_O_7_(OH)_2_Â·H_2_O
##PIN_ID=L00478
##ORIENTATION=Laser parallel to -b* (0 -1 0). Fiducial mark perpendicular to laser is parallel to c [0 0 1]
146.589, 0.000
147.975, 1.738
149.360, 120.295
150.746, 124.840
152.131, 72.029
153.516, 250.637
154.901, 248.730
156.286, 243.710
157.670, 255.114
159.055, 208.838
160.439, 227.501
161.822, 335.016
163.206, 396.553
164.589, 322.440
165.972, 443.304
167.355, 297.895
168.738, 433.832
170.121, 374.791
171.503, 382.743
172.885, 348.268
174.267, 447.175
175.648, 398.270
177.029, 408.739
178.411, 465.175
179.792, 466.583
181.172, 513.213
182.553, 451.204
183.933, 433.840
185.313, 400.515
186.693, 394.285
188.072, 407.359
189.452, 383.070
190.831, 276.542
192.210, 403.099
193.588, 307.007
194.967, 341.289
196.345, 238.530
197.723, 233.655
199.101, 217.293
200.479, 212.678
201.856, 124.391
203.233, 145.129
204.610, 132.881
205.987, 76.633
207.363, 80.372
208.740, 27.086
210.116, 50.774
211.492, 28.569
212.867, 83.944
214.243, 26.164
215.618, 41.198
216.993, 27.429
218.367, 59.125
219.742, 22.757
221.116, 13.525
222.490, 15.426
223.864, 17.454
225.238, 35.396
226.611, 14.131
227.985, 34.754
229.357, 88.330
230.730, 33.000
232.103, 130.762
233.475, 71.612
234.847, 78.538
236.219, 88.530
237.591, 93.806
238.962, 113.931
240.334, 136.809
241.705, 169.960
243.075, 163.109
244.446, 220.243
245.816, 238.351
247.186, 241.420
248.556, 360.441
249.926, 273.406
251.296, 281.307
252.665, 334.143
254.034, 389.909
255.403, 439.599
256.771, 422.210
258.140, 486.736
259.508, 554.171
260.876, 523.502
262.244, 681.663
263.611, 743.657
264.978, 891.532
266.346, 1042.252
267.712, 1254.841
269.079, 1550.332
270.446, 1721.746
271.812, 2072.091
273.178, 2484.375
274.544, 2679.598
275.909, 3204.767
277.275, 3182.890
278.640, 3430.137
280.005, 3370.170
281.369, 3347.262
282.734, 3165.378
284.098, 3036.430
285.462, 2889.695
286.826, 2721.567
288.190, 2705.540
289.553, 2505.538
290.916, 2473.122
292.279, 2376.397
293.642, 2247.217
295.004, 2207.030
296.367, 1949.836
297.729, 1946.634
299.091, 1839.417
300.452, 1731.186
301.814, 1693.938
303.175, 1670.675
304.536, 1653.397
305.897, 1640.104
307.257, 1625.485
308.618, 1618.474
309.978, 1596.136
311.338, 1637.845
312.698, 1616.105
314.057, 1705.983
315.416, 1734.928
316.776, 1699.569
318.134, 1841.470
319.493, 1870.146
320.851, 2034.576
322.210, 2056.109
323.568, 2207.369
324.925, 2395.554
326.283, 2387.614
327.640, 2564.812
328.998, 2504.732
330.354, 2522.182
331.711, 2484.840
333.068, 2378.766
334.424, 2511.043
335.780, 2362.667
337.136, 2450.849
338.491, 2362.822
339.847, 2474.633
341.202, 2509.276
342.557, 2562.739
343.912, 2686.846
345.266, 2642.756
346.621, 2717.440
347.975, 2897.922
349.329, 2937.166
350.682, 3081.248
352.036, 3042.289
353.389, 3083.145
354.742, 3298.479
356.095, 3247.278
357.448, 3346.628
358.800, 3332.087
360.152, 3484.091
361.504, 3344.058
362.856, 3491.938
364.208, 3415.788
365.559, 3429.039
366.910, 3248.462
368.261, 3096.779
369.612, 3017.573
370.962, 2790.416
372.313, 2597.495
373.663, 2394.971
375.012, 2195.438
376.362, 2001.063
377.712, 1807.126
379.061, 1636.469
380.410, 1461.561
381.758, 1304.127
383.107, 1175.955
384.455, 980.344
385.804, 914.596
387.151, 723.707
388.499, 725.818
389.847, 555.511
391.194, 436.584
392.541, 531.321
393.888, 399.339
395.235, 428.400
396.581, 476.916
397.927, 472.503
399.273, 475.163
400.619, 488.851
401.965, 605.688
403.310, 541.700
404.655, 520.932
406.000, 401.115
407.345, 365.518
408.689, 284.978
410.034, 78.432
411.378, 71.361
412.722, 50.902
414.065, 91.548
415.409, 21.805
416.752, 80.870
418.095, 66.952
419.438, 120.081
420.781, 139.258
422.123, 165.465
423.465, 101.745
424.807, 56.064
426.149, 24.428
427.490, 19.193
428.832, 79.820
430.173, 30.443
431.514, 134.052
432.855, 99.659
434.195, 195.251
435.535, 320.853
436.875, 345.460
438.215, 585.054
439.555, 638.652
440.894, 829.235
442.234, 970.797
443.573, 1027.293
444.911, 1169.716
446.250, 1089.040
447.588, 1324.229
448.927, 1202.333
450.265, 1183.396
451.602, 1193.439
452.940, 1190.466
454.277, 1218.675
455.614, 1219.672
456.951, 1256.498
458.288, 1238.493
459.624, 1182.480
460.961, 1189.460
462.297, 998.433
463.633, 966.397
464.968, 840.354
466.304, 784.304
467.639, 667.246
468.974, 569.181
470.309, 514.108
471.643, 444.028
472.978, 342.912
474.312, 291.766
475.646, 196.585
476.980, 252.371
478.313, 140.124
479.647, 156.842
480.980, 176.525
482.313, 111.184
483.645, 138.554
484.978, 116.436
486.310, 106.853
487.642, 55.391
488.974, 64.875
490.306, 116.343
491.637, 48.765
492.968, 151.749
494.299, 51.111
495.630, 141.162
496.961, 204.467
498.291, 212.902
499.622, 261.162
500.952, 304.951
502.281, 304.047
503.611, 381.310
504.940, 427.491
506.269, 439.654
507.598, 421.801
508.927, 533.933
510.256, 612.050
511.584, 558.153
512.912, 668.244
514.240, 724.320
515.568, 847.387
516.895, 909.441
518.222, 913.484
519.549, 1149.517
520.876, 1094.544
522.203, 1258.563
523.529, 1307.576
524.856, 1538.581
526.182, 1636.581
527.508, 1727.583
528.833, 1901.579
530.159, 2078.571
531.484, 2233.559
532.809, 2457.546
534.134, 2679.530
535.458, 3081.524
536.782, 3203.544
538.107, 3655.573
539.431, 3947.600
540.754, 4259.626
542.078, 4881.672
543.401, 5293.727
544.724, 6055.788
546.047, 6747.856
547.370, 7729.933
548.692, 8862.009
550.015, 9934.085
551.337, 11596.162
552.659, 13588.233
553.980, 16090.306
555.302, 18842.373
556.623, 22234.436
557.944, 26446.494
559.265, 29908.555
560.586, 33610.613
561.906, 37612.652
563.226, 37854.715
564.546, 38486.762
565.866, 35528.793
567.186, 32650.820
568.505, 29362.709
569.824, 25073.535
571.143, 22584.301
572.462, 18984.814
573.781, 16924.332
575.099, 14892.236
576.417, 13334.857
577.735, 12039.920
579.053, 10664.984
580.370, 9863.943
581.688, 8862.838
583.005, 7819.245
584.322, 7115.022
585.639, 6317.021
586.955, 5673.562
588.271, 5037.854
589.588, 4459.663
590.903, 3984.129
592.219, 3455.449
593.535, 3272.636
594.850, 2868.727
596.165, 2570.604
597.480, 2345.937
598.794, 2047.800
600.109, 2030.223
601.423, 1725.073
602.737, 1655.917
604.051, 1600.754
605.365, 1322.586
606.678, 1272.414
607.991, 1071.237
609.304, 1027.055
610.617, 906.869
611.930, 779.679
613.242, 850.485
614.554, 736.287
615.866, 527.085
617.178, 575.880
618.490, 512.671
619.801, 417.458
621.112, 457.242
622.423, 335.022
623.734, 350.800
625.045, 265.573
626.355, 393.344
627.665, 301.111
628.975, 187.876
630.285, 185.638
631.594, 63.396
632.904, 49.153
634.213, 146.730
635.522, 21.482
636.831, 22.834
638.139, 54.261
639.447, 18.776
640.756, 18.977
642.063, 6.586
643.371, 4.335
644.679, 16.828
645.986, 32.722
647.293, 16.706
648.600, 47.974
649.907, 18.153
651.213, 41.256
652.519, 2.855
653.825, 84.516
655.131, 9.160
656.437, 108.846
657.743, 2.531
659.048, 185.214
660.353, 11.897
661.658, 170.582
662.962, 236.268
664.267, 232.956
665.571, 313.646
666.875, 360.340
668.179, 408.035
669.483, 497.734
670.786, 542.437
672.089, 633.142
673.392, 757.850
674.695, 907.562
675.998, 1008.276
677.300, 1224.970
678.602, 1510.692
679.904, 1761.095
681.206, 2172.826
682.508, 2585.594
683.809, 2928.361
685.111, 3660.105
686.412, 4381.854
687.712, 5173.606
689.013, 6695.365
690.313, 7807.126
691.614, 10018.895
692.914, 11340.665
694.213, 12972.443
695.513, 14174.227
696.812, 13706.107
698.112, 12877.899
699.411, 11649.695
700.709, 9691.498
702.008, 7843.309
703.306, 6475.123
704.604, 5006.942
705.902, 4028.769
707.200, 3220.600
708.498, 2622.437
709.795, 2104.279
711.092, 1766.129
712.389, 1207.983
713.686, 1053.844
714.983, 981.713
716.279, 684.586
717.575, 690.467
718.871, 484.354
720.167, 406.248
721.463, 282.148
722.758, 225.057
724.053, 248.972
725.348, 136.894
726.643, 57.829
727.937, 151.776
729.232, 108.262
730.526, 8.690
731.820, 148.332
733.114, 126.614
734.407, 60.402
735.701, 149.396
736.994, 10.593
738.287, 64.354
739.579, 15.715
740.872, 78.181
742.164, 120.086
743.456, 64.032
744.748, 27.996
746.040, 60.958
747.332, 0.938
748.623, 106.908
749.914, 79.917
751.205, 15.046
752.496, 66.981
753.787, 17.971
755.077, 9.067
756.367, 64.898
757.657, 28.874
758.947, 37.860
760.236, 150.859
761.526, 80.868
762.815, 155.888
764.104, 49.918
765.393, 215.960
766.681, 169.015
767.969, 122.080
769.258, 162.818
770.546, 292.246
771.833, 122.347
773.121, 375.460
774.408, 373.585
775.695, 459.724
776.982, 434.873
778.269, 388.037
779.556, 537.213
780.842, 392.401
782.128, 525.603
783.414, 426.818
784.700, 445.047
785.986, 617.288
787.271, 577.543
788.556, 480.812
789.841, 517.094
791.126, 451.391
792.411, 516.704
793.695, 477.033
794.979, 519.368
796.263, 583.975
797.547, 368.053
798.831, 376.581
800.114, 444.972
801.397, 388.408
802.680, 506.855
803.963, 376.336
805.246, 308.239
806.528, 446.755
807.810, 228.572
809.092, 378.126
810.374, 280.544
811.656, 360.130
812.937, 406.306
814.218, 205.945
815.499, 332.537
816.780, 384.210
818.061, 333.901
819.341, 199.610
820.621, 202.335
821.901, 214.078
823.181, 131.838
824.461, 223.615
825.740, 191.409
827.019, 27.225
828.299, 201.058
829.577, 37.914
830.856, 34.195
832.134, 64.725
833.413, 26.335
834.691, 69.616
835.969, 0.416
837.246, 60.396
838.524, 17.624
839.801, 43.672
841.078, 101.738
842.355, 9.822
843.632, 52.937
844.908, 104.070
846.185, 37.229
847.461, 58.414
848.736, 95.616
850.012, 5.160
851.288, 232.081
852.563, 65.340
853.838, 145.619
855.113, 82.925
856.388, 183.253
857.662, 249.600
858.937, 184.967
860.211, 357.354
861.485, 252.761
862.758, 293.187
864.032, 325.632
865.305, 347.098
866.578, 312.585
867.851, 420.092
869.124, 349.620
870.397, 487.169
871.669, 332.739
872.941, 564.328
874.213, 477.940
875.485, 601.572
876.757, 485.226
878.028, 658.899
879.299, 642.595
880.570, 696.310
881.841, 710.047
883.112, 747.792
884.382, 961.557
885.652, 866.924
886.922, 1050.743
888.192, 1051.259
889.462, 1116.699
890.731, 1430.586
892.000, 1630.991
893.269, 1784.920
894.538, 1984.643
895.807, 2212.090
897.075, 2562.656
898.344, 2725.126
899.612, 3255.947
900.880, 3599.738
902.147, 3968.143
903.415, 4938.058
904.682, 5502.211
905.949, 6432.926
907.216, 7967.126
908.483, 9010.785
909.749, 10715.041
911.016, 12079.316
912.282, 14033.617
913.548, 15387.943
914.814, 16332.296
916.079, 16656.674
917.344, 16381.075
918.610, 16185.498
919.875, 15979.948
921.139, 14744.416
922.404, 13988.915
923.668, 13963.438
924.932, 13487.984
926.196, 14372.560
927.460, 14837.159
928.724, 16521.779
929.987, 17776.426
931.251, 20191.086
932.514, 22875.779
933.776, 26210.494
935.039, 28905.234
936.301, 31989.992
937.564, 34504.781
938.826, 35479.582
940.088, 35554.414
941.349, 34519.273
942.611, 32094.146
943.872, 29649.049
945.133, 26593.975
946.394, 23858.922
947.655, 20943.893
948.915, 19048.896
950.176, 16693.920
951.436, 15088.975
952.696, 13665.969
953.955, 12222.671
955.215, 11427.793
956.474, 10482.938
957.734, 9598.116
958.993, 9543.451
960.251, 8608.677
961.510, 8313.926
962.768, 7709.197
964.027, 7004.491
965.285, 6644.451
966.542, 6139.852
967.800, 5865.211
969.057, 5471.037
970.315, 5226.455
971.572, 4921.920
972.829, 4457.383
974.085, 4242.863
975.342, 4118.365
976.598, 3693.893
977.854, 3620.271
979.110, 3465.842
980.366, 3172.982
981.621, 3191.969
982.877, 2791.460
984.132, 3037.654
985.387, 2602.657
986.641, 2528.354
987.896, 2502.168
989.150, 2345.879
990.404, 2233.903
991.658, 2229.684
992.912, 2055.482
994.166, 1993.572
995.419, 2019.755
996.672, 2006.896
997.925, 1894.379
999.178, 1899.344
1000.431, 1818.179
1001.683, 1812.240
1002.936, 1678.236
1004.188, 1624.255
1005.440, 1542.028
1006.691, 1558.676
1007.943, 1554.790
1009.194, 1430.932
1010.445, 1367.092
1011.696, 1443.275
1012.947, 1329.474
1014.197, 1265.756
1015.448, 1392.018
1016.698, 1278.519
1017.948, 1334.920
1019.198, 1191.317
1020.447, 1107.732
1021.697, 1144.269
1022.946, 1120.702
1024.195, 1157.279
1025.444, 1013.854
1026.692, 1120.347
1027.941, 1126.855
1029.189, 903.419
1030.437, 1049.956
1031.685, 886.551
1032.933, 933.115
1034.180, 899.748
1035.427, 726.393
1036.675, 713.090
1037.922, 699.801
1039.168, 686.631
1040.415, 701.759
1041.661, 580.231
1042.907, 707.060
1044.153, 643.958
1045.399, 570.832
1046.645, 687.745
1047.890, 697.156
1049.135, 574.310
1050.380, 741.298
1051.625, 558.537
1052.870, 525.573
1054.114, 605.037
1055.359, 492.123
1056.603, 599.234
1057.847, 317.401
1059.090, 444.537
1060.334, 411.749
1061.577, 309.750
1062.820, 476.912
1064.063, 214.682
1065.306, 282.023
1066.549, 239.210
1067.791, 186.492
1069.033, 233.697
1070.275, 270.909
1071.517, 209.199
1072.759, 226.522
1074.000, 63.753
1075.241, 232.212
1076.482, 199.456
1077.723, 26.707
1078.964, 213.963
1080.204, 181.225
1081.445, 58.505
1082.685, 115.789
1083.925, 143.078
1085.164, 190.374
1086.404, 97.674
1087.643, 155.077
1088.883, 122.477
1090.122, 50.114
1091.360, 37.698
1092.599, 255.059
1093.837, 82.392
1095.076, 89.729
1096.314, 137.067
1097.552, 24.406
1098.789, 71.748
1100.027, 79.090
1101.264, 53.353
1102.501, 46.027
1103.738, 61.342
1104.975, 88.948
1106.211, 126.261
1107.448, 6.206
1108.684, 131.438
1109.920, 48.745
1111.156, 86.053
1112.391, 53.522
1113.627, 99.107
1114.862, 1.795
1116.097, 55.465
1117.332, 14.207
1118.566, 83.302
1119.801, 0.551
1121.035, 68.449
1122.269, 215.695
1123.503, 202.938
1124.737, 231.069
1125.971, 21.697
1127.204, 166.309
1128.437, 35.735
1129.670, 68.371
1130.903, 91.213
1132.136, 13.363
1133.368, 24.428
1134.600, 11.771
1135.832, 140.989
1137.064, 86.715
1138.296, 45.199
1139.527, 12.026
1140.759, 39.230
1141.990, 43.670
1143.221, 6.361
1144.452, 23.348
1145.682, 28.358
1146.912, 30.863
1148.143, 1.944
1149.373, 9.857
1150.602, 48.712
1151.832, 56.369
1153.062, 26.530
1154.291, 4.064
1155.520, 38.186
1156.749, 87.702
1157.978, 134.854
1159.206, 106.719
1160.434, 90.230
1161.663, 23.272
1162.891, 81.324
1164.118, 20.226
1165.346, 37.021
1166.573, 44.265
1167.801, 56.920
1169.028, 34.258
1170.254, 141.282
1171.481, 40.840
1172.708, 47.429
1173.934, 235.700
1175.160, 122.618
1176.386, 69.155
1177.612, 166.062
1178.837, 72.646
1180.063, 99.538
1181.288, 152.633
1182.513, 109.081
1183.738, 186.304
1184.962, 143.084
1186.187, 79.476
1187.411, 176.240
1188.635, 102.936
1189.859, 159.267
1191.083, 96.335
1192.306, 172.941
1193.529, 159.210
1194.753, 3.157
1195.976, 73.130
1197.198, 169.639
1198.421, 65.948
1199.643, 192.270
1200.866, 0.955
1202.088, 167.021
1203.310, 223.272
1204.531, 30.577
1205.753, 136.566
1206.974, 122.549
1208.195, 39.282
1209.416, 245.191
1210.637, 51.450
1211.857, 107.506
1213.078, 253.337
1214.298, 130.368
1215.518, 226.149
1216.738, 362.078
1217.958, 38.228
1219.177, 133.926
1220.396, 209.670
1221.615, 35.675
1222.834, 191.286
1224.053, 227.414
1225.272, 173.358
1226.490, 189.229
1227.708, 197.754
1228.926, 213.521
1230.144, 219.218
1231.362, 206.386
1232.579, 194.586
1233.796, 156.923
1235.013, 165.350
1236.230, 110.767
1237.447, 126.363
1238.664, 181.667
1239.880, 286.949
1241.096, 242.582
1242.312, 307.826
1243.528, 223.051
1244.744, 208.253
1245.959, 203.435
1247.174, 148.626
1248.389, 241.845
1249.604, 185.351
1250.819, 130.605
1252.033, 285.663
1253.248, 150.696
1254.462, 125.719
1255.676, 270.699
1256.890, 225.654
1258.103, 170.584
1259.317, 195.487
1260.530, 195.763
1261.743, 330.555
1262.956, 5.353
1264.169, 150.242
1265.381, 324.951
1266.594, 89.665
1267.806, 235.097
1269.018, 299.644
1270.229, 74.183
1271.441, 278.629
1272.652, 82.142
1273.864, 86.454
1275.075, 179.311
1276.286, 240.138
1277.496, 79.710
1278.707, 83.304
1279.917, 157.403
1281.127, 181.950
1282.337, 77.816
1283.547, 51.931
1284.757, 153.620
1285.966, 157.516
1287.175, 181.817
1288.385, 123.392
1289.593, 53.157
1290.802, 179.449
1292.011, 141.561
1293.219, 24.726
1294.427, 48.865
1295.635, 12.437
1296.843, 66.021
1298.051, 149.513
1299.258, 48.767
1300.465, 45.884
1301.672, 2.532
1302.879, 120.770
1304.086, 14.014
1305.292, 477.216
1306.499, 59.617
1307.705, 33.418
1308.911, 153.545
1310.117, 189.237
1311.322, 92.098
1312.528, 55.056
1313.733, 77.755
1314.938, 120.425
1316.143, 6.822
1317.348, 245.789
1318.552, 18.358
1319.757, 130.986
1320.961, 283.578
1322.165, 126.087
1323.369, 198.601
1324.572, 121.026
1325.776, 66.539
1326.979, 335.835
1328.182, 68.175
1329.385, 130.478
1330.588, 302.742
1331.790, 124.882
1332.993, 137.082
1334.195, 239.231
1335.397, 71.360
1336.599, 143.397
1337.801, 235.457
1339.002, 27.487
1340.203, 197.014
1341.404, 138.786
1342.605, 180.717
1343.806, 172.382
1345.007, 5.745
1346.207, 243.702
1347.407, 165.510
1348.607, 27.290
1349.807, 307.995
1351.007, 209.719
1352.207, 61.351
1353.406, 252.177
1354.605, 123.827
1355.804, 164.856
1357.003, 256.302
1358.201, 27.889
1359.400, 269.371
1360.598, 171.155
1361.796, 112.689
1362.994, 223.138
1364.192, 194.547
1365.389, 126.045
1366.587, 236.314
1367.784, 87.802
1368.981, 119.287
1370.178, 130.759
1371.374, 17.767
1372.571, 143.707
1373.767, 156.785
1374.963, 58.294
1376.159, 199.834
1377.355, 81.601
1378.550, 18.650
1379.746, 194.104
1380.941, 146.916
1382.136, 299.973
1383.331, 352.986
1384.526, 125.958
1385.720, 398.671
1386.914, 221.216
1388.109, 233.852
1389.303, 376.322
1390.496, 208.931
1391.690, 261.566
1392.883, 340.897
1394.077, 173.282
1395.270, 305.167
1396.463, 296.718
1397.655, 178.339
1398.848, 399.771
1400.040, 281.424
1401.232, 292.818
1402.425, 304.315
1403.616, 205.246
1404.808, 247.296
1405.999, 341.782
1407.191, 83.646
1408.382, 339.358
1409.573, 188.021
1410.764, 42.564
1411.954, 253.959
1413.145, 182.919
1414.335, 246.375
1415.525, 349.856
1416.715, 190.443
1417.905, 122.668
1419.094, 259.318
1420.283, 98.167
1421.473, 288.835
1422.662, 239.304
1423.850, 30.092
1425.039, 359.858
1426.228, 110.192
1427.416, 139.918
1428.604, 199.546
1429.792, 39.799
1430.980, 138.196
1432.167, 318.103
1433.355, 104.248
1434.542, 194.478
1435.729, 122.871
1436.916, 111.978
1438.103, 181.771
1439.289, 121.822
1440.475, 310.014
1441.662, 349.241
1442.848, 119.358
1444.033, 248.912
1445.219, 307.346
1446.405, 131.047
1447.590, 169.990
1448.775, 248.168
1449.960, 150.575
1451.145, 349.420
1452.329, 268.839
1453.514, 237.355
1454.698, 376.510
1455.882, 155.474
1457.066, 244.394
1458.250, 332.819
1459.433, 101.168
1460.616, 329.745
1461.800, 288.204
1462.983, 186.437
1464.165, 383.371
1465.348, 241.518
1466.531, 277.854
1467.713, 436.341
1468.895, 165.291
1470.077, 223.963
1471.259, 442.391
1472.440, 190.021
1473.622, 218.764
1474.803, 307.839
1475.984, 125.502
1477.165, 294.130
1478.346, 283.042
1479.526, 181.795
1480.707, 230.664
1481.887, 239.516
1483.067, 248.519
1484.247, 237.708
1485.426, 157.049
1486.606, 266.529
1487.785, 236.046
1488.964, 175.594
1490.143, 225.103
1491.322, 254.808
1492.501, 164.653
1493.679, 274.710
1494.858, 134.941
1496.036, 275.311
1497.214, 195.899
1498.391, 106.681
1499.569, 287.707
1500.746, 258.979
1501.924, 40.532
1503.101, 312.380
1504.277, 234.545
1505.454, 207.085
1506.631, 340.062
1507.807, 133.526
1508.983, 127.550
1510.159, 472.220
1511.335, 133.861
1512.511, 209.601
1513.686, 406.222
1514.862, 6.169
1516.037, 303.006
1517.212, 204.454
1518.387, 11.642
1519.561, 0.000
##END=



