##NAMES=Lawsonite
##RRUFFID=R050042
##IDEAL CHEMISTRY=CaAl_2_Si_2_O_7_(OH)_2_&#183;H_2_O
##LOCALITY=California, USA
##OWNER=RRUFF
##SOURCE=University of Arizona Mineral Museum
##DESCRIPTION=White to colorless fragments
##STATUS=The identification of this mineral has been confirmed by X-ray diffraction and chemical analysis
##URL=rruff.info/R050042
##MEASURED CHEMISTRY=(Ca_0.98_Fe^2+^_0.02_)Al_2.00_Si_2.00_O_7_(OH)_2_Â·H_2_O
##PIN_ID=L00291
##ORIENTATION=Laser parallel to c* (0 0 1). Fiducial mark perpendicular to laser is parallel to a [1 0 0]
81.195, 0.000
82.592, 59.351
83.988, 391.351
85.384, 487.086
86.780, 1043.027
88.175, 1625.968
89.571, 2304.484
90.966, 2666.443
92.361, 2862.361
93.755, 3175.218
95.150, 3407.972
96.544, 3513.539
97.938, 3792.851
99.332, 3981.082
100.726, 3996.716
102.119, 3946.492
103.512, 4099.833
104.905, 4136.805
106.298, 4328.023
107.690, 4054.458
109.082, 4097.726
110.474, 3737.145
111.866, 3896.777
113.258, 4156.970
114.649, 3943.019
116.040, 4166.038
117.431, 4238.631
118.822, 4391.743
120.212, 4499.389
121.603, 4626.611
122.993, 4897.229
124.382, 5032.118
125.772, 4991.351
127.161, 5097.401
128.550, 5020.332
129.939, 4613.477
131.328, 4153.302
132.716, 3634.173
134.105, 2667.350
135.493, 2117.578
136.880, 1325.721
138.268, 647.059
139.655, 224.332
141.042, 56.141
142.429, 95.965
143.816, 254.014
145.202, 142.043
146.589, 127.684
147.975, 102.299
149.360, 47.583
150.746, 127.146
152.131, 107.920
153.516, 212.049
154.901, 297.147
156.286, 366.989
157.670, 413.477
159.055, 455.453
160.439, 465.160
161.822, 485.488
163.206, 482.101
164.589, 450.993
165.972, 465.055
167.355, 433.917
168.738, 454.214
170.121, 422.891
171.503, 395.753
172.885, 389.616
174.267, 375.500
175.648, 319.832
177.029, 299.537
178.411, 214.549
179.792, 204.818
181.172, 247.266
182.553, 95.823
183.933, 117.446
185.313, 140.098
186.693, 101.754
188.072, 120.386
189.452, 55.974
190.831, 15.504
192.210, 13.930
193.588, 27.773
194.967, 65.751
196.345, 91.342
197.723, 80.545
199.101, 110.206
200.479, 101.236
201.856, 117.740
203.233, 131.084
204.610, 135.118
205.987, 163.287
207.363, 150.720
208.740, 179.413
210.116, 118.371
211.492, 188.593
212.867, 123.088
214.243, 115.865
215.618, 68.942
216.993, 92.313
218.367, 44.984
219.742, 6.975
221.116, 50.466
222.490, 24.366
223.864, 11.735
225.238, 9.423
226.611, 36.090
227.985, 28.258
229.357, 59.953
230.730, 83.203
232.103, 65.080
233.475, 84.642
234.847, 124.916
236.219, 106.933
237.591, 161.740
238.962, 156.366
240.334, 182.404
241.705, 180.029
243.075, 236.948
244.446, 213.037
245.816, 227.846
247.186, 278.546
248.556, 288.317
249.926, 358.911
251.296, 429.930
252.665, 462.403
254.034, 471.927
255.403, 557.608
256.771, 602.576
258.140, 725.883
259.508, 771.983
260.876, 880.307
262.244, 1002.015
263.611, 1131.460
264.978, 1295.161
266.346, 1472.772
267.712, 1730.502
269.079, 2046.168
270.446, 2382.918
271.812, 2805.579
273.178, 3166.611
274.544, 3586.030
275.909, 4085.757
277.275, 4169.527
278.640, 4405.823
280.005, 4376.792
281.369, 4402.879
282.734, 4129.172
284.098, 4013.803
285.462, 3790.836
286.826, 3590.316
288.190, 3522.271
289.553, 3220.724
290.916, 3170.700
292.279, 3054.211
293.642, 2943.273
295.004, 2895.881
296.367, 2808.942
297.729, 2744.754
299.091, 2696.019
300.452, 2659.845
301.814, 2614.151
303.175, 2582.230
304.536, 2664.652
305.897, 2588.914
307.257, 2678.214
308.618, 2576.053
309.978, 2576.327
311.338, 2558.153
312.698, 2559.684
314.057, 2639.825
315.416, 2654.842
316.776, 2727.642
318.134, 2782.208
319.493, 2821.562
320.851, 2924.382
322.210, 3001.461
323.568, 3179.709
324.925, 3248.867
326.283, 3362.156
327.640, 3447.431
328.998, 3508.260
330.354, 3525.186
331.711, 3514.772
333.068, 3561.444
334.424, 3574.702
335.780, 3538.641
337.136, 3613.479
338.491, 3572.155
339.847, 3590.319
341.202, 3632.263
342.557, 3828.311
343.912, 3840.189
345.266, 3923.529
346.621, 4089.629
347.975, 4078.118
349.329, 4258.937
350.682, 4256.029
352.036, 4389.419
353.389, 4560.205
354.742, 4510.172
356.095, 4735.926
357.448, 4657.051
358.800, 4826.758
360.152, 4845.836
361.504, 4737.581
362.856, 4808.455
364.208, 4621.889
365.559, 4620.284
366.910, 4340.841
368.261, 4151.146
369.612, 4081.685
370.962, 3740.017
372.313, 3476.554
373.663, 3228.930
375.012, 2988.908
376.362, 2732.500
377.712, 2471.571
379.061, 2239.095
380.410, 2016.167
381.758, 1776.228
383.107, 1611.571
384.455, 1404.334
385.804, 1274.771
387.151, 1078.040
388.499, 952.680
389.847, 801.714
391.194, 718.472
392.541, 661.349
393.888, 583.704
395.235, 507.790
396.581, 447.260
397.927, 399.896
399.273, 355.602
400.619, 337.690
401.965, 287.202
403.310, 282.953
404.655, 241.702
406.000, 194.943
407.345, 98.998
408.689, 67.187
410.034, 24.649
411.378, 8.014
412.722, 49.360
414.065, 64.638
415.409, 72.621
416.752, 86.459
418.095, 51.773
419.438, 77.081
420.781, 24.049
422.123, 53.987
423.465, 15.641
424.807, 60.071
426.149, 51.188
427.490, 127.624
428.832, 159.945
430.173, 242.028
431.514, 294.868
432.855, 406.254
434.195, 476.156
435.535, 586.781
436.875, 724.678
438.215, 850.313
439.555, 1031.855
440.894, 1242.312
442.234, 1325.683
443.573, 1436.969
444.911, 1469.173
446.250, 1481.295
447.588, 1527.339
448.927, 1534.307
450.265, 1517.202
451.602, 1486.025
452.940, 1473.840
454.277, 1428.464
455.614, 1411.084
456.951, 1434.642
458.288, 1379.138
459.624, 1433.574
460.961, 1325.953
462.297, 1298.275
463.633, 1163.545
464.968, 983.767
466.304, 943.952
467.639, 790.110
468.974, 795.273
470.309, 679.492
471.643, 520.750
472.978, 505.053
474.312, 345.401
475.646, 345.763
476.980, 308.130
478.313, 179.506
479.647, 178.883
480.980, 165.259
482.313, 149.657
483.645, 155.468
484.978, 167.625
486.310, 153.959
487.642, 126.103
488.974, 147.649
490.306, 136.500
491.637, 136.606
492.968, 137.999
494.299, 154.421
495.630, 191.740
496.961, 220.490
498.291, 285.815
499.622, 360.142
500.952, 411.473
502.281, 447.808
503.611, 483.152
504.940, 581.506
506.269, 650.867
507.598, 760.245
508.927, 776.638
510.256, 775.047
511.584, 926.473
512.912, 1037.915
514.240, 1094.380
515.568, 1247.887
516.895, 1238.427
518.222, 1489.012
519.549, 1496.652
520.876, 1672.354
522.203, 1839.114
523.529, 1975.942
524.856, 2147.833
526.182, 2288.794
527.508, 2499.827
528.833, 2767.935
530.159, 3006.123
531.484, 3303.389
532.809, 3564.740
534.134, 3941.161
535.458, 4262.669
536.782, 4568.250
538.107, 5242.898
539.431, 5615.604
540.754, 6188.370
542.078, 6984.189
543.401, 7722.042
544.724, 8709.948
546.047, 9427.898
547.370, 11015.889
548.692, 12393.914
550.015, 14111.972
551.337, 16530.061
552.659, 18908.168
553.980, 22696.305
555.302, 26284.291
556.623, 30752.078
557.944, 36119.715
559.265, 39427.211
560.586, 44184.672
561.906, 46381.973
563.226, 45679.285
564.546, 44596.473
565.866, 39973.500
567.186, 36580.152
568.505, 31986.729
569.824, 27753.160
571.143, 24479.643
572.462, 21265.605
573.781, 18874.016
575.099, 16884.633
576.417, 15086.647
577.735, 13746.533
579.053, 12268.970
580.370, 11311.143
581.688, 10002.167
583.005, 9017.019
584.322, 8021.084
585.639, 7206.145
586.955, 6374.095
588.271, 5588.591
589.588, 5128.737
590.903, 4511.248
592.219, 4017.476
593.535, 3696.986
594.850, 3293.202
596.165, 2986.015
597.480, 2815.616
598.794, 2479.877
600.109, 2236.718
601.423, 1997.024
602.737, 1874.590
604.051, 1710.165
605.365, 1510.749
606.678, 1473.342
607.991, 1227.945
609.304, 1207.558
610.617, 1025.182
611.930, 951.816
613.242, 893.462
614.554, 760.119
615.866, 673.788
617.178, 616.469
618.490, 601.163
619.801, 478.870
621.112, 462.590
622.423, 389.324
623.734, 408.071
625.045, 296.832
626.355, 273.608
627.665, 202.397
628.975, 228.201
630.285, 126.019
631.594, 126.850
632.904, 131.695
634.213, 75.553
635.522, 27.426
636.831, 58.172
638.139, 8.951
639.447, 6.706
640.756, 4.572
642.063, 34.799
643.371, 58.965
644.679, 12.195
645.986, 2.482
647.293, 48.721
648.600, 10.971
649.907, 17.198
651.213, 17.601
652.519, 26.497
653.825, 24.446
655.131, 21.404
656.437, 17.377
657.743, 56.365
659.048, 127.369
660.353, 97.388
661.658, 179.423
662.962, 184.473
664.267, 276.539
665.571, 313.621
666.875, 345.718
668.179, 475.831
669.483, 567.960
670.786, 644.105
672.089, 827.265
673.392, 894.441
674.695, 1093.632
675.998, 1305.840
677.300, 1578.062
678.602, 1806.300
679.904, 2106.553
681.206, 2692.821
682.508, 3059.103
683.809, 3776.400
685.111, 4654.712
686.412, 5558.038
687.712, 6934.378
689.013, 8553.731
690.313, 10183.100
691.614, 12342.481
692.914, 13801.874
694.213, 15271.282
695.513, 15340.704
696.812, 14890.136
698.112, 13249.581
699.411, 11289.040
700.709, 9508.510
702.008, 7507.993
703.306, 6022.489
704.604, 4796.996
705.902, 3747.516
707.200, 3068.047
708.498, 2410.590
709.795, 1899.146
711.092, 1656.713
712.389, 1232.294
713.686, 1061.888
714.983, 807.496
716.279, 690.120
717.575, 563.759
718.871, 417.414
720.167, 336.085
721.463, 201.773
722.758, 167.479
724.053, 103.205
725.348, 65.949
726.643, 20.715
727.937, 2.499
729.232, 55.700
730.526, 101.904
731.820, 136.131
733.114, 73.397
734.407, 135.678
735.701, 99.999
736.994, 93.350
738.287, 144.726
739.579, 120.154
740.872, 138.625
742.164, 75.149
743.456, 82.292
744.748, 69.110
746.040, 51.875
747.332, 76.491
748.623, 43.137
749.914, 94.799
751.205, 87.498
752.496, 25.230
753.787, 35.970
755.077, 8.280
756.367, 0.538
757.657, 53.800
758.947, 97.076
760.236, 113.367
761.526, 101.672
762.815, 179.992
764.104, 154.326
765.393, 200.675
766.681, 192.038
767.969, 241.416
769.258, 288.809
770.546, 226.217
771.833, 300.639
773.121, 333.077
774.408, 337.530
775.695, 398.998
776.982, 368.482
778.269, 433.980
779.556, 457.494
780.842, 468.024
782.128, 523.569
783.414, 495.129
784.700, 557.705
785.986, 578.297
787.271, 562.904
788.556, 550.527
789.841, 603.166
791.126, 634.820
792.411, 584.492
793.695, 585.180
794.979, 694.858
796.263, 624.135
797.547, 599.077
798.831, 643.854
800.114, 598.833
801.397, 632.421
802.680, 681.720
803.963, 575.778
805.246, 623.563
806.528, 630.437
807.810, 619.812
809.092, 601.725
810.374, 615.659
811.656, 598.611
812.937, 583.588
814.218, 527.589
815.499, 531.617
816.780, 485.664
818.061, 509.729
819.341, 445.814
820.621, 441.917
821.901, 391.039
823.181, 349.179
824.461, 362.337
825.740, 278.513
827.019, 334.713
828.299, 342.931
829.577, 216.174
830.856, 201.449
832.134, 210.745
833.413, 264.077
834.691, 230.428
835.969, 152.811
837.246, 211.227
838.524, 217.669
839.801, 149.141
841.078, 249.643
842.355, 169.176
843.632, 248.744
844.908, 259.343
846.185, 195.976
847.461, 270.633
848.736, 234.315
850.012, 241.024
851.288, 274.753
852.563, 271.501
853.838, 326.272
855.113, 279.067
856.388, 337.887
857.662, 381.730
858.937, 370.593
860.211, 445.476
861.485, 379.385
862.758, 434.313
864.032, 446.260
865.305, 455.234
866.578, 518.227
867.851, 506.244
869.124, 514.280
870.397, 529.345
871.669, 562.434
872.941, 618.541
874.213, 552.671
875.485, 626.819
876.757, 694.987
878.028, 658.174
879.299, 803.383
880.570, 827.517
881.841, 903.042
883.112, 986.681
884.382, 1018.874
885.652, 1136.217
886.922, 1242.991
888.192, 1381.392
889.462, 1542.750
890.731, 1653.489
892.000, 1926.454
893.269, 2082.776
894.538, 2288.119
895.807, 2705.939
897.075, 2955.406
898.344, 3452.617
899.612, 4137.736
900.880, 4477.610
902.147, 5331.230
903.415, 6222.178
904.682, 7307.562
905.949, 8577.191
907.216, 10166.318
908.483, 11997.646
909.749, 14108.668
911.016, 15710.470
912.282, 18262.295
913.548, 19124.146
914.814, 19936.023
916.079, 19867.926
917.344, 18759.857
918.610, 18411.809
919.875, 17013.791
921.139, 16275.799
922.404, 15817.829
923.668, 15599.888
924.932, 16121.968
926.196, 17054.080
927.460, 18326.209
928.724, 20808.371
929.987, 22230.553
931.251, 25952.758
932.514, 29004.988
933.776, 32877.246
935.039, 36379.531
936.301, 38361.828
937.564, 41294.156
938.826, 40586.527
940.088, 38988.902
941.349, 37831.316
942.611, 33533.742
943.872, 30976.205
945.133, 27758.686
946.394, 24401.197
947.655, 22153.723
948.915, 19716.283
950.176, 17778.957
951.436, 16451.588
952.696, 14984.243
953.955, 14157.477
955.215, 13250.195
956.474, 12502.942
957.734, 12107.010
958.993, 11619.810
960.251, 10983.351
961.510, 10617.028
962.768, 9699.908
964.027, 9224.341
965.285, 8478.521
966.542, 7943.458
967.800, 7676.528
969.057, 6949.521
970.315, 6670.969
971.572, 6168.008
972.829, 5647.072
974.085, 5591.155
975.342, 5110.260
976.598, 4819.385
977.854, 4635.646
979.110, 4254.813
980.366, 4104.259
981.621, 3837.654
982.877, 3682.376
984.132, 3671.650
985.387, 3252.918
986.641, 3267.189
987.896, 3067.746
989.150, 2873.601
990.404, 2897.416
991.658, 2759.623
992.912, 2648.356
994.166, 2654.828
995.419, 2509.898
996.672, 2593.552
997.925, 2358.375
999.178, 2251.854
1000.431, 2352.302
1001.683, 2113.953
1002.936, 2196.563
1004.188, 2103.595
1005.440, 1875.466
1006.691, 2044.137
1007.943, 1942.585
1009.194, 1893.395
1010.445, 1868.011
1011.696, 1738.411
1012.947, 1819.057
1014.197, 1700.716
1015.448, 1665.845
1016.698, 1670.789
1017.948, 1553.356
1019.198, 1586.079
1020.447, 1460.123
1021.697, 1408.723
1022.946, 1493.508
1024.195, 1424.798
1025.444, 1368.588
1026.692, 1329.390
1027.941, 1221.408
1029.189, 1263.686
1030.437, 1196.525
1031.685, 1138.375
1032.933, 1160.308
1034.180, 998.313
1035.427, 1011.358
1036.675, 1051.097
1037.922, 898.413
1039.168, 914.543
1040.415, 877.309
1041.661, 807.838
1042.907, 808.024
1044.153, 736.571
1045.399, 647.858
1046.645, 682.639
1047.890, 636.150
1049.135, 659.094
1050.380, 589.644
1051.625, 518.248
1052.870, 485.849
1054.114, 448.433
1055.359, 397.126
1056.603, 409.874
1057.847, 381.701
1059.090, 417.265
1060.334, 335.206
1061.577, 322.031
1062.820, 322.814
1064.063, 290.964
1065.306, 290.582
1066.549, 244.173
1067.791, 288.964
1069.033, 250.015
1070.275, 213.057
1071.517, 232.007
1072.759, 175.793
1074.000, 151.843
1075.241, 146.835
1076.482, 95.520
1077.723, 116.227
1078.964, 111.130
1080.204, 66.884
1081.445, 142.729
1082.685, 119.643
1083.925, 108.449
1085.164, 131.183
1086.404, 44.250
1087.643, 97.789
1088.883, 121.454
1090.122, 76.103
1091.360, 62.022
1092.599, 52.118
1093.837, 77.079
1095.076, 40.830
1096.314, 17.599
1097.552, 66.397
1098.789, 4.881
1100.027, 23.237
1101.264, 6.962
1102.501, 21.333
1103.738, 3.694
1104.975, 8.564
1106.211, 35.175
1107.448, 14.747
1108.684, 22.551
1109.920, 24.253
1111.156, 25.475
1112.391, 36.793
1113.627, 31.082
1114.862, 44.030
1116.097, 4.259
1117.332, 11.352
1118.566, 12.980
1119.801, 9.490
1121.035, 113.584
1122.269, 119.122
1123.503, 107.864
1124.737, 13.483
1125.971, 22.761
1127.204, 60.208
1128.437, 24.261
1129.670, 56.638
1130.903, 9.166
1132.136, 68.481
1133.368, 8.154
1134.600, 50.429
1135.832, 53.981
1137.064, 25.550
1138.296, 40.158
1139.527, 45.388
1140.759, 36.844
1141.990, 63.628
1143.221, 40.271
1144.452, 48.404
1145.682, 18.401
1146.912, 11.738
1148.143, 26.555
1149.373, 4.545
1150.602, 7.056
1151.832, 0.977
1153.062, 13.985
1154.291, 9.987
1155.520, 5.599
1156.749, 6.614
1157.978, 27.473
1159.206, 18.374
1160.434, 30.761
1161.663, 47.892
1162.891, 11.605
1164.118, 10.479
1165.346, 0.781
1166.573, 65.350
1167.801, 22.804
1169.028, 0.924
1170.254, 31.468
1171.481, 8.391
1172.708, 54.376
1173.934, 56.162
1175.160, 21.160
1176.386, 12.909
1177.612, 56.804
1178.837, 61.204
1180.063, 39.864
1181.288, 35.517
1182.513, 36.550
1183.738, 6.166
1184.962, 27.251
1186.187, 49.203
1187.411, 15.535
1188.635, 25.743
1189.859, 78.481
1191.083, 31.332
1192.306, 69.619
1193.529, 1.878
1194.753, 43.021
1195.976, 23.458
1197.198, 46.535
1198.421, 45.582
1199.643, 48.712
1200.866, 11.615
1202.088, 48.585
1203.310, 46.823
1204.531, 43.864
1205.753, 84.642
1206.974, 8.610
1208.195, 48.349
1209.416, 53.166
1210.637, 32.851
1211.857, 85.490
1213.078, 94.299
1214.298, 58.023
1215.518, 41.628
1216.738, 43.266
1217.958, 49.776
1219.177, 63.265
1220.396, 45.765
1221.615, 50.193
1222.834, 87.598
1224.053, 84.035
1225.272, 59.390
1226.490, 75.722
1227.708, 66.023
1228.926, 61.313
1230.144, 71.659
1231.362, 85.879
1232.579, 53.203
1233.796, 31.373
1235.013, 105.504
1236.230, 28.625
1237.447, 66.693
1238.664, 54.730
1239.880, 64.741
1241.096, 88.726
1242.312, 84.687
1243.528, 81.621
1244.744, 96.736
1245.959, 56.333
1247.174, 96.186
1248.389, 101.066
1249.604, 62.317
1250.819, 75.086
1252.033, 48.824
1253.248, 69.238
1254.462, 94.913
1255.676, 44.852
1256.890, 85.751
1258.103, 85.341
1259.317, 84.411
1260.530, 53.732
1261.743, 71.244
1262.956, 25.615
1264.169, 82.053
1265.381, 30.027
1266.594, 47.430
1267.806, 102.770
1269.018, 72.083
1270.229, 85.384
1271.441, 70.638
1272.652, 52.749
1273.864, 93.938
1275.075, 77.835
1276.286, 90.841
1277.496, 64.438
1278.707, 61.487
1279.917, 84.514
1281.127, 73.556
1282.337, 68.261
1283.547, 68.786
1284.757, 34.205
1285.966, 44.217
1287.175, 71.788
1288.385, 14.510
1289.593, 1.623
1290.802, 85.141
1292.011, 15.477
1293.219, 45.249
1294.427, 49.938
1295.635, 17.413
1296.843, 65.166
1298.051, 57.238
1299.258, 52.461
1300.465, 17.873
1301.672, 26.809
1302.879, 62.776
1304.086, 29.236
1305.292, 26.874
1306.499, 26.256
1307.705, 5.611
1308.911, 6.516
1310.117, 60.602
1311.322, 19.012
1312.528, 40.521
1313.733, 48.430
1314.938, 1.228
1316.143, 24.916
1317.348, 18.540
1318.552, 32.652
1319.757, 15.895
1320.961, 32.797
1322.165, 19.379
1323.369, 84.387
1324.572, 21.630
1325.776, 34.261
1326.979, 42.081
1328.182, 8.125
1329.385, 53.004
1330.588, 6.555
1331.790, 63.312
1332.993, 86.445
1334.195, 13.826
1335.397, 6.572
1336.599, 50.974
1337.801, 52.659
1339.002, 70.856
1340.203, 25.329
1341.404, 74.373
1342.605, 75.815
1343.806, 50.208
1345.007, 98.604
1346.207, 74.029
1347.407, 27.352
1348.607, 46.611
1349.807, 105.788
1351.007, 50.216
1352.207, 95.254
1353.406, 70.465
1354.605, 95.629
1355.804, 105.411
1357.003, 52.710
1358.201, 67.019
1359.400, 89.115
1360.598, 73.934
1361.796, 104.748
1362.994, 95.803
1364.192, 86.843
1365.389, 112.603
1366.587, 114.683
1367.784, 83.779
1368.981, 125.836
1370.178, 95.684
1371.374, 112.666
1372.571, 92.545
1373.767, 72.443
1374.963, 111.223
1376.159, 64.093
1377.355, 93.541
1378.550, 93.447
1379.746, 89.199
1380.941, 96.803
1382.136, 100.405
1383.331, 101.192
1384.526, 107.638
1385.720, 102.397
1386.914, 112.017
1388.109, 98.052
1389.303, 94.592
1390.496, 107.577
1391.690, 75.044
1392.883, 109.042
1394.077, 106.517
1395.270, 114.388
1396.463, 99.835
1397.655, 127.610
1398.848, 99.189
1400.040, 58.516
1401.232, 99.180
1402.425, 71.442
1403.616, 71.096
1404.808, 109.641
1405.999, 117.441
1407.191, 146.278
1408.382, 136.961
1409.573, 69.529
1410.764, 111.492
1411.954, 83.146
1413.145, 71.114
1414.335, 108.338
1415.525, 74.139
1416.715, 96.336
1417.905, 112.103
1419.094, 54.833
1420.283, 98.980
1421.473, 65.455
1422.662, 68.944
1423.850, 60.463
1425.039, 83.791
1426.228, 33.561
1427.416, 105.771
1428.604, 78.067
1429.792, 37.676
1430.980, 98.808
1432.167, 77.864
1433.355, 95.552
1434.542, 78.573
1435.729, 33.885
1436.916, 84.341
1438.103, 91.460
1439.289, 8.680
1440.475, 72.089
1441.662, 57.940
1442.848, 82.077
1444.033, 123.428
1445.219, 46.692
1446.405, 46.893
1447.590, 104.163
1448.775, 55.389
1449.960, 84.435
1451.145, 72.382
1452.329, 33.548
1453.514, 80.753
1454.698, 2.932
1455.882, 63.069
1457.066, 84.178
1458.250, 52.142
1459.433, 54.199
1460.616, 62.260
1461.800, 12.307
1462.983, 34.097
1464.165, 78.893
1465.348, 44.877
1466.531, 77.871
1467.713, 90.792
1468.895, 77.730
1470.077, 109.705
1471.259, 39.716
1472.440, 63.571
1473.622, 67.595
1474.803, 43.626
1475.984, 68.429
1477.165, 53.364
1478.346, 52.615
1479.526, 66.884
1480.707, 89.840
1481.887, 42.292
1483.067, 64.552
1484.247, 39.818
1485.426, 89.878
1486.606, 46.131
1487.785, 74.393
1488.964, 74.375
1490.143, 112.528
1491.322, 42.758
1492.501, 61.999
1493.679, 83.305
1494.858, 18.552
1496.036, 91.818
1497.214, 91.107
1498.391, 82.372
1499.569, 79.710
1500.746, 45.086
1501.924, 45.476
1503.101, 62.913
1504.277, 9.387
1505.454, 62.891
1506.631, 79.426
1507.807, 12.916
1508.983, 74.831
1510.159, 107.923
1511.335, 59.799
1512.511, 91.766
1513.686, 46.838
