##NAMES=Lawsonite
##RRUFFID=R050042
##IDEAL CHEMISTRY=CaAl_2_Si_2_O_7_(OH)_2_&#183;H_2_O
##LOCALITY=California, USA
##OWNER=RRUFF
##SOURCE=University of Arizona Mineral Museum
##DESCRIPTION=White to colorless fragments
##STATUS=The identification of this mineral has been confirmed by X-ray diffraction and chemical analysis
##URL=rruff.info/R050042
##MEASURED CHEMISTRY=(Ca_0.98_Fe^2+^_0.02_)Al_2.00_Si_2.00_O_7_(OH)_2_Â·H_2_O
##PIN_ID=L00291
##ORIENTATION=Laser parallel to c* (0 0 1). Fiducial mark perpendicular to laser is parallel to a [1 0 0]
81.195, 0.000
82.592, 339.413
83.988, 734.323
85.384, 849.243
86.780, 1242.856
88.175, 1545.523
89.571, 1665.367
90.966, 2134.074
92.361, 2191.611
93.755, 2383.328
95.150, 2336.545
96.544, 2304.467
97.938, 1801.580
99.332, 1058.081
100.726, 876.501
102.119, 502.226
103.512, 423.897
104.905, 230.331
106.298, 241.001
107.690, 157.071
109.082, 246.979
110.474, 626.370
111.866, 581.791
113.258, 778.608
114.649, 707.931
116.040, 958.562
117.431, 1079.183
118.822, 1293.466
120.212, 1422.117
121.603, 1398.272
122.993, 1615.410
124.382, 1650.997
125.772, 1648.539
127.161, 1778.772
128.550, 1931.087
129.939, 1891.549
131.328, 1793.570
132.716, 1651.813
134.105, 1368.432
135.493, 1247.736
136.880, 958.668
138.268, 840.081
139.655, 605.161
141.042, 483.025
142.429, 303.841
143.816, 115.046
145.202, 118.961
146.589, 54.037
147.975, 76.373
149.360, 14.111
150.746, 20.682
152.131, 83.682
153.516, 75.189
154.901, 106.873
156.286, 171.255
157.670, 148.898
159.055, 169.533
160.439, 177.743
161.822, 171.754
163.206, 175.902
164.589, 155.314
165.972, 118.219
167.355, 67.250
168.738, 60.405
170.121, 56.819
171.503, 48.165
172.885, 69.111
174.267, 84.582
175.648, 97.503
177.029, 78.805
178.411, 19.428
179.792, 5.308
181.172, 5.380
182.553, 24.424
183.933, 20.837
185.313, 40.883
186.693, 82.625
188.072, 5.577
189.452, 17.307
190.831, 96.306
192.210, 61.453
193.588, 122.823
194.967, 127.484
196.345, 78.523
197.723, 53.994
199.101, 133.961
200.479, 131.413
201.856, 132.318
203.233, 125.642
204.610, 145.368
205.987, 74.482
207.363, 60.991
208.740, 117.901
210.116, 86.201
211.492, 182.864
212.867, 77.887
214.243, 98.304
215.618, 105.122
216.993, 24.364
218.367, 88.001
219.742, 54.078
221.116, 153.631
222.490, 73.616
223.864, 1.056
225.238, 70.955
226.611, 14.292
227.985, 3.001
229.357, 33.884
230.730, 60.322
232.103, 107.738
233.475, 157.427
234.847, 222.234
236.219, 285.840
237.591, 355.600
238.962, 448.993
240.334, 518.524
241.705, 566.037
243.075, 701.333
244.446, 776.470
245.816, 916.698
247.186, 993.649
248.556, 1171.307
249.926, 1395.819
251.296, 1519.015
252.665, 1799.719
254.034, 1951.594
255.403, 2205.574
256.771, 2488.456
258.140, 2779.261
259.508, 3088.318
260.876, 3326.615
262.244, 3985.132
263.611, 4334.826
264.978, 5060.652
266.346, 5771.604
267.712, 6774.688
269.079, 7845.925
270.446, 8916.332
271.812, 10505.933
273.178, 11914.744
274.544, 13322.752
275.909, 14339.869
277.275, 14586.032
278.640, 14551.147
280.005, 13625.183
281.369, 12598.077
282.734, 10969.948
284.098, 9730.896
285.462, 8360.994
286.826, 7290.302
288.190, 6452.868
289.553, 5590.700
290.916, 5121.822
292.279, 4521.281
293.642, 4214.133
295.004, 3908.381
296.367, 3580.009
297.729, 3435.040
299.091, 3244.409
300.452, 3147.240
301.814, 3118.023
303.175, 3029.361
304.536, 3077.995
305.897, 2991.258
307.257, 3164.530
308.618, 3103.252
309.978, 3217.192
311.338, 3396.074
312.698, 3486.531
314.057, 3806.019
315.416, 3953.976
316.776, 4416.269
318.134, 4938.898
319.493, 5477.216
320.851, 6238.552
322.210, 6954.489
323.568, 8044.698
324.925, 8852.000
326.283, 9549.225
327.640, 9806.513
328.998, 9553.569
330.354, 8980.125
331.711, 7915.740
333.068, 6901.250
334.424, 5843.729
335.780, 4903.011
337.136, 4274.864
338.491, 3609.018
339.847, 3219.378
341.202, 2808.412
342.557, 2633.733
343.912, 2375.305
345.266, 2292.908
346.621, 2175.665
347.975, 2038.142
349.329, 1995.905
350.682, 1925.064
352.036, 1902.773
353.389, 1868.059
354.742, 1802.398
356.095, 1891.938
357.448, 1839.636
358.800, 1789.055
360.152, 1824.562
361.504, 1767.624
362.856, 1737.687
364.208, 1613.934
365.559, 1624.148
366.910, 1518.810
368.261, 1430.262
369.612, 1432.195
370.962, 1293.007
372.313, 1254.282
373.663, 1096.583
375.012, 1065.854
376.362, 985.754
377.712, 871.413
379.061, 858.689
380.410, 703.082
381.758, 653.530
383.107, 642.161
384.455, 541.602
385.804, 457.130
387.151, 448.278
388.499, 370.115
389.847, 344.589
391.194, 335.818
392.541, 360.823
393.888, 318.190
395.235, 387.091
396.581, 342.420
397.927, 390.302
399.273, 419.726
400.619, 331.663
401.965, 396.979
403.310, 351.577
404.655, 358.367
406.000, 330.717
407.345, 304.373
408.689, 323.216
410.034, 313.509
411.378, 347.875
412.722, 353.514
414.065, 360.217
415.409, 422.735
416.752, 483.479
418.095, 577.159
419.438, 691.222
420.781, 851.048
422.123, 1026.712
423.465, 1260.219
424.807, 1491.569
426.149, 1611.769
427.490, 1792.819
428.832, 1785.727
430.173, 1871.492
431.514, 1903.121
432.855, 1847.615
434.195, 1841.980
435.535, 1825.891
436.875, 1805.331
438.215, 1816.324
439.555, 1820.201
440.894, 1889.967
442.234, 1845.625
443.573, 1954.182
444.911, 1979.640
446.250, 2015.004
447.588, 2085.279
448.927, 2177.465
450.265, 2322.280
451.602, 2476.805
452.940, 2696.536
454.277, 2899.549
455.614, 3145.382
456.951, 3456.412
458.288, 3558.361
459.624, 3807.406
460.961, 3863.454
462.297, 3745.388
463.633, 3651.827
464.968, 3376.462
466.304, 3380.989
467.639, 3143.764
468.974, 2936.803
470.309, 2784.180
471.643, 2441.548
472.978, 2288.567
474.312, 1960.234
475.646, 1767.171
476.980, 1507.654
478.313, 1348.064
479.647, 1272.504
480.980, 1120.500
482.313, 1001.681
483.645, 931.542
484.978, 866.145
486.310, 830.145
487.642, 775.183
488.974, 846.346
490.306, 696.823
491.637, 754.629
492.968, 770.649
494.299, 708.100
495.630, 748.059
496.961, 727.337
498.291, 751.647
499.622, 773.959
500.952, 732.272
502.281, 790.587
503.611, 780.912
504.940, 858.250
506.269, 880.601
507.598, 834.974
508.927, 811.357
510.256, 852.765
511.584, 882.208
512.912, 933.666
514.240, 997.143
515.568, 1044.659
516.895, 968.206
518.222, 1086.800
519.549, 1148.443
520.876, 1159.121
522.203, 1282.827
523.529, 1289.583
524.856, 1480.387
526.182, 1408.242
527.508, 1537.143
528.833, 1643.097
530.159, 1741.084
531.484, 1922.102
532.809, 2008.165
534.134, 2120.264
535.458, 2319.425
536.782, 2425.619
538.107, 2762.803
539.431, 2898.036
540.754, 3222.676
542.078, 3441.201
543.401, 3726.752
544.724, 4144.006
546.047, 4437.990
547.370, 4992.982
548.692, 5588.726
550.015, 6186.413
551.337, 7041.109
552.659, 7957.944
553.980, 9434.636
555.302, 10761.646
556.623, 12518.495
557.944, 14485.571
559.265, 15842.788
560.586, 17629.648
561.906, 19046.809
563.226, 18803.785
564.546, 18820.807
565.866, 17767.723
567.186, 17024.537
568.505, 15731.442
569.824, 14308.309
571.143, 13315.324
572.462, 11712.366
573.781, 10829.437
575.099, 9536.774
576.417, 8454.367
577.735, 7542.361
579.053, 6513.687
580.370, 5741.843
581.688, 4925.293
583.005, 4338.575
584.322, 3860.844
585.639, 3349.099
586.955, 2956.342
588.271, 2477.574
589.588, 2204.795
590.903, 1939.006
592.219, 1647.207
593.535, 1519.399
594.850, 1315.583
596.165, 1093.760
597.480, 996.929
598.794, 763.092
600.109, 784.249
601.423, 605.399
602.737, 574.546
604.051, 453.688
605.365, 385.826
606.678, 356.960
607.991, 293.091
609.304, 237.220
610.617, 172.346
611.930, 133.470
613.242, 155.592
614.554, 88.712
615.866, 87.828
617.178, 45.941
618.490, 40.049
619.801, 43.850
621.112, 35.791
622.423, 75.770
623.734, 91.806
625.045, 105.906
626.355, 92.078
627.665, 176.314
628.975, 142.657
630.285, 137.088
631.594, 213.604
632.904, 218.245
634.213, 163.013
635.522, 178.879
636.831, 195.850
638.139, 104.935
639.447, 177.087
640.756, 172.342
642.063, 168.697
643.371, 125.149
644.679, 126.676
645.986, 95.631
647.293, 101.940
648.600, 55.663
649.907, 60.424
651.213, 69.226
652.519, 61.070
653.825, 7.046
655.131, 52.155
656.437, 68.270
657.743, 95.391
659.048, 145.519
660.353, 117.654
661.658, 223.795
662.962, 306.944
664.267, 289.100
665.571, 433.263
666.875, 419.435
668.179, 593.613
669.483, 554.800
670.786, 672.994
672.089, 895.196
673.392, 970.406
674.695, 1222.624
675.998, 1292.850
677.300, 1566.084
678.602, 1846.327
679.904, 2131.578
681.206, 2604.837
682.508, 3018.104
683.809, 3740.379
685.111, 4581.665
686.412, 5475.958
687.712, 6748.260
689.013, 8234.567
690.313, 9990.888
691.614, 12047.213
692.914, 13493.553
694.213, 14879.896
695.513, 15046.251
696.812, 14622.613
698.112, 13108.989
699.411, 11405.378
700.709, 9691.779
702.008, 7658.193
703.306, 6399.623
704.604, 5056.071
705.902, 4016.533
707.200, 3335.015
708.498, 2691.512
709.795, 2195.028
711.092, 1918.561
712.389, 1467.111
713.686, 1297.680
714.983, 1043.265
716.279, 880.867
717.575, 806.487
718.871, 714.125
720.167, 630.781
721.463, 477.456
722.758, 437.149
724.053, 372.862
725.348, 338.595
726.643, 347.347
727.937, 362.119
729.232, 238.937
730.526, 307.748
731.820, 212.578
733.114, 324.426
734.407, 191.290
735.701, 234.169
736.994, 221.063
738.287, 248.974
739.579, 321.900
740.872, 261.843
742.164, 262.801
743.456, 330.777
744.748, 339.769
746.040, 359.779
747.332, 353.806
748.623, 406.851
749.914, 461.914
751.205, 480.994
752.496, 563.094
753.787, 550.211
755.077, 567.348
756.367, 668.504
757.657, 694.678
758.947, 748.873
760.236, 797.087
761.526, 843.321
762.815, 932.575
764.104, 914.850
765.393, 1027.145
766.681, 1096.460
767.969, 1131.653
769.258, 1251.974
770.546, 1252.052
771.833, 1386.163
773.121, 1449.135
774.408, 1447.065
775.695, 1701.074
776.982, 1666.550
778.269, 1784.809
779.556, 1866.167
780.842, 1941.734
782.128, 2040.155
783.414, 2118.631
784.700, 2254.176
785.986, 2412.095
787.271, 2437.396
788.556, 2533.467
789.841, 2514.039
791.126, 2714.725
792.411, 2763.421
793.695, 2794.611
794.979, 3049.653
796.263, 3086.062
797.547, 3153.767
798.831, 3205.119
800.114, 3218.477
801.397, 3256.319
802.680, 3284.723
803.963, 3288.514
805.246, 3323.104
806.528, 3339.320
807.810, 3318.083
809.092, 3405.580
810.374, 3169.096
811.656, 3336.669
812.937, 3172.293
814.218, 3141.973
815.499, 3052.707
816.780, 2944.495
818.061, 2855.325
819.341, 2743.690
820.621, 2636.461
821.901, 2520.114
823.181, 2394.127
824.461, 2279.184
825.740, 2116.282
827.019, 2000.430
828.299, 1878.620
829.577, 1725.873
830.856, 1661.171
832.134, 1563.522
833.413, 1374.935
834.691, 1380.400
835.969, 1217.921
837.246, 1177.497
838.524, 1009.124
839.801, 938.811
841.078, 954.552
842.355, 801.347
843.632, 815.203
844.908, 715.104
846.185, 650.063
847.461, 630.069
848.736, 476.132
850.012, 463.256
851.288, 494.426
852.563, 405.642
853.838, 443.907
855.113, 327.225
856.388, 377.598
857.662, 262.025
858.937, 197.499
860.211, 281.019
861.485, 229.586
862.758, 185.201
864.032, 200.868
865.305, 140.579
866.578, 90.342
867.851, 85.149
869.124, 110.001
870.397, 51.907
871.669, 41.857
872.941, 103.854
874.213, 23.906
875.485, 117.003
876.757, 106.143
878.028, 54.329
879.299, 110.562
880.570, 77.844
881.841, 2.169
883.112, 94.539
884.382, 140.953
885.652, 209.410
886.922, 140.918
888.192, 197.472
889.462, 305.072
890.731, 355.715
892.000, 435.402
893.269, 534.132
894.538, 578.909
895.807, 756.730
897.075, 839.596
898.344, 980.507
899.612, 1211.462
900.880, 1339.460
902.147, 1742.503
903.415, 2010.590
904.682, 2355.723
905.949, 2705.899
907.216, 3245.118
908.483, 3958.385
909.749, 4556.696
911.016, 5061.050
912.282, 5916.446
913.548, 6292.886
914.814, 6725.369
916.079, 6857.896
917.344, 6620.465
918.610, 6903.080
919.875, 6675.734
921.139, 6718.435
922.404, 6871.178
923.668, 7183.963
924.932, 7786.792
926.196, 8619.667
927.460, 9383.224
928.724, 10836.213
929.987, 12009.256
931.251, 14203.550
932.514, 15976.739
933.776, 17871.480
935.039, 19844.992
936.301, 20768.576
937.564, 22312.402
938.826, 21996.275
940.088, 21010.289
941.349, 20094.656
942.611, 17759.203
943.872, 16573.207
945.133, 14879.487
946.394, 13154.900
947.655, 12131.376
948.915, 11246.068
950.176, 10632.683
951.436, 10518.767
952.696, 10275.021
953.955, 10594.792
955.215, 10941.111
956.474, 11210.285
957.734, 11628.167
958.993, 11675.128
960.251, 11271.706
961.510, 11138.331
962.768, 10086.776
964.027, 9314.168
965.285, 8392.288
966.542, 7670.542
967.800, 7028.192
969.057, 6173.420
970.315, 5701.808
971.572, 5032.562
972.829, 4577.870
974.085, 4210.210
975.342, 3726.582
976.598, 3353.981
977.854, 3110.743
979.110, 2767.270
980.366, 2577.095
981.621, 2438.133
982.877, 2096.281
984.132, 2180.805
985.387, 1816.455
986.641, 1782.003
987.896, 1718.190
989.150, 1516.498
990.404, 1576.213
991.658, 1395.937
992.912, 1329.354
994.166, 1259.182
995.419, 1183.989
996.672, 1127.361
997.925, 1071.875
999.178, 991.472
1000.431, 1026.543
1001.683, 919.790
1002.936, 927.206
1004.188, 895.417
1005.440, 834.285
1006.691, 872.685
1007.943, 762.951
1009.194, 813.687
1010.445, 801.196
1011.696, 711.853
1012.947, 784.778
1014.197, 686.673
1015.448, 670.809
1016.698, 633.726
1017.948, 622.015
1019.198, 588.045
1020.447, 594.729
1021.697, 557.146
1022.946, 582.662
1024.195, 635.844
1025.444, 531.104
1026.692, 576.472
1027.941, 457.001
1029.189, 486.934
1030.437, 469.440
1031.685, 483.840
1032.933, 432.215
1034.180, 398.751
1035.427, 421.273
1036.675, 387.872
1037.922, 383.020
1039.168, 371.874
1040.415, 358.280
1041.661, 344.693
1042.907, 391.240
1044.153, 300.260
1045.399, 331.052
1046.645, 319.668
1047.890, 278.575
1049.135, 291.125
1050.380, 265.657
1051.625, 291.601
1052.870, 211.239
1054.114, 168.420
1055.359, 202.904
1056.603, 227.475
1057.847, 142.183
1059.090, 67.788
1060.334, 90.497
1061.577, 89.130
1062.820, 88.738
1064.063, 79.613
1065.306, 82.202
1066.549, 9.260
1067.791, 63.898
1069.033, 89.465
1070.275, 35.107
1071.517, 66.797
1072.759, 29.466
1074.000, 26.078
1075.241, 31.810
1076.482, 26.553
1077.723, 2.045
1078.964, 32.706
1080.204, 38.556
1081.445, 15.163
1082.685, 43.291
1083.925, 7.451
1085.164, 5.953
1086.404, 11.463
1087.643, 9.847
1088.883, 10.341
1090.122, 16.845
1091.360, 18.130
1092.599, 7.644
1093.837, 47.454
1095.076, 27.973
1096.314, 45.403
1097.552, 6.811
1098.789, 42.384
1100.027, 29.899
1101.264, 30.527
1102.501, 90.122
1103.738, 26.832
1104.975, 75.579
1106.211, 51.187
1107.448, 32.062
1108.684, 22.866
1109.920, 21.904
1111.156, 52.761
1112.391, 32.676
1113.627, 43.735
1114.862, 43.979
1116.097, 32.301
1117.332, 19.793
1118.566, 40.615
1119.801, 7.385
1121.035, 94.317
1122.269, 124.334
1123.503, 82.038
1124.737, 73.696
1125.971, 3.712
1127.204, 29.933
1128.437, 49.480
1129.670, 15.982
1130.903, 19.285
1132.136, 39.562
1133.368, 8.114
1134.600, 20.819
1135.832, 13.550
1137.064, 2.055
1138.296, 34.821
1139.527, 1.601
1140.759, 11.161
1141.990, 32.212
1143.221, 67.332
1144.452, 21.983
1145.682, 32.065
1146.912, 6.911
1148.143, 29.061
1149.373, 48.792
1150.602, 44.623
1151.832, 24.312
1153.062, 12.141
1154.291, 4.080
1155.520, 7.688
1156.749, 45.337
1157.978, 56.072
1159.206, 52.565
1160.434, 45.630
1161.663, 22.259
1162.891, 122.566
1164.118, 24.957
1165.346, 86.266
1166.573, 87.639
1167.801, 18.791
1169.028, 85.299
1170.254, 82.398
1171.481, 7.862
1172.708, 125.913
1173.934, 104.026
1175.160, 92.127
1176.386, 73.304
1177.612, 53.748
1178.837, 116.443
1180.063, 121.818
1181.288, 105.543
1182.513, 110.076
1183.738, 59.242
1184.962, 78.206
1186.187, 94.815
1187.411, 158.406
1188.635, 154.790
1189.859, 126.205
1191.083, 93.693
1192.306, 109.082
1193.529, 124.612
1194.753, 105.896
1195.976, 144.569
1197.198, 151.909
1198.421, 109.072
1199.643, 133.386
1200.866, 98.481
1202.088, 175.521
1203.310, 157.827
1204.531, 78.903
1205.753, 154.849
1206.974, 137.666
1208.195, 152.402
1209.416, 160.097
1210.637, 128.759
1211.857, 168.378
1213.078, 118.958
1214.298, 159.604
1215.518, 178.104
1216.738, 161.582
1217.958, 152.115
1219.177, 157.693
1220.396, 172.087
1221.615, 150.418
1222.834, 167.753
1224.053, 175.346
1225.272, 160.704
1226.490, 152.057
1227.708, 151.990
1228.926, 185.072
1230.144, 140.854
1231.362, 190.757
1232.579, 191.755
1233.796, 161.645
1235.013, 184.261
1236.230, 184.914
1237.447, 149.249
1238.664, 143.380
1239.880, 133.110
1241.096, 171.619
1242.312, 154.031
1243.528, 147.467
1244.744, 165.711
1245.959, 152.080
1247.174, 162.213
1248.389, 153.020
1249.604, 155.368
1250.819, 156.061
1252.033, 131.181
1253.248, 157.459
1254.462, 138.681
1255.676, 147.306
1256.890, 155.889
1258.103, 133.646
1259.317, 148.448
1260.530, 179.516
1261.743, 184.453
1262.956, 107.985
1264.169, 188.966
1265.381, 107.749
1266.594, 111.167
1267.806, 103.011
1269.018, 132.914
1270.229, 140.019
1271.441, 150.745
1272.652, 130.177
1273.864, 137.754
1275.075, 61.056
1276.286, 105.254
1277.496, 100.174
1278.707, 118.707
1279.917, 140.165
1281.127, 131.662
1282.337, 84.497
1283.547, 142.248
1284.757, 106.533
1285.966, 80.098
1287.175, 140.755
1288.385, 59.893
1289.593, 50.040
1290.802, 88.687
1292.011, 87.337
1293.219, 103.083
1294.427, 89.926
1295.635, 88.729
1296.843, 107.349
1298.051, 79.016
1299.258, 65.012
1300.465, 90.464
1301.672, 78.035
1302.879, 66.373
1304.086, 87.672
1305.292, 38.808
1306.499, 64.904
1307.705, 22.799
1308.911, 79.414
1310.117, 82.326
1311.322, 70.756
1312.528, 102.208
1313.733, 50.494
1314.938, 18.826
1316.143, 47.967
1317.348, 79.426
1318.552, 67.790
1319.757, 65.031
1320.961, 55.091
1322.165, 33.728
1323.369, 118.840
1324.572, 31.972
1325.776, 15.176
1326.979, 143.252
1328.182, 37.209
1329.385, 47.087
1330.588, 83.378
1331.790, 10.943
1332.993, 118.913
1334.195, 102.913
1335.397, 76.796
1336.599, 90.089
1337.801, 58.639
1339.002, 96.292
1340.203, 38.627
1341.404, 66.298
1342.605, 96.962
1343.806, 59.193
1345.007, 93.707
1346.207, 95.682
1347.407, 46.309
1348.607, 68.821
1349.807, 87.193
1351.007, 108.619
1352.207, 118.322
1353.406, 137.278
1354.605, 116.624
1355.804, 116.679
1357.003, 123.674
1358.201, 89.909
1359.400, 123.129
1360.598, 110.408
1361.796, 87.578
1362.994, 66.776
1364.192, 100.876
1365.389, 106.004
1366.587, 95.166
1367.784, 149.213
1368.981, 68.306
1370.178, 61.573
1371.374, 114.952
1372.571, 105.589
1373.767, 54.048
1374.963, 88.646
1376.159, 63.246
1377.355, 45.225
1378.550, 134.185
1379.746, 77.223
1380.941, 82.376
1382.136, 143.514
1383.331, 127.709
1384.526, 126.732
1385.720, 117.826
1386.914, 90.941
1388.109, 139.311
1389.303, 111.391
1390.496, 49.495
1391.690, 174.008
1392.883, 87.043
1394.077, 83.057
1395.270, 107.898
1396.463, 98.223
1397.655, 98.169
1398.848, 90.719
1400.040, 93.582
1401.232, 113.363
1402.425, 89.711
1403.616, 101.287
1404.808, 81.088
1405.999, 83.901
1407.191, 72.154
1408.382, 124.825
1409.573, 77.302
1410.764, 139.902
1411.954, 52.227
1413.145, 10.714
1414.335, 139.989
1415.525, 53.699
1416.715, 75.144
1417.905, 64.178
1419.094, 34.149
1420.283, 82.389
1421.473, 77.477
1422.662, 51.475
1423.850, 61.556
1425.039, 79.055
1426.228, 52.252
1427.416, 97.099
1428.604, 3.408
1429.792, 37.586
1430.980, 129.569
1432.167, 87.806
1433.355, 40.563
1434.542, 8.379
1435.729, 23.813
1436.916, 66.789
1438.103, 20.336
1439.289, 19.639
1440.475, 71.207
1441.662, 53.590
1442.848, 53.897
1444.033, 73.108
1445.219, 0.231
1446.405, 69.279
1447.590, 54.469
1448.775, 14.026
1449.960, 18.562
1451.145, 74.014
1452.329, 24.060
1453.514, 55.465
1454.698, 30.823
1455.882, 54.269
1457.066, 25.700
1458.250, 55.130
1459.433, 88.548
1460.616, 104.868
1461.800, 64.253
1462.983, 80.406
1464.165, 84.865
1465.348, 23.087
1466.531, 40.006
1467.713, 16.529
1468.895, 9.854
1470.077, 96.285
1471.259, 31.878
1472.440, 140.139
1473.622, 66.473
1474.803, 48.985
1475.984, 16.802
1477.165, 6.734
1478.346, 45.895
1479.526, 16.163
1480.707, 77.459
1481.887, 91.531
1483.067, 99.311
1484.247, 39.208
1485.426, 40.976
1486.606, 103.079
1487.785, 20.151
1488.964, 25.219
1490.143, 49.881
1491.322, 19.564
1492.501, 57.340
1493.679, 38.204
1494.858, 21.948
1496.036, 58.324
1497.214, 49.016
1498.391, 5.233
1499.569, 78.496
1500.746, 60.487
1501.924, 24.740
1503.101, 92.909
1504.277, 5.320
1505.454, 68.190
1506.631, 61.409
1507.807, 0.127
