##NAMES=Lawsonite
##RRUFFID=R050042
##IDEAL CHEMISTRY=CaAl_2_Si_2_O_7_(OH)_2_&#183;H_2_O
##LOCALITY=California, USA
##OWNER=RRUFF
##SOURCE=University of Arizona Mineral Museum
##DESCRIPTION=White to colorless fragments
##STATUS=The identification of this mineral has been confirmed by X-ray diffraction and chemical analysis
##URL=rruff.info/R050042
##MEASURED CHEMISTRY=(Ca_0.98_Fe^2+^_0.02_)Al_2.00_Si_2.00_O_7_(OH)_2_Â·H_2_O
##PIN_ID=L00444
##ORIENTATION=Laser parallel to a* (1 0 0). Fiducial mark perpendicular to laser is parallel to b [0 1 0]
138.268, 0.000
139.655, 6.346
141.042, 137.790
142.429, 497.886
143.816, 509.603
145.202, 827.565
146.589, 976.571
147.975, 1090.012
149.360, 1259.878
150.746, 1265.973
152.131, 1376.866
153.516, 1456.304
154.901, 1416.753
156.286, 1538.104
157.670, 1478.370
159.055, 1587.656
160.439, 1447.652
161.822, 1488.821
163.206, 1522.130
164.589, 1452.544
165.972, 1448.505
167.355, 1328.545
168.738, 1357.075
170.121, 1278.482
171.503, 1251.016
172.885, 1120.912
174.267, 1146.893
175.648, 1155.318
177.029, 1104.563
178.411, 1150.924
179.792, 1080.592
181.172, 1193.773
182.553, 1184.536
183.933, 1193.916
185.313, 1119.745
186.693, 1165.192
188.072, 1134.700
189.452, 1036.475
190.831, 930.132
192.210, 990.828
193.588, 821.369
194.967, 882.205
196.345, 641.707
197.723, 741.585
199.101, 636.844
200.479, 519.243
201.856, 437.752
203.233, 365.348
204.610, 390.008
205.987, 283.724
207.363, 228.493
208.740, 73.318
210.116, 136.201
211.492, 5.146
212.867, 12.154
214.243, 57.228
215.618, 8.631
216.993, 6.582
218.367, 59.134
219.742, 67.775
221.116, 87.273
222.490, 98.417
223.864, 98.206
225.238, 132.656
226.611, 65.791
227.985, 160.632
229.357, 102.201
230.730, 118.523
232.103, 126.618
233.475, 36.514
234.847, 129.231
236.219, 96.789
237.591, 40.794
238.962, 37.500
240.334, 65.306
241.705, 14.188
243.075, 152.119
244.446, 121.078
245.816, 107.047
247.186, 195.020
248.556, 163.992
249.926, 286.963
251.296, 232.928
252.665, 355.874
254.034, 332.791
255.403, 417.665
256.771, 497.452
258.140, 474.099
259.508, 535.622
260.876, 545.984
262.244, 663.126
263.611, 771.031
264.978, 876.702
266.346, 1081.136
267.712, 1172.359
269.079, 1424.432
270.446, 1571.375
271.812, 1868.289
273.178, 2132.217
274.544, 2248.175
275.909, 2656.175
277.275, 2513.225
278.640, 2740.332
280.005, 2538.505
281.369, 2530.750
282.734, 2192.065
284.098, 2047.450
285.462, 1867.905
286.826, 1580.430
288.190, 1530.023
289.553, 1300.686
290.916, 1187.415
292.279, 1109.212
293.642, 922.077
295.004, 903.009
296.367, 734.006
297.729, 709.070
299.091, 662.199
300.452, 674.394
301.814, 626.652
303.175, 634.658
304.536, 608.840
305.897, 617.382
307.257, 687.011
308.618, 662.613
309.978, 684.170
311.338, 737.604
312.698, 678.901
314.057, 729.069
315.416, 726.085
316.776, 781.927
318.134, 882.580
319.493, 858.067
320.851, 978.366
322.210, 1017.462
323.568, 1060.336
324.925, 1055.953
326.283, 1100.310
327.640, 1291.397
328.998, 1282.250
330.354, 1381.881
331.711, 1442.303
333.068, 1475.534
334.424, 1536.555
335.780, 1663.350
337.136, 1788.908
338.491, 1855.174
339.847, 2012.051
341.202, 2159.607
342.557, 2335.786
343.912, 2525.527
345.266, 2686.832
346.621, 3016.740
347.975, 3399.230
349.329, 3659.354
350.682, 4084.213
352.036, 4357.910
353.389, 4981.517
354.742, 5395.093
356.095, 5968.656
357.448, 6522.186
358.800, 6965.770
360.152, 7778.678
361.504, 7902.083
362.856, 8675.135
364.208, 9187.775
365.559, 9560.154
366.910, 10012.136
368.261, 10266.215
369.612, 10715.961
370.962, 10627.099
372.313, 10785.714
373.663, 10785.896
375.012, 10612.125
376.362, 10639.047
377.712, 10198.104
379.061, 10114.317
380.410, 9641.760
381.758, 9435.354
383.107, 9198.674
384.455, 8701.037
385.804, 8362.962
387.151, 7845.154
388.499, 7575.429
389.847, 7240.142
391.194, 6739.136
392.541, 6632.027
393.888, 6194.117
395.235, 5975.917
396.581, 5643.585
397.927, 5415.643
399.273, 5189.941
400.619, 4821.377
401.965, 4899.795
403.310, 4581.752
404.655, 4473.077
406.000, 4246.021
407.345, 4031.878
408.689, 3811.490
410.034, 3624.995
411.378, 3588.324
412.722, 3392.312
414.065, 3198.124
415.409, 3204.498
416.752, 2955.826
418.095, 2890.558
419.438, 2907.595
420.781, 2799.659
422.123, 2703.751
423.465, 2580.872
424.807, 2549.021
426.149, 2472.816
427.490, 2434.083
428.832, 2421.655
430.173, 2353.931
431.514, 2412.242
432.855, 2317.587
434.195, 2326.967
435.535, 2357.381
436.875, 2470.464
438.215, 2696.312
439.555, 2837.830
440.894, 3191.378
442.234, 3454.962
443.573, 3720.578
444.911, 4076.228
446.250, 4251.908
447.588, 4637.622
448.927, 4643.366
450.265, 5009.143
451.602, 5054.950
452.940, 5480.788
454.277, 5356.656
455.614, 5442.555
456.951, 5658.482
458.288, 5344.439
459.624, 5090.425
460.961, 4816.441
462.297, 4052.485
463.633, 3639.121
464.968, 2737.186
466.304, 2365.428
467.639, 1860.000
468.974, 1563.131
470.309, 1301.998
471.643, 890.427
472.978, 757.120
474.312, 608.301
475.646, 693.447
476.980, 557.361
478.313, 392.920
479.647, 463.847
480.980, 418.919
482.313, 379.409
483.645, 359.067
484.978, 327.257
486.310, 396.070
487.642, 278.861
488.974, 381.034
490.306, 367.692
491.637, 258.412
492.968, 433.569
494.299, 330.098
495.630, 392.199
496.961, 394.940
498.291, 378.097
499.622, 527.978
500.952, 386.919
502.281, 483.803
503.611, 452.695
504.940, 469.594
506.269, 571.505
507.598, 429.426
508.927, 530.359
510.256, 471.314
511.584, 472.284
512.912, 524.279
514.240, 531.291
515.568, 555.335
516.895, 481.410
518.222, 530.501
519.549, 621.619
520.876, 492.760
522.203, 635.917
523.529, 429.114
524.856, 646.329
526.182, 706.572
527.508, 593.839
528.833, 817.126
530.159, 741.438
531.484, 831.774
532.809, 936.154
534.134, 1020.562
535.458, 1116.668
536.782, 991.535
538.107, 1305.087
539.431, 1427.687
540.754, 1532.329
542.078, 1833.029
543.401, 1884.794
544.724, 2165.623
546.047, 2268.516
547.370, 2672.473
548.692, 3043.500
550.015, 3267.582
551.337, 3794.739
552.659, 4301.957
553.980, 5049.239
555.302, 5806.588
556.623, 6723.974
557.944, 7981.424
559.265, 8648.929
560.586, 9506.457
561.906, 10444.021
563.226, 10261.604
564.546, 10319.213
565.866, 9556.839
567.186, 9094.479
568.505, 8402.135
569.824, 7649.804
571.143, 7497.489
572.462, 7165.184
573.781, 7162.891
575.099, 7270.605
576.417, 7418.330
577.735, 7656.062
579.053, 7403.801
580.370, 7501.545
581.688, 6929.293
583.005, 6437.049
584.322, 6054.810
585.639, 5212.575
586.955, 4700.346
588.271, 4068.121
589.588, 3585.899
590.903, 3163.684
592.219, 2757.472
593.535, 2442.263
594.850, 2186.057
596.165, 1759.855
597.480, 1595.656
598.794, 1345.461
600.109, 1238.267
601.423, 1117.077
602.737, 980.888
604.051, 858.700
605.365, 713.516
606.678, 690.332
607.991, 571.149
609.304, 488.968
610.617, 364.788
611.930, 198.609
613.242, 351.430
614.554, 203.250
615.866, 100.072
617.178, 144.894
618.490, 66.714
619.801, 77.534
621.112, 5.646
622.423, 89.165
623.734, 6.974
625.045, 86.223
626.355, 28.528
627.665, 136.723
628.975, 2.946
630.285, 52.394
631.594, 170.771
632.904, 185.249
634.213, 148.835
635.522, 110.510
636.831, 195.256
638.139, 133.116
639.447, 139.059
640.756, 141.088
642.063, 85.205
643.371, 126.381
644.679, 77.638
645.986, 130.950
647.293, 90.346
648.600, 90.806
649.907, 81.328
651.213, 54.910
652.519, 23.464
653.825, 7.832
655.131, 1.187
656.437, 78.652
657.743, 53.989
659.048, 240.323
660.353, 130.159
661.658, 214.489
662.962, 296.682
664.267, 284.009
665.571, 482.335
666.875, 481.623
668.179, 631.944
669.483, 593.668
670.786, 685.985
672.089, 896.298
673.392, 1036.813
674.695, 1300.123
675.998, 1531.239
677.300, 1719.296
678.602, 2202.595
679.904, 2339.831
681.206, 3100.123
682.508, 3547.815
683.809, 4194.584
685.111, 5350.864
686.412, 6217.138
687.712, 7773.409
689.013, 9720.979
690.313, 11607.241
691.614, 14763.496
692.914, 16863.914
694.213, 19230.156
695.513, 20516.395
696.812, 20452.660
698.112, 19608.889
699.411, 16696.469
700.709, 14432.684
702.008, 11828.891
703.306, 9795.091
704.604, 7921.281
705.902, 6527.465
707.200, 5373.642
708.498, 4479.810
709.795, 3725.969
711.092, 3362.118
712.389, 2606.259
713.686, 2371.390
714.983, 2052.512
716.279, 1720.623
717.575, 1600.725
718.871, 1279.816
720.167, 1265.897
721.463, 1045.968
722.758, 1007.028
724.053, 963.079
725.348, 846.119
726.643, 794.149
727.937, 713.168
729.232, 500.176
730.526, 625.175
731.820, 400.162
733.114, 641.139
734.407, 475.105
735.701, 384.061
736.994, 529.006
738.287, 348.940
739.579, 392.863
740.872, 342.776
742.164, 340.678
743.456, 359.570
744.748, 351.451
746.040, 361.321
747.332, 312.182
748.623, 243.031
749.914, 423.869
751.205, 299.697
752.496, 263.515
753.787, 353.322
755.077, 215.118
756.367, 472.903
757.657, 318.678
758.947, 333.442
760.236, 387.196
761.526, 340.940
762.815, 427.674
764.104, 306.396
765.393, 337.109
766.681, 346.811
767.969, 288.502
769.258, 454.184
770.546, 402.854
771.833, 374.516
773.121, 479.166
774.408, 441.807
775.695, 614.437
776.982, 467.492
778.269, 511.103
779.556, 562.517
780.842, 421.581
782.128, 576.064
783.414, 480.792
784.700, 558.937
785.986, 585.798
787.271, 494.151
788.556, 479.521
789.841, 433.105
791.126, 388.027
792.411, 368.566
793.695, 292.944
794.979, 330.892
796.263, 264.658
797.547, 198.879
798.831, 285.467
800.114, 170.071
801.397, 190.286
802.680, 253.007
803.963, 105.661
805.246, 108.874
806.528, 136.711
807.810, 36.974
809.092, 53.595
810.374, 73.201
811.656, 114.263
812.937, 68.668
814.218, 2.865
815.499, 47.595
816.780, 10.936
818.061, 32.525
819.341, 15.987
820.621, 33.545
821.901, 61.905
823.181, 42.644
824.461, 44.787
825.740, 72.781
827.019, 58.383
828.299, 11.987
829.577, 51.633
830.856, 10.278
832.134, 72.083
833.413, 91.532
834.691, 51.812
835.969, 24.841
837.246, 5.500
838.524, 11.836
839.801, 20.174
841.078, 111.516
842.355, 24.140
843.632, 62.202
844.908, 118.549
846.185, 80.093
847.461, 152.243
848.736, 8.582
850.012, 3.933
851.288, 232.285
852.563, 27.360
853.838, 148.986
855.113, 37.336
856.388, 28.690
857.662, 148.050
858.937, 141.414
860.211, 146.781
861.485, 126.154
862.758, 171.530
864.032, 222.913
865.305, 68.300
866.578, 230.692
867.851, 197.091
869.124, 123.495
870.397, 241.904
871.669, 126.319
872.941, 264.740
874.213, 164.197
875.485, 289.659
876.757, 247.128
878.028, 165.603
879.299, 338.083
880.570, 329.569
881.841, 236.062
883.112, 370.562
884.382, 334.068
885.652, 317.582
886.922, 382.102
888.192, 422.629
889.462, 536.163
890.731, 557.705
892.000, 472.254
893.269, 698.811
894.538, 658.377
895.807, 831.951
897.075, 924.532
898.344, 916.123
899.612, 1087.721
900.880, 1154.327
902.147, 1118.942
903.415, 1397.565
904.682, 1443.198
905.949, 1527.839
907.216, 1790.488
908.483, 1926.147
909.749, 2221.814
911.016, 2197.491
912.282, 2523.177
913.548, 2578.870
914.814, 2674.574
916.079, 2900.288
917.344, 2936.010
918.610, 3291.744
919.875, 3507.486
921.139, 3663.239
922.404, 4069.002
923.668, 4494.776
924.932, 4920.559
926.196, 5756.350
927.460, 6272.154
928.724, 7597.964
929.987, 8423.791
931.251, 9789.626
932.514, 11635.479
933.776, 13131.361
935.039, 14877.258
936.301, 16303.206
937.564, 17769.166
938.826, 18075.164
940.088, 17751.219
941.349, 17217.334
942.611, 15693.506
943.872, 14389.727
945.133, 12966.009
946.394, 11362.343
947.655, 10038.734
948.915, 8995.176
950.176, 7891.661
951.436, 7318.633
952.696, 6445.206
953.955, 5711.832
955.215, 5358.500
956.474, 4685.211
957.734, 4381.963
958.993, 4238.744
960.251, 3715.540
961.510, 3782.353
962.768, 3335.057
964.027, 3071.898
965.285, 2978.754
966.542, 2775.117
967.800, 2733.321
969.057, 2479.411
970.315, 2406.322
971.572, 2263.898
972.829, 2068.872
974.085, 2055.820
975.342, 1970.375
976.598, 1897.348
977.854, 1880.331
979.110, 1670.124
980.366, 1624.803
981.621, 1615.012
982.877, 1458.902
984.132, 1588.066
985.387, 1338.228
986.641, 1344.298
987.896, 1397.118
989.150, 1143.729
990.404, 1254.844
991.658, 1241.971
992.912, 1165.110
994.166, 1260.818
995.419, 1093.136
996.672, 1074.227
997.925, 1028.974
999.178, 909.199
1000.431, 1168.267
1001.683, 987.484
1002.936, 1032.750
1004.188, 1001.832
1005.440, 757.127
1006.691, 940.540
1007.943, 968.160
1009.194, 825.519
1010.445, 945.895
1011.696, 769.344
1012.947, 776.763
1014.197, 903.441
1015.448, 895.891
1016.698, 819.398
1017.948, 873.146
1019.198, 837.677
1020.447, 864.416
1021.697, 788.084
1022.946, 812.677
1024.195, 918.404
1025.444, 696.019
1026.692, 813.647
1027.941, 848.285
1029.189, 728.935
1030.437, 886.621
1031.685, 755.314
1032.933, 804.033
1034.180, 724.896
1035.427, 728.655
1036.675, 805.448
1037.922, 809.307
1039.168, 866.120
1040.415, 1016.947
1041.661, 1002.783
1042.907, 1246.630
1044.153, 1334.028
1045.399, 1433.896
1046.645, 1766.770
1047.890, 1794.906
1049.135, 1902.798
1050.380, 1960.721
1051.625, 1858.730
1052.870, 1686.668
1054.114, 1482.888
1055.359, 1355.842
1056.603, 1308.801
1057.847, 971.036
1059.090, 997.010
1060.334, 831.994
1061.577, 699.985
1062.820, 712.981
1064.063, 532.273
1065.306, 692.281
1066.549, 472.295
1067.791, 399.866
1069.033, 522.893
1070.275, 377.924
1071.517, 372.218
1072.759, 319.404
1074.000, 326.448
1075.241, 312.554
1076.482, 257.605
1077.723, 186.661
1078.964, 287.841
1080.204, 95.904
1081.445, 185.973
1082.685, 183.115
1083.925, 120.567
1085.164, 134.888
1086.404, 103.973
1087.643, 125.796
1088.883, 198.892
1090.122, 119.990
1091.360, 50.093
1092.599, 96.236
1093.837, 38.339
1095.076, 131.442
1096.314, 25.545
1097.552, 104.796
1098.789, 33.898
1100.027, 18.757
1101.264, 139.616
1102.501, 24.708
1103.738, 21.090
1104.975, 101.236
1106.211, 17.441
1107.448, 35.523
1108.684, 22.602
1109.920, 32.677
1111.156, 93.098
1112.391, 57.184
1113.627, 9.588
1114.862, 95.665
1116.097, 37.259
1117.332, 2.378
1118.566, 84.681
1119.801, 22.056
1121.035, 115.834
1122.269, 129.042
1123.503, 90.418
1124.737, 236.663
1125.971, 63.700
1127.204, 69.423
1128.437, 39.390
1129.670, 6.888
1130.903, 54.861
1132.136, 94.537
1133.368, 1.234
1134.600, 21.273
1135.832, 27.342
1137.064, 45.267
1138.296, 38.691
1139.527, 44.288
1140.759, 87.417
1141.990, 38.160
1143.221, 2.518
1144.452, 37.278
1145.682, 50.046
1146.912, 112.406
1148.143, 34.311
1149.373, 44.112
1150.602, 49.949
1151.832, 0.278
1153.062, 61.317
1154.291, 14.482
1155.520, 2.072
1156.749, 95.297
1157.978, 141.802
1159.206, 33.358
1160.434, 204.718
1161.663, 1.789
1162.891, 141.562
1164.118, 71.789
1165.346, 16.755
1166.573, 154.077
1167.801, 39.008
1169.028, 59.599
1170.254, 182.631
1171.481, 100.093
1172.708, 159.716
1173.934, 109.333
1175.160, 137.291
1176.386, 119.437
1177.612, 119.399
1178.837, 127.791
1180.063, 160.957
1181.288, 84.897
1182.513, 190.231
1183.738, 232.097
1184.962, 109.250
1186.187, 302.807
1187.411, 257.440
1188.635, 174.117
1189.859, 281.316
1191.083, 29.241
1192.306, 188.935
1193.529, 200.455
1194.753, 74.916
1195.976, 173.868
1197.198, 306.530
1198.421, 125.728
1199.643, 267.077
1200.866, 83.191
1202.088, 319.180
1203.310, 286.470
1204.531, 89.053
1205.753, 205.971
1206.974, 234.041
1208.195, 234.217
1209.416, 219.064
1210.637, 91.056
1211.857, 230.231
1213.078, 227.298
1214.298, 52.947
1215.518, 207.668
1216.738, 201.771
1217.958, 107.441
1219.177, 135.087
1220.396, 176.024
1221.615, 159.623
1222.834, 255.201
1224.053, 205.111
1225.272, 148.641
1226.490, 284.445
1227.708, 262.278
1228.926, 163.730
1230.144, 92.949
1231.362, 127.329
1232.579, 378.697
1233.796, 55.604
1235.013, 278.100
1236.230, 189.525
1237.447, 221.846
1238.664, 183.122
1239.880, 242.379
1241.096, 306.794
1242.312, 257.014
1243.528, 162.393
1244.744, 213.573
1245.959, 141.735
1247.174, 134.569
1248.389, 326.677
1249.604, 133.766
1250.819, 190.867
1252.033, 176.908
1253.248, 396.043
1254.462, 222.039
1255.676, 257.014
1256.890, 126.964
1258.103, 267.886
1259.317, 135.779
1260.530, 259.646
1261.743, 306.472
1262.956, 3.934
1264.169, 280.814
1265.381, 166.536
1266.594, 68.554
1267.806, 179.177
1269.018, 138.764
1270.229, 172.466
1271.441, 227.897
1272.652, 87.298
1273.864, 191.636
1275.075, 164.266
1276.286, 172.679
1277.496, 147.430
1278.707, 135.567
1279.917, 99.513
1281.127, 118.629
1282.337, 59.462
1283.547, 48.665
1284.757, 81.555
1285.966, 172.408
1287.175, 105.923
1288.385, 76.808
1289.593, 7.635
1290.802, 228.126
1292.011, 3.955
1293.219, 109.749
1294.427, 87.465
1295.635, 50.974
1296.843, 100.597
1298.051, 41.868
1299.258, 9.736
1300.465, 24.522
1301.672, 2.551
1302.879, 21.815
1304.086, 70.241
1305.292, 29.641
1306.499, 131.470
1307.705, 13.291
1308.911, 139.682
1310.117, 146.413
1311.322, 85.092
1312.528, 56.040
1313.733, 225.596
1314.938, 34.276
1316.143, 83.005
1317.348, 139.657
1318.552, 44.309
1319.757, 101.919
1320.961, 77.488
1322.165, 62.982
1323.369, 226.483
1324.572, 19.090
1325.776, 47.713
1326.979, 230.490
1328.182, 63.229
1329.385, 64.990
1330.588, 151.117
1331.790, 32.265
1332.993, 112.367
1334.195, 54.436
1335.397, 75.468
1336.599, 99.926
1337.801, 127.843
1339.002, 136.725
1340.203, 64.320
1341.404, 48.869
1342.605, 182.888
1343.806, 140.725
1345.007, 45.414
1346.207, 238.796
1347.407, 137.418
1348.607, 84.008
1349.807, 260.301
1351.007, 39.830
1352.207, 140.327
1353.406, 283.795
1354.605, 172.235
1355.804, 121.359
1357.003, 141.744
1358.201, 57.107
1359.400, 267.896
1360.598, 113.208
1361.796, 210.500
1362.994, 262.519
1364.192, 132.632
1365.389, 207.880
1366.587, 292.069
1367.784, 124.304
1368.981, 223.536
1370.178, 136.743
1371.374, 123.992
1372.571, 240.964
1373.767, 64.761
1374.963, 49.115
1376.159, 241.517
1377.355, 20.057
1378.550, 167.280
1379.746, 180.414
1380.941, 47.551
1382.136, 317.493
1383.331, 302.290
1384.526, 167.012
1385.720, 412.611
1386.914, 167.412
1388.109, 362.301
1389.303, 256.764
1390.496, 180.209
1391.690, 347.811
1392.883, 276.274
1394.077, 199.785
1395.270, 337.783
1396.463, 181.571
1397.655, 313.668
1398.848, 314.566
1400.040, 232.056
1401.232, 300.893
1402.425, 291.100
1403.616, 245.633
1404.808, 327.892
1405.999, 330.455
1407.191, 160.378
1408.382, 336.578
1409.573, 201.688
1410.764, 255.082
1411.954, 310.586
1413.145, 150.708
1414.335, 331.860
1415.525, 287.029
1416.715, 179.727
1417.905, 217.048
1419.094, 130.342
1420.283, 133.919
1421.473, 280.620
1422.662, 150.859
1423.850, 111.969
1425.039, 311.032
1426.228, 69.964
1427.416, 179.948
1428.604, 189.126
1429.792, 14.771
1430.980, 270.957
1432.167, 189.944
1433.355, 170.655
1434.542, 290.774
1435.729, 87.379
1436.916, 220.159
1438.103, 170.002
1439.289, 42.642
1440.475, 249.527
1441.662, 389.794
1442.848, 120.574
1444.033, 260.612
1445.219, 219.994
1446.405, 59.017
1447.590, 227.564
1448.775, 144.435
1449.960, 202.267
1451.145, 372.290
1452.329, 61.798
1453.514, 271.143
1454.698, 300.437
1455.882, 159.921
1457.066, 209.176
1458.250, 228.101
1459.433, 67.146
1460.616, 416.073
1461.800, 184.905
1462.983, 303.223
1464.165, 351.935
1465.348, 130.691
1466.531, 259.208
1467.713, 378.365
1468.895, 177.145
1470.077, 365.986
1471.259, 325.345
1472.440, 204.271
1473.622, 264.040
1474.803, 311.630
1475.984, 201.556
1477.165, 201.031
1478.346, 300.934
1479.526, 199.246
1480.707, 308.753
1481.887, 148.220
1483.067, 256.885
1484.247, 226.486
1485.426, 5.439
1486.606, 345.045
1487.785, 154.661
1488.964, 163.897
1490.143, 273.593
1491.322, 193.383
1492.501, 283.266
1493.679, 263.235
1494.858, 73.295
1496.036, 353.427
1497.214, 263.703
1498.391, 114.029
1499.569, 385.174
1500.746, 166.550
1501.924, 186.486
1503.101, 308.332
1504.277, 170.548
1505.454, 233.168
1506.631, 376.274
1507.807, 20.016
1508.983, 254.425
1510.159, 389.771
1511.335, 56.299
1512.511, 274.206
1513.686, 225.425
1514.862, 95.982
1516.037, 248.296
1517.212, 0.000
##END=



