##NAMES=Lawsonite
##RRUFFID=R050042
##IDEAL CHEMISTRY=CaAl_2_Si_2_O_7_(OH)_2_&#183;H_2_O
##LOCALITY=California, USA
##OWNER=RRUFF
##SOURCE=University of Arizona Mineral Museum
##DESCRIPTION=White to colorless fragments
##STATUS=The identification of this mineral has been confirmed by X-ray diffraction and chemical analysis
##URL=rruff.info/R050042
##MEASURED CHEMISTRY=(Ca_0.98_Fe^2+^_0.02_)Al_2.00_Si_2.00_O_7_(OH)_2_Â·H_2_O
##PIN_ID=L00291
##ORIENTATION=Laser parallel to c* (0 0 1). Fiducial mark perpendicular to laser is parallel to a [1 0 0]
82.592, 0.000
83.988, 104.464
85.384, 19.738
86.780, 176.234
88.175, 246.772
89.571, 553.579
90.966, 731.701
92.361, 864.374
93.755, 1013.330
95.150, 1049.150
96.544, 1181.651
97.938, 1221.785
99.332, 1361.064
100.726, 1261.257
102.119, 1274.021
103.512, 1362.988
104.905, 1383.827
106.298, 1535.528
107.690, 1531.065
109.082, 1612.145
110.474, 1733.808
111.866, 1762.945
113.258, 1892.625
114.649, 1755.442
116.040, 1956.546
117.431, 1804.779
118.822, 1839.645
120.212, 1808.364
121.603, 1680.546
122.993, 1501.606
124.382, 1377.773
125.772, 1401.650
127.161, 1140.606
128.550, 950.815
129.939, 628.417
131.328, 482.220
132.716, 338.530
134.105, 27.045
135.493, 18.654
136.880, 54.409
138.268, 88.610
139.655, 8.229
141.042, 45.959
142.429, 70.363
143.816, 144.727
145.202, 397.421
146.589, 446.249
147.975, 502.946
149.360, 630.396
150.746, 693.319
152.131, 779.986
153.516, 936.956
154.901, 985.979
156.286, 1120.441
157.670, 1098.417
159.055, 1100.875
160.439, 1083.237
161.822, 1039.458
163.206, 1050.511
164.589, 949.055
165.972, 972.697
167.355, 894.702
168.738, 912.052
170.121, 849.714
171.503, 959.647
172.885, 745.814
174.267, 807.176
175.648, 761.695
177.029, 658.340
178.411, 701.085
179.792, 604.906
181.172, 649.777
182.553, 525.677
183.933, 564.591
185.313, 513.506
186.693, 498.404
188.072, 451.275
189.452, 413.107
190.831, 372.889
192.210, 382.554
193.588, 376.029
194.967, 317.346
196.345, 250.539
197.723, 265.625
199.101, 161.603
200.479, 206.466
201.856, 142.202
203.233, 132.794
204.610, 215.239
205.987, 64.534
207.363, 65.680
208.740, 14.675
210.116, 32.517
211.492, 0.602
212.867, 21.016
214.243, 5.604
215.618, 90.024
216.993, 51.246
218.367, 91.806
219.742, 53.742
221.116, 71.320
222.490, 139.094
223.864, 148.075
225.238, 182.216
226.611, 91.568
227.985, 115.730
229.357, 95.166
230.730, 72.260
232.103, 34.888
233.475, 89.800
234.847, 112.935
236.219, 281.506
237.591, 331.317
238.962, 513.845
240.334, 638.850
241.705, 856.648
243.075, 1108.914
244.446, 1289.374
245.816, 1582.016
247.186, 1781.341
248.556, 2139.211
249.926, 2405.385
251.296, 2655.263
252.665, 3127.486
254.034, 3395.771
255.403, 3959.301
256.771, 4297.116
258.140, 4835.594
259.508, 5359.586
260.876, 5882.334
262.244, 6837.361
263.611, 7487.037
264.978, 8536.213
266.346, 9514.928
267.712, 10813.174
269.079, 12420.914
270.446, 13638.381
271.812, 15375.574
273.178, 16632.492
274.544, 17808.998
275.909, 18874.943
277.275, 18630.551
278.640, 18435.842
280.005, 17210.869
281.369, 16045.639
282.734, 14160.144
284.098, 12644.373
285.462, 10898.324
286.826, 9251.998
288.190, 8295.409
289.553, 6978.563
290.916, 6222.470
292.279, 5366.136
293.642, 4598.566
295.004, 4051.756
296.367, 3529.707
297.729, 3249.295
299.091, 2839.985
300.452, 2538.648
301.814, 2294.114
303.175, 2084.012
304.536, 1906.350
305.897, 1738.667
307.257, 1595.813
308.618, 1484.429
309.978, 1372.315
311.338, 1337.140
312.698, 1288.686
314.057, 1293.196
315.416, 1225.342
316.776, 1204.233
318.134, 1164.659
319.493, 1213.654
320.851, 1242.268
322.210, 1252.563
323.568, 1300.685
324.925, 1286.689
326.283, 1365.607
327.640, 1421.461
328.998, 1402.028
330.354, 1397.640
331.711, 1268.871
333.068, 1229.116
334.424, 1208.040
335.780, 1006.362
337.136, 1025.726
338.491, 910.280
339.847, 901.577
341.202, 897.371
342.557, 889.274
343.912, 818.703
345.266, 862.247
346.621, 845.199
347.975, 829.241
349.329, 944.995
350.682, 882.613
352.036, 909.840
353.389, 926.679
354.742, 889.112
356.095, 1015.559
357.448, 981.884
358.800, 1010.652
360.152, 989.634
361.504, 955.744
362.856, 959.813
364.208, 911.585
365.559, 931.734
366.910, 911.632
368.261, 895.811
369.612, 912.864
370.962, 787.911
372.313, 774.729
373.663, 666.403
375.012, 610.317
376.362, 647.832
377.712, 528.969
379.061, 504.069
380.410, 406.562
381.758, 408.471
383.107, 334.730
384.455, 262.851
385.804, 266.683
387.151, 150.917
388.499, 157.972
389.847, 47.682
391.194, 58.837
392.541, 64.243
393.888, 11.950
395.235, 38.157
396.581, 12.003
397.927, 24.698
399.273, 14.096
400.619, 22.158
401.965, 18.108
403.310, 6.363
404.655, 12.632
406.000, 4.224
407.345, 37.721
408.689, 27.137
410.034, 41.477
411.378, 54.695
412.722, 97.791
414.065, 59.767
415.409, 154.619
416.752, 106.357
418.095, 179.975
419.438, 207.481
420.781, 265.876
422.123, 265.163
423.465, 368.342
424.807, 379.419
426.149, 425.396
427.490, 464.275
428.832, 504.059
430.173, 607.751
431.514, 710.353
432.855, 765.867
434.195, 855.296
435.535, 911.641
436.875, 1108.903
438.215, 1157.085
439.555, 1283.189
440.894, 1536.217
442.234, 1626.169
443.573, 1938.050
444.911, 2161.862
446.250, 2419.604
447.588, 2791.273
448.927, 3171.870
450.265, 3651.396
451.602, 4141.853
452.940, 4997.242
454.277, 5556.704
455.614, 6399.027
456.951, 7304.214
458.288, 7694.103
459.624, 8317.406
460.961, 8459.620
462.297, 8021.959
463.633, 7673.396
464.968, 6688.083
466.304, 6110.849
467.639, 5262.277
468.974, 4604.229
470.309, 4010.521
471.643, 3394.032
472.978, 2976.161
474.312, 2563.409
475.646, 2303.008
476.980, 2002.097
478.313, 1782.697
479.647, 1666.000
480.980, 1499.196
482.313, 1397.417
483.645, 1226.594
484.978, 1219.727
486.310, 1074.817
487.642, 922.866
488.974, 927.872
490.306, 871.837
491.637, 814.761
492.968, 864.646
494.299, 763.491
495.630, 783.299
496.961, 712.067
498.291, 683.799
499.622, 730.183
500.952, 711.507
502.281, 712.791
503.611, 686.019
504.940, 696.844
506.269, 709.006
507.598, 700.991
508.927, 726.891
510.256, 703.258
511.584, 703.348
512.912, 753.539
514.240, 800.788
515.568, 819.872
516.895, 863.452
518.222, 899.493
519.549, 948.773
520.876, 930.037
522.203, 1015.285
523.529, 977.522
524.856, 1043.058
526.182, 1126.912
527.508, 1153.114
528.833, 1267.256
530.159, 1339.455
531.484, 1482.205
532.809, 1569.948
534.134, 1649.279
535.458, 1791.430
536.782, 1830.804
538.107, 2119.734
539.431, 2171.662
540.754, 2369.264
542.078, 2626.978
543.401, 2720.467
544.724, 3050.624
546.047, 3235.000
547.370, 3681.598
548.692, 3991.476
550.015, 4415.138
551.337, 5022.248
552.659, 5660.656
553.980, 6622.137
555.302, 7417.478
556.623, 8709.238
557.944, 9930.260
559.265, 10751.977
560.586, 11953.224
561.906, 12494.748
563.226, 12207.638
564.546, 11830.703
565.866, 10653.563
567.186, 9787.137
568.505, 8430.544
569.824, 7324.208
571.143, 6434.048
572.462, 5454.334
573.781, 4821.269
575.099, 4121.049
576.417, 3586.438
577.735, 3149.348
579.053, 2765.379
580.370, 2466.657
581.688, 1981.937
583.005, 1694.653
584.322, 1612.423
585.639, 1297.391
586.955, 1159.530
588.271, 974.843
589.588, 922.371
590.903, 757.891
592.219, 632.588
593.535, 590.532
594.850, 517.035
596.165, 479.146
597.480, 370.701
598.794, 308.744
600.109, 322.724
601.423, 174.303
602.737, 194.165
604.051, 181.463
605.365, 98.126
606.678, 189.586
607.991, 101.043
609.304, 92.696
610.617, 75.149
611.930, 8.399
613.242, 18.041
614.554, 28.477
615.866, 22.086
617.178, 86.667
618.490, 68.295
619.801, 71.959
621.112, 56.662
622.423, 98.396
623.734, 101.180
625.045, 114.014
626.355, 34.906
627.665, 131.815
628.975, 66.789
630.285, 79.794
631.594, 101.837
632.904, 54.926
634.213, 84.040
635.522, 7.809
636.831, 53.340
638.139, 31.511
639.447, 35.305
640.756, 26.129
642.063, 100.959
643.371, 26.796
644.679, 118.642
645.986, 107.495
647.293, 136.357
648.600, 236.228
649.907, 232.107
651.213, 274.996
652.519, 313.894
653.825, 317.803
655.131, 441.722
656.437, 436.652
657.743, 559.594
659.048, 680.549
660.353, 618.517
661.658, 821.499
662.962, 958.496
664.267, 948.507
665.571, 1139.534
666.875, 1235.577
668.179, 1496.633
669.483, 1606.705
670.786, 1880.792
672.089, 2134.893
673.392, 2430.010
674.695, 2788.143
675.998, 3121.290
677.300, 3750.453
678.602, 4384.632
679.904, 4885.827
681.206, 5966.038
682.508, 6835.267
683.809, 8221.513
685.111, 10157.772
686.412, 12054.053
687.712, 14820.348
689.013, 18046.664
690.313, 21543.000
691.614, 26099.361
692.914, 29165.740
694.213, 32382.141
695.513, 32838.559
696.812, 31985.016
698.112, 28811.494
699.411, 24867.990
700.709, 21084.518
702.008, 16851.070
703.306, 13907.657
704.604, 11194.268
705.902, 8850.913
707.200, 7357.589
708.498, 5950.302
709.795, 4997.044
711.092, 4319.832
712.389, 3339.651
713.686, 3007.512
714.983, 2464.416
716.279, 2144.362
717.575, 1803.352
718.871, 1548.385
720.167, 1366.454
721.463, 1032.559
722.758, 999.701
724.053, 863.876
725.348, 704.086
726.643, 654.329
727.937, 553.604
729.232, 398.911
730.526, 385.251
731.820, 268.619
733.114, 299.019
734.407, 192.447
735.701, 103.904
736.994, 132.388
738.287, 87.900
739.579, 147.438
740.872, 49.001
742.164, 56.590
743.456, 49.204
744.748, 10.841
746.040, 42.502
747.332, 8.814
748.623, 19.108
749.914, 3.615
751.205, 25.637
752.496, 2.872
753.787, 24.084
755.077, 22.277
756.367, 41.452
757.657, 49.613
758.947, 33.762
760.236, 10.895
761.526, 4.995
762.815, 68.910
764.104, 11.149
765.393, 52.815
766.681, 80.804
767.969, 54.678
769.258, 126.649
770.546, 113.717
771.833, 106.044
773.121, 157.921
774.408, 137.862
775.695, 239.657
776.982, 249.339
778.269, 288.543
779.556, 309.371
780.842, 339.741
782.128, 337.842
783.414, 308.580
784.700, 361.076
785.986, 320.945
787.271, 348.674
788.556, 403.031
789.841, 408.877
791.126, 439.197
792.411, 440.796
793.695, 398.489
794.979, 520.149
796.263, 440.860
797.547, 495.605
798.831, 516.395
800.114, 438.220
801.397, 529.079
802.680, 529.972
803.963, 488.899
805.246, 465.861
806.528, 483.865
807.810, 514.903
809.092, 528.976
810.374, 523.093
811.656, 524.123
812.937, 495.461
814.218, 487.708
815.499, 460.995
816.780, 422.201
818.061, 412.887
819.341, 346.107
820.621, 366.561
821.901, 316.049
823.181, 267.572
824.461, 269.129
825.740, 225.722
827.019, 250.360
828.299, 287.032
829.577, 161.755
830.856, 132.520
832.134, 184.322
833.413, 75.177
834.691, 167.068
835.969, 115.996
837.246, 140.973
838.524, 61.987
839.801, 119.044
841.078, 131.148
842.355, 64.296
843.632, 97.490
844.908, 93.720
846.185, 96.986
847.461, 115.298
848.736, 35.645
850.012, 54.044
851.288, 137.480
852.563, 64.952
853.838, 156.477
855.113, 71.043
856.388, 173.650
857.662, 173.295
858.937, 152.976
860.211, 221.692
861.485, 102.446
862.758, 220.235
864.032, 181.067
865.305, 158.934
866.578, 289.835
867.851, 221.771
869.124, 203.740
870.397, 261.746
871.669, 218.786
872.941, 297.860
874.213, 190.971
875.485, 290.115
876.757, 330.294
878.028, 306.506
879.299, 380.750
880.570, 335.028
881.841, 349.339
883.112, 430.682
884.382, 462.063
885.652, 489.476
886.922, 551.922
888.192, 536.400
889.462, 703.910
890.731, 779.451
892.000, 813.026
893.269, 891.632
894.538, 983.271
895.807, 1131.942
897.075, 1137.645
898.344, 1277.379
899.612, 1483.145
900.880, 1484.759
902.147, 1737.151
903.415, 1956.009
904.682, 2020.290
905.949, 2303.153
907.216, 2521.552
908.483, 2765.043
909.749, 3101.959
911.016, 3256.624
912.282, 3727.879
913.548, 3930.795
914.814, 4362.944
916.079, 4796.126
917.344, 5122.142
918.610, 5796.387
919.875, 6377.662
921.139, 7009.973
922.404, 7932.319
923.668, 8744.696
924.932, 9947.114
926.196, 11449.586
927.460, 12802.120
928.724, 15074.691
929.987, 16667.309
931.251, 19779.984
932.514, 22222.711
933.776, 24835.496
935.039, 27128.322
936.301, 28141.219
937.564, 29627.555
938.826, 28820.539
940.088, 26913.586
941.349, 25276.703
942.611, 21749.844
943.872, 19443.014
945.133, 16866.242
946.394, 14190.238
947.655, 12457.537
948.915, 10760.841
950.176, 9406.812
951.436, 8550.241
952.696, 7643.625
953.955, 7077.086
955.215, 6680.523
956.474, 6244.028
957.734, 5986.249
958.993, 5811.766
960.251, 5320.307
961.510, 5236.332
962.768, 4722.846
964.027, 4302.235
965.285, 3810.719
966.542, 3539.719
967.800, 3250.739
969.057, 2725.451
970.315, 2571.957
971.572, 2226.800
972.829, 1993.587
974.085, 1859.394
975.342, 1588.222
976.598, 1464.071
977.854, 1390.245
979.110, 1166.138
980.366, 1099.221
981.621, 975.029
982.877, 852.402
984.132, 900.496
985.387, 734.499
986.641, 751.985
987.896, 621.491
989.150, 541.550
990.404, 641.536
991.658, 546.267
992.912, 510.554
994.166, 504.978
995.419, 491.264
996.672, 475.762
997.925, 466.238
999.178, 417.436
1000.431, 435.633
1001.683, 383.238
1002.936, 447.636
1004.188, 429.118
1005.440, 398.729
1006.691, 428.453
1007.943, 350.290
1009.194, 432.077
1010.445, 468.412
1011.696, 370.571
1012.947, 460.933
1014.197, 327.411
1015.448, 441.804
1016.698, 432.416
1017.948, 434.841
1019.198, 452.279
1020.447, 414.449
1021.697, 390.908
1022.946, 352.379
1024.195, 417.967
1025.444, 412.457
1026.692, 404.090
1027.941, 326.605
1029.189, 429.138
1030.437, 402.800
1031.685, 334.466
1032.933, 403.014
1034.180, 327.618
1035.427, 397.188
1036.675, 367.804
1037.922, 306.426
1039.168, 363.021
1040.415, 310.638
1041.661, 334.323
1042.907, 359.936
1044.153, 307.926
1045.399, 359.549
1046.645, 380.177
1047.890, 315.865
1049.135, 351.502
1050.380, 349.521
1051.625, 364.194
1052.870, 275.874
1054.114, 244.866
1055.359, 243.547
1056.603, 244.216
1057.847, 161.056
1059.090, 143.740
1060.334, 147.885
1061.577, 144.626
1062.820, 148.410
1064.063, 73.272
1065.306, 157.409
1066.549, 54.236
1067.791, 33.144
1069.033, 97.986
1070.275, 19.828
1071.517, 110.453
1072.759, 45.266
1074.000, 57.998
1075.241, 38.263
1076.482, 0.040
1077.723, 44.033
1078.964, 26.793
1080.204, 31.573
1081.445, 12.316
1082.685, 8.099
1083.925, 55.690
1085.164, 32.529
1086.404, 69.809
1087.643, 34.274
1088.883, 11.893
1090.122, 0.028
1091.360, 50.655
1092.599, 6.332
1093.837, 1.113
1095.076, 15.256
1096.314, 75.383
1097.552, 9.533
1098.789, 48.880
1100.027, 0.868
1101.264, 3.625
1102.501, 2.301
1103.738, 29.163
1104.975, 3.705
1106.211, 28.212
1107.448, 12.819
1108.684, 37.391
1109.920, 39.650
1111.156, 29.184
1112.391, 43.848
1113.627, 8.155
1114.862, 16.572
1116.097, 34.158
1117.332, 50.250
1118.566, 39.547
1119.801, 9.612
1121.035, 153.708
1122.269, 161.817
1123.503, 182.071
1124.737, 53.243
1125.971, 27.072
1127.204, 72.514
1128.437, 39.283
1129.670, 17.862
1130.903, 8.831
1132.136, 52.094
1133.368, 70.658
1134.600, 9.720
1135.832, 39.290
1137.064, 61.992
1138.296, 13.046
1139.527, 23.950
1140.759, 15.901
1141.990, 17.166
1143.221, 28.804
1144.452, 21.052
1145.682, 15.202
1146.912, 83.402
1148.143, 40.756
1149.373, 24.097
1150.602, 34.728
1151.832, 42.766
1153.062, 4.199
1154.291, 3.198
1155.520, 24.678
1156.749, 28.211
1157.978, 73.644
1159.206, 19.612
1160.434, 67.414
1161.663, 4.145
1162.891, 90.779
1164.118, 48.395
1165.346, 80.824
1166.573, 77.862
1167.801, 30.361
1169.028, 103.619
1170.254, 103.249
1171.481, 21.437
1172.708, 138.728
1173.934, 64.552
1175.160, 108.797
1176.386, 89.024
1177.612, 68.249
1178.837, 70.144
1180.063, 119.142
1181.288, 30.779
1182.513, 104.924
1183.738, 95.826
1184.962, 97.727
1186.187, 133.858
1187.411, 105.724
1188.635, 92.467
1189.859, 128.515
1191.083, 67.264
1192.306, 137.006
1193.529, 152.782
1194.753, 106.379
1195.976, 144.428
1197.198, 72.474
1198.421, 118.956
1199.643, 121.101
1200.866, 33.537
1202.088, 126.062
1203.310, 143.871
1204.531, 96.612
1205.753, 164.901
1206.974, 76.367
1208.195, 128.535
1209.416, 120.760
1210.637, 104.087
1211.857, 81.240
1213.078, 115.587
1214.298, 101.648
1215.518, 114.640
1216.738, 115.774
1217.958, 58.805
1219.177, 124.810
1220.396, 144.678
1221.615, 79.594
1222.834, 135.399
1224.053, 100.228
1225.272, 140.148
1226.490, 136.160
1227.708, 144.845
1228.926, 135.499
1230.144, 65.211
1231.362, 121.923
1232.579, 186.627
1233.796, 90.927
1235.013, 171.421
1236.230, 41.920
1237.447, 146.425
1238.664, 146.817
1239.880, 121.223
1241.096, 155.549
1242.312, 107.109
1243.528, 96.526
1244.744, 147.779
1245.959, 107.388
1247.174, 105.789
1248.389, 115.036
1249.604, 95.144
1250.819, 142.251
1252.033, 78.282
1253.248, 78.589
1254.462, 123.598
1255.676, 82.576
1256.890, 137.134
1258.103, 160.130
1259.317, 90.236
1260.530, 98.242
1261.743, 118.728
1262.956, 40.185
1264.169, 157.319
1265.381, 59.278
1266.594, 38.178
1267.806, 159.839
1269.018, 122.559
1270.229, 139.461
1271.441, 70.024
1272.652, 73.294
1273.864, 116.241
1275.075, 79.692
1276.286, 56.414
1277.496, 120.447
1278.707, 8.745
1279.917, 104.191
1281.127, 116.046
1282.337, 67.854
1283.547, 105.284
1284.757, 78.542
1285.966, 77.212
1287.175, 127.265
1288.385, 74.045
1289.593, 49.258
1290.802, 104.031
1292.011, 24.770
1293.219, 75.863
1294.427, 64.846
1295.635, 94.351
1296.843, 119.360
1298.051, 1.956
1299.258, 38.562
1300.465, 91.113
1301.672, 9.309
1302.879, 89.815
1304.086, 32.591
1305.292, 40.498
1306.499, 73.220
1307.705, 3.277
1308.911, 14.733
1310.117, 62.575
1311.322, 18.055
1312.528, 50.505
1313.733, 74.206
1314.938, 35.619
1316.143, 80.028
1317.348, 59.257
1318.552, 6.434
1319.757, 58.715
1320.961, 57.962
1322.165, 55.174
1323.369, 112.238
1324.572, 81.275
1325.776, 6.591
1326.979, 50.463
1328.182, 5.530
1329.385, 77.764
1330.588, 44.731
1331.790, 73.703
1332.993, 96.632
1334.195, 44.470
1335.397, 82.357
1336.599, 76.842
1337.801, 64.672
1339.002, 98.473
1340.203, 32.190
1341.404, 29.933
1342.605, 105.271
1343.806, 19.929
1345.007, 102.556
1346.207, 70.850
1347.407, 34.434
1348.607, 3.991
1349.807, 106.392
1351.007, 59.910
1352.207, 134.949
1353.406, 99.375
1354.605, 67.738
1355.804, 102.000
1357.003, 53.985
1358.201, 108.229
1359.400, 150.368
1360.598, 75.550
1361.796, 92.707
1362.994, 89.256
1364.192, 115.395
1365.389, 95.592
1366.587, 129.229
1367.784, 96.332
1368.981, 70.195
1370.178, 48.340
1371.374, 127.368
1372.571, 136.408
1373.767, 89.374
1374.963, 79.506
1376.159, 73.391
1377.355, 68.637
1378.550, 111.937
1379.746, 99.109
1380.941, 79.596
1382.136, 117.255
1383.331, 95.019
1384.526, 106.649
1385.720, 133.154
1386.914, 65.542
1388.109, 107.800
1389.303, 95.867
1390.496, 40.838
1391.690, 80.880
1392.883, 94.199
1394.077, 116.421
1395.270, 121.828
1396.463, 115.793
1397.655, 105.867
1398.848, 104.706
1400.040, 78.476
1401.232, 92.702
1402.425, 101.480
1403.616, 212.044
1404.808, 101.776
1405.999, 113.455
1407.191, 19.478
1408.382, 110.997
1409.573, 27.781
1410.764, 88.559
1411.954, 62.915
1413.145, 23.313
1414.335, 111.904
1415.525, 71.567
1416.715, 6.245
1417.905, 35.799
1419.094, 32.154
1420.283, 58.191
1421.473, 58.604
1422.662, 37.612
1423.850, 59.669
1425.039, 63.335
1426.228, 19.080
1427.416, 78.000
1428.604, 24.891
1429.792, 35.885
1430.980, 88.127
1432.167, 6.346
1433.355, 39.231
1434.542, 47.609
1435.729, 25.810
1436.916, 43.203
1438.103, 56.256
1439.289, 0.680
1440.475, 83.736
1441.662, 17.672
1442.848, 7.856
1444.033, 57.952
1445.219, 1.250
1446.405, 26.544
1447.590, 32.065
1448.775, 23.428
1449.960, 43.370
1451.145, 59.088
1452.329, 61.540
1453.514, 77.402
1454.698, 61.575
1455.882, 75.455
1457.066, 40.566
1458.250, 32.917
1459.433, 71.939
1460.616, 102.000
1461.800, 81.568
1462.983, 77.866
1464.165, 57.867
1465.348, 85.833
1466.531, 94.836
1467.713, 82.002
1468.895, 56.848
1470.077, 129.584
1471.259, 4.205
1472.440, 49.001
1473.622, 97.302
1474.803, 32.957
1475.984, 90.222
1477.165, 55.261
1478.346, 66.201
1479.526, 80.598
1480.707, 80.824
1481.887, 85.331
1483.067, 93.232
1484.247, 87.560
1485.426, 84.600
1486.606, 92.348
1487.785, 47.919
1488.964, 57.563
1490.143, 54.173
1491.322, 92.477
1492.501, 58.029
1493.679, 67.543
1494.858, 34.015
1496.036, 71.500
1497.214, 27.008
1498.391, 12.252
1499.569, 64.766
1500.746, 51.294
1501.924, 27.863
1503.101, 74.469
1504.277, 4.876
1505.454, 45.894
1506.631, 16.697
1507.807, 30.526
1508.983, 122.394
1510.159, 100.312
1511.335, 1.029
1512.511, 111.187
1513.686, 28.454
1514.862, 46.660
1516.037, 120.639
1517.212, 12.659
1518.387, 74.659
1519.561, 118.276
