##NAMES=Lawsonite
##RRUFFID=R050042
##IDEAL CHEMISTRY=CaAl_2_Si_2_O_7_(OH)_2_&#183;H_2_O
##LOCALITY=California, USA
##OWNER=RRUFF
##SOURCE=University of Arizona Mineral Museum
##DESCRIPTION=White to colorless fragments
##STATUS=The identification of this mineral has been confirmed by X-ray diffraction and chemical analysis
##URL=rruff.info/R050042
##MEASURED CHEMISTRY=(Ca_0.98_Fe^2+^_0.02_)Al_2.00_Si_2.00_O_7_(OH)_2_Â·H_2_O
##PIN_ID=L00444
##ORIENTATION=Laser parallel to a* (1 0 0). Fiducial mark perpendicular to laser is parallel to b [0 1 0]
138.268, 0.000
139.655, 29.054
141.042, 65.532
142.429, 180.092
143.816, 210.527
145.202, 382.863
146.589, 577.781
147.975, 595.286
149.360, 700.077
150.746, 796.540
152.131, 891.124
153.516, 1026.640
154.901, 1092.243
156.286, 1076.403
157.670, 1160.538
159.055, 1258.937
160.439, 1212.900
161.822, 1312.414
163.206, 1421.157
164.589, 1272.739
165.972, 1439.592
167.355, 1401.461
168.738, 1504.171
170.121, 1427.535
171.503, 1543.804
172.885, 1427.494
174.267, 1474.675
175.648, 1510.083
177.029, 1494.881
178.411, 1522.352
179.792, 1519.216
181.172, 1562.611
182.553, 1485.602
183.933, 1435.443
185.313, 1402.668
186.693, 1327.738
188.072, 1286.601
189.452, 1203.549
190.831, 1068.453
192.210, 980.109
193.588, 928.688
194.967, 752.465
196.345, 622.435
197.723, 660.579
199.101, 507.879
200.479, 533.312
201.856, 452.847
203.233, 358.455
204.610, 394.114
205.987, 299.813
207.363, 236.554
208.740, 144.338
210.116, 117.280
211.492, 61.048
212.867, 69.980
214.243, 48.965
215.618, 22.005
216.993, 29.897
218.367, 9.258
219.742, 105.521
221.116, 106.161
222.490, 88.450
223.864, 123.385
225.238, 128.737
226.611, 162.250
227.985, 171.752
229.357, 130.491
230.730, 130.985
232.103, 103.257
233.475, 59.333
234.847, 94.239
236.219, 89.998
237.591, 1.625
238.962, 8.141
240.334, 59.434
241.705, 168.077
243.075, 240.762
244.446, 291.460
245.816, 342.157
247.186, 365.843
248.556, 491.519
249.926, 584.180
251.296, 674.818
252.665, 724.426
254.034, 900.996
255.403, 961.516
256.771, 1134.958
258.140, 1315.295
259.508, 1437.519
260.876, 1564.579
262.244, 1846.394
263.611, 2097.949
264.978, 2327.214
266.346, 2701.178
267.712, 3102.900
269.079, 3593.459
270.446, 4015.877
271.812, 4528.258
273.178, 4949.656
274.544, 5241.096
275.909, 5822.583
277.275, 5634.131
278.640, 5645.737
280.005, 5317.405
281.369, 4919.130
282.734, 4320.914
284.098, 3914.755
285.462, 3343.652
286.826, 2925.605
288.190, 2668.615
289.553, 2147.680
290.916, 1946.799
292.279, 1665.974
293.642, 1367.203
295.004, 1265.485
296.367, 974.827
297.729, 919.259
299.091, 743.839
300.452, 667.582
301.814, 611.495
303.175, 576.777
304.536, 514.688
305.897, 395.859
307.257, 415.151
308.618, 362.435
309.978, 324.678
311.338, 366.820
312.698, 296.821
314.057, 319.689
315.416, 316.386
316.776, 337.892
318.134, 412.200
319.493, 380.301
320.851, 437.181
322.210, 467.937
323.568, 433.252
324.925, 525.388
326.283, 544.219
327.640, 539.746
328.998, 472.988
330.354, 560.976
331.711, 543.712
333.068, 573.207
334.424, 552.471
335.780, 591.504
337.136, 695.296
338.491, 670.811
339.847, 761.027
341.202, 792.942
342.557, 820.502
343.912, 871.551
345.266, 956.133
346.621, 1102.214
347.975, 1203.823
349.329, 1347.061
350.682, 1442.028
352.036, 1548.802
353.389, 1762.493
354.742, 1869.173
356.095, 2053.863
357.448, 2188.575
358.800, 2395.096
360.152, 2695.142
361.504, 2744.418
362.856, 3030.122
364.208, 3104.999
365.559, 3263.604
366.910, 3416.701
368.261, 3440.189
369.612, 3558.253
370.962, 3523.343
372.313, 3665.657
373.663, 3581.659
375.012, 3581.569
376.362, 3614.906
377.712, 3457.835
379.061, 3396.895
380.410, 3228.064
381.758, 3137.906
383.107, 3108.787
384.455, 2821.853
385.804, 2848.247
387.151, 2721.659
388.499, 2602.939
389.847, 2437.311
391.194, 2345.224
392.541, 2280.013
393.888, 2130.900
395.235, 2027.703
396.581, 1892.432
397.927, 1952.136
399.273, 1916.269
400.619, 1763.104
401.965, 1791.685
403.310, 1694.168
404.655, 1658.821
406.000, 1619.099
407.345, 1578.625
408.689, 1577.400
410.034, 1537.273
411.378, 1591.780
412.722, 1513.493
414.065, 1486.223
415.409, 1531.969
416.752, 1451.732
418.095, 1357.512
419.438, 1353.310
420.781, 1300.126
422.123, 1238.960
423.465, 1192.813
424.807, 1177.687
426.149, 1000.581
427.490, 986.499
428.832, 973.438
430.173, 891.404
431.514, 918.395
432.855, 838.411
434.195, 865.454
435.535, 906.523
436.875, 971.617
438.215, 962.738
439.555, 1113.883
440.894, 1352.053
442.234, 1339.248
443.573, 1464.467
444.911, 1691.710
446.250, 1805.978
447.588, 2001.782
448.927, 2149.581
450.265, 2383.918
451.602, 2605.843
452.940, 2831.137
454.277, 3024.341
455.614, 3329.273
456.951, 3686.951
458.288, 3728.765
459.624, 3774.151
460.961, 3864.013
462.297, 3457.637
463.633, 3305.800
464.968, 2543.274
466.304, 2454.012
467.639, 2053.240
468.974, 1722.023
470.309, 1504.435
471.643, 1195.234
472.978, 1053.812
474.312, 998.773
475.646, 891.984
476.980, 782.653
478.313, 757.332
479.647, 724.148
480.980, 780.942
482.313, 668.793
483.645, 770.475
484.978, 833.911
486.310, 711.694
487.642, 754.187
488.974, 978.312
490.306, 884.458
491.637, 954.553
492.968, 1126.639
494.299, 1162.712
495.630, 1251.774
496.961, 1303.841
498.291, 1378.898
499.622, 1446.140
500.952, 1489.640
502.281, 1571.074
503.611, 1587.144
504.940, 1633.212
506.269, 1625.970
507.598, 1530.357
508.927, 1550.454
510.256, 1436.573
511.584, 1318.699
512.912, 1281.841
514.240, 1190.991
515.568, 1205.151
516.895, 1083.318
518.222, 1030.499
519.549, 897.708
520.876, 852.933
522.203, 910.168
523.529, 713.437
524.856, 756.718
526.182, 742.014
527.508, 659.324
528.833, 814.668
530.159, 747.034
531.484, 677.416
532.809, 750.820
534.134, 727.247
535.458, 823.702
536.782, 754.193
538.107, 954.711
539.431, 845.262
540.754, 933.857
542.078, 1095.485
543.401, 1107.176
544.724, 1358.926
546.047, 1393.734
547.370, 1602.604
548.692, 1754.540
550.015, 1906.548
551.337, 2239.630
552.659, 2526.774
553.980, 3014.980
555.302, 3531.240
556.623, 4037.542
557.944, 4833.890
559.265, 5240.291
560.586, 5856.712
561.906, 6453.160
563.226, 6339.621
564.546, 6406.094
565.866, 5732.574
567.186, 5249.060
568.505, 4745.551
569.824, 4290.937
571.143, 3828.544
572.462, 3595.043
573.781, 3351.542
575.099, 3218.042
576.417, 3114.543
577.735, 3141.043
579.053, 2843.544
580.370, 2924.045
581.688, 2577.545
583.005, 2325.046
584.322, 2123.546
585.639, 1835.045
586.955, 1644.729
588.271, 1421.041
589.588, 1232.537
590.903, 1042.032
592.219, 828.524
593.535, 806.016
594.850, 622.506
596.165, 606.994
597.480, 508.479
598.794, 387.963
600.109, 417.443
601.423, 279.920
602.737, 262.396
604.051, 263.867
605.365, 162.336
606.678, 185.801
607.991, 98.262
609.304, 0.280
610.617, 6.835
611.930, 69.405
613.242, 95.709
614.554, 26.709
615.866, 91.420
617.178, 147.194
618.490, 58.061
619.801, 116.973
621.112, 28.963
622.423, 144.985
623.734, 85.101
625.045, 172.277
626.355, 21.562
627.665, 142.877
628.975, 71.284
630.285, 17.746
631.594, 155.236
632.904, 109.825
634.213, 85.490
635.522, 84.218
636.831, 53.008
638.139, 4.846
639.447, 5.706
640.756, 98.587
642.063, 35.459
643.371, 13.500
644.679, 22.527
645.986, 95.545
647.293, 86.559
648.600, 130.568
649.907, 150.258
651.213, 180.260
652.519, 212.314
653.825, 293.268
655.131, 282.258
656.437, 294.654
657.743, 343.636
659.048, 482.613
660.353, 345.298
661.658, 569.268
662.962, 546.816
664.267, 666.778
665.571, 690.768
666.875, 786.137
668.179, 963.240
669.483, 828.628
670.786, 1069.565
672.089, 1204.667
673.392, 1307.593
674.695, 1511.437
675.998, 1586.615
677.300, 1802.743
678.602, 2223.647
679.904, 2515.402
681.206, 2942.632
682.508, 3427.729
683.809, 3922.609
685.111, 4902.099
686.412, 5718.137
687.712, 6732.998
689.013, 8577.853
690.313, 10072.700
691.614, 12547.540
692.914, 14244.376
694.213, 16069.204
695.513, 16914.029
696.812, 16678.842
698.112, 15393.646
699.411, 13758.442
700.709, 11713.229
702.008, 9668.009
703.306, 7902.782
704.604, 6437.545
705.902, 5302.299
707.200, 4367.045
708.498, 3741.779
709.795, 3176.506
711.092, 2911.222
712.389, 2456.907
713.686, 2064.622
714.983, 1888.307
716.279, 1626.980
717.575, 1453.645
718.871, 1198.298
720.167, 1226.939
721.463, 1032.570
722.758, 955.191
724.053, 971.801
725.348, 720.400
726.643, 785.988
727.937, 846.566
729.232, 557.133
730.526, 685.688
731.820, 398.234
733.114, 524.770
734.407, 483.294
735.701, 352.808
736.994, 442.312
738.287, 328.805
739.579, 416.288
740.872, 379.760
742.164, 369.222
743.456, 324.672
744.748, 342.114
746.040, 334.544
747.332, 328.966
748.623, 321.376
749.914, 287.777
751.205, 288.233
752.496, 276.307
753.787, 275.919
755.077, 260.280
756.367, 264.968
757.657, 245.973
758.947, 276.305
760.236, 274.628
761.526, 265.940
762.815, 366.244
764.104, 185.537
765.393, 368.255
766.681, 301.619
767.969, 219.083
769.258, 321.833
770.546, 229.850
771.833, 243.743
773.121, 369.076
774.408, 162.946
775.695, 314.063
776.982, 237.652
778.269, 239.907
779.556, 216.872
780.842, 217.321
782.128, 312.185
783.414, 277.395
784.700, 260.060
785.986, 353.048
787.271, 226.372
788.556, 224.514
789.841, 149.155
791.126, 162.849
792.411, 161.476
793.695, 120.103
794.979, 149.653
796.263, 181.353
797.547, 67.280
798.831, 172.842
800.114, 112.680
801.397, 98.870
802.680, 100.026
803.963, 7.778
805.246, 50.410
806.528, 142.601
807.810, 55.206
809.092, 14.962
810.374, 62.867
811.656, 69.273
812.937, 44.417
814.218, 87.437
815.499, 20.669
816.780, 7.221
818.061, 88.884
819.341, 76.008
820.621, 64.931
821.901, 2.118
823.181, 26.833
824.461, 25.425
825.740, 1.181
827.019, 58.292
828.299, 16.657
829.577, 82.612
830.856, 23.593
832.134, 73.417
833.413, 94.555
834.691, 4.566
835.969, 1.579
837.246, 48.428
838.524, 91.562
839.801, 24.583
841.078, 137.392
842.355, 36.371
843.632, 139.372
844.908, 126.776
846.185, 43.612
847.461, 117.385
848.736, 4.387
850.012, 29.397
851.288, 190.414
852.563, 44.436
853.838, 292.471
855.113, 129.512
856.388, 25.559
857.662, 296.612
858.937, 180.672
860.211, 294.737
861.485, 103.830
862.758, 135.931
864.032, 380.052
865.305, 168.183
866.578, 183.321
867.851, 296.482
869.124, 101.650
870.397, 315.830
871.669, 227.019
872.941, 348.214
874.213, 365.428
875.485, 260.648
876.757, 388.878
878.028, 271.127
879.299, 408.383
880.570, 405.647
881.841, 341.920
883.112, 377.203
884.382, 488.495
885.652, 478.796
886.922, 630.106
888.192, 585.427
889.462, 695.756
890.731, 675.095
892.000, 731.443
893.269, 857.802
894.538, 889.179
895.807, 1048.566
897.075, 1216.963
898.344, 1224.372
899.612, 1523.791
900.880, 1558.221
902.147, 1712.661
903.415, 1947.111
904.682, 1951.575
905.949, 2146.050
907.216, 2510.535
908.483, 2515.033
909.749, 2759.544
911.016, 2854.064
912.282, 3318.598
913.548, 3353.143
914.814, 3427.699
916.079, 3572.268
917.344, 3426.849
918.610, 3761.445
919.875, 3866.062
921.139, 4110.713
922.404, 4465.408
923.668, 4790.123
924.932, 5134.882
926.196, 5919.695
927.460, 6364.543
928.724, 7459.441
929.987, 8214.362
931.251, 9639.341
932.514, 11024.361
933.776, 12389.444
935.039, 14234.560
936.301, 14909.732
937.564, 15624.942
938.826, 15890.176
940.088, 15325.473
941.349, 14610.818
942.611, 12976.211
943.872, 11831.644
945.133, 10487.110
946.394, 8992.602
947.655, 7948.111
948.915, 6983.671
950.176, 5919.246
951.436, 5384.838
952.696, 4720.445
953.955, 4146.066
955.215, 3921.705
956.474, 3416.672
957.734, 3162.336
958.993, 2998.017
960.251, 2560.695
961.510, 2606.400
962.768, 2248.712
964.027, 2134.445
965.285, 1950.194
966.542, 1831.246
967.800, 1897.023
969.057, 1622.229
970.315, 1578.033
971.572, 1520.381
972.829, 1312.797
974.085, 1338.489
975.342, 1202.905
976.598, 1101.783
977.854, 1305.895
979.110, 1013.803
980.366, 1120.803
981.621, 1031.439
982.877, 899.175
984.132, 1080.164
985.387, 927.291
986.641, 885.952
987.896, 902.812
989.150, 756.843
990.404, 843.146
991.658, 808.906
992.912, 776.987
994.166, 974.693
995.419, 760.808
996.672, 827.965
997.925, 832.132
999.178, 585.318
1000.431, 850.466
1001.683, 788.684
1002.936, 862.922
1004.188, 768.739
1005.440, 588.006
1006.691, 818.306
1007.943, 825.628
1009.194, 639.967
1010.445, 835.321
1011.696, 799.443
1012.947, 782.836
1014.197, 811.731
1015.448, 743.428
1016.698, 778.953
1017.948, 811.993
1019.198, 734.466
1020.447, 836.736
1021.697, 757.306
1022.946, 820.834
1024.195, 904.630
1025.444, 785.184
1026.692, 870.774
1027.941, 976.659
1029.189, 877.277
1030.437, 1017.941
1031.685, 938.598
1032.933, 1037.293
1034.180, 982.195
1035.427, 1101.000
1036.675, 1287.762
1037.922, 1374.535
1039.168, 1621.323
1040.415, 1958.147
1041.661, 2044.981
1042.907, 2521.828
1044.153, 2950.608
1045.399, 3277.484
1046.645, 3894.374
1047.890, 3991.466
1049.135, 4208.379
1050.380, 4265.326
1051.625, 3992.316
1052.870, 3719.283
1054.114, 3306.459
1055.359, 2913.613
1056.603, 2750.608
1057.847, 2187.916
1059.090, 2054.931
1060.334, 1802.162
1061.577, 1559.247
1062.820, 1606.289
1064.063, 1283.463
1065.306, 1190.521
1066.549, 1177.586
1067.791, 927.003
1069.033, 1042.137
1070.275, 819.231
1071.517, 742.594
1072.759, 716.702
1074.000, 601.818
1075.241, 630.004
1076.482, 550.133
1077.723, 483.268
1078.964, 593.407
1080.204, 466.558
1081.445, 506.737
1082.685, 716.904
1083.925, 496.337
1085.164, 413.519
1086.404, 429.702
1087.643, 286.187
1088.883, 360.386
1090.122, 214.859
1091.360, 277.389
1092.599, 313.597
1093.837, 147.049
1095.076, 308.262
1096.314, 79.476
1097.552, 286.080
1098.789, 243.295
1100.027, 132.511
1101.264, 246.962
1102.501, 55.182
1103.738, 132.948
1104.975, 184.384
1106.211, 83.607
1107.448, 94.357
1108.684, 158.634
1109.920, 166.868
1111.156, 83.331
1112.391, 123.578
1113.627, 63.158
1114.862, 120.427
1116.097, 25.693
1117.332, 147.959
1118.566, 187.226
1119.801, 21.509
1121.035, 102.993
1122.269, 265.549
1123.503, 200.836
1124.737, 206.548
1125.971, 39.163
1127.204, 146.562
1128.437, 10.831
1129.670, 48.629
1130.903, 79.763
1132.136, 65.969
1133.368, 82.562
1134.600, 127.827
1135.832, 81.328
1137.064, 108.429
1138.296, 25.089
1139.527, 24.622
1140.759, 124.039
1141.990, 71.250
1143.221, 104.566
1144.452, 124.447
1145.682, 46.975
1146.912, 125.076
1148.143, 21.096
1149.373, 49.228
1150.602, 73.760
1151.832, 30.822
1153.062, 14.260
1154.291, 71.108
1155.520, 55.063
1156.749, 133.844
1157.978, 111.438
1159.206, 77.642
1160.434, 137.204
1161.663, 56.307
1162.891, 1.448
1164.118, 8.457
1165.346, 56.323
1166.573, 116.971
1167.801, 9.680
1169.028, 19.501
1170.254, 95.170
1171.481, 31.506
1172.708, 106.400
1173.934, 83.071
1175.160, 28.431
1176.386, 117.628
1177.612, 54.116
1178.837, 72.791
1180.063, 161.979
1181.288, 28.127
1182.513, 55.856
1183.738, 98.224
1184.962, 85.104
1186.187, 194.444
1187.411, 155.385
1188.635, 144.038
1189.859, 288.951
1191.083, 8.165
1192.306, 158.312
1193.529, 224.832
1194.753, 54.616
1195.976, 153.628
1197.198, 198.259
1198.421, 102.828
1199.643, 149.452
1200.866, 66.213
1202.088, 74.706
1203.310, 150.947
1204.531, 45.907
1205.753, 153.211
1206.974, 72.190
1208.195, 110.642
1209.416, 269.852
1210.637, 96.157
1211.857, 208.683
1213.078, 276.824
1214.298, 50.542
1215.518, 119.641
1216.738, 267.205
1217.958, 73.323
1219.177, 186.535
1220.396, 149.759
1221.615, 124.908
1222.834, 254.069
1224.053, 179.282
1225.272, 185.507
1226.490, 187.480
1227.708, 144.356
1228.926, 180.363
1230.144, 21.567
1231.362, 155.627
1232.579, 232.414
1233.796, 88.177
1235.013, 199.937
1236.230, 94.666
1237.447, 84.051
1238.664, 488.723
1239.880, 105.378
1241.096, 222.722
1242.312, 255.346
1243.528, 77.062
1244.744, 240.647
1245.959, 216.214
1247.174, 116.820
1248.389, 223.352
1249.604, 65.865
1250.819, 124.359
1252.033, 248.836
1253.248, 70.292
1254.462, 166.728
1255.676, 265.143
1256.890, 127.539
1258.103, 193.917
1259.317, 105.367
1260.530, 181.125
1261.743, 288.437
1262.956, 232.290
1264.169, 353.140
1265.381, 221.346
1266.594, 137.100
1267.806, 128.252
1269.018, 198.358
1270.229, 96.676
1271.441, 233.717
1272.652, 93.335
1273.864, 278.376
1275.075, 133.320
1276.286, 167.276
1277.496, 224.146
1278.707, 125.937
1279.917, 194.271
1281.127, 78.223
1282.337, 80.816
1283.547, 130.543
1284.757, 135.237
1285.966, 27.869
1287.175, 85.708
1288.385, 67.520
1289.593, 65.092
1290.802, 213.198
1292.011, 115.460
1293.219, 66.884
1294.427, 148.323
1295.635, 27.492
1296.843, 122.763
1298.051, 207.306
1299.258, 34.617
1300.465, 13.401
1301.672, 64.382
1302.879, 82.331
1304.086, 53.247
1305.292, 11.356
1306.499, 83.169
1307.705, 44.462
1308.911, 40.855
1310.117, 117.530
1311.322, 18.609
1312.528, 80.232
1313.733, 106.041
1314.938, 25.479
1316.143, 78.024
1317.348, 156.243
1318.552, 59.317
1319.757, 53.065
1320.961, 104.133
1322.165, 26.560
1323.369, 260.679
1324.572, 70.098
1325.776, 21.936
1326.979, 165.994
1328.182, 42.001
1329.385, 122.022
1330.588, 52.014
1331.790, 68.040
1332.993, 164.846
1334.195, 98.700
1335.397, 4.480
1336.599, 191.383
1337.801, 30.129
1339.002, 106.840
1340.203, 67.326
1341.404, 67.027
1342.605, 144.562
1343.806, 127.250
1345.007, 89.782
1346.207, 242.084
1347.407, 164.389
1348.607, 56.834
1349.807, 178.946
1351.007, 51.333
1352.207, 133.484
1353.406, 185.791
1354.605, 158.096
1355.804, 100.251
1357.003, 202.506
1358.201, 64.736
1359.400, 266.602
1360.598, 8.736
1361.796, 170.895
1362.994, 142.768
1364.192, 134.883
1365.389, 146.979
1366.587, 139.146
1367.784, 121.208
1368.981, 113.256
1370.178, 25.485
1371.374, 2.493
1372.571, 149.494
1373.767, 11.497
1374.963, 122.224
1376.159, 205.298
1377.355, 2.664
1378.550, 179.000
1379.746, 180.814
1380.941, 51.467
1382.136, 284.881
1383.331, 248.330
1384.526, 51.585
1385.720, 305.201
1386.914, 158.527
1388.109, 271.252
1389.303, 264.174
1390.496, 27.556
1391.690, 290.709
1392.883, 333.682
1394.077, 196.993
1395.270, 270.265
1396.463, 232.946
1397.655, 205.663
1398.848, 238.302
1400.040, 211.111
1401.232, 314.065
1402.425, 166.800
1403.616, 88.521
1404.808, 310.936
1405.999, 241.570
1407.191, 135.524
1408.382, 377.986
1409.573, 149.719
1410.764, 220.340
1411.954, 177.006
1413.145, 116.298
1414.335, 257.026
1415.525, 196.488
1416.715, 156.509
1417.905, 256.692
1419.094, 278.045
1420.283, 224.482
1421.473, 268.438
1422.662, 49.175
1423.850, 106.020
1425.039, 303.680
1426.228, 108.551
1427.416, 218.872
1428.604, 140.949
1429.792, 38.428
1430.980, 278.405
1432.167, 208.508
1433.355, 152.961
1434.542, 194.027
1435.729, 71.271
1436.916, 71.362
1438.103, 220.969
1439.289, 81.908
1440.475, 192.403
1441.662, 262.439
1442.848, 150.719
1444.033, 200.968
1445.219, 121.227
1446.405, 121.029
1447.590, 156.052
1448.775, 133.816
1449.960, 143.893
1451.145, 350.418
1452.329, 169.399
1453.514, 239.689
1454.698, 208.401
1455.882, 108.203
1457.066, 285.853
1458.250, 175.611
1459.433, 205.236
1460.616, 374.732
1461.800, 234.103
1462.983, 263.107
1464.165, 371.182
1465.348, 209.767
1466.531, 148.431
1467.713, 267.386
1468.895, 145.694
1470.077, 314.407
1471.259, 303.223
1472.440, 222.123
1473.622, 358.870
1474.803, 307.737
1475.984, 287.094
1477.165, 205.388
1478.346, 274.932
1479.526, 183.922
1480.707, 362.849
1481.887, 91.854
1483.067, 271.290
1484.247, 250.702
1485.426, 20.154
1486.606, 249.723
1487.785, 149.396
1488.964, 129.072
1490.143, 278.791
1491.322, 158.542
1492.501, 248.305
1493.679, 238.134
1494.858, 48.071
1496.036, 288.105
1497.214, 238.262
1498.391, 58.584
1499.569, 359.084
1500.746, 159.744
1501.924, 100.563
1503.101, 291.571
1504.277, 111.521
1505.454, 192.822
1506.631, 304.330
1507.807, 26.084
1508.983, 257.844
1510.159, 330.184
1511.335, 22.881
1512.511, 245.973
1513.686, 219.594
1514.862, 103.871
1516.037, 385.609
1517.212, 4.321
1518.387, 80.180
1519.561, 324.733
1520.736, 16.823
1521.910, 0.000
##END=



