##NAMES=Lazulite
##RRUFFID=R060494
##IDEAL CHEMISTRY=MgAl_2_(PO_4_)_2_(OH)_2_
##LOCALITY=Champion mine, White Mountains, Mono County, California, USA
##OWNER=RRUFF
##SOURCE=Michael Scott
##DESCRIPTION=Dark-blue coarsely crystalline mass
##STATUS=The identification of this mineral has been confirmed by X-ray diffraction and chemical analysis
##URL=rruff.info/R060494
##MEASURED CHEMISTRY=(Mg_0.67_Fe^2+^_0.33_)_Î£=1_Al_2.00_(P_1.00_O_4_)_2_(OH)_2_
##PIN_ID=M01007
##ORIENTATION=Laser parallel to c* (0 0 1). Fiducial mark perpendicular to laser is parallel to -a [-1 0 0]
146.8530, 0.0000000E+00
148.0830, 25.90039
149.3140, 36.88086
150.5440, 63.41211
151.7740, 90.63379
153.0040, 28.40918
154.2340, 84.20605
155.4630, 6.606445
156.6930, 96.70312
157.9220, 41.77832
159.1510, 108.5908
160.3800, 136.9463
161.6090, 826.0518
162.8370, 1297.209
164.0660, 2142.841
165.2940, 2803.496
166.5220, 3006.743
167.7500, 2903.788
168.9780, 3267.000
170.2050, 3880.493
171.4330, 4752.627
172.6600, 5230.924
173.8870, 5441.027
175.1140, 4915.676
176.3410, 4420.670
177.5670, 3915.855
178.7940, 3900.116
180.0200, 4651.367
181.2460, 5931.541
182.4720, 7793.585
183.6980, 9756.087
184.9230, 10644.50
186.1490, 10410.43
187.3740, 11067.13
188.5990, 12588.96
189.8240, 14577.62
191.0490, 15928.26
192.2730, 16198.08
193.4980, 14630.23
194.7220, 11807.87
195.9460, 8787.127
197.1700, 6586.116
198.3940, 5144.936
199.6180, 4463.675
200.8410, 4002.422
202.0640, 3992.250
203.2870, 3552.225
204.5100, 3599.403
205.7330, 3553.834
206.9560, 3682.562
208.1780, 4007.634
209.4000, 4772.083
210.6230, 5678.949
211.8450, 6997.266
213.0660, 8371.063
214.2880, 10102.37
215.5090, 11537.23
216.7310, 12927.64
217.9520, 13809.65
219.1730, 15024.17
220.3940, 15714.95
221.6140, 16699.28
222.8350, 17361.51
224.0550, 17035.37
225.2750, 16140.32
226.4950, 13827.88
227.7150, 11340.04
228.9350, 8861.629
230.1540, 6810.586
231.3730, 5148.607
232.5930, 4024.860
233.8120, 3344.330
235.0300, 2963.009
236.2490, 2568.887
237.4680, 2505.956
238.6860, 2547.208
239.9040, 2839.635
241.1220, 3274.224
242.3400, 4003.961
243.5580, 5120.837
244.7750, 6671.842
245.9920, 8146.970
247.2100, 8918.208
248.4270, 9222.555
249.6430, 10658.00
250.8600, 11090.54
252.0770, 12461.16
253.2930, 13399.88
254.5090, 13231.67
255.7250, 12113.54
256.9410, 9871.482
258.1570, 7481.480
259.3720, 5682.500
260.5880, 4488.516
261.8030, 3805.514
263.0180, 3157.496
264.2330, 2973.467
265.4470, 2817.425
266.6620, 2661.374
267.8760, 2638.313
269.0900, 2753.248
270.3040, 2900.177
271.5180, 3156.103
272.7320, 3538.025
273.9460, 3987.947
275.1590, 4203.867
276.3720, 4356.788
277.5850, 4698.714
278.7980, 4792.646
280.0110, 5044.594
281.2230, 4799.572
282.4360, 4737.574
283.6480, 4132.591
284.8600, 3587.623
286.0720, 2734.673
287.2840, 2088.736
288.4950, 1390.818
289.7070, 962.9160
290.9180, 495.0312
292.1290, 174.1631
293.3400, 12.89746
294.5500, 150.9355
295.7610, 312.0615
296.9710, 346.2764
298.1820, 437.6689
299.3920, 586.5791
300.6020, 539.0176
301.8110, 536.4346
303.0210, 555.7119
304.2300, 430.5381
305.4400, 452.4971
306.6490, 325.9990
307.8580, 199.4531
309.0660, 4.911133
310.2750, 183.6504
311.4830, 360.2461
312.6920, 746.8740
313.9000, 1254.523
315.1080, 1451.180
316.3160, 1674.830
317.5230, 1845.468
318.7310, 2447.086
319.9380, 2644.681
321.1450, 2735.250
322.3520, 2850.788
323.5590, 2823.298
324.7650, 2533.775
325.9720, 2460.222
327.1780, 2249.636
328.3840, 2064.018
329.5900, 2093.366
330.7960, 2021.652
332.0020, 2235.837
333.2070, 2218.891
334.4120, 2264.809
335.6170, 2362.604
336.8220, 2434.282
338.0270, 2607.854
339.2320, 2654.325
340.4360, 2852.701
341.6410, 2998.988
342.8450, 3044.192
344.0490, 3100.760
345.2530, 3071.752
346.4560, 3039.354
347.6600, 2913.272
348.8630, 2782.127
350.0660, 2648.925
351.2690, 2459.666
352.4720, 2360.355
353.6750, 2403.994
354.8770, 2299.585
356.0790, 2135.133
357.2820, 2136.637
358.4840, 1922.102
359.6860, 1902.528
360.8870, 1829.918
362.0890, 1746.274
363.2900, 1881.598
364.4910, 1637.885
365.6920, 1608.992
366.8930, 1399.631
368.0940, 1271.655
369.2940, 1175.917
370.4950, 1070.137
371.6950, 966.4033
372.8950, 963.9370
374.0950, 840.3740
375.2940, 828.8315
376.4940, 664.3179
377.6930, 667.8330
378.8930, 707.3750
380.0920, 665.9434
381.2910, 715.5381
382.4890, 721.1572
383.6880, 823.8008
384.8860, 707.4668
386.0840, 837.1562
387.2820, 827.8691
388.4800, 1015.603
389.6780, 915.3579
390.8760, 1127.134
392.0730, 1231.931
393.2700, 1259.747
394.4670, 1199.583
395.6640, 1363.438
396.8610, 1436.312
398.0580, 1830.206
399.2540, 3285.117
400.4500, 2559.047
401.6460, 3587.998
402.8420, 5223.988
404.0380, 7239.010
405.2340, 10008.11
406.4290, 12476.27
407.6240, 13302.50
408.8190, 13499.80
410.0140, 14914.20
411.2090, 17189.80
412.4040, 18810.33
413.5980, 18554.81
414.7920, 15946.45
415.9870, 11907.13
417.1810, 7898.856
418.3740, 4945.595
419.5680, 3311.352
420.7610, 2349.129
421.9550, 2221.923
423.1480, 1942.737
424.3410, 1813.570
425.5340, 2045.421
426.7260, 2132.292
427.9190, 1978.181
429.1110, 2063.088
430.3030, 1813.014
431.4950, 1592.959
432.6870, 1168.921
433.8790, 969.9023
435.0700, 745.4561
436.2610, 587.2627
437.4530, 418.0449
438.6440, 405.1782
439.8340, 432.2197
441.0250, 190.1382
442.2160, 353.3618
443.4060, 240.2856
444.5960, 177.2310
445.7860, 135.5190
446.9760, 22.03223
448.1660, 22.78613
449.3550, 53.12695
450.5450, 79.20215
451.7340, 145.8203
452.9230, 214.4814
454.1120, 418.3457
455.3000, 474.6318
456.4890, 862.6895
457.6770, 1082.754
458.8650, 1409.822
460.0530, 1943.896
461.2410, 2505.976
462.4290, 3343.061
463.6170, 3996.150
464.8040, 5016.247
465.9910, 6352.349
467.1780, 7967.455
468.3650, 9664.569
469.5520, 11697.69
470.7390, 13799.81
471.9250, 15516.95
473.1110, 17092.09
474.2970, 18404.24
475.4830, 19424.39
476.6690, 20060.55
477.8540, 19698.73
479.0400, 18926.91
480.2250, 16812.11
481.4100, 14293.31
482.5950, 11639.52
483.7800, 9337.749
484.9650, 7053.990
486.1490, 5580.242
487.3330, 4078.510
488.5170, 3212.787
489.7010, 2486.081
490.8850, 1979.390
492.0690, 1574.712
493.2520, 1461.050
494.4350, 1145.402
495.6190, 951.7705
496.8020, 904.1543
497.9840, 756.5547
499.1670, 698.9717
500.3490, 814.4043
501.5320, 805.8545
502.7140, 607.3203
503.8960, 833.8037
505.0780, 935.3047
506.2590, 745.8223
507.4410, 905.3584
508.6220, 1031.912
509.8030, 1162.487
510.9840, 1229.086
512.1650, 1271.711
513.3460, 1219.366
514.5260, 1299.054
515.7070, 1441.775
516.8870, 1327.532
518.0670, 1475.323
519.2470, 1520.148
520.4260, 1383.008
521.6060, 1460.902
522.7850, 1271.830
523.9650, 1228.792
525.1440, 1192.789
526.3220, 1107.819
527.5010, 1088.884
528.6800, 1090.982
529.8580, 992.1138
531.0360, 920.2803
532.2140, 1049.479
533.3920, 978.7134
534.5700, 839.9800
535.7480, 856.2798
536.9250, 725.6133
538.1020, 771.9795
539.2790, 699.3789
540.4560, 586.8120
541.6330, 557.2861
542.8100, 524.1045
543.9860, 361.2827
545.1620, 299.5732
546.3380, 118.6274
547.5140, 49.79395
548.6900, 76.55225
549.8660, 71.70605
551.0410, 75.34180
552.2160, 61.64746
553.3910, 78.30566
554.5660, 83.15625
555.7410, 100.3721
556.9160, 85.96631
558.0900, 147.6650
559.2650, 157.6543
560.4390, 323.5503
561.6130, 340.4717
562.7860, 369.4180
563.9600, 468.3892
565.1340, 420.3833
566.3070, 447.4028
567.4800, 486.4463
568.6530, 656.5137
569.8260, 716.6045
570.9980, 798.7207
572.1710, 791.8643
573.3430, 999.0288
574.5150, 900.2158
575.6870, 919.4248
576.8590, 976.6680
578.0310, 863.9517
579.2030, 879.3149
580.3740, 720.4717
581.5450, 610.4277
582.7160, 366.0112
583.8870, 207.0146
585.0580, 17.24902
586.2280, 5.289063
587.3990, 177.6104
588.5690, 194.3765
589.7390, 151.8911
590.9090, 300.7544
592.0780, 152.6152
593.2480, 75.39502
594.4170, 121.8765
595.5870, 354.1948
596.7560, 538.5562
597.9250, 855.9385
599.0930, 1261.342
600.2620, 1535.769
601.4300, 1766.218
602.5990, 2057.696
603.7670, 2257.193
604.9350, 2366.711
606.1020, 2282.258
607.2700, 2281.825
608.4370, 2176.433
609.6050, 1762.060
610.7720, 1570.714
611.9390, 1621.388
613.1060, 1419.127
614.2720, 1447.908
615.4390, 1388.725
616.6050, 1310.569
617.7710, 1340.449
618.9370, 1504.353
620.1030, 1477.292
621.2680, 1584.265
622.4340, 1549.255
623.5990, 1651.297
624.7640, 1574.361
625.9290, 1756.456
627.0940, 1798.589
628.2590, 1893.747
629.4230, 1859.919
630.5880, 2156.119
631.7520, 2251.333
632.9160, 2455.561
634.0800, 2946.826
635.2440, 3228.111
636.4070, 3900.421
637.5700, 4541.743
638.7340, 5313.905
639.8970, 6207.418
641.0600, 7075.785
642.2220, 7859.165
643.3850, 8632.589
644.5470, 9418.020
645.7090, 9604.460
646.8710, 9880.927
648.0330, 9732.421
649.1950, 9134.930
650.3570, 8624.468
651.5180, 7950.012
652.6790, 7027.566
653.8400, 6194.137
655.0010, 5539.716
656.1620, 4645.307
657.3230, 4133.904
658.4830, 3584.503
659.6430, 3165.108
660.8030, 2776.725
661.9630, 2658.379
663.1230, 2267.063
664.2830, 2207.754
665.4420, 1836.479
666.6020, 1675.205
667.7610, 1419.958
668.9200, 1304.745
670.0780, 1218.530
671.2370, 993.3130
672.3960, 892.0933
673.5540, 741.8794
674.7120, 558.6646
675.8700, 575.4639
677.0280, 304.2656
678.1860, 251.0752
679.3430, 206.0879
680.5000, 186.8965
681.6580, 21.79639
682.8150, 57.13867
683.9710, 24.34277
685.1280, 178.6313
686.2850, 146.6016
687.4410, 170.1045
688.5970, 174.6006
689.7530, 228.3389
690.9090, 137.0415
692.0650, 151.5591
693.2200, 159.3262
694.3760, 47.90430
695.5310, 95.23047
696.6860, 0.8696290
697.8410, 65.70947
698.9960, 102.7007
700.1500, 228.6992
701.3050, 251.7896
702.4590, 340.7861
703.6130, 451.6094
704.7670, 492.8740
705.9210, 709.8228
707.0740, 700.8149
708.2280, 888.7124
709.3810, 923.1743
710.5340, 1194.927
711.6870, 1164.361
712.8400, 1260.074
713.9930, 1269.839
715.1450, 1408.778
716.2970, 1367.271
717.4490, 1427.257
718.6010, 1700.007
719.7530, 1562.968
720.9050, 1706.174
722.0560, 1935.176
723.2080, 2052.426
724.3590, 2345.058
725.5100, 2390.627
726.6610, 2558.500
727.8110, 2988.282
728.9620, 3162.060
730.1120, 3544.488
731.2620, 3983.093
732.4120, 4444.657
733.5620, 4928.860
734.7120, 5327.408
735.8620, 5866.989
737.0110, 6439.862
738.1600, 6658.746
739.3090, 7049.152
740.4580, 7212.439
741.6070, 7342.877
742.7550, 7053.494
743.9040, 7097.146
745.0520, 6745.486
746.2000, 6211.170
747.3480, 5752.351
748.4960, 5231.930
749.6430, 4604.157
750.7910, 4123.499
751.9380, 3624.921
753.0850, 3208.647
754.2320, 2750.580
755.3790, 2541.583
756.5260, 2266.116
757.6720, 2086.175
758.8180, 1822.045
759.9650, 1755.272
761.1110, 1507.484
762.2560, 1473.322
763.4020, 1347.914
764.5470, 1252.339
765.6930, 1063.705
766.8380, 1059.093
767.9830, 934.8311
769.1280, 913.2822
770.2720, 934.9136
771.4170, 900.5664
772.5610, 778.6167
773.7060, 787.3970
774.8500, 833.5576
775.9930, 706.7358
777.1370, 775.5059
778.2810, 745.4712
779.4240, 666.7529
780.5670, 741.3442
781.7100, 743.0093
782.8530, 620.5439
783.9960, 682.6133
785.1390, 709.9951
786.2810, 798.8716
787.4230, 692.0830
788.5650, 769.7261
789.7070, 645.3833
790.8490, 555.4043
791.9910, 648.7822
793.1320, 696.8198
794.2730, 699.4019
795.4140, 526.9795
796.5550, 580.7734
797.6960, 545.0229
798.8370, 512.4326
799.9770, 603.5469
801.1180, 457.1235
802.2580, 547.1304
803.3980, 538.4917
804.5380, 577.0654
805.6770, 526.9136
806.8170, 458.9922
807.9560, 474.0947
809.0950, 416.6431
810.2340, 405.4307
811.3730, 448.7915
812.5120, 393.3149
813.6500, 491.3623
814.7890, 414.7607
815.9270, 330.5181
817.0650, 420.0615
818.2030, 354.5332
819.3400, 313.3032
820.4780, 361.1875
821.6150, 440.7222
822.7530, 256.4917
823.8900, 377.3374
825.0270, 311.3438
826.1630, 337.9243
827.3000, 269.9941
828.4360, 162.6597
829.5730, 214.3428
830.7090, 158.4092
831.8450, 112.4434
832.9800, 162.3770
834.1160, 177.1733
835.2520, 245.6475
836.3870, 136.1836
837.5220, 143.6606
838.6570, 162.0796
839.7920, 199.4419
840.9260, 113.7476
842.0610, 160.9922
843.1950, 146.1802
844.3290, 164.3096
845.4630, 95.38281
846.5970, 81.39258
847.7310, 284.3369
848.8640, 189.2275
849.9980, 171.0625
851.1310, 41.84033
852.2640, 225.5420
853.3970, 113.1885
854.5300, 152.7759
855.6620, 109.3071
856.7940, 53.77979
857.9270, 58.18066
859.0590, 83.51318
860.1910, 17.78271
861.3220, 61.55420
862.4540, 79.09033
863.5850, 84.17969
864.7170, 95.24170
865.8480, 71.27051
866.9790, 52.29785
868.1090, 128.2827
869.2400, 36.22266
870.3710, 7.909668
871.5010, 92.86523
872.6310, 71.58252
873.7610, 68.24023
874.8910, 47.83740
876.0200, 24.37012
877.1500, 83.82910
878.2790, 69.23145
879.4080, 12.57617
880.5370, 78.84326
881.6660, 38.94482
882.7950, 84.16406
883.9230, 11.21875
885.0520, 59.19824
886.1800, 134.8794
887.3080, 42.10742
888.4360, 25.43701
889.5640, 3.142090
890.6910, 24.35400
891.8180, 14.06006
892.9460, 28.59326
894.0730, 27.33691
895.2000, 37.83154
896.3260, 100.0557
897.4530, 16.93164
898.5790, 30.14258
899.7060, 45.30420
900.8320, 14.41748
901.9580, 59.11279
903.0830, 24.26514
904.2090, 38.27832
905.3340, 26.77295
906.4600, 60.78369
907.5850, 5.436035
908.7100, 19.15332
909.8350, 29.05908
910.9590, 23.46924
912.0840, 78.34326
913.2080, 30.58154
914.3320, 10.42139
915.4560, 108.6250
916.5800, 43.21631
917.7040, 59.01611
918.8270, 59.22412
919.9510, 50.54736
921.0740, 12.94629
922.1970, 68.40137
923.3200, 2.060547
924.4430, 0.5234380
925.5650, 19.15283
926.6870, 7.836914
927.8100, 24.56787
928.9320, 20.64697
930.0540, 38.82520
931.1750, 7.032227
932.2970, 26.93213
933.4180, 138.8833
934.5400, 104.9424
935.6610, 20.09082
936.7820, 124.2837
937.9030, 12.57275
939.0230, 103.9009
940.1440, 143.3130
941.2640, 53.17188
942.3840, 54.62744
943.5040, 95.05420
944.6240, 47.54639
945.7440, 14.19482
946.8630, 81.87646
947.9820, 39.62061
949.1020, 69.40527
950.2210, 60.24365
951.3390, 20.67334
952.4580, 55.76367
953.5770, 27.26758
954.6950, 6.501465
955.8130, 38.52148
956.9310, 46.49316
958.0490, 47.89600
959.1670, 61.16309
960.2840, 54.13184
961.4020, 48.25732
962.5190, 93.24756
963.6360, 128.6934
964.7530, 140.7212
965.8700, 221.4658
966.9860, 240.7891
968.1030, 224.6216
969.2190, 201.5166
970.3350, 157.6841
971.4510, 196.3789
972.5670, 183.5386
973.6830, 143.8687
974.7980, 208.7896
975.9140, 263.2397
977.0290, 268.9771
978.1440, 289.9683
979.2590, 332.8013
980.3730, 359.5078
981.4880, 395.3247
982.6020, 466.6353
983.7160, 630.2319
984.8300, 589.9492
985.9440, 714.4663
987.0580, 724.3999
988.1710, 954.8110
989.2850, 904.4316
990.3980, 1037.810
991.5110, 1183.915
992.6240, 1285.196
993.7370, 1416.697
994.8490, 1463.796
995.9620, 1627.280
997.0740, 1810.276
998.1860, 1876.397
999.2980, 2198.708
1000.410, 2252.746
1001.522, 2359.033
1002.633, 2404.497
1003.744, 2591.319
1004.856, 2531.287
1005.966, 2854.162
1007.077, 2922.250
1008.188, 2988.295
1009.298, 3006.806
1010.409, 3228.403
1011.519, 3183.818
1012.629, 3300.021
1013.739, 3279.176
1014.849, 3455.616
1015.958, 3487.691
1017.068, 3525.256
1018.177, 3794.591
1019.286, 3717.844
1020.395, 3737.149
1021.503, 3899.383
1022.612, 3722.742
1023.720, 3861.994
1024.829, 3918.616
1025.937, 3812.685
1027.045, 3872.227
1028.153, 3960.926
1029.260, 4052.254
1030.368, 3950.589
1031.475, 4170.266
1032.582, 4247.160
1033.689, 4255.207
1034.796, 4492.280
1035.903, 4797.326
1037.009, 5143.017
1038.115, 5537.984
1039.222, 5974.779
1040.328, 6698.541
1041.433, 7710.899
1042.539, 8749.509
1043.645, 10356.72
1044.750, 12117.90
1045.855, 14263.46
1046.960, 16883.81
1048.065, 20058.82
1049.170, 23640.50
1050.275, 27780.09
1051.379, 31946.78
1052.483, 35911.93
1053.587, 39882.73
1054.691, 42315.02
1055.795, 44057.94
1056.899, 43941.41
1058.002, 42165.82
1059.105, 39521.20
1060.209, 35471.42
1061.312, 30532.71
1062.414, 25978.67
1063.517, 21641.73
1064.620, 18004.36
1065.722, 14907.01
1066.824, 12541.76
1067.926, 10582.78
1069.028, 9132.166
1070.130, 8117.250
1071.231, 7084.087
1072.333, 6300.197
1073.434, 5663.071
1074.535, 5271.686
1075.636, 5034.355
1076.737, 4987.070
1077.837, 4598.924
1078.938, 4472.181
1080.038, 4231.249
1081.138, 4197.769
1082.238, 4065.911
1083.338, 3976.675
1084.437, 3949.638
1085.537, 3835.645
1086.636, 3862.000
1087.735, 3949.896
1088.834, 3975.042
1089.933, 4422.195
1091.032, 4782.177
1092.130, 5233.414
1093.228, 5573.685
1094.327, 6214.991
1095.425, 6814.333
1096.523, 7147.710
1097.620, 7724.125
1098.718, 7983.577
1099.815, 7915.069
1100.912, 7626.600
1102.009, 7390.167
1103.106, 6676.768
1104.203, 6260.406
1105.300, 5795.080
1106.396, 5329.790
1107.492, 4984.536
1108.589, 4589.320
1109.685, 4349.139
1110.780, 4333.996
1111.876, 4125.889
1112.971, 4061.821
1114.067, 3992.795
1115.162, 3992.810
1116.257, 4038.861
1117.352, 4178.949
1118.446, 3974.085
1119.541, 4018.256
1120.635, 4184.467
1121.729, 4289.713
1122.823, 4209.998
1123.917, 4344.327
1125.011, 4420.700
1126.105, 4660.840
1127.198, 5020.995
1128.291, 5222.813
1129.384, 5699.359
1130.477, 6175.945
1131.570, 6588.569
1132.663, 7111.476
1133.755, 7514.189
1134.847, 7894.826
1135.940, 8026.680
1137.031, 8386.383
1138.123, 8227.683
1139.215, 8055.139
1140.306, 7645.148
1141.398, 7227.383
1142.489, 6947.610
1143.580, 6559.697
1144.671, 6499.641
1145.761, 6139.323
1146.852, 5829.418
1147.942, 5763.334
1149.033, 5786.633
1150.123, 5670.979
1151.213, 5549.361
1152.302, 5365.668
1153.392, 5365.518
1154.481, 5338.515
1155.571, 5506.819
1156.660, 5462.567
1157.749, 5347.386
1158.837, 5380.153
1159.926, 5188.919
1161.014, 5424.748
1162.103, 5090.609
1163.191, 5532.676
1164.279, 5848.646
1165.367, 6038.624
1166.454, 5744.036
1167.542, 6083.387
1168.629, 6165.997
1169.716, 6243.976
1170.803, 6669.768
1171.890, 6446.973
1172.977, 6865.219
1174.064, 7027.924
1175.150, 7290.065
1176.236, 7453.984
1177.322, 7527.677
1178.408, 7491.534
1179.494, 7524.542
1180.580, 7080.465
1181.665, 6811.359
1182.750, 6333.928
1183.835, 5972.789
1184.920, 5736.685
1186.005, 5199.570
1187.090, 4674.355
1188.174, 4377.174
1189.259, 3994.480
1190.343, 3640.540
1191.427, 3326.761
1192.511, 3231.916
1193.594, 2902.912
1194.678, 2884.904
1195.761, 2780.674
1196.844, 2529.826
1197.928, 2520.038
1199.010, 2448.619
1200.093, 2407.765
1201.176, 2477.581
1202.258, 2444.545
1203.340, 2668.963
1204.423, 2614.277
1205.504, 2744.630
1206.586, 2964.953
1207.668, 2822.589
1208.749, 2789.096
1209.831, 2814.773
1210.912, 2796.848
1211.993, 2641.401
1213.074, 2682.348
1214.154, 2648.556
1215.235, 2417.209
1216.315, 2271.746
1217.395, 2184.390
1218.475, 2170.281
1219.555, 2128.864
1220.635, 2061.317
1221.715, 1921.929
1222.794, 1860.699
1223.873, 1762.422
1224.952, 1554.064
1226.031, 1527.883
1227.110, 1155.848
1228.189, 1290.685
1229.267, 1191.896
1230.345, 898.1133
1231.424, 906.9219
1232.502, 803.6650
1233.579, 604.3750
1234.657, 639.0913
1235.735, 557.8149
1236.812, 464.5444
1237.889, 393.2803
1238.966, 253.0220
1240.043, 177.7749
1241.120, 172.5269
1242.196, 62.28320
1243.273, 158.1416
1244.349, 118.1572
1245.425, 165.1250
1246.501, 90.91895
1247.577, 101.8481
1248.652, 103.6372
1249.728, 105.4170
1250.803, 91.98438
1251.878, 90.98633
1252.953, 33.77100
1254.028, 14.55762
1255.103, 60.65527
1256.177, 31.76416
1257.251, 106.1230
1258.326, 26.60352
1259.400, 27.33008
1260.473, 64.05566
1261.547, 64.21973
1262.621, 5.479980
1263.694, 72.82227
1264.767, 1.031738
1265.840, 85.36914
1266.913, 76.74609
1267.986, 19.15967
1269.059, 83.58350
1270.131, 8.049316
1271.203, 5.523438
1272.275, 5.994629
1273.347, 89.49316
1274.419, 14.03027
1275.491, 55.58105
1276.562, 66.16504
1277.634, 11.20996
1278.705, 67.57764
1279.776, 18.93896
1280.847, 158.7070
1281.917, 37.44629
1282.988, 101.2173
1284.058, 88.05371
1285.128, 12.95020
1286.199, 107.8662
1287.268, 81.14404
1288.338, 54.86523
1289.408, 69.91797
1290.477, 15.98486
1291.546, 10.85889
1292.616, 43.32080
1293.685, 27.41553
1294.753, 66.89160
1295.822, 90.25391
1296.890, 36.68164
1297.959, 127.1533
1299.027, 46.68896
1300.095, 67.27441
1301.163, 11.89746
1302.231, 37.54102
1303.298, 10.77197
1304.365, 2.064453
1305.433, 40.66260
1306.500, 38.56787
1307.567, 30.22998
1308.633, 8.938965
1309.700, 11.06543
1310.766, 1.170410
1311.833, 1.767578
1312.899, 46.09668
1313.965, 53.45166
1315.031, 117.2485
1316.096, 90.20068
1317.162, 41.12744
1318.227, 4.046387
