##NAMES=Lazulite
##RRUFFID=R060494
##IDEAL CHEMISTRY=MgAl_2_(PO_4_)_2_(OH)_2_
##LOCALITY=Champion mine, White Mountains, Mono County, California, USA
##OWNER=RRUFF
##SOURCE=Michael Scott
##DESCRIPTION=Dark-blue coarsely crystalline mass
##STATUS=The identification of this mineral has been confirmed by X-ray diffraction and chemical analysis
##URL=rruff.info/R060494
##MEASURED CHEMISTRY=(Mg_0.67_Fe^2+^_0.33_)_Î£=1_Al_2.00_(P_1.00_O_4_)_2_(OH)_2_
##PIN_ID=M01822
##ORIENTATION=Laser parallel to a* (1 0 0). Fiducial mark perpendicular to laser is parallel to b [0 1 0]
139.4660, 0.0000000E+00
140.6980, 50.96729
141.9290, 2.494141
143.1600, 50.08203
144.3910, 71.99170
145.6220, 96.13477
146.8530, 36.94678
148.0830, 41.43555
149.3140, 49.02344
150.5440, 34.29492
151.7740, 133.9253
153.0040, 74.56104
154.2340, 39.13477
155.4630, 85.55420
156.6930, 142.3926
157.9220, 87.18896
159.1510, 155.0713
160.3800, 250.3003
161.6090, 345.6807
162.8370, 517.9521
164.0660, 682.9507
165.2940, 750.4878
166.5220, 975.4482
167.7500, 1064.742
168.9780, 1406.299
170.2050, 1996.060
171.4330, 2601.979
172.6600, 3336.019
173.8870, 3470.150
175.1140, 3282.350
176.3410, 2914.636
177.5670, 2820.983
178.7940, 3033.059
180.0200, 3389.458
181.2460, 4069.221
182.4720, 4868.524
183.6980, 5790.406
184.9230, 7088.902
186.1490, 8923.045
187.3740, 11917.19
188.5990, 16316.70
189.8240, 22372.93
191.0490, 27314.92
192.2730, 27660.66
193.4980, 22872.17
194.7220, 16064.48
195.9460, 11113.60
197.1700, 7607.532
198.3940, 5287.289
199.6180, 4073.881
200.8410, 3150.314
202.0640, 2843.598
203.2870, 2476.738
204.5100, 1749.741
205.7330, 1392.613
206.9560, 1215.361
208.1780, 1113.989
209.4000, 1079.503
210.6230, 1001.217
211.8450, 925.8320
213.0660, 993.1641
214.2880, 1051.044
215.5090, 1183.558
216.7310, 1339.025
217.9520, 1452.519
219.1730, 1561.585
220.3940, 1635.497
221.6140, 1736.419
222.8350, 1568.486
224.0550, 1512.514
225.2750, 1107.560
226.4950, 1012.624
227.7150, 550.7031
228.9350, 371.7988
230.1540, 286.9092
231.3730, 162.0347
232.5930, 176.1738
233.8120, 195.3232
235.0300, 49.48145
236.2490, 208.6460
237.4680, 268.8149
238.6860, 151.9878
239.9040, 286.1621
241.1220, 458.3369
242.3400, 590.5103
243.5580, 809.6831
244.7750, 1124.853
245.9920, 1210.020
247.2100, 1650.183
248.4270, 2285.341
249.6430, 3049.494
250.8600, 4226.636
252.0770, 5747.761
253.2930, 7010.860
254.5090, 6946.932
255.7250, 5948.975
256.9410, 4490.992
258.1570, 3425.983
259.3720, 2471.949
260.5880, 1830.888
261.8030, 1645.801
263.0180, 1470.689
264.2330, 1162.555
265.4470, 1036.397
266.6620, 752.2168
267.8760, 763.0137
269.0900, 675.7886
270.3040, 521.5425
271.5180, 603.2754
272.7320, 464.9888
273.9460, 432.6836
275.1590, 364.3613
276.3720, 465.0244
277.5850, 513.6729
278.7980, 559.3086
280.0110, 599.9307
281.2230, 703.5762
282.4360, 609.4795
283.6480, 534.8701
284.8600, 398.6353
286.0720, 114.8320
287.2840, 110.9756
288.4950, 93.75879
289.7070, 86.02539
290.9180, 175.2178
292.1290, 108.8589
293.3400, 194.7915
294.5500, 62.78418
295.7610, 107.9541
296.9710, 56.11523
298.1820, 23.23486
299.3920, 80.38281
300.6020, 39.22412
301.8110, 56.35693
303.0210, 146.5088
304.2300, 161.4004
305.4400, 193.3120
306.6490, 202.2383
307.8580, 378.1738
309.0660, 415.1133
310.2750, 630.0547
311.4830, 775.9946
312.6920, 953.9312
313.9000, 1153.862
315.1080, 1225.786
316.3160, 1513.702
317.5230, 1759.610
318.7310, 2132.509
319.9380, 2695.397
321.1450, 3191.276
322.3520, 3427.143
323.5590, 3560.990
324.7650, 3671.805
325.9720, 3742.581
327.1780, 3985.318
328.3840, 4279.017
329.5900, 4564.680
330.7960, 5030.308
332.0020, 5554.901
333.2070, 6241.461
334.4120, 6906.990
335.6170, 7825.490
336.8220, 8854.962
338.0270, 10266.41
339.2320, 11465.82
340.4360, 13413.21
341.6410, 15411.58
342.8450, 17773.92
344.0490, 19710.24
345.2530, 21043.54
346.4560, 20950.81
347.6600, 20180.07
348.8630, 17739.30
350.0660, 15034.52
351.2690, 12693.71
352.4720, 10675.88
353.6750, 8923.034
354.8770, 7355.170
356.0790, 6591.288
357.2820, 5758.386
358.4840, 5224.462
359.6860, 4888.355
360.8870, 4736.035
362.0890, 4272.482
363.2900, 4349.771
364.4910, 4383.947
365.6920, 4512.997
366.8930, 4832.981
368.0940, 5087.957
369.2940, 5554.926
370.4950, 6173.888
371.6950, 6836.843
372.8950, 7698.791
374.0950, 8638.728
375.2940, 9666.657
376.4940, 10525.58
377.6930, 10898.50
378.8930, 10890.40
380.0920, 10118.20
381.2910, 8920.091
382.4890, 7461.973
383.6880, 6157.849
384.8860, 4915.717
386.0840, 4045.578
387.2820, 3338.430
388.4800, 3010.274
389.6780, 2475.112
390.8760, 2054.941
392.0730, 1906.763
393.2700, 1734.576
394.4670, 1412.383
395.6640, 1235.182
396.8610, 1110.973
398.0580, 992.7583
399.2540, 865.5366
400.4500, 736.3311
401.6460, 719.1328
402.8420, 607.9478
404.0380, 567.7583
405.2340, 521.5933
406.4290, 628.4448
407.6240, 708.1758
408.8190, 869.2480
410.0140, 1048.205
411.2090, 1289.155
412.4040, 1551.131
413.5980, 1614.155
414.7920, 1243.174
415.9870, 894.1860
417.1810, 462.1934
418.3740, 220.1982
419.5680, 107.1978
420.7610, 105.8091
421.9550, 26.86328
423.1480, 14.94385
424.3410, 190.0474
425.5340, 68.26514
426.7260, 148.5586
427.9190, 26.99365
429.1110, 86.52490
430.3030, 53.18359
431.4950, 89.69238
432.6870, 144.3838
433.8790, 83.98682
435.0700, 26.56055
436.2610, 43.25391
437.4530, 39.54102
438.6440, 7.900391
439.8340, 80.78418
441.0250, 70.70947
442.2160, 215.6836
443.4060, 217.0562
444.5960, 153.0356
445.7860, 135.9238
446.9760, 182.8198
448.1660, 203.7661
449.3550, 266.7378
450.5450, 251.7026
451.7340, 293.6602
452.9230, 493.6104
454.1120, 514.5537
455.3000, 733.4902
456.4890, 936.4194
457.6770, 1160.341
458.8650, 1321.256
460.0530, 1530.163
461.2410, 1609.065
462.4290, 1776.672
463.6170, 1924.848
464.8040, 2048.729
465.9910, 2157.604
467.1780, 2316.472
468.3650, 2305.335
469.5520, 2625.192
470.7390, 2804.043
471.9250, 3147.891
473.1110, 3541.732
474.2970, 3981.569
475.4830, 4451.402
476.6690, 4733.229
477.8540, 4596.054
479.0400, 4412.875
480.2250, 3883.692
481.4100, 3094.507
482.5950, 2525.316
483.7800, 1997.125
484.9650, 1428.930
486.1490, 962.7329
487.3330, 717.5327
488.5170, 647.3301
489.7010, 416.1260
490.8850, 225.9199
492.0690, 285.7119
493.2520, 267.5024
494.4350, 179.2915
495.6190, 274.0791
496.8020, 217.8662
497.9840, 243.6523
499.1670, 261.4375
500.3490, 399.2231
501.5320, 411.0078
502.7140, 370.7939
503.8960, 524.5811
505.0780, 470.3706
506.2590, 544.1650
507.4410, 638.9634
508.6220, 686.7656
509.8030, 784.5732
510.9840, 857.6699
512.1650, 951.2051
513.3460, 1009.029
514.5260, 1087.858
515.7070, 1148.692
516.8870, 1148.532
518.0670, 1186.378
519.2470, 1219.229
520.4260, 1188.087
521.6060, 1286.949
522.7850, 1301.819
523.9650, 1277.695
525.1440, 1308.576
526.3220, 1262.464
527.5010, 1219.358
528.6800, 1191.258
529.8580, 1266.165
531.0360, 1227.078
532.2140, 1116.997
533.3920, 1227.922
534.5700, 1053.854
535.7480, 1199.793
536.9250, 1214.739
538.1020, 1191.691
539.2790, 1163.766
540.4560, 1159.745
541.6330, 1152.534
542.8100, 953.6836
543.9860, 863.5796
545.1620, 687.9326
546.3380, 702.9487
547.5140, 616.5122
548.6900, 569.9873
549.8660, 590.2998
551.0410, 523.7568
552.2160, 573.7773
553.3910, 579.1074
554.5660, 518.1504
555.7410, 485.1802
556.9160, 555.2124
558.0900, 529.2476
559.2650, 530.7109
560.4390, 586.7505
561.6130, 674.4858
562.7860, 629.0557
563.9600, 654.5977
565.1340, 769.9043
566.3070, 716.2393
567.4800, 704.2388
568.6530, 702.2217
569.8260, 782.8354
570.9980, 797.7734
572.1710, 850.8364
573.3430, 855.9346
574.5150, 906.8950
575.6870, 856.9355
576.8590, 849.5605
578.0310, 904.5347
579.2030, 819.6763
580.3740, 780.0894
581.5450, 720.5737
582.7160, 448.0879
583.8870, 438.6890
585.0580, 253.3359
586.2280, 158.0205
587.3990, 107.7563
588.5690, 84.50146
589.7390, 56.25488
590.9090, 90.02002
592.0780, 117.7954
593.2480, 225.5801
594.4170, 261.3750
595.5870, 526.1782
596.7560, 660.9902
597.9250, 799.8110
599.0930, 1029.641
600.2620, 1402.481
601.4300, 1609.332
602.5990, 2053.198
603.7670, 2441.093
604.9350, 2812.997
606.1020, 3211.933
607.2700, 3521.882
608.4370, 4000.861
609.6050, 4370.851
610.7720, 4675.865
611.9390, 4848.914
613.1060, 5010.993
614.2720, 4871.098
615.4390, 4651.213
616.6050, 4431.354
617.7710, 4137.520
618.9370, 3892.721
620.1030, 3863.936
621.2680, 3774.161
622.4340, 3769.396
623.5990, 3951.638
624.7640, 4430.898
625.9290, 4608.192
627.0940, 5049.503
628.2590, 5529.821
629.4230, 5923.162
630.5880, 6276.528
631.7520, 6623.906
632.9160, 6702.321
634.0800, 6480.760
635.2440, 6251.212
636.4070, 5790.673
637.5700, 5295.177
638.7340, 4827.694
639.8970, 4534.249
641.0600, 4094.830
642.2220, 3847.455
643.3850, 3556.103
644.5470, 3207.758
645.7090, 2918.080
646.8710, 2602.089
648.0330, 2269.780
649.1950, 1936.490
650.3570, 1616.207
651.5180, 1369.930
652.6790, 1171.659
653.8400, 944.3940
655.0010, 805.1436
656.1620, 726.9038
657.3230, 650.6680
658.4830, 552.4365
659.6430, 412.2290
660.8030, 398.0249
661.9630, 359.8242
663.1230, 351.6333
664.2830, 413.4521
665.4420, 364.2812
666.6020, 490.1309
667.7610, 313.9844
668.9200, 472.8403
670.0780, 341.7046
671.2370, 353.5811
672.3960, 250.4600
673.5540, 217.3408
674.7120, 161.4277
675.8700, 106.4595
677.0280, 63.00781
678.1860, 2.099121
679.3430, 4.793945
680.5000, 94.31250
681.6580, 67.46338
682.8150, 78.64453
683.9710, 9.862305
685.1280, 126.9824
686.2850, 93.26807
687.4410, 147.6001
688.5970, 173.0068
689.7530, 163.5020
690.9090, 14.91992
692.0650, 128.6597
693.2200, 203.3057
694.3760, 32.94287
695.5310, 83.19043
696.6860, 76.43652
697.8410, 8.318359
698.9960, 153.9189
700.1500, 202.1548
701.3050, 191.3901
702.4590, 290.6660
703.6130, 380.9604
704.7670, 408.2710
705.9210, 542.6431
707.0740, 634.0449
708.2280, 611.4976
709.3810, 809.8418
710.5340, 848.3320
711.6870, 994.8477
712.8400, 999.3945
713.9930, 1245.988
715.1450, 1303.787
716.2970, 1426.840
717.4490, 1488.458
718.6010, 1649.204
719.7530, 1868.818
720.9050, 1904.469
722.0560, 2004.252
723.2080, 2380.849
724.3590, 2396.563
725.5100, 2654.631
726.6610, 3032.221
727.8110, 3450.787
728.9620, 3804.039
730.1120, 4263.984
731.2620, 4502.739
732.4120, 5043.619
733.5620, 5635.190
734.7120, 6166.819
735.8620, 6845.480
737.0110, 7556.142
738.1600, 8110.942
739.3090, 8725.143
740.4580, 9247.039
741.6070, 9615.963
742.7550, 9465.679
743.9040, 9501.274
745.0520, 9035.977
746.2000, 8583.375
747.3480, 7981.049
748.4960, 7312.376
749.6430, 6607.589
750.7910, 5883.365
751.9380, 5316.265
753.0850, 4637.352
754.2320, 4311.519
755.3790, 3701.699
756.5260, 3318.467
757.6720, 3063.699
758.8180, 2686.644
759.9650, 2598.356
761.1110, 2232.586
762.2560, 2109.992
763.4020, 1865.437
764.5470, 1770.327
765.6930, 1570.713
766.8380, 1437.164
767.9830, 1378.146
769.1280, 1258.839
770.2720, 1211.744
771.4170, 1286.607
772.5610, 1112.660
773.7060, 1065.160
774.8500, 1008.442
775.9930, 869.3022
777.1370, 887.9150
778.2810, 808.7549
779.4240, 840.4731
780.5670, 753.9092
781.7100, 824.0674
782.8530, 744.8569
783.9960, 788.4736
785.1390, 653.8203
786.2810, 753.6621
787.4230, 758.7227
788.5650, 698.6777
789.7070, 650.7285
790.8490, 597.6089
791.9910, 570.9556
793.1320, 574.1587
794.2730, 572.7896
795.4140, 487.5864
796.5550, 592.5781
797.6960, 578.1343
798.8370, 489.6660
799.9770, 511.2324
801.1180, 513.9985
802.2580, 453.7754
803.3980, 408.1392
804.5380, 432.6753
805.6770, 393.1069
806.8170, 417.3379
807.9560, 408.9443
809.0950, 401.2432
810.2340, 397.5146
811.3730, 328.5859
812.5120, 443.8037
813.6500, 407.1973
814.7890, 306.3608
815.9270, 390.7231
817.0650, 248.8726
818.2030, 238.1377
819.3400, 311.0225
820.4780, 213.1396
821.6150, 177.7798
822.7530, 362.7354
823.8900, 293.7451
825.0270, 260.2856
826.1630, 184.1748
827.3000, 235.6069
828.4360, 201.4541
829.5730, 218.9707
830.7090, 213.2974
831.8450, 213.9194
832.9800, 210.2822
834.1160, 231.0112
835.2520, 217.2905
836.3870, 215.9722
837.5220, 152.6304
838.6570, 152.2646
839.7920, 164.8755
840.9260, 163.4624
842.0610, 206.0254
843.1950, 246.5635
844.3290, 155.0776
845.4630, 38.56689
846.5970, 185.0229
847.7310, 299.4536
848.8640, 153.8589
849.9980, 191.2393
851.1310, 103.5942
852.2640, 57.92188
853.3970, 219.2197
854.5300, 113.4922
855.6620, 184.7378
856.7940, 134.9585
857.9270, 101.1523
859.0590, 152.3188
860.1910, 113.4604
861.3220, 1.574707
862.4540, 138.6406
863.5850, 182.6802
864.7170, 40.69434
865.8480, 56.67676
866.9790, 89.62988
868.1090, 61.55566
869.2400, 128.4536
870.3710, 112.3257
871.5010, 101.6118
872.6310, 98.61768
873.7610, 62.78564
874.8910, 35.55176
876.0200, 16.28564
877.1500, 34.01904
878.2790, 70.61230
879.4080, 45.78320
880.5370, 17.75146
881.6660, 43.75146
882.7950, 66.67822
883.9230, 27.91895
885.0520, 58.57520
886.1800, 52.30713
887.3080, 23.10938
888.4360, 27.03125
889.5640, 28.85840
890.6910, 29.80615
891.8180, 71.81152
892.9460, 18.10254
894.0730, 24.98438
895.2000, 32.83691
896.3260, 139.6621
897.4530, 6.534180
898.5790, 71.77393
899.7060, 9.0332001E-02
900.8320, 60.55420
901.9580, 26.82471
903.0830, 36.25537
904.2090, 0.7416990
905.3340, 78.26514
906.4600, 43.86670
907.5850, 6.472656
908.7100, 18.78125
909.8350, 110.9370
910.9590, 9.747070
912.0840, 86.59570
913.2080, 59.52246
914.3320, 122.5132
915.4560, 39.60059
916.5800, 26.26123
917.7040, 17.10107
918.8270, 8.918945
919.9510, 43.28760
921.0740, 36.54492
922.1970, 12.15137
923.3200, 29.82568
924.4430, 4.480957
925.5650, 32.11230
926.6870, 27.27490
927.8100, 10.70068
928.9320, 82.84424
930.0540, 20.37256
931.1750, 67.11768
932.2970, 83.33545
933.4180, 72.77295
934.5400, 16.80615
935.6610, 21.41309
936.7820, 23.04932
937.9030, 65.71484
939.0230, 16.56738
940.1440, 32.83447
941.2640, 19.91406
942.3840, 43.68701
943.5040, 76.50293
944.6240, 51.67920
945.7440, 22.15820
946.8630, 69.98145
947.9820, 2.892090
949.1020, 92.21826
950.2210, 10.68359
951.3390, 9.398438
952.4580, 43.46826
953.5770, 27.54834
954.6950, 53.63281
955.8130, 74.67822
956.9310, 89.70264
958.0490, 92.80518
959.1670, 132.9194
960.2840, 77.06104
961.4020, 145.2358
962.5190, 71.44189
963.6360, 36.63818
964.7530, 47.85742
965.8700, 128.1191
966.9860, 39.37207
968.1030, 75.61572
969.2190, 178.8501
970.3350, 175.0796
971.4510, 150.3003
972.5670, 189.5122
973.6830, 95.71680
974.7980, 139.9136
975.9140, 160.1025
977.0290, 255.2847
978.1440, 209.4590
979.2590, 242.6265
980.3730, 234.8994
981.4880, 248.0537
982.6020, 318.2017
983.7160, 385.3442
984.8300, 369.4814
985.9440, 501.4424
987.0580, 572.1450
988.1710, 481.2739
989.2850, 568.2661
990.3980, 626.3906
991.5110, 715.4707
992.6240, 721.4062
993.7370, 849.5190
994.8490, 892.5015
995.9620, 1078.122
997.0740, 1092.208
998.1860, 1168.312
999.2980, 1206.732
1000.410, 1386.460
1001.522, 1341.369
1002.633, 1507.150
1003.744, 1649.240
1004.856, 1667.271
1005.966, 1855.281
1007.077, 2000.279
1008.188, 2007.150
1009.298, 2172.631
1010.409, 2297.413
1011.519, 2504.157
1012.629, 2630.117
1013.739, 2832.194
1014.849, 3051.157
1015.958, 3198.428
1017.068, 3310.411
1018.177, 3170.751
1019.286, 3203.209
1020.395, 3182.105
1021.503, 2919.869
1022.612, 2809.456
1023.720, 2681.950
1024.829, 2695.427
1025.937, 2476.331
1027.045, 2526.790
1028.153, 2431.548
1029.260, 2356.527
1030.368, 2452.989
1031.475, 2415.266
1032.582, 2362.504
1033.689, 2356.296
1034.796, 2465.588
1035.903, 2643.809
1037.009, 2749.486
1038.115, 2933.447
1039.222, 3148.596
1040.328, 3501.959
1041.433, 3751.537
1042.539, 4308.659
1043.645, 5011.991
1044.750, 5596.736
1045.855, 6519.736
1046.960, 7757.509
1048.065, 9241.408
1049.170, 10956.32
1050.275, 12941.02
1051.379, 15196.43
1052.483, 17895.79
1053.587, 20694.01
1054.691, 23117.75
1055.795, 24703.26
1056.899, 25468.86
1058.002, 25212.36
1059.105, 23809.03
1060.209, 21485.74
1061.312, 18980.58
1062.414, 16175.49
1063.517, 13373.23
1064.620, 11056.76
1065.722, 9187.724
1066.824, 7750.713
1067.926, 6611.663
1069.028, 5654.417
1070.130, 4937.156
1071.231, 4458.298
1072.333, 3878.260
1073.434, 3649.318
1074.535, 3409.586
1075.636, 3297.471
1076.737, 3082.656
1077.837, 3054.860
1078.938, 2940.262
1080.038, 2822.508
1081.138, 2846.573
1082.238, 2635.859
1083.338, 2681.769
1084.437, 2709.427
1085.537, 2772.443
1086.636, 2794.809
1087.735, 2995.196
1088.834, 2911.603
1089.933, 3159.034
1091.032, 3115.486
1092.130, 3297.967
1093.228, 3439.468
1094.327, 3619.988
1095.425, 3816.529
1096.523, 4124.088
1097.620, 4297.669
1098.718, 4477.270
1099.815, 4526.888
1100.912, 4409.657
1102.009, 4263.185
1103.106, 4008.864
1104.203, 3594.562
1105.300, 3378.281
1106.396, 3106.019
1107.492, 2915.776
1108.589, 2840.554
1109.685, 2684.353
1110.780, 2546.171
1111.876, 2453.010
1112.971, 2499.874
1114.067, 2437.759
1115.162, 2465.664
1116.257, 2456.589
1117.352, 2608.222
1118.446, 2688.188
1119.541, 2671.178
1120.635, 2776.198
1121.729, 2841.104
1122.823, 2984.751
1123.917, 3132.149
1125.011, 3399.323
1126.105, 3579.438
1127.198, 3929.574
1128.291, 4381.818
1129.384, 4797.650
1130.477, 5535.300
1131.570, 6371.291
1132.663, 7075.808
1133.755, 7808.047
1134.847, 8321.904
1135.940, 8611.957
1137.031, 8473.988
1138.123, 8069.346
1139.215, 7235.421
1140.306, 6557.523
1141.398, 5824.207
1142.489, 5194.653
1143.580, 4506.165
1144.671, 4227.383
1145.761, 3765.928
1146.852, 3410.231
1147.942, 3234.840
1149.033, 2996.476
1150.123, 2870.277
1151.213, 2807.318
1152.302, 2589.065
1153.392, 2683.088
1154.481, 2432.890
1155.571, 2313.238
1156.660, 2266.583
1157.749, 2133.309
1158.837, 2090.562
1159.926, 2084.519
1161.014, 2032.214
1162.103, 2012.203
1163.191, 1957.422
1164.279, 1933.829
1165.367, 1904.093
1166.454, 1828.277
1167.542, 1774.449
1168.629, 1688.608
1169.716, 1656.863
1170.803, 1608.086
1171.890, 1576.229
1172.977, 1558.834
1174.064, 1546.770
1175.150, 1554.112
1176.236, 1572.178
1177.322, 1620.685
1178.408, 1567.443
1179.494, 1518.690
1180.580, 1456.233
1181.665, 1496.772
1182.750, 1424.979
1183.835, 1423.548
1184.920, 1391.161
1186.005, 1376.834
1187.090, 1231.481
1188.174, 1168.100
1189.259, 1174.034
1190.343, 1016.500
1191.427, 1020.222
1192.511, 977.0391
1193.594, 935.4111
1194.678, 922.5869
1195.761, 920.4590
1196.844, 882.6553
1197.928, 885.8506
1199.010, 969.7041
1200.093, 926.5264
1201.176, 1044.367
1202.258, 1074.233
1203.340, 1181.109
1204.423, 1169.460
1205.504, 1234.358
1206.586, 1218.279
1207.668, 1394.208
1208.749, 1322.040
1209.831, 1384.988
1210.912, 1293.946
1211.993, 1275.912
1213.074, 1329.885
1214.154, 1253.867
1215.235, 1273.857
1216.315, 1125.901
1217.395, 1105.929
1218.475, 1093.162
1219.555, 1041.788
1220.635, 992.2217
1221.715, 881.7656
1222.794, 905.1250
1223.873, 849.1636
1224.952, 707.2075
1226.031, 657.2568
1227.110, 709.3911
1228.189, 619.4497
1229.267, 567.5127
1230.345, 454.5801
1231.424, 432.6519
1232.502, 364.7275
1233.579, 302.8071
1234.657, 212.8906
1235.735, 285.9775
1236.812, 211.0674
1237.889, 223.1611
1238.966, 214.3442
1240.043, 114.4434
1241.120, 45.54541
1242.196, 125.9194
1243.273, 67.02637
1244.349, 7.134766
1245.425, 86.24463
1246.501, 52.64307
1247.577, 51.45312
1248.652, 58.77051
1249.728, 2.870605
1250.803, 32.02881
1251.878, 26.06348
1252.953, 54.15674
1254.028, 106.5400
1255.103, 74.91846
1256.177, 83.72705
1257.251, 3.179199
1258.326, 22.08789
1259.400, 54.00439
1260.473, 58.03467
1261.547, 9.911621
1262.621, 25.88330
1263.694, 51.86670
1264.767, 37.67383
1265.840, 83.90332
1266.913, 13.02539
1267.986, 82.04785
1269.059, 81.16504
1270.131, 25.32666
1271.203, 52.49658
1272.275, 67.68262
1273.347, 29.90088
1274.419, 63.86133
1275.491, 44.37988
1276.562, 10.35645
1277.634, 62.90967
1278.705, 48.21631
1279.776, 34.55566
1280.847, 56.07861
1281.917, 63.29102
1282.988, 30.29639
1284.058, 2.119629
1285.128, 80.54785
1286.199, 101.0303
1287.268, 60.57666
1288.338, 57.83105
1289.408, 17.76758
1290.477, 58.61084
1291.546, 24.01904
1292.616, 9.677734
1293.685, 6.358398
1294.753, 13.94971
1295.822, 39.28955
1296.890, 48.58398
1297.959, 25.87402
1299.027, 77.14160
1300.095, 4.383301
1301.163, 27.61572
1302.231, 62.83789
1303.298, 161.0894
1304.365, 39.70654
1305.433, 13.53809
1306.500, 12.40186
1307.567, 83.88867
1308.633, 54.07129
1309.700, 71.75879
1310.766, 14.44922
1311.833, 78.49854
