##NAMES=Lazulite
##RRUFFID=R060494
##IDEAL CHEMISTRY=MgAl_2_(PO_4_)_2_(OH)_2_
##LOCALITY=Champion mine, White Mountains, Mono County, California, USA
##OWNER=RRUFF
##SOURCE=Michael Scott
##DESCRIPTION=Dark-blue coarsely crystalline mass
##STATUS=The identification of this mineral has been confirmed by X-ray diffraction and chemical analysis
##URL=rruff.info/R060494
##MEASURED CHEMISTRY=(Mg_0.67_Fe^2+^_0.33_)_Î£=1_Al_2.00_(P_1.00_O_4_)_2_(OH)_2_
##PIN_ID=M01822
##ORIENTATION=Laser parallel to a* (1 0 0). Fiducial mark perpendicular to laser is parallel to b [0 1 0]
124.6740, 0.0000000E+00
125.9080, 245.2476
127.1410, 153.8560
128.3740, 113.7417
129.6080, 19.79688
130.8400, 83.41357
132.0730, 171.0293
133.3060, 216.0610
134.5380, 230.7207
135.7700, 106.3813
137.0020, 276.6401
138.2340, 247.2207
139.4660, 499.8267
140.6980, 550.1792
141.9290, 422.0322
143.1600, 211.1743
144.3910, 288.4268
145.6220, 410.6387
146.8530, 429.7656
148.0830, 301.0283
149.3140, 433.4219
150.5440, 290.7466
151.7740, 358.8345
153.0040, 394.5547
154.2340, 252.8027
155.4630, 497.4927
156.6930, 377.5562
157.9220, 443.9351
159.1510, 360.5835
160.3800, 500.4614
161.6090, 491.5361
162.8370, 699.7773
164.0660, 752.1592
165.2940, 844.6636
166.5220, 1045.277
167.7500, 1078.760
168.9780, 1266.486
170.2050, 1265.073
171.4330, 1555.312
172.6600, 1715.581
173.8870, 1783.554
175.1140, 1878.257
176.3410, 1606.712
177.5670, 1638.939
178.7940, 1689.957
180.0200, 1937.782
181.2460, 2085.428
182.4720, 2429.909
183.6980, 3034.236
184.9230, 3852.421
186.1490, 4817.473
187.3740, 6539.397
188.5990, 8669.204
189.8240, 11351.90
191.0490, 13517.48
192.2730, 13891.97
193.4980, 12413.36
194.7220, 10128.66
195.9460, 8039.878
197.1700, 6132.011
198.3940, 4581.067
199.6180, 3497.034
200.8410, 3242.908
202.0640, 2763.710
203.2870, 2340.465
204.5100, 1699.188
205.7330, 1355.883
206.9560, 1092.560
208.1780, 966.1064
209.4000, 854.3057
210.6230, 1099.159
211.8450, 837.2661
213.0660, 1029.686
214.2880, 957.4810
215.5090, 1075.890
216.7310, 1122.199
217.9520, 1375.337
219.1730, 1490.975
220.3940, 1574.520
221.6140, 1685.104
222.8350, 1760.723
224.0550, 1864.378
225.2750, 1777.065
226.4950, 1365.783
227.7150, 984.5303
228.9350, 728.3052
230.1540, 772.1060
231.3730, 608.9321
232.5930, 594.7812
233.8120, 479.6528
235.0300, 434.5469
236.2490, 410.4604
237.4680, 308.3936
238.6860, 410.6738
239.9040, 448.3164
241.1220, 596.3086
242.3400, 653.3115
243.5580, 727.3184
244.7750, 992.3232
245.9920, 1168.323
247.2100, 1386.320
248.4270, 1706.312
249.6430, 2267.301
250.8600, 2981.285
252.0770, 3881.268
253.2930, 4594.247
254.5090, 4717.223
255.7250, 4209.198
256.9410, 3161.169
258.1570, 2486.138
259.3720, 1927.105
260.5880, 1440.071
261.8030, 1258.035
263.0180, 812.9971
264.2330, 745.9590
265.4470, 737.9194
266.6620, 687.8809
267.8760, 685.3569
269.0900, 633.8096
270.3040, 710.7803
271.5180, 685.7837
272.7320, 740.6313
273.9460, 1005.278
275.1590, 1028.193
276.3720, 1326.894
277.5850, 1522.231
278.7980, 1635.737
280.0110, 1918.390
281.2230, 2144.172
282.4360, 2118.069
283.6480, 1748.067
284.8600, 1622.156
286.0720, 1314.326
287.2840, 959.5684
288.4950, 680.8750
289.7070, 596.2402
290.9180, 222.6587
292.1290, 17.23096
293.3400, 65.76904
294.5500, 32.39551
295.7610, 151.5850
296.9710, 66.96436
298.1820, 195.5308
299.3920, 234.6802
300.6020, 224.8965
301.8110, 85.96631
303.0210, 136.2153
304.2300, 66.53906
305.4400, 163.0103
306.6490, 188.8687
307.8580, 153.6045
309.0660, 30.38232
310.2750, 74.17090
311.4830, 12.01758
312.6920, 11.20508
313.9000, 86.38965
315.1080, 106.5679
316.3160, 297.7319
317.5230, 472.8760
318.7310, 686.9995
319.9380, 873.1035
321.1450, 908.1885
322.3520, 1058.256
323.5590, 1196.308
324.7650, 1186.344
325.9720, 1023.365
327.1780, 1214.373
328.3840, 1141.367
329.5900, 1298.349
330.7960, 1432.317
332.0020, 1530.274
333.2070, 1869.221
334.4120, 2078.156
335.6170, 2184.082
336.8220, 2524.998
338.0270, 2812.905
339.2320, 3128.802
340.4360, 3627.691
341.6410, 4272.571
342.8450, 4937.445
344.0490, 5396.310
345.2530, 5898.168
346.4560, 5872.021
347.6600, 5657.865
348.8630, 5083.704
350.0660, 4418.536
351.2690, 3746.363
352.4720, 3238.184
353.6750, 2674.999
354.8770, 2203.110
356.0790, 1973.819
357.2820, 1775.393
358.4840, 1807.739
359.6860, 1514.964
360.8870, 1530.064
362.0890, 1468.994
363.2900, 1480.855
364.4910, 1485.701
365.6920, 1622.549
366.8930, 1626.401
368.0940, 1746.255
369.2940, 1985.112
370.4950, 2103.973
371.6950, 2456.835
372.8950, 2903.700
374.0950, 3281.568
375.2940, 3763.438
376.4940, 4237.309
377.6930, 4546.183
378.8930, 4341.057
380.0920, 4224.935
381.2910, 3856.814
382.4890, 3220.695
383.6880, 2776.577
384.8860, 2350.462
386.0840, 1896.347
387.2820, 1720.232
388.4800, 1604.121
389.6780, 1567.010
390.8760, 1472.900
392.0730, 1515.792
393.2700, 1479.686
394.4670, 1348.580
395.6640, 1162.478
396.8610, 1075.376
398.0580, 871.2769
399.2540, 745.1831
400.4500, 738.0947
401.6460, 762.0254
402.8420, 817.9839
404.0380, 801.9604
405.2340, 1117.970
406.4290, 1535.000
407.6240, 1763.044
408.8190, 2338.131
410.0140, 3428.278
411.2090, 4860.455
412.4040, 6321.688
413.5980, 6659.970
414.7920, 5727.303
415.9870, 4479.686
417.1810, 2986.103
418.3740, 2110.528
419.5680, 1405.963
420.7610, 1003.410
421.9550, 863.8623
423.1480, 801.3174
424.3410, 849.7744
425.5340, 954.2329
426.7260, 922.6899
427.9190, 825.1445
429.1110, 763.5967
430.3030, 552.0454
431.4950, 492.4897
432.6870, 315.9307
433.8790, 129.3667
435.0700, 78.79736
436.2610, 18.77832
437.4530, 39.61133
438.6440, 7.284668
439.8340, 88.77002
441.0250, 24.23486
442.2160, 164.9053
443.4060, 44.48975
444.5960, 70.61719
445.7860, 39.23193
446.9760, 43.12695
448.1660, 1.225098
449.3550, 43.51465
450.5450, 10.01172
451.7340, 110.7227
452.9230, 68.14062
454.1120, 186.7847
455.3000, 276.7822
456.4890, 383.7109
457.6770, 494.6743
458.8650, 565.6353
460.0530, 715.5952
461.2410, 892.5527
462.4290, 843.5088
463.6170, 941.4624
464.8040, 1076.415
465.9910, 1229.366
467.1780, 1310.315
468.3650, 1433.263
469.5520, 1602.171
470.7390, 1826.614
471.9250, 2040.099
473.1110, 2414.040
474.2970, 2852.981
475.4830, 3269.922
476.6690, 3588.860
477.8540, 3754.799
479.0400, 3709.736
480.2250, 3325.672
481.4100, 2925.607
482.5950, 2254.542
483.7800, 1819.476
484.9650, 1445.408
486.1490, 1011.341
487.3330, 762.2720
488.5170, 432.2031
489.7010, 335.1338
490.8850, 295.0640
492.0690, 228.9937
493.2520, 107.9238
494.4350, 21.85303
495.6190, 174.7822
496.8020, 17.28906
497.9840, 58.63477
499.1670, 74.55957
500.3490, 64.48535
501.5320, 114.4131
502.7140, 114.3428
503.8960, 143.2759
505.0780, 54.21240
506.2590, 197.1528
507.4410, 269.0981
508.6220, 181.0469
509.8030, 284.0000
510.9840, 334.9570
512.1650, 350.9180
513.3460, 395.8833
514.5260, 480.8521
515.7070, 449.8257
516.8870, 530.8022
518.0670, 582.7832
519.2470, 557.7686
520.4260, 549.7578
521.6060, 544.7515
522.7850, 563.7041
523.9650, 587.8140
525.1440, 630.7544
526.3220, 656.7627
527.5010, 708.7744
528.6800, 730.7900
529.8580, 725.1382
531.0360, 766.8325
532.2140, 718.8589
533.3920, 676.8887
534.5700, 723.9224
535.7480, 789.9590
536.9250, 734.0444
538.1020, 701.1167
539.2790, 792.4180
540.4560, 834.3047
541.6330, 756.0713
542.8100, 729.0098
543.9860, 736.7915
545.1620, 570.5278
546.3380, 530.4980
547.5140, 556.9214
548.6900, 406.3638
549.8660, 567.2412
551.0410, 504.4756
552.2160, 449.1084
553.3910, 459.4316
554.5660, 460.6108
555.7410, 471.4785
556.9160, 499.2637
558.0900, 581.7876
559.2650, 522.0645
560.4390, 620.4741
561.6130, 746.1704
562.7860, 673.3564
563.9600, 699.8682
565.1340, 727.5542
566.3070, 714.2388
567.4800, 788.3809
568.6530, 796.5059
569.8260, 834.0625
570.9980, 895.5005
572.1710, 904.4883
573.3430, 907.4692
574.5150, 928.4434
575.6870, 1117.412
576.8590, 914.2676
578.0310, 1075.195
579.2030, 975.8560
580.3740, 906.5688
581.5450, 881.4932
582.7160, 774.6221
583.8870, 713.4819
585.0580, 539.1553
586.2280, 543.8262
587.3990, 437.6841
588.5690, 301.6226
589.7390, 462.7148
590.9090, 428.1992
592.0780, 421.5625
593.2480, 576.9712
594.4170, 580.3916
595.5870, 716.8354
596.7560, 897.2803
597.9250, 958.7290
599.0930, 1182.173
600.2620, 1560.613
601.4300, 1918.049
602.5990, 2426.480
603.7670, 2711.915
604.9350, 3271.346
606.1020, 3580.772
607.2700, 4010.194
608.4370, 4477.610
609.6050, 4608.039
610.7720, 5077.469
611.9390, 5374.896
613.1060, 5629.318
614.2720, 5819.747
615.4390, 5892.190
616.6050, 5723.630
617.7710, 5852.062
618.9370, 5740.499
620.1030, 6012.930
621.2680, 5904.361
622.4340, 6024.808
623.5990, 6019.252
624.7640, 5889.692
625.9290, 5695.157
627.0940, 5611.615
628.2590, 5747.104
629.4230, 5533.608
630.5880, 5832.107
631.7520, 5920.602
632.9160, 6107.095
634.0800, 6044.582
635.2440, 5900.072
636.4070, 5809.570
637.5700, 5831.786
638.7340, 5673.315
639.8970, 5579.834
641.0600, 5644.345
642.2220, 5808.857
643.3850, 5732.362
644.5470, 5770.875
645.7090, 5525.388
646.8710, 5223.896
648.0330, 4882.399
649.1950, 4343.897
650.3570, 3811.405
651.5180, 3325.905
652.6790, 2949.400
653.8400, 2411.894
655.0010, 2094.375
656.1620, 1651.866
657.3230, 1435.347
658.4830, 1163.982
659.6430, 1090.499
660.8030, 933.0562
661.9630, 793.4995
663.1230, 630.9531
664.2830, 587.4028
665.4420, 523.8408
666.6020, 523.2671
667.7610, 495.6802
668.9200, 379.0786
670.0780, 367.5728
671.2370, 326.0049
672.3960, 297.3896
673.5540, 251.9253
674.7120, 239.2734
675.8700, 178.7666
677.0280, 184.1016
678.1860, 131.6885
679.3430, 40.85889
680.5000, 52.35107
681.6580, 27.32324
682.8150, 55.98828
683.9710, 22.72656
685.1280, 73.59912
686.2850, 32.40332
687.4410, 0.2221680
688.5970, 118.0947
689.7530, 171.0225
690.9090, 65.36133
692.0650, 155.5732
693.2200, 136.9399
694.3760, 147.5928
695.5310, 130.0264
696.6860, 61.91016
697.8410, 33.17773
698.9960, 27.95117
700.1500, 75.42334
701.3050, 38.17871
702.4590, 98.10498
703.6130, 76.00732
704.7670, 75.88574
705.9210, 183.7393
707.0740, 186.5728
708.2280, 326.3862
709.3810, 254.1797
710.5340, 338.9551
711.6870, 385.7100
712.8400, 306.4458
713.9930, 373.1626
715.1450, 464.8589
716.2970, 420.5361
717.4490, 542.2090
718.6010, 498.8633
719.7530, 564.5088
720.9050, 564.1655
722.0560, 630.8164
723.2080, 636.4956
724.3590, 802.1694
725.5100, 805.8438
726.6610, 940.5078
727.8110, 1045.175
728.9620, 1118.229
730.1120, 1228.428
731.2620, 1330.135
732.4120, 1487.708
733.5620, 1633.380
734.7120, 1794.906
735.8620, 2004.004
737.0110, 2287.646
738.1600, 2474.433
739.3090, 2616.278
740.4580, 2675.041
741.6070, 2924.296
742.7550, 2923.131
743.9040, 3086.624
745.0520, 2923.377
746.2000, 2691.922
747.3480, 2558.132
748.4960, 2305.161
749.6430, 2031.057
750.7910, 1888.661
751.9380, 1655.299
753.0850, 1611.899
754.2320, 1405.606
755.3790, 1237.980
756.5260, 1182.335
757.6720, 910.6479
758.8180, 918.2451
759.9650, 818.7017
761.1110, 713.8628
762.2560, 696.9106
763.4020, 502.7930
764.5470, 466.9746
765.6930, 585.9390
766.8380, 548.9302
767.9830, 416.3643
769.1280, 461.9316
770.2720, 469.6675
771.4170, 409.0791
772.5610, 395.1685
773.7060, 386.5161
774.8500, 327.7744
775.9930, 387.0337
777.1370, 374.8418
778.2810, 403.4214
779.4240, 327.1118
780.5670, 424.2139
781.7100, 376.2656
782.8530, 353.2837
783.9960, 391.2837
785.1390, 397.3320
786.2810, 363.1870
787.4230, 305.5557
788.5650, 322.0747
789.7070, 375.7095
790.8490, 451.6665
791.9910, 358.7827
793.1320, 348.8989
794.2730, 325.0801
795.4140, 265.1387
796.5550, 290.2373
797.6960, 280.2505
798.8370, 401.7168
799.9770, 323.8755
801.1180, 334.4253
802.2580, 374.6514
803.3980, 313.6650
804.5380, 319.4116
805.6770, 325.1255
806.8170, 279.8047
807.9560, 298.5439
809.0950, 306.3105
810.2340, 265.8867
811.3730, 333.9053
812.5120, 268.4116
813.6500, 301.9502
814.7890, 274.3594
815.9270, 294.5078
817.0650, 248.0400
818.2030, 281.6592
819.3400, 263.0757
820.4780, 258.6172
821.6150, 275.1719
822.7530, 233.4619
823.8900, 219.4355
825.0270, 220.1885
826.1630, 199.4790
827.3000, 274.3711
828.4360, 198.8369
829.5730, 194.5811
830.7090, 225.4370
831.8450, 132.5723
832.9800, 243.7583
834.1160, 185.1733
835.2520, 181.8042
836.3870, 234.2695
837.5220, 220.4180
838.6570, 273.0449
839.7920, 214.3140
840.9260, 293.3770
842.0610, 211.4097
843.1950, 277.9541
844.3290, 220.4834
845.4630, 252.1055
846.5970, 312.7017
847.7310, 274.2734
848.8640, 313.8198
849.9980, 382.3413
851.1310, 340.8379
852.2640, 288.3096
853.3970, 270.7563
854.5300, 241.1787
855.6620, 244.5767
856.7940, 265.9502
857.9270, 298.2988
859.0590, 376.6230
860.1910, 337.9229
861.3220, 322.1978
862.4540, 222.4482
863.5850, 157.6748
864.7170, 213.8770
865.8480, 207.0547
866.9790, 130.2085
868.1090, 214.3374
869.2400, 124.4424
870.3710, 156.5225
871.5010, 42.57910
872.6310, 109.6064
873.7610, 67.60889
874.8910, 52.58594
876.0200, 58.53613
877.1500, 5.459961
878.2790, 42.34326
879.4080, 100.2002
880.5370, 42.03320
881.6660, 72.83984
882.7950, 32.37695
883.9230, 1.652344
885.0520, 62.03125
886.1800, 36.69092
887.3080, 25.67383
888.4360, 42.09180
889.5640, 24.43018
890.6910, 49.92529
891.8180, 9.603027
892.9460, 47.82812
894.0730, 0.2358400
895.2000, 62.39111
896.3260, 4.913574
897.4530, 77.18701
898.5790, 104.5601
899.7060, 27.60449
900.8320, 124.2524
901.9580, 62.20605
903.0830, 9.775391
904.2090, 5.731445
905.3340, 1.660645
906.4600, 5.561035
907.5850, 22.56396
908.7100, 53.72900
909.8350, 81.95020
910.9590, 61.24121
912.0840, 14.41016
913.2080, 10.04297
914.3320, 21.34326
915.4560, 0.7646480
916.5800, 49.20947
917.7040, 34.23584
918.8270, 3.234375
919.9510, 21.78857
921.0740, 3.294922
922.1970, 77.72656
923.3200, 1.354004
924.4430, 21.33008
925.5650, 28.04102
926.6870, 50.21680
927.8100, 81.53711
928.9320, 10.65137
930.0540, 19.17285
931.1750, 8.816895
932.2970, 30.09814
933.4180, 12.91504
934.5400, 91.98340
935.6610, 35.93896
936.7820, 9.922363
937.9030, 4.920410
939.0230, 46.06787
940.1440, 40.04785
941.2640, 36.01807
942.3840, 81.13037
943.5040, 5.259277
944.6240, 13.63672
945.7440, 17.64209
946.8630, 40.24121
947.9820, 6.042969
949.1020, 10.80713
950.2210, 100.5381
951.3390, 44.35156
952.4580, 117.9731
953.5770, 111.9272
954.6950, 39.44971
955.8130, 80.18848
956.9310, 72.02295
958.0490, 11.26270
959.1670, 52.42285
960.2840, 112.1294
961.4020, 9.827637
962.5190, 174.8589
963.6360, 80.71191
964.7530, 148.6465
965.8700, 157.7983
966.9860, 247.6602
968.1030, 198.9043
969.2190, 132.1274
970.3350, 179.3457
971.4510, 210.6250
972.5670, 214.9053
973.6830, 183.1899
974.7980, 247.4756
975.9140, 298.7637
977.0290, 407.0532
978.1440, 364.3428
979.2590, 449.6338
980.3730, 465.9238
981.4880, 452.2153
982.6020, 522.5073
983.7160, 688.7993
984.8300, 731.0962
985.9440, 679.3945
987.0580, 890.6943
988.1710, 993.9961
989.2850, 998.3018
990.3980, 1228.611
991.5110, 1357.922
992.6240, 1443.244
993.7370, 1683.568
994.8490, 1842.895
995.9620, 2034.258
997.0740, 2168.623
998.1860, 2304.988
999.2980, 2609.373
1000.410, 2602.762
1001.522, 2751.044
1002.633, 2797.441
1003.744, 2790.723
1004.856, 2845.131
1005.966, 2811.947
1007.077, 2844.204
1008.188, 2829.308
1009.298, 2889.340
1010.409, 3002.447
1011.519, 3156.056
1012.629, 3163.073
1013.739, 3584.434
1014.849, 3899.531
1015.958, 4004.839
1017.068, 4082.357
1018.177, 4061.855
1019.286, 4026.178
1020.395, 3765.367
1021.503, 3393.526
1022.612, 3161.716
1023.720, 2779.786
1024.829, 2513.186
1025.937, 2317.587
1027.045, 2299.035
1028.153, 2024.182
1029.260, 2048.453
1030.368, 2081.003
1031.475, 2054.661
1032.582, 2054.473
1033.689, 2019.980
1034.796, 2009.698
1035.903, 2197.390
1037.009, 2345.635
1038.115, 2449.731
1039.222, 2641.647
1040.328, 2885.883
1041.433, 3222.427
1042.539, 3585.097
1043.645, 4205.073
1044.750, 4730.435
1045.855, 5437.243
1046.960, 6627.062
1048.065, 7834.171
1049.170, 9257.673
1050.275, 11072.21
1051.379, 13194.78
1052.483, 15728.34
1053.587, 18156.85
1054.691, 20710.54
1055.795, 22557.72
1056.899, 23727.72
1058.002, 23713.63
1059.105, 22840.21
1060.209, 20942.60
1061.312, 18223.99
1062.414, 15749.30
1063.517, 13018.72
1064.620, 10843.09
1065.722, 8777.057
1066.824, 7277.509
1067.926, 6105.784
1069.028, 5290.656
1070.130, 4546.845
1071.231, 4089.236
1072.333, 3755.883
1073.434, 3427.552
1074.535, 3202.921
1075.636, 2987.862
1076.737, 2918.449
1077.837, 2856.215
1078.938, 2842.525
1080.038, 2924.338
1081.138, 2921.061
1082.238, 3176.920
1083.338, 3300.808
1084.437, 3347.720
1085.537, 3594.656
1086.636, 3936.615
1087.735, 4346.600
1088.834, 4605.607
1089.933, 4959.638
1091.032, 5244.523
1092.130, 5687.603
1093.228, 6253.707
1094.327, 6761.834
1095.425, 7504.986
1096.523, 8324.165
1097.620, 8992.368
1098.718, 9695.597
1099.815, 9697.847
1100.912, 9776.118
1102.009, 9153.416
1103.106, 8245.732
1104.203, 7433.073
1105.300, 6411.437
1106.396, 5348.822
1107.492, 4635.229
1108.589, 4187.657
1109.685, 3605.108
1110.780, 3242.580
1111.876, 2903.074
1112.971, 2768.591
1114.067, 2536.129
1115.162, 2461.689
1116.257, 2226.934
1117.352, 2192.538
1118.446, 2201.163
1119.541, 2140.818
1120.635, 2066.865
1121.729, 2217.631
1122.823, 2197.344
1123.917, 2165.654
1125.011, 2272.409
1126.105, 2361.187
1127.198, 2632.323
1128.291, 2788.142
1129.384, 3083.857
1130.477, 3450.973
1131.570, 3779.855
1132.663, 4164.758
1133.755, 4652.682
1134.847, 5046.626
1135.940, 5081.592
1137.031, 5155.578
1138.123, 4976.927
1139.215, 4422.132
1140.306, 4158.285
1141.398, 3706.337
1142.489, 3375.359
1143.580, 3074.247
1144.671, 2724.162
1145.761, 2412.561
1146.852, 2358.860
1147.942, 2010.070
1149.033, 2063.810
1150.123, 1991.110
1151.213, 1808.406
1152.302, 1752.833
1153.392, 1666.260
1154.481, 1618.322
1155.571, 1561.634
1156.660, 1448.062
1157.749, 1508.884
1158.837, 1361.358
1159.926, 1371.858
1161.014, 1329.399
1162.103, 1279.237
1163.191, 1313.253
1164.279, 1362.497
1165.367, 1198.927
1166.454, 1231.278
1167.542, 1207.587
1168.629, 1149.350
1169.716, 1077.522
1170.803, 1150.788
1171.890, 1114.611
1172.977, 1028.216
1174.064, 986.5269
1175.150, 940.1875
1176.236, 974.4336
1177.322, 985.9492
1178.408, 900.5278
1179.494, 956.1387
1180.580, 850.1304
1181.665, 974.1885
1182.750, 857.2383
1183.835, 849.3613
1184.920, 777.4819
1186.005, 923.0107
1187.090, 822.3296
1188.174, 863.5415
1189.259, 679.3330
1190.343, 596.0806
1191.427, 703.3457
1192.511, 591.6128
1193.594, 581.8906
1194.678, 572.2803
1195.761, 585.5850
1196.844, 608.9072
1197.928, 668.5474
1199.010, 546.9131
1200.093, 620.6421
1201.176, 562.3296
1202.258, 679.8306
1203.340, 640.2480
1204.423, 657.6743
1205.504, 817.3022
1206.586, 757.8486
1207.668, 891.3906
1208.749, 843.8691
1209.831, 881.3579
1210.912, 922.8545
1211.993, 783.5527
1213.074, 890.0801
1214.154, 968.7832
1215.235, 830.3350
1216.315, 975.8662
1217.395, 904.4033
1218.475, 855.9473
1219.555, 870.4961
1220.635, 836.0508
1221.715, 869.6118
1222.794, 776.3188
1223.873, 763.8906
1224.952, 788.9297
1226.031, 583.1543
1227.110, 599.1382
1228.189, 533.7275
1229.267, 500.6450
1230.345, 428.2412
1231.424, 422.9741
1232.502, 345.6650
1233.579, 316.0015
1234.657, 341.2412
1235.735, 247.8540
1236.812, 174.5088
1237.889, 149.1265
1238.966, 65.74658
1240.043, 180.3691
1241.120, 100.1309
1242.196, 109.7573
1243.273, 21.38477
1244.349, 63.01318
1245.425, 28.35645
1246.501, 4.267578
1247.577, 44.89160
1248.652, 2.517090
1249.728, 17.85840
1250.803, 4.237305
1251.878, 66.38232
1252.953, 44.99854
1254.028, 96.60449
1255.103, 49.20703
1256.177, 135.1909
1257.251, 5.346680
1258.326, 41.11670
1259.400, 18.59766
1260.473, 25.91357
1261.547, 13.42383
1262.621, 38.01270
1263.694, 33.91162
1264.767, 45.94434
1265.840, 8.478516
1266.913, 10.02051
1267.986, 42.52734
1269.059, 24.00439
1270.131, 37.54785
1271.203, 51.73877
1272.275, 15.70947
1273.347, 79.31738
1274.419, 53.97070
1275.491, 67.13379
1276.562, 58.00635
1277.634, 23.72412
1278.705, 15.47314
1279.776, 32.76221
1280.847, 63.00635
1281.917, 29.81299
1282.988, 6.642090
1284.058, 41.43457
1285.128, 48.69189
1286.199, 63.18652
1287.268, 31.89062
1288.338, 45.96240
1289.408, 22.02832
1290.477, 26.91162
1291.546, 3.120117
1292.616, 30.86816
1293.685, 16.89697
1294.753, 45.94922
1295.822, 28.03613
1296.890, 89.84814
1297.959, 8.708008
1299.027, 24.45068
