##NAMES=Lazulite
##RRUFFID=R060494
##IDEAL CHEMISTRY=MgAl_2_(PO_4_)_2_(OH)_2_
##LOCALITY=Champion mine, White Mountains, Mono County, California, USA
##OWNER=RRUFF
##SOURCE=Michael Scott
##DESCRIPTION=Dark-blue coarsely crystalline mass
##STATUS=The identification of this mineral has been confirmed by X-ray diffraction and chemical analysis
##URL=rruff.info/R060494
##MEASURED CHEMISTRY=(Mg_0.67_Fe^2+^_0.33_)_Î£=1_Al_2.00_(P_1.00_O_4_)_2_(OH)_2_
##PIN_ID=M01551
##ORIENTATION=Laser parallel to (1 0 1). Fiducial mark perpendicular to laser is parallel to b [0 1 0]
133.3060, 0.0000000E+00
134.5380, 25.32373
135.7700, 0.2949220
137.0020, 23.70361
138.2340, 54.63501
139.4660, 27.12354
140.6980, 70.96069
141.9290, 57.31201
143.1600, 51.79102
144.3910, 46.68799
145.6220, 38.81836
146.8530, 4.968018
148.0830, 23.20947
149.3140, 20.25122
150.5440, 26.92676
151.7740, 29.60400
153.0040, 29.78198
154.2340, 55.54907
155.4630, 74.85376
156.6930, 38.65063
157.9220, 26.90015
159.1510, 55.56812
160.3800, 45.15503
161.6090, 53.94727
162.8370, 78.88525
164.0660, 60.01855
165.2940, 91.46436
166.5220, 87.20654
167.7500, 163.2305
168.9780, 164.5227
170.2050, 225.0703
171.4330, 231.8540
172.6600, 224.8530
173.8870, 318.0513
175.1140, 353.4351
176.3410, 465.9929
177.5670, 565.7163
178.7940, 881.5977
180.0200, 1257.630
181.2460, 1979.808
182.4720, 2630.127
183.6980, 3526.582
184.9230, 4044.177
186.1490, 4563.988
187.3740, 5637.015
188.5990, 7415.181
189.8240, 9083.450
191.0490, 10101.83
192.2730, 9888.307
193.4980, 8833.895
194.7220, 7078.595
195.9460, 5183.410
197.1700, 3538.336
198.3940, 2474.372
199.6180, 2356.514
200.8410, 1243.761
202.0640, 1018.108
203.2870, 801.5542
204.5100, 591.0967
205.7330, 385.7336
206.9560, 211.4385
208.1780, 287.1394
209.4000, 148.8447
210.6230, 200.5645
211.8450, 158.3037
213.0660, 123.0679
214.2880, 146.8601
215.5090, 143.6814
216.7310, 294.5347
217.9520, 276.4292
219.1730, 413.3667
220.3940, 493.3491
221.6140, 684.3779
222.8350, 712.4548
224.0550, 728.5808
225.2750, 815.7568
226.4950, 764.9834
227.7150, 645.2607
228.9350, 531.5903
230.1540, 422.9717
231.3730, 386.4048
232.5930, 330.8906
233.8120, 271.4451
235.0300, 267.2681
236.2490, 256.9211
237.4680, 226.9336
238.6860, 336.7095
239.9040, 413.1484
241.1220, 463.4036
242.3400, 651.2073
243.5580, 979.0635
244.7750, 1277.972
245.9920, 1675.933
247.2100, 1888.948
248.4270, 2200.038
249.6430, 2659.238
250.8600, 3217.508
252.0770, 3914.879
253.2930, 4306.387
254.5090, 4369.062
255.7250, 4060.856
256.9410, 3409.717
258.1570, 2572.625
259.3720, 1904.580
260.5880, 1496.573
261.8030, 1320.605
263.0180, 1103.675
264.2330, 972.7837
265.4470, 1057.929
266.6620, 1174.113
267.8760, 1324.335
269.0900, 1544.594
270.3040, 1780.889
271.5180, 2247.221
272.7320, 2730.590
273.9460, 3449.995
275.1590, 3901.436
276.3720, 4531.913
277.5850, 5172.425
278.7980, 5803.973
280.0110, 6440.974
281.2230, 6787.966
282.4360, 6703.942
283.6480, 6625.234
284.8600, 5956.641
286.0720, 4978.164
287.2840, 4209.782
288.4950, 3168.458
289.7070, 2580.239
290.9180, 1955.118
292.1290, 1461.090
293.3400, 1106.028
294.5500, 927.1704
295.7610, 765.3933
296.9710, 496.0112
298.1820, 469.3826
299.3920, 385.8240
300.6020, 267.3325
301.8110, 213.9055
303.0210, 149.1326
304.2300, 95.23828
305.4400, 78.99341
306.6490, 81.80566
307.8580, 95.67310
309.0660, 78.59424
310.2750, 85.56738
311.4830, 183.5918
312.6920, 250.6653
313.9000, 416.7876
315.1080, 522.9570
316.3160, 552.1726
317.5230, 806.4331
318.7310, 987.7378
319.9380, 1168.086
321.1450, 1228.476
322.3520, 1291.908
323.5590, 1149.381
324.7650, 872.8945
325.9720, 732.4475
327.1780, 578.0398
328.3840, 291.6704
329.5900, 196.3389
330.7960, 70.04468
332.0020, 65.78711
333.2070, 0.5646970
334.4120, 2.623047
335.6170, 11.77612
336.8220, 7.103760
338.0270, 1.017334
339.2320, 48.03613
340.4360, 17.93896
341.6410, 93.05347
342.8450, 29.02515
344.0490, 1.031982
345.2530, 30.87988
346.4560, 74.76343
347.6600, 0.3747560
348.8630, 67.54272
350.0660, 52.73975
351.2690, 89.96655
352.4720, 31.22192
353.6750, 82.50635
354.8770, 106.8198
356.0790, 204.1621
357.2820, 129.5337
358.4840, 326.9338
359.6860, 351.6543
360.8870, 373.1118
362.0890, 568.4502
363.2900, 589.8101
364.4910, 960.2651
365.6920, 1067.040
366.8930, 1470.678
368.0940, 1792.976
369.2940, 2120.799
370.4950, 2587.674
371.6950, 3140.275
372.8950, 3623.432
374.0950, 4241.058
375.2940, 4617.712
376.4940, 5159.519
377.6930, 5467.442
378.8930, 5397.429
380.0920, 5189.306
381.2910, 4682.517
382.4890, 4068.435
383.6880, 3358.359
384.8860, 2687.302
386.0840, 2181.256
387.2820, 1738.234
388.4800, 1493.234
389.6780, 1287.257
390.8760, 1129.303
392.0730, 1055.305
393.2700, 1031.460
394.4670, 1034.571
395.6640, 1071.703
396.8610, 1135.855
398.0580, 1222.028
399.2540, 1515.220
400.4500, 1938.431
401.6460, 2862.661
402.8420, 4076.908
404.0380, 5900.174
405.2340, 8205.457
406.4290, 10889.76
407.6240, 13148.08
408.8190, 15419.42
410.0140, 19491.78
411.2090, 24829.15
412.4040, 28671.54
413.5980, 29160.96
414.7920, 26869.38
415.9870, 22230.83
417.1810, 16560.32
418.3740, 11919.82
419.5680, 8446.344
420.7610, 6441.893
421.9550, 5510.471
423.1480, 5116.065
424.3410, 4914.747
425.5340, 4875.400
426.7260, 4854.090
427.9190, 4587.812
429.1110, 4141.564
430.3030, 3536.347
431.4950, 2775.160
432.6870, 2240.002
433.8790, 1789.881
435.0700, 1402.808
436.2610, 1173.762
437.4530, 957.7534
438.6440, 807.7673
439.8340, 730.8076
441.0250, 662.8872
442.2160, 581.9888
443.4060, 554.1162
444.5960, 458.2781
445.7860, 489.4622
446.9760, 556.6677
448.1660, 473.8997
449.3550, 497.1528
450.5450, 519.4246
451.7340, 490.7246
452.9230, 506.0491
454.1120, 548.4004
455.3000, 608.7690
456.4890, 614.1562
457.6770, 682.5632
458.8650, 670.9910
460.0530, 663.4358
461.2410, 703.8970
462.4290, 681.3735
463.6170, 803.8667
464.8040, 859.3752
465.9910, 1031.901
467.1780, 1016.441
468.3650, 1325.998
469.5520, 1569.570
470.7390, 1949.158
471.9250, 2365.760
473.1110, 2774.375
474.2970, 3061.005
475.4830, 3535.652
476.6690, 3835.317
477.8540, 4050.978
479.0400, 3886.561
480.2250, 3895.290
481.4100, 3461.031
482.5950, 2843.850
483.7800, 2318.628
484.9650, 1941.950
486.1490, 1527.304
487.3330, 1224.123
488.5170, 854.4575
489.7010, 668.4893
490.8850, 513.3604
492.0690, 464.2615
493.2520, 252.1790
494.4350, 257.1116
495.6190, 242.0557
496.8020, 175.0103
497.9840, 97.97534
499.1670, 112.9507
500.3490, 103.9358
501.5320, 3.931885
502.7140, 24.93311
503.8960, 69.05469
505.0780, 49.06738
506.2590, 9.094482
507.4410, 15.12207
508.6220, 14.84790
509.8030, 44.17480
510.9840, 72.21289
512.1650, 72.27979
513.3460, 66.37549
514.5260, 112.4978
515.7070, 119.6687
516.8870, 64.89160
518.0670, 20.85864
519.2470, 30.38428
520.4260, 13.36084
521.6060, 60.11060
522.7850, 14.13257
523.9650, 91.61865
525.1440, 99.37646
526.3220, 82.14062
527.5010, 149.9111
528.6800, 224.6880
529.8580, 237.4712
531.0360, 255.2603
532.2140, 369.0552
533.3920, 365.8557
534.5700, 489.6619
535.7480, 457.4734
536.9250, 492.2903
538.1020, 569.1118
539.2790, 481.9385
540.4560, 503.7698
541.6330, 514.6057
542.8100, 456.4463
543.9860, 357.2910
545.1620, 387.1399
546.3380, 315.9927
547.5140, 287.8494
548.6900, 287.3433
549.8660, 236.3345
551.0410, 154.3438
552.2160, 163.2144
553.3910, 201.0957
554.5660, 125.0581
555.7410, 167.1060
556.9160, 72.26172
558.0900, 91.32275
559.2650, 52.95923
560.4390, 39.24146
561.6130, 71.31738
562.7860, 44.91455
563.9600, 107.5920
565.1340, 29.64746
566.3070, 116.2900
567.4800, 111.0676
568.6530, 50.47437
569.8260, 62.08398
570.9980, 60.73657
572.1710, 154.6284
573.3430, 108.3313
574.5150, 134.3374
575.6870, 201.8223
576.8590, 110.6516
578.0310, 473.9443
579.2030, 303.9050
580.3740, 356.7925
581.5450, 180.0073
582.7160, 220.9978
583.8870, 166.1606
585.0580, 206.2444
586.2280, 273.6270
587.3990, 273.8298
588.5690, 349.2598
589.7390, 360.5171
590.9090, 352.3557
592.0780, 390.4541
593.2480, 450.6660
594.4170, 552.4229
595.5870, 554.2388
596.7560, 670.1890
597.9250, 725.6411
599.0930, 849.3892
600.2620, 1065.179
601.4300, 1319.962
602.5990, 1500.737
603.7670, 1861.505
604.9350, 2170.285
606.1020, 2505.333
607.2700, 2967.080
608.4370, 3466.142
609.6050, 3773.984
610.7720, 4302.829
611.9390, 4553.543
613.1060, 4840.246
614.2720, 4679.991
615.4390, 4517.415
616.6050, 4285.768
617.7710, 3990.733
618.9370, 3843.775
620.1030, 3739.676
621.2680, 3633.227
622.4340, 3754.322
623.5990, 3893.863
624.7640, 4242.472
625.9290, 4523.761
627.0940, 4990.095
628.2590, 5576.007
629.4230, 6025.706
630.5880, 6458.569
631.7520, 6963.706
632.9160, 7316.346
634.0800, 7733.927
635.2440, 7974.612
636.4070, 8320.137
637.5700, 8501.758
638.7340, 8756.258
639.8970, 8866.751
641.0600, 8964.525
642.2220, 9324.707
643.3850, 9451.467
644.5470, 9441.059
645.7090, 9363.250
646.8710, 9000.789
648.0330, 8423.050
649.1950, 7635.481
650.3570, 6981.286
651.5180, 6109.583
652.6790, 5198.840
653.8400, 4384.384
655.0010, 3843.388
656.1620, 3136.852
657.3230, 2553.470
658.4830, 2124.863
659.6430, 1811.169
660.8030, 1530.430
661.9630, 1264.809
663.1230, 1114.871
664.2830, 967.2319
665.4420, 846.5801
666.6020, 698.9155
667.7610, 642.2402
668.9200, 598.5574
670.0780, 434.8618
671.2370, 408.1572
672.3960, 439.4397
673.5540, 392.7092
674.7120, 303.9653
675.8700, 281.2085
677.0280, 293.4385
678.1860, 220.6572
679.3430, 263.8623
680.5000, 163.0583
681.6580, 161.2407
682.8150, 79.40918
683.9710, 101.5640
685.1280, 88.70435
686.2850, 93.83081
687.4410, 27.94287
688.5970, 55.03516
689.7530, 54.11133
690.9090, 81.17139
692.0650, 74.85815
693.2200, 62.24780
694.3760, 54.26318
695.5310, 10.26172
696.6860, 21.76636
697.8410, 27.16235
698.9960, 24.93018
700.1500, 55.93188
701.3050, 26.22339
702.4590, 122.5759
703.6130, 59.35986
704.7670, 29.06738
705.9210, 0.1877440
707.0740, 6.524170
708.2280, 31.20728
709.3810, 13.86816
710.5340, 6.502197
711.6870, 28.10669
712.8400, 19.31128
713.9930, 58.77295
715.1450, 23.70142
716.2970, 23.84839
717.4490, 89.55615
718.6010, 18.94482
719.7530, 22.69214
720.9050, 68.62573
722.0560, 12.92627
723.2080, 20.80054
724.3590, 42.42847
725.5100, 52.63696
726.6610, 5.825684
727.8110, 48.98462
728.9620, 113.1235
730.1120, 5.752930
731.2620, 10.33423
732.4120, 0.6074220
733.5620, 105.4180
734.7120, 68.42749
735.8620, 36.41943
737.0110, 23.38989
738.1600, 103.3354
739.3090, 96.26587
740.4580, 130.1799
741.6070, 126.0784
742.7550, 84.96143
743.9040, 55.82788
745.0520, 95.67627
746.2000, 53.50854
747.3480, 70.32227
748.4960, 69.11914
749.6430, 100.8987
750.7910, 101.6631
751.9380, 77.41138
753.0850, 30.14380
754.2320, 30.14624
755.3790, 54.51611
756.5260, 9.839844
757.6720, 57.76733
758.8180, 2.643311
759.9650, 42.91309
761.1110, 106.4502
762.2560, 20.97168
763.4020, 0.4699710
764.5470, 27.93726
765.6930, 50.38306
766.8380, 66.81030
767.9830, 41.77881
769.1280, 1.273682
770.2720, 12.32739
771.4170, 14.21240
772.5610, 61.49243
773.7060, 107.7559
774.8500, 64.00391
775.9930, 87.12622
777.1370, 132.3440
778.2810, 50.03931
779.4240, 134.2249
780.5670, 48.39771
781.7100, 97.55273
782.8530, 31.44165
783.9960, 132.6501
785.1390, 115.3047
786.2810, 163.7866
787.4230, 148.8342
788.5650, 124.9473
789.7070, 237.0667
790.8490, 145.1858
791.9910, 221.6318
793.1320, 214.7659
794.2730, 187.9519
795.4140, 192.1033
796.5550, 142.7129
797.6960, 202.3333
798.8370, 179.4502
799.9770, 151.8911
801.1180, 163.9846
802.2580, 170.0637
803.3980, 171.1279
804.5380, 176.4468
805.6770, 168.5569
806.8170, 171.5771
807.9560, 167.4158
809.0950, 168.4260
810.2340, 164.4028
811.3730, 178.3657
812.5120, 192.3711
813.6500, 153.3054
814.7890, 197.6265
815.9270, 117.5332
817.0650, 167.3450
818.2030, 160.2239
819.3400, 159.5461
820.4780, 224.9404
821.6150, 183.7783
822.7530, 227.6030
823.8900, 228.4141
825.0270, 189.5786
826.1630, 268.2358
827.3000, 246.8657
828.4360, 181.6245
829.5730, 289.3625
830.7090, 314.0103
831.8450, 291.5618
832.9800, 267.9963
834.1160, 263.5154
835.2520, 255.4495
836.3870, 310.7275
837.5220, 367.2017
838.6570, 421.3586
839.7920, 381.9973
840.9260, 390.4622
842.0610, 397.3286
843.1950, 500.0503
844.3290, 517.1321
845.4630, 456.0005
846.5970, 588.3464
847.7310, 502.3806
848.8640, 576.1245
849.9980, 603.5542
851.1310, 607.4946
852.2640, 634.0796
853.3970, 603.1902
854.5300, 622.7026
855.6620, 607.1162
856.7940, 727.2729
857.9270, 648.6416
859.0590, 744.8281
860.1910, 661.0825
861.3220, 725.0269
862.4540, 606.1401
863.5850, 642.0146
864.7170, 600.0513
865.8480, 614.4946
866.9790, 548.6680
868.1090, 490.7163
869.2400, 418.2085
870.3710, 376.4585
871.5010, 310.9067
872.6310, 317.6704
873.7610, 305.1260
874.8910, 262.6138
876.0200, 304.9277
877.1500, 204.3223
878.2790, 173.7134
879.4080, 155.0820
880.5370, 216.1689
881.6660, 169.5483
882.7950, 163.5986
883.9230, 145.8604
885.0520, 168.1055
886.1800, 90.47217
887.3080, 205.8359
888.4360, 90.14990
889.5640, 135.7700
890.6910, 125.4517
891.8180, 121.5093
892.9460, 153.4795
894.0730, 107.5796
895.2000, 67.01807
896.3260, 51.90234
897.4530, 66.24951
898.5790, 108.6860
899.7060, 5.357910
900.8320, 88.97461
901.9580, 107.0020
903.0830, 34.23633
904.2090, 45.30176
905.3340, 42.08301
906.4600, 60.33984
907.5850, 16.66406
908.7100, 5.863770
909.8350, 18.21387
910.9590, 18.54492
912.0840, 49.79932
913.2080, 29.85449
914.3320, 59.18652
915.4560, 43.52197
916.5800, 7.560059
917.7040, 35.10010
918.8270, 107.3696
919.9510, 99.09424
921.0740, 80.81494
922.1970, 90.66943
923.3200, 12.48438
924.4430, 2.642090
925.5650, 31.80127
926.6870, 9.028809
927.8100, 26.14160
928.9320, 0.3193360
930.0540, 12.51074
931.1750, 86.29395
932.2970, 14.12305
933.4180, 10.05371
934.5400, 32.76074
935.6610, 17.41553
936.7820, 89.59961
937.9030, 7.787109
939.0230, 9.020020
940.1440, 28.82568
941.2640, 79.36230
942.3840, 24.44141
943.5040, 5.754883
944.6240, 34.95654
945.7440, 10.16309
946.8630, 1.625000
947.9820, 54.59863
949.1020, 14.17236
950.2210, 28.05811
951.3390, 27.70605
952.4580, 41.52734
953.5770, 124.7661
954.6950, 105.0127
955.8130, 137.2646
956.9310, 5.523926
958.0490, 26.78955
959.1670, 50.06250
960.2840, 46.34521
961.4020, 43.63623
962.5190, 171.9360
963.6360, 176.2427
964.7530, 178.5571
965.8700, 101.8799
966.9860, 148.2124
968.1030, 167.5581
969.2190, 175.9268
970.3350, 197.6289
971.4510, 183.7109
972.5670, 225.1245
973.6830, 176.5625
974.7980, 206.0093
975.9140, 191.4658
977.0290, 283.9355
978.1440, 292.4229
979.2590, 314.9272
980.3730, 388.4468
981.4880, 381.9824
982.6020, 455.2266
983.7160, 511.1133
984.8300, 597.7109
985.9440, 657.3462
987.0580, 773.9956
988.1710, 859.6763
989.2850, 1009.371
990.3980, 1089.342
991.5110, 1208.286
992.6240, 1281.604
993.7370, 1429.389
994.8490, 1545.200
995.9620, 1656.024
997.0740, 1811.834
998.1860, 2043.728
999.2980, 2089.609
1000.410, 2222.512
1001.522, 2319.436
1002.633, 2321.378
1003.744, 2237.342
1004.856, 2083.317
1005.966, 1951.306
1007.077, 1896.311
1008.188, 1776.338
1009.298, 1707.379
1010.409, 1673.433
1011.519, 1698.500
1012.629, 1665.579
1013.739, 1711.672
1014.849, 1814.779
1015.958, 1864.899
1017.068, 1995.034
1018.177, 1945.183
1019.286, 2113.345
1020.395, 1926.521
1021.503, 1892.711
1022.612, 1722.923
1023.720, 1765.153
1024.829, 1765.413
1025.937, 1687.687
1027.045, 1726.986
1028.153, 1676.300
1029.260, 1839.638
1030.368, 1817.998
1031.475, 1916.372
1032.582, 1947.765
1033.689, 2272.179
1034.796, 2464.611
1035.903, 2493.059
1037.009, 2785.522
1038.115, 3245.020
1039.222, 3670.538
1040.328, 4101.086
1041.433, 4628.653
1042.539, 5152.236
1043.645, 6108.840
1044.750, 7223.567
1045.855, 8525.200
1046.960, 10259.36
1048.065, 12283.02
1049.170, 14846.90
1050.275, 17696.40
1051.379, 21187.38
1052.483, 25039.05
1053.587, 29359.29
1054.691, 33270.70
1055.795, 36193.54
1056.899, 38141.33
1058.002, 38707.15
1059.105, 37369.41
1060.209, 34367.16
1061.312, 30475.88
1062.414, 25694.21
1063.517, 21413.11
1064.620, 17180.29
1065.722, 13815.24
1066.824, 11205.25
1067.926, 9165.875
1069.028, 7559.502
1070.130, 6103.500
1071.231, 5191.569
1072.333, 4541.333
1073.434, 3959.309
1074.535, 3490.046
1075.636, 3160.007
1076.737, 2958.108
1077.837, 2933.227
1078.938, 2726.363
1080.038, 2674.921
1081.138, 2770.092
1082.238, 2761.879
1083.338, 2991.084
1084.437, 3190.386
1085.537, 3437.625
1086.636, 3704.882
1087.735, 4089.156
1088.834, 4606.448
1089.933, 5116.757
1091.032, 5744.083
1092.130, 6698.425
1093.228, 7523.787
1094.327, 8686.164
1095.425, 9688.561
1096.523, 10845.98
1097.620, 12025.41
1098.718, 13008.86
1099.815, 13234.33
1100.912, 13205.82
1102.009, 12659.33
1103.106, 11497.85
1104.203, 10026.39
1105.300, 8631.944
1106.396, 7422.520
1107.492, 6234.112
1108.589, 5175.722
1109.685, 4424.348
1110.780, 3739.995
1111.876, 3301.072
1112.971, 2921.813
1114.067, 2687.409
1115.162, 2430.827
1116.257, 2231.561
1117.352, 2120.717
1118.446, 2086.484
1119.541, 1960.352
1120.635, 2090.115
1121.729, 2101.339
1122.823, 2123.998
1123.917, 2280.736
1125.011, 2536.625
1126.105, 2712.530
1127.198, 3150.450
1128.291, 3533.384
1129.384, 4002.720
1130.477, 4870.685
1131.570, 5390.894
1132.663, 6144.890
1133.755, 6787.898
1134.847, 7220.926
1135.940, 7431.964
1137.031, 7138.019
1138.123, 6728.088
1139.215, 5989.753
1140.306, 4956.851
1141.398, 4127.962
1142.489, 3585.181
1143.580, 2959.330
1144.671, 2389.496
1145.761, 2108.678
1146.852, 1598.872
1147.942, 1565.080
1149.033, 1322.303
1150.123, 1159.544
1151.213, 1009.802
1152.302, 966.0737
1153.392, 845.3062
1154.481, 859.6050
1155.571, 669.9170
1156.660, 678.2427
1157.749, 624.5815
1158.837, 541.9385
1159.926, 520.3086
1161.014, 507.0806
1162.103, 518.4785
1163.191, 372.8887
1164.279, 427.3120
1165.367, 426.7485
1166.454, 326.1973
1167.542, 378.6577
1168.629, 314.1309
1169.716, 289.6211
1170.803, 363.3789
1171.890, 177.8877
1172.977, 240.4092
1174.064, 169.8701
1175.150, 189.4209
1176.236, 195.9878
1177.322, 152.0957
1178.408, 98.20215
1179.494, 110.8105
1180.580, 78.43018
1181.665, 82.06055
1182.750, 112.7104
1183.835, 101.3975
1184.920, 12.12012
1186.005, 71.87256
1187.090, 42.65771
1188.174, 91.45312
1189.259, 38.74072
1190.343, 8.936523
1191.427, 26.12402
1192.511, 58.50586
1193.594, 25.49414
1194.678, 62.69238
1195.761, 38.87354
1196.844, 29.05664
1197.928, 93.76025
1199.010, 19.40674
1200.093, 49.43018
1201.176, 1.724121
1202.258, 47.12988
1203.340, 70.99609
1204.423, 19.12402
1205.504, 20.24121
1206.586, 102.6479
1207.668, 32.54541
1208.749, 64.45215
1209.831, 34.63232
1210.912, 15.27930
1211.993, 162.1992
1213.074, 121.1294
1214.154, 96.06836
1215.235, 150.0195
1216.315, 87.97998
1217.395, 14.94775
1218.475, 103.9238
1219.555, 154.9077
1220.635, 151.8999
1221.715, 70.89893
1222.794, 116.9058
1223.873, 146.9209
1224.952, 25.94287
1226.031, 34.84766
1227.110, 114.8838
1228.189, 87.92725
1229.267, 124.9775
1230.345, 32.32129
1231.424, 42.38672
1232.502, 157.5825
1233.579, 66.66406
1234.657, 37.03516
1235.735, 90.12451
1236.812, 36.21973
1237.889, 123.3213
1238.966, 23.42822
1240.043, 32.63574
1241.120, 6.242188
1242.196, 1.903809
1243.273, 15.45557
1244.349, 11.33252
1245.425, 36.78955
1246.501, 4.993652
1247.577, 6.134277
1248.652, 17.73389
1249.728, 15.18408
1250.803, 21.86523
1251.878, 10.92041
1252.953, 29.06445
1254.028, 52.03320
1255.103, 76.13818
1256.177, 13.25537
1257.251, 43.36816
1258.326, 36.51416
1259.400, 28.58643
1260.473, 33.30859
1261.547, 106.7803
1262.621, 41.87305
1263.694, 59.13818
1264.767, 98.23730
1265.840, 153.3398
1266.913, 80.49756
1267.986, 20.39307
1269.059, 121.7041
1270.131, 42.84082
1271.203, 9.785645
1272.275, 93.88086
1273.347, 55.77051
1274.419, 67.88037
1275.491, 72.99365
1276.562, 112.1094
1277.634, 87.22754
1278.705, 123.6172
1279.776, 185.3130
1280.847, 30.43994
1281.917, 22.43164
1282.988, 50.68066
1284.058, 98.79443
1285.128, 26.91064
1286.199, 56.02881
1287.268, 58.26709
1288.338, 45.51855
1289.408, 10.92529
1290.477, 67.18311
1291.546, 120.2910
1292.616, 51.39844
1293.685, 91.50391
1294.753, 107.6123
1295.822, 88.72217
1296.890, 60.82471
1297.959, 24.99658
1299.027, 23.90234
1300.095, 90.19043
1301.163, 29.35986
1302.231, 0.5444340
1303.298, 156.0488
1304.365, 67.14307
1305.433, 25.23828
1306.500, 41.33447
