##NAMES=Lazulite
##RRUFFID=R050110
##IDEAL CHEMISTRY=MgAl_2_(PO_4_)_2_(OH)_2_
##LOCALITY=Rapid Creek, Yukon Territory, Canada
##OWNER=RRUFF
##SOURCE=Rock Currier
##DESCRIPTION=Azure-blue stubby crystals with complex terminations
##STATUS=The identification of this mineral has been confirmed by X-ray diffraction and chemical analysis
##URL=rruff.info/R050110
##MEASURED CHEMISTRY=(Mg_0.84_Fe_0.16_)Al_2.00_(P_1.00_O_4_)_2_(OH)_2_
##PIN_ID=L00348
##ORIENTATION=Laser parallel to a* (1 0 0). Fiducial mark perpendicular to laser is parallel to b [0 1 0]
84.311, 0.000
85.706, 37.534
87.101, 7.344
88.496, 107.010
89.890, 534.143
91.284, 861.723
92.678, 1407.604
94.071, 1990.952
95.465, 3359.928
96.858, 5821.676
98.251, 10669.003
99.644, 15527.225
101.036, 15098.685
102.428, 11079.879
103.820, 7034.487
105.212, 4458.467
106.604, 3195.729
107.995, 2887.340
109.387, 4317.910
110.777, 10939.801
112.168, 13118.336
113.559, 7667.787
114.949, 3689.565
116.339, 2333.338
117.729, 1469.845
119.119, 793.884
120.508, 390.299
121.897, 228.077
123.286, 192.878
124.675, 124.501
126.063, 138.840
127.452, 82.177
128.840, 135.526
130.228, 37.897
131.615, 100.700
133.003, 134.252
134.390, 113.748
135.777, 43.180
137.164, 370.770
138.550, 396.896
139.937, 622.802
141.323, 657.028
142.709, 583.390
144.094, 623.748
145.480, 630.111
146.865, 914.548
148.250, 860.114
149.635, 862.869
151.019, 814.861
152.403, 637.135
153.788, 777.732
155.171, 786.689
156.555, 810.041
157.939, 553.865
159.322, 387.218
160.705, 371.154
162.088, 416.642
163.470, 633.122
164.853, 680.646
166.235, 1102.717
167.617, 1924.439
168.998, 3049.050
170.380, 4449.550
171.761, 6049.949
173.142, 7583.250
174.523, 6297.435
175.904, 4366.506
177.284, 2874.457
178.664, 1988.270
180.044, 1988.929
181.424, 2046.438
182.803, 2929.822
184.183, 4523.094
185.562, 6910.264
186.940, 10685.315
188.319, 14500.665
189.698, 19732.635
191.076, 21367.543
192.454, 17669.277
193.831, 11664.504
195.209, 7524.814
196.586, 4982.555
197.963, 3718.101
199.340, 3169.759
200.717, 2635.985
202.093, 2532.186
203.470, 2557.391
204.846, 2599.590
206.221, 2534.771
207.597, 2585.941
208.972, 2829.105
210.347, 2953.259
211.722, 3107.398
213.097, 3544.523
214.472, 4316.630
215.846, 5396.718
217.220, 7045.786
218.594, 9848.831
219.967, 13735.850
221.341, 18268.838
222.714, 23351.779
224.087, 26364.646
225.460, 26756.439
226.832, 21098.156
228.204, 14599.417
229.577, 9367.610
230.948, 5934.585
232.320, 4002.244
233.692, 2689.625
235.063, 1961.255
236.434, 1377.564
237.805, 1312.250
239.175, 1044.358
240.545, 980.267
241.916, 1079.133
243.286, 1084.958
244.655, 1490.739
246.025, 1834.464
247.394, 2891.135
248.763, 4649.750
250.132, 7261.780
251.501, 10569.800
252.869, 13619.414
254.237, 15811.702
255.605, 13522.922
256.973, 9669.019
258.340, 6607.978
259.708, 4358.797
261.075, 3235.389
262.442, 2604.728
263.808, 2419.851
265.175, 2093.792
266.541, 1947.574
267.907, 1794.218
269.273, 1722.688
270.639, 1659.600
272.004, 1682.811
273.369, 2041.783
274.734, 2304.674
276.099, 2879.508
277.463, 3667.104
278.828, 4543.658
280.192, 5629.408
281.556, 5943.261
282.919, 5881.214
284.283, 5235.330
285.646, 3918.286
287.009, 2871.507
288.372, 1852.141
289.734, 1338.270
291.097, 829.603
292.459, 410.976
293.821, 211.655
295.183, 50.991
296.544, 51.672
297.905, 195.213
299.266, 277.105
300.627, 371.955
301.988, 331.948
303.348, 370.067
304.709, 354.352
306.069, 377.899
307.428, 360.184
308.788, 323.805
310.147, 212.140
311.507, 148.693
312.865, 154.557
314.224, 395.679
315.583, 1000.695
316.941, 1742.619
318.299, 2666.457
319.657, 3835.209
321.015, 4681.878
322.372, 5104.467
323.729, 4423.262
325.086, 3365.887
326.443, 2643.604
327.800, 2029.887
329.156, 1860.099
330.512, 1744.241
331.868, 1629.315
333.224, 1594.492
334.579, 1640.263
335.935, 1639.135
337.290, 1692.941
338.645, 1842.682
339.999, 1822.355
341.354, 2099.965
342.708, 2391.508
344.062, 2411.988
345.416, 2684.403
346.769, 2615.758
348.123, 2461.048
349.476, 2321.275
350.829, 1943.441
352.182, 1773.539
353.534, 1642.515
354.887, 1612.208
356.239, 1524.479
357.591, 1421.244
358.942, 1418.508
360.294, 1515.278
361.645, 1402.643
362.996, 1277.798
364.347, 1304.907
365.698, 1067.992
367.048, 993.054
368.398, 908.093
369.748, 867.115
371.098, 813.140
372.448, 730.162
373.797, 763.192
375.146, 790.243
376.495, 671.312
377.844, 698.394
379.192, 579.466
380.540, 595.548
381.889, 541.614
383.236, 537.651
384.584, 595.239
385.932, 512.644
387.279, 711.597
388.626, 717.523
389.973, 733.425
391.319, 791.483
392.666, 885.112
394.012, 921.719
395.358, 916.167
396.704, 891.768
398.049, 998.495
399.394, 961.708
400.740, 1085.212
402.084, 1393.002
403.429, 1687.512
404.774, 2275.107
406.118, 3269.684
407.462, 5543.242
408.806, 8971.782
410.150, 14200.304
411.493, 20579.811
412.836, 26113.254
414.179, 24417.646
415.522, 15803.981
416.865, 9076.259
418.207, 4914.481
419.549, 2967.648
420.891, 1946.759
422.233, 1742.813
423.575, 2032.813
424.916, 2559.761
426.257, 3371.655
427.598, 3754.498
428.939, 3436.668
430.279, 2839.021
431.619, 2042.186
432.959, 1475.651
434.299, 1022.279
435.639, 901.805
436.978, 769.971
438.318, 577.801
439.657, 575.218
440.996, 515.584
442.334, 475.899
443.673, 436.160
445.011, 381.367
446.349, 402.518
447.687, 398.614
449.024, 478.659
450.361, 461.654
451.699, 436.605
453.036, 554.599
454.372, 628.151
455.709, 747.174
457.045, 986.600
458.381, 1196.954
459.717, 1584.269
461.053, 1760.421
462.388, 2226.606
463.724, 2548.279
465.059, 2950.543
466.394, 3640.781
467.728, 4190.536
469.063, 5337.404
470.397, 6786.562
471.731, 8661.740
473.065, 11077.918
474.398, 14177.579
475.732, 17581.748
477.065, 20326.102
478.398, 21452.590
479.731, 19755.055
481.063, 16519.500
482.396, 12807.924
483.728, 9041.328
485.060, 6870.718
486.391, 4895.091
487.723, 3506.447
489.054, 2687.785
490.385, 1945.104
491.716, 1603.404
493.047, 1183.688
494.377, 968.953
495.708, 816.202
497.038, 726.435
498.368, 680.649
499.697, 559.848
501.027, 536.031
502.356, 578.198
503.685, 487.349
505.014, 577.485
506.342, 526.606
507.671, 590.712
508.999, 676.806
510.327, 685.886
511.655, 724.953
512.982, 753.006
514.310, 828.048
515.637, 860.078
516.964, 837.098
518.291, 947.112
519.617, 919.121
520.944, 974.127
522.270, 1022.132
523.596, 1018.480
524.921, 1037.203
526.247, 1011.695
527.572, 958.236
528.897, 874.463
530.222, 928.688
531.547, 837.087
532.871, 848.671
534.196, 879.776
535.520, 919.291
536.844, 943.740
538.167, 1011.981
539.491, 930.417
540.814, 938.025
542.137, 737.057
543.460, 600.294
544.783, 591.531
546.105, 383.065
547.427, 470.465
548.749, 222.909
550.071, 174.432
551.393, 28.229
552.714, 24.444
554.035, 52.676
555.356, 8.899
556.677, 6.862
557.998, 77.376
559.318, 5.611
560.638, 161.837
561.958, 167.077
563.278, 248.333
564.597, 293.597
565.917, 352.881
567.236, 369.184
568.555, 430.494
569.874, 451.979
571.192, 414.134
572.511, 498.456
573.829, 514.789
575.147, 532.122
576.464, 678.470
577.782, 862.825
579.099, 1016.187
580.416, 1036.564
581.733, 891.950
583.050, 738.338
584.366, 346.731
585.683, 361.127
586.999, 69.537
588.315, 44.041
589.630, 38.640
590.946, 154.251
592.261, 136.921
593.576, 135.632
594.891, 2.616
596.206, 61.821
597.520, 151.246
598.834, 461.676
600.148, 740.877
601.462, 1018.930
602.776, 1547.832
604.089, 1912.523
605.402, 2340.320
606.715, 2376.111
608.028, 2099.250
609.341, 2106.329
610.653, 2038.316
611.965, 1866.811
613.277, 1856.641
614.589, 1740.907
615.901, 1700.240
617.212, 1618.640
618.523, 1647.144
619.834, 1660.501
621.145, 1757.558
622.456, 1798.480
623.766, 1859.554
625.076, 1999.774
626.386, 2167.146
627.696, 2481.666
629.006, 2604.323
630.315, 2616.087
631.624, 2724.942
632.933, 2603.820
634.242, 2661.707
635.551, 2602.587
636.859, 2815.458
638.167, 3088.322
639.475, 3754.181
640.783, 4456.030
642.090, 5772.872
643.398, 7012.706
644.705, 8664.533
646.012, 10015.351
647.318, 10866.159
648.625, 11201.963
649.931, 10247.909
651.237, 9491.694
652.543, 7834.817
653.849, 6673.739
655.155, 5613.496
656.460, 4590.578
657.765, 3794.515
659.070, 3069.383
660.375, 2657.247
661.679, 2376.078
662.984, 2026.246
664.288, 1856.167
665.592, 1654.445
666.895, 1397.599
668.199, 1322.724
669.502, 1127.891
670.805, 934.067
672.108, 798.257
673.411, 722.397
674.713, 579.643
676.016, 431.850
677.318, 401.104
678.620, 249.480
679.921, 179.350
681.223, 131.720
682.524, 28.543
683.825, 17.803
685.126, 21.003
686.427, 127.979
687.727, 98.922
689.028, 155.733
690.328, 191.042
691.628, 178.626
692.927, 165.534
694.227, 75.917
695.526, 151.663
696.825, 45.443
698.124, 61.586
699.423, 24.535
700.721, 88.198
702.020, 191.163
703.318, 304.820
704.616, 388.858
705.913, 425.157
707.211, 533.124
708.508, 635.709
709.805, 722.903
711.102, 865.350
712.399, 925.692
713.695, 1019.954
714.992, 1115.159
716.288, 1109.016
717.584, 1225.928
718.879, 1219.351
720.175, 1357.060
721.470, 1365.639
722.765, 1595.514
724.060, 1780.804
725.355, 1924.338
726.649, 2290.986
727.944, 2437.460
729.238, 2789.736
730.532, 3336.095
731.825, 3669.254
733.119, 4475.971
734.412, 4893.136
735.705, 5555.133
736.998, 6470.195
738.291, 7072.082
739.584, 7690.301
740.876, 8035.874
742.168, 8348.642
743.460, 7977.622
744.752, 7619.275
746.043, 6938.418
747.334, 6057.770
748.626, 5355.893
749.916, 4512.106
751.207, 3870.637
752.498, 3259.408
753.788, 2793.263
755.078, 2451.182
756.368, 2055.066
757.658, 1761.629
758.947, 1507.987
760.237, 1392.432
761.526, 1243.263
762.815, 1136.089
764.104, 942.725
765.392, 919.461
766.680, 802.066
767.969, 776.490
769.257, 674.025
770.544, 673.385
771.832, 621.713
773.119, 601.007
774.406, 585.267
775.693, 565.729
776.980, 555.977
778.267, 518.163
779.553, 511.451
780.839, 432.531
782.125, 505.592
783.411, 536.596
784.697, 464.559
785.982, 497.483
787.267, 490.366
788.552, 449.208
789.837, 432.008
791.122, 382.768
792.406, 411.487
793.690, 448.165
794.974, 339.801
796.258, 432.396
797.542, 334.950
798.825, 327.463
800.108, 341.935
801.391, 353.365
802.674, 357.753
803.957, 248.100
805.239, 364.404
806.522, 200.667
807.804, 246.885
809.085, 287.060
810.367, 203.193
811.649, 235.282
812.930, 249.328
814.211, 247.331
815.492, 252.291
816.772, 169.207
818.053, 225.079
819.333, 136.906
820.613, 163.688
821.893, 167.423
823.173, 154.113
824.452, 148.757
825.732, 142.153
827.011, 150.906
828.290, 122.411
829.568, 127.869
830.847, 113.280
832.125, 87.645
833.403, 47.960
834.681, 97.214
835.959, 129.375
837.236, 92.056
838.514, 102.640
839.791, 135.298
841.068, 103.758
842.345, 22.788
843.621, 8.754
844.898, 45.272
846.174, 61.030
847.450, 22.177
848.726, 25.330
850.001, 78.579
851.277, 29.989
852.552, 77.097
853.827, 6.515
855.102, 78.669
856.376, 42.555
857.651, 1.522
858.925, 47.453
860.199, 52.613
861.473, 49.762
862.746, 71.991
864.020, 32.690
865.293, 72.667
866.566, 27.114
867.839, 13.376
869.112, 12.820
870.384, 42.777
871.656, 51.450
872.928, 23.202
874.200, 70.018
875.472, 59.922
876.744, 19.908
878.015, 24.956
879.286, 12.065
880.557, 5.770
881.828, 40.441
883.098, 5.280
884.369, 57.044
885.639, 19.444
886.909, 27.900
888.178, 58.416
889.448, 29.006
890.717, 11.655
891.987, 18.354
893.256, 9.104
894.524, 61.900
895.793, 56.770
897.061, 54.292
898.330, 15.669
899.598, 57.331
900.865, 27.674
902.133, 29.706
903.401, 25.233
904.668, 47.856
905.935, 11.003
907.202, 31.190
908.468, 14.426
909.735, 9.878
911.001, 26.016
912.267, 10.375
913.533, 38.231
914.799, 30.808
916.064, 67.357
917.330, 33.878
918.595, 56.373
919.860, 112.842
921.124, 53.285
922.389, 109.703
923.653, 133.097
924.918, 109.467
926.182, 151.813
927.445, 17.136
928.709, 57.434
929.972, 60.708
931.236, 24.959
932.499, 151.187
933.761, 55.392
935.024, 116.575
936.286, 126.737
937.549, 110.664
938.811, 164.998
940.073, 88.097
941.334, 157.176
942.596, 70.235
943.857, 99.275
945.118, 109.295
946.379, 93.296
947.640, 148.278
948.900, 171.242
950.161, 100.188
951.421, 174.116
952.681, 188.026
953.940, 184.919
955.200, 243.795
956.459, 186.501
957.719, 208.345
958.978, 198.823
960.236, 174.479
961.495, 295.275
962.753, 247.722
964.012, 229.290
965.270, 289.904
966.527, 250.497
967.785, 378.098
969.043, 326.348
970.300, 319.820
971.557, 417.913
972.814, 380.115
974.071, 408.323
975.327, 505.467
976.583, 448.579
977.840, 526.655
979.095, 524.763
980.351, 581.743
981.607, 661.739
982.862, 655.676
984.117, 827.474
985.372, 837.962
986.627, 974.832
987.882, 1041.830
989.136, 1053.690
990.390, 1314.592
991.644, 1468.637
992.898, 1563.610
994.152, 1813.409
995.405, 1884.655
996.659, 2255.133
997.912, 2517.871
999.165, 2797.034
1000.417, 3270.549
1001.670, 3406.044
1002.922, 3776.742
1004.174, 3993.507
1005.426, 3941.552
1006.678, 3905.305
1007.930, 3694.351
1009.181, 3625.013
1010.432, 3541.413
1011.683, 3452.945
1012.934, 3474.723
1014.185, 3498.161
1015.435, 3543.562
1016.685, 3738.047
1017.935, 3700.434
1019.185, 3843.338
1020.435, 3847.269
1021.684, 3765.814
1022.934, 3688.878
1024.183, 3566.778
1025.432, 3502.790
1026.680, 3465.496
1027.929, 3447.779
1029.177, 3417.808
1030.425, 3467.726
1031.673, 3453.876
1032.921, 3487.498
1034.169, 3506.273
1035.416, 3621.646
1036.663, 3718.467
1037.911, 3927.825
1039.157, 4206.334
1040.404, 4440.784
1041.650, 4824.394
1042.897, 5438.657
1044.143, 5930.576
1045.389, 6801.280
1046.634, 8037.409
1047.880, 9324.622
1049.125, 11259.469
1050.371, 13216.750
1051.615, 16438.035
1052.860, 20124.275
1054.105, 24635.508
1055.349, 30761.777
1056.593, 36318.324
1057.837, 40826.773
1059.081, 45174.270
1060.325, 43710.066
1061.568, 40721.070
1062.812, 34497.984
1064.055, 27733.504
1065.298, 22512.021
1066.540, 17146.729
1067.783, 13585.325
1069.025, 10741.045
1070.267, 8761.935
1071.509, 7537.705
1072.751, 6532.636
1073.993, 5749.587
1075.234, 5328.560
1076.475, 4761.550
1077.716, 4442.323
1078.957, 4225.294
1080.198, 3862.308
1081.438, 3826.206
1082.679, 3705.292
1083.919, 3435.383
1085.159, 3575.512
1086.398, 3359.658
1087.638, 3480.825
1088.877, 3487.011
1090.116, 3337.217
1091.355, 3581.442
1092.594, 3719.688
1093.833, 3962.953
1095.071, 4272.237
1096.309, 4623.543
1097.547, 5382.869
1098.785, 6028.216
1100.023, 6688.583
1101.260, 7163.972
1102.498, 7071.379
1103.735, 6513.807
1104.972, 6109.258
1106.208, 5307.729
1107.445, 4678.223
1108.681, 4102.737
1109.918, 3662.274
1111.154, 3519.832
1112.389, 3270.413
1113.625, 3033.017
1114.860, 3092.640
1116.096, 2945.287
1117.331, 3166.298
1118.566, 3107.989
1119.800, 2934.703
1121.035, 3097.037
1122.269, 3117.827
1123.503, 3134.620
1124.737, 3360.434
1125.971, 3218.262
1127.205, 3603.777
1128.438, 3746.651
1129.671, 4131.549
1130.904, 4671.243
1132.137, 5206.089
1133.370, 6173.102
1134.602, 7115.888
1135.834, 7712.908
1137.066, 8137.253
1138.298, 8469.471
1139.530, 8162.604
1140.762, 7588.885
1141.993, 6654.012
1143.224, 6365.805
1144.455, 5599.736
1145.686, 5185.958
1146.917, 4997.699
1148.147, 4506.293
1149.377, 4405.727
1150.607, 4369.619
1151.837, 4077.190
1153.067, 4092.270
1154.296, 4036.833
1155.526, 3863.573
1156.755, 3974.915
1157.984, 3773.672
1159.213, 3785.394
1160.441, 3935.007
1161.670, 3734.162
1162.898, 3884.322
1164.126, 3904.240
1165.354, 3989.320
1166.581, 4144.151
1167.809, 4078.675
1169.036, 4166.630
1170.263, 4493.887
1171.490, 4445.332
1172.717, 4861.360
1173.943, 5071.039
1175.170, 5228.454
1176.396, 5817.799
1177.622, 5907.035
1178.848, 6076.051
1180.073, 6277.958
1181.299, 5944.869
1182.524, 6060.324
1183.749, 5564.255
1184.974, 4996.711
1186.199, 4717.114
1187.423, 4062.885
1188.648, 3622.360
1189.872, 3404.242
1191.096, 2778.916
1192.320, 2678.506
1193.543, 2430.267
1194.767, 2137.916
1195.990, 2074.417
1197.213, 1893.160
1198.436, 1758.777
1199.659, 1755.396
1200.881, 1579.728
1202.104, 1640.313
1203.326, 1622.110
1204.548, 1496.651
1205.770, 1690.256
1206.991, 1736.330
1208.213, 1749.003
1209.434, 1884.823
1210.655, 1784.065
1211.876, 1884.686
1213.096, 1920.302
1214.317, 1672.190
1215.537, 1735.815
1216.757, 1625.938
1217.977, 1567.312
1219.197, 1639.515
1220.417, 1436.819
1221.636, 1630.966
1222.855, 1453.612
1224.074, 1168.430
1225.293, 1145.320
1226.512, 1016.975
1227.731, 919.305
1228.949, 916.965
1230.167, 731.679
1231.385, 670.221
1232.603, 816.068
1233.820, 464.973
1235.038, 541.653
1236.255, 464.346
1237.472, 359.269
1238.689, 372.986
1239.906, 268.713
1241.122, 279.640
1242.338, 257.391
1243.555, 129.441
1244.771, 152.213
1245.986, 131.996
1247.202, 91.790
1248.417, 150.594
1249.633, 154.399
1250.848, 121.214
1252.063, 149.029
1253.277, 46.852
1254.492, 70.680
1255.706, 46.506
1256.920, 6.334
1258.134, 102.155
1259.348, 13.958
1260.562, 29.756
1261.775, 132.555
1262.988, 43.665
1264.201, 93.075
1265.414, 46.767
1266.627, 45.553
1267.839, 0.091
1269.052, 2.703
1270.264, 3.325
1271.476, 41.864
1272.688, 21.611
1273.899, 47.893
1275.111, 19.377
1276.322, 40.162
1277.533, 23.737
1278.744, 8.640
1279.955, 53.016
1281.165, 67.291
1282.376, 76.443
1283.586, 12.762
1284.796, 18.957
1286.006, 37.898
1287.215, 39.172
1288.425, 10.775
1289.634, 75.735
1290.843, 49.254
1292.052, 21.767
1293.261, 81.817
1294.469, 21.098
1295.678, 147.025
1296.886, 12.857
1298.094, 35.339
1299.302, 73.573
1300.509, 6.234
1301.717, 35.064
1302.924, 40.391
1304.131, 35.248
1305.338, 115.138
1306.545, 58.576
1307.752, 6.950
1308.958, 20.306
1310.164, 13.155
1311.370, 69.539
1312.576, 26.033
1313.782, 52.361
1314.987, 35.268
1316.193, 36.936
1317.398, 64.399
1318.603, 5.652
1319.807, 16.104
1321.012, 2.089
1322.216, 58.751
1323.421, 10.360
1324.625, 35.561
1325.829, 18.523
1327.032, 33.476
1328.236, 64.552
1329.439, 40.370
1330.642, 59.267
1331.845, 58.862
1333.048, 56.964
1334.251, 27.766
1335.453, 70.457
1336.656, 47.271
1337.858, 54.026
1339.060, 19.369
1340.261, 86.250
1341.463, 13.847
1342.664, 66.415
1343.866, 70.960
1345.067, 10.522
1346.267, 86.960
1347.468, 52.289
1348.669, 179.833
1349.869, 97.223
1351.069, 14.591
1352.269, 87.929
1353.469, 60.246
1354.668, 19.459
1355.868, 109.798
1357.067, 176.036
1358.266, 23.252
1359.465, 139.444
1360.664, 48.615
1361.862, 33.766
1363.061, 74.894
1364.259, 37.006
1365.457, 50.901
1366.655, 170.179
1367.852, 78.247
1369.050, 69.304
1370.247, 141.457
1371.444, 47.506
1372.641, 170.554
1373.838, 36.611
1375.035, 108.657
1376.231, 164.720
1377.427, 74.827
1378.623, 133.242
1379.819, 169.642
1381.015, 84.024
1382.211, 176.387
1383.406, 160.729
1384.601, 95.052
1385.796, 220.356
1386.991, 89.638
1388.185, 187.899
1389.380, 230.137
1390.574, 171.352
1391.768, 194.545
1392.962, 190.207
1394.156, 152.531
1395.350, 281.578
1396.543, 234.639
1397.736, 181.913
1398.929, 252.845
1400.122, 164.695
1401.315, 244.292
1402.507, 250.776
1403.700, 180.876
1404.892, 243.866
1406.084, 260.689
1407.276, 201.798
1408.467, 299.066
1409.659, 193.892
1410.850, 248.344
1412.041, 257.766
1413.232, 110.139
1414.423, 176.538
1415.614, 282.090
1416.804, 181.216
1417.994, 201.160
1419.184, 213.781
1420.374, 127.571
1421.564, 267.754
1422.753, 144.240
1423.943, 196.975
1425.132, 253.179
1426.321, 147.602
1427.510, 193.947
1428.698, 188.678
1429.887, 128.919
1431.075, 190.124
1432.263, 138.947
1433.451, 100.391
1434.639, 174.072
1435.827, 102.515
1437.014, 113.950
1438.201, 158.508
1439.388, 27.036
1440.575, 40.833
1441.762, 152.426
1442.949, 17.401
1444.135, 95.491
1445.321, 117.372
1446.507, 72.320
1447.693, 191.285
1448.879, 124.850
1450.064, 71.731
1451.250, 194.974
1452.435, 6.079
1453.620, 86.755
1454.805, 173.832
1455.989, 55.691
1457.174, 145.360
1458.358, 170.837
1459.542, 13.886
1460.726, 202.228
1461.910, 114.270
1463.093, 99.168
1464.277, 220.199
1465.460, 107.279
1466.643, 171.358
1467.826, 152.679
1469.009, 44.967
1470.191, 164.292
1471.373, 149.811
1472.556, 76.458
1473.738, 242.278
1474.919, 118.410
1476.101, 106.665
1477.283, 128.946
1478.464, 107.202
1479.645, 110.345
1480.826, 214.701
1482.007, 109.776
1483.187, 170.142
1484.368, 184.550
1485.548, 25.923
1486.728, 229.591
1487.908, 141.970
1489.088, 53.392
1490.268, 109.806
1491.447, 63.210
1492.626, 101.728
1493.805, 178.361
1494.984, 59.109
1496.163, 195.967
