##NAMES=Lazulite
##RRUFFID=R060494
##IDEAL CHEMISTRY=MgAl_2_(PO_4_)_2_(OH)_2_
##LOCALITY=Champion mine, White Mountains, Mono County, California, USA
##OWNER=RRUFF
##SOURCE=Michael Scott
##DESCRIPTION=Dark-blue coarsely crystalline mass
##STATUS=The identification of this mineral has been confirmed by X-ray diffraction and chemical analysis
##URL=rruff.info/R060494
##MEASURED CHEMISTRY=(Mg_0.67_Fe^2+^_0.33_)_Î£=1_Al_2.00_(P_1.00_O_4_)_2_(OH)_2_
##PIN_ID=M01648
##ORIENTATION=Laser parallel to b* (0 1 0). Fiducial mark perpendicular to laser is parallel to c [0 0 1]
164.0660, 0.0000000E+00
165.2940, 0.6320800
166.5220, 3.527100
167.7500, 12.92163
168.9780, 61.53955
170.2050, 70.34302
171.4330, 294.0457
172.6600, 429.7190
173.8870, 448.8403
175.1140, 421.0615
176.3410, 256.9958
177.5670, 166.2988
178.7940, 113.6909
180.0200, 316.9502
181.2460, 386.0593
182.4720, 490.2815
183.6980, 755.5601
184.9230, 801.6045
186.1490, 898.1953
187.3740, 1142.172
188.5990, 1442.423
189.8240, 1832.863
191.0490, 2201.431
192.2730, 2238.078
193.4980, 1967.773
194.7220, 1557.488
195.9460, 1159.204
197.1700, 901.7935
198.3940, 871.9775
199.6180, 663.0728
200.8410, 668.2788
202.0640, 648.4038
203.2870, 655.9580
204.5100, 560.0012
205.7330, 458.5847
206.9560, 337.7542
208.1780, 452.5508
209.4000, 410.0098
210.6230, 461.1628
211.8450, 466.0369
213.0660, 620.6567
214.2880, 688.0435
215.5090, 771.2168
216.7310, 875.1934
217.9520, 977.7690
219.1730, 1045.617
220.3940, 1222.087
221.6140, 1355.410
222.8350, 1496.595
224.0550, 1492.650
225.2750, 1353.585
226.4950, 1093.408
227.7150, 808.1270
228.9350, 648.4585
230.1540, 473.3860
231.3730, 402.8806
232.5930, 237.3184
233.8120, 203.3162
235.0300, 211.7090
236.2490, 240.2793
237.4680, 149.6980
238.6860, 216.7476
239.9040, 280.7671
241.1220, 245.8447
242.3400, 311.9827
243.5580, 332.1824
244.7750, 494.4431
245.9920, 576.7644
247.2100, 545.1440
248.4270, 719.5806
249.6430, 790.0715
250.8600, 1035.615
252.0770, 1272.207
253.2930, 1485.846
254.5090, 1434.531
255.7250, 1298.258
256.9410, 1070.023
258.1570, 730.8245
259.3720, 585.6592
260.5880, 502.5249
261.8030, 424.4189
263.0180, 389.3403
264.2330, 342.2874
265.4470, 290.2585
266.6620, 277.2520
267.8760, 243.2666
269.0900, 274.3010
270.3040, 265.3533
271.5180, 310.4185
272.7320, 362.4900
273.9460, 431.5615
275.1590, 398.6311
276.3720, 484.6992
277.5850, 548.7654
278.7980, 554.8311
280.0110, 497.8955
281.2230, 634.9600
282.4360, 543.0237
283.6480, 573.0889
284.8600, 505.1550
286.0720, 221.2537
287.2840, 223.3853
288.4950, 136.5254
289.7070, 94.69580
290.9180, 125.8701
292.1290, 23.04590
293.3400, 81.77563
294.5500, 27.59375
295.7610, 10.40991
296.9710, 55.22290
298.1820, 51.03320
299.3920, 100.8403
300.6020, 132.6450
301.8110, 79.48535
303.0210, 108.3972
304.2300, 39.38525
305.4400, 114.5034
306.6490, 57.75317
307.8580, 122.1030
309.0660, 50.56348
310.2750, 21.08008
311.4830, 53.91724
312.6920, 31.65942
313.9000, 83.43408
315.1080, 144.3325
316.3160, 166.3298
317.5230, 265.4070
318.7310, 257.5498
319.9380, 316.7461
321.1450, 385.9861
322.3520, 411.2617
323.5590, 440.5654
324.7650, 354.8926
325.9720, 333.2388
327.1780, 174.6003
328.3840, 273.9712
329.5900, 196.3464
330.7960, 143.7227
332.0020, 229.0977
333.2070, 261.4688
334.4120, 265.8354
335.6170, 204.1953
336.8220, 243.5488
338.0270, 275.8955
339.2320, 286.2339
340.4360, 350.5649
341.6410, 354.8877
342.8450, 396.1987
344.0490, 421.6162
345.2530, 420.7549
346.4560, 429.9863
347.6600, 419.1860
348.8630, 345.3560
350.0660, 317.4985
351.2690, 310.6147
352.4720, 310.7070
353.6750, 263.5288
354.8770, 274.8271
356.0790, 211.8608
357.2820, 211.8726
358.4840, 261.8662
359.6860, 198.8438
360.8870, 360.8057
362.0890, 203.7603
363.2900, 297.6934
364.4910, 180.6138
365.6920, 207.5215
366.8930, 157.4175
368.0940, 302.3018
369.2940, 318.1748
370.4950, 327.0381
371.6950, 317.8911
372.8950, 425.7354
374.0950, 347.4961
375.2940, 369.1914
376.4940, 256.7861
377.6930, 312.3208
378.8930, 387.6113
380.0920, 309.7900
381.2910, 180.8472
382.4890, 238.8638
383.6880, 217.8423
384.8860, 183.8271
386.0840, 269.8188
387.2820, 161.8164
388.4800, 274.8203
389.6780, 229.8296
390.8760, 193.8442
392.0730, 118.8638
393.2700, 209.8887
394.4670, 206.9185
395.6640, 198.9526
396.8610, 320.9922
398.0580, 194.0356
399.2540, 207.0830
400.4500, 303.1836
401.6460, 391.2725
402.8420, 506.3745
404.0380, 642.4805
405.2340, 868.5903
406.4290, 1053.025
407.6240, 1391.966
408.8190, 1568.136
410.0140, 1957.882
411.2090, 2373.086
412.4040, 2699.071
413.5980, 2724.314
414.7920, 2198.638
415.9870, 1545.900
417.1810, 974.1650
418.3740, 693.4336
419.5680, 565.7056
420.7610, 371.9819
421.9550, 312.2607
423.1480, 330.5410
424.3410, 285.8232
425.5340, 294.4243
426.7260, 408.4370
427.9190, 288.7632
429.1110, 353.0518
430.3030, 299.3418
431.4950, 293.6333
432.6870, 232.9258
433.8790, 232.2197
435.0700, 224.5142
436.2610, 118.1880
437.4530, 197.6265
438.6440, 80.48096
439.8340, 222.4297
441.0250, 174.5820
442.2160, 167.0122
443.4060, 95.33252
444.5960, 252.6719
445.7860, 187.3643
446.9760, 192.2607
448.1660, 264.5088
449.3550, 218.0684
450.5450, 254.2178
451.7340, 344.3613
452.9230, 394.0303
454.1120, 516.8853
455.3000, 717.3774
456.4890, 858.4546
457.6770, 1040.793
458.8650, 1183.132
460.0530, 1274.470
461.2410, 1385.808
462.4290, 1339.145
463.6170, 1447.480
464.8040, 1473.813
465.9910, 1216.146
467.1780, 1185.477
468.3650, 1139.806
469.5520, 1114.133
470.7390, 1190.457
471.9250, 1286.779
473.1110, 1370.099
474.2970, 1537.417
475.4830, 1628.731
476.6690, 1625.044
477.8540, 1799.355
479.0400, 1674.664
480.2250, 1547.969
481.4100, 1296.273
482.5950, 1080.575
483.7800, 787.8740
484.9650, 644.1709
486.1490, 418.4658
487.3330, 348.7588
488.5170, 260.0498
489.7010, 221.3389
490.8850, 206.6265
492.0690, 172.9126
493.2520, 111.1968
494.4350, 43.47998
495.6190, 60.76221
496.8020, 84.04346
497.9840, 2.323730
499.1670, 14.60254
500.3490, 114.8809
501.5320, 18.15820
502.7140, 102.4341
503.8960, 1.709961
505.0780, 95.98438
506.2590, 73.25830
507.4410, 113.5322
508.6220, 46.80469
509.8030, 55.07764
510.9840, 107.3491
512.1650, 130.6206
513.3460, 153.8916
514.5260, 166.1626
515.7070, 158.4336
516.8870, 168.7061
518.0670, 149.9790
519.2470, 6.747559
520.4260, 121.5264
521.6060, 70.80176
522.7850, 137.0801
523.9650, 9.360840
525.1440, 140.6455
526.3220, 140.9331
527.5010, 51.22412
528.6800, 95.51855
529.8580, 86.81641
531.0360, 89.11768
532.2140, 64.42236
533.3920, 33.72998
534.5700, 71.06055
535.7480, 84.49414
536.9250, 127.8125
538.1020, 53.35156
539.2790, 39.67676
540.4560, 83.00537
541.6330, 0.1708980
542.8100, 126.7422
543.9860, 42.33691
545.1620, 23.85059
546.3380, 48.36475
547.5140, 109.2358
548.6900, 68.58203
549.8660, 23.52197
551.0410, 16.16553
552.2160, 74.87500
553.3910, 48.42432
554.5660, 34.57129
555.7410, 6.912109
556.9160, 53.69238
558.0900, 45.13037
559.2650, 82.68945
560.4390, 69.37793
561.6130, 87.15771
562.7860, 90.23291
563.9600, 84.85645
565.1340, 57.13330
566.3070, 99.40967
567.4800, 17.68701
568.6530, 18.96436
569.8260, 63.24219
570.9980, 98.52002
572.1710, 114.7983
573.3430, 122.0776
574.5150, 224.3569
575.6870, 163.6367
576.8590, 111.9165
578.0310, 277.1997
579.2030, 254.5132
580.3740, 188.8418
581.5450, 150.1816
582.7160, 160.5444
583.8870, 91.92822
585.0580, 119.3467
586.2280, 81.80713
587.3990, 53.29736
588.5690, 92.82324
589.7390, 93.36719
590.9090, 90.35693
592.0780, 121.5527
593.2480, 114.1958
594.4170, 103.8589
595.5870, 166.5244
596.7560, 182.6201
597.9250, 235.8330
599.0930, 278.5850
600.2620, 346.2710
601.4300, 406.9565
602.5990, 445.6421
603.7670, 494.3291
604.9350, 545.1846
606.1020, 577.5098
607.2700, 638.3862
608.4370, 632.0713
609.6050, 664.7559
610.7720, 661.4399
611.9390, 697.1235
613.1060, 566.8057
614.2720, 621.4873
615.4390, 601.1685
616.6050, 630.8486
617.7710, 600.5269
618.9370, 628.2051
620.1030, 575.8818
621.2680, 701.5703
622.4340, 665.2583
623.5990, 630.9448
624.7640, 722.6299
625.9290, 703.3184
627.0940, 702.0063
628.2590, 785.6973
629.4230, 778.3877
630.5880, 786.0767
631.7520, 752.7642
632.9160, 815.4648
634.0800, 815.1562
635.2440, 866.8462
636.4070, 850.6455
637.5700, 880.3716
638.7340, 907.0229
639.8970, 930.7119
641.0600, 980.3999
642.2220, 1034.086
643.3850, 1018.771
644.5470, 1129.448
645.7090, 1077.129
646.8710, 1131.819
648.0330, 1033.499
649.1950, 1074.178
650.3570, 913.8540
651.5180, 824.5391
652.6790, 722.2236
653.8400, 712.9062
655.0010, 588.7109
656.1620, 557.6875
657.3230, 464.3643
658.4830, 388.0396
659.6430, 336.6064
660.8030, 387.2783
661.9630, 371.9487
663.1230, 323.6196
664.2830, 296.5801
665.4420, 229.9600
666.6020, 167.6348
667.7610, 183.3174
668.9200, 118.0098
670.0780, 105.2656
671.2370, 159.4219
672.3960, 63.12744
673.5540, 54.83057
674.7120, 31.55713
675.8700, 120.2803
677.0280, 15.05371
678.1860, 71.77197
679.3430, 101.4878
680.5000, 111.6133
681.6580, 15.01318
682.8150, 22.34961
683.9710, 23.26514
685.1280, 23.94238
686.2850, 66.27246
687.4410, 12.81152
688.5970, 78.26025
689.7530, 57.24414
690.9090, 95.81689
692.0650, 58.35303
693.2200, 48.69238
694.3760, 42.69385
695.5310, 45.00195
696.6860, 20.34570
697.8410, 8.688477
698.9960, 5.024414
700.1500, 3.352539
701.3050, 25.67139
702.4590, 74.98779
703.6130, 65.56299
704.7670, 69.62354
705.9210, 73.94238
707.0740, 63.22559
708.2280, 64.55615
709.3810, 70.95264
710.5340, 110.3179
711.6870, 84.67627
712.8400, 73.98193
713.9930, 140.2837
715.1450, 161.5811
716.2970, 130.8745
717.4490, 121.1636
718.6010, 66.44824
719.7530, 71.72852
720.9050, 67.14453
722.0560, 66.08740
723.2080, 110.5410
724.3590, 107.8018
725.5100, 183.0576
726.6610, 236.3076
727.8110, 180.5522
728.9620, 304.7915
730.1120, 245.0244
731.2620, 336.2515
732.4120, 356.4727
733.5620, 406.6865
734.7120, 436.8945
735.8620, 473.0952
737.0110, 531.5703
738.1600, 645.5112
739.3090, 654.6924
740.4580, 673.8662
741.6070, 749.5557
742.7550, 747.7168
743.9040, 717.8701
745.0520, 709.1421
746.2000, 646.4004
747.3480, 678.6592
748.4960, 436.7852
749.6430, 562.9946
750.7910, 465.1064
751.9380, 397.2109
753.0850, 422.3081
754.2320, 317.3989
755.3790, 219.4814
756.5260, 233.5576
757.6720, 186.6270
758.8180, 267.6719
759.9650, 157.7261
761.1110, 141.7876
762.2560, 215.8267
763.4020, 111.7275
764.5470, 103.7510
765.6930, 132.9326
766.8380, 184.9404
767.9830, 174.9404
769.1280, 186.4761
770.2720, 76.36621
771.4170, 141.3418
772.5610, 138.3535
773.7060, 52.31348
774.8500, 150.1968
775.9930, 168.1401
777.1370, 84.07471
778.2810, 148.2524
779.4240, 188.1709
780.5670, 160.0952
781.7100, 140.9976
782.8530, 154.7783
783.9960, 78.02734
785.1390, 170.9878
786.2810, 145.0234
787.4230, 185.8838
788.5650, 157.0835
789.7070, 159.2095
790.8490, 98.04346
791.9910, 52.96436
793.1320, 29.78027
794.2730, 139.6738
795.4140, 171.5532
796.5550, 211.4844
797.6960, 141.3438
798.8370, 106.2217
799.9770, 104.6870
801.1180, 104.5239
802.2580, 204.0815
803.3980, 198.2690
804.5380, 244.5405
805.6770, 167.7471
806.8170, 247.9575
807.9560, 97.15967
809.0950, 121.8477
810.2340, 103.5264
811.3730, 147.6709
812.5120, 141.2109
813.6500, 87.60742
814.7890, 135.0752
815.9270, 106.7026
817.0650, 57.42822
818.2030, 185.2871
819.3400, 139.6470
820.4780, 152.0679
821.6150, 73.49121
822.7530, 48.88672
823.8900, 124.4409
825.0270, 148.9185
826.1630, 124.1514
827.3000, 139.0444
828.4360, 134.2305
829.5730, 116.8936
830.7090, 119.7134
831.8450, 127.1787
832.9800, 111.2407
834.1160, 127.0854
835.2520, 137.0869
836.3870, 132.9180
837.5220, 131.9351
838.6570, 132.7368
839.7920, 111.1919
840.9260, 96.54639
842.0610, 78.44678
843.1950, 66.68164
844.3290, 56.00342
845.4630, 52.64209
846.5970, 59.06641
847.7310, 59.48193
848.8640, 115.8887
849.9980, 135.2866
851.1310, 126.6763
852.2640, 180.0571
853.3970, 192.4297
854.5300, 230.7935
855.6620, 116.1494
856.7940, 113.4966
857.9270, 132.8350
859.0590, 165.1655
860.1910, 187.4873
861.3220, 199.8018
862.4540, 177.1074
863.5850, 209.4058
864.7170, 114.6948
865.8480, 77.97607
866.9790, 85.46338
868.1090, 147.5146
869.2400, 90.77197
870.3710, 153.0210
871.5010, 174.2622
872.6310, 163.4956
873.7610, 56.72070
874.8910, 109.9375
876.0200, 150.1470
877.1500, 10.34863
878.2790, 91.53760
879.4080, 85.71875
880.5370, 32.89209
881.6660, 34.05615
882.7950, 31.89355
883.9230, 132.3594
885.0520, 39.49951
886.1800, 115.6304
887.3080, 104.7544
888.4360, 109.8706
889.5640, 139.0312
890.6910, 89.08105
891.8180, 125.1753
892.9460, 58.26172
894.0730, 32.65869
895.2000, 72.38818
896.3260, 53.42773
897.4530, 154.4600
898.5790, 0.4848630
899.7060, 64.49414
900.8320, 4.502930
901.9580, 115.4814
903.0830, 140.4595
904.2090, 57.43018
905.3340, 9.605469
906.4600, 169.3301
907.5850, 42.26709
908.7100, 120.1973
909.8350, 1.988770
910.9590, 58.91992
912.0840, 154.8213
913.2080, 12.71631
914.3320, 72.60254
915.4560, 45.48193
916.5800, 84.35498
917.7040, 74.22217
918.8270, 11.08252
919.9510, 26.92578
921.0740, 14.77100
922.1970, 82.60791
923.3200, 26.56104
924.4430, 8.243164
925.5650, 156.0381
926.6870, 20.82764
927.8100, 107.4868
928.9320, 20.96582
930.0540, 21.73633
931.1750, 12.50049
932.2970, 21.25732
933.4180, 15.00732
934.5400, 2.248535
935.6610, 18.48291
936.7820, 4.378418
937.9030, 14.76904
939.0230, 32.38525
940.1440, 31.71973
941.2640, 48.08105
942.3840, 16.47803
943.5040, 70.10693
944.6240, 50.68604
945.7440, 96.73877
946.8630, 60.77539
947.9820, 5.713867
949.1020, 18.73535
950.2210, 98.22900
951.3390, 5.719238
952.4580, 7.017578
953.5770, 74.52979
954.6950, 5.039063
955.8130, 20.55322
956.9310, 93.99658
958.0490, 11.32275
959.1670, 35.15332
960.2840, 17.64648
961.4020, 34.47803
962.5190, 42.64355
963.6360, 4.845703
964.7530, 43.35010
965.8700, 51.86621
966.9860, 7.379883
968.1030, 14.90479
969.2190, 15.32031
970.3350, 49.95166
971.4510, 30.47314
972.5670, 5.006348
973.6830, 1.492188
974.7980, 45.98389
975.9140, 49.49609
977.0290, 42.97363
978.1440, 1.560547
979.2590, 36.14209
980.3730, 30.24121
981.4880, 129.6499
982.6020, 138.0591
983.7160, 161.5151
984.8300, 38.96777
985.9440, 112.4180
987.0580, 220.8657
988.1710, 160.3115
989.2850, 252.7554
990.3980, 263.1997
991.5110, 302.6519
992.6240, 346.1123
993.7370, 470.5820
994.8490, 400.0493
995.9620, 520.5225
997.0740, 583.9932
998.1860, 595.4629
999.2980, 612.9316
1000.410, 767.3989
1001.522, 662.8643
1002.633, 760.3340
1003.744, 716.8018
1004.856, 768.2773
1005.966, 648.7515
1007.077, 676.2241
1008.188, 657.6621
1009.298, 555.1328
1010.409, 620.6040
1011.519, 549.5522
1012.629, 498.0215
1013.739, 683.4902
1014.849, 607.8330
1015.958, 627.1821
1017.068, 716.5229
1018.177, 762.9893
1019.286, 533.3647
1020.395, 538.8486
1021.503, 567.3320
1022.612, 533.8179
1023.720, 589.3042
1024.829, 581.7905
1025.937, 511.2769
1027.045, 550.5488
1028.153, 489.2651
1029.260, 546.7529
1030.368, 505.2246
1031.475, 495.7129
1032.582, 487.3315
1033.689, 493.8213
1034.796, 485.1465
1035.903, 503.3813
1037.009, 535.3892
1038.115, 546.6274
1039.222, 665.6748
1040.328, 706.1729
1041.433, 874.6299
1042.539, 1064.131
1043.645, 1171.703
1044.750, 1275.208
1045.855, 1503.715
1046.960, 1831.973
1048.065, 2142.484
1049.170, 2746.982
1050.275, 3205.497
1051.379, 3709.015
1052.483, 4236.285
1053.587, 4890.723
1054.691, 5231.079
1055.795, 5607.605
1056.899, 5713.786
1058.002, 5440.455
1059.105, 5244.569
1060.209, 4557.013
1061.312, 3889.553
1062.414, 3432.009
1063.517, 2797.474
1064.620, 2305.881
1065.722, 1999.354
1066.824, 1491.804
1067.926, 1308.661
1069.028, 1102.142
1070.130, 1024.895
1071.231, 970.0137
1072.333, 844.0425
1073.434, 862.1382
1074.535, 739.2246
1075.636, 709.3193
1076.737, 707.9233
1077.837, 687.5322
1078.938, 616.6499
1080.038, 647.2686
1081.138, 668.1436
1082.238, 608.7251
1083.338, 557.3584
1084.437, 676.8896
1085.537, 679.4492
1086.636, 653.0996
1087.735, 715.6646
1088.834, 775.3047
1089.933, 753.9717
1091.032, 798.5923
1092.130, 898.8433
1093.228, 936.2153
1094.327, 975.5522
1095.425, 1090.398
1096.523, 1418.036
1097.620, 1367.739
1098.718, 1395.106
1099.815, 1409.131
1100.912, 1241.405
1102.009, 1199.132
1103.106, 1139.868
1104.203, 969.6099
1105.300, 807.0195
1106.396, 767.6558
1107.492, 641.5386
1108.589, 623.3140
1109.685, 672.2378
1110.780, 479.0293
1111.876, 474.7485
1112.971, 469.5498
1114.067, 584.4614
1115.162, 494.2759
1116.257, 456.0972
1117.352, 515.9258
1118.446, 342.7617
1119.541, 446.6035
1120.635, 534.5654
1121.729, 516.7192
1122.823, 532.8994
1123.917, 542.2197
1125.011, 572.3975
1126.105, 561.2783
1127.198, 605.8550
1128.291, 662.7485
1129.384, 857.6484
1130.477, 915.5713
1131.570, 1059.484
1132.663, 1089.403
1133.755, 1141.540
1134.847, 1378.473
1135.940, 1426.251
1137.031, 1366.195
1138.123, 1190.146
1139.215, 1135.106
1140.306, 1078.074
1141.398, 1036.149
1142.489, 893.1421
1143.580, 784.1436
1144.671, 693.1514
1145.761, 613.1655
1146.852, 561.1875
1147.942, 584.2158
1149.033, 491.2520
1150.123, 612.2939
1151.213, 490.3193
1152.302, 570.3750
1153.392, 555.0449
1154.481, 436.1138
1155.571, 562.1885
1156.660, 513.2705
1157.749, 528.3589
1158.837, 490.4536
1159.926, 411.5684
1161.014, 546.6895
1162.103, 399.8169
1163.191, 489.9512
1164.279, 532.0967
1165.367, 462.2485
1166.454, 577.4121
1167.542, 424.5830
1168.629, 433.0693
1169.716, 462.2642
1170.803, 513.4712
1171.890, 535.6968
1172.977, 566.9287
1174.064, 580.8179
1175.150, 651.4180
1176.236, 565.6748
1177.322, 573.9385
1178.408, 506.2100
1179.494, 524.4883
1180.580, 542.7739
1181.665, 608.0659
1182.750, 567.3647
1183.835, 442.6719
1184.920, 335.9854
1186.005, 425.3076
1187.090, 456.6357
1188.174, 291.9814
1189.259, 312.3350
1190.343, 239.6953
1191.427, 256.0625
1192.511, 169.4370
1193.594, 121.8188
1194.678, 175.2075
1195.761, 113.6035
1196.844, 155.0068
1197.928, 233.4175
1199.010, 161.8379
1200.093, 147.2656
1201.176, 88.70410
1202.258, 184.1562
1203.340, 179.1606
1204.423, 126.6479
1205.504, 106.3579
1206.586, 284.8804
1207.668, 283.4102
1208.749, 199.9453
1209.831, 179.5156
1210.912, 127.0923
1211.993, 66.67871
1213.074, 197.2725
1214.154, 159.8726
1215.235, 159.4795
1216.315, 153.0928
1217.395, 186.7134
1218.475, 177.3403
1219.555, 120.9736
1220.635, 74.61328
1221.715, 92.25928
1222.794, 123.9224
1223.873, 115.5981
1224.952, 10.29004
1226.031, 55.00146
1227.110, 77.71875
1228.189, 96.44238
1229.267, 151.1724
1230.345, 18.09131
1231.424, 80.64502
1232.502, 8.387695
1233.579, 128.1362
1234.657, 124.6479
1235.735, 30.73193
1236.812, 24.50146
1237.889, 21.28906
1238.966, 28.91797
1240.043, 4.129883
1241.120, 47.33057
1242.196, 25.46533
1243.273, 3.733887
1244.349, 2.071289
1245.425, 35.88184
1246.501, 50.98926
1247.577, 38.33496
1248.652, 32.35205
1249.728, 3.529785
1250.803, 8.692871
1251.878, 48.85498
1252.953, 51.03223
1254.028, 48.22559
1255.103, 72.56641
1256.177, 36.63721
1257.251, 104.1499
1258.326, 32.94238
1259.400, 0.7402340
1260.473, 55.54248
1261.547, 74.35059
1262.621, 26.83691
1263.694, 117.9707
1264.767, 38.21729
1265.840, 26.58301
1266.913, 54.38965
1267.986, 83.89062
1269.059, 37.70703
1270.131, 0.5737300
1271.203, 32.25098
1272.275, 83.08008
1273.347, 108.9146
1274.419, 98.75391
1275.491, 103.5972
1276.562, 114.4463
1277.634, 33.29980
1278.705, 27.15820
1279.776, 69.97803
1280.847, 143.8618
1281.917, 11.29346
1282.988, 53.55029
1284.058, 93.39893
1285.128, 30.25146
1286.199, 33.10889
1287.268, 69.96924
1288.338, 87.83252
1289.408, 119.7002
1290.477, 75.57227
1291.546, 64.44922
1292.616, 134.3320
1293.685, 91.21680
1294.753, 138.1064
1295.822, 59.00098
1296.890, 2.666016
1297.959, 152.2354
1299.027, 55.14160
1300.095, 103.5527
1301.163, 145.4678
1302.231, 122.3867
1303.298, 123.1152
1304.365, 82.23730
1305.433, 74.18359
1306.500, 48.11963
1307.567, 47.05957
1308.633, 152.0039
1309.700, 65.95166
1310.766, 143.8955
1311.833, 152.8359
1312.899, 98.78076
1313.965, 176.7285
1315.031, 259.6807
1316.096, 58.63623
1317.162, 160.5952
1318.227, 204.5581
1319.292, 179.5244
1320.357, 204.4941
1321.422, 134.4673
1322.487, 169.4438
1323.551, 174.4243
1324.616, 191.4072
1325.680, 237.3833
1326.744, 178.3599
1327.808, 113.3394
1328.872, 246.3223
1329.935, 31.30762
1330.999, 20.70312
1332.062, 46.27979
1333.125, 14.73438
