##NAMES=Lazulite
##RRUFFID=R050110
##IDEAL CHEMISTRY=MgAl_2_(PO_4_)_2_(OH)_2_
##LOCALITY=Rapid Creek, Yukon Territory, Canada
##OWNER=RRUFF
##SOURCE=Rock Currier
##DESCRIPTION=Azure-blue stubby crystals with complex terminations
##STATUS=The identification of this mineral has been confirmed by X-ray diffraction and chemical analysis
##URL=rruff.info/R050110
##MEASURED CHEMISTRY=(Mg_0.84_Fe_0.16_)Al_2.00_(P_1.00_O_4_)_2_(OH)_2_
##PIN_ID=L00543
##ORIENTATION=Laser parallel to (-1 0 -1). Fiducial mark perpendicular to laser is parallel to b [0 1 0]
77.333, 0.000
78.729, 84.198
80.125, 87.509
81.521, 18.337
82.916, 32.533
84.311, 176.296
85.706, 161.626
87.101, 327.743
88.496, 683.368
89.890, 1190.534
91.284, 2007.414
92.678, 3100.361
94.071, 4612.845
95.465, 7778.411
96.858, 13766.671
98.251, 24230.512
99.644, 34589.754
101.036, 35795.035
102.428, 29910.086
103.820, 21821.717
105.212, 14676.808
106.604, 9435.296
107.995, 6159.038
109.387, 4330.896
110.777, 3699.750
112.168, 3449.499
113.559, 3569.056
114.949, 2668.343
116.339, 2015.296
117.729, 1530.497
119.119, 1049.354
120.508, 689.441
121.897, 563.729
123.286, 453.204
124.675, 495.890
126.063, 274.845
127.452, 267.115
128.840, 305.707
130.228, 415.602
131.615, 507.079
133.003, 481.575
134.390, 403.543
135.777, 359.655
137.164, 475.888
138.550, 490.235
139.937, 534.688
141.323, 504.243
142.709, 557.890
144.094, 667.625
145.480, 648.444
146.865, 702.339
148.250, 725.306
149.635, 768.340
151.019, 654.437
152.403, 491.591
153.788, 572.800
155.171, 579.059
156.555, 710.119
157.939, 640.233
159.322, 680.398
160.705, 715.483
162.088, 723.495
163.470, 996.433
164.853, 1137.339
166.235, 1675.250
167.617, 2655.184
168.998, 3949.254
170.380, 5237.834
171.761, 6742.044
173.142, 8128.959
174.523, 7583.521
175.904, 6167.570
177.284, 4782.012
178.664, 4100.666
180.044, 4062.343
181.424, 4609.010
182.803, 6672.665
184.183, 10590.307
185.562, 17192.246
186.940, 25354.311
188.319, 33221.793
189.698, 43622.281
191.076, 47078.559
192.454, 41505.598
193.831, 29562.629
195.209, 19067.658
196.586, 11888.695
197.963, 7446.729
199.340, 4961.762
200.717, 3475.789
202.093, 2740.808
203.470, 2340.816
204.846, 2050.814
206.221, 1854.803
207.597, 1761.781
208.972, 1609.124
210.347, 1551.711
211.722, 1457.660
213.097, 1416.599
214.472, 1352.526
215.846, 1461.438
217.220, 1645.332
218.594, 1891.208
219.967, 2335.065
221.341, 2761.903
222.714, 3234.725
224.087, 3343.527
225.460, 3329.312
226.832, 2409.078
228.204, 1680.827
229.577, 860.557
230.948, 342.271
232.320, 79.964
233.692, 204.359
235.063, 220.702
236.434, 302.063
237.805, 134.443
239.175, 251.932
240.545, 46.595
241.916, 57.622
243.286, 201.588
244.655, 606.250
246.025, 1073.595
247.394, 1913.344
248.763, 3284.515
250.132, 5382.430
251.501, 7598.676
252.869, 9866.217
254.237, 11477.016
255.605, 10581.050
256.973, 8513.294
258.340, 5770.777
259.708, 3835.618
261.075, 2775.614
262.442, 2077.672
263.808, 1760.128
265.175, 1492.132
266.541, 1257.894
267.907, 1141.446
269.273, 938.234
270.639, 785.059
272.004, 655.667
273.369, 685.399
274.734, 853.013
276.099, 944.311
277.463, 1140.200
278.828, 1484.039
280.192, 1712.400
281.556, 1676.644
282.919, 1676.783
284.283, 1404.122
285.646, 945.139
287.009, 656.173
288.372, 337.222
289.734, 185.285
291.097, 42.639
292.459, 138.572
293.821, 30.541
295.183, 56.520
296.544, 4.519
297.905, 9.530
299.266, 10.442
300.627, 9.597
301.988, 35.346
303.348, 160.280
304.709, 294.209
306.069, 405.133
307.428, 455.049
308.788, 651.959
310.147, 854.862
311.507, 1003.756
312.865, 1365.642
314.224, 1807.519
315.583, 2601.388
316.941, 3477.246
318.299, 4554.094
319.657, 5856.932
321.015, 6744.627
322.372, 7332.170
323.729, 6948.616
325.086, 6395.057
326.443, 5902.491
327.800, 5461.920
329.156, 5999.345
330.512, 5977.766
331.868, 6533.182
333.224, 7488.592
334.579, 8515.994
335.935, 10068.386
337.290, 11964.763
338.645, 15266.124
339.999, 19001.463
341.354, 23848.787
342.708, 29802.086
344.062, 34422.359
345.416, 39558.629
346.769, 39142.852
348.123, 36727.051
349.476, 31058.139
350.829, 25035.137
352.182, 19912.076
353.534, 15831.966
354.887, 12831.829
356.239, 10489.671
357.591, 8900.497
358.942, 7973.298
360.294, 7311.080
361.645, 6782.843
362.996, 6524.584
364.347, 6542.305
365.698, 6624.010
367.048, 7078.704
368.398, 7711.385
369.748, 8592.054
371.098, 10424.713
372.448, 12281.358
373.797, 14772.991
375.146, 17665.605
376.495, 19366.203
377.844, 21192.791
379.192, 20233.355
380.540, 18366.898
381.889, 15300.423
383.236, 12199.926
384.584, 9459.408
385.932, 7142.871
387.279, 5689.311
388.626, 4544.731
389.973, 3695.129
391.319, 3147.507
392.666, 2706.864
394.012, 2361.201
395.358, 2037.516
396.704, 1757.699
398.049, 1538.840
399.394, 1153.271
400.740, 1051.094
402.084, 844.196
403.429, 798.655
404.774, 681.832
406.118, 768.243
407.462, 957.184
408.806, 1168.361
410.150, 1637.538
411.493, 2177.718
412.836, 2641.890
414.179, 2532.055
415.522, 1812.211
416.865, 1023.357
418.207, 446.491
419.549, 223.613
420.891, 103.279
422.233, 166.295
423.575, 148.468
424.916, 247.791
426.257, 222.316
427.598, 296.030
428.939, 258.974
430.279, 261.128
431.619, 212.493
432.959, 160.045
434.299, 145.757
435.639, 125.621
436.978, 104.626
438.318, 33.763
439.657, 86.007
440.996, 104.736
442.334, 181.432
443.673, 213.104
445.011, 174.753
446.349, 292.379
447.687, 338.985
449.024, 430.570
450.361, 559.135
451.699, 740.679
453.036, 969.260
454.372, 1137.707
455.709, 1547.821
457.045, 2133.193
458.381, 2530.719
459.717, 3009.820
461.053, 3409.064
462.388, 3811.941
463.724, 3837.145
465.059, 3843.493
466.394, 3784.821
467.728, 3653.131
469.063, 3806.422
470.397, 4059.694
471.731, 4494.947
473.065, 4970.181
474.398, 5879.395
475.732, 6883.592
477.065, 7561.768
478.398, 7882.926
479.731, 6996.066
481.063, 5957.186
482.396, 4533.288
483.728, 3176.373
485.060, 2409.439
486.391, 1526.490
487.723, 1023.523
489.054, 745.539
490.385, 472.539
491.716, 372.520
493.047, 315.485
494.377, 251.432
495.708, 252.363
497.038, 296.276
498.368, 268.172
499.697, 259.051
501.027, 242.913
502.356, 316.758
503.685, 337.586
505.014, 323.397
506.342, 297.192
507.671, 407.970
508.999, 487.731
510.327, 508.476
511.655, 587.207
512.982, 670.921
514.310, 773.621
515.637, 863.305
516.964, 879.975
518.291, 915.629
519.617, 1003.271
520.944, 1172.898
522.270, 1064.513
523.596, 1097.114
524.921, 1206.563
526.247, 1155.039
527.572, 1208.059
528.897, 1190.376
530.222, 1258.851
531.547, 1269.916
532.871, 1321.249
534.196, 1307.433
535.520, 1365.319
536.844, 1371.140
538.167, 1445.111
539.491, 1429.569
540.814, 1334.015
542.137, 1087.451
543.460, 1007.876
544.783, 869.288
546.105, 722.707
547.427, 602.111
548.749, 386.504
550.071, 331.886
551.393, 253.254
552.714, 208.620
554.035, 198.985
555.356, 103.344
556.677, 138.716
557.998, 215.106
559.318, 172.542
560.638, 240.983
561.958, 306.468
563.278, 364.974
564.597, 426.482
565.917, 472.984
567.236, 539.489
568.555, 675.011
569.874, 638.552
571.192, 713.092
572.511, 866.638
573.829, 1013.190
575.147, 1119.764
576.464, 1355.339
577.782, 1793.925
579.099, 1995.478
580.416, 2125.853
581.733, 1983.251
583.050, 1713.741
584.366, 1326.966
585.683, 1109.770
586.999, 811.938
588.315, 593.423
589.630, 490.757
590.946, 461.162
592.261, 538.866
593.576, 533.485
594.891, 700.375
596.206, 833.611
597.520, 1208.326
598.834, 1641.145
600.148, 2180.496
601.462, 3218.015
602.776, 4024.671
604.089, 5059.155
605.402, 5852.640
606.715, 6807.851
608.028, 7387.711
609.341, 8101.573
610.653, 8726.454
611.965, 9378.354
613.277, 9394.301
614.589, 8720.267
615.901, 7726.258
617.212, 6609.263
618.523, 5926.280
619.834, 5136.308
621.145, 5165.350
622.456, 5133.394
623.766, 5293.439
625.076, 6221.481
626.386, 6962.526
627.696, 8331.566
629.006, 9790.609
630.315, 10886.646
631.624, 11973.687
632.933, 11862.727
634.242, 11846.763
635.551, 10810.801
636.859, 9505.832
638.167, 8569.866
639.475, 7546.895
640.783, 6643.922
642.090, 6247.949
643.398, 5667.971
644.705, 5273.992
646.012, 4770.012
647.318, 4330.029
648.625, 3743.045
649.931, 2959.057
651.237, 2515.067
652.543, 1881.075
653.849, 1511.081
655.155, 1220.083
656.460, 920.083
657.765, 798.080
659.070, 598.075
660.375, 568.067
661.679, 577.056
662.984, 460.042
664.288, 553.025
665.592, 468.005
666.895, 381.982
668.199, 405.957
669.502, 296.017
670.805, 297.984
672.108, 215.949
673.411, 253.910
674.713, 115.868
676.016, 126.214
677.318, 139.449
678.620, 38.617
679.921, 50.933
681.223, 44.128
682.524, 71.992
683.825, 60.925
685.126, 68.742
686.427, 72.797
687.727, 64.163
689.028, 68.894
690.328, 37.460
691.628, 25.182
692.927, 57.714
694.227, 29.860
695.526, 54.646
696.825, 140.843
698.124, 175.648
699.423, 261.054
700.721, 307.187
702.020, 494.755
703.318, 616.913
704.616, 689.119
705.913, 811.431
707.211, 1019.481
708.508, 1162.757
709.805, 1369.520
711.102, 1541.803
712.399, 1667.238
713.695, 1792.123
714.992, 2114.096
716.288, 2186.364
717.584, 2430.640
718.879, 2598.427
720.175, 2954.574
721.470, 3307.716
722.765, 3765.183
724.060, 4165.108
725.355, 4627.167
726.649, 5271.660
727.944, 5964.922
729.238, 6925.079
730.532, 7932.956
731.825, 8967.087
733.119, 10653.190
734.412, 11888.252
735.705, 13420.805
736.998, 15402.314
738.291, 17244.422
739.584, 18471.188
740.876, 19608.340
742.168, 20542.254
743.460, 19721.803
744.752, 19178.754
746.043, 17352.246
747.334, 15337.572
748.626, 13762.676
749.916, 11679.038
751.207, 10340.528
752.498, 8742.827
753.788, 7476.464
755.078, 6542.683
756.368, 5758.914
757.658, 5001.209
758.947, 4403.086
760.237, 3871.637
761.526, 3417.257
762.815, 3093.990
764.104, 2727.636
765.392, 2560.039
766.680, 2204.541
767.969, 2042.071
769.257, 1934.597
770.544, 1773.946
771.832, 1564.458
773.119, 1430.931
774.406, 1396.376
775.693, 1366.754
776.980, 1180.884
778.267, 1191.188
779.553, 1073.171
780.839, 1055.317
782.125, 1026.289
783.411, 937.151
784.697, 925.199
785.982, 895.384
787.267, 879.252
788.552, 746.057
789.837, 727.793
791.122, 694.552
792.406, 699.259
793.690, 670.923
794.974, 565.565
796.258, 630.182
797.542, 521.775
798.825, 507.344
800.108, 565.888
801.391, 508.409
802.674, 491.905
803.957, 475.376
805.239, 437.824
806.522, 364.246
807.804, 346.645
809.085, 359.018
810.367, 339.367
811.649, 352.691
812.930, 345.990
814.211, 263.264
815.492, 326.514
816.772, 251.739
818.053, 294.938
819.333, 222.112
820.613, 207.262
821.893, 205.386
823.173, 134.485
824.452, 203.558
825.732, 158.606
827.011, 157.629
828.290, 170.626
829.568, 64.598
830.847, 90.541
832.125, 106.457
833.403, 70.345
834.681, 165.204
835.959, 109.175
837.236, 119.078
838.514, 85.397
839.791, 80.377
841.068, 32.158
842.345, 45.263
843.621, 25.145
844.898, 37.091
846.174, 22.291
847.450, 5.487
848.726, 0.463
850.001, 41.024
851.277, 11.483
852.552, 21.906
853.827, 53.299
855.102, 49.337
856.376, 44.960
857.651, 36.229
858.925, 25.469
860.199, 66.679
861.473, 13.137
862.746, 21.003
864.020, 2.464
865.293, 118.122
866.566, 47.142
867.839, 7.135
869.112, 22.091
870.384, 29.983
871.656, 86.114
872.928, 28.331
874.200, 3.396
875.472, 33.916
876.744, 89.286
878.015, 91.744
879.286, 19.290
880.557, 47.886
881.828, 46.548
883.098, 106.274
884.369, 31.095
885.639, 62.971
886.909, 78.773
888.178, 55.252
889.448, 102.045
890.717, 63.234
891.987, 25.494
893.256, 46.806
894.524, 74.180
895.793, 35.457
897.061, 6.858
898.330, 96.686
899.598, 29.735
900.865, 57.747
902.133, 2.124
903.401, 63.558
904.668, 60.423
905.935, 18.358
907.202, 28.341
908.468, 29.375
909.735, 0.538
911.001, 25.585
912.267, 59.758
913.533, 0.997
914.799, 26.271
916.064, 13.406
917.330, 54.945
918.595, 34.642
919.860, 21.202
921.124, 15.737
922.389, 51.244
923.653, 5.726
924.918, 8.180
926.182, 7.608
927.445, 17.009
928.709, 69.385
929.972, 20.737
931.236, 90.064
932.499, 44.370
933.761, 78.651
935.024, 97.911
936.286, 46.150
937.549, 6.365
938.811, 74.557
940.073, 82.727
941.334, 117.876
942.596, 79.006
943.857, 84.115
945.118, 194.204
946.379, 118.273
947.640, 152.324
948.900, 137.355
950.161, 131.628
951.421, 181.361
952.681, 151.336
953.940, 172.293
955.200, 192.231
956.459, 137.152
957.719, 193.055
958.978, 196.940
960.236, 202.809
961.495, 247.659
962.753, 241.493
964.012, 265.311
965.270, 254.111
966.527, 289.896
967.785, 296.898
969.043, 286.427
970.300, 320.176
971.557, 377.908
972.814, 378.628
974.071, 413.333
975.327, 428.934
976.583, 430.610
977.840, 518.272
979.095, 494.925
980.351, 524.570
981.607, 594.810
982.862, 563.145
984.117, 744.533
985.372, 698.756
986.627, 802.348
987.882, 889.722
989.136, 877.146
990.390, 962.431
991.644, 1014.706
992.898, 1066.739
994.152, 1225.881
995.405, 1239.851
996.659, 1476.971
997.912, 1471.882
999.165, 1605.386
1000.417, 1832.242
1001.670, 1930.393
1002.922, 2078.938
1004.174, 2228.865
1005.426, 2347.053
1006.678, 2447.795
1007.930, 2710.941
1009.181, 2767.027
1010.432, 3084.000
1011.683, 3183.231
1012.934, 3532.256
1014.185, 3801.803
1015.435, 4041.816
1016.685, 4594.323
1017.935, 4824.526
1019.185, 5046.850
1020.435, 4937.815
1021.684, 4807.827
1022.934, 4625.314
1024.183, 4355.428
1025.432, 4101.535
1026.680, 4022.320
1027.929, 3931.636
1029.177, 3848.812
1030.425, 3771.565
1031.673, 3714.536
1032.921, 3771.615
1034.169, 3755.970
1035.416, 3937.058
1036.663, 3993.182
1037.911, 4161.338
1039.157, 4448.994
1040.404, 4701.750
1041.650, 5126.968
1042.897, 5690.593
1044.143, 6262.932
1045.389, 7110.584
1046.634, 8138.719
1047.880, 9549.546
1049.125, 11495.916
1050.371, 13599.532
1051.615, 16780.426
1052.860, 20416.123
1054.105, 25205.750
1055.349, 31168.611
1056.593, 36966.168
1057.837, 41675.133
1059.081, 45977.086
1060.325, 44970.977
1061.568, 42269.270
1062.812, 35583.461
1064.055, 28660.410
1065.298, 23528.814
1066.540, 17984.293
1067.783, 14381.008
1069.025, 11762.612
1070.267, 9690.177
1071.509, 8362.732
1072.751, 7271.456
1073.993, 6304.006
1075.234, 5880.582
1076.475, 5249.173
1077.716, 4925.827
1078.957, 4772.718
1080.198, 4401.424
1081.438, 4346.446
1082.679, 4280.296
1083.919, 4116.308
1085.159, 4109.418
1086.398, 4046.331
1087.638, 4097.096
1088.877, 4091.166
1090.116, 4024.286
1091.355, 4191.467
1092.594, 4327.611
1093.833, 4454.796
1095.071, 4683.014
1096.309, 4998.243
1097.547, 5567.483
1098.785, 6145.739
1100.023, 6635.004
1101.260, 7032.285
1102.498, 6942.580
1103.735, 6514.885
1104.972, 6028.206
1106.208, 5285.539
1107.445, 4852.885
1108.681, 4347.247
1109.918, 3973.620
1111.154, 3918.007
1112.389, 3779.407
1113.625, 3722.821
1114.860, 3729.249
1116.096, 3683.690
1117.331, 3831.533
1118.566, 3934.000
1119.800, 4063.482
1121.035, 4408.563
1122.269, 4549.071
1123.503, 4856.593
1124.737, 5105.262
1125.971, 5284.811
1127.205, 5838.483
1128.438, 6314.205
1129.671, 7316.812
1130.904, 8513.053
1132.137, 9805.780
1133.370, 11866.650
1134.602, 13827.164
1135.834, 15305.013
1137.066, 16547.514
1138.298, 15901.936
1139.530, 15059.366
1140.762, 13152.829
1141.993, 11288.667
1143.224, 9961.001
1144.455, 8439.125
1145.686, 7519.906
1146.917, 6645.882
1148.147, 5799.830
1149.377, 5327.910
1150.607, 5036.250
1151.837, 4563.170
1153.067, 4336.256
1154.296, 4042.156
1155.526, 3802.671
1156.755, 3755.229
1157.984, 3464.152
1159.213, 3379.919
1160.441, 3353.318
1161.670, 3058.897
1162.898, 3150.158
1164.126, 2997.936
1165.354, 2909.180
1166.581, 2959.606
1167.809, 2813.046
1169.036, 2873.136
1170.263, 2783.730
1171.490, 2537.708
1172.717, 2618.048
1173.943, 2557.294
1175.170, 2422.039
1176.396, 2628.267
1177.622, 2474.481
1178.848, 2488.349
1180.073, 2482.788
1181.299, 2312.376
1182.524, 2411.088
1183.749, 2272.755
1184.974, 2129.384
1186.199, 2097.152
1187.423, 1903.242
1188.648, 1838.977
1189.872, 1788.279
1191.096, 1660.871
1192.320, 1618.857
1193.543, 1581.535
1194.767, 1452.862
1195.990, 1426.610
1197.213, 1413.022
1198.436, 1332.000
1199.659, 1432.869
1200.881, 1342.908
1202.104, 1508.759
1203.326, 1489.871
1204.548, 1426.884
1205.770, 1677.814
1206.991, 1653.132
1208.213, 1796.216
1209.434, 1953.277
1210.655, 1898.424
1211.876, 2028.362
1213.096, 2042.548
1214.317, 1797.030
1215.537, 1911.008
1216.757, 1793.191
1217.977, 1829.256
1219.197, 1769.504
1220.417, 1609.593
1221.636, 1634.818
1222.855, 1544.889
1224.074, 1499.550
1225.293, 1407.739
1226.512, 1187.154
1227.731, 1073.230
1228.949, 1059.321
1230.167, 923.539
1231.385, 852.893
1232.603, 757.928
1233.820, 647.309
1235.038, 564.367
1236.255, 501.435
1237.472, 430.823
1238.689, 414.994
1239.906, 318.147
1241.122, 236.549
1242.338, 308.665
1243.555, 217.850
1244.771, 225.021
1245.986, 194.163
1247.202, 116.608
1248.417, 154.754
1249.633, 123.903
1250.848, 63.272
1252.063, 197.430
1253.277, 70.587
1254.492, 94.819
1255.706, 121.973
1256.920, 25.126
1258.134, 109.270
1259.348, 97.408
1260.562, 58.607
1261.775, 111.714
1262.988, 59.204
1264.201, 28.849
1265.414, 36.897
1266.627, 20.066
1267.839, 24.947
1269.052, 40.885
1270.264, 0.967
1271.476, 23.659
1272.688, 29.486
1273.899, 29.418
1275.111, 24.396
1276.322, 16.808
1277.533, 6.973
1278.744, 3.311
1279.955, 37.628
1281.165, 0.234
1282.376, 18.137
1283.586, 15.569
1284.796, 32.048
1286.006, 31.553
1287.215, 19.284
1288.425, 59.282
1289.634, 54.873
1290.843, 47.504
1292.052, 5.869
1293.261, 80.778
1294.469, 1.610
1295.678, 53.083
1296.886, 42.195
1298.094, 7.536
1299.302, 11.210
1300.509, 19.740
1301.717, 3.558
1302.924, 8.394
1304.131, 36.778
1305.338, 109.663
1306.545, 79.597
1307.752, 11.428
1308.958, 112.567
1310.164, 24.387
1311.370, 9.680
1312.576, 56.773
1313.782, 74.174
1314.987, 14.513
1316.193, 70.841
1317.398, 39.643
1318.603, 48.580
1319.807, 9.157
1321.012, 14.131
1322.216, 60.451
1323.421, 11.191
1324.625, 30.198
1325.829, 15.622
1327.032, 24.923
1328.236, 46.557
1329.439, 2.925
1330.642, 32.384
1331.845, 34.183
1333.048, 55.217
1334.251, 19.403
1335.453, 55.054
1336.656, 30.251
1337.858, 54.468
1339.060, 0.229
1340.261, 90.974
1341.463, 0.158
1342.664, 51.313
1343.866, 84.448
1345.067, 23.439
1346.267, 99.640
1347.468, 47.700
1348.669, 12.740
1349.869, 96.756
1351.069, 36.754
1352.269, 67.733
1353.469, 77.694
1354.668, 63.638
1355.868, 117.564
1357.067, 61.476
1358.266, 37.373
1359.465, 156.254
1360.664, 75.136
1361.862, 104.994
1363.061, 115.249
1364.259, 58.713
1365.457, 71.548
1366.655, 110.379
1367.852, 13.024
1369.050, 84.625
1370.247, 54.166
1371.444, 6.641
1372.641, 110.064
1373.838, 80.472
1375.035, 64.379
1376.231, 153.271
1377.427, 68.150
1378.623, 143.013
1379.819, 188.859
1381.015, 77.689
1382.211, 124.503
1383.406, 133.299
1384.601, 86.076
1385.796, 188.835
1386.991, 138.575
1388.185, 146.297
1389.380, 223.999
1390.574, 92.978
1391.768, 205.618
1392.962, 226.561
1394.156, 112.000
1395.350, 187.266
1396.543, 174.423
1397.736, 149.039
1398.929, 259.966
1400.122, 186.157
1401.315, 192.511
1402.507, 187.543
1403.700, 139.062
1404.892, 247.010
1406.084, 180.231
1407.276, 193.672
1408.467, 271.072
1409.659, 162.082
1410.850, 206.895
1412.041, 216.966
1413.232, 164.552
1414.423, 177.825
1415.614, 241.054
1416.804, 78.924
1417.994, 213.092
1419.184, 174.606
1420.374, 112.600
1421.564, 233.604
1422.753, 161.568
1423.943, 61.113
1425.132, 220.981
1426.321, 172.415
1427.510, 155.231
1428.698, 119.750
1429.887, 23.806
1431.075, 160.331
1432.263, 150.805
1433.451, 89.656
1434.639, 169.450
1435.827, 82.621
1437.014, 62.974
1438.201, 175.733
1439.388, 114.864
1440.575, 60.787
1441.762, 143.737
1442.949, 27.620
1444.135, 137.075
1445.321, 106.700
1446.507, 11.080
1447.693, 159.271
1448.879, 142.326
1450.064, 95.555
1451.250, 158.252
1452.435, 89.177
1453.620, 78.103
1454.805, 103.658
1455.989, 43.342
1457.174, 101.603
1458.358, 155.897
1459.542, 91.078
1460.726, 201.009
1461.910, 87.161
1463.093, 127.213
1464.277, 220.409
1465.460, 47.891
1466.643, 106.720
1467.826, 108.178
1469.009, 112.736
1470.191, 129.889
1471.373, 169.847
1472.556, 88.114
1473.738, 218.227
1474.919, 110.574
1476.101, 114.889
1477.283, 178.883
1478.464, 121.773
1479.645, 94.950
1480.826, 216.217
1482.007, 79.479
1483.187, 126.645
1484.368, 209.819
1485.548, 145.031
1486.728, 173.917
1487.908, 162.256
