##NAMES=Lazulite
##RRUFFID=R050110
##IDEAL CHEMISTRY=MgAl_2_(PO_4_)_2_(OH)_2_
##LOCALITY=Rapid Creek, Yukon Territory, Canada
##OWNER=RRUFF
##SOURCE=Rock Currier
##DESCRIPTION=Azure-blue stubby crystals with complex terminations
##STATUS=The identification of this mineral has been confirmed by X-ray diffraction and chemical analysis
##URL=rruff.info/R050110
##MEASURED CHEMISTRY=(Mg_0.84_Fe_0.16_)Al_2.00_(P_1.00_O_4_)_2_(OH)_2_
##PIN_ID=L00543
##ORIENTATION=Laser parallel to (-1 0 -1). Fiducial mark perpendicular to laser is parallel to b [0 1 0]
77.333, 0.000
78.729, 0.915
80.125, 17.666
81.521, 1.396
82.916, 38.577
84.311, 143.129
85.706, 223.840
87.101, 263.916
88.496, 407.168
89.890, 737.972
91.284, 1203.824
92.678, 1711.950
94.071, 2396.425
95.465, 4017.917
96.858, 6680.915
98.251, 11536.045
99.644, 16802.922
101.036, 17584.564
102.428, 14845.109
103.820, 10541.114
105.212, 6834.882
106.604, 4426.068
107.995, 3017.463
109.387, 2015.332
110.777, 1649.882
112.168, 1542.543
113.559, 1566.477
114.949, 1368.742
116.339, 1090.184
117.729, 812.447
119.119, 482.439
120.508, 273.494
121.897, 165.747
123.286, 30.121
124.675, 17.535
126.063, 45.525
127.452, 36.688
128.840, 26.749
130.228, 3.720
131.615, 12.618
133.003, 7.460
134.390, 19.260
135.777, 25.991
137.164, 18.309
138.550, 26.630
139.937, 187.968
141.323, 348.318
142.709, 82.679
144.094, 174.047
145.480, 76.420
146.865, 194.795
148.250, 114.171
149.635, 157.545
151.019, 173.940
152.403, 190.564
153.788, 186.392
155.171, 174.116
156.555, 159.242
157.939, 121.920
159.322, 112.653
160.705, 76.363
162.088, 192.034
163.470, 335.671
164.853, 672.274
166.235, 1282.844
167.617, 1710.376
168.998, 2694.866
170.380, 4124.313
171.761, 5802.715
173.142, 7771.063
174.523, 7681.355
175.904, 5909.582
177.284, 3917.746
178.664, 2570.849
180.044, 2033.894
181.424, 1895.884
182.803, 2421.819
184.183, 3419.673
185.562, 5441.372
186.940, 8454.944
188.319, 11836.420
189.698, 17284.795
191.076, 20553.174
192.454, 20127.631
193.831, 14951.294
195.209, 9638.463
196.586, 6157.600
197.963, 4101.704
199.340, 2835.778
200.717, 2170.822
202.093, 1808.832
203.470, 1701.810
204.846, 1524.758
206.221, 1548.677
207.597, 1512.566
208.972, 1692.426
210.347, 1810.258
211.722, 2020.061
213.097, 2380.834
214.472, 2934.580
215.846, 3822.298
217.220, 5165.986
218.594, 7549.646
219.967, 10838.279
221.341, 14640.885
222.714, 19397.033
224.087, 22828.033
225.460, 25258.367
226.832, 22095.936
228.204, 16998.723
229.577, 11477.571
230.948, 7449.393
232.320, 4874.391
233.692, 3340.167
235.063, 2451.954
236.434, 1943.563
237.805, 1578.897
239.175, 1355.511
240.545, 1251.307
241.916, 1289.534
243.286, 1333.805
244.655, 1542.479
246.025, 1980.484
247.394, 2708.429
248.763, 3928.402
250.132, 5761.328
251.501, 8069.194
252.869, 10809.996
254.237, 13464.737
255.605, 12902.396
256.973, 10307.956
258.340, 7406.409
259.708, 5006.777
261.075, 3597.072
262.442, 2736.304
263.808, 2333.480
265.175, 2097.606
266.541, 1930.579
267.907, 1880.280
269.273, 1962.826
270.639, 2115.252
272.004, 2343.537
273.369, 2986.786
274.734, 3687.038
276.099, 4745.284
277.463, 6059.526
278.828, 7749.764
280.192, 9520.002
281.556, 10468.239
282.919, 10873.470
284.283, 10196.689
285.646, 8242.905
287.009, 6686.080
288.372, 4863.416
289.734, 3569.777
291.097, 2618.435
292.459, 1907.697
293.821, 1491.630
295.183, 1062.050
296.544, 809.953
297.905, 683.218
299.266, 516.777
300.627, 382.948
301.988, 300.222
303.348, 264.604
304.709, 177.699
306.069, 179.781
307.428, 200.537
308.788, 426.595
310.147, 756.308
311.507, 513.343
312.865, 833.198
314.224, 1241.211
315.583, 2093.213
316.941, 3342.202
318.299, 5136.177
319.657, 7138.133
321.015, 9000.066
322.372, 10062.837
323.729, 9301.540
325.086, 7537.064
326.443, 5599.912
327.800, 3921.738
329.156, 2927.542
330.512, 2199.324
331.868, 1818.085
333.224, 1583.824
334.579, 1402.542
335.935, 1236.240
337.290, 1069.917
338.645, 1059.573
339.999, 1048.209
341.354, 1051.826
342.708, 1047.422
344.062, 1043.999
345.416, 1004.556
346.769, 1059.094
348.123, 983.388
349.476, 893.097
350.829, 870.599
352.182, 659.065
353.534, 594.514
354.887, 518.947
356.239, 500.358
357.591, 419.751
358.942, 383.128
360.294, 376.489
361.645, 324.834
362.996, 274.164
364.347, 273.478
365.698, 145.776
367.048, 170.057
368.398, 80.322
369.748, 26.567
371.098, 6.790
372.448, 40.002
373.797, 39.830
375.146, 28.685
376.495, 131.567
377.844, 88.504
379.192, 122.481
380.540, 104.518
381.889, 127.608
383.236, 97.759
384.584, 99.038
385.932, 114.223
387.279, 70.547
388.626, 63.939
389.973, 20.429
391.319, 24.028
392.666, 0.748
394.012, 26.588
395.358, 13.151
396.704, 61.850
398.049, 22.734
399.394, 5.317
400.740, 15.777
402.084, 56.628
403.429, 162.549
404.774, 268.223
406.118, 471.877
407.462, 834.513
408.806, 1418.131
410.150, 2368.729
411.493, 3604.310
412.836, 4933.872
414.179, 5122.416
415.522, 3675.942
416.865, 2208.451
418.207, 1256.943
419.549, 993.419
420.891, 1080.880
422.233, 1757.325
423.575, 2905.756
424.916, 4268.173
426.257, 5994.574
427.598, 7030.963
428.939, 7171.337
430.279, 6105.703
431.619, 4600.055
432.959, 3342.399
434.299, 2473.732
435.639, 1871.056
436.978, 1402.370
438.318, 1125.676
439.657, 1008.973
440.996, 809.260
442.334, 722.540
443.673, 692.810
445.011, 594.071
446.349, 593.324
447.687, 610.568
449.024, 541.804
450.361, 522.035
451.699, 569.270
453.036, 663.517
454.372, 602.772
455.709, 718.034
457.045, 739.295
458.381, 828.558
459.717, 791.822
461.053, 971.090
462.388, 1167.362
463.724, 1425.630
465.059, 1749.836
466.394, 2226.672
467.728, 2875.508
469.063, 3883.425
470.397, 4977.659
471.731, 6615.886
473.065, 8682.105
474.398, 11421.317
475.732, 14522.522
477.065, 17299.719
478.398, 19067.912
479.731, 18254.094
481.063, 16370.269
482.396, 13221.437
483.728, 9875.599
485.060, 7616.753
486.391, 5452.901
487.723, 4077.046
489.054, 3043.182
490.385, 2296.311
491.716, 1842.434
493.047, 1490.551
494.377, 1274.661
495.708, 1043.765
497.038, 851.862
498.368, 791.954
499.697, 622.039
501.027, 538.118
502.356, 447.192
503.685, 409.259
505.014, 356.321
506.342, 309.377
507.671, 307.428
508.999, 245.474
510.327, 165.514
511.655, 249.549
512.982, 233.578
514.310, 278.602
515.637, 238.623
516.964, 309.638
518.291, 261.649
519.617, 337.656
520.944, 374.660
522.270, 321.660
523.596, 303.657
524.921, 335.651
526.247, 338.142
527.572, 402.732
528.897, 370.818
530.222, 536.336
531.547, 454.347
532.871, 585.313
534.196, 580.603
535.520, 691.718
536.844, 702.190
538.167, 800.071
539.491, 763.594
540.814, 762.181
542.137, 695.512
543.460, 589.463
544.783, 535.349
546.105, 458.296
547.427, 340.003
548.749, 311.144
550.071, 215.038
551.393, 73.729
552.714, 94.910
554.035, 20.499
555.356, 43.055
556.677, 4.024
557.998, 8.549
559.318, 35.566
560.638, 33.237
561.958, 15.604
563.278, 25.530
564.597, 52.573
565.917, 127.625
567.236, 180.703
568.555, 220.807
569.874, 203.944
571.192, 298.101
572.511, 440.293
573.829, 482.519
575.147, 673.784
576.464, 835.074
577.782, 1161.401
579.099, 1337.754
580.416, 1596.140
581.733, 1581.559
583.050, 1374.989
584.366, 1061.447
585.683, 877.924
586.999, 581.434
588.315, 498.959
589.630, 375.507
590.946, 304.080
592.261, 356.670
593.576, 295.295
594.891, 450.945
596.206, 438.612
597.520, 637.294
598.834, 899.002
600.148, 1283.723
601.462, 1585.465
602.776, 2286.210
604.089, 2954.975
605.402, 3492.751
606.715, 3645.533
608.028, 3677.332
609.341, 3456.136
610.653, 3239.945
611.965, 3072.758
613.277, 2835.575
614.589, 2533.396
615.901, 2277.221
617.212, 1922.049
618.523, 1813.880
619.834, 1711.714
621.145, 1866.553
622.456, 1981.393
623.766, 2157.237
625.076, 2516.085
626.386, 2837.937
627.696, 3205.360
629.006, 3633.653
630.315, 3775.514
631.624, 3749.378
632.933, 3437.244
634.242, 3097.112
635.551, 2613.983
636.859, 2120.855
638.167, 2032.730
639.475, 1984.607
640.783, 2271.486
642.090, 2950.366
643.398, 3776.249
644.705, 5037.133
646.012, 6173.020
647.318, 7364.907
648.625, 7867.796
649.931, 7866.688
651.237, 7681.579
652.543, 6704.472
653.849, 6004.367
655.155, 5041.263
656.460, 4211.160
657.765, 3601.058
659.070, 2858.958
660.375, 2514.859
661.679, 2211.759
662.984, 1804.662
664.288, 1618.564
665.592, 1385.566
666.895, 1220.470
668.199, 1071.375
669.502, 867.280
670.805, 803.269
672.108, 601.275
673.411, 571.323
674.713, 448.425
676.016, 421.526
677.318, 317.703
678.620, 233.922
679.921, 172.213
681.223, 131.351
682.524, 126.032
683.825, 89.042
685.126, 33.224
686.427, 15.611
687.727, 79.948
689.028, 24.762
690.328, 82.910
691.628, 63.051
692.927, 58.486
694.227, 73.543
695.526, 9.423
696.825, 4.370
698.124, 14.067
699.423, 47.338
700.721, 29.662
702.020, 118.016
703.318, 162.646
704.616, 148.034
705.913, 265.971
707.211, 322.313
708.508, 429.946
709.805, 487.007
711.102, 583.934
712.399, 656.735
713.695, 689.413
714.992, 879.767
716.288, 874.989
717.584, 1107.955
718.879, 1196.360
720.175, 1353.543
721.470, 1546.575
722.765, 1780.051
724.060, 2052.980
725.355, 2382.805
726.649, 2775.659
727.944, 3181.068
729.238, 3689.020
730.532, 4313.085
731.825, 4877.062
733.119, 5879.726
734.412, 6736.746
735.705, 7574.515
736.998, 8732.280
738.291, 9881.584
739.584, 10589.093
740.876, 11283.656
742.168, 11846.050
743.460, 11470.489
744.752, 11206.884
746.043, 10084.412
747.334, 9092.319
748.626, 8045.260
749.916, 6844.202
751.207, 6096.714
752.498, 5073.244
753.788, 4381.053
755.078, 3814.046
756.368, 3401.382
757.658, 2925.631
758.947, 2582.398
760.237, 2229.312
761.526, 2059.566
762.815, 1821.289
764.104, 1657.497
765.392, 1530.625
766.680, 1331.757
767.969, 1184.830
769.257, 1135.898
770.544, 1034.808
771.832, 945.796
773.119, 867.673
774.406, 783.534
775.693, 732.530
776.980, 671.314
778.267, 645.125
779.553, 616.918
780.839, 585.694
782.125, 560.454
783.411, 503.196
784.697, 483.497
785.982, 442.629
787.267, 427.320
788.552, 415.993
789.837, 392.649
791.122, 381.747
792.406, 358.909
793.690, 352.512
794.974, 360.098
796.258, 344.523
797.542, 343.217
798.825, 278.749
800.108, 335.264
801.391, 251.761
802.674, 254.241
803.957, 253.702
805.239, 217.146
806.522, 250.572
807.804, 189.979
809.085, 205.369
810.367, 194.740
811.649, 201.093
812.930, 187.428
814.211, 164.746
815.492, 172.044
816.772, 173.325
818.053, 144.587
819.333, 96.832
820.613, 146.057
821.893, 165.263
823.173, 124.452
824.452, 100.622
825.732, 96.773
827.011, 86.905
828.290, 73.878
829.568, 74.111
830.847, 56.183
832.125, 46.235
833.403, 41.266
834.681, 65.274
835.959, 29.262
837.236, 96.223
838.514, 55.165
839.791, 60.087
841.068, 29.705
842.345, 49.956
843.621, 3.304
844.898, 14.680
846.174, 25.182
847.450, 15.215
848.726, 6.475
850.001, 4.960
851.277, 45.599
852.552, 31.956
853.827, 58.558
855.102, 60.140
856.376, 26.702
857.651, 68.241
858.925, 18.760
860.199, 89.252
861.473, 29.726
862.746, 16.177
864.020, 106.600
865.293, 22.008
866.566, 28.396
867.839, 69.761
869.112, 0.893
870.384, 35.423
871.656, 11.279
872.928, 12.980
874.200, 16.211
875.472, 56.584
876.744, 49.443
878.015, 79.362
879.286, 32.355
880.557, 89.400
881.828, 82.524
883.098, 100.725
884.369, 52.010
885.639, 95.356
886.909, 53.784
888.178, 82.272
889.448, 82.835
890.717, 3.528
891.987, 64.137
893.256, 33.867
894.524, 79.644
895.793, 17.492
897.061, 49.379
898.330, 52.320
899.598, 27.316
900.865, 92.355
902.133, 61.469
903.401, 23.642
904.668, 24.854
905.935, 62.104
907.202, 18.232
908.468, 40.608
909.735, 26.856
911.001, 33.548
912.267, 20.993
913.533, 9.529
914.799, 35.966
916.064, 9.498
917.330, 22.947
918.595, 16.380
919.860, 24.798
921.124, 20.202
922.389, 56.591
923.653, 27.967
924.918, 85.329
926.182, 51.678
927.445, 19.015
928.709, 69.338
929.972, 93.649
931.236, 77.949
932.499, 105.237
933.761, 76.512
935.024, 92.777
936.286, 58.031
937.549, 88.273
938.811, 117.504
940.073, 114.725
941.334, 147.935
942.596, 127.135
943.857, 147.325
945.118, 127.505
946.379, 148.676
947.640, 141.836
948.900, 184.987
950.161, 143.129
951.421, 177.262
952.681, 161.387
953.940, 209.502
955.200, 273.609
956.459, 240.708
957.719, 218.799
958.978, 276.882
960.236, 271.957
961.495, 312.025
962.753, 245.085
964.012, 313.138
965.270, 317.185
966.527, 367.224
967.785, 420.257
969.043, 407.289
970.300, 446.314
971.557, 482.236
972.814, 447.252
974.071, 574.263
975.327, 598.279
976.583, 575.209
977.840, 713.118
979.095, 772.982
980.351, 803.795
981.607, 923.606
982.862, 855.346
984.117, 1066.045
985.372, 1101.668
986.627, 1248.447
987.882, 1433.678
989.136, 1497.594
990.390, 1659.349
991.644, 1849.125
992.898, 2008.418
994.152, 2348.196
995.405, 2473.327
996.659, 2962.475
997.912, 3270.928
999.165, 3763.042
1000.417, 4323.006
1001.670, 4828.083
1002.922, 5282.961
1004.174, 5499.790
1005.426, 5567.742
1006.678, 5473.721
1007.930, 5216.480
1009.181, 4874.510
1010.432, 4701.021
1011.683, 4502.145
1012.934, 4319.013
1014.185, 4437.468
1015.435, 4379.684
1016.685, 4513.377
1017.935, 4632.250
1019.185, 4668.345
1020.435, 4650.945
1021.684, 4523.915
1022.934, 4320.903
1024.183, 4212.366
1025.432, 4048.976
1026.680, 3906.199
1027.929, 3990.903
1029.177, 3872.761
1030.425, 3906.593
1031.673, 3882.867
1032.921, 4078.608
1034.169, 4047.250
1035.416, 4220.978
1036.663, 4296.021
1037.911, 4660.728
1039.157, 4901.682
1040.404, 5313.640
1041.650, 5710.064
1042.897, 6387.292
1044.143, 7026.469
1045.389, 8069.820
1046.634, 9271.124
1047.880, 10821.479
1049.125, 12851.704
1050.371, 15516.554
1051.615, 18994.377
1052.860, 22930.189
1054.105, 28943.439
1055.349, 35619.672
1056.593, 43361.617
1057.837, 49845.395
1059.081, 55886.816
1060.325, 56174.332
1061.568, 53218.332
1062.812, 45640.191
1064.055, 37002.707
1065.298, 29664.766
1066.540, 22510.330
1067.783, 17620.980
1069.025, 14023.627
1070.267, 11286.332
1071.509, 9448.046
1072.751, 8015.921
1073.993, 6816.720
1075.234, 6136.634
1076.475, 5412.562
1077.716, 4985.406
1078.957, 4602.374
1080.198, 4257.364
1081.438, 4088.372
1082.679, 3748.397
1083.919, 3548.441
1085.159, 3398.502
1086.398, 3172.581
1087.638, 3105.683
1088.877, 3000.802
1090.116, 2868.939
1091.355, 2921.095
1092.594, 2837.269
1093.833, 2935.460
1095.071, 2973.674
1096.309, 3121.906
1097.547, 3273.156
1098.785, 3605.427
1100.023, 3867.718
1101.260, 4169.025
1102.498, 4135.353
1103.735, 3947.700
1104.972, 3664.066
1106.208, 3246.453
1107.445, 3002.858
1108.681, 2629.281
1109.918, 2408.724
1111.154, 2384.186
1112.389, 2330.667
1113.625, 2151.167
1114.860, 2157.685
1116.096, 2194.222
1117.331, 2277.733
1118.566, 2350.763
1119.800, 2467.860
1121.035, 2596.949
1122.269, 2806.588
1123.503, 3018.318
1124.737, 3348.680
1125.971, 3387.370
1127.205, 3818.298
1128.438, 4392.583
1129.671, 5036.791
1130.904, 6144.981
1132.137, 7360.815
1133.370, 9025.619
1134.602, 11144.931
1135.834, 12672.772
1137.066, 14286.739
1138.298, 14129.443
1139.530, 13691.931
1140.762, 12157.737
1141.993, 10615.594
1143.224, 9495.558
1144.455, 8240.272
1145.686, 7155.425
1146.917, 6302.461
1148.147, 5588.545
1149.377, 5076.123
1150.607, 4808.089
1151.837, 4432.983
1153.067, 4167.244
1154.296, 3961.329
1155.526, 3752.773
1156.755, 3736.275
1157.984, 3502.701
1159.213, 3440.930
1160.441, 3419.309
1161.670, 3329.110
1162.898, 3362.401
1164.126, 3304.703
1165.354, 3314.018
1166.581, 3478.350
1167.809, 3576.745
1169.036, 3427.141
1170.263, 3772.609
1171.490, 3717.717
1172.717, 3984.146
1173.943, 4258.148
1175.170, 4355.990
1176.396, 4667.670
1177.622, 4709.316
1178.848, 4931.959
1180.073, 5018.359
1181.299, 4761.742
1182.524, 4625.525
1183.749, 4304.447
1184.974, 3866.641
1186.199, 3471.467
1187.423, 3103.402
1188.648, 2672.032
1189.872, 2326.230
1191.096, 2028.035
1192.320, 1803.099
1193.543, 1628.343
1194.767, 1332.053
1195.990, 1245.219
1197.213, 1105.443
1198.436, 1066.658
1199.659, 1064.938
1200.881, 935.222
1202.104, 941.686
1203.326, 940.117
1204.548, 923.635
1205.770, 896.294
1206.991, 934.374
1208.213, 941.115
1209.434, 1061.404
1210.655, 961.893
1211.876, 1062.402
1213.096, 1017.916
1214.317, 1031.110
1215.537, 993.512
1216.757, 926.946
1217.977, 978.462
1219.197, 975.887
1220.417, 911.880
1221.636, 967.209
1222.855, 928.653
1224.074, 834.000
1225.293, 819.580
1226.512, 742.824
1227.731, 695.681
1228.949, 666.155
1230.167, 534.922
1231.385, 512.436
1232.603, 480.926
1233.820, 329.657
1235.038, 339.186
1236.255, 272.691
1237.472, 287.312
1238.689, 295.842
1239.906, 199.420
1241.122, 179.969
1242.338, 152.537
1243.555, 126.180
1244.771, 140.240
1245.986, 114.842
1247.202, 106.523
1248.417, 142.327
1249.633, 77.964
1250.848, 79.956
1252.063, 120.606
1253.277, 16.256
1254.492, 44.911
1255.706, 11.565
1256.920, 22.218
1258.134, 77.874
1259.348, 58.531
1260.562, 7.163
1261.775, 43.784
1262.988, 34.598
1264.201, 25.000
1265.414, 3.401
1266.627, 16.816
1267.839, 2.755
1269.052, 52.710
1270.264, 24.971
1271.476, 9.534
1272.688, 9.960
1273.899, 40.457
1275.111, 16.984
1276.322, 36.529
1277.533, 28.947
1278.744, 10.436
1279.955, 35.199
1281.165, 23.147
1282.376, 59.529
1283.586, 54.249
1284.796, 15.982
1286.006, 53.740
1287.215, 37.469
1288.425, 2.722
1289.634, 66.098
1290.843, 0.061
1292.052, 15.214
1293.261, 19.492
1294.469, 9.332
1295.678, 47.219
1296.886, 29.126
1298.094, 18.052
1299.302, 77.989
1300.509, 39.839
1301.717, 37.160
1302.924, 0.146
1304.131, 17.116
1305.338, 61.923
1306.545, 3.990
1307.752, 16.922
1308.958, 10.123
1310.164, 30.126
1311.370, 24.373
1312.576, 24.522
1313.782, 21.484
1314.987, 39.703
1316.193, 48.920
1317.398, 56.833
1318.603, 45.427
1319.807, 41.718
1321.012, 38.037
1322.216, 15.615
1323.421, 24.251
1324.625, 14.127
1325.829, 44.531
1327.032, 26.033
1328.236, 16.583
1329.439, 53.886
1330.642, 46.611
1331.845, 30.094
1333.048, 6.563
1334.251, 17.987
1335.453, 5.439
1336.656, 31.847
1337.858, 0.238
1339.060, 6.392
1340.261, 31.955
1341.463, 3.285
1342.664, 34.595
1343.866, 31.889
1345.067, 37.167
1346.267, 26.409
1347.468, 29.632
1348.669, 27.836
1349.869, 24.024
1351.069, 14.193
1352.269, 23.838
1353.469, 11.475
1354.668, 38.587
1355.868, 38.682
1357.067, 40.761
1358.266, 16.825
1359.465, 96.868
1360.664, 64.897
1361.862, 11.910
1363.061, 103.904
1364.259, 25.883
1365.457, 17.848
1366.655, 75.797
1367.852, 18.734
1369.050, 49.657
1370.247, 22.569
1371.444, 35.471
1372.641, 79.364
1373.838, 41.254
1375.035, 73.141
1376.231, 82.030
1377.427, 15.104
1378.623, 76.027
1379.819, 85.750
1381.015, 61.348
1382.211, 105.937
1383.406, 81.507
1384.601, 27.064
1385.796, 104.608
1386.991, 81.138
1388.185, 48.652
1389.380, 117.152
1390.574, 86.639
1391.768, 71.113
1392.962, 128.571
1394.156, 61.957
1395.350, 157.893
1396.543, 109.934
1397.736, 171.508
1398.929, 158.445
1400.122, 136.911
1401.315, 125.948
1402.507, 156.430
1403.700, 136.537
1404.892, 161.454
1406.084, 135.173
1407.276, 100.424
1408.467, 147.108
1409.659, 152.814
1410.850, 105.010
1412.041, 135.149
1413.232, 53.571
1414.423, 96.794
1415.614, 156.662
1416.804, 104.874
1417.994, 156.876
1419.184, 92.029
1420.374, 47.233
1421.564, 122.745
1422.753, 87.240
1423.943, 95.663
1425.132, 107.135
1426.321, 90.265
1427.510, 62.968
1428.698, 89.178
1429.887, 41.434
1431.075, 143.556
1432.263, 120.177
1433.451, 52.331
1434.639, 127.231
1435.827, 20.903
1437.014, 41.348
1438.201, 113.320
1439.388, 55.073
1440.575, 76.641
1441.762, 123.723
1442.949, 19.834
1444.135, 78.200
1445.321, 76.471
1446.507, 42.631
1447.693, 86.675
1448.879, 81.783
1450.064, 54.005
1451.250, 24.512
1452.435, 0.242
1453.620, 5.225
1454.805, 100.954
1455.989, 3.948
1457.174, 79.245
1458.358, 108.140
1459.542, 38.688
1460.726, 84.137
1461.910, 26.504
1463.093, 88.829
1464.277, 76.183
1465.460, 39.518
1466.643, 51.844
1467.826, 102.721
1469.009, 26.121
1470.191, 103.476
1471.373, 123.480
1472.556, 236.121
1473.738, 168.004
1474.919, 309.663
1476.101, 44.381
1477.283, 124.321
1478.464, 85.208
1479.645, 107.463
1480.826, 121.310
1482.007, 72.124
1483.187, 122.508
1484.368, 138.372
1485.548, 121.229
1486.728, 116.907
1487.908, 127.633
1489.088, 99.611
1490.268, 183.382
1491.447, 115.178
1492.626, 108.001
1493.805, 140.857
1494.984, 63.762
1496.163, 86.718
1497.341, 148.733
1498.520, 105.766
