##NAMES=Lazulite
##RRUFFID=R060494
##IDEAL CHEMISTRY=MgAl_2_(PO_4_)_2_(OH)_2_
##LOCALITY=Champion mine, White Mountains, Mono County, California, USA
##OWNER=RRUFF
##SOURCE=Michael Scott
##DESCRIPTION=Dark-blue coarsely crystalline mass
##STATUS=The identification of this mineral has been confirmed by X-ray diffraction and chemical analysis
##URL=rruff.info/R060494
##MEASURED CHEMISTRY=(Mg_0.67_Fe^2+^_0.33_)_Î£=1_Al_2.00_(P_1.00_O_4_)_2_(OH)_2_
##PIN_ID=M01648
##ORIENTATION=Laser parallel to b* (0 1 0). Fiducial mark perpendicular to laser is parallel to c [0 0 1]
148.0830, 0.0000000E+00
149.3140, 44.56641
150.5440, 33.93164
151.7740, 1.213623
153.0040, 24.19556
154.2340, 107.9607
155.4630, 77.91821
156.6930, 105.7021
157.9220, 4.173340
159.1510, 9.751709
160.3800, 53.86133
161.6090, 75.93677
162.8370, 105.6963
164.0660, 125.2036
165.2940, 168.2839
166.5220, 188.6101
167.7500, 199.1880
168.9780, 262.0588
170.2050, 392.2004
171.4330, 518.5571
172.6600, 568.5173
173.8870, 552.3196
175.1140, 619.5300
176.3410, 448.4014
177.5670, 303.3503
178.7940, 295.3638
180.0200, 331.4321
181.2460, 329.5471
182.4720, 395.7019
183.6980, 429.8914
184.9230, 502.2876
186.1490, 570.8557
187.3740, 777.7385
188.5990, 1017.066
189.8240, 1307.624
191.0490, 1577.121
192.2730, 1651.537
193.4980, 1442.881
194.7220, 1158.160
195.9460, 890.3804
197.1700, 682.5483
198.3940, 619.6687
199.6180, 536.7471
200.8410, 605.7856
202.0640, 609.7900
203.2870, 593.7629
204.5100, 378.7075
205.7330, 251.6262
206.9560, 245.5210
208.1780, 255.3940
209.4000, 254.2471
210.6230, 306.0815
211.8450, 334.8987
213.0660, 334.7002
214.2880, 448.4873
215.5090, 554.2612
216.7310, 566.0234
217.9520, 650.7751
219.1730, 865.5168
220.3940, 1124.040
221.6140, 1145.257
222.8350, 1215.849
224.0550, 1305.079
225.2750, 1151.765
226.4950, 1116.056
227.7150, 810.5691
228.9350, 668.2620
230.1540, 461.6021
231.3730, 323.4421
232.5930, 253.5486
233.8120, 137.6711
235.0300, 214.8093
236.2490, 206.9631
237.4680, 216.1318
238.6860, 221.9861
239.9040, 204.1528
241.1220, 204.7283
242.3400, 189.9553
243.5580, 206.1958
244.7750, 243.4490
245.9920, 289.8555
247.2100, 372.3816
248.4270, 458.2800
249.6430, 563.5798
250.8600, 718.8906
252.0770, 806.2119
253.2930, 988.5469
254.5090, 1039.894
255.7250, 921.2515
256.9410, 778.6191
258.1570, 451.9946
259.3720, 407.3811
260.5880, 242.7764
261.8030, 245.1770
263.0180, 202.5818
264.2330, 123.9907
265.4470, 189.4033
266.6620, 149.8206
267.8760, 189.2415
269.0900, 151.6670
270.3040, 215.0967
271.5180, 173.5305
272.7320, 204.9690
273.9460, 184.4121
275.1590, 265.8596
276.3720, 298.3113
277.5850, 256.7681
278.7980, 319.2305
280.0110, 437.6992
281.2230, 397.1729
282.4360, 401.6519
283.6480, 351.1379
284.8600, 315.6311
286.0720, 268.1306
287.2840, 193.6365
288.4950, 153.1489
289.7070, 27.66748
290.9180, 33.19263
292.1290, 29.27588
293.3400, 34.25342
294.5500, 19.97949
295.7610, 7.352539
296.9710, 45.12036
298.1820, 28.86011
299.3920, 9.331055
300.6020, 8.196045
301.8110, 52.24121
303.0210, 0.6616210
304.2300, 22.64697
305.4400, 58.82056
306.6490, 18.18921
307.8580, 44.95312
309.0660, 35.30029
310.2750, 25.64160
311.4830, 8.976074
312.6920, 14.29980
313.9000, 21.38354
315.1080, 101.0781
316.3160, 32.78198
317.5230, 56.49438
318.7310, 186.2144
319.9380, 189.9414
321.1450, 262.6746
322.3520, 328.4138
323.5590, 288.1587
324.7650, 206.9087
325.9720, 181.6636
327.1780, 184.4233
328.3840, 186.1875
329.5900, 165.9558
330.7960, 81.72778
332.0020, 135.5020
333.2070, 131.2773
334.4120, 221.0515
335.6170, 103.8240
336.8220, 107.5947
338.0270, 111.3638
339.2320, 174.1321
340.4360, 208.8994
341.6410, 146.6663
342.8450, 219.4329
344.0490, 201.1997
345.2530, 179.9663
346.4560, 196.7329
347.6600, 165.5002
348.8630, 160.6970
350.0660, 155.0364
351.2690, 144.8057
352.4720, 104.5759
353.6750, 114.3469
354.8770, 150.1191
356.0790, 182.1665
357.2820, 126.9412
358.4840, 102.7166
359.6860, 122.7356
360.8870, 155.5139
362.0890, 131.2937
363.2900, 132.0754
364.4910, 123.2368
365.6920, 118.6255
366.8930, 91.38330
368.0940, 93.13818
369.2940, 82.22290
370.4950, 83.93457
371.6950, 57.63525
372.8950, 31.29956
374.0950, 100.9258
375.2940, 72.53735
376.4940, 159.1448
377.6930, 61.75684
378.8930, 28.37305
380.0920, 28.99365
381.2910, 91.61816
382.4890, 57.24707
383.6880, 38.87988
384.8860, 93.51685
386.0840, 64.90771
387.2820, 75.80273
388.4800, 58.45142
389.6780, 63.10400
390.8760, 35.76050
392.0730, 99.42090
393.2700, 37.08472
394.4670, 86.75195
395.6640, 91.42310
396.8610, 27.09790
398.0580, 69.77588
399.2540, 38.46069
400.4500, 86.14868
401.6460, 146.8484
402.8420, 157.5437
404.0380, 211.2419
405.2340, 270.9438
406.4290, 341.6492
407.6240, 567.5955
408.8190, 644.3098
410.0140, 959.0464
411.2090, 1301.797
412.4040, 1649.552
413.5980, 1779.311
414.7920, 1485.095
415.9870, 1068.877
417.1810, 567.8921
418.3740, 425.7070
419.5680, 169.5330
420.7610, 188.3735
421.9550, 239.2258
423.1480, 137.0825
424.3410, 155.9478
425.5340, 148.8333
426.7260, 175.7046
427.9190, 173.5786
429.1110, 230.4556
430.3030, 124.3362
431.4950, 155.2200
432.6870, 39.10645
433.8790, 84.99536
435.0700, 51.88745
436.2610, 83.89502
437.4530, 26.79199
438.6440, 2.398438
439.8340, 82.79883
441.0250, 70.70337
442.2160, 60.78491
443.4060, 75.09839
444.5960, 80.01416
445.7860, 1.651123
446.9760, 1.437012
448.1660, 54.05664
449.3550, 50.22168
450.5450, 16.09058
451.7340, 44.30981
452.9230, 61.90283
454.1120, 90.10596
455.3000, 48.35986
456.4890, 36.28345
457.6770, 67.19775
458.8650, 130.1147
460.0530, 174.0337
461.2410, 131.9553
462.4290, 251.8792
463.6170, 101.8052
464.8040, 251.7336
465.9910, 214.6646
467.1780, 277.5972
468.3650, 351.5320
469.5520, 399.4690
470.7390, 453.4080
471.9250, 680.3491
473.1110, 736.2922
474.2970, 937.2375
475.4830, 988.1851
476.6690, 1231.135
477.8540, 1272.086
479.0400, 1233.040
480.2250, 1124.995
481.4100, 940.9531
482.5950, 724.9128
483.7800, 616.8745
484.9650, 405.8384
486.1490, 334.8042
487.3330, 259.7720
488.5170, 166.7417
489.7010, 158.7134
490.8850, 105.6870
492.0690, 75.18384
493.2520, 61.64038
494.4350, 47.62012
495.6190, 61.60156
496.8020, 84.58472
497.9840, 11.42993
499.1670, 47.55420
500.3490, 4.540283
501.5320, 10.47168
502.7140, 21.51538
503.8960, 22.50439
505.0780, 37.86938
506.2590, 52.97974
507.4410, 50.48193
508.6220, 61.47827
509.8030, 19.47607
510.9840, 13.52441
512.1650, 35.47363
513.3460, 12.47388
514.5260, 72.47583
515.7070, 105.4800
516.8870, 82.64575
518.0670, 95.60010
519.2470, 90.50732
520.4260, 42.52124
521.6060, 127.5374
522.7850, 78.55591
523.9650, 65.57617
525.1440, 137.5991
526.3220, 143.6245
527.5010, 93.65308
528.6800, 36.68970
529.8580, 71.72876
531.0360, 110.7712
532.2140, 8.815918
533.3920, 57.86255
534.5700, 82.91113
535.7480, 80.96289
536.9250, 24.01660
538.1020, 25.07275
539.2790, 42.13208
540.4560, 39.82983
541.6330, 30.89478
542.8100, 3.8086001E-02
543.9860, 24.13696
545.1620, 87.20728
546.3380, 41.27954
547.5140, 8.393555
548.6900, 10.43506
549.8660, 57.14771
551.0410, 53.68237
552.2160, 51.27832
553.3910, 48.59570
554.5660, 12.78027
555.7410, 0.2741700
556.9160, 30.81055
558.0900, 6.618164
559.2650, 13.28418
560.4390, 12.18481
561.6130, 36.96802
562.7860, 69.05420
563.9600, 45.38257
565.1340, 29.82275
566.3070, 5.911133
567.4800, 87.00000
568.6530, 115.0886
569.8260, 95.17700
570.9980, 54.51880
572.1710, 105.6067
573.3430, 95.72681
574.5150, 96.81519
575.6870, 88.90991
576.8590, 125.0044
578.0310, 123.1069
579.2030, 143.2097
580.3740, 87.31543
581.5450, 101.5063
582.7160, 127.5347
583.8870, 83.65186
585.0580, 109.7712
586.2280, 96.89380
587.3990, 80.02954
588.5690, 37.16479
589.7390, 1.694580
590.9090, 26.46094
592.0780, 6.969238
593.2480, 73.19897
594.4170, 19.37695
595.5870, 55.56177
596.7560, 152.7485
597.9250, 98.93970
599.0930, 161.1301
600.2620, 106.3193
601.4300, 267.5078
602.5990, 232.6951
603.7670, 200.8879
604.9350, 240.0798
606.1020, 392.2708
607.2700, 291.4597
608.4370, 340.6479
609.6050, 310.8345
610.7720, 311.0344
611.9390, 314.2329
613.1060, 341.4299
614.2720, 275.6367
615.4390, 295.8428
616.6050, 239.0476
617.7710, 279.2507
618.9370, 309.4524
620.1030, 298.6523
621.2680, 298.8506
622.4340, 325.0469
623.5990, 348.2415
624.7640, 265.4341
625.9290, 266.6260
627.0940, 343.8159
628.2590, 339.0039
629.4230, 387.1897
630.5880, 365.3735
631.7520, 353.5554
632.9160, 359.7363
634.0800, 416.9153
635.2440, 357.0918
636.4070, 414.2664
637.5700, 370.4382
638.7340, 394.3337
639.8970, 416.5015
641.0600, 561.6670
642.2220, 506.5884
643.3850, 578.7490
644.5470, 681.9072
645.7090, 624.0625
646.8710, 716.2156
648.0330, 655.3660
649.1950, 649.5137
650.3570, 689.6584
651.5180, 625.4521
652.6790, 544.5923
653.8400, 512.1470
655.0010, 409.8721
656.1620, 378.0039
657.3230, 310.1331
658.4830, 253.2590
659.6430, 269.3821
660.8030, 214.5032
661.9630, 217.6206
663.1230, 135.7349
664.2830, 186.8462
665.4420, 202.0049
666.6020, 160.3787
667.7610, 156.7944
668.9200, 102.0310
670.0780, 73.38184
671.2370, 96.49463
672.3960, 76.61060
673.5540, 52.72559
674.7120, 91.04150
675.8700, 63.14941
677.0280, 59.35889
678.1860, 122.7930
679.3430, 0.7758790
680.5000, 68.36182
681.6580, 54.47339
682.8150, 21.57227
683.9710, 49.67456
685.1280, 48.79053
686.2850, 39.14453
687.4410, 26.25195
688.5970, 2.492432
689.7530, 60.41113
690.9090, 29.35669
692.0650, 11.75879
693.2200, 26.78394
694.3760, 43.19604
695.5310, 4.782227
696.6860, 28.24097
697.8410, 49.50952
698.9960, 17.50269
700.1500, 31.46875
701.3050, 20.26831
702.4590, 13.33545
703.6130, 9.822021
704.7670, 60.16479
705.9210, 54.11987
707.0740, 75.93530
708.2280, 122.7458
709.3810, 13.55103
710.5340, 58.34912
711.6870, 47.32422
712.8400, 122.1116
713.9930, 85.54395
715.1450, 95.32104
716.2970, 169.0928
717.4490, 94.08765
718.6010, 160.8481
719.7530, 98.60376
720.9050, 85.35376
722.0560, 151.0986
723.2080, 175.8374
724.3590, 173.4263
725.5100, 157.1538
726.6610, 163.8918
727.8110, 145.7068
728.9620, 151.2847
730.1120, 211.0020
731.2620, 266.2981
732.4120, 262.1118
733.5620, 303.8137
734.7120, 438.5095
735.8620, 315.2529
737.0110, 383.0444
738.1600, 401.7212
739.3090, 559.4197
740.4580, 539.0837
741.6070, 570.2656
742.7550, 554.9165
743.9040, 521.5615
745.0520, 538.1995
746.2000, 493.8311
747.3480, 492.4561
748.4960, 426.4836
749.6430, 338.0947
750.7910, 324.6997
751.9380, 294.8682
753.0850, 260.8311
754.2320, 256.3101
755.3790, 232.8867
756.5260, 208.4563
757.6720, 215.0186
758.8180, 135.5740
759.9650, 145.1218
761.1110, 106.6628
762.2560, 119.2456
763.4020, 72.97388
764.5470, 163.4932
765.6930, 179.0051
766.8380, 192.5100
767.9830, 209.0073
769.1280, 90.50342
770.2720, 217.2336
771.4170, 98.76270
772.5610, 121.2344
773.7060, 112.6985
774.8500, 110.1521
775.9930, 84.59839
777.1370, 106.1631
778.2810, 102.5957
779.4240, 96.02148
780.5670, 108.6465
781.7100, 94.90454
782.8530, 115.2947
783.9960, 88.69165
785.1390, 81.08105
786.2810, 101.4629
787.4230, 72.83740
788.5650, 111.3286
789.7070, 117.7749
790.8490, 108.2024
791.9910, 69.54858
793.1320, 75.88721
794.2730, 72.91016
795.4140, 79.54175
796.5550, 93.91138
797.6960, 84.34814
798.8370, 101.6492
799.9770, 89.43530
801.1180, 108.2278
802.2580, 64.38379
803.3980, 29.67896
804.5380, 0.9702150
805.6770, 45.27051
806.8170, 30.54980
807.9560, 85.76196
809.0950, 152.4353
810.2340, 124.2522
811.3730, 35.45044
812.5120, 119.6565
813.6500, 50.91992
814.7890, 26.00781
815.9270, 30.36475
817.0650, 74.68042
818.2030, 110.5908
819.3400, 126.7231
820.4780, 130.7412
821.6150, 104.9302
822.7530, 40.03760
823.8900, 150.1736
825.0270, 31.97412
826.1630, 137.5471
827.3000, 100.1616
828.4360, 58.58325
829.5730, 78.40063
830.7090, 91.34448
831.8450, 102.9717
832.9800, 108.5500
834.1160, 123.0859
835.2520, 46.28223
836.3870, 70.47363
837.5220, 27.94653
838.6570, 52.95874
839.7920, 107.0457
840.9260, 27.66772
842.0610, 28.63403
843.1950, 144.5920
844.3290, 64.54297
845.4630, 159.4866
846.5970, 83.17041
847.7310, 24.10083
848.8640, 72.99023
849.9980, 11.09497
851.1310, 69.79883
852.2640, 98.68555
853.3970, 19.56567
854.5300, 158.4370
855.6620, 74.30127
856.7940, 92.15942
857.9270, 65.01099
859.0590, 58.85571
860.1910, 0.6943360
861.3220, 92.51807
862.4540, 53.33545
863.5850, 33.14673
864.7170, 166.9507
865.8480, 83.74902
866.9790, 158.5410
868.1090, 30.32886
869.2400, 88.10962
870.3710, 104.8835
871.5010, 41.65186
872.6310, 28.41333
873.7610, 99.16772
874.8910, 46.91577
876.0200, 127.6575
877.1500, 11.60669
878.2790, 144.1094
879.4080, 76.81934
880.5370, 72.52344
881.6660, 110.2214
882.7950, 57.91382
883.9230, 42.39990
885.0520, 56.25146
886.1800, 58.89648
887.3080, 29.46411
888.4360, 13.14746
889.5640, 33.75122
890.6910, 66.34888
891.8180, 71.76294
892.9460, 83.66211
894.0730, 58.10767
895.2000, 84.68311
896.3260, 48.25269
897.4530, 33.81714
898.5790, 10.37549
899.7060, 51.92676
900.8320, 46.47290
901.9580, 51.01318
903.0830, 47.54858
904.2090, 41.42261
905.3340, 6.603760
906.4600, 29.12109
907.5850, 40.63306
908.7100, 40.13989
909.8350, 88.64185
910.9590, 45.13867
912.0840, 11.63062
913.2080, 69.11670
914.3320, 80.59790
915.4560, 94.07446
916.5800, 30.54614
917.7040, 35.01318
918.8270, 84.47534
919.9510, 36.93286
921.0740, 74.38599
922.1970, 44.83472
923.3200, 7.278809
924.4430, 13.71729
925.5650, 16.00391
926.6870, 53.57935
927.8100, 36.99683
928.9320, 77.41724
930.0540, 44.83325
931.1750, 18.24536
932.2970, 3.653076
933.4180, 84.05518
934.5400, 60.45288
935.6610, 50.84717
936.7820, 41.76196
937.9030, 12.43872
939.0230, 5.657959
940.1440, 38.70508
941.2640, 13.92432
942.3840, 12.97754
943.5040, 20.65381
944.6240, 7.346191
945.7440, 38.95264
946.8630, 18.04297
947.9820, 42.33496
949.1020, 68.51758
950.2210, 65.53027
951.3390, 27.60059
952.4580, 11.39551
953.5770, 42.82568
954.6950, 22.04346
955.8130, 64.74023
956.9310, 81.43701
958.0490, 0.3701170
959.1670, 13.45752
960.2840, 32.33252
961.4020, 28.49512
962.5190, 15.32568
963.6360, 15.77002
964.7530, 47.94824
965.8700, 73.12549
966.9860, 74.49902
968.1030, 23.50488
969.2190, 46.70312
970.3350, 31.82227
971.4510, 21.95850
972.5670, 2.076172
973.6830, 8.741211
974.7980, 14.48438
975.9140, 66.56592
977.0290, 19.65527
978.1440, 38.89502
979.2590, 10.13379
980.3730, 17.42725
981.4880, 50.60938
982.6020, 42.66406
983.7160, 52.90234
984.8300, 75.48877
985.9440, 54.72461
987.0580, 133.9590
988.1710, 64.97656
989.2850, 84.22461
990.3980, 84.47949
991.5110, 149.7329
992.6240, 172.9863
993.7370, 224.2412
994.8490, 256.6519
995.9620, 270.9180
997.0740, 332.1699
998.1860, 298.3379
999.2980, 319.6045
1000.410, 351.8755
1001.522, 370.1455
1002.633, 423.3120
1003.744, 385.5840
1004.856, 435.8564
1005.966, 364.0742
1007.077, 377.2383
1008.188, 295.5103
1009.298, 308.7554
1010.409, 386.0283
1011.519, 242.7778
1012.629, 267.0518
1013.739, 264.3262
1014.849, 323.6011
1015.958, 296.8765
1017.068, 331.1533
1018.177, 323.0205
1019.286, 296.2983
1020.395, 304.5771
1021.503, 287.2866
1022.612, 293.3633
1023.720, 239.5830
1024.829, 298.8667
1025.937, 293.1523
1027.045, 231.4390
1028.153, 218.7275
1029.260, 226.9326
1030.368, 268.3096
1031.475, 272.5542
1032.582, 317.6479
1033.689, 369.9468
1034.796, 263.2471
1035.903, 248.5503
1037.009, 314.8550
1038.115, 406.1553
1039.222, 303.2163
1040.328, 357.4731
1041.433, 426.7822
1042.539, 478.0933
1043.645, 586.8989
1044.750, 739.7295
1045.855, 843.9263
1046.960, 996.2539
1048.065, 1198.584
1049.170, 1306.917
1050.275, 1546.223
1051.379, 1785.551
1052.483, 2098.892
1053.587, 2475.234
1054.691, 2908.580
1055.795, 3138.933
1056.899, 3186.165
1058.002, 3111.438
1059.105, 3070.727
1060.209, 2807.092
1061.312, 2456.458
1062.414, 2209.828
1063.517, 1724.202
1064.620, 1483.525
1065.722, 1195.775
1066.824, 928.1577
1067.926, 874.5430
1069.028, 658.9346
1070.130, 597.4521
1071.231, 551.8252
1072.333, 446.1372
1073.434, 405.5493
1074.535, 402.9180
1075.636, 335.3496
1076.737, 348.3145
1077.837, 383.1382
1078.938, 446.5767
1080.038, 330.0020
1081.138, 310.4512
1082.238, 334.9048
1083.338, 377.1675
1084.437, 381.8315
1085.537, 450.5317
1086.636, 388.0059
1087.735, 352.4844
1088.834, 369.8940
1089.933, 411.3818
1091.032, 414.7979
1092.130, 418.4902
1093.228, 418.9956
1094.327, 423.5054
1095.425, 452.9238
1096.523, 522.6650
1097.620, 516.1904
1098.718, 573.7207
1099.815, 596.2559
1100.912, 644.7959
1102.009, 586.3403
1103.106, 548.8989
1104.203, 499.2915
1105.300, 440.1050
1106.396, 350.0894
1107.492, 368.5693
1108.589, 307.1538
1109.685, 239.7441
1110.780, 350.3389
1111.876, 254.7925
1112.971, 310.7021
1114.067, 173.3115
1115.162, 261.2690
1116.257, 206.8892
1117.352, 242.5205
1118.446, 249.1577
1119.541, 232.5503
1120.635, 215.7979
1121.729, 242.0679
1122.823, 222.7246
1123.917, 192.3848
1125.011, 287.3979
1126.105, 251.9990
1127.198, 287.6772
1128.291, 339.6509
1129.384, 351.3384
1130.477, 414.0298
1131.570, 472.7788
1132.663, 643.2510
1133.755, 605.3223
1134.847, 692.0312
1135.940, 745.7568
1137.031, 703.4868
1138.123, 655.2217
1139.215, 713.9614
1140.306, 734.7129
1141.398, 567.4683
1142.489, 567.2285
1143.580, 538.0000
1144.671, 449.7754
1145.761, 436.5552
1146.852, 441.3394
1147.942, 365.1274
1149.033, 337.9204
1150.123, 311.7324
1151.213, 284.5493
1152.302, 292.6157
1153.392, 295.1558
1154.481, 302.0537
1155.571, 325.9053
1156.660, 298.7617
1157.749, 294.6226
1158.837, 317.4883
1159.926, 271.3584
1161.014, 332.3008
1162.103, 297.1792
1163.191, 289.0620
1164.279, 243.2476
1165.367, 305.1401
1166.454, 288.0386
1167.542, 337.9414
1168.629, 352.8486
1169.716, 321.7598
1170.803, 363.6768
1171.890, 296.6060
1172.977, 368.5396
1174.064, 421.4790
1175.150, 367.4229
1176.236, 415.3716
1177.322, 403.1450
1178.408, 360.1035
1179.494, 384.7891
1180.580, 401.0342
1181.665, 392.0059
1182.750, 300.9814
1183.835, 320.9619
1184.920, 278.9453
1186.005, 261.0864
1187.090, 227.0781
1188.174, 183.0747
1189.259, 173.6997
1190.343, 155.9204
1191.427, 147.0898
1192.511, 147.1025
1193.594, 142.1201
1194.678, 140.1406
1195.761, 109.1660
1196.844, 103.1963
1197.928, 62.22949
1199.010, 101.8813
1200.093, 146.9297
1201.176, 137.0381
1202.258, 99.05322
1203.340, 122.1230
1204.423, 115.1973
1205.504, 19.27441
1206.586, 124.3604
1207.668, 73.80078
1208.749, 119.9038
1209.831, 88.00928
1210.912, 64.52002
1211.993, 144.6548
1213.074, 129.7715
1214.154, 92.90918
1215.235, 114.0591
1216.315, 92.21533
1217.395, 100.3750
1218.475, 88.53711
1219.555, 80.72070
1220.635, 73.90625
1221.715, 158.0967
1222.794, 49.29346
1223.873, 103.4941
1224.952, 24.69775
1226.031, 12.90869
1227.110, 44.12256
1228.189, 20.33887
1229.267, 58.55908
1230.345, 48.80957
1231.424, 40.03467
1232.502, 9.311035
1233.579, 27.54102
1234.657, 9.220703
1235.735, 19.98242
1236.812, 55.74756
1237.889, 47.46582
1238.966, 32.68018
1240.043, 98.89746
1241.120, 15.11719
1242.196, 5.660645
1243.273, 36.65674
1244.349, 10.11865
1245.425, 43.10449
1246.501, 51.33008
1247.577, 83.55908
1248.652, 51.20898
1249.728, 14.99951
1250.803, 32.79395
1251.878, 46.39990
1252.953, 12.59473
1254.028, 9.208008
1255.103, 53.01270
1256.177, 54.15967
1257.251, 7.666504
1258.326, 55.50586
1259.400, 113.6797
1260.473, 18.14355
1261.547, 19.02637
1262.621, 8.801758
1263.694, 41.36816
1264.767, 4.374023
1265.840, 56.54736
1266.913, 11.72168
1267.986, 51.89795
1269.059, 35.72656
1270.131, 43.31738
1271.203, 42.08545
1272.275, 42.26660
1273.347, 55.44922
1274.419, 49.93018
1275.491, 36.82422
1276.562, 59.01367
1277.634, 59.20410
1278.705, 87.39600
1279.776, 41.58936
1280.847, 90.78369
1281.917, 105.9810
1282.988, 23.43750
1284.058, 59.63721
1285.128, 32.83789
1286.199, 39.03955
1287.268, 23.30811
1288.338, 129.5098
1289.408, 1.710449
1290.477, 27.90869
1291.546, 110.1094
1292.616, 2.689941
1293.685, 74.50977
1294.753, 89.96289
1295.822, 80.16602
1296.890, 79.37061
1297.959, 56.57715
1299.027, 33.77979
1300.095, 186.8354
1301.163, 106.0415
1302.231, 141.6504
1303.298, 28.85254
1304.365, 143.0552
1305.433, 8.740723
1306.500, 94.78564
1307.567, 40.98730
1308.633, 112.1904
1309.700, 87.39062
1310.766, 159.5918
1311.833, 35.79297
1312.899, 93.99561
1313.965, 12.80859
1315.031, 114.3794
1316.096, 123.5679
1317.162, 168.7568
1318.227, 154.9468
