##NAMES=Lazulite
##RRUFFID=R060494
##IDEAL CHEMISTRY=MgAl_2_(PO_4_)_2_(OH)_2_
##LOCALITY=Champion mine, White Mountains, Mono County, California, USA
##OWNER=RRUFF
##SOURCE=Michael Scott
##DESCRIPTION=Dark-blue coarsely crystalline mass
##STATUS=The identification of this mineral has been confirmed by X-ray diffraction and chemical analysis
##URL=rruff.info/R060494
##MEASURED CHEMISTRY=(Mg_0.67_Fe^2+^_0.33_)_Î£=1_Al_2.00_(P_1.00_O_4_)_2_(OH)_2_
##PIN_ID=M01007
##ORIENTATION=Laser parallel to c* (0 0 1). Fiducial mark perpendicular to laser is parallel to -a [-1 0 0]
127.1410, 0.0000000E+00
128.3740, 8.866699
129.6080, 38.42334
130.8400, 83.52588
132.0730, 80.61523
133.3060, 166.3716
134.5380, 54.70508
135.7700, 171.6436
137.0020, 207.4111
138.2340, 376.0244
139.4660, 428.0967
140.6980, 528.4683
141.9290, 648.3467
143.1600, 668.8506
144.3910, 679.3994
145.6220, 653.4819
146.8530, 698.6689
148.0830, 684.6987
149.3140, 654.5684
150.5440, 763.9917
151.7740, 652.6514
153.0040, 697.2866
154.2340, 658.6768
155.4630, 745.6362
156.6930, 829.0068
157.9220, 751.6514
159.1510, 681.4531
160.3800, 809.3076
161.6090, 929.1255
162.8370, 1118.827
164.0660, 1586.339
165.2940, 1671.590
166.5220, 1928.553
167.7500, 2172.479
168.9780, 2366.185
170.2050, 2887.645
171.4330, 3353.866
172.6600, 3987.366
173.8870, 4360.132
175.1140, 4487.147
176.3410, 4423.401
177.5670, 4486.886
178.7940, 4972.586
180.0200, 5754.496
181.2460, 7499.604
182.4720, 9740.903
183.6980, 11914.39
184.9230, 13393.05
186.1490, 14015.88
187.3740, 15860.87
188.5990, 19182.01
189.8240, 22995.30
191.0490, 26040.73
192.2730, 27282.30
193.4980, 24396.99
194.7220, 19117.81
195.9460, 13344.74
197.1700, 9028.793
198.3940, 6183.952
199.6180, 4632.214
200.8410, 3726.496
202.0640, 3235.716
203.2870, 2889.206
204.5100, 2304.145
205.7330, 1856.562
206.9560, 1709.386
208.1780, 1565.956
209.4000, 1592.502
210.6230, 1505.641
211.8450, 1539.907
213.0660, 1467.267
214.2880, 1603.158
215.5090, 1657.628
216.7310, 1637.149
217.9520, 1695.722
219.1730, 1698.349
220.3940, 1693.031
221.6140, 1632.169
222.8350, 1562.565
224.0550, 1395.418
225.2750, 1243.324
226.4950, 1000.286
227.7150, 655.3008
228.9350, 371.3687
230.1540, 371.4888
231.3730, 263.6597
232.5930, 51.88037
233.8120, 80.14990
235.0300, 64.46680
236.2490, 118.8306
237.4680, 153.2412
238.6860, 355.6948
239.9040, 577.1919
241.1220, 684.7314
242.3400, 969.3057
243.5580, 1459.907
244.7750, 2126.535
245.9920, 2600.188
247.2100, 3106.864
248.4270, 3580.562
249.6430, 4065.283
250.8600, 4990.026
252.0770, 5927.790
253.2930, 6685.574
254.5090, 6909.378
255.7250, 6329.202
256.9410, 5233.043
258.1570, 3779.903
259.3720, 2901.779
260.5880, 2262.673
261.8030, 1707.583
263.0180, 1445.507
264.2330, 1212.447
265.4470, 898.4009
266.6620, 874.3691
267.8760, 746.3535
269.0900, 848.3530
270.3040, 691.2900
271.5180, 603.4033
272.7320, 507.4546
273.9460, 558.8394
275.1590, 554.5698
276.3720, 556.4238
277.5850, 526.9292
278.7980, 547.5322
280.0110, 614.4653
281.2230, 466.4575
282.4360, 496.5308
283.6480, 337.2139
284.8600, 252.5913
286.0720, 111.2241
287.2840, 132.5352
288.4950, 135.2783
289.7070, 246.0171
290.9180, 343.9502
292.1290, 222.4932
293.3400, 265.1357
294.5500, 120.6035
295.7610, 156.3447
296.9710, 64.43555
298.1820, 117.2437
299.3920, 100.5864
300.6020, 8.835938
301.8110, 56.00537
303.0210, 115.1250
304.2300, 141.1465
305.4400, 242.2500
306.6490, 252.4297
307.8580, 419.6821
309.0660, 525.0015
310.2750, 805.3857
311.4830, 1050.829
312.6920, 1253.330
313.9000, 1511.884
315.1080, 1807.478
316.3160, 2010.103
317.5230, 2283.755
318.7310, 2715.434
319.9380, 3258.138
321.1450, 3613.866
322.3520, 3908.367
323.5590, 4222.919
324.7650, 4412.183
325.9720, 4701.996
327.1780, 5048.826
328.3840, 5363.674
329.5900, 5794.539
330.7960, 6456.419
332.0020, 7187.313
333.2070, 8356.224
334.4120, 9224.146
335.6170, 10695.08
336.8220, 12172.03
338.0270, 13755.98
339.2320, 15577.95
340.4360, 17150.93
341.6410, 18383.91
342.8450, 20166.91
344.0490, 21194.91
345.2530, 22212.92
346.4560, 22016.94
347.6600, 21114.97
348.8630, 18884.99
350.0660, 16507.03
351.2690, 14108.06
352.4720, 11766.10
353.6750, 10089.07
354.8770, 8493.836
356.0790, 7244.445
357.2820, 6669.969
358.4840, 6083.437
359.6860, 5756.869
360.8870, 5563.302
362.0890, 5255.736
363.2900, 5197.171
364.4910, 5492.606
365.6920, 5769.042
366.8930, 6153.477
368.0940, 6687.911
369.2940, 7260.347
370.4950, 8005.780
371.6950, 8803.211
372.8950, 9611.639
374.0950, 10145.07
375.2940, 10888.49
376.4940, 11328.92
377.6930, 11433.34
378.8930, 11349.75
380.0920, 10503.17
381.2910, 9163.579
382.4890, 8075.983
383.6880, 6620.385
384.8860, 5477.783
386.0840, 4321.176
387.2820, 3711.564
388.4800, 3166.948
389.6780, 2615.325
390.8760, 2449.698
392.0730, 2185.065
393.2700, 1829.427
394.4670, 1505.783
395.6640, 1238.133
396.8610, 1284.477
398.0580, 969.8145
399.2540, 921.1543
400.4500, 715.4951
401.6460, 792.8413
402.8420, 655.2114
404.0380, 683.6064
405.2340, 798.0303
406.4290, 945.4819
407.6240, 842.9575
408.8190, 931.4590
410.0140, 1092.986
411.2090, 1119.542
412.4040, 1348.126
413.5980, 1298.728
414.7920, 1117.341
415.9870, 628.9541
417.1810, 385.5591
418.3740, 72.19678
419.5680, 40.16064
420.7610, 69.56982
421.9550, 160.0503
423.1480, 154.6514
424.3410, 162.2407
425.5340, 187.2261
426.7260, 125.2222
427.9190, 130.3330
429.1110, 111.5620
430.3030, 132.9038
431.4950, 131.4829
432.6870, 113.7222
433.8790, 78.78174
435.0700, 91.36621
436.2610, 58.14453
437.4530, 48.34229
438.6440, 26.89258
439.8340, 103.7637
441.0250, 27.31201
442.2160, 226.5835
443.4060, 133.5112
444.5960, 191.8657
445.7860, 113.7007
446.9760, 227.5259
448.1660, 287.3438
449.3550, 376.1543
450.5450, 491.5181
451.7340, 593.7520
452.9230, 735.5386
454.1120, 889.3169
455.3000, 1044.085
456.4890, 1218.473
457.6770, 1405.595
458.8650, 1581.335
460.0530, 1777.066
461.2410, 1960.002
462.4290, 2257.497
463.6170, 2319.198
464.8040, 2545.888
465.9910, 2646.566
467.1780, 2874.236
468.3650, 3186.895
469.5520, 3419.543
470.7390, 3696.180
471.9250, 3920.807
473.1110, 4255.423
474.2970, 4646.028
475.4830, 4868.625
476.6690, 4912.208
477.8540, 4629.781
479.0400, 4387.345
480.2250, 3843.898
481.4100, 3081.440
482.5950, 2513.972
483.7800, 1888.492
484.9650, 1479.003
486.1490, 1022.503
487.3330, 733.9917
488.5170, 615.4697
489.7010, 385.9365
490.8850, 311.3926
492.0690, 291.8389
493.2520, 186.2734
494.4350, 196.6978
495.6190, 205.1113
496.8020, 257.5151
497.9840, 244.9087
499.1670, 329.2939
500.3490, 342.6709
501.5320, 420.0405
502.7140, 526.4014
503.8960, 428.7544
505.0780, 565.1001
506.2590, 732.4380
507.4410, 679.7686
508.6220, 925.0908
509.8030, 903.4053
510.9840, 954.7129
512.1650, 1132.013
513.3460, 1178.305
514.5260, 1301.590
515.7070, 1345.868
516.8870, 1410.138
518.0670, 1467.926
519.2470, 1482.543
520.4260, 1521.904
521.6060, 1472.145
522.7850, 1433.378
523.9650, 1347.604
525.1440, 1394.822
526.3220, 1462.034
527.5010, 1405.239
528.6800, 1348.436
529.8580, 1377.625
531.0360, 1259.810
532.2140, 1349.984
533.3920, 1227.154
534.5700, 1226.316
535.7480, 1303.473
536.9250, 1262.621
538.1020, 1277.765
539.2790, 1134.900
540.4560, 1053.535
541.6330, 961.8135
542.8100, 836.2427
543.9860, 779.1504
545.1620, 688.3335
546.3380, 634.4824
547.5140, 560.1577
548.6900, 527.2988
549.8660, 451.5605
551.0410, 427.4351
552.2160, 387.2686
553.3910, 370.1167
554.5660, 409.8789
555.7410, 366.0469
556.9160, 428.3726
558.0900, 493.3677
559.2650, 445.3521
560.4390, 614.1445
561.6130, 566.1104
562.7860, 696.2705
563.9600, 529.0200
565.1340, 510.0127
566.3070, 695.4385
567.4800, 693.2100
568.6530, 738.7490
569.8260, 645.9292
570.9980, 779.1548
572.1710, 703.0430
573.3430, 811.1597
574.5150, 760.4961
575.6870, 790.2310
576.8590, 770.7637
578.0310, 756.4106
579.2030, 784.3608
580.3740, 705.5737
581.5450, 621.2695
582.7160, 529.8076
583.8870, 340.9961
585.0580, 323.1982
586.2280, 293.4092
587.3990, 161.4365
588.5690, 202.6484
589.7390, 213.8599
590.9090, 305.0728
592.0780, 292.2847
593.2480, 452.4980
594.4170, 628.7134
595.5870, 777.9287
596.7560, 1077.144
597.9250, 1348.362
599.0930, 1696.581
600.2620, 2104.801
601.4300, 2626.023
602.5990, 3012.247
603.7670, 3637.472
604.9350, 4047.699
606.1020, 4413.928
607.2700, 4803.167
608.4370, 5041.436
609.6050, 5372.711
610.7720, 5461.994
611.9390, 5772.282
613.1060, 5688.602
614.2720, 5716.924
615.4390, 5446.250
616.6050, 5332.610
617.7710, 4900.002
618.9370, 4719.423
620.1030, 4597.850
621.2680, 4694.278
622.4340, 4904.720
623.5990, 5086.164
624.7640, 5401.606
625.9290, 5864.051
627.0940, 6153.495
628.2590, 6671.940
629.4230, 7058.386
630.5880, 7502.841
631.7520, 7766.314
632.9160, 7706.811
634.0800, 7573.311
635.2440, 7202.831
636.4070, 6724.355
637.5700, 6274.879
638.7340, 5790.407
639.8970, 5249.934
641.0600, 4990.459
642.2220, 4588.985
643.3850, 4136.511
644.5470, 3844.054
645.7090, 3510.617
646.8710, 3286.188
648.0330, 2707.760
649.1950, 2327.354
650.3570, 1911.948
651.5180, 1744.567
652.6790, 1420.199
653.8400, 1228.829
655.0010, 1026.462
656.1620, 880.1064
657.3230, 721.7480
658.4830, 712.3945
659.6430, 618.0381
660.8030, 585.6797
661.9630, 490.3320
663.1230, 552.9814
664.2830, 501.6279
665.4420, 412.2920
666.6020, 440.9536
667.7610, 355.6187
668.9200, 358.2861
670.0780, 384.9756
671.2370, 321.6895
672.3960, 304.4233
673.5540, 250.1621
674.7120, 221.9141
675.8700, 151.6650
677.0280, 95.71875
678.1860, 66.06055
679.3430, 21.04004
680.5000, 15.27832
681.6580, 33.52197
682.8150, 104.7944
683.9710, 109.1089
685.1280, 124.4897
686.2850, 116.9482
687.4410, 108.4814
688.5970, 110.4932
689.7530, 116.7397
690.9090, 123.4741
692.0650, 120.2861
693.2200, 87.27295
694.3760, 62.12061
695.5310, 17.11133
696.6860, 43.87549
697.8410, 52.85693
698.9960, 148.7261
700.1500, 165.8096
701.3050, 301.8486
702.4590, 395.8940
703.6130, 431.0005
704.7670, 619.1660
705.9210, 664.3921
707.0740, 776.6870
708.2280, 970.0342
709.3810, 985.4346
710.5340, 1082.884
711.6870, 1208.389
712.8400, 1377.946
713.9930, 1516.552
715.1450, 1610.220
716.2970, 1599.901
717.4490, 1937.611
718.6010, 2019.346
719.7530, 2075.098
720.9050, 2293.844
722.0560, 2549.594
723.2080, 2795.359
724.3590, 3090.209
725.5100, 3273.166
726.6610, 3787.132
727.8110, 4061.830
728.9620, 4569.822
730.1120, 5130.518
731.2620, 5520.417
732.4120, 6212.678
733.5620, 6843.590
734.7120, 7483.217
735.8620, 8370.566
737.0110, 8943.598
738.1600, 9505.481
739.3090, 10105.72
740.4580, 10524.81
741.6070, 10788.93
742.7550, 10552.08
743.9040, 10556.81
745.0520, 9892.065
746.2000, 9692.280
747.3480, 8715.316
748.4960, 8306.212
749.6430, 7468.245
750.7910, 6739.996
751.9380, 6005.476
753.0850, 5388.439
754.2320, 4856.183
755.3790, 4243.944
756.5260, 3760.104
757.6720, 3430.664
758.8180, 3148.881
759.9650, 2829.113
761.1110, 2507.054
762.2560, 2325.680
763.4020, 2164.363
764.5470, 1944.919
765.6930, 1874.623
766.8380, 1748.374
767.9830, 1471.936
769.1280, 1391.048
770.2720, 1466.217
771.4170, 1284.996
772.5610, 1274.325
773.7060, 1159.344
774.8500, 1079.874
775.9930, 1084.730
777.1370, 1007.028
778.2810, 985.4346
779.4240, 999.6797
780.5670, 870.1509
781.7100, 879.5151
782.8530, 935.4497
783.9960, 803.3779
785.1390, 677.7778
786.2810, 811.1772
787.4230, 683.4883
788.5650, 778.8569
789.7070, 694.7900
790.8490, 736.8267
791.9910, 636.4775
793.1320, 687.0967
794.2730, 670.0503
795.4140, 697.0239
796.5550, 535.8345
797.6960, 604.8628
798.8370, 583.3013
799.9770, 522.9785
801.1180, 541.6494
802.2580, 523.0054
803.3980, 537.6152
804.5380, 557.4663
805.6770, 488.1050
806.8170, 431.1763
807.9560, 353.1064
809.0950, 427.8892
810.2340, 378.9087
811.3730, 383.9785
812.5120, 474.8301
813.6500, 336.9956
814.7890, 253.4448
815.9270, 342.7847
817.0650, 388.3604
818.2030, 306.4609
819.3400, 362.2915
820.4780, 348.1929
821.6150, 347.5254
822.7530, 348.4521
823.8900, 328.8164
825.0270, 356.4619
826.1630, 326.6763
827.3000, 336.0459
828.4360, 267.8784
829.5730, 236.8867
830.7090, 206.9434
831.8450, 184.2876
832.9800, 188.0801
834.1160, 177.0420
835.2520, 189.7300
836.3870, 202.3911
837.5220, 162.0278
838.6570, 213.6372
839.7920, 196.2212
840.9260, 222.7788
842.0610, 259.3091
843.1950, 241.5410
844.3290, 200.2891
845.4630, 219.7378
846.5970, 208.1587
847.7310, 171.5508
848.8640, 258.9141
849.9980, 229.2500
851.1310, 163.5562
852.2640, 186.8330
853.3970, 242.0796
854.5300, 184.2974
855.6620, 177.4854
856.7940, 249.6440
857.9270, 222.7725
859.0590, 161.8711
860.1910, 138.9395
861.3220, 110.9775
862.4540, 106.1030
863.5850, 180.9570
864.7170, 97.90137
865.8480, 161.8140
866.9790, 109.6968
868.1090, 63.54834
869.2400, 100.3643
870.3710, 182.1494
871.5010, 51.90527
872.6310, 79.62500
873.7610, 95.31250
874.8910, 55.96826
876.0200, 66.58887
877.1500, 62.17627
878.2790, 57.72949
879.4080, 114.2485
880.5370, 4.262695
881.6660, 67.82812
882.7950, 15.51855
883.9230, 17.82227
885.0520, 14.08350
886.1800, 78.69824
887.3080, 26.42822
888.4360, 55.51660
889.5640, 96.42773
890.6910, 81.47217
891.8180, 72.60889
892.9460, 18.16797
894.0730, 27.90479
895.2000, 12.39355
896.3260, 40.25342
897.4530, 69.86816
898.5790, 59.45361
899.7060, 71.34766
900.8320, 50.13721
901.9580, 42.03076
903.0830, 7.504395
904.2090, 33.08740
905.3340, 66.73291
906.4600, 28.54297
907.5850, 55.21289
908.7100, 13.95996
909.8350, 41.09717
910.9590, 15.20557
912.0840, 62.75586
913.2080, 43.83252
914.3320, 62.34766
915.4560, 28.34082
916.5800, 47.69531
917.7040, 57.79492
918.8270, 10.96387
919.9510, 20.82373
921.0740, 68.41699
922.1970, 21.26953
923.3200, 86.07227
924.4430, 32.49414
925.5650, 41.03076
926.6870, 1.531250
927.8100, 31.00244
928.9320, 37.41406
930.0540, 7.193848
931.1750, 56.16260
932.2970, 12.49512
933.4180, 34.19727
934.5400, 64.06104
935.6610, 57.29736
936.7820, 68.48779
937.9030, 55.66162
939.0230, 15.21045
940.1440, 13.11768
941.2640, 85.05859
942.3840, 100.0703
943.5040, 83.15967
944.6240, 24.60840
945.7440, 58.68604
946.8630, 5.691895
947.9820, 79.03564
949.1020, 6.626953
950.2210, 23.26807
951.3390, 82.11035
952.4580, 54.54346
953.5770, 41.98438
954.6950, 96.49414
955.8130, 5.010254
956.9310, 154.4854
958.0490, 58.99951
959.1670, 18.46729
960.2840, 34.92773
961.4020, 22.61279
962.5190, 44.17139
963.6360, 63.75098
964.7530, 56.26514
965.8700, 5.038574
966.9860, 25.57422
968.1030, 19.57666
969.2190, 42.33008
970.3350, 63.34912
971.4510, 87.91309
972.5670, 108.8877
973.6830, 156.9717
974.7980, 148.4971
975.9140, 191.0098
977.0290, 204.2827
978.1440, 254.9990
979.2590, 185.4761
980.3730, 204.9414
981.4880, 173.3955
982.6020, 325.8394
983.7160, 370.2725
984.8300, 481.6953
985.9440, 487.0840
987.0580, 565.4868
988.1710, 596.8794
989.2850, 546.2715
990.3980, 673.6538
991.5110, 757.0459
992.6240, 895.4282
993.7370, 936.7803
994.8490, 1042.029
995.9620, 1165.161
997.0740, 1253.281
998.1860, 1410.650
999.2980, 1478.739
1000.410, 1555.107
1001.522, 1767.251
1002.633, 1791.460
1003.744, 1930.132
1004.856, 1919.516
1005.966, 2058.166
1007.077, 2097.118
1008.188, 2233.208
1009.298, 2314.927
1010.409, 2482.777
1011.519, 2536.580
1012.629, 2485.332
1013.739, 2704.500
1014.849, 2878.125
1015.958, 2840.804
1017.068, 2997.682
1018.177, 3001.683
1019.286, 3040.551
1020.395, 2989.687
1021.503, 2925.079
1022.612, 2833.984
1023.720, 2783.100
1024.829, 2715.198
1025.937, 2882.889
1027.045, 2867.162
1028.153, 2846.776
1029.260, 2822.365
1030.368, 2872.237
1031.475, 2875.434
1032.582, 3029.556
1033.689, 3117.801
1034.796, 3285.883
1035.903, 3285.918
1037.009, 3571.137
1038.115, 3858.790
1039.222, 4266.376
1040.328, 4595.335
1041.433, 5137.744
1042.539, 6130.449
1043.645, 6798.628
1044.750, 8062.464
1045.855, 9411.847
1046.960, 11136.11
1048.065, 13277.52
1049.170, 15702.70
1050.275, 18401.96
1051.379, 21181.66
1052.483, 24170.35
1053.587, 26677.55
1054.691, 28790.73
1055.795, 30263.99
1056.899, 30491.18
1058.002, 29097.80
1059.105, 27512.29
1060.209, 24585.16
1061.312, 21365.05
1062.414, 18340.58
1063.517, 15345.09
1064.620, 12855.75
1065.722, 10697.17
1066.824, 9091.177
1067.926, 7589.929
1069.028, 6847.679
1070.130, 5921.733
1071.231, 5502.522
1072.333, 5030.072
1073.434, 4418.823
1074.535, 4151.128
1075.636, 3882.563
1076.737, 3703.139
1077.837, 3630.468
1078.938, 3449.734
1080.038, 3375.208
1081.138, 3393.357
1082.238, 3362.212
1083.338, 3211.171
1084.437, 3236.378
1085.537, 3368.397
1086.636, 3142.533
1087.735, 3388.108
1088.834, 3348.968
1089.933, 3569.255
1091.032, 3932.558
1092.130, 4516.100
1093.228, 4982.932
1094.327, 4877.207
1095.425, 5272.587
1096.523, 5455.987
1097.620, 5809.407
1098.718, 5898.563
1099.815, 5899.994
1100.912, 5830.426
1102.009, 5412.922
1103.106, 5122.438
1104.203, 4606.981
1105.300, 4243.542
1106.396, 4169.127
1107.492, 3818.729
1108.589, 3598.351
1109.685, 3477.993
1110.780, 3376.655
1111.876, 3304.337
1112.971, 3291.800
1114.067, 3252.917
1115.162, 3348.670
1116.257, 3395.465
1117.352, 3480.259
1118.446, 3593.072
1119.541, 3661.907
1120.635, 3780.484
1121.729, 3855.360
1122.823, 4153.176
1123.917, 4297.092
1125.011, 4712.343
1126.105, 5104.811
1127.198, 5684.251
1128.291, 6122.471
1129.384, 6769.557
1130.477, 7436.683
1131.570, 8186.756
1132.663, 8950.869
1133.755, 9870.579
1134.847, 10197.86
1135.940, 10391.29
1137.031, 10136.53
1138.123, 9683.226
1139.215, 8788.885
1140.306, 8131.115
1141.398, 7322.366
1142.489, 6533.639
1143.580, 5960.934
1144.671, 5388.083
1145.761, 4969.966
1146.852, 4605.507
1147.942, 4391.537
1149.033, 4029.980
1150.123, 3851.909
1151.213, 3639.107
1152.302, 3563.650
1153.392, 3438.101
1154.481, 3120.251
1155.571, 3236.021
1156.660, 2999.083
1157.749, 2987.819
1158.837, 2982.644
1159.926, 3019.300
1161.014, 2759.669
1162.103, 2643.886
1163.191, 2599.736
1164.279, 2709.664
1165.367, 2440.549
1166.454, 2617.336
1167.542, 2390.947
1168.629, 2378.901
1169.716, 2339.244
1170.803, 2316.292
1171.890, 2221.560
1172.977, 2165.651
1174.064, 2092.779
1175.150, 2075.915
1176.236, 2016.070
1177.322, 1995.253
1178.408, 1929.508
1179.494, 2026.726
1180.580, 1994.959
1181.665, 2022.618
1182.750, 1908.924
1183.835, 1847.255
1184.920, 1677.603
1186.005, 1669.990
1187.090, 1559.393
1188.174, 1498.437
1189.259, 1504.314
1190.343, 1404.804
1191.427, 1400.313
1192.511, 1378.850
1193.594, 1338.401
1194.678, 1272.972
1195.761, 1233.558
1196.844, 1272.158
1197.928, 1499.785
1199.010, 1332.355
1200.093, 1304.009
1201.176, 1512.988
1202.258, 1397.167
1203.340, 1496.889
1204.423, 1566.639
1205.504, 1662.415
1206.586, 1780.224
1207.668, 1789.358
1208.749, 1824.232
1209.831, 1910.222
1210.912, 1867.400
1211.993, 1755.363
1213.074, 1807.685
1214.154, 1731.723
1215.235, 1704.729
1216.315, 1642.836
1217.395, 1671.541
1218.475, 1598.014
1219.555, 1575.261
1220.635, 1440.360
1221.715, 1418.468
1222.794, 1273.588
1223.873, 1164.726
1224.952, 1112.968
1226.031, 969.2739
1227.110, 977.4360
1228.189, 899.6064
1229.267, 829.7856
1230.345, 616.9727
1231.424, 522.2476
1232.502, 518.0063
1233.579, 405.6782
1234.657, 367.1431
1235.735, 251.3647
1236.812, 269.5933
1237.889, 201.2417
1238.966, 214.1143
1240.043, 132.4536
1241.120, 51.70605
1242.196, 31.07812
1243.273, 8.586426
1244.349, 32.97803
1245.425, 1.319824
1246.501, 37.59863
1247.577, 128.8833
1248.652, 66.17285
1249.728, 50.53369
1250.803, 53.74707
1251.878, 86.96875
1252.953, 21.28369
1254.028, 27.46094
1255.103, 29.78906
1256.177, 40.95850
1257.251, 70.71777
1258.326, 1.503418
1259.400, 130.2891
1260.473, 2.863770
1261.547, 1.024414
1262.621, 17.82031
1263.694, 47.64795
1264.767, 31.51367
1265.840, 26.37793
1266.913, 13.23926
1267.986, 32.10986
1269.059, 88.95068
1270.131, 65.99609
1271.203, 46.04297
1272.275, 90.07275
1273.347, 16.91553
1274.419, 28.91992
1275.491, 101.9414
1276.562, 140.0127
1277.634, 12.87109
1278.705, 72.27197
1279.776, 10.43457
1280.847, 41.38330
1281.917, 44.79688
1282.988, 22.98730
1284.058, 47.19678
1285.128, 18.41992
1286.199, 25.34229
1287.268, 43.89502
1288.338, 8.146973
1289.408, 18.40381
1290.477, 78.66846
1291.546, 104.0415
1292.616, 24.24902
1293.685, 61.44922
1294.753, 51.86035
1295.822, 16.21289
1296.890, 76.21924
1297.959, 6.968750
1299.027, 21.61719
1300.095, 37.76953
1301.163, 81.29785
