##NAMES=Lazulite
##RRUFFID=R050110
##IDEAL CHEMISTRY=MgAl_2_(PO_4_)_2_(OH)_2_
##LOCALITY=Rapid Creek, Yukon Territory, Canada
##OWNER=RRUFF
##SOURCE=Rock Currier
##DESCRIPTION=Azure-blue stubby crystals with complex terminations
##STATUS=The identification of this mineral has been confirmed by X-ray diffraction and chemical analysis
##URL=rruff.info/R050110
##MEASURED CHEMISTRY=(Mg_0.84_Fe_0.16_)Al_2.00_(P_1.00_O_4_)_2_(OH)_2_
##PIN_ID=L00471
##ORIENTATION=Laser parallel to -b* (0 -1 0). Fiducial mark perpendicular to laser is parallel to -c [0 0 -1]
80.125, 0.000
81.521, 79.556
82.916, 195.088
84.311, 64.212
85.706, 115.575
87.101, 2.817
88.496, 117.252
89.890, 249.688
91.284, 534.955
92.678, 918.402
94.071, 1238.246
95.465, 1892.955
96.858, 3203.875
98.251, 5397.106
99.644, 7447.601
101.036, 7401.436
102.428, 5707.944
103.820, 4107.713
105.212, 2633.191
106.604, 1815.289
107.995, 1490.160
109.387, 1093.693
110.777, 1019.079
112.168, 1189.485
113.559, 1328.521
114.949, 1298.348
116.339, 1056.947
117.729, 723.548
119.119, 388.995
120.508, 248.004
121.897, 172.220
123.286, 309.349
124.675, 183.560
126.063, 60.742
127.452, 102.899
128.840, 26.030
130.228, 104.135
131.615, 64.213
133.003, 134.264
134.390, 13.709
135.777, 85.181
137.164, 79.241
138.550, 89.722
139.937, 234.398
141.323, 186.703
142.709, 114.652
144.094, 157.261
145.480, 135.553
146.865, 181.546
148.250, 194.259
149.635, 180.709
151.019, 173.913
152.403, 176.797
153.788, 108.624
155.171, 131.156
156.555, 73.485
157.939, 46.255
159.322, 37.625
160.705, 49.734
162.088, 127.320
163.470, 25.027
164.853, 5.112
166.235, 102.236
167.617, 460.350
168.998, 776.456
170.380, 1179.553
171.761, 1484.639
173.142, 1782.711
174.523, 1448.767
175.904, 1076.804
177.284, 691.818
178.664, 534.802
180.044, 676.756
181.424, 803.679
182.803, 1361.568
184.183, 2354.417
185.562, 4033.221
186.940, 5971.975
188.319, 8354.213
189.698, 11370.151
191.076, 12571.152
192.454, 11681.599
193.831, 8089.001
195.209, 5150.758
196.586, 3133.466
197.963, 2113.987
199.340, 1466.731
200.717, 1106.473
202.093, 916.180
203.470, 819.777
204.846, 786.209
206.221, 693.598
207.597, 691.987
208.972, 683.375
210.347, 773.762
211.722, 845.149
213.097, 925.533
214.472, 1158.920
215.846, 1564.312
217.220, 2138.702
218.594, 3201.088
219.967, 4284.460
221.341, 5498.812
222.714, 6603.136
224.087, 7117.436
225.460, 6914.713
226.832, 5405.965
228.204, 3896.194
229.577, 2472.401
230.948, 1509.589
232.320, 977.758
233.692, 590.907
235.063, 361.040
236.434, 167.155
237.805, 156.259
239.175, 131.356
240.545, 70.458
241.916, 95.555
243.286, 169.621
244.655, 354.646
246.025, 709.919
247.394, 1313.575
248.763, 2205.430
250.132, 3654.397
251.501, 5023.430
252.869, 6465.494
254.237, 7535.563
255.605, 6571.625
256.973, 4859.666
258.340, 3231.674
259.708, 2142.636
261.075, 1422.541
262.442, 1040.394
263.808, 992.197
265.175, 791.948
266.541, 810.632
267.907, 812.245
269.273, 864.799
270.639, 910.300
272.004, 1161.740
273.369, 1485.918
274.734, 1951.050
276.099, 2678.139
277.463, 3444.185
278.828, 4399.188
280.192, 5410.150
281.556, 6121.073
282.919, 6333.952
284.283, 5798.696
285.646, 4659.238
287.009, 3637.520
288.372, 2531.741
289.734, 1847.941
291.097, 1249.994
292.459, 848.150
293.821, 578.983
295.183, 342.096
296.544, 178.054
297.905, 55.115
299.266, 19.386
300.627, 110.871
301.988, 133.080
303.348, 138.369
304.709, 158.686
306.069, 190.112
307.428, 221.689
308.788, 189.353
310.147, 134.131
311.507, 55.005
312.865, 33.045
314.224, 272.044
315.583, 591.007
316.941, 1119.939
318.299, 1778.657
319.657, 2356.429
321.015, 2854.917
322.372, 3007.990
323.729, 2608.525
325.086, 1964.186
326.443, 1415.891
327.800, 1066.970
329.156, 843.889
330.512, 661.144
331.868, 633.702
333.224, 535.237
334.579, 598.748
335.935, 555.235
337.290, 545.700
338.645, 604.139
339.999, 672.556
341.354, 658.016
342.708, 809.385
344.062, 794.779
345.416, 908.366
346.769, 818.187
348.123, 765.880
349.476, 666.434
350.829, 628.875
352.182, 527.269
353.534, 533.489
354.887, 568.502
356.239, 499.327
357.591, 496.912
358.942, 504.250
360.294, 535.433
361.645, 557.575
362.996, 643.707
364.347, 701.829
365.698, 670.942
367.048, 830.046
368.398, 944.143
369.748, 1199.233
371.098, 1579.337
372.448, 1828.438
373.797, 2462.552
375.146, 3108.685
376.495, 3655.821
377.844, 4098.992
379.192, 4117.165
380.540, 4026.340
381.889, 3386.538
383.236, 2589.742
384.584, 2028.971
385.932, 1549.196
387.279, 1299.417
388.626, 1028.636
389.973, 947.896
391.319, 768.355
392.666, 826.062
394.012, 724.743
395.358, 653.546
396.704, 718.732
398.049, 836.597
399.394, 910.719
400.740, 1019.259
402.084, 1351.479
403.429, 1812.626
404.774, 2601.267
406.118, 3891.874
407.462, 6477.178
408.806, 10897.619
410.150, 17178.762
411.493, 24655.328
412.836, 33424.574
414.179, 33760.730
415.522, 25445.027
416.865, 16668.264
418.207, 10076.648
419.549, 6770.046
420.891, 4838.475
422.233, 4247.894
423.575, 4257.496
424.916, 4609.887
426.257, 5353.296
427.598, 5348.076
428.939, 4920.475
430.279, 3929.250
431.619, 2938.557
432.959, 2105.697
434.299, 1584.537
435.639, 1288.396
436.978, 991.927
438.318, 943.434
439.657, 743.917
440.996, 663.379
442.334, 572.818
443.673, 542.233
445.011, 486.627
446.349, 486.999
447.687, 574.350
449.024, 522.681
450.361, 625.992
451.699, 628.284
453.036, 749.556
454.372, 831.810
455.709, 995.045
457.045, 1144.910
458.381, 1356.794
459.717, 1454.437
461.053, 1642.618
462.388, 1685.895
463.724, 1720.758
465.059, 1815.273
466.394, 1925.499
467.728, 2200.739
469.063, 2697.990
470.397, 3214.264
471.731, 4165.000
473.065, 5189.701
474.398, 6624.592
475.732, 7907.974
477.065, 9137.988
478.398, 9596.992
479.731, 8781.980
481.063, 7631.963
482.396, 5997.932
483.728, 4355.912
485.060, 3426.898
486.391, 2388.896
487.723, 1732.924
489.054, 1298.957
490.385, 992.988
491.716, 769.011
493.047, 619.021
494.377, 493.021
495.708, 346.010
497.038, 263.992
498.368, 252.961
499.697, 222.921
501.027, 156.870
502.356, 184.806
503.685, 159.733
505.014, 106.650
506.342, 44.553
507.671, 68.441
508.999, 95.314
510.327, 116.173
511.655, 120.020
512.982, 147.854
514.310, 164.372
515.637, 159.493
516.964, 200.304
518.291, 189.110
519.617, 189.911
520.944, 200.223
522.270, 211.131
523.596, 206.449
524.921, 246.431
526.247, 265.560
527.572, 273.848
528.897, 296.068
530.222, 351.887
531.547, 336.020
532.871, 411.429
534.196, 389.934
535.520, 521.322
536.844, 460.083
538.167, 557.966
539.491, 466.574
540.814, 444.924
542.137, 483.669
543.460, 463.224
544.783, 404.170
546.105, 332.496
547.427, 224.909
548.749, 175.947
550.071, 126.090
551.393, 63.855
552.714, 67.436
554.035, 34.983
555.356, 6.487
556.677, 26.979
557.998, 8.464
559.318, 23.042
560.638, 49.394
561.958, 41.818
563.278, 59.236
564.597, 51.645
565.917, 112.041
567.236, 88.422
568.555, 152.788
569.874, 44.140
571.192, 115.475
572.511, 126.795
573.829, 89.116
575.147, 94.421
576.464, 53.225
577.782, 42.216
579.099, 27.577
580.416, 23.574
581.733, 2.154
583.050, 16.120
584.366, 7.250
585.683, 12.314
586.999, 28.043
588.315, 50.800
589.630, 75.591
590.946, 35.583
592.261, 100.739
593.576, 89.905
594.891, 184.085
596.206, 249.082
597.520, 362.447
598.834, 439.653
600.148, 602.863
601.462, 735.076
602.776, 1018.302
604.089, 1364.525
605.402, 1770.734
606.715, 2183.930
608.028, 2866.119
609.341, 3615.298
610.653, 4348.482
611.965, 4959.654
613.277, 5025.815
614.589, 4899.966
615.901, 4293.105
617.212, 3778.237
618.523, 3188.371
619.834, 2762.621
621.145, 2806.805
622.456, 2710.208
623.766, 2784.634
625.076, 3067.103
626.386, 3482.552
627.696, 4096.121
629.006, 4747.663
630.315, 5384.413
631.624, 6162.099
632.933, 6360.806
634.242, 6775.441
635.551, 6696.134
636.859, 6907.924
638.167, 6974.549
639.475, 7221.220
640.783, 7645.187
642.090, 8278.814
643.398, 9074.325
644.705, 9923.015
646.012, 10413.538
647.318, 10767.415
648.625, 10108.104
649.931, 9234.740
651.237, 7946.406
652.543, 6440.147
653.849, 5466.266
655.155, 4353.783
656.460, 3464.444
657.765, 2800.865
659.070, 2324.369
660.375, 1863.136
661.679, 1663.657
662.984, 1399.895
664.288, 1219.663
665.592, 1005.572
666.895, 845.666
668.199, 821.828
669.502, 678.039
670.805, 554.427
672.108, 426.537
673.411, 396.500
674.713, 342.599
676.016, 288.347
677.318, 215.214
678.620, 168.562
679.921, 119.126
681.223, 110.443
682.524, 75.825
683.825, 44.182
685.126, 43.180
686.427, 61.672
687.727, 2.738
689.028, 54.755
690.328, 87.976
691.628, 22.274
692.927, 139.616
694.227, 14.062
695.526, 25.548
696.825, 101.079
698.124, 27.695
699.423, 104.357
700.721, 0.893
702.020, 13.111
703.318, 6.696
704.616, 54.460
705.913, 28.546
707.211, 112.402
708.508, 151.981
709.805, 182.560
711.102, 191.987
712.399, 201.004
713.695, 259.255
714.992, 305.195
716.288, 235.606
717.584, 326.018
718.879, 311.381
720.175, 333.803
721.470, 401.206
722.765, 373.897
724.060, 416.396
725.355, 559.334
726.649, 697.680
727.944, 761.461
729.238, 798.125
730.532, 982.605
731.825, 1156.997
733.119, 1444.708
734.412, 1614.889
735.705, 1808.954
736.998, 2128.318
738.291, 2323.334
739.584, 2457.039
740.876, 2584.261
742.168, 2604.341
743.460, 2599.953
744.752, 2491.560
746.043, 2255.108
747.334, 2021.094
748.626, 1780.763
749.916, 1527.091
751.207, 1287.553
752.498, 1082.712
753.788, 866.122
755.078, 852.160
756.368, 717.839
757.658, 603.289
758.947, 493.363
760.237, 478.676
761.526, 339.967
762.815, 385.571
764.104, 334.953
765.392, 303.393
766.680, 283.596
767.969, 240.656
769.257, 281.011
770.544, 212.147
771.832, 213.260
773.119, 234.352
774.406, 171.420
775.693, 237.465
776.980, 154.488
778.267, 160.592
779.553, 162.663
780.839, 181.613
782.125, 168.889
783.411, 189.441
784.697, 150.318
785.982, 171.169
787.267, 165.996
788.552, 179.796
789.837, 161.573
791.122, 134.323
792.406, 169.048
793.690, 153.748
794.974, 82.423
796.258, 155.069
797.542, 178.690
798.825, 131.288
800.108, 165.859
801.391, 80.406
802.674, 116.925
803.957, 125.419
805.239, 112.887
806.522, 90.330
807.804, 62.745
809.085, 134.130
810.367, 94.491
811.649, 146.826
812.930, 106.137
814.211, 71.423
815.492, 96.681
816.772, 106.914
818.053, 153.124
819.333, 139.042
820.613, 117.480
821.893, 117.625
823.173, 105.747
824.452, 86.845
825.732, 48.919
827.011, 51.885
828.290, 47.161
829.568, 56.956
830.847, 51.909
832.125, 80.833
833.403, 59.734
834.681, 76.441
835.959, 34.089
837.236, 63.749
838.514, 133.861
839.791, 91.143
841.068, 121.828
842.345, 100.170
843.621, 154.208
844.898, 164.122
846.174, 164.124
847.450, 211.727
848.726, 153.178
850.001, 137.877
851.277, 219.806
852.552, 190.313
853.827, 208.152
855.102, 204.235
856.376, 227.080
857.651, 240.810
858.925, 258.888
860.199, 281.834
861.473, 242.131
862.746, 258.753
864.020, 248.070
865.293, 251.486
866.566, 214.923
867.839, 218.356
869.112, 162.782
870.384, 149.623
871.656, 93.612
872.928, 107.012
874.200, 49.402
875.472, 35.781
876.744, 64.150
878.015, 16.508
879.286, 34.853
880.557, 14.188
881.828, 36.491
883.098, 31.792
884.369, 19.935
885.639, 28.564
886.909, 58.523
888.178, 101.271
889.448, 7.866
890.717, 74.008
891.987, 82.935
893.256, 76.918
894.524, 21.956
895.793, 0.986
897.061, 12.079
898.330, 70.150
899.598, 27.749
900.865, 83.357
902.133, 111.520
903.401, 36.249
904.668, 137.990
905.935, 95.312
907.202, 58.695
908.468, 54.119
909.735, 99.487
911.001, 29.764
912.267, 11.982
913.533, 27.271
914.799, 24.753
916.064, 0.330
917.330, 74.916
918.595, 23.456
919.860, 19.178
921.124, 3.826
922.389, 39.517
923.653, 25.855
924.918, 35.318
926.182, 27.521
927.445, 14.740
928.709, 22.064
929.972, 2.788
931.236, 2.617
932.499, 13.751
933.761, 6.701
935.024, 36.025
936.286, 44.318
937.549, 15.449
938.811, 84.670
940.073, 6.870
941.334, 138.131
942.596, 8.318
943.857, 55.395
945.118, 29.619
946.379, 18.784
947.640, 51.637
948.900, 143.815
950.161, 66.096
951.421, 149.184
952.681, 117.420
953.940, 136.292
955.200, 176.335
956.459, 138.419
957.719, 205.458
958.978, 171.408
960.236, 166.965
961.495, 229.112
962.753, 154.103
964.012, 301.319
965.270, 294.374
966.527, 248.220
967.785, 365.251
969.043, 266.341
970.300, 335.632
971.557, 379.875
972.814, 410.036
974.071, 481.208
975.327, 464.339
976.583, 518.410
977.840, 583.039
979.095, 640.351
980.351, 705.750
981.607, 752.488
982.862, 766.102
984.117, 975.225
985.372, 985.119
986.627, 1108.255
987.882, 1354.315
989.136, 1379.399
990.390, 1617.834
991.644, 1826.106
992.898, 2003.576
994.152, 2405.978
995.405, 2596.566
996.659, 3251.204
997.912, 3470.861
999.165, 3858.583
1000.417, 4529.330
1001.670, 4814.102
1002.922, 5011.938
1004.174, 5015.796
1005.426, 4775.708
1006.678, 4480.656
1007.930, 3936.620
1009.181, 3530.610
1010.432, 3279.625
1011.683, 2774.653
1012.934, 2744.719
1014.185, 2489.800
1015.435, 2338.893
1016.685, 2345.028
1017.935, 2268.176
1019.185, 2271.351
1020.435, 2301.538
1021.684, 2219.736
1022.934, 2262.964
1024.183, 2295.217
1025.432, 2212.455
1026.680, 2411.675
1027.929, 2396.988
1029.177, 2547.127
1030.425, 2576.427
1031.673, 2570.588
1032.921, 2750.919
1034.169, 2856.275
1035.416, 2925.738
1036.663, 3302.743
1037.911, 3520.293
1039.157, 3808.912
1040.404, 4310.024
1041.650, 4572.404
1042.897, 5215.280
1044.143, 5864.598
1045.389, 6853.398
1046.634, 7999.539
1047.880, 9396.021
1049.125, 11267.004
1050.371, 13722.688
1051.615, 16855.961
1052.860, 20719.529
1054.105, 26031.277
1055.349, 31894.324
1056.593, 38508.121
1057.837, 43056.289
1059.081, 47026.812
1060.325, 46357.570
1061.568, 42474.699
1062.812, 36202.574
1064.055, 28987.504
1065.298, 23022.105
1066.540, 17770.934
1067.783, 13828.699
1069.025, 11175.700
1070.267, 9106.845
1071.509, 7475.694
1072.751, 6477.757
1073.993, 5543.853
1075.234, 5055.968
1076.475, 4531.105
1077.716, 4126.263
1078.957, 4024.442
1080.198, 3756.537
1081.438, 3684.674
1082.679, 3565.929
1083.919, 3501.212
1085.159, 3629.518
1086.398, 3576.843
1087.638, 3755.191
1088.877, 3979.561
1090.116, 4110.951
1091.355, 4669.363
1092.594, 5305.795
1093.833, 6040.253
1095.071, 7109.732
1096.309, 8326.232
1097.547, 9781.757
1098.785, 11448.304
1100.023, 12726.871
1101.260, 13387.464
1102.498, 13284.080
1103.735, 12247.718
1104.972, 10975.376
1106.208, 9245.062
1107.445, 7776.765
1108.681, 6487.493
1109.918, 5473.246
1111.154, 4766.293
1112.389, 4214.092
1113.625, 3682.914
1114.860, 3478.762
1116.096, 3192.632
1117.331, 3143.781
1118.566, 3044.698
1119.800, 2880.636
1121.035, 3119.595
1122.269, 3086.575
1123.503, 3359.580
1124.737, 3473.015
1125.971, 3282.059
1127.205, 3714.875
1128.438, 4098.971
1129.671, 4558.089
1130.904, 5387.134
1132.137, 6168.299
1133.370, 7297.511
1134.602, 8733.658
1135.834, 9401.883
1137.066, 10070.535
1138.298, 9679.335
1139.530, 8733.629
1140.762, 7637.278
1141.993, 6314.607
1143.224, 5523.448
1144.455, 4511.916
1145.686, 3964.298
1146.917, 3445.842
1148.147, 3051.079
1149.377, 2812.510
1150.607, 2637.589
1151.837, 2496.052
1153.067, 2346.014
1154.296, 2175.438
1155.526, 2029.945
1156.755, 2103.320
1157.984, 1967.461
1159.213, 1859.090
1160.441, 2059.527
1161.670, 1863.835
1162.898, 1893.579
1164.126, 1917.640
1165.354, 1851.255
1166.581, 2008.466
1167.809, 1898.248
1169.036, 1867.902
1170.263, 2060.430
1171.490, 1901.418
1172.717, 2205.107
1173.943, 2169.781
1175.170, 2185.663
1176.396, 2403.414
1177.622, 2346.308
1178.848, 2397.052
1180.073, 2551.557
1181.299, 2413.534
1182.524, 2341.325
1183.749, 2190.297
1184.974, 1873.757
1186.199, 1851.596
1187.423, 1597.277
1188.648, 1438.325
1189.872, 1343.750
1191.096, 1064.212
1192.320, 1031.198
1193.543, 899.592
1194.767, 775.823
1195.990, 810.849
1197.213, 722.396
1198.436, 659.458
1199.659, 713.243
1200.881, 549.318
1202.104, 751.455
1203.326, 604.231
1204.548, 591.645
1205.770, 751.879
1206.991, 648.737
1208.213, 709.150
1209.434, 822.454
1210.655, 716.146
1211.876, 841.537
1213.096, 782.916
1214.317, 647.106
1215.537, 778.459
1216.757, 684.946
1217.977, 646.588
1219.197, 663.958
1220.417, 472.779
1221.636, 504.157
1222.855, 507.538
1224.074, 461.167
1225.293, 503.555
1226.512, 429.992
1227.731, 310.057
1228.949, 448.454
1230.167, 287.943
1231.385, 304.456
1232.603, 310.863
1233.820, 185.362
1235.038, 237.771
1236.255, 199.356
1237.472, 170.922
1238.689, 229.342
1239.906, 78.149
1241.122, 126.736
1242.338, 210.184
1243.555, 23.241
1244.771, 141.708
1245.986, 52.182
1247.202, 64.241
1248.417, 142.731
1249.633, 102.243
1250.848, 81.966
1252.063, 166.473
1253.277, 62.987
1254.492, 133.650
1255.706, 70.167
1256.920, 14.728
1258.134, 117.794
1259.348, 23.314
1260.562, 20.677
1261.775, 60.192
1262.988, 36.305
1264.201, 89.516
1265.414, 27.983
1266.627, 15.543
1267.839, 129.981
1269.052, 3.386
1270.264, 34.191
1271.476, 119.184
1272.688, 20.478
1273.899, 94.095
1275.111, 35.367
1276.322, 21.362
1277.533, 45.860
1278.744, 7.051
1279.955, 19.750
1281.165, 54.395
1282.376, 41.476
1283.586, 10.172
1284.796, 39.880
1286.006, 54.109
1287.215, 70.935
1288.425, 39.104
1289.634, 32.160
1290.843, 123.766
1292.052, 31.335
1293.261, 25.462
1294.469, 41.393
1295.678, 68.765
1296.886, 58.025
1298.094, 17.194
1299.302, 71.435
1300.509, 70.291
1301.717, 21.012
1302.924, 32.332
1304.131, 32.325
1305.338, 83.051
1306.545, 0.481
1307.752, 19.073
1308.958, 106.387
1310.164, 116.107
1311.370, 43.414
1312.576, 28.034
1313.782, 69.510
1314.987, 46.083
1316.193, 36.709
1317.398, 67.632
1318.603, 62.045
1319.807, 29.231
1321.012, 64.489
1322.216, 79.282
1323.421, 134.897
1324.625, 7.945
1325.829, 32.185
1327.032, 147.293
1328.236, 108.620
1329.439, 14.412
1330.642, 127.422
1331.845, 69.586
1333.048, 45.358
1334.251, 21.285
1335.453, 0.191
1336.656, 114.073
1337.858, 2.936
1339.060, 41.775
1340.261, 173.596
1341.463, 26.398
1342.664, 109.181
1343.866, 20.944
1345.067, 3.312
1346.267, 114.403
1347.468, 3.102
1348.669, 51.773
1349.869, 134.427
1351.069, 28.062
1352.269, 69.676
1353.469, 143.341
1354.668, 23.080
1355.868, 83.470
1357.067, 90.002
1358.266, 23.520
1359.465, 185.019
1360.664, 74.503
1361.862, 52.972
1363.061, 153.426
1364.259, 5.132
1365.457, 116.285
1366.655, 152.692
1367.852, 60.085
1369.050, 140.467
1370.247, 101.146
1371.444, 6.488
1372.641, 114.859
1373.838, 3.809
1375.035, 90.139
1376.231, 162.432
1377.427, 95.716
1378.623, 133.861
1379.819, 76.943
1381.015, 81.896
1382.211, 192.124
1383.406, 61.336
1384.601, 90.534
1385.796, 186.715
1386.991, 53.877
1388.185, 180.024
1389.380, 246.155
1390.574, 60.269
1391.768, 162.067
1392.962, 137.135
1394.156, 92.798
1395.350, 263.810
1396.543, 153.805
1397.736, 110.179
1398.929, 305.269
1400.122, 70.186
1401.315, 163.033
1402.507, 203.772
1403.700, 57.769
1404.892, 295.941
1406.084, 238.673
1407.276, 84.769
1408.467, 264.767
1409.659, 123.099
1410.850, 201.816
1412.041, 257.114
1413.232, 131.113
1414.423, 195.958
1415.614, 249.534
1416.804, 67.554
1417.994, 225.767
1419.184, 169.549
1420.374, 117.589
1421.564, 235.454
1422.753, 106.884
1423.943, 150.755
1425.132, 294.495
1426.321, 43.026
1427.510, 205.417
1428.698, 167.741
1429.887, 66.821
1431.075, 193.749
1432.263, 135.423
1433.451, 120.620
1434.639, 204.321
1435.827, 77.572
1437.014, 105.018
1438.201, 211.537
1439.388, 109.478
1440.575, 188.810
1441.762, 167.826
1442.949, 85.561
1444.135, 242.567
1445.321, 182.859
1446.507, 106.646
1447.693, 261.716
1448.879, 120.773
1450.064, 106.484
1451.250, 241.164
1452.435, 116.297
1453.620, 142.201
1454.805, 266.413
1455.989, 45.510
1457.174, 231.459
1458.358, 182.438
1459.542, 111.809
1460.726, 259.168
1461.910, 151.364
1463.093, 112.739
1464.277, 299.955
1465.460, 144.282
1466.643, 138.142
1467.826, 274.292
1469.009, 60.367
1470.191, 193.921
1471.373, 221.262
1472.556, 61.751
1473.738, 251.241
1474.919, 242.225
1476.101, 119.044
1477.283, 255.758
1478.464, 202.598
1479.645, 327.479
1480.826, 300.310
1482.007, 87.214
1483.187, 219.068
1484.368, 253.963
1485.548, 29.856
1486.728, 213.886
1487.908, 145.863
1489.088, 186.820
1490.268, 255.601
1491.447, 144.602
1492.626, 115.665
1493.805, 230.840
1494.984, 4.174
1496.163, 197.606
1497.341, 243.166
1498.520, 35.813
1499.698, 254.578
1500.876, 151.426
1502.054, 110.362
1503.232, 214.398
