##NAMES=Lazulite
##RRUFFID=R050110
##IDEAL CHEMISTRY=MgAl_2_(PO_4_)_2_(OH)_2_
##LOCALITY=Rapid Creek, Yukon Territory, Canada
##OWNER=RRUFF
##SOURCE=Rock Currier
##DESCRIPTION=Azure-blue stubby crystals with complex terminations
##STATUS=The identification of this mineral has been confirmed by X-ray diffraction and chemical analysis
##URL=rruff.info/R050110
##MEASURED CHEMISTRY=(Mg_0.84_Fe_0.16_)Al_2.00_(P_1.00_O_4_)_2_(OH)_2_
##PIN_ID=L00379
##ORIENTATION=Laser parallel to -c* (0 0 -1). Fiducial mark perpendicular to laser is parallel to a [1 0 0]
78.729, 0.000
80.125, 72.361
81.521, 9.601
82.916, 44.299
84.311, 249.771
85.706, 168.673
87.101, 524.071
88.496, 990.196
89.890, 1489.975
91.284, 2330.209
92.678, 3561.971
94.071, 5197.590
95.465, 8820.556
96.858, 15603.996
98.251, 27503.898
99.644, 40060.391
101.036, 41906.273
102.428, 34922.219
103.820, 24268.012
105.212, 15788.483
106.604, 9847.565
107.995, 6550.264
109.387, 4521.467
110.777, 3709.081
112.168, 3179.029
113.559, 2924.248
114.949, 2332.804
116.339, 1799.875
117.729, 1317.492
119.119, 984.380
120.508, 657.996
121.897, 545.714
123.286, 473.000
124.675, 456.900
126.063, 351.858
127.452, 243.854
128.840, 239.060
130.228, 156.134
131.615, 178.088
133.003, 119.218
134.390, 189.165
135.777, 95.308
137.164, 164.297
138.550, 96.084
139.937, 126.676
141.323, 70.082
142.709, 105.310
144.094, 40.367
145.480, 43.261
146.865, 20.536
148.250, 48.586
149.635, 37.972
151.019, 77.669
152.403, 123.505
153.788, 8.527
155.171, 48.571
156.555, 107.019
157.939, 90.115
159.322, 151.991
160.705, 184.379
162.088, 275.137
163.470, 551.250
164.853, 706.356
166.235, 1188.486
167.617, 2170.649
168.998, 3534.858
170.380, 5082.257
171.761, 6911.126
173.142, 9174.559
174.523, 8911.520
175.904, 6959.948
177.284, 4813.688
178.664, 3683.629
180.044, 3552.627
181.424, 4046.615
182.803, 5726.581
184.183, 9430.508
185.562, 16185.918
186.940, 25294.908
188.319, 34872.129
189.698, 49293.605
191.076, 57329.977
192.454, 53187.973
193.831, 37183.566
195.209, 22961.424
196.586, 13674.248
197.963, 8295.014
199.340, 5351.683
200.717, 3578.310
202.093, 2527.892
203.470, 2075.423
204.846, 1708.904
206.221, 1482.334
207.597, 1271.715
208.972, 1266.054
210.347, 1153.351
211.722, 1028.611
213.097, 868.831
214.472, 1038.012
215.846, 979.149
217.220, 1204.233
218.594, 1562.262
219.967, 1992.234
221.341, 2623.151
222.714, 3250.013
224.087, 3677.819
225.460, 3991.571
226.832, 3149.268
228.204, 2140.911
229.577, 1139.500
230.948, 456.036
232.320, 138.519
233.692, 171.052
235.063, 189.674
236.434, 220.349
237.805, 216.075
239.175, 271.902
240.545, 138.028
241.916, 25.521
243.286, 111.840
244.655, 531.199
246.025, 921.897
247.394, 1832.343
248.763, 3340.008
250.132, 5497.956
251.501, 8117.128
252.869, 11024.484
254.237, 13804.988
255.605, 12749.614
256.973, 9828.338
258.340, 6711.727
259.708, 4260.035
261.075, 2887.237
262.442, 1972.127
263.808, 1701.317
265.175, 1354.789
266.541, 1080.689
267.907, 933.226
269.273, 792.870
270.639, 809.758
272.004, 749.108
273.369, 848.315
274.734, 972.551
276.099, 1244.100
277.463, 1631.700
278.828, 1910.383
280.192, 2427.662
281.556, 2619.168
282.919, 2703.510
284.283, 2335.747
285.646, 1695.473
287.009, 1204.018
288.372, 736.514
289.734, 446.966
291.097, 221.374
292.459, 84.734
293.821, 6.031
295.183, 5.749
296.544, 62.389
297.905, 32.460
299.266, 174.455
300.627, 117.393
301.988, 163.268
303.348, 227.087
304.709, 235.854
306.069, 325.571
307.428, 539.239
308.788, 668.863
310.147, 907.443
311.507, 1049.979
312.865, 1397.471
314.224, 1816.208
315.583, 2574.639
316.941, 3521.114
318.299, 4836.438
319.657, 6410.686
321.015, 7568.800
322.372, 8544.595
323.729, 8029.037
325.086, 7198.335
326.443, 6228.605
327.800, 5704.849
329.156, 5814.069
330.512, 5929.264
331.868, 6621.431
333.224, 7474.574
334.579, 8676.037
335.935, 10478.453
337.290, 12389.605
338.645, 15808.965
339.999, 20170.537
341.354, 25684.953
342.708, 33237.434
344.062, 39495.730
345.416, 46519.289
346.769, 46967.508
348.123, 44908.598
349.476, 38027.730
350.829, 30387.438
352.182, 23528.943
353.534, 18271.301
354.887, 14460.596
356.239, 11745.837
357.591, 9901.040
358.942, 8554.208
360.294, 7734.344
361.645, 7239.442
362.996, 6880.507
364.347, 6923.536
365.698, 7039.531
367.048, 7477.494
368.398, 8159.420
369.748, 9397.316
371.098, 11206.176
372.448, 13292.005
373.797, 16501.797
375.146, 20080.559
376.495, 22973.285
377.844, 25482.984
379.192, 24903.641
380.540, 22991.270
381.889, 18940.865
383.236, 14741.427
384.584, 11205.959
385.932, 8292.457
387.279, 6523.922
388.626, 5048.356
389.973, 3962.760
391.319, 3283.132
392.666, 2715.472
394.012, 2464.055
395.358, 2003.587
396.704, 1688.653
398.049, 1478.883
399.394, 1179.026
400.740, 990.528
402.084, 900.293
403.429, 758.198
404.774, 683.143
406.118, 710.073
407.462, 873.100
408.806, 1225.104
410.150, 1950.085
411.493, 2685.038
412.836, 3520.960
414.179, 3547.853
415.522, 2409.712
416.865, 1376.540
418.207, 590.334
419.549, 250.095
420.891, 34.817
422.233, 79.527
423.575, 137.997
424.916, 190.623
426.257, 179.432
427.598, 250.419
428.939, 149.621
430.279, 211.984
431.619, 176.541
432.959, 133.271
434.299, 116.153
435.639, 22.176
436.978, 60.291
438.318, 30.517
439.657, 80.162
440.996, 101.792
442.334, 182.375
443.673, 208.919
445.011, 221.425
446.349, 329.894
447.687, 380.330
449.024, 600.734
450.361, 650.106
451.699, 795.447
453.036, 1138.769
454.372, 1437.060
455.709, 1933.369
457.045, 2467.871
458.381, 3066.030
459.717, 3817.655
461.053, 4219.098
462.388, 4706.154
463.724, 4814.298
465.059, 4859.270
466.394, 4757.273
467.728, 4540.780
469.063, 4757.747
470.397, 4827.687
471.731, 5438.602
473.065, 6090.491
474.398, 7142.352
475.732, 8288.190
477.065, 9262.018
478.398, 9642.830
479.731, 8936.624
481.063, 7652.397
482.396, 5828.145
483.728, 4058.868
485.060, 3027.572
486.391, 1958.254
487.723, 1427.915
489.054, 985.556
490.385, 608.177
491.716, 480.778
493.047, 369.358
494.377, 171.918
495.708, 172.455
497.038, 226.970
498.368, 166.464
499.697, 104.935
501.027, 130.381
502.356, 103.805
503.685, 136.204
505.014, 61.581
506.342, 128.933
507.671, 151.263
508.999, 128.572
510.327, 195.858
511.655, 212.125
512.982, 252.376
514.310, 347.610
515.637, 309.827
516.964, 414.028
518.291, 428.213
519.617, 491.383
520.944, 607.538
522.270, 492.678
523.596, 515.802
524.921, 641.913
526.247, 665.008
527.572, 724.090
528.897, 685.442
530.222, 832.498
531.547, 865.541
532.871, 1017.572
534.196, 1083.593
535.520, 1227.601
536.844, 1246.600
538.167, 1287.587
539.491, 1297.562
540.814, 1276.525
542.137, 1092.477
543.460, 1016.417
544.783, 858.350
546.105, 667.281
547.427, 531.204
548.749, 358.120
550.071, 330.037
551.393, 190.943
552.714, 85.847
554.035, 51.741
555.356, 29.377
556.677, 1.455
557.998, 10.515
559.318, 42.454
560.638, 20.641
561.958, 73.816
563.278, 77.045
564.597, 88.287
565.917, 194.549
567.236, 220.824
568.555, 326.110
569.874, 292.407
571.192, 363.712
572.511, 354.030
573.829, 483.365
575.147, 538.703
576.464, 741.054
577.782, 936.411
579.099, 1067.203
580.416, 1077.160
581.733, 1000.295
583.050, 879.365
584.366, 805.055
585.683, 544.058
586.999, 397.677
588.315, 410.677
589.630, 372.821
590.946, 377.256
592.261, 438.465
593.576, 524.826
594.891, 641.170
596.206, 779.184
597.520, 1064.156
598.834, 1466.039
600.148, 1910.243
601.462, 2473.134
602.776, 3194.157
604.089, 4000.248
605.402, 5029.806
606.715, 5955.510
608.028, 7104.229
609.341, 8446.954
610.653, 9751.685
611.965, 10926.424
613.277, 11233.188
614.589, 10638.989
615.901, 9613.839
617.212, 8174.711
618.523, 7253.618
619.834, 6508.538
621.145, 6421.475
622.456, 6517.427
623.766, 6726.386
625.076, 7678.355
626.386, 8704.329
627.696, 10327.308
629.006, 11865.286
630.315, 13443.271
631.624, 14984.261
632.933, 14781.250
634.242, 14797.243
635.551, 13590.238
636.859, 12077.238
638.167, 10667.241
639.475, 9329.247
640.783, 8165.257
642.090, 7448.268
643.398, 6805.284
644.705, 6375.302
646.012, 5774.322
647.318, 5250.346
648.625, 4412.374
649.931, 3526.403
651.237, 2887.436
652.543, 2021.127
653.849, 1659.832
655.155, 1202.778
656.460, 911.484
657.765, 779.945
659.070, 551.526
660.375, 435.008
661.679, 421.639
662.984, 298.970
664.288, 371.597
665.592, 314.330
666.895, 239.980
668.199, 226.926
669.502, 196.952
670.805, 229.031
672.108, 141.113
673.411, 177.198
674.713, 93.287
676.016, 77.380
677.318, 71.589
678.620, 53.733
679.921, 8.926
681.223, 25.129
682.524, 11.374
683.825, 13.666
685.126, 29.947
686.427, 43.493
687.727, 12.024
689.028, 48.557
690.328, 64.277
691.628, 80.777
692.927, 61.563
694.227, 124.077
695.526, 180.596
696.825, 299.081
698.124, 268.563
699.423, 377.128
700.721, 434.015
702.020, 639.287
703.318, 755.498
704.616, 834.589
705.913, 959.383
707.211, 1018.872
708.508, 1291.248
709.805, 1484.921
711.102, 1614.859
712.399, 1785.232
713.695, 2008.144
714.992, 2263.488
716.288, 2452.907
717.584, 2846.651
718.879, 3098.215
720.175, 3494.137
721.470, 3850.024
722.765, 4473.928
724.060, 4891.669
725.355, 5667.820
726.649, 6422.872
727.944, 7296.528
729.238, 8329.601
730.532, 9648.888
731.825, 11041.228
733.119, 13135.665
734.412, 14767.412
735.705, 16850.395
736.998, 19219.443
738.291, 21531.467
739.584, 23451.484
740.876, 24759.445
742.168, 25884.174
743.460, 25061.107
744.752, 24072.096
746.043, 21677.307
747.334, 19453.580
748.626, 17244.494
749.916, 14591.229
751.207, 12769.270
752.498, 10992.415
753.788, 9239.455
755.078, 8087.464
756.368, 7085.949
757.658, 6125.705
758.947, 5414.420
760.237, 4677.502
761.526, 4265.589
762.815, 3778.644
764.104, 3348.664
765.392, 3093.334
766.680, 2799.305
767.969, 2485.141
769.257, 2265.063
770.544, 2021.258
771.832, 1957.937
773.119, 1780.768
774.406, 1646.601
775.693, 1508.452
776.980, 1361.284
778.267, 1311.920
779.553, 1169.671
780.839, 1101.217
782.125, 1087.819
783.411, 1024.250
784.697, 949.665
785.982, 815.106
787.267, 839.488
788.552, 698.852
789.837, 706.200
791.122, 706.530
792.406, 624.844
793.690, 634.140
794.974, 603.419
796.258, 582.681
797.542, 492.925
798.825, 487.151
800.108, 506.360
801.391, 428.552
802.674, 426.725
803.957, 408.881
805.239, 423.018
806.522, 400.380
807.804, 380.125
809.085, 373.326
810.367, 318.395
811.649, 315.446
812.930, 272.482
814.211, 208.501
815.492, 183.503
816.772, 222.490
818.053, 239.460
819.333, 197.413
820.613, 213.349
821.893, 173.269
823.173, 195.169
824.452, 135.051
825.732, 138.913
827.011, 112.757
828.290, 110.580
829.568, 103.532
830.847, 77.171
832.125, 93.935
833.403, 83.679
834.681, 82.631
835.959, 73.638
837.236, 63.790
838.514, 42.452
839.791, 29.808
841.068, 9.425
842.345, 9.872
843.621, 3.209
844.898, 20.128
846.174, 2.647
847.450, 19.137
848.726, 18.604
850.001, 28.049
851.277, 29.470
852.552, 10.868
853.827, 3.241
855.102, 18.415
856.376, 1.112
857.651, 1.160
858.925, 25.600
860.199, 33.596
861.473, 18.231
862.746, 4.900
864.020, 70.003
865.293, 5.914
866.566, 15.140
867.839, 7.173
869.112, 59.821
870.384, 13.870
871.656, 38.958
872.928, 44.097
874.200, 90.292
875.472, 71.567
876.744, 52.912
878.015, 59.318
879.286, 41.788
880.557, 67.313
881.828, 73.908
883.098, 29.574
884.369, 62.289
885.639, 32.069
886.909, 84.899
888.178, 72.807
889.448, 73.786
890.717, 72.837
891.987, 87.959
893.256, 54.160
894.524, 129.423
895.793, 51.787
897.061, 36.212
898.330, 54.690
899.598, 7.231
900.865, 64.809
902.133, 77.455
903.401, 27.824
904.668, 83.920
905.935, 34.487
907.202, 42.382
908.468, 26.515
909.735, 15.460
911.001, 0.554
912.267, 13.536
913.533, 22.507
914.799, 22.594
916.064, 14.276
917.330, 1.878
918.595, 16.936
919.860, 44.727
921.124, 19.496
922.389, 3.242
923.653, 67.961
924.918, 26.659
926.182, 21.336
927.445, 11.991
928.709, 11.548
929.972, 53.235
931.236, 20.825
932.499, 64.395
933.761, 45.945
935.024, 102.476
936.286, 135.988
937.549, 68.482
938.811, 109.958
940.073, 122.416
941.334, 146.857
942.596, 157.280
943.857, 98.686
945.118, 178.075
946.379, 121.447
947.640, 141.802
948.900, 239.141
950.161, 143.463
951.421, 170.769
952.681, 233.059
953.940, 185.333
955.200, 251.591
956.459, 249.834
957.719, 224.061
958.978, 221.273
960.236, 218.469
961.495, 292.651
962.753, 230.818
964.012, 313.970
965.270, 290.108
966.527, 330.231
967.785, 403.340
969.043, 346.436
970.300, 397.518
971.557, 406.587
972.814, 426.643
974.071, 631.685
975.327, 563.708
976.583, 750.730
977.840, 572.733
979.095, 543.723
980.351, 595.701
981.607, 616.664
982.862, 607.509
984.117, 743.413
985.372, 721.277
986.627, 818.131
987.882, 862.936
989.136, 925.685
990.390, 994.335
991.644, 1092.920
992.898, 1092.417
994.152, 1240.905
995.405, 1258.203
996.659, 1454.723
997.912, 1504.948
999.165, 1597.438
1000.417, 1807.922
1001.670, 1861.434
1002.922, 2012.959
1004.174, 2213.396
1005.426, 2233.517
1006.678, 2463.258
1007.930, 2650.055
1009.181, 3055.974
1010.432, 3183.184
1011.683, 3344.694
1012.934, 3745.331
1014.185, 4289.396
1015.435, 4803.059
1016.685, 5355.405
1017.935, 5922.838
1019.185, 6065.960
1020.435, 6129.885
1021.684, 5670.677
1022.934, 5225.894
1024.183, 4848.779
1025.432, 4393.754
1026.680, 4221.906
1027.929, 3955.220
1029.177, 3894.118
1030.425, 3764.135
1031.673, 3695.544
1032.921, 3786.545
1034.169, 3788.331
1035.416, 3966.060
1036.663, 4133.703
1037.911, 4308.039
1039.157, 4532.137
1040.404, 4959.195
1041.650, 5397.317
1042.897, 6017.502
1044.143, 6705.817
1045.389, 7634.421
1046.634, 8826.916
1047.880, 10287.418
1049.125, 12331.777
1050.371, 14759.140
1051.615, 18123.910
1052.860, 22210.914
1054.105, 27640.641
1055.349, 34631.297
1056.593, 41639.082
1057.837, 48069.914
1059.081, 53859.270
1060.325, 53369.344
1061.568, 50144.473
1062.812, 42529.223
1064.055, 33983.953
1065.298, 27130.736
1066.540, 20430.533
1067.783, 16013.681
1069.025, 12819.521
1070.267, 10380.490
1071.509, 8679.370
1072.751, 7476.975
1073.993, 6352.090
1075.234, 5756.047
1076.475, 5161.998
1077.716, 4739.926
1078.957, 4481.868
1080.198, 4255.000
1081.438, 4121.016
1082.679, 4032.229
1083.919, 3988.385
1085.159, 4146.709
1086.398, 4082.045
1087.638, 4300.356
1088.877, 4401.721
1090.116, 4538.099
1091.355, 4680.491
1092.594, 4837.893
1093.833, 4809.309
1095.071, 4842.739
1096.309, 4852.181
1097.547, 5139.650
1098.785, 5323.131
1100.023, 5630.624
1101.260, 5825.133
1102.498, 5727.653
1103.735, 5391.187
1104.972, 4998.732
1106.208, 4392.291
1107.445, 4069.864
1108.681, 3687.450
1109.918, 3408.051
1111.154, 3259.666
1112.389, 3126.297
1113.625, 3024.943
1114.860, 3135.604
1116.096, 3107.277
1117.331, 3175.092
1118.566, 3325.792
1119.800, 3458.410
1121.035, 3643.342
1122.269, 3918.085
1123.503, 4271.840
1124.737, 4626.610
1125.971, 4772.394
1127.205, 5411.189
1128.438, 6177.000
1129.671, 7227.822
1130.904, 8657.872
1132.137, 10325.627
1133.370, 12633.275
1134.602, 15089.959
1135.834, 16994.100
1137.066, 18511.059
1138.298, 17886.479
1139.530, 16555.412
1140.762, 14176.522
1141.993, 11841.741
1143.224, 10263.383
1144.455, 8217.458
1145.686, 7155.495
1146.917, 6224.524
1148.147, 5333.013
1149.377, 4694.063
1150.607, 4370.483
1151.837, 3921.640
1153.067, 3626.600
1154.296, 3321.370
1155.526, 3151.773
1156.755, 2959.671
1157.984, 2750.215
1159.213, 2625.486
1160.441, 2609.152
1161.670, 2412.250
1162.898, 2390.594
1164.126, 2322.509
1165.354, 2231.359
1166.581, 2245.082
1167.809, 2175.700
1169.036, 2178.648
1170.263, 2215.062
1171.490, 2035.487
1172.717, 2167.437
1173.943, 2131.125
1175.170, 2094.207
1176.396, 2204.909
1177.622, 2210.644
1178.848, 2188.012
1180.073, 2286.366
1181.299, 2136.695
1182.524, 2151.392
1183.749, 2026.114
1184.974, 1835.987
1186.199, 1780.772
1187.423, 1591.436
1188.648, 1444.279
1189.872, 1336.200
1191.096, 1218.100
1192.320, 1154.119
1193.543, 1056.307
1194.767, 977.020
1195.990, 907.097
1197.213, 931.325
1198.436, 805.664
1199.659, 850.548
1200.881, 766.352
1202.104, 802.494
1203.326, 840.811
1204.548, 865.518
1205.770, 998.723
1206.991, 974.263
1208.213, 985.502
1209.434, 1092.753
1210.655, 1062.225
1211.876, 1171.500
1213.096, 1086.792
1214.317, 1020.258
1215.537, 1059.567
1216.757, 973.172
1217.977, 929.548
1219.197, 866.083
1220.417, 871.652
1221.636, 814.101
1222.855, 821.446
1224.074, 688.990
1225.293, 678.430
1226.512, 655.849
1227.731, 582.135
1228.949, 639.316
1230.167, 506.346
1231.385, 437.444
1232.603, 431.949
1233.820, 364.110
1235.038, 292.649
1236.255, 236.039
1237.472, 257.244
1238.689, 251.737
1239.906, 205.204
1241.122, 136.341
1242.338, 151.776
1243.555, 69.678
1244.771, 151.197
1245.986, 121.664
1247.202, 80.784
1248.417, 75.270
1249.633, 99.765
1250.848, 60.269
1252.063, 120.783
1253.277, 52.371
1254.492, 68.537
1255.706, 70.086
1256.920, 37.788
1258.134, 73.312
1259.348, 7.997
1260.562, 38.693
1261.775, 76.260
1262.988, 8.216
1264.201, 27.388
1265.414, 15.908
1266.627, 6.574
1267.839, 58.250
1269.052, 19.722
1270.264, 21.186
1271.476, 22.652
1272.688, 8.973
1273.899, 10.517
1275.111, 8.928
1276.322, 31.693
1277.533, 25.113
1278.744, 71.820
1279.955, 39.520
1281.165, 8.058
1282.376, 0.133
1283.586, 13.703
1284.796, 12.462
1286.006, 41.387
1287.215, 6.144
1288.425, 15.041
1289.634, 37.962
1290.843, 9.151
1292.052, 16.200
1293.261, 25.746
1294.469, 38.396
1295.678, 70.586
1296.886, 4.532
1298.094, 45.478
1299.302, 41.507
1300.509, 1.555
1301.717, 25.614
1302.924, 2.686
1304.131, 13.263
1305.338, 66.833
1306.545, 8.959
1307.752, 12.057
1308.958, 36.112
1310.164, 18.199
1311.370, 15.335
1312.576, 60.571
1313.782, 16.867
1314.987, 71.188
1316.193, 22.544
1317.398, 13.921
1318.603, 56.326
1319.807, 2.234
1321.012, 11.763
1322.216, 85.726
1323.421, 0.740
1324.625, 29.814
1325.829, 12.403
1327.032, 48.984
1328.236, 48.646
1329.439, 18.312
1330.642, 52.993
1331.845, 44.721
1333.048, 57.533
1334.251, 47.771
1335.453, 84.992
1336.656, 42.197
1337.858, 23.386
1339.060, 23.444
1340.261, 54.695
1341.463, 28.817
1342.664, 23.920
1343.866, 10.003
1345.067, 13.061
1346.267, 73.094
1347.468, 38.108
1348.669, 0.897
1349.869, 79.073
1351.069, 27.024
1352.269, 81.956
1353.469, 99.871
1354.668, 34.768
1355.868, 107.648
1357.067, 83.510
1358.266, 41.356
1359.465, 110.185
1360.664, 33.997
1361.862, 67.792
1363.061, 40.570
1364.259, 39.331
1365.457, 57.077
1366.655, 97.808
1367.852, 44.525
1369.050, 64.982
1370.247, 71.731
1371.444, 23.598
1372.641, 90.263
1373.838, 27.066
1375.035, 25.711
1376.231, 59.347
1377.427, 3.978
1378.623, 55.570
1379.819, 92.142
1381.015, 25.707
1382.211, 72.157
1383.406, 82.595
1384.601, 33.006
1385.796, 125.392
1386.991, 17.239
1388.185, 88.118
1389.380, 116.462
1390.574, 42.787
1391.768, 119.093
1392.962, 133.377
1394.156, 124.505
1395.350, 149.757
1396.543, 99.871
1397.736, 52.088
1398.929, 117.291
1400.122, 86.479
1401.315, 42.186
1402.507, 80.736
1403.700, 81.431
1404.892, 110.867
1406.084, 125.950
1407.276, 95.554
1408.467, 148.435
1409.659, 135.531
1410.850, 64.801
1412.041, 134.542
1413.232, 122.645
1414.423, 156.717
1415.614, 107.316
1416.804, 109.178
1417.994, 141.599
1419.184, 130.929
1420.374, 46.433
1421.564, 153.544
1422.753, 76.504
1423.943, 34.545
1425.132, 173.019
1426.321, 69.862
1427.510, 59.320
1428.698, 52.102
1429.887, 30.531
1431.075, 66.552
1432.263, 91.696
1433.451, 45.365
1434.639, 75.361
1435.827, 54.395
1437.014, 28.136
1438.201, 78.769
1439.388, 27.526
1440.575, 93.607
1441.762, 85.362
1442.949, 58.759
1444.135, 71.926
1445.321, 106.641
1446.507, 46.999
1447.693, 105.336
1448.879, 103.843
1450.064, 21.900
1451.250, 149.715
1452.435, 23.597
1453.620, 28.691
1454.805, 133.466
1455.989, 62.120
1457.174, 103.558
1458.358, 74.208
1459.542, 65.707
1460.726, 93.446
1461.910, 55.205
1463.093, 90.578
1464.277, 156.018
1465.460, 63.652
1466.643, 55.377
1467.826, 106.299
1469.009, 78.010
1470.191, 75.753
1471.373, 82.555
1472.556, 58.924
1473.738, 65.299
1474.919, 102.659
1476.101, 84.977
1477.283, 104.986
1478.464, 84.259
1479.645, 91.626
1480.826, 113.593
1482.007, 50.410
1483.187, 45.542
1484.368, 129.583
1485.548, 66.416
1486.728, 146.695
1487.908, 122.207
1489.088, 70.780
1490.268, 153.897
1491.447, 66.989
1492.626, 57.124
1493.805, 120.390
1494.984, 23.703
1496.163, 90.096
