##NAMES=Lazulite
##RRUFFID=R050110
##IDEAL CHEMISTRY=MgAl_2_(PO_4_)_2_(OH)_2_
##LOCALITY=Rapid Creek, Yukon Territory, Canada
##OWNER=RRUFF
##SOURCE=Rock Currier
##DESCRIPTION=Azure-blue stubby crystals with complex terminations
##STATUS=The identification of this mineral has been confirmed by X-ray diffraction and chemical analysis
##URL=rruff.info/R050110
##MEASURED CHEMISTRY=(Mg_0.84_Fe_0.16_)Al_2.00_(P_1.00_O_4_)_2_(OH)_2_
##PIN_ID=L00348
##ORIENTATION=Laser parallel to a* (1 0 0). Fiducial mark perpendicular to laser is parallel to b [0 1 0]
81.521, 0.000
82.916, 3.472
84.311, 1.461
85.706, 191.959
87.101, 266.831
88.496, 488.970
89.890, 811.996
91.284, 1274.583
92.678, 1705.891
94.071, 2001.305
95.465, 3032.201
96.858, 4889.117
98.251, 8460.769
99.644, 12113.205
101.036, 11743.687
102.428, 8891.495
103.820, 5954.828
105.212, 3739.060
106.604, 2485.477
107.995, 2179.131
109.387, 3297.469
110.777, 4438.262
112.168, 4149.908
113.559, 3600.022
114.949, 2267.439
116.339, 1463.099
117.729, 979.196
119.119, 477.628
120.508, 308.744
121.897, 101.554
123.286, 156.954
124.675, 80.359
126.063, 137.340
127.452, 41.144
128.840, 24.053
130.228, 48.071
131.615, 67.799
133.003, 3.065
134.390, 0.772
135.777, 44.203
137.164, 137.814
138.550, 172.856
139.937, 286.094
141.323, 298.956
142.709, 244.917
144.094, 300.037
145.480, 273.364
146.865, 497.948
148.250, 398.834
149.635, 406.063
151.019, 409.673
152.403, 203.695
153.788, 350.159
155.171, 248.090
156.555, 359.514
157.939, 118.455
159.322, 162.877
160.705, 80.421
162.088, 43.212
163.470, 160.933
164.853, 244.627
166.235, 510.223
167.617, 1028.737
168.998, 1719.173
170.380, 2589.529
171.761, 3621.800
173.142, 4424.979
174.523, 3844.062
175.904, 2514.043
177.284, 1641.904
178.664, 1296.638
180.044, 1147.256
181.424, 1383.774
182.803, 1996.199
184.183, 3188.534
185.562, 5252.768
186.940, 8073.010
188.319, 11348.577
189.698, 15779.270
191.076, 17093.486
192.454, 14668.651
193.831, 10170.577
195.209, 6857.729
196.586, 4734.482
197.963, 3421.327
199.340, 2605.893
200.717, 1966.570
202.093, 1866.230
203.470, 1740.854
204.846, 1661.417
206.221, 1594.928
207.597, 1596.583
208.972, 1716.885
210.347, 1725.333
211.722, 1823.758
213.097, 2032.158
214.472, 2573.534
215.846, 3257.881
217.220, 4370.201
218.594, 6090.488
219.967, 8406.731
221.341, 11369.918
222.714, 14647.031
224.087, 16315.073
225.460, 16623.039
226.832, 12951.941
228.204, 9002.769
229.577, 5752.535
230.948, 3644.235
232.320, 2388.875
233.692, 1492.458
235.063, 1121.983
236.434, 746.455
237.805, 691.874
239.175, 498.251
240.545, 424.599
241.916, 614.907
243.286, 759.160
244.655, 925.337
246.025, 1223.458
247.394, 2012.554
248.763, 3309.917
250.132, 5099.530
251.501, 7417.198
252.869, 9742.852
254.237, 11267.434
255.605, 9681.917
256.973, 7031.293
258.340, 4679.534
259.708, 3031.591
261.075, 2216.461
262.442, 1767.161
263.808, 1514.711
265.175, 1316.122
266.541, 1068.404
267.907, 1061.537
269.273, 1044.205
270.639, 971.531
272.004, 1013.619
273.369, 1195.525
274.734, 1364.237
276.099, 1831.334
277.463, 2519.731
278.828, 3121.238
280.192, 3802.853
281.556, 4264.383
282.919, 4210.004
284.283, 3775.574
285.646, 2868.075
287.009, 2099.876
288.372, 1352.636
289.734, 888.848
291.097, 589.545
292.459, 217.820
293.821, 153.979
295.183, 8.535
296.544, 66.749
297.905, 187.241
299.266, 219.146
300.627, 337.969
301.988, 340.667
303.348, 287.500
304.709, 319.206
306.069, 364.150
307.428, 227.551
308.788, 144.975
310.147, 156.735
311.507, 105.497
312.865, 88.576
314.224, 322.533
315.583, 832.396
316.941, 1378.521
318.299, 2152.152
319.657, 2999.252
321.015, 3684.719
322.372, 4025.791
323.729, 3489.120
325.086, 2780.475
326.443, 2133.915
327.800, 1660.874
329.156, 1513.271
330.512, 1364.333
331.868, 1392.336
333.224, 1352.279
334.579, 1326.164
335.935, 1341.990
337.290, 1441.759
338.645, 1581.468
339.999, 1742.120
341.354, 1939.715
342.708, 2158.351
344.062, 2375.834
345.416, 2710.261
346.769, 2661.649
348.123, 2562.966
349.476, 2252.235
350.829, 2031.433
352.182, 1641.506
353.534, 1524.342
354.887, 1368.810
356.239, 1330.813
357.591, 1256.391
358.942, 1202.558
360.294, 1172.435
361.645, 1139.128
362.996, 1093.778
364.347, 1056.406
365.698, 973.013
367.048, 993.602
368.398, 1068.179
369.748, 1161.754
371.098, 1363.320
372.448, 1485.888
373.797, 1747.469
375.146, 2099.062
376.495, 2310.674
377.844, 2597.313
379.192, 2503.979
380.540, 2449.648
381.889, 2113.341
383.236, 1825.034
384.584, 1448.725
385.932, 1207.401
387.279, 1164.060
388.626, 1085.701
389.973, 1062.479
391.319, 1090.215
392.666, 1048.628
394.012, 1058.077
395.358, 1039.519
396.704, 1053.398
398.049, 1020.827
399.394, 1011.571
400.740, 1050.945
402.084, 1143.255
403.429, 1407.854
404.774, 1920.388
406.118, 2861.451
407.462, 4667.846
408.806, 7945.226
410.150, 12466.556
411.493, 17505.840
412.836, 22580.070
414.179, 21488.250
415.522, 14549.378
416.865, 8671.454
418.207, 5007.481
419.549, 3061.458
420.891, 2191.385
422.233, 1840.264
423.575, 2070.094
424.916, 2397.878
426.257, 2994.614
427.598, 3187.306
428.939, 3029.951
430.279, 2429.552
431.619, 1732.110
432.959, 1257.628
434.299, 861.106
435.639, 748.545
436.978, 570.945
438.318, 481.305
439.657, 436.619
440.996, 392.889
442.334, 395.111
443.673, 351.535
445.011, 342.416
446.349, 329.498
447.687, 360.532
449.024, 395.397
450.361, 428.471
451.699, 525.287
453.036, 614.890
454.372, 716.967
455.709, 915.763
457.045, 1143.077
458.381, 1404.640
459.717, 1618.635
461.053, 1865.633
462.388, 2079.274
463.724, 2267.733
465.059, 2394.522
466.394, 2656.319
467.728, 3060.297
469.063, 3606.858
470.397, 4546.615
471.731, 5643.652
473.065, 7156.927
474.398, 9217.950
475.732, 11394.351
477.065, 13050.652
478.398, 13885.204
479.731, 12572.743
481.063, 10787.268
482.396, 8255.777
483.728, 5753.278
485.060, 4371.771
486.391, 3104.257
487.723, 2181.743
489.054, 1567.221
490.385, 1192.688
491.716, 921.143
493.047, 739.585
494.377, 616.015
495.708, 468.433
497.038, 454.840
498.368, 358.235
499.697, 329.621
501.027, 280.995
502.356, 223.359
503.685, 257.713
505.014, 249.057
506.342, 233.390
507.671, 326.714
508.999, 230.030
510.327, 361.336
511.655, 359.634
512.982, 341.925
514.310, 490.208
515.637, 423.487
516.964, 515.764
518.291, 490.038
519.617, 493.294
520.944, 524.452
522.270, 515.867
523.596, 521.383
524.921, 531.174
526.247, 530.098
527.572, 537.555
528.897, 536.827
530.222, 532.002
531.547, 494.362
532.871, 574.341
534.196, 569.146
535.520, 635.333
536.844, 635.951
538.167, 715.982
539.491, 636.918
540.814, 572.987
542.137, 498.054
543.460, 484.124
544.783, 341.659
546.105, 261.582
547.427, 257.178
548.749, 184.734
550.071, 188.152
551.393, 19.554
552.714, 18.946
554.035, 31.658
555.356, 6.719
556.677, 0.088
557.998, 40.446
559.318, 70.192
560.638, 116.435
561.958, 137.491
563.278, 181.808
564.597, 245.233
565.917, 266.625
567.236, 328.040
568.555, 381.473
569.874, 402.923
571.192, 473.385
572.511, 453.859
573.829, 658.335
575.147, 787.809
576.464, 940.307
577.782, 1213.819
579.099, 1449.350
580.416, 1458.900
581.733, 1266.453
583.050, 1053.011
584.366, 764.572
585.683, 611.144
586.999, 381.727
588.315, 297.321
589.630, 184.932
590.946, 228.560
592.261, 217.212
593.576, 288.840
594.891, 378.509
596.206, 417.728
597.520, 628.598
598.834, 905.304
600.148, 1399.848
601.462, 1787.414
602.776, 2400.807
604.089, 2965.173
605.402, 3441.496
606.715, 3544.958
608.028, 3609.577
609.341, 3617.344
610.653, 3732.527
611.965, 3969.101
613.277, 4002.792
614.589, 3890.508
615.901, 3711.270
617.212, 3416.099
618.523, 3388.026
619.834, 3317.062
621.145, 3557.234
622.456, 3548.544
623.766, 3605.978
625.076, 3779.544
626.386, 3846.675
627.696, 3890.070
629.006, 4177.973
630.315, 4359.964
631.624, 4668.029
632.933, 4609.123
634.242, 4713.225
635.551, 4677.343
636.859, 4623.435
638.167, 4874.522
639.475, 5175.604
640.783, 5608.680
642.090, 6422.771
643.398, 7407.834
644.705, 8536.890
646.012, 9386.037
647.318, 9804.142
648.625, 9655.318
649.931, 8798.442
651.237, 7805.464
652.543, 6422.731
653.849, 5440.047
655.155, 4402.191
656.460, 3551.603
657.765, 2971.814
659.070, 2331.103
660.375, 1950.464
661.679, 1762.727
662.984, 1472.789
664.288, 1323.083
665.592, 1129.541
666.895, 989.978
668.199, 862.183
669.502, 746.675
670.805, 638.167
672.108, 538.444
673.411, 471.007
674.713, 330.135
676.016, 278.685
677.318, 232.019
678.620, 194.410
679.921, 89.916
681.223, 77.139
682.524, 6.624
683.825, 44.150
685.126, 80.845
686.427, 55.777
687.727, 98.823
689.028, 137.363
690.328, 132.880
691.628, 153.831
692.927, 191.236
694.227, 180.359
695.526, 97.778
696.825, 162.130
698.124, 81.345
699.423, 64.118
700.721, 10.085
702.020, 39.937
703.318, 117.193
704.616, 130.853
705.913, 173.151
707.211, 209.115
708.508, 408.458
709.805, 463.723
711.102, 539.274
712.399, 479.035
713.695, 598.223
714.992, 688.491
716.288, 634.524
717.584, 685.159
718.879, 646.971
720.175, 737.771
721.470, 723.427
722.765, 850.130
724.060, 1051.938
725.355, 1120.732
726.649, 1344.694
727.944, 1492.274
729.238, 1756.821
730.532, 1970.711
731.825, 2203.910
733.119, 2717.282
734.412, 3070.910
735.705, 3578.541
736.998, 4040.562
738.291, 4483.473
739.584, 4857.443
740.876, 5145.907
742.168, 5357.319
743.460, 5206.872
744.752, 4886.632
746.043, 4423.723
747.334, 3948.167
748.626, 3410.860
749.916, 2944.455
751.207, 2543.705
752.498, 2099.533
753.788, 1813.146
755.078, 1577.677
756.368, 1303.020
757.658, 1096.104
758.947, 956.243
760.237, 856.141
761.526, 808.208
762.815, 718.083
764.104, 584.913
765.392, 612.804
766.680, 472.585
767.969, 490.424
769.257, 460.240
770.544, 406.938
771.832, 385.609
773.119, 397.384
774.406, 359.996
775.693, 385.578
776.980, 359.130
778.267, 344.650
779.553, 370.139
780.839, 351.595
782.125, 347.019
783.411, 268.409
784.697, 316.765
785.982, 361.086
787.267, 262.372
788.552, 333.624
789.837, 252.840
791.122, 270.021
792.406, 308.166
793.690, 291.276
794.974, 301.027
796.258, 250.391
797.542, 277.395
798.825, 263.364
800.108, 231.297
801.391, 239.194
802.674, 219.055
803.957, 230.880
805.239, 255.668
806.522, 191.421
807.804, 177.136
809.085, 215.813
810.367, 149.454
811.649, 195.055
812.930, 173.619
814.211, 131.145
815.492, 174.631
816.772, 220.080
818.053, 157.492
819.333, 119.866
820.613, 120.200
821.893, 174.494
823.173, 102.751
824.452, 99.967
825.732, 148.143
827.011, 85.281
828.290, 177.376
829.568, 84.435
830.847, 121.451
832.125, 104.428
833.403, 84.365
834.681, 137.027
835.959, 59.595
837.236, 52.554
838.514, 97.154
839.791, 56.362
841.068, 56.332
842.345, 65.288
843.621, 12.210
844.898, 34.259
846.174, 15.883
847.450, 3.032
848.726, 0.723
850.001, 4.294
851.277, 3.024
852.552, 7.454
853.827, 9.020
855.102, 7.988
856.376, 38.531
857.651, 19.635
858.925, 64.806
860.199, 60.102
861.473, 36.990
862.746, 29.147
864.020, 70.661
865.293, 9.446
866.566, 30.883
867.839, 58.926
869.112, 7.628
870.384, 40.295
871.656, 50.065
872.928, 0.510
874.200, 60.953
875.472, 78.488
876.744, 65.102
878.015, 65.789
879.286, 37.547
880.557, 48.363
881.828, 0.240
883.098, 12.847
884.369, 93.095
885.639, 49.122
886.909, 70.208
888.178, 71.365
889.448, 14.594
890.717, 13.862
891.987, 16.019
893.256, 41.516
894.524, 41.916
895.793, 45.368
897.061, 65.873
898.330, 72.441
899.598, 14.076
900.865, 68.746
902.133, 84.479
903.401, 28.718
904.668, 59.107
905.935, 40.989
907.202, 40.915
908.468, 0.886
909.735, 28.117
911.001, 7.100
912.267, 62.060
913.533, 9.002
914.799, 46.923
916.064, 55.825
917.330, 26.708
918.595, 50.573
919.860, 21.419
921.124, 17.248
922.389, 40.057
923.653, 36.850
924.918, 2.625
926.182, 82.382
927.445, 58.123
928.709, 28.847
929.972, 54.555
931.236, 54.248
932.499, 64.925
933.761, 23.587
935.024, 80.234
936.286, 108.867
937.549, 35.485
938.811, 115.089
940.073, 64.679
941.334, 103.256
942.596, 142.800
943.857, 102.350
945.118, 106.888
946.379, 143.413
947.640, 92.926
948.900, 183.407
950.161, 134.896
951.421, 205.375
952.681, 157.748
953.940, 155.145
955.200, 248.450
956.459, 210.796
957.719, 188.223
958.978, 273.390
960.236, 192.490
961.495, 249.746
962.753, 176.718
964.012, 295.875
965.270, 350.937
966.527, 272.817
967.785, 369.874
969.043, 334.120
970.300, 360.102
971.557, 437.922
972.814, 400.757
974.071, 443.817
975.327, 484.574
976.583, 488.318
977.840, 615.263
979.095, 669.907
980.351, 683.974
981.607, 775.609
982.862, 774.456
984.117, 980.236
985.372, 1021.888
986.627, 1072.827
987.882, 1274.737
989.136, 1327.410
990.390, 1531.237
991.644, 1652.271
992.898, 1933.403
994.152, 2200.991
995.405, 2415.509
996.659, 2833.439
997.912, 3216.771
999.165, 3550.787
1000.417, 4032.050
1001.670, 4374.210
1002.922, 4739.192
1004.174, 4886.701
1005.426, 4693.374
1006.678, 4697.064
1007.930, 4333.519
1009.181, 4100.562
1010.432, 3922.809
1011.683, 3854.406
1012.934, 3902.941
1014.185, 4090.561
1015.435, 4347.281
1016.685, 4565.370
1017.935, 4802.981
1019.185, 4892.733
1020.435, 4725.861
1021.684, 4423.580
1022.934, 4225.228
1024.183, 3897.083
1025.432, 3688.138
1026.680, 3533.145
1027.929, 3425.046
1029.177, 3342.957
1030.425, 3255.705
1031.673, 3176.836
1032.921, 3205.938
1034.169, 3201.808
1035.416, 3342.303
1036.663, 3483.622
1037.911, 3670.677
1039.157, 3862.718
1040.404, 4315.369
1041.650, 4550.121
1042.897, 5112.812
1044.143, 5535.000
1045.389, 6425.229
1046.634, 7596.311
1047.880, 8766.178
1049.125, 10494.708
1050.371, 12485.874
1051.615, 15499.789
1052.860, 18999.795
1054.105, 23485.150
1055.349, 29261.914
1056.593, 34609.883
1057.837, 39455.938
1059.081, 43608.176
1060.325, 42365.684
1061.568, 39539.125
1062.812, 33475.797
1064.055, 26739.311
1065.298, 21420.014
1066.540, 16216.760
1067.783, 13031.459
1069.025, 10609.267
1070.267, 8625.007
1071.509, 7372.765
1072.751, 6446.628
1073.993, 5502.514
1075.234, 5140.288
1076.475, 4643.214
1077.716, 4366.165
1078.957, 4241.137
1080.198, 4088.128
1081.438, 3981.144
1082.679, 3991.180
1083.919, 3933.236
1085.159, 4005.671
1086.398, 4095.416
1087.638, 4234.541
1088.877, 4399.682
1090.116, 4606.847
1091.355, 4921.031
1092.594, 5332.237
1093.833, 5647.464
1095.071, 6248.714
1096.309, 7031.985
1097.547, 8044.282
1098.785, 9226.598
1100.023, 10134.936
1101.260, 10992.299
1102.498, 10730.681
1103.735, 9994.091
1104.972, 8874.517
1106.208, 7512.969
1107.445, 6437.442
1108.681, 5499.939
1109.918, 4707.459
1111.154, 4280.003
1112.389, 3835.570
1113.625, 3439.161
1114.860, 3376.775
1116.096, 3158.414
1117.331, 3123.729
1118.566, 3064.414
1119.800, 3044.121
1121.035, 3074.517
1122.269, 3145.272
1123.503, 3189.051
1124.737, 3316.904
1125.971, 3299.730
1127.205, 3706.602
1128.438, 4006.720
1129.671, 4444.282
1130.904, 5189.484
1132.137, 5939.180
1133.370, 6916.144
1134.602, 8109.313
1135.834, 8902.324
1137.066, 9723.262
1138.298, 9414.399
1139.530, 9018.607
1140.762, 7951.951
1141.993, 6747.124
1143.224, 6208.314
1144.455, 5295.921
1145.686, 4792.140
1146.917, 4449.796
1148.147, 3966.588
1149.377, 3734.961
1150.607, 3705.187
1151.837, 3362.667
1153.067, 3283.068
1154.296, 3119.235
1155.526, 2990.391
1156.755, 3009.188
1157.984, 2900.460
1159.213, 2850.901
1160.441, 2935.013
1161.670, 2708.263
1162.898, 2913.424
1164.126, 2864.510
1165.354, 2830.168
1166.581, 3019.301
1167.809, 2924.286
1169.036, 3082.073
1170.263, 3199.692
1171.490, 3160.602
1172.717, 3402.399
1173.943, 3499.410
1175.170, 3526.171
1176.396, 3952.115
1177.622, 3999.007
1178.848, 4070.324
1180.073, 4185.021
1181.299, 4071.884
1182.524, 4082.862
1183.749, 3715.592
1184.974, 3346.800
1186.199, 3186.917
1187.423, 2712.100
1188.648, 2494.242
1189.872, 2288.287
1191.096, 1897.622
1192.320, 1858.817
1193.543, 1665.115
1194.767, 1393.144
1195.990, 1429.615
1197.213, 1299.245
1198.436, 1096.775
1199.659, 1248.559
1200.881, 1076.174
1202.104, 1197.562
1203.326, 1104.009
1204.548, 1087.665
1205.770, 1289.116
1206.991, 1237.388
1208.213, 1218.779
1209.434, 1384.254
1210.655, 1331.287
1211.876, 1391.775
1213.096, 1320.269
1214.317, 1312.452
1215.537, 1359.112
1216.757, 1258.708
1217.977, 1246.385
1219.197, 1207.904
1220.417, 1146.803
1221.636, 1129.555
1222.855, 1112.088
1224.074, 993.939
1225.293, 1029.479
1226.512, 940.060
1227.731, 811.419
1228.949, 817.978
1230.167, 626.939
1231.385, 646.970
1232.603, 588.556
1233.820, 401.305
1235.038, 419.929
1236.255, 378.514
1237.472, 316.299
1238.689, 322.907
1239.906, 241.593
1241.122, 173.308
1242.338, 253.951
1243.555, 123.306
1244.771, 137.975
1245.986, 106.651
1247.202, 88.578
1248.417, 150.275
1249.633, 68.063
1250.848, 62.814
1252.063, 132.517
1253.277, 28.282
1254.492, 130.000
1255.706, 119.710
1256.920, 52.423
1258.134, 72.120
1259.348, 75.792
1260.562, 25.496
1261.775, 131.167
1262.988, 27.185
1264.201, 16.415
1265.414, 59.998
1266.627, 78.415
1267.839, 30.110
1269.052, 5.618
1270.264, 1.910
1271.476, 51.537
1272.688, 0.941
1273.899, 9.563
1275.111, 20.359
1276.322, 48.048
1277.533, 20.776
1278.744, 40.457
1279.955, 75.334
1281.165, 51.841
1282.376, 69.000
1283.586, 38.869
1284.796, 0.192
1286.006, 39.580
1287.215, 13.384
1288.425, 16.442
1289.634, 87.518
1290.843, 28.475
1292.052, 101.540
1293.261, 38.595
1294.469, 17.322
1295.678, 58.781
1296.886, 9.458
1298.094, 36.275
1299.302, 85.920
1300.509, 35.644
1301.717, 12.913
1302.924, 19.201
1304.131, 4.516
1305.338, 77.856
1306.545, 31.235
1307.752, 12.641
1308.958, 90.070
1310.164, 2.543
1311.370, 25.046
1312.576, 53.576
1313.782, 36.881
1314.987, 61.711
1316.193, 17.344
1317.398, 54.991
1318.603, 16.695
1319.807, 11.413
1321.012, 2.837
1322.216, 42.939
1323.421, 16.755
1324.625, 11.396
1325.829, 7.477
1327.032, 89.622
1328.236, 3.300
1329.439, 42.753
1330.642, 73.786
1331.845, 7.201
1333.048, 82.785
1334.251, 3.249
1335.453, 47.688
1336.656, 93.606
1337.858, 70.498
1339.060, 20.370
1340.261, 47.179
1341.463, 38.966
1342.664, 12.730
1343.866, 35.468
1345.067, 3.818
1346.267, 133.865
1347.468, 89.526
1348.669, 52.165
1349.869, 128.782
1351.069, 27.379
1352.269, 24.951
1353.469, 145.498
1354.668, 12.025
1355.868, 129.523
1357.067, 119.000
1358.266, 53.543
1359.465, 69.869
1360.664, 87.278
1361.862, 69.654
1363.061, 128.012
1364.259, 53.354
1365.457, 64.679
1366.655, 121.988
1367.852, 23.284
1369.050, 126.562
1370.247, 104.828
1371.444, 39.085
1372.641, 113.333
1373.838, 57.710
1375.035, 54.953
1376.231, 111.153
1377.427, 77.322
1378.623, 108.740
1379.819, 189.145
1381.015, 84.535
1382.211, 152.909
1383.406, 115.261
1384.601, 113.596
1385.796, 203.911
1386.991, 62.208
1388.185, 139.485
1389.380, 161.742
1390.574, 96.981
1391.768, 167.199
1392.962, 128.665
1394.156, 133.688
1395.350, 205.802
1396.543, 138.837
1397.736, 181.603
1398.929, 208.185
1400.122, 172.296
1401.315, 190.522
1402.507, 235.922
1403.700, 137.859
1404.892, 262.557
1406.084, 180.539
1407.276, 184.927
1408.467, 210.401
1409.659, 427.690
1410.850, 504.052
1412.041, 396.200
1413.232, 127.752
1414.423, 178.083
1415.614, 185.817
1416.804, 99.245
1417.994, 211.911
1419.184, 136.338
1420.374, 98.890
1421.564, 177.936
1422.753, 109.616
1423.943, 93.006
1425.132, 180.329
1426.321, 75.190
1427.510, 118.242
1428.698, 115.890
1429.887, 100.383
1431.075, 179.346
1432.263, 125.418
1433.451, 85.409
1434.639, 149.560
1435.827, 85.719
1437.014, 89.599
1438.201, 147.293
1439.388, 12.543
1440.575, 105.224
1441.762, 145.981
1442.949, 25.136
1444.135, 156.310
1445.321, 115.059
1446.507, 54.221
1447.693, 144.143
1448.879, 106.277
1450.064, 88.599
1451.250, 169.475
1452.435, 50.253
1453.620, 149.653
1454.805, 178.340
1455.989, 38.304
1457.174, 131.329
1458.358, 110.381
1459.542, 43.393
1460.726, 179.298
1461.910, 68.136
1463.093, 88.950
1464.277, 160.926
1465.460, 83.873
1466.643, 127.948
1467.826, 154.198
1469.009, 40.688
1470.191, 94.281
1471.373, 89.059
1472.556, 94.877
1473.738, 219.707
1474.919, 159.500
1476.101, 110.253
1477.283, 170.038
1478.464, 110.778
1479.645, 86.199
1480.826, 181.123
1482.007, 72.518
1483.187, 131.123
1484.368, 198.738
1485.548, 22.296
1486.728, 188.848
1487.908, 129.292
1489.088, 55.887
1490.268, 138.520
1491.447, 121.208
1492.626, 98.953
1493.805, 162.745
1494.984, 73.554
1496.163, 111.349
1497.341, 151.119
1498.520, 8.864
