##NAMES=Lazulite
##RRUFFID=R050110
##IDEAL CHEMISTRY=MgAl_2_(PO_4_)_2_(OH)_2_
##LOCALITY=Rapid Creek, Yukon Territory, Canada
##OWNER=RRUFF
##SOURCE=Rock Currier
##DESCRIPTION=Azure-blue stubby crystals with complex terminations
##STATUS=The identification of this mineral has been confirmed by X-ray diffraction and chemical analysis
##URL=rruff.info/R050110
##MEASURED CHEMISTRY=(Mg_0.84_Fe_0.16_)Al_2.00_(P_1.00_O_4_)_2_(OH)_2_
##PIN_ID=L00543
##ORIENTATION=Laser parallel to (-1 0 -1). Fiducial mark perpendicular to laser is parallel to b [0 1 0]
81.521, 0.000
82.916, 26.050
84.311, 186.586
85.706, 8.278
87.101, 78.440
88.496, 276.516
89.890, 540.534
91.284, 979.405
92.678, 1488.229
94.071, 2283.864
95.465, 3790.305
96.858, 6322.271
98.251, 11126.052
99.644, 16227.041
101.036, 17044.479
102.428, 14401.522
103.820, 10271.279
105.212, 6725.316
106.604, 4343.104
107.995, 3070.810
109.387, 2110.596
110.777, 1894.415
112.168, 1784.887
113.559, 2005.878
114.949, 1710.284
116.339, 1368.020
117.729, 939.019
119.119, 505.228
120.508, 232.602
121.897, 117.106
123.286, 121.736
124.675, 126.479
126.063, 33.435
127.452, 67.766
128.840, 78.779
130.228, 5.266
131.615, 1.359
133.003, 1.492
134.390, 54.663
135.777, 57.133
137.164, 1.437
138.550, 29.563
139.937, 259.629
141.323, 183.383
142.709, 108.827
144.094, 1102.982
145.480, 585.867
146.865, 675.500
148.250, 402.899
149.635, 291.077
151.019, 283.048
152.403, 234.824
153.788, 213.415
155.171, 199.830
156.555, 184.417
157.939, 109.170
159.322, 181.110
160.705, 158.907
162.088, 160.654
163.470, 269.596
164.853, 232.515
166.235, 672.358
167.617, 1199.134
168.998, 2078.854
170.380, 2953.526
171.761, 4314.155
173.142, 5682.739
174.523, 5755.276
175.904, 4467.771
177.284, 3111.216
178.664, 2083.611
180.044, 1768.956
181.424, 1799.253
182.803, 2354.515
184.183, 3593.793
185.562, 5926.041
186.940, 8945.255
188.319, 12300.336
189.698, 17097.844
191.076, 20024.760
192.454, 19063.342
193.831, 14354.274
195.209, 9664.369
196.586, 6142.776
197.963, 4031.760
199.340, 2877.043
200.717, 2159.334
202.093, 1798.634
203.470, 1528.942
204.846, 1529.258
206.221, 1378.580
207.597, 1341.907
208.972, 1423.238
210.347, 1453.574
211.722, 1518.913
213.097, 1680.253
214.472, 1982.596
215.846, 2519.940
217.220, 3318.285
218.594, 4756.629
219.967, 6555.972
221.341, 9103.303
222.714, 12215.614
224.087, 14531.904
225.460, 16302.181
226.832, 14324.438
228.204, 11146.680
229.577, 7499.906
230.948, 4772.118
232.320, 3203.321
233.692, 1901.512
235.063, 1402.693
236.434, 958.863
237.805, 846.024
239.175, 656.178
240.545, 707.382
241.916, 869.390
243.286, 979.162
244.655, 1382.161
246.025, 1627.232
247.394, 2175.160
248.763, 3074.273
250.132, 4365.458
251.501, 5901.479
252.869, 7876.854
254.237, 9837.278
255.605, 9448.726
256.973, 7587.189
258.340, 5472.682
259.708, 3649.506
261.075, 2572.931
262.442, 1864.330
263.808, 1677.710
265.175, 1401.075
266.541, 1182.428
267.907, 1141.769
269.273, 1060.101
270.639, 1076.133
272.004, 1189.159
273.369, 1543.184
274.734, 1934.111
276.099, 2575.048
277.463, 3408.988
278.828, 4344.933
280.192, 5637.876
281.556, 6314.210
282.919, 6724.536
284.283, 6531.906
285.646, 5245.309
287.009, 4133.710
288.372, 2957.050
289.734, 2084.385
291.097, 1343.387
292.459, 808.851
293.821, 617.620
295.183, 306.494
296.544, 183.236
297.905, 9.995
299.266, 166.167
300.627, 172.028
301.988, 186.412
303.348, 241.828
304.709, 253.358
306.069, 217.006
307.428, 186.759
308.788, 111.610
310.147, 9.537
311.507, 91.488
312.865, 386.484
314.224, 754.457
315.583, 1392.408
316.941, 2221.338
318.299, 3420.247
319.657, 4927.136
321.015, 6301.008
322.372, 7242.859
323.729, 6811.696
325.086, 5788.512
326.443, 4491.314
327.800, 3338.097
329.156, 2732.861
330.512, 2353.609
331.868, 2399.339
333.224, 2325.052
334.579, 2289.748
335.935, 2488.428
337.290, 2744.091
338.645, 3321.738
339.999, 3980.369
341.354, 4902.983
342.708, 5961.583
344.062, 6631.167
345.416, 7657.736
346.769, 7267.289
348.123, 6808.828
349.476, 5735.350
350.829, 4694.859
352.182, 3737.354
353.534, 2980.830
354.887, 2439.168
356.239, 1974.290
357.591, 1764.149
358.942, 1579.789
360.294, 1430.319
361.645, 1258.839
362.996, 1112.357
364.347, 1081.115
365.698, 1120.386
367.048, 1084.897
368.398, 1238.415
369.748, 1311.941
371.098, 1596.480
372.448, 1846.034
373.797, 2224.607
375.146, 2737.202
376.495, 2834.817
377.844, 3147.470
379.192, 2960.154
380.540, 2650.840
381.889, 2128.542
383.236, 1645.253
384.584, 1189.963
385.932, 864.672
387.279, 711.380
388.626, 486.086
389.973, 436.791
391.319, 345.493
392.666, 250.196
394.012, 222.179
395.358, 145.057
396.704, 73.042
398.049, 28.942
399.394, 42.374
400.740, 18.715
402.084, 51.075
403.429, 67.468
404.774, 5.076
406.118, 34.563
407.462, 330.001
408.806, 792.436
410.150, 1513.862
411.493, 2265.280
412.836, 3030.690
414.179, 3040.093
415.522, 1957.486
416.865, 920.869
418.207, 304.243
419.549, 194.607
420.891, 107.961
422.233, 454.304
423.575, 1178.636
424.916, 1935.960
426.257, 3184.274
427.598, 3947.581
428.939, 4163.878
430.279, 3654.167
431.619, 2693.447
432.959, 1929.721
434.299, 1244.987
435.639, 818.247
436.978, 581.500
438.318, 364.748
439.657, 284.988
440.996, 183.223
442.334, 86.452
443.673, 86.670
445.011, 31.120
446.349, 64.050
447.687, 62.210
449.024, 74.360
450.361, 72.499
451.699, 149.629
453.036, 163.752
454.372, 172.889
455.709, 350.041
457.045, 447.188
458.381, 496.001
459.717, 700.026
461.053, 745.007
462.388, 908.743
463.724, 1078.582
465.059, 1212.946
466.394, 1496.594
467.728, 1782.535
469.063, 2467.389
470.397, 3175.977
471.731, 4336.989
473.065, 5662.918
474.398, 7503.048
475.732, 9664.178
477.065, 11650.307
478.398, 12977.437
479.731, 12684.567
481.063, 11353.698
482.396, 9109.828
483.728, 6736.960
485.060, 5081.093
486.391, 3632.228
487.723, 2461.360
489.054, 1793.495
490.385, 1387.631
491.716, 1132.767
493.047, 936.904
494.377, 774.042
495.708, 684.180
497.038, 626.319
498.368, 442.460
499.697, 310.602
501.027, 178.744
502.356, 91.811
503.685, 82.032
505.014, 11.178
506.342, 11.324
507.671, 77.472
508.999, 60.621
510.327, 69.772
511.655, 119.924
512.982, 107.077
514.310, 180.232
515.637, 160.391
516.964, 204.554
518.291, 216.721
519.617, 266.894
520.944, 419.074
522.270, 328.261
523.596, 284.454
524.921, 398.653
526.247, 353.934
527.572, 426.727
528.897, 405.035
530.222, 468.778
531.547, 372.618
532.871, 466.624
534.196, 453.998
535.520, 556.571
536.844, 582.779
538.167, 616.885
539.491, 625.766
540.814, 589.723
542.137, 612.904
543.460, 525.337
544.783, 389.897
546.105, 295.248
547.427, 273.612
548.749, 206.990
550.071, 133.374
551.393, 38.766
552.714, 8.839
554.035, 2.445
555.356, 9.348
556.677, 66.679
557.998, 45.292
559.318, 29.392
560.638, 117.012
561.958, 201.639
563.278, 241.292
564.597, 385.547
565.917, 451.851
567.236, 529.330
568.555, 714.828
569.874, 877.348
571.192, 1086.877
572.511, 1466.430
573.829, 1890.006
575.147, 2596.606
576.464, 3437.229
577.782, 4413.867
579.099, 5132.505
580.416, 5422.809
581.733, 4952.508
583.050, 4170.219
584.366, 3181.957
585.683, 2567.700
586.999, 1935.471
588.315, 1635.263
589.630, 1408.069
590.946, 1174.895
592.261, 1311.738
593.576, 1328.592
594.891, 1668.462
596.206, 1864.348
597.520, 2389.256
598.834, 3186.180
600.148, 4210.110
601.462, 5545.660
602.776, 7532.224
604.089, 8693.748
605.402, 9679.232
606.715, 9071.721
608.028, 7857.259
609.341, 6686.796
610.653, 5592.661
611.965, 5071.587
613.277, 4392.542
614.589, 3931.501
615.901, 3369.460
617.212, 2879.420
618.523, 2672.396
619.834, 2317.436
621.145, 2457.540
622.456, 2476.711
623.766, 2624.967
625.076, 3017.311
626.386, 3301.728
627.696, 3787.213
629.006, 4168.743
630.315, 4462.295
631.624, 4501.267
632.933, 4428.399
634.242, 4191.943
635.551, 3691.485
636.859, 3145.022
638.167, 2818.554
639.475, 2585.081
640.783, 2542.604
642.090, 2852.122
643.398, 3329.634
644.705, 3991.141
646.012, 4604.643
647.318, 5312.139
648.625, 5638.629
649.931, 5525.114
651.237, 5321.590
652.543, 4632.064
653.849, 4157.528
655.155, 3457.987
656.460, 2861.439
657.765, 2519.884
659.070, 1974.322
660.375, 1729.758
661.679, 1568.181
662.984, 1247.628
664.288, 1238.035
665.592, 1036.569
666.895, 863.044
668.199, 776.428
669.502, 631.821
670.805, 564.454
672.108, 483.167
673.411, 468.776
674.713, 314.464
676.016, 248.086
677.318, 242.850
678.620, 142.451
679.921, 73.198
681.223, 59.757
682.524, 40.386
683.825, 31.842
685.126, 40.954
686.427, 63.192
687.727, 64.099
689.028, 81.914
690.328, 87.161
691.628, 89.399
692.927, 146.203
694.227, 127.851
695.526, 4.066
696.825, 59.064
698.124, 46.052
699.423, 55.228
700.721, 26.532
702.020, 148.863
703.318, 169.066
704.616, 353.713
705.913, 365.166
707.211, 464.280
708.508, 603.474
709.805, 693.133
711.102, 807.790
712.399, 884.395
713.695, 1019.026
714.992, 1034.802
716.288, 1095.863
717.584, 1250.445
718.879, 1352.826
720.175, 1542.566
721.470, 1691.551
722.765, 1855.111
724.060, 2113.518
725.355, 2471.501
726.649, 2871.969
727.944, 3221.921
729.238, 3796.792
730.532, 4336.203
731.825, 4831.032
733.119, 5861.091
734.412, 6644.824
735.705, 7459.304
736.998, 8668.896
738.291, 9772.413
739.584, 10418.688
740.876, 11271.689
742.168, 11736.340
743.460, 11473.732
744.752, 11139.188
746.043, 10384.591
747.334, 9061.561
748.626, 7994.724
749.916, 6887.592
751.207, 5935.210
752.498, 5178.128
753.788, 4389.480
755.078, 3769.719
756.368, 3416.859
757.658, 2949.022
758.947, 2578.838
760.237, 2238.151
761.526, 2012.346
762.815, 1797.394
764.104, 1594.430
765.392, 1561.378
766.680, 1349.202
767.969, 1250.130
769.257, 1179.405
770.544, 994.742
771.832, 923.361
773.119, 912.057
774.406, 869.680
775.693, 819.020
776.980, 717.977
778.267, 722.553
779.553, 687.441
780.839, 634.854
782.125, 680.255
783.411, 576.605
784.697, 601.923
785.982, 517.209
787.267, 590.464
788.552, 491.686
789.837, 510.875
791.122, 498.033
792.406, 487.159
793.690, 452.253
794.974, 461.314
796.258, 464.344
797.542, 413.341
798.825, 370.305
800.108, 388.238
801.391, 382.137
802.674, 397.005
803.957, 347.841
805.239, 363.267
806.522, 298.415
807.804, 338.153
809.085, 334.859
810.367, 273.532
811.649, 284.173
812.930, 299.782
814.211, 216.358
815.492, 241.902
816.772, 209.414
818.053, 226.893
819.333, 184.339
820.613, 195.752
821.893, 228.133
823.173, 210.480
824.452, 150.796
825.732, 129.076
827.011, 151.322
828.290, 129.533
829.568, 142.709
830.847, 105.850
832.125, 141.956
833.403, 104.027
834.681, 146.062
835.959, 126.063
837.236, 94.955
838.514, 80.304
839.791, 60.110
841.068, 100.447
842.345, 53.659
843.621, 64.674
844.898, 27.291
846.174, 13.673
847.450, 23.382
848.726, 23.839
850.001, 23.120
851.277, 18.970
852.552, 10.562
853.827, 34.869
855.102, 23.982
856.376, 6.666
857.651, 14.401
858.925, 24.809
860.199, 8.983
861.473, 31.115
862.746, 55.214
864.020, 75.285
865.293, 57.177
866.566, 65.875
867.839, 10.345
869.112, 29.305
870.384, 13.234
871.656, 48.874
872.928, 23.051
874.200, 107.283
875.472, 21.614
876.744, 35.999
878.015, 46.099
879.286, 6.955
880.557, 47.510
881.828, 63.130
883.098, 56.823
884.369, 48.584
885.639, 37.410
886.909, 33.293
888.178, 62.231
889.448, 49.239
890.717, 17.308
891.987, 78.423
893.256, 4.387
894.524, 86.835
895.793, 52.136
897.061, 38.499
898.330, 54.913
899.598, 49.388
900.865, 21.920
902.133, 50.494
903.401, 42.124
904.668, 75.804
905.935, 46.553
907.202, 14.354
908.468, 30.188
909.735, 32.064
911.001, 11.982
912.267, 1.930
913.533, 1.096
914.799, 18.017
916.064, 12.082
917.330, 24.044
918.595, 44.986
919.860, 10.909
921.124, 11.188
922.389, 14.309
923.653, 60.544
924.918, 29.027
926.182, 37.034
927.445, 36.999
928.709, 1.783
929.972, 19.549
931.236, 11.702
932.499, 103.026
933.761, 31.738
935.024, 225.436
936.286, 157.821
937.549, 87.786
938.811, 100.440
940.073, 93.081
941.334, 76.707
942.596, 64.320
943.857, 83.920
945.118, 104.507
946.379, 116.082
947.640, 122.644
948.900, 182.194
950.161, 120.732
951.421, 184.259
952.681, 162.775
953.940, 158.279
955.200, 163.773
956.459, 171.256
957.719, 190.729
958.978, 224.193
960.236, 170.646
961.495, 220.091
962.753, 192.526
964.012, 252.952
965.270, 281.372
966.527, 254.778
967.785, 365.180
969.043, 290.544
970.300, 323.932
971.557, 407.178
972.814, 424.468
974.071, 475.835
975.327, 468.178
976.583, 501.270
977.840, 584.269
979.095, 627.357
980.351, 699.352
981.607, 781.399
982.862, 834.295
984.117, 914.232
985.372, 968.229
986.627, 1055.311
987.882, 1158.307
989.136, 1224.168
990.390, 1445.891
991.644, 1573.211
992.898, 1777.187
994.152, 2045.545
995.405, 2152.307
996.659, 2455.040
997.912, 2804.303
999.165, 3048.365
1000.417, 3562.965
1001.670, 3994.332
1002.922, 4385.677
1004.174, 4682.737
1005.426, 4777.761
1006.678, 4969.764
1007.930, 4754.896
1009.181, 4587.582
1010.432, 4737.456
1011.683, 4746.661
1012.934, 4969.788
1014.185, 5204.172
1015.435, 5598.656
1016.685, 5952.091
1017.935, 6282.579
1019.185, 6476.139
1020.435, 6135.450
1021.684, 5930.249
1022.934, 5485.282
1024.183, 5077.986
1025.432, 4736.445
1026.680, 4489.354
1027.929, 4287.408
1029.177, 4131.886
1030.425, 4044.520
1031.673, 3939.411
1032.921, 4011.012
1034.169, 4050.073
1035.416, 4154.709
1036.663, 4189.120
1037.911, 4357.854
1039.157, 4556.832
1040.404, 4931.697
1041.650, 5172.630
1042.897, 5865.794
1044.143, 6444.227
1045.389, 7339.000
1046.634, 8475.023
1047.880, 9703.979
1049.125, 11542.979
1050.371, 13682.410
1051.615, 16731.641
1052.860, 20525.160
1054.105, 25537.295
1055.349, 31205.398
1056.593, 37841.426
1057.837, 43157.559
1059.081, 48205.777
1060.325, 48559.973
1061.568, 46152.504
1062.812, 39583.559
1064.055, 32370.721
1065.298, 26074.027
1066.540, 19923.330
1067.783, 15966.718
1069.025, 12690.224
1070.267, 10417.618
1071.509, 8722.655
1072.751, 7587.625
1073.993, 6590.307
1075.234, 6029.902
1076.475, 5400.561
1077.716, 4972.249
1078.957, 4840.802
1080.198, 4503.481
1081.438, 4509.842
1082.679, 4238.668
1083.919, 4182.497
1085.159, 4217.368
1086.398, 4068.259
1087.638, 4138.175
1088.877, 4190.111
1090.116, 4146.068
1091.355, 4399.047
1092.594, 4477.046
1093.833, 4545.068
1095.071, 4825.110
1096.309, 5123.175
1097.547, 5531.264
1098.785, 6111.372
1100.023, 6795.503
1101.260, 7288.659
1102.498, 7194.837
1103.735, 6570.036
1104.972, 5799.258
1106.208, 4910.502
1107.445, 4379.768
1108.681, 3836.057
1109.918, 3492.367
1111.154, 3336.699
1112.389, 3086.054
1113.625, 2950.657
1114.860, 2976.058
1116.096, 2932.481
1117.331, 3034.927
1118.566, 3099.395
1119.800, 3049.885
1121.035, 3318.397
1122.269, 3512.933
1123.503, 3759.570
1124.737, 4110.656
1125.971, 4059.601
1127.205, 4590.227
1128.438, 4949.875
1129.671, 5664.546
1130.904, 6718.292
1132.137, 7851.047
1133.370, 9612.220
1134.602, 11582.117
1135.834, 13032.901
1137.066, 14411.266
1138.298, 14592.110
1139.530, 14207.961
1140.762, 12766.893
1141.993, 11211.187
1143.224, 10292.135
1144.455, 8747.726
1145.686, 7712.754
1146.917, 6865.513
1148.147, 6075.431
1149.377, 5586.493
1150.607, 5239.915
1151.837, 4845.793
1153.067, 4569.021
1154.296, 4289.402
1155.526, 4091.941
1156.755, 4024.825
1157.984, 3871.312
1159.213, 3655.582
1160.441, 3763.573
1161.670, 3509.284
1162.898, 3528.018
1164.126, 3429.732
1165.354, 3395.531
1166.581, 3523.745
1167.809, 3419.572
1169.036, 3371.855
1170.263, 3569.691
1171.490, 3476.707
1172.717, 3693.411
1173.943, 3848.762
1175.170, 3879.736
1176.396, 4140.995
1177.622, 4169.895
1178.848, 4225.725
1180.073, 4316.977
1181.299, 4066.426
1182.524, 4029.339
1183.749, 3758.244
1184.974, 3403.704
1186.199, 3148.561
1187.423, 2896.541
1188.648, 2574.637
1189.872, 2325.443
1191.096, 2002.881
1192.320, 1847.029
1193.543, 1799.625
1194.767, 1545.446
1195.990, 1467.670
1197.213, 1377.868
1198.436, 1332.186
1199.659, 1349.418
1200.881, 1217.032
1202.104, 1279.224
1203.326, 1269.323
1204.548, 1264.895
1205.770, 1353.375
1206.991, 1391.100
1208.213, 1420.799
1209.434, 1606.177
1210.655, 1554.300
1211.876, 1643.655
1213.096, 1628.013
1214.317, 1595.726
1215.537, 1650.098
1216.757, 1636.499
1217.977, 1589.075
1219.197, 1685.470
1220.417, 1625.890
1221.636, 1644.300
1222.855, 1670.715
1224.074, 1576.408
1225.293, 1489.991
1226.512, 1277.624
1227.731, 1166.903
1228.949, 1093.347
1230.167, 950.598
1231.385, 897.263
1232.603, 776.804
1233.820, 560.148
1235.038, 571.638
1236.255, 451.103
1237.472, 446.807
1238.689, 426.287
1239.906, 274.780
1241.122, 300.790
1242.338, 328.308
1243.555, 199.209
1244.771, 232.779
1245.986, 173.332
1247.202, 136.791
1248.417, 179.368
1249.633, 148.954
1250.848, 79.652
1252.063, 155.259
1253.277, 62.876
1254.492, 84.500
1255.706, 46.131
1256.920, 74.771
1258.134, 144.414
1259.348, 13.960
1260.562, 20.892
1261.775, 84.509
1262.988, 78.113
1264.201, 11.736
1265.414, 18.317
1266.627, 33.882
1267.839, 13.418
1269.052, 4.064
1270.264, 20.573
1271.476, 15.094
1272.688, 10.345
1273.899, 6.753
1275.111, 52.136
1276.322, 29.518
1277.533, 0.105
1278.744, 13.842
1279.955, 77.603
1281.165, 55.578
1282.376, 82.282
1283.586, 4.807
1284.796, 16.882
1286.006, 23.061
1287.215, 44.024
1288.425, 21.007
1289.634, 62.006
1290.843, 6.950
1292.052, 30.124
1293.261, 63.227
1294.469, 42.642
1295.678, 68.509
1296.886, 26.694
1298.094, 10.104
1299.302, 64.109
1300.509, 49.310
1301.717, 21.593
1302.924, 29.895
1304.131, 42.862
1305.338, 51.483
1306.545, 45.862
1307.752, 13.272
1308.958, 59.709
1310.164, 12.180
1311.370, 33.671
1312.576, 74.195
1313.782, 0.761
1314.987, 40.357
1316.193, 25.986
1317.398, 15.354
1318.603, 92.327
1319.807, 11.941
1321.012, 24.814
1322.216, 81.606
1323.421, 28.618
1324.625, 37.247
1325.829, 23.151
1327.032, 36.910
1328.236, 44.052
1329.439, 4.053
1330.642, 112.915
1331.845, 10.137
1333.048, 35.782
1334.251, 11.681
1335.453, 22.557
1336.656, 44.410
1337.858, 21.243
1339.060, 17.055
1340.261, 51.844
1341.463, 21.389
1342.664, 45.346
1343.866, 71.058
1345.067, 25.251
1346.267, 16.405
1347.468, 20.036
1348.669, 39.642
1349.869, 49.227
1351.069, 35.790
1352.269, 11.332
1353.469, 84.846
1354.668, 26.341
1355.868, 96.814
1357.067, 104.269
1358.266, 44.706
1359.465, 117.123
1360.664, 23.524
1361.862, 59.903
1363.061, 160.264
1364.259, 25.609
1365.457, 127.935
1366.655, 108.245
1367.852, 56.542
1369.050, 69.826
1370.247, 65.457
1371.444, 34.716
1372.641, 144.962
1373.838, 37.334
1375.035, 67.564
1376.231, 92.746
1377.427, 36.916
1378.623, 108.032
1379.819, 159.117
1381.015, 69.188
1382.211, 145.518
1383.406, 129.832
1384.601, 59.128
1385.796, 179.407
1386.991, 70.662
1388.185, 123.898
1389.380, 168.116
1390.574, 53.315
1391.768, 146.494
1392.962, 213.404
1394.156, 117.537
1395.350, 174.649
1396.543, 185.740
1397.736, 159.146
1398.929, 240.799
1400.122, 180.819
1401.315, 237.549
1402.507, 202.139
1403.700, 99.621
1404.892, 259.428
1406.084, 207.054
1407.276, 136.077
1408.467, 204.500
1409.659, 171.262
1410.850, 160.106
1412.041, 177.166
1413.232, 139.950
1414.423, 175.317
1415.614, 201.183
1416.804, 193.586
1417.994, 209.823
1419.184, 182.143
1420.374, 76.724
1421.564, 217.608
1422.753, 164.830
1423.943, 106.087
1425.132, 182.309
1426.321, 147.239
1427.510, 116.861
1428.698, 98.434
1429.887, 84.317
1431.075, 119.042
1432.263, 139.418
1433.451, 113.979
1434.639, 114.978
1435.827, 100.481
1437.014, 72.052
1438.201, 116.378
1439.388, 89.228
1440.575, 90.400
1441.762, 105.924
1442.949, 42.846
1444.135, 90.002
1445.321, 127.900
1446.507, 32.941
1447.693, 113.740
1448.879, 93.870
1450.064, 119.863
1451.250, 158.557
1452.435, 88.477
1453.620, 49.725
1454.805, 166.760
1455.989, 67.810
1457.174, 88.581
1458.358, 127.053
1459.542, 83.102
1460.726, 113.174
1461.910, 43.048
1463.093, 65.787
1464.277, 143.886
1465.460, 12.396
1466.643, 94.941
1467.826, 113.546
1469.009, 71.177
1470.191, 147.936
1471.373, 182.295
1472.556, 133.377
1473.738, 306.943
1474.919, 86.500
1476.101, 101.109
1477.283, 154.707
1478.464, 38.301
1479.645, 98.048
1480.826, 228.803
1482.007, 70.546
1483.187, 95.063
1484.368, 213.752
1485.548, 110.097
1486.728, 133.758
1487.908, 157.430
1489.088, 98.072
1490.268, 276.772
1491.447, 210.774
1492.626, 299.312
1493.805, 222.195
1494.984, 78.860
1496.163, 124.960
1497.341, 194.175
