##NAMES=Lazulite
##RRUFFID=R050110
##IDEAL CHEMISTRY=MgAl_2_(PO_4_)_2_(OH)_2_
##LOCALITY=Rapid Creek, Yukon Territory, Canada
##OWNER=RRUFF
##SOURCE=Rock Currier
##DESCRIPTION=Azure-blue stubby crystals with complex terminations
##STATUS=The identification of this mineral has been confirmed by X-ray diffraction and chemical analysis
##URL=rruff.info/R050110
##MEASURED CHEMISTRY=(Mg_0.84_Fe_0.16_)Al_2.00_(P_1.00_O_4_)_2_(OH)_2_
##PIN_ID=L00471
##ORIENTATION=Laser parallel to -b* (0 -1 0). Fiducial mark perpendicular to laser is parallel to -c [0 0 -1]
88.496, 0.000
89.890, 14.244
91.284, 335.499
92.678, 505.724
94.071, 579.641
95.465, 1223.242
96.858, 2338.739
98.251, 4184.609
99.644, 5635.877
101.036, 6078.533
102.428, 4716.260
103.820, 3812.898
105.212, 2368.940
106.604, 1278.254
107.995, 1082.941
109.387, 850.534
110.777, 1194.481
112.168, 1434.377
113.559, 1570.825
114.949, 1371.863
116.339, 1138.786
117.729, 832.784
119.119, 652.752
120.508, 751.730
121.897, 536.621
123.286, 806.431
124.675, 855.649
126.063, 466.422
127.452, 778.551
128.840, 808.465
130.228, 821.497
131.615, 1064.985
133.003, 988.293
134.390, 508.860
135.777, 469.090
137.164, 551.383
138.550, 352.110
139.937, 246.412
141.323, 200.697
142.709, 105.566
144.094, 81.955
145.480, 96.507
146.865, 8.191
148.250, 88.530
149.635, 175.869
151.019, 118.678
152.403, 114.831
153.788, 234.159
155.171, 90.939
156.555, 8.175
157.939, 192.155
159.322, 25.873
160.705, 211.967
162.088, 69.224
163.470, 283.037
164.853, 240.707
166.235, 457.809
167.617, 542.458
168.998, 734.509
170.380, 940.058
171.761, 1109.488
173.142, 1139.363
174.523, 909.678
175.904, 679.483
177.284, 470.046
178.664, 519.013
180.044, 530.438
181.424, 681.062
182.803, 1142.744
184.183, 1992.590
185.562, 3328.562
186.940, 5210.615
188.319, 7353.717
189.698, 10701.823
191.076, 12219.554
192.454, 11410.822
193.831, 7840.619
195.209, 4710.897
196.586, 2721.823
197.963, 1564.348
199.340, 961.063
200.717, 548.097
202.093, 377.200
203.470, 204.299
204.846, 261.050
206.221, 64.468
207.597, 60.475
208.972, 46.584
210.347, 40.158
211.722, 120.370
213.097, 98.933
214.472, 389.377
215.846, 636.665
217.220, 854.418
218.594, 1390.570
219.967, 2018.522
221.341, 2831.371
222.714, 3645.969
224.087, 3990.322
225.460, 4141.422
226.832, 3086.438
228.204, 2276.837
229.577, 1383.701
230.948, 751.285
232.320, 227.477
233.692, 45.624
235.063, 198.913
236.434, 235.323
237.805, 213.828
239.175, 381.426
240.545, 229.115
241.916, 206.892
243.286, 247.789
244.655, 19.980
246.025, 153.233
247.394, 652.901
248.763, 1417.083
250.132, 2482.998
251.501, 3759.825
252.869, 5085.605
254.237, 4964.085
255.605, 5658.010
256.973, 4274.833
258.340, 2684.615
259.708, 1655.206
261.075, 1087.514
262.442, 666.467
263.808, 657.007
265.175, 530.099
266.541, 526.722
267.907, 499.863
269.273, 585.471
270.639, 791.542
272.004, 1011.044
273.369, 1435.957
274.734, 1875.331
276.099, 2618.195
277.463, 3592.520
278.828, 4551.328
280.192, 5758.594
281.556, 6512.295
282.919, 6903.181
284.283, 6491.359
285.646, 5261.190
287.009, 4084.345
288.372, 2996.658
289.734, 2254.176
291.097, 1477.594
292.459, 1083.084
293.821, 825.214
295.183, 591.060
296.544, 478.632
297.905, 316.874
299.266, 214.528
300.627, 134.549
301.988, 89.221
303.348, 46.798
304.709, 54.675
306.069, 63.927
307.428, 3.885
308.788, 100.732
310.147, 77.046
311.507, 75.407
312.865, 210.901
314.224, 352.942
315.583, 704.854
316.941, 1042.472
318.299, 1628.130
319.657, 2102.118
321.015, 2530.678
322.372, 2745.535
323.729, 2323.701
325.086, 1890.985
326.443, 1302.300
327.800, 1003.447
329.156, 811.308
330.512, 580.360
331.868, 519.870
333.224, 426.454
334.579, 480.841
335.935, 390.127
337.290, 367.234
338.645, 458.759
339.999, 482.546
341.354, 485.256
342.708, 531.258
344.062, 652.378
345.416, 737.202
346.769, 689.830
348.123, 673.887
349.476, 554.794
350.829, 510.350
352.182, 496.383
353.534, 496.061
354.887, 506.515
356.239, 469.245
357.591, 529.493
358.942, 544.214
360.294, 651.916
361.645, 620.409
362.996, 741.646
364.347, 773.883
365.698, 855.683
367.048, 1051.276
368.398, 1264.527
369.748, 1597.093
371.098, 2057.357
372.448, 2476.280
373.797, 3219.641
375.146, 3956.784
376.495, 4703.331
377.844, 5366.005
379.192, 5386.193
380.540, 5187.246
381.889, 4392.802
383.236, 3501.303
384.584, 2783.747
385.932, 2111.151
387.279, 1756.490
388.626, 1356.914
389.973, 1172.164
391.319, 959.713
392.666, 968.239
394.012, 968.038
395.358, 894.882
396.704, 936.392
398.049, 1108.544
399.394, 1288.232
400.740, 1146.569
402.084, 1783.624
403.429, 1893.981
404.774, 2664.841
406.118, 3991.007
407.462, 6537.138
408.806, 11045.965
410.150, 17850.850
411.493, 26232.154
412.836, 36462.211
414.179, 37691.156
415.522, 29170.285
416.865, 19173.842
418.207, 11827.607
419.549, 7869.406
420.891, 5653.142
422.233, 4935.595
423.575, 4861.535
424.916, 5222.473
426.257, 5955.262
427.598, 5935.828
428.939, 5505.424
430.279, 4420.204
431.619, 3269.590
432.959, 2403.220
434.299, 1734.987
435.639, 1470.083
436.978, 1123.722
438.318, 1025.257
439.657, 720.690
440.996, 721.023
442.334, 641.258
443.673, 583.398
445.011, 598.445
446.349, 466.404
447.687, 615.273
449.024, 577.059
450.361, 673.764
451.699, 673.392
453.036, 772.946
454.372, 808.013
455.709, 924.932
457.045, 1061.806
458.381, 1189.145
459.717, 1296.280
461.053, 1458.505
462.388, 1427.698
463.724, 1393.126
465.059, 1492.478
466.394, 1540.056
467.728, 1800.859
469.063, 1997.613
470.397, 2403.105
471.731, 3053.318
473.065, 3877.531
474.398, 5055.595
475.732, 6179.833
477.065, 7203.699
478.398, 7855.963
479.731, 7262.570
481.063, 6447.146
482.396, 5123.710
483.728, 3775.312
485.060, 2979.894
486.391, 2097.524
487.723, 1583.167
489.054, 1271.539
490.385, 974.113
491.716, 656.720
493.047, 561.070
494.377, 467.025
495.708, 285.196
497.038, 344.982
498.368, 231.655
499.697, 154.695
501.027, 53.821
502.356, 56.946
503.685, 28.753
505.014, 43.055
506.342, 54.197
507.671, 39.115
508.999, 51.940
510.327, 112.244
511.655, 8.659
512.982, 35.352
514.310, 64.337
515.637, 10.657
516.964, 49.171
518.291, 31.771
519.617, 94.324
520.944, 99.848
522.270, 59.223
523.596, 79.296
524.921, 54.872
526.247, 83.881
527.572, 111.754
528.897, 162.793
530.222, 201.704
531.547, 261.572
532.871, 338.382
534.196, 372.704
535.520, 425.178
536.844, 428.356
538.167, 531.463
539.491, 533.392
540.814, 458.704
542.137, 492.289
543.460, 386.124
544.783, 374.292
546.105, 291.615
547.427, 238.239
548.749, 267.809
550.071, 191.599
551.393, 192.014
552.714, 159.201
554.035, 61.701
555.356, 129.562
556.677, 79.672
557.998, 134.777
559.318, 75.632
560.638, 37.608
561.958, 111.731
563.278, 99.117
564.597, 142.351
565.917, 100.482
567.236, 78.727
568.555, 194.763
569.874, 89.776
571.192, 140.763
572.511, 154.723
573.829, 106.667
575.147, 210.589
576.464, 129.490
577.782, 88.370
579.099, 72.216
580.416, 108.050
581.733, 151.854
583.050, 17.370
584.366, 165.405
585.683, 57.161
586.999, 12.924
588.315, 147.678
589.630, 56.417
590.946, 172.164
592.261, 88.891
593.576, 135.600
594.891, 287.296
596.206, 265.969
597.520, 460.644
598.834, 450.298
600.148, 656.931
601.462, 819.569
602.776, 1026.187
604.089, 1478.799
605.402, 1895.219
606.715, 2332.852
608.028, 3070.605
609.341, 3809.360
610.653, 4789.930
611.965, 5305.483
613.277, 5472.358
614.589, 5396.054
615.901, 4706.897
617.212, 4143.735
618.523, 3509.265
619.834, 3018.170
621.145, 2804.052
622.456, 2652.870
623.766, 2857.071
625.076, 3201.701
626.386, 3587.680
627.696, 4220.408
629.006, 4877.227
630.315, 5717.224
631.624, 6555.042
632.933, 6847.025
634.242, 7450.349
635.551, 7291.402
636.859, 7554.421
638.167, 7589.132
639.475, 7945.429
640.783, 8211.546
642.090, 8792.099
643.398, 9670.060
644.705, 10340.798
646.012, 10948.341
647.318, 11106.942
648.625, 10323.619
649.931, 9271.483
651.237, 8194.230
652.543, 6468.431
653.849, 5464.772
655.155, 4311.185
656.460, 3642.669
657.765, 2733.433
659.070, 2165.676
660.375, 1803.454
661.679, 1534.583
662.984, 1271.435
664.288, 1075.108
665.592, 895.169
666.895, 791.264
668.199, 700.222
669.502, 613.605
670.805, 446.732
672.108, 462.346
673.411, 381.722
674.713, 349.109
676.016, 366.230
677.318, 252.013
678.620, 364.858
679.921, 133.895
681.223, 44.241
682.524, 116.481
683.825, 26.989
685.126, 2.447
686.427, 6.808
687.727, 28.033
689.028, 2.045
690.328, 119.087
691.628, 16.216
692.927, 83.381
694.227, 47.614
695.526, 24.899
696.825, 132.224
698.124, 37.643
699.423, 60.110
700.721, 113.635
702.020, 13.246
703.318, 88.894
704.616, 37.738
705.913, 91.508
707.211, 69.680
708.508, 11.920
709.805, 2.672
711.102, 77.836
712.399, 24.270
713.695, 40.479
714.992, 117.903
716.288, 39.934
717.584, 95.018
718.879, 49.263
720.175, 100.437
721.470, 142.773
722.765, 116.917
724.060, 174.954
725.355, 297.458
726.649, 224.057
727.944, 377.141
729.238, 359.051
730.532, 571.320
731.825, 530.758
733.119, 757.707
734.412, 867.647
735.705, 882.873
736.998, 1154.124
738.291, 1291.279
739.584, 1384.696
740.876, 1479.871
742.168, 1512.615
743.460, 1477.020
744.752, 1427.065
746.043, 1209.660
747.334, 1139.770
748.626, 933.781
749.916, 898.522
751.207, 784.765
752.498, 557.088
753.788, 587.419
755.078, 399.587
756.368, 409.894
757.658, 364.011
758.947, 252.398
760.237, 274.408
761.526, 184.450
762.815, 161.325
764.104, 156.658
765.392, 214.322
766.680, 207.259
767.969, 117.169
769.257, 162.034
770.544, 123.889
771.832, 122.714
773.119, 210.936
774.406, 109.707
775.693, 116.666
776.980, 133.379
778.267, 73.063
779.553, 184.201
780.839, 102.826
782.125, 167.422
783.411, 146.989
784.697, 105.529
785.982, 151.899
787.267, 111.380
788.552, 72.832
789.837, 89.250
791.122, 91.638
792.406, 161.662
793.690, 71.992
794.974, 79.289
796.258, 195.554
797.542, 49.792
798.825, 126.992
800.108, 167.163
801.391, 148.307
802.674, 125.425
803.957, 85.514
805.239, 52.573
806.522, 68.595
807.804, 12.583
809.085, 197.518
810.367, 78.427
811.649, 139.308
812.930, 162.165
814.211, 77.001
815.492, 192.812
816.772, 70.602
818.053, 115.366
819.333, 125.107
820.613, 62.827
821.893, 77.519
823.173, 86.184
824.452, 121.828
825.732, 84.451
827.011, 44.049
828.290, 109.616
829.568, 53.162
830.847, 132.680
832.125, 112.177
833.403, 62.651
834.681, 153.897
835.959, 54.749
837.236, 94.872
838.514, 183.228
839.791, 106.732
841.068, 240.876
842.345, 144.053
843.621, 127.308
844.898, 526.066
846.174, 268.657
847.450, 356.531
848.726, 211.443
850.001, 250.496
851.277, 360.125
852.552, 218.433
853.827, 312.443
855.102, 302.074
856.376, 269.504
857.651, 409.588
858.925, 344.679
860.199, 320.506
861.473, 427.660
862.746, 241.998
864.020, 409.983
865.293, 258.581
866.566, 359.946
867.839, 333.370
869.112, 251.110
870.384, 294.786
871.656, 200.416
872.928, 148.847
874.200, 169.485
875.472, 33.292
876.744, 34.984
878.015, 56.864
879.286, 10.269
880.557, 1.943
881.828, 46.602
883.098, 22.821
884.369, 19.071
885.639, 17.350
886.909, 76.343
888.178, 61.971
889.448, 9.668
890.717, 29.294
891.987, 93.088
893.256, 42.470
894.524, 91.980
895.793, 40.491
897.061, 52.967
898.330, 92.583
899.598, 47.808
900.865, 14.809
902.133, 42.444
903.401, 50.886
904.668, 82.791
905.935, 5.479
907.202, 27.738
908.468, 102.010
909.735, 63.180
911.001, 55.637
912.267, 67.490
913.533, 16.615
914.799, 101.331
916.064, 3.450
917.330, 49.596
918.595, 12.402
919.860, 92.396
921.124, 56.955
922.389, 7.840
923.653, 21.476
924.918, 49.893
926.182, 37.029
927.445, 5.427
928.709, 128.143
929.972, 101.784
931.236, 13.947
932.499, 91.902
933.761, 38.413
935.024, 115.197
936.286, 25.897
937.549, 25.572
938.811, 157.144
940.073, 11.692
941.334, 54.897
942.596, 114.362
943.857, 24.158
945.118, 122.609
946.379, 110.774
947.640, 42.099
948.900, 208.971
950.161, 58.417
951.421, 136.070
952.681, 127.901
953.940, 103.661
955.200, 196.333
956.459, 145.806
957.719, 171.390
958.978, 215.517
960.236, 149.252
961.495, 271.155
962.753, 153.544
964.012, 185.341
965.270, 232.929
966.527, 244.634
967.785, 313.563
969.043, 257.847
970.300, 275.614
971.557, 408.433
972.814, 301.538
974.071, 431.041
975.327, 465.714
976.583, 421.601
977.840, 610.296
979.095, 569.836
980.351, 629.715
981.607, 762.642
982.862, 637.646
984.117, 887.579
985.372, 991.885
986.627, 1010.982
987.882, 1186.086
989.136, 1209.025
990.390, 1477.168
991.644, 1693.214
992.898, 1841.405
994.152, 2246.616
995.405, 2391.841
996.659, 2755.143
997.912, 3301.463
999.165, 3460.817
1000.417, 4159.200
1001.670, 4440.602
1002.922, 4622.062
1004.174, 4677.547
1005.426, 4415.062
1006.678, 4041.665
1007.930, 3619.284
1009.181, 3029.945
1010.432, 2829.648
1011.683, 2497.390
1012.934, 2327.200
1014.185, 2192.033
1015.435, 2001.884
1016.685, 2025.782
1017.935, 2025.697
1019.185, 1867.626
1020.435, 1932.578
1021.684, 1847.559
1022.934, 1851.292
1024.183, 1959.307
1025.432, 1861.596
1026.680, 2152.656
1027.929, 2139.733
1029.177, 2145.824
1030.425, 2342.416
1031.673, 2271.732
1032.921, 2542.280
1034.169, 2698.280
1035.416, 2769.544
1036.663, 3084.962
1037.911, 3274.215
1039.157, 3610.116
1040.404, 4124.172
1041.650, 4354.509
1042.897, 5144.672
1044.143, 5714.073
1045.389, 6541.452
1046.634, 7890.983
1047.880, 9197.441
1049.125, 10959.963
1050.371, 13429.462
1051.615, 16413.713
1052.860, 20547.424
1054.105, 25618.988
1055.349, 31351.461
1056.593, 38423.926
1057.837, 43248.559
1059.081, 47586.047
1060.325, 47434.723
1061.568, 43352.121
1062.812, 37252.910
1064.055, 30139.666
1065.298, 23506.580
1066.540, 18170.025
1067.783, 14071.168
1069.025, 11426.034
1070.267, 9273.921
1071.509, 7527.861
1072.751, 6509.809
1073.993, 5426.780
1075.234, 4920.354
1076.475, 4384.372
1077.716, 3906.201
1078.957, 3909.270
1080.198, 3623.362
1081.438, 3519.996
1082.679, 3496.138
1083.919, 3349.308
1085.159, 3534.512
1086.398, 3618.740
1087.638, 3664.138
1088.877, 4194.418
1090.116, 4252.724
1091.355, 4785.062
1092.594, 5675.428
1093.833, 6291.151
1095.071, 7559.565
1096.309, 9036.009
1097.547, 10529.477
1098.785, 12580.966
1100.023, 13844.489
1101.260, 14570.823
1102.498, 14817.399
1103.735, 13408.997
1104.972, 11969.626
1106.208, 10136.273
1107.445, 8326.353
1108.681, 7118.061
1109.918, 5750.808
1111.154, 4992.859
1112.389, 4376.655
1113.625, 3710.475
1114.860, 3476.318
1116.096, 3066.188
1117.331, 2993.297
1118.566, 2925.228
1119.800, 2684.183
1121.035, 2866.295
1122.269, 3005.302
1123.503, 3140.333
1124.737, 3274.020
1125.971, 3234.097
1127.205, 3597.200
1128.438, 3977.704
1129.671, 4331.860
1130.904, 5241.044
1132.137, 6248.250
1133.370, 7125.478
1134.602, 8913.310
1135.834, 9434.583
1137.066, 10117.882
1138.298, 9801.182
1139.530, 8637.522
1140.762, 7390.672
1141.993, 6084.059
1143.224, 5029.465
1144.455, 4288.336
1145.686, 3591.781
1146.917, 3096.267
1148.147, 2688.828
1149.377, 2329.332
1150.607, 2216.695
1151.837, 1983.235
1153.067, 1935.793
1154.296, 1888.113
1155.526, 1598.707
1156.755, 1733.317
1157.984, 1559.411
1159.213, 1458.058
1160.441, 1616.387
1161.670, 1380.239
1162.898, 1451.933
1164.126, 1502.145
1165.354, 1276.869
1166.581, 1519.618
1167.809, 1417.949
1169.036, 1304.716
1170.263, 1515.503
1171.490, 1282.370
1172.717, 1405.179
1173.943, 1595.118
1175.170, 1379.063
1176.396, 1662.913
1177.622, 1590.903
1178.848, 1431.786
1180.073, 1707.686
1181.299, 1494.479
1182.524, 1464.430
1183.749, 1513.343
1184.974, 1232.668
1186.199, 1215.672
1187.423, 1152.317
1188.648, 878.364
1189.872, 943.423
1191.096, 700.665
1192.320, 711.771
1193.543, 736.913
1194.767, 439.238
1195.990, 559.413
1197.213, 465.208
1198.436, 299.428
1199.659, 460.664
1200.881, 371.211
1202.104, 439.478
1203.326, 524.774
1204.548, 356.559
1205.770, 547.873
1206.991, 536.291
1208.213, 354.577
1209.434, 614.957
1210.655, 497.985
1211.876, 503.396
1213.096, 660.841
1214.317, 403.277
1215.537, 590.750
1216.757, 616.541
1217.977, 365.783
1219.197, 550.287
1220.417, 380.528
1221.636, 446.043
1222.855, 481.576
1224.074, 251.447
1225.293, 359.991
1226.512, 389.539
1227.731, 202.470
1228.949, 410.031
1230.167, 278.082
1231.385, 277.171
1232.603, 332.751
1233.820, 45.458
1235.038, 267.048
1236.255, 186.639
1237.472, 59.881
1238.689, 296.496
1239.906, 88.130
1241.122, 77.124
1242.338, 111.773
1243.555, 10.539
1244.771, 168.356
1245.986, 212.036
1247.202, 33.423
1248.417, 238.271
1249.633, 137.974
1250.848, 26.219
1252.063, 212.914
1253.277, 19.382
1254.492, 103.492
1255.706, 197.184
1256.920, 14.115
1258.134, 172.591
1259.348, 57.292
1260.562, 17.178
1261.775, 208.865
1262.988, 69.440
1264.201, 67.793
1265.414, 192.444
1266.627, 48.910
1267.839, 51.851
1269.052, 105.443
1270.264, 85.980
1271.476, 205.536
1272.688, 8.053
1273.899, 11.816
1275.111, 105.650
1276.322, 45.118
1277.533, 102.710
1278.744, 74.155
1279.955, 46.449
1281.165, 143.959
1282.376, 82.325
1283.586, 18.319
1284.796, 198.981
1286.006, 61.719
1287.215, 102.752
1288.425, 128.981
1289.634, 117.804
1290.843, 91.387
1292.052, 20.554
1293.261, 8.698
1294.469, 169.015
1295.678, 24.865
1296.886, 112.227
1298.094, 145.270
1299.302, 148.696
1300.509, 79.430
1301.717, 52.380
1302.924, 46.680
1304.131, 171.833
1305.338, 112.260
1306.545, 10.578
1307.752, 175.396
1308.958, 107.796
1310.164, 74.954
1311.370, 51.689
1312.576, 11.587
1313.782, 181.130
1314.987, 57.811
1316.193, 43.471
1317.398, 158.240
1318.603, 49.130
1319.807, 39.465
1321.012, 200.042
1322.216, 111.399
1323.421, 125.081
1324.625, 105.542
1325.829, 26.015
1327.032, 172.413
1328.236, 5.802
1329.439, 24.166
1330.642, 181.511
1331.845, 99.163
1333.048, 87.115
1334.251, 139.372
1335.453, 90.387
1336.656, 174.805
1337.858, 118.977
1339.060, 49.132
1340.261, 265.270
1341.463, 0.390
1342.664, 98.474
1343.866, 200.542
1345.067, 6.593
1346.267, 166.621
1347.468, 124.632
1348.669, 11.374
1349.869, 293.591
1351.069, 13.538
1352.269, 17.465
1353.469, 148.372
1354.668, 4.264
1355.868, 170.134
1357.067, 205.018
1358.266, 64.138
1359.465, 196.666
1360.664, 50.579
1361.862, 11.642
1363.061, 277.115
1364.259, 29.864
1365.457, 119.600
1366.655, 252.331
1367.852, 54.056
1369.050, 207.774
1370.247, 152.616
1371.444, 53.326
1372.641, 227.037
1373.838, 49.088
1375.035, 3.190
1376.231, 286.517
1377.427, 25.026
1378.623, 181.308
1379.819, 257.386
1381.015, 15.008
1382.211, 251.615
1383.406, 129.210
1384.601, 70.795
1385.796, 373.546
1386.991, 112.095
1388.185, 104.628
1389.380, 345.721
1390.574, 48.921
1391.768, 235.410
1392.962, 223.885
1394.156, 67.760
1395.350, 314.755
1396.543, 259.108
1397.736, 102.153
1398.929, 376.998
1400.122, 185.250
1401.315, 186.488
1402.507, 311.650
1403.700, 109.661
1404.892, 239.227
1406.084, 306.324
1407.276, 2.187
1408.467, 323.037
1409.659, 155.667
1410.850, 122.589
1412.041, 368.909
1413.232, 203.140
1414.423, 193.705
1415.614, 383.033
1416.804, 38.443
1417.994, 287.686
1419.184, 284.048
1420.374, 99.299
1421.564, 350.658
1422.753, 200.271
1423.943, 111.359
1425.132, 424.225
1426.321, 182.330
1427.510, 152.843
1428.698, 319.631
1429.887, 46.376
1431.075, 227.727
1432.263, 272.789
1433.451, 95.299
1434.639, 331.685
1435.827, 218.030
1437.014, 49.589
1438.201, 296.306
1439.388, 142.753
1440.575, 191.483
1441.762, 416.912
1442.949, 40.891
1444.135, 242.377
1445.321, 327.518
1446.507, 1.222
1447.693, 322.159
1448.879, 239.917
1450.064, 88.126
1451.250, 384.474
1452.435, 106.365
1453.620, 170.664
1454.805, 388.347
1455.989, 64.788
1457.174, 213.524
1458.358, 269.747
1459.542, 35.090
1460.726, 294.939
1461.910, 173.045
1463.093, 155.604
1464.277, 462.525
1465.460, 88.948
1466.643, 150.297
1467.826, 369.079
1469.009, 45.961
1470.191, 246.133
1471.373, 406.566
1472.556, 48.442
1473.738, 356.272
1474.919, 357.258
1476.101, 92.633
1477.283, 308.771
1478.464, 191.792
1479.645, 128.256
1480.826, 512.306
1482.007, 118.587
1483.187, 199.344
1484.368, 412.354
1485.548, 140.563
1486.728, 319.857
1487.908, 300.206
1489.088, 35.453
1490.268, 338.833
1491.447, 235.651
1492.626, 123.042
1493.805, 353.607
1494.984, 90.389
1496.163, 129.190
1497.341, 339.213
1498.520, 28.330
1499.698, 275.572
1500.876, 290.938
1502.054, 9.444
1503.232, 373.184
1504.409, 184.173
1505.586, 93.366
1506.763, 440.828
1507.940, 140.610
1509.117, 133.716
1510.294, 419.834
