##NAMES=Lazulite
##RRUFFID=R060494
##IDEAL CHEMISTRY=MgAl_2_(PO_4_)_2_(OH)_2_
##LOCALITY=Champion mine, White Mountains, Mono County, California, USA
##OWNER=RRUFF
##SOURCE=Michael Scott
##DESCRIPTION=Dark-blue coarsely crystalline mass
##STATUS=The identification of this mineral has been confirmed by X-ray diffraction and chemical analysis
##URL=rruff.info/R060494
##MEASURED CHEMISTRY=(Mg_0.67_Fe^2+^_0.33_)_Î£=1_Al_2.00_(P_1.00_O_4_)_2_(OH)_2_
##PIN_ID=M01551
##ORIENTATION=Laser parallel to (1 0 1). Fiducial mark perpendicular to laser is parallel to b [0 1 0]
139.4660, 0.0000000E+00
140.6980, 10.17920
141.9290, 0.4677730
143.1600, 29.01270
144.3910, 36.91260
145.6220, 41.36963
146.8530, 116.7871
148.0830, 20.00195
149.3140, 71.39258
150.5440, 27.48975
151.7740, 50.07520
153.0040, 57.39429
154.2340, 81.64575
155.4630, 35.46826
156.6930, 108.6851
157.9220, 121.1475
159.1510, 108.7478
160.3800, 281.4058
161.6090, 337.0278
162.8370, 663.5271
164.0660, 923.8242
165.2940, 988.8503
166.5220, 1199.543
167.7500, 1341.850
168.9780, 1568.719
170.2050, 1984.111
171.4330, 2414.985
172.6600, 2744.306
173.8870, 2972.044
175.1140, 2928.171
176.3410, 2928.705
177.5670, 3041.680
178.7940, 3310.132
180.0200, 4325.998
181.2460, 5549.189
182.4720, 7205.676
183.6980, 9125.437
184.9230, 10244.45
186.1490, 10970.69
187.3740, 12747.15
188.5990, 15974.82
189.8240, 18885.67
191.0490, 20412.71
192.2730, 20325.92
193.4980, 19258.28
194.7220, 15886.80
195.9460, 11786.46
197.1700, 7991.263
198.3940, 5423.195
199.6180, 3492.251
200.8410, 2503.426
202.0640, 2016.714
203.2870, 1603.112
204.5100, 1272.613
205.7330, 1048.213
206.9560, 985.9087
208.1780, 926.6958
209.4000, 842.5713
210.6230, 861.5742
211.8450, 896.2866
213.0660, 819.5151
214.2880, 1001.020
215.5090, 999.4932
216.7310, 1102.044
217.9520, 1109.877
219.1730, 1135.252
220.3940, 1169.006
221.6140, 1287.738
222.8350, 1375.454
224.0550, 1287.160
225.2750, 1268.860
226.4950, 975.5591
227.7150, 919.2603
228.9350, 704.9668
230.1540, 436.6821
231.3730, 289.4067
232.5930, 142.1436
233.8120, 162.8940
235.0300, 109.6587
236.2490, 178.4395
237.4680, 132.2363
238.6860, 267.0503
239.9040, 400.8813
241.1220, 571.7310
242.3400, 906.5991
243.5580, 1210.485
244.7750, 1700.392
245.9920, 2108.316
247.2100, 2562.259
248.4270, 3074.520
249.6430, 3365.204
250.8600, 4096.206
252.0770, 4774.225
253.2930, 5280.261
254.5090, 5437.314
255.7250, 5143.383
256.9410, 4451.469
258.1570, 3538.570
259.3720, 2526.688
260.5880, 1953.820
261.8030, 1363.968
263.0180, 1020.130
264.2330, 840.3066
265.4470, 743.4971
266.6620, 688.7017
267.8760, 577.9199
269.0900, 543.1514
270.3040, 545.3965
271.5180, 570.6543
272.7320, 581.9253
273.9460, 616.2095
275.1590, 615.5073
276.3720, 674.8179
277.5850, 740.1426
278.7980, 732.4858
280.0110, 823.8486
281.2230, 777.7822
282.4360, 753.6367
283.6480, 639.9341
284.8600, 549.5737
286.0720, 491.6680
287.2840, 274.9585
288.4950, 211.9800
289.7070, 66.74463
290.9180, 22.82104
292.1290, 55.25415
293.3400, 21.88574
294.5500, 21.72778
295.7610, 6.930176
296.9710, 121.7827
298.1820, 17.30396
299.3920, 110.6445
300.6020, 128.7029
301.8110, 64.85889
303.0210, 189.1060
304.2300, 233.4382
305.4400, 250.8503
306.6490, 362.3369
307.8580, 391.8936
309.0660, 518.5161
310.2750, 698.2004
311.4830, 829.9436
312.6920, 1067.741
313.9000, 1302.592
315.1080, 1541.492
316.3160, 1730.439
317.5230, 2003.431
318.7310, 2306.465
319.9380, 2646.541
321.1450, 3077.655
322.3520, 3345.806
323.5590, 3403.992
324.7650, 3494.210
325.9720, 3623.459
327.1780, 3634.736
328.3840, 4017.041
329.5900, 4161.372
330.7960, 4810.728
332.0020, 5255.108
333.2070, 6126.511
334.4120, 7047.936
335.6170, 8154.380
336.8220, 9557.845
338.0270, 10998.33
339.2320, 12525.83
340.4360, 13848.36
341.6410, 15235.89
342.8450, 16540.45
344.0490, 17731.02
345.2530, 18535.60
346.4560, 18682.21
347.6600, 17967.82
348.8630, 16234.45
350.0660, 14403.08
351.2690, 12323.74
352.4720, 10187.40
353.6750, 8459.081
354.8770, 7034.770
356.0790, 5984.467
357.2820, 5136.212
358.4840, 4601.922
359.6860, 4316.636
360.8870, 4077.348
362.0890, 4093.060
363.2900, 4077.764
364.4910, 4272.469
365.6920, 4493.176
366.8930, 4899.887
368.0940, 5352.600
369.2940, 5987.315
370.4950, 6715.033
371.6950, 7382.753
372.8950, 8093.477
374.0950, 8828.205
375.2940, 9423.931
376.4940, 9921.664
377.6930, 10033.39
378.8930, 9998.134
380.0920, 9592.871
381.2910, 8491.613
382.4890, 7145.354
383.6880, 5955.100
384.8860, 4903.845
386.0840, 3939.921
387.2820, 3170.773
388.4800, 2458.095
389.6780, 1996.848
390.8760, 1676.602
392.0730, 1408.357
393.2700, 1171.115
394.4670, 1056.875
395.6640, 826.6348
396.8610, 698.3992
398.0580, 702.1682
399.2540, 544.9404
400.4500, 533.7180
401.6460, 448.4961
402.8420, 379.2749
404.0380, 560.0640
405.2340, 526.8843
406.4290, 557.7131
407.6240, 690.5549
408.8190, 676.4080
410.0140, 756.2700
411.2090, 946.1396
412.4040, 1006.010
413.5980, 972.8818
414.7920, 844.1152
415.9870, 721.1089
417.1810, 432.3965
418.3740, 291.4270
419.5680, 44.08521
420.7610, 55.04785
421.9550, 209.2029
423.1480, 159.4199
424.3410, 69.68652
425.5340, 152.0000
426.7260, 131.4724
427.9190, 79.05884
429.1110, 135.7410
430.3030, 141.4961
431.4950, 163.3259
432.6870, 74.24341
433.8790, 49.20361
435.0700, 59.61206
436.2610, 35.63916
437.4530, 38.11255
438.6440, 29.62085
439.8340, 56.15918
441.0250, 6.3721001E-02
442.2160, 90.64502
443.4060, 47.29688
444.5960, 170.2078
445.7860, 147.1226
446.9760, 271.0420
448.1660, 164.9646
449.3550, 328.8906
450.5450, 421.8188
451.7340, 516.7502
452.9230, 659.6833
454.1120, 863.6187
455.3000, 962.5559
456.4890, 1227.495
457.6770, 1383.433
458.8650, 1555.374
460.0530, 1709.315
461.2410, 1948.257
462.4290, 2022.198
463.6170, 2221.141
464.8040, 2269.083
465.9910, 2529.025
467.1780, 2538.967
468.3650, 2715.908
469.5520, 2995.849
470.7390, 3112.790
471.9250, 3353.730
473.1110, 3638.669
474.2970, 3849.607
475.4830, 3950.544
476.6690, 4067.479
477.8540, 4125.415
479.0400, 3855.349
480.2250, 3548.281
481.4100, 2869.213
482.5950, 2278.142
483.7800, 1915.071
484.9650, 1396.998
486.1490, 997.9233
487.3330, 791.8472
488.5170, 483.7693
489.7010, 361.6895
490.8850, 278.6086
492.0690, 139.5254
493.2520, 155.4407
494.4350, 110.3542
495.6190, 114.2659
496.8020, 72.17578
497.9840, 83.08398
499.1670, 51.99023
500.3490, 94.89355
501.5320, 79.79541
502.7140, 132.6953
503.8960, 110.5935
505.0780, 124.4905
506.2590, 183.3860
507.4410, 147.2803
508.6220, 146.1731
509.8030, 216.0645
510.9840, 260.9546
512.1650, 325.8435
513.3460, 289.7307
514.5260, 333.6165
515.7070, 326.5012
516.8870, 334.3848
518.0670, 428.2666
519.2470, 393.1475
520.4260, 432.0271
521.6060, 476.9053
522.7850, 455.7825
523.9650, 437.6580
525.1440, 474.5327
526.3220, 511.4060
527.5010, 609.2781
528.6800, 596.1487
529.8580, 646.0181
531.0360, 614.8865
532.2140, 740.7534
533.3920, 571.6191
534.5700, 666.7688
535.7480, 602.6318
536.9250, 682.4937
538.1020, 648.0010
539.2790, 627.5894
540.4560, 581.8804
541.6330, 540.6426
542.8100, 500.5369
543.9860, 433.3899
545.1620, 358.5269
546.3380, 314.4067
547.5140, 293.0952
548.6900, 242.5415
549.8660, 213.6516
551.0410, 177.9197
552.2160, 148.4810
553.3910, 115.3594
554.5660, 80.59546
555.7410, 55.56641
556.9160, 67.38696
558.0900, 53.20239
559.2650, 64.95215
560.4390, 39.81299
561.6130, 97.60449
562.7860, 133.9575
563.9600, 146.6660
565.1340, 111.4548
566.3070, 106.8330
567.4800, 97.00464
568.6530, 127.4297
569.8260, 130.1135
570.9980, 255.2129
572.1710, 86.92651
573.3430, 126.2488
574.5150, 194.1438
575.6870, 107.5537
576.8590, 129.3599
578.0310, 179.5647
579.2030, 130.6377
580.3740, 73.22217
581.5450, 149.0293
582.7160, 36.34497
583.8870, 19.83984
585.0580, 39.96997
586.2280, 73.78271
587.3990, 86.59888
588.5690, 54.41748
589.7390, 49.23950
590.9090, 137.0640
592.0780, 205.8953
593.2480, 231.7300
594.4170, 320.5679
595.5870, 303.4087
596.7560, 535.2539
597.9250, 659.1035
599.0930, 843.9568
600.2620, 1154.819
601.4300, 1339.685
602.5990, 1709.556
603.7670, 2063.438
604.9350, 2383.335
606.1020, 2765.248
607.2700, 3013.172
608.4370, 3588.099
609.6050, 3946.030
610.7720, 4111.963
611.9390, 4417.901
613.1060, 4532.851
614.2720, 4439.808
615.4390, 4419.772
616.6050, 4189.747
617.7710, 3957.729
618.9370, 3653.732
620.1030, 3730.744
621.2680, 3802.760
622.4340, 3936.790
623.5990, 4189.824
624.7640, 4574.860
625.9290, 4892.904
627.0940, 5391.950
628.2590, 5716.004
629.4230, 5996.066
630.5880, 6532.139
631.7520, 6686.223
632.9160, 6626.322
634.0800, 6471.430
635.2440, 6162.545
636.4070, 5808.679
637.5700, 5235.820
638.7340, 4881.969
639.8970, 4604.096
641.0600, 3977.292
642.2220, 3804.504
643.3850, 3323.742
644.5470, 2909.988
645.7090, 2705.256
646.8710, 2348.527
648.0330, 2024.800
649.1950, 1801.087
650.3570, 1492.376
651.5180, 1240.858
652.6790, 970.9575
653.8400, 787.2678
655.0010, 655.5940
656.1620, 551.9326
657.3230, 449.2729
658.4830, 340.6138
659.6430, 314.9626
660.8030, 175.3293
661.9630, 241.7026
663.1230, 217.0762
664.2830, 155.4504
665.4420, 193.8274
666.6020, 129.2190
667.7610, 141.6113
668.9200, 125.0037
670.0780, 151.3962
671.2370, 53.78857
672.3960, 105.1802
673.5540, 11.42798
674.7120, 24.96729
675.8700, 35.37183
677.0280, 20.21411
678.1860, 21.80835
679.3430, 15.41016
680.5000, 25.01807
681.6580, 0.6362300
682.8150, 22.74341
683.9710, 48.87769
685.1280, 124.5217
686.2850, 41.22803
687.4410, 58.95288
688.5970, 50.70605
689.7530, 43.48291
690.9090, 39.27954
692.0650, 1.094727
693.2200, 17.91235
694.3760, 2.261963
695.5310, 68.07324
696.6860, 131.1880
697.8410, 201.9395
698.9960, 204.9578
700.1500, 191.3330
701.3050, 284.4963
702.4590, 336.6782
703.6130, 415.9797
704.7670, 533.2661
705.9210, 520.5757
707.0740, 552.9287
708.2280, 624.3210
709.3810, 789.7383
710.5340, 842.1960
711.6870, 915.6956
712.8400, 1122.242
713.9930, 1147.813
715.1450, 1318.401
716.2970, 1345.009
717.4490, 1542.632
718.6010, 1622.268
719.7530, 1872.917
720.9050, 2076.562
722.0560, 2323.212
723.2080, 2454.113
724.3590, 2759.757
725.5100, 3066.444
726.6610, 3411.081
727.8110, 3872.714
728.9620, 4247.342
730.1120, 4748.703
731.2620, 5381.530
732.4120, 5910.234
733.5620, 6612.848
734.7120, 7327.880
735.8620, 7874.904
737.0110, 8652.672
738.1600, 9243.518
739.3090, 9859.511
740.4580, 10191.55
741.6070, 10316.10
742.7550, 10417.45
743.9040, 10156.79
745.0520, 9694.487
746.2000, 9029.192
747.3480, 8579.928
748.4960, 7691.682
749.6430, 7014.765
750.7910, 6200.306
751.9380, 5527.425
753.0850, 4868.700
754.2320, 4350.300
755.3790, 3859.445
756.5260, 3532.920
757.6720, 3135.074
758.8180, 2887.039
759.9650, 2524.206
761.1110, 2354.957
762.2560, 1963.007
763.4020, 1918.896
764.5470, 1728.740
765.6930, 1488.815
766.8380, 1441.211
767.9830, 1317.624
769.1280, 1228.860
770.2720, 1150.869
771.4170, 1026.257
772.5610, 1008.071
773.7060, 927.2563
774.8500, 873.0144
775.9930, 795.3540
777.1370, 803.6655
778.2810, 726.0100
779.4240, 680.1841
780.5670, 613.0413
781.7100, 600.0161
782.8530, 678.0291
783.9960, 588.5520
785.1390, 593.9893
786.2810, 583.1599
787.4230, 533.6177
788.5650, 525.7253
789.7070, 498.3179
790.8490, 475.6401
791.9910, 466.4309
793.1320, 437.9121
794.2730, 428.3867
795.4140, 391.6562
796.5550, 356.3020
797.6960, 348.4397
798.8370, 390.7368
799.9770, 289.9136
801.1180, 271.1021
802.2580, 391.5679
803.3980, 306.9417
804.5380, 288.1072
805.6770, 369.1421
806.8170, 298.2556
807.9560, 273.2734
809.0950, 256.2397
810.2340, 228.3298
811.3730, 265.4648
812.5120, 234.8445
813.6500, 281.5808
814.7890, 217.8242
815.9270, 231.1367
817.0650, 241.6482
818.2030, 172.5854
819.3400, 218.4048
820.4780, 187.2170
821.6150, 187.7280
822.7530, 218.4792
823.8900, 174.4043
825.0270, 181.4541
826.1630, 120.5781
827.3000, 149.3276
828.4360, 156.3108
829.5730, 133.9590
830.7090, 168.0969
831.8450, 171.7524
832.9800, 71.40405
834.1160, 169.0413
835.2520, 84.66675
836.3870, 143.2783
837.5220, 115.8794
838.6570, 206.4661
839.7920, 74.03833
840.9260, 93.59473
842.0610, 103.1360
843.1950, 179.6621
844.3290, 138.1726
845.4630, 180.6675
846.5970, 153.1470
847.7310, 204.6101
848.8640, 131.0569
849.9980, 157.4873
851.1310, 125.9011
852.2640, 137.2983
853.3970, 152.6790
854.5300, 142.0427
855.6620, 124.3899
856.7940, 144.7200
857.9270, 140.0334
859.0590, 123.3293
860.1910, 129.6133
861.3220, 78.88013
862.4540, 128.1296
863.5850, 123.3625
864.7170, 111.5789
865.8480, 15.77832
866.9790, 46.95410
868.1090, 69.11157
869.2400, 121.2520
870.3710, 27.37549
871.5010, 27.47852
872.6310, 50.56128
873.7610, 3.625977
874.8910, 27.66235
876.0200, 24.67871
877.1500, 8.325684
878.2790, 21.36426
879.4080, 21.44409
880.5370, 11.56494
881.6660, 53.27832
882.7950, 46.10449
883.9230, 42.91284
885.0520, 17.70361
886.1800, 10.52686
887.3080, 15.20801
888.4360, 7.001465
889.5640, 6.397217
890.6910, 4.252441
891.8180, 43.12354
892.9460, 6.550781
894.0730, 16.99146
895.2000, 23.48633
896.3260, 28.99585
897.4530, 11.46045
898.5790, 16.90356
899.7060, 18.52734
900.8320, 8.267822
901.9580, 2.106689
903.0830, 14.54395
904.2090, 12.22778
905.3340, 40.94360
906.4600, 0.2939450
907.5850, 6.986328
908.7100, 45.30859
909.8350, 7.171631
910.9590, 1.062988
912.0840, 48.97852
913.2080, 81.94336
914.3320, 47.97412
915.4560, 75.43506
916.5800, 7.193604
917.7040, 70.36060
918.8270, 17.41406
919.9510, 25.17285
921.0740, 36.08301
922.1970, 17.62109
923.3200, 33.31030
924.4430, 27.98560
925.5650, 57.35327
926.6870, 46.74146
927.8100, 34.17285
928.9320, 12.35938
930.0540, 25.87744
931.1750, 18.61743
932.2970, 59.13965
933.4180, 14.70898
934.5400, 29.69727
935.6610, 22.09131
936.7820, 3.527100
937.9030, 51.16211
939.0230, 13.16187
940.1440, 39.47314
941.2640, 15.77319
942.3840, 33.68848
943.5040, 50.33862
944.6240, 6.604980
945.7440, 26.14014
946.8630, 37.90820
947.9820, 37.38184
949.1020, 46.46460
950.2210, 0.3703610
951.3390, 10.78711
952.4580, 38.93628
953.5770, 21.08154
954.6950, 38.21729
955.8130, 78.34375
956.9310, 60.47217
958.0490, 130.6221
959.1670, 18.77197
960.2840, 29.92651
961.4020, 117.0840
962.5190, 101.2427
963.6360, 129.7754
964.7530, 116.5522
965.8700, 124.6987
966.9860, 99.83740
968.1030, 47.90186
969.2190, 97.02563
970.3350, 69.12866
971.4510, 171.2380
972.5670, 126.3401
973.6830, 141.4353
974.7980, 191.4629
975.9140, 168.5444
977.0290, 201.5676
978.1440, 126.6885
979.2590, 209.7507
980.3730, 223.8074
981.4880, 178.8589
982.6020, 233.9055
983.7160, 308.9475
984.8300, 359.9841
985.9440, 322.0173
987.0580, 388.0452
988.1710, 413.2485
989.2850, 411.0957
990.3980, 489.1138
991.5110, 514.1274
992.6240, 533.1367
993.7370, 601.1587
994.8490, 640.1875
995.9620, 607.1648
997.0740, 760.2031
998.1860, 726.2451
999.2980, 878.2915
1000.410, 931.6104
1001.522, 958.4636
1002.633, 1168.432
1003.744, 1096.485
1004.856, 1185.110
1005.966, 1327.745
1007.077, 1336.628
1008.188, 1522.433
1009.298, 1561.099
1010.409, 1701.720
1011.519, 1809.821
1012.629, 2011.112
1013.739, 2090.408
1014.849, 2240.336
1015.958, 2351.256
1017.068, 2512.136
1018.177, 2540.007
1019.286, 2563.543
1020.395, 2486.618
1021.503, 2311.119
1022.612, 2206.459
1023.720, 1963.856
1024.829, 2060.935
1025.937, 1895.064
1027.045, 1972.508
1028.153, 2030.140
1029.260, 1860.564
1030.368, 1862.399
1031.475, 1893.934
1032.582, 1847.624
1033.689, 1961.356
1034.796, 2068.849
1035.903, 2184.016
1037.009, 2348.172
1038.115, 2487.499
1039.222, 2757.072
1040.328, 3110.261
1041.433, 3435.025
1042.539, 3904.412
1043.645, 4510.223
1044.750, 5170.452
1045.855, 6099.704
1046.960, 7187.934
1048.065, 8655.334
1049.170, 10269.04
1050.275, 12316.07
1051.379, 14628.17
1052.483, 16909.20
1053.587, 19188.31
1054.691, 21581.69
1055.795, 23233.78
1056.899, 24122.98
1058.002, 24219.18
1059.105, 23356.39
1060.209, 21277.32
1061.312, 18821.08
1062.414, 16190.26
1063.517, 13527.53
1064.620, 11088.43
1065.722, 8985.833
1066.824, 7343.076
1067.926, 6033.434
1069.028, 4968.776
1070.130, 4310.835
1071.231, 3700.982
1072.333, 3175.335
1073.434, 2894.814
1074.535, 2671.211
1075.636, 2467.702
1076.737, 2204.242
1077.837, 2193.656
1078.938, 2031.735
1080.038, 1912.127
1081.138, 2030.609
1082.238, 1852.209
1083.338, 1942.655
1084.437, 1912.194
1085.537, 2002.831
1086.636, 2015.450
1087.735, 2109.112
1088.834, 2158.788
1089.933, 2291.481
1091.032, 2337.187
1092.130, 2361.894
1093.228, 2570.625
1094.327, 2631.369
1095.425, 2685.125
1096.523, 2802.894
1097.620, 2940.676
1098.718, 2970.473
1099.815, 3040.283
1100.912, 2948.107
1102.009, 2710.943
1103.106, 2611.793
1104.203, 2378.655
1105.300, 2193.529
1106.396, 2015.417
1107.492, 1869.319
1108.589, 1807.233
1109.685, 1659.160
1110.780, 1582.101
1111.876, 1656.054
1112.971, 1571.244
1114.067, 1563.265
1115.162, 1505.461
1116.257, 1648.468
1117.352, 1638.844
1118.446, 1734.877
1119.541, 1746.767
1120.635, 1962.930
1121.729, 2160.004
1122.823, 2203.091
1123.917, 2491.192
1125.011, 2722.720
1126.105, 2943.636
1127.198, 3330.776
1128.291, 3931.857
1129.384, 4315.642
1130.477, 5135.444
1131.570, 5848.450
1132.663, 6621.820
1133.755, 7220.126
1134.847, 7867.367
1135.940, 7915.621
1137.031, 7872.167
1138.123, 7455.452
1139.215, 6769.094
1140.306, 6040.084
1141.398, 5270.933
1142.489, 4603.282
1143.580, 3841.651
1144.671, 3283.047
1145.761, 3023.466
1146.852, 2597.908
1147.942, 2378.362
1149.033, 2174.992
1150.123, 1998.640
1151.213, 1859.961
1152.302, 1812.951
1153.392, 1644.486
1154.481, 1559.880
1155.571, 1476.455
1156.660, 1286.432
1157.749, 1327.092
1158.837, 1379.361
1159.926, 1266.066
1161.014, 1252.742
1162.103, 1255.779
1163.191, 1199.482
1164.279, 1132.199
1165.367, 1000.929
1166.454, 1038.679
1167.542, 1071.712
1168.629, 965.4978
1169.716, 1082.173
1170.803, 1039.004
1171.890, 1047.976
1172.977, 1062.841
1174.064, 1034.259
1175.150, 978.7717
1176.236, 1034.696
1177.322, 953.4214
1178.408, 1007.563
1179.494, 1036.577
1180.580, 1012.625
1181.665, 975.6899
1182.750, 943.8555
1183.835, 886.8457
1184.920, 826.5713
1186.005, 773.7576
1187.090, 698.6411
1188.174, 669.8005
1189.259, 603.9692
1190.343, 634.1655
1191.427, 589.3855
1192.511, 534.1562
1193.594, 548.4067
1194.678, 500.6650
1195.761, 529.9395
1196.844, 417.2402
1197.928, 501.5867
1199.010, 436.9099
1200.093, 515.2417
1201.176, 445.5840
1202.258, 480.9490
1203.340, 485.3589
1204.423, 515.7400
1205.504, 526.6841
1206.586, 583.3362
1207.668, 535.7397
1208.749, 651.1509
1209.831, 725.5762
1210.912, 617.4839
1211.993, 649.9426
1213.074, 657.4087
1214.154, 522.8813
1215.235, 562.3613
1216.315, 506.9170
1217.395, 515.4531
1218.475, 524.9617
1219.555, 503.8496
1220.635, 455.3599
1221.715, 366.8757
1222.794, 399.4888
1223.873, 313.0154
1224.952, 369.5476
1226.031, 273.1011
1227.110, 222.9678
1228.189, 264.8779
1229.267, 260.4875
1230.345, 244.6211
1231.424, 217.7966
1232.502, 218.3630
1233.579, 165.9341
1234.657, 134.5095
1235.735, 103.0891
1236.812, 79.71460
1237.889, 56.87646
1238.966, 55.85205
1240.043, 15.44775
1241.120, 16.04712
1242.196, 11.35010
1243.273, 1.959473
1244.349, 10.14038
1245.425, 32.46655
1246.501, 14.85791
1247.577, 11.78296
1248.652, 26.60522
1249.728, 4.992432
1250.803, 24.65894
1251.878, 65.35474
1252.953, 22.96753
1254.028, 75.41577
1255.103, 50.83228
1256.177, 6.731445
1257.251, 74.70264
1258.326, 37.16968
1259.400, 36.65015
1260.473, 55.14429
1261.547, 27.66211
1262.621, 2.189697
1263.694, 51.94263
1264.767, 44.71997
1265.840, 27.10620
1266.913, 29.36108
1267.986, 26.90796
1269.059, 63.44067
1270.131, 11.00952
1271.203, 24.41675
1272.275, 58.84424
1273.347, 24.27246
1274.419, 6.700928
1275.491, 9.130371
1276.562, 68.55957
1277.634, 51.01196
1278.705, 5.611084
1279.776, 44.78394
1280.847, 47.82178
1281.917, 31.36572
1282.988, 11.27197
1284.058, 14.08398
1285.128, 2.561768
1286.199, 4.787598
1287.268, 5.868896
1288.338, 5.472412
1289.408, 13.70361
1290.477, 15.85498
1291.546, 27.44360
1292.616, 70.73657
1293.685, 55.02271
1294.753, 20.56494
1295.822, 28.16895
1296.890, 70.08691
1297.959, 84.66553
1299.027, 38.55371
1300.095, 8.175537
1301.163, 28.02612
1302.231, 2.203613
1303.298, 1.364990
1304.365, 33.52075
1305.433, 48.32617
1306.500, 11.80762
1307.567, 42.93701
1308.633, 89.06006
1309.700, 38.17773
1310.766, 41.29175
1311.833, 6.601318
