##NAMES=Lazulite
##RRUFFID=R060494
##IDEAL CHEMISTRY=MgAl_2_(PO_4_)_2_(OH)_2_
##LOCALITY=Champion mine, White Mountains, Mono County, California, USA
##OWNER=RRUFF
##SOURCE=Michael Scott
##DESCRIPTION=Dark-blue coarsely crystalline mass
##STATUS=The identification of this mineral has been confirmed by X-ray diffraction and chemical analysis
##URL=rruff.info/R060494
##MEASURED CHEMISTRY=(Mg_0.67_Fe^2+^_0.33_)_Î£=1_Al_2.00_(P_1.00_O_4_)_2_(OH)_2_
##PIN_ID=M01822
##ORIENTATION=Laser parallel to a* (1 0 0). Fiducial mark perpendicular to laser is parallel to b [0 1 0]
128.3740, 0.0000000E+00
129.6080, 41.03076
130.8400, 42.02295
132.0730, 149.8130
133.3060, 21.25879
134.5380, 7.548828
135.7700, 59.28174
137.0020, 23.82324
138.2340, 73.62158
139.4660, 158.3232
140.6980, 234.2168
141.9290, 77.12793
143.1600, 20.05371
144.3910, 11.12549
145.6220, 87.20947
146.8530, 13.19336
148.0830, 80.98047
149.3140, 122.4858
150.5440, 21.63916
151.7740, 11.53418
153.0040, 109.9316
154.2340, 3.040527
155.4630, 47.50684
156.6930, 95.52783
157.9220, 14.97510
159.1510, 21.80615
160.3800, 83.98779
161.6090, 110.4922
162.8370, 97.29492
164.0660, 188.3750
165.2940, 276.7139
166.5220, 249.2886
167.7500, 254.0752
168.9780, 247.0576
170.2050, 313.2905
171.4330, 346.7705
172.6600, 486.1821
173.8870, 515.8169
175.1140, 624.8804
176.3410, 808.9873
177.5670, 1012.141
178.7940, 1508.343
180.0200, 1986.645
181.2460, 2650.200
182.4720, 3496.840
183.6980, 4456.594
184.9230, 5630.387
186.1490, 7220.221
187.3740, 9849.098
188.5990, 12878.02
189.8240, 15918.01
191.0490, 17901.06
192.2730, 17647.15
193.4980, 14737.32
194.7220, 11163.54
195.9460, 8085.834
197.1700, 7352.185
198.3940, 4638.598
199.6180, 3143.073
200.8410, 2605.610
202.0640, 2073.185
203.2870, 1583.729
204.5100, 1136.262
205.7330, 762.9810
206.9560, 485.3271
208.1780, 270.8804
209.4000, 211.4551
210.6230, 103.5127
211.8450, 106.1572
213.0660, 103.3599
214.2880, 236.0635
215.5090, 318.8032
216.7310, 480.3228
217.9520, 605.7905
219.1730, 686.4170
220.3940, 991.9146
221.6140, 1247.248
222.8350, 1350.640
224.0550, 1460.093
225.2750, 1377.606
226.4950, 1250.179
227.7150, 1051.812
228.9350, 833.5049
230.1540, 659.2573
231.3730, 463.5264
232.5930, 459.6416
233.8120, 497.4565
235.0300, 345.4580
236.2490, 363.1060
237.4680, 413.6768
238.6860, 411.6768
239.9040, 543.7349
241.1220, 779.8516
242.3400, 1000.025
243.5580, 1350.257
244.7750, 1760.547
245.9920, 2208.894
247.2100, 2789.357
248.4270, 3708.918
249.6430, 4921.622
250.8600, 6044.441
252.0770, 7563.312
253.2930, 8434.235
254.5090, 8101.206
255.7250, 6943.220
256.9410, 5354.277
258.1570, 3916.380
259.3720, 2974.526
260.5880, 2167.717
261.8030, 1830.951
263.0180, 1579.229
264.2330, 1397.550
265.4470, 1442.916
266.6620, 1641.324
267.8760, 1842.775
269.0900, 2161.271
270.3040, 2474.810
271.5180, 3047.392
272.7320, 3627.018
273.9460, 4424.687
275.1590, 5312.622
276.3720, 6308.860
277.5850, 7697.322
278.7980, 8594.948
280.0110, 9435.760
281.2230, 9611.065
282.4360, 9894.637
283.6480, 8961.878
284.8600, 7944.242
286.0720, 6582.717
287.2840, 5278.287
288.4950, 4013.956
289.7070, 3155.306
290.9180, 2417.565
292.1290, 1810.497
293.3400, 1297.507
294.5500, 1057.593
295.7610, 802.7515
296.9710, 525.9800
298.1820, 353.1382
299.3920, 216.4976
300.6020, 207.8926
301.8110, 27.62695
303.0210, 17.90430
304.2300, 68.50879
305.4400, 50.88086
306.6490, 227.2104
307.8580, 120.5347
309.0660, 108.8325
310.2750, 76.10254
311.4830, 25.66016
312.6920, 141.4692
313.9000, 249.3247
315.1080, 421.2241
316.3160, 700.1685
317.5230, 927.1553
318.7310, 1126.186
319.9380, 1332.253
321.1450, 1420.356
322.3520, 1383.495
323.5590, 1114.669
324.7650, 784.8799
325.9720, 536.1255
327.1780, 407.4053
328.3840, 283.7188
329.5900, 145.9180
330.7960, 79.81641
332.0020, 1.143066
333.2070, 48.69971
334.4120, 17.23291
335.6170, 81.73779
336.8220, 42.77295
338.0270, 42.31641
339.2320, 9.892090
340.4360, 5.499023
341.6410, 44.86328
342.8450, 71.79736
344.0490, 25.51123
345.2530, 96.20508
346.4560, 65.95312
347.6600, 62.73193
348.8630, 122.5415
350.0660, 110.3828
351.2690, 94.25586
352.4720, 126.1597
353.6750, 118.0952
354.8770, 186.0625
356.0790, 196.0615
357.2820, 272.0918
358.4840, 407.1528
359.6860, 403.2793
360.8870, 502.3936
362.0890, 673.5176
363.2900, 930.6460
364.4910, 1082.166
365.6920, 1389.202
366.8930, 1870.184
368.0940, 2171.574
369.2940, 2736.858
370.4950, 3407.504
371.6950, 4158.842
372.8950, 4932.069
374.0950, 5673.330
375.2940, 6631.006
376.4940, 7350.384
377.6930, 7705.688
378.8930, 7728.026
380.0920, 7236.392
381.2910, 6548.774
382.4890, 5407.179
383.6880, 4406.615
384.8860, 3595.079
386.0840, 2884.573
387.2820, 2351.098
388.4800, 1901.652
389.6780, 1724.235
390.8760, 1478.847
392.0730, 1421.487
393.2700, 1343.155
394.4670, 1271.851
395.6640, 1214.573
396.8610, 1385.323
398.0580, 1509.099
399.2540, 1750.901
400.4500, 2312.730
401.6460, 3208.585
402.8420, 4385.466
404.0380, 6133.373
405.2340, 8387.313
406.4290, 10616.29
407.6240, 13398.28
408.8190, 18251.31
410.0140, 24324.36
411.2090, 31477.46
412.4040, 37186.61
413.5980, 37099.76
414.7920, 31247.97
415.9870, 23650.22
417.1810, 16970.51
418.3740, 11979.84
419.5680, 9113.229
420.7610, 7497.688
421.9550, 6732.208
423.1480, 10921.77
424.3410, 12428.39
425.5340, 7652.048
426.7260, 6075.743
427.9190, 5533.474
429.1110, 4780.234
430.3030, 3915.022
431.4950, 2983.841
432.6870, 2348.695
433.8790, 1858.583
435.0700, 1523.514
436.2610, 1101.480
437.4530, 1021.499
438.6440, 729.5693
439.8340, 670.7070
441.0250, 523.8828
442.2160, 402.1074
443.4060, 316.3784
444.5960, 381.6816
445.7860, 386.8496
446.9760, 369.2402
448.1660, 381.7817
449.3550, 435.0884
450.5450, 409.9902
451.7340, 394.2178
452.9230, 355.0049
454.1120, 485.3198
455.3000, 399.9204
456.4890, 466.5483
457.6770, 512.2012
458.8650, 674.8774
460.0530, 707.5776
461.2410, 760.3003
462.4290, 783.0454
463.6170, 1006.813
464.8040, 1098.603
465.9910, 1311.415
467.1780, 1739.249
468.3650, 2130.104
469.5520, 2600.979
470.7390, 3348.878
471.9250, 4116.796
473.1110, 4864.734
474.2970, 5821.696
475.4830, 6695.389
476.6690, 7366.254
477.8540, 7508.413
479.0400, 7397.859
480.2250, 6688.945
481.4100, 5773.051
482.5950, 4669.179
483.7800, 3714.249
484.9650, 2872.416
486.1490, 2192.616
487.3330, 1719.629
488.5170, 1337.873
489.7010, 1002.146
490.8850, 895.4409
492.0690, 669.7544
493.2520, 467.0903
494.4350, 458.4473
495.6190, 371.8228
496.8020, 232.2173
497.9840, 167.6289
499.1670, 93.43408
500.3490, 75.50684
501.5320, 0.9741210
502.7140, 24.45752
503.8960, 25.95703
505.0780, 91.52637
506.2590, 80.03027
507.4410, 23.45117
508.6220, 108.0508
509.8030, 75.58008
510.9840, 132.1211
512.1650, 58.69971
513.3460, 29.28516
514.5260, 33.13281
515.7070, 58.56641
516.8870, 10.98438
518.0670, 1.525879
519.2470, 69.94678
520.4260, 190.4336
521.6060, 73.93506
522.7850, 179.4517
523.9650, 245.9824
525.1440, 281.5273
526.3220, 341.0859
527.5010, 315.6592
528.6800, 428.2456
529.8580, 447.8452
531.0360, 622.4580
532.2140, 665.0840
533.3920, 729.7217
534.5700, 847.3726
535.7480, 894.0352
536.9250, 872.7095
538.1020, 843.3955
539.2790, 919.0938
540.4560, 930.8027
541.6330, 842.5225
542.8100, 789.2524
543.9860, 728.9951
545.1620, 600.7744
546.3380, 658.2324
547.5140, 513.8965
548.6900, 460.0645
549.8660, 504.3340
551.0410, 377.1504
552.2160, 321.0073
553.3910, 320.6631
554.5660, 290.9927
555.7410, 308.2827
556.9160, 288.6270
558.0900, 349.6270
559.2650, 306.2334
560.4390, 267.2559
561.6130, 345.7681
562.7860, 305.4780
563.9600, 332.0640
565.1340, 254.4297
566.3070, 255.1914
567.4800, 296.5337
568.6530, 321.2920
569.8260, 307.1685
570.9980, 294.0664
572.1710, 354.9443
573.3430, 304.2407
574.5150, 271.3267
575.6870, 229.5615
576.8590, 263.2158
578.0310, 333.6611
579.2030, 268.5254
580.3740, 289.6992
581.5450, 296.3286
582.7160, 262.2622
583.8870, 249.8359
585.0580, 287.1909
586.2280, 349.0073
587.3990, 381.6187
588.5690, 389.1128
589.7390, 496.9219
590.9090, 485.3369
592.0780, 486.4136
593.2480, 626.8521
594.4170, 707.6826
595.5870, 928.9897
596.7560, 1063.820
597.9250, 1209.870
599.0930, 1518.085
600.2620, 1757.982
601.4300, 2138.923
602.5990, 2529.801
603.7670, 3103.785
604.9350, 3752.643
606.1020, 4396.619
607.2700, 5311.529
608.4370, 6116.357
609.6050, 7086.169
610.7720, 7944.030
611.9390, 8455.821
613.1060, 8905.812
614.2720, 8639.801
615.4390, 8338.469
616.6050, 7849.194
617.7710, 7224.265
618.9370, 6956.822
620.1030, 6604.036
621.2680, 6590.438
622.4340, 6674.672
623.5990, 6907.558
624.7640, 7330.882
625.9290, 8157.102
627.0940, 8782.008
628.2590, 9704.024
629.4230, 10786.11
630.5880, 11894.52
631.7520, 12735.43
632.9160, 13513.07
634.0800, 14315.69
635.2440, 14682.46
636.4070, 15082.52
637.5700, 15385.63
638.7340, 15476.23
639.8970, 15777.16
641.0600, 16064.27
642.2220, 16171.11
643.3850, 16534.79
644.5470, 16335.46
645.7090, 15962.07
646.8710, 15128.18
648.0330, 14291.87
649.1950, 12565.60
650.3570, 11979.40
651.5180, 10237.87
652.6790, 8206.991
653.8400, 6906.451
655.0010, 5494.029
656.1620, 5084.587
657.3230, 3917.739
658.4830, 3142.187
659.6430, 2798.702
660.8030, 2305.208
661.9630, 2051.695
663.1230, 1777.945
664.2830, 1709.638
665.4420, 1388.077
666.6020, 1181.496
667.7610, 1038.892
668.9200, 803.2646
670.0780, 808.6147
671.2370, 704.9409
672.3960, 558.2437
673.5540, 516.5229
674.7120, 417.7773
675.8700, 413.0083
677.0280, 268.2144
678.1860, 367.3955
679.3430, 308.5518
680.5000, 222.6831
681.6580, 187.7891
682.8150, 113.0034
683.9710, 108.9238
685.1280, 17.95166
686.2850, 48.93750
687.4410, 77.88867
688.5970, 73.80957
689.7530, 12.69824
690.9090, 5.458984
692.0650, 19.32910
693.2200, 31.07227
694.3760, 42.22510
695.5310, 10.59863
696.6860, 13.96777
697.8410, 45.42969
698.9960, 19.63525
700.1500, 74.69922
701.3050, 61.41992
702.4590, 30.77002
703.6130, 39.08398
704.7670, 66.98438
705.9210, 42.01611
707.0740, 69.00391
708.2280, 266.9546
709.3810, 153.7007
710.5340, 162.4917
711.6870, 47.62744
712.8400, 57.44482
713.9930, 1.777832
715.1450, 35.93848
716.2970, 36.39209
717.4490, 42.80078
718.6010, 95.29346
719.7530, 10.10254
720.9050, 27.38721
722.0560, 21.50293
723.2080, 49.90137
724.3590, 72.95020
725.5100, 88.09766
726.6610, 3.892090
727.8110, 34.05371
728.9620, 48.95020
730.1120, 140.8013
731.2620, 106.6191
732.4120, 118.4004
733.5620, 82.14551
734.7120, 81.85010
735.8620, 149.5146
737.0110, 128.1455
738.1600, 201.7402
739.3090, 170.3032
740.4580, 218.8330
741.6070, 156.3306
742.7550, 229.7939
743.9040, 154.2256
745.0520, 167.6230
746.2000, 204.9868
747.3480, 248.3184
748.4960, 172.6177
749.6430, 232.8833
750.7910, 143.1162
751.9380, 142.3149
753.0850, 83.47852
754.2320, 8.601563
755.3790, 130.0361
756.5260, 89.06348
757.6720, 115.5303
758.8180, 105.1611
759.9650, 57.07227
761.1110, 77.82764
762.2560, 113.6479
763.4020, 121.4302
764.5470, 161.0186
765.6930, 76.24365
766.8380, 33.90674
767.9830, 111.2446
769.1280, 162.8501
770.2720, 92.43701
771.4170, 122.2075
772.5610, 207.2222
773.7060, 156.5879
774.8500, 216.0347
775.9930, 173.3369
777.1370, 179.7622
778.2810, 162.3164
779.4240, 187.4585
780.5670, 274.4326
781.7100, 258.9258
782.8530, 340.8022
783.9960, 358.9624
785.1390, 306.8809
786.2810, 295.3638
787.4230, 172.0791
788.5650, 283.6772
789.7070, 313.0713
790.8490, 393.5146
791.9910, 296.4507
793.1320, 293.3496
794.2730, 321.2124
795.4140, 303.7344
796.5550, 296.9463
797.6960, 379.0361
798.8370, 328.2837
799.9770, 381.3789
801.1180, 325.0444
802.2580, 453.7314
803.3980, 275.6123
804.5380, 343.1514
805.6770, 357.6543
806.8170, 276.1211
807.9560, 315.5522
809.0950, 352.9473
810.2340, 390.3062
811.3730, 358.6299
812.5120, 393.9180
813.6500, 261.1714
814.7890, 319.3896
815.9270, 350.5728
817.0650, 288.7207
818.2030, 353.8457
819.3400, 337.9243
820.4780, 365.9673
821.6150, 390.9492
822.7530, 408.9580
823.8900, 386.2778
825.0270, 448.7979
826.1630, 481.1924
827.3000, 450.0156
828.4360, 484.7739
829.5730, 569.7075
830.7090, 459.9448
831.8450, 614.1963
832.9800, 562.3687
834.1160, 581.8604
835.2520, 622.7202
836.3870, 715.1396
837.5220, 701.0439
838.6570, 740.7256
839.7920, 719.5059
840.9260, 839.4814
842.0610, 913.0356
843.1950, 979.9829
844.3290, 1045.158
845.4630, 1085.413
846.5970, 1121.167
847.7310, 1148.476
848.8640, 1150.340
849.9980, 1168.390
851.1310, 1101.265
852.2640, 1115.693
853.3970, 1203.306
854.5300, 1084.473
855.6620, 1181.304
856.7940, 1197.653
857.9270, 1159.672
859.0590, 1044.025
860.1910, 1046.570
861.3220, 961.6289
862.4540, 937.8711
863.5850, 1010.205
864.7170, 828.2109
865.8480, 851.5938
866.9790, 685.3359
868.1090, 601.7119
869.2400, 611.2139
870.3710, 543.1836
871.5010, 507.1260
872.6310, 423.8237
873.7610, 449.3296
874.8910, 302.1279
876.0200, 218.8564
877.1500, 250.6226
878.2790, 214.2568
879.4080, 168.9917
880.5370, 172.5825
881.6660, 77.21338
882.7950, 178.9033
883.9230, 145.5801
885.0520, 100.1841
886.1800, 143.8325
887.3080, 75.25537
888.4360, 105.6567
889.5640, 45.35107
890.6910, 10.96729
891.8180, 31.21777
892.9460, 6.960938
894.0730, 60.96533
895.2000, 37.87402
896.3260, 66.14209
897.4530, 82.14160
898.5790, 30.96387
899.7060, 68.12500
900.8320, 31.94727
901.9580, 29.08643
903.0830, 4.974609
904.2090, 43.38428
905.3340, 108.3301
906.4600, 49.27197
907.5850, 54.82861
908.7100, 12.77197
909.8350, 33.04053
910.9590, 112.0015
912.0840, 18.28955
913.2080, 71.54785
914.3320, 11.97412
915.4560, 96.29541
916.5800, 43.42090
917.7040, 51.57324
918.8270, 21.75537
919.9510, 54.95312
921.0740, 49.18213
922.1970, 54.43652
923.3200, 14.17920
924.4430, 51.47217
925.5650, 53.79102
926.6870, 38.86426
927.8100, 74.51807
928.9320, 8.170898
930.0540, 20.17822
931.1750, 75.53467
932.2970, 56.92480
933.4180, 17.33643
934.5400, 78.75439
935.6610, 2.796875
936.7820, 1.651855
937.9030, 12.10156
939.0230, 53.44678
940.1440, 153.9971
941.2640, 103.5508
942.3840, 32.10645
943.5040, 10.66602
944.6240, 95.22852
945.7440, 57.79541
946.8630, 64.36719
947.9820, 47.94238
949.1020, 45.75146
950.2210, 96.10889
951.3390, 68.70020
952.4580, 3.297852
953.5770, 45.90039
954.6950, 52.51025
955.8130, 190.1270
956.9310, 133.7505
958.0490, 191.3906
959.1670, 191.0425
960.2840, 118.7046
961.4020, 275.3770
962.5190, 258.0679
963.6360, 251.7817
964.7530, 333.5137
965.8700, 295.2627
966.9860, 272.0459
968.1030, 362.8545
969.2190, 318.6846
970.3350, 500.5513
971.4510, 389.4473
972.5670, 485.3887
973.6830, 500.3721
974.7980, 633.3745
975.9140, 567.4219
977.0290, 632.4858
978.1440, 886.5713
979.2590, 888.2524
980.3730, 998.3008
981.4880, 1104.922
982.6020, 1180.067
983.7160, 1290.232
984.8300, 1511.419
985.9440, 1596.636
987.0580, 1745.877
988.1710, 2096.157
989.2850, 2317.494
990.3980, 2525.889
991.5110, 2830.321
992.6240, 3018.793
993.7370, 3271.309
994.8490, 3788.868
995.9620, 4113.490
997.0740, 4392.137
998.1860, 4605.824
999.2980, 4876.536
1000.410, 4950.278
1001.522, 5000.051
1002.633, 4990.868
1003.744, 4702.719
1004.856, 4484.614
1005.966, 4300.542
1007.077, 3962.506
1008.188, 3708.513
1009.298, 3587.541
1010.409, 3426.709
1011.519, 3282.681
1012.629, 3329.792
1013.739, 3289.930
1014.849, 3344.102
1015.958, 3427.296
1017.068, 3494.513
1018.177, 3339.759
1019.286, 3286.031
1020.395, 3059.326
1021.503, 2991.644
1022.612, 2866.987
1023.720, 2668.357
1024.829, 2683.397
1025.937, 2696.836
1027.045, 2756.833
1028.153, 2793.658
1029.260, 2879.197
1030.368, 3004.993
1031.475, 3149.012
1032.582, 3353.113
1033.689, 3534.930
1034.796, 3804.111
1035.903, 4060.847
1037.009, 4584.902
1038.115, 5040.498
1039.222, 5667.464
1040.328, 6412.062
1041.433, 7353.411
1042.539, 8556.405
1043.645, 9816.350
1044.750, 11490.44
1045.855, 13396.40
1046.960, 16197.24
1048.065, 19327.40
1049.170, 23322.90
1050.275, 28151.80
1051.379, 33313.30
1052.483, 39078.56
1053.587, 44888.04
1054.691, 50019.96
1055.795, 53724.68
1056.899, 55338.52
1058.002, 54717.59
1059.105, 51736.64
1060.209, 46669.19
1061.312, 40650.78
1062.414, 34164.40
1063.517, 28331.37
1064.620, 22919.64
1065.722, 18496.03
1066.824, 15023.27
1067.926, 12430.65
1069.028, 10322.46
1070.130, 8785.255
1071.231, 7565.856
1072.333, 6649.801
1073.434, 5928.780
1074.535, 5428.793
1075.636, 5025.841
1076.737, 4829.925
1077.837, 4743.042
1078.938, 4521.193
1080.038, 4494.379
1081.138, 4698.599
1082.238, 4714.854
1083.338, 4928.146
1084.437, 5143.474
1085.537, 5620.824
1086.636, 6163.219
1087.735, 6716.649
1088.834, 7484.115
1089.933, 8191.611
1091.032, 9304.147
1092.130, 10648.09
1093.228, 12203.98
1094.327, 13902.96
1095.425, 15806.63
1096.523, 17776.34
1097.620, 19455.08
1098.718, 20883.85
1099.815, 21555.65
1100.912, 21210.49
1102.009, 20030.37
1103.106, 18229.29
1104.203, 15991.23
1105.300, 14930.21
1106.396, 11818.22
1107.492, 9756.768
1108.589, 8286.845
1109.685, 7103.157
1110.780, 6080.300
1111.876, 5292.477
1112.971, 4706.687
1114.067, 4167.927
1115.162, 4173.202
1116.257, 3709.109
1117.352, 3456.847
1118.446, 3325.217
1119.541, 3178.620
1120.635, 3193.291
1121.729, 3258.801
1122.823, 3383.157
1123.917, 3400.685
1125.011, 3584.498
1126.105, 3832.553
1127.198, 4299.494
1128.291, 4733.447
1129.384, 5447.437
1130.477, 5976.144
1131.570, 6959.053
1132.663, 7707.316
1133.755, 8220.477
1134.847, 8514.450
1135.940, 8451.381
1137.031, 8312.475
1138.123, 7657.412
1139.215, 6762.392
1140.306, 5888.359
1141.398, 5050.938
1142.489, 4242.267
1143.580, 3650.579
1144.671, 3185.821
1145.761, 2802.648
1146.852, 2467.774
1147.942, 2171.925
1149.033, 1949.795
1150.123, 1792.601
1151.213, 1679.827
1152.302, 1605.078
1153.392, 1587.688
1154.481, 1387.987
1155.571, 1323.935
1156.660, 1337.768
1157.749, 1270.543
1158.837, 1259.630
1159.926, 1179.230
1161.014, 1162.913
1162.103, 1163.426
1163.191, 1114.661
1164.279, 1038.219
1165.367, 1031.543
1166.454, 1004.246
1167.542, 900.4541
1168.629, 924.1396
1169.716, 927.8584
1170.803, 829.7412
1171.890, 748.0049
1172.977, 684.1094
1174.064, 739.1260
1175.150, 643.1382
1176.236, 548.0859
1177.322, 620.5796
1178.408, 567.5903
1179.494, 363.0000
1180.580, 541.4917
1181.665, 409.5928
1182.750, 442.7246
1183.835, 351.0044
1184.920, 251.6421
1186.005, 277.3853
1187.090, 310.4624
1188.174, 279.1128
1189.259, 288.6836
1190.343, 258.0957
1191.427, 159.7666
1192.511, 201.1851
1193.594, 209.5483
1194.678, 93.92969
1195.761, 150.5562
1196.844, 107.9932
1197.928, 204.4478
1199.010, 156.5879
1200.093, 120.2295
1201.176, 150.7822
1202.258, 174.0356
1203.340, 251.5742
1204.423, 283.1255
1205.504, 299.6885
1206.586, 331.8516
1207.668, 346.5044
1208.749, 356.1021
1209.831, 367.7109
1210.912, 386.3296
1211.993, 392.0654
1213.074, 425.7871
1214.154, 411.2461
1215.235, 478.9058
1216.315, 496.5933
1217.395, 498.2944
1218.475, 478.3193
1219.555, 449.8940
1220.635, 399.8481
1221.715, 375.5610
1222.794, 373.2817
1223.873, 368.0103
1224.952, 281.7456
1226.031, 295.4888
1227.110, 319.2388
1228.189, 346.9956
1229.267, 241.7578
1230.345, 228.6226
1231.424, 217.2051
1232.502, 106.9858
1233.579, 123.7720
1234.657, 176.8149
1235.735, 139.6113
1236.812, 51.46924
1237.889, 28.32178
1238.966, 11.88379
1240.043, 39.91211
1241.120, 29.71191
1242.196, 62.51514
1243.273, 20.32129
1244.349, 7.130859
1245.425, 59.94336
1246.501, 34.75830
1247.577, 17.57568
1248.652, 12.43262
1249.728, 74.74658
1250.803, 0.9531250
1251.878, 48.16016
1252.953, 14.61670
1254.028, 34.60596
1255.103, 89.84082
1256.177, 53.11475
1257.251, 10.35645
1258.326, 32.65674
1259.400, 34.02979
1260.473, 5.055664
1261.547, 51.37256
1262.621, 96.71387
1263.694, 48.43457
1264.767, 90.84863
1265.840, 36.96680
1266.913, 55.44727
1267.986, 86.47852
1269.059, 5.964844
1270.131, 10.56006
1271.203, 56.12891
1272.275, 2.729980
1273.347, 19.33740
1274.419, 44.03809
1275.491, 55.31006
1276.562, 84.70215
1277.634, 24.94238
1278.705, 5.547852
1279.776, 40.77686
1280.847, 21.09912
1281.917, 1.417480
1282.988, 27.76416
1284.058, 2.248047
1285.128, 0.9086910
1286.199, 29.35156
1287.268, 1.094727
1288.338, 7.823730
1289.408, 9.401855
1290.477, 55.66406
1291.546, 1.873047
1292.616, 44.06641
1293.685, 28.74805
1294.753, 1.594238
1295.822, 24.46045
1296.890, 26.64600
1297.959, 80.73926
1299.027, 15.18115
1300.095, 13.83350
1301.163, 0.1718750
1302.231, 109.2090
