##NAMES=Lazulite
##RRUFFID=R050110
##IDEAL CHEMISTRY=MgAl_2_(PO_4_)_2_(OH)_2_
##LOCALITY=Rapid Creek, Yukon Territory, Canada
##OWNER=RRUFF
##SOURCE=Rock Currier
##DESCRIPTION=Azure-blue stubby crystals with complex terminations
##STATUS=The identification of this mineral has been confirmed by X-ray diffraction and chemical analysis
##URL=rruff.info/R050110
##MEASURED CHEMISTRY=(Mg_0.84_Fe_0.16_)Al_2.00_(P_1.00_O_4_)_2_(OH)_2_
##PIN_ID=L00348
##ORIENTATION=Laser parallel to a* (1 0 0). Fiducial mark perpendicular to laser is parallel to b [0 1 0]
80.125, 0.000
81.521, 7.416
82.916, 8.454
84.311, 238.202
85.706, 619.765
87.101, 1217.896
88.496, 2015.977
89.890, 2905.057
91.284, 3239.531
92.678, 3022.758
94.071, 2721.331
95.465, 2931.698
96.858, 3893.828
98.251, 6107.266
99.644, 8636.205
101.036, 8932.268
102.428, 7392.009
103.820, 5372.887
105.212, 3628.400
106.604, 2340.400
107.995, 1783.300
109.387, 1384.273
110.777, 1309.863
112.168, 1195.984
113.559, 1131.260
114.949, 1048.273
116.339, 975.556
117.729, 947.389
119.119, 899.469
120.508, 826.020
121.897, 856.870
123.286, 947.551
124.675, 975.241
126.063, 932.205
127.452, 916.351
128.840, 794.636
130.228, 776.337
131.615, 716.356
133.003, 600.730
134.390, 556.372
135.777, 457.260
137.164, 430.011
138.550, 351.770
139.937, 333.204
141.323, 297.041
142.709, 129.062
144.094, 34.525
145.480, 40.450
146.865, 24.953
148.250, 52.608
149.635, 23.357
151.019, 4.740
152.403, 3.578
153.788, 1.750
155.171, 17.729
156.555, 147.291
157.939, 124.802
159.322, 83.482
160.705, 38.118
162.088, 134.999
163.470, 235.273
164.853, 43.059
166.235, 75.214
167.617, 50.715
168.998, 127.532
170.380, 221.634
171.761, 196.986
173.142, 319.196
174.523, 344.343
175.904, 461.809
177.284, 385.989
178.664, 571.797
180.044, 727.678
181.424, 1044.598
182.803, 1792.526
184.183, 3070.435
185.562, 5359.304
186.940, 8384.334
188.319, 12313.996
189.698, 17817.982
191.076, 21054.289
192.454, 19881.375
193.831, 15094.153
195.209, 10809.552
196.586, 7520.553
197.963, 4997.679
199.340, 3387.119
200.717, 2239.355
202.093, 1404.231
203.470, 949.767
204.846, 650.114
206.221, 341.809
207.597, 264.789
208.972, 211.044
210.347, 131.314
211.722, 96.869
213.097, 81.374
214.472, 62.889
215.846, 133.427
217.220, 278.009
218.594, 490.609
219.967, 654.232
221.341, 1066.832
222.714, 1526.392
224.087, 1833.904
225.460, 2046.355
226.832, 1753.705
228.204, 1222.934
229.577, 680.021
230.948, 352.966
232.320, 95.812
233.692, 30.403
235.063, 71.665
236.434, 169.970
237.805, 224.322
239.175, 235.755
240.545, 203.374
241.916, 114.320
243.286, 69.652
244.655, 156.745
246.025, 405.685
247.394, 914.775
248.763, 1838.285
250.132, 3032.808
251.501, 4632.226
252.869, 6266.462
254.237, 7943.465
255.605, 7219.190
256.973, 5542.603
258.340, 3635.682
259.708, 2241.418
261.075, 1437.809
262.442, 861.824
263.808, 660.437
265.175, 402.625
266.541, 327.371
267.907, 346.681
269.273, 359.577
270.639, 406.086
272.004, 508.215
273.369, 715.962
274.734, 1054.810
276.099, 1434.344
277.463, 2022.826
278.828, 2590.702
280.192, 3332.995
281.556, 3978.827
282.919, 4101.252
284.283, 3875.015
285.646, 3224.170
287.009, 2526.006
288.372, 1876.454
289.734, 1379.568
291.097, 968.448
292.459, 657.140
293.821, 549.668
295.183, 364.063
296.544, 295.169
297.905, 237.685
299.266, 136.910
300.627, 165.613
301.988, 42.095
303.348, 21.139
304.709, 4.991
306.069, 31.532
307.428, 73.454
308.788, 48.007
310.147, 65.022
311.507, 80.813
312.865, 180.687
314.224, 363.312
315.583, 613.068
316.941, 973.873
318.299, 1401.776
319.657, 1928.656
321.015, 2373.325
322.372, 2720.629
323.729, 2372.512
325.086, 1710.580
326.443, 1301.941
327.800, 955.861
329.156, 764.359
330.512, 595.205
331.868, 524.248
333.224, 471.773
334.579, 516.686
335.935, 564.453
337.290, 555.506
338.645, 736.901
339.999, 930.213
341.354, 1222.443
342.708, 1562.565
344.062, 1950.869
345.416, 2366.214
346.769, 2397.377
348.123, 2421.928
349.476, 2148.298
350.829, 1818.950
352.182, 1458.982
353.534, 1287.004
354.887, 1110.874
356.239, 999.674
357.591, 975.243
358.942, 971.116
360.294, 1024.336
361.645, 1127.521
362.996, 1275.861
364.347, 1420.014
365.698, 1658.782
367.048, 1922.266
368.398, 2407.613
369.748, 2965.619
371.098, 3835.990
372.448, 4885.906
373.797, 6155.988
375.146, 7812.606
376.495, 9067.994
377.844, 10373.047
379.192, 10378.245
380.540, 9658.795
381.889, 8242.438
383.236, 6616.778
384.584, 5233.999
385.932, 4175.219
387.279, 3592.432
388.626, 3117.633
389.973, 2847.824
391.319, 2768.007
392.666, 2717.493
394.012, 2668.625
395.358, 2430.682
396.704, 2130.216
398.049, 1834.219
399.394, 1562.099
400.740, 1452.614
402.084, 1395.458
403.429, 1551.382
404.774, 1952.950
406.118, 2662.384
407.462, 4295.213
408.806, 7101.481
410.150, 11802.367
411.493, 17870.164
412.836, 24692.885
414.179, 25817.518
415.522, 19458.074
416.865, 12839.543
418.207, 7821.932
419.549, 5344.240
420.891, 3972.472
422.233, 3512.625
423.575, 3667.703
424.916, 3984.705
426.257, 4668.868
427.598, 4583.875
428.939, 4181.488
430.279, 3299.110
431.619, 2405.713
432.959, 1630.443
434.299, 1199.533
435.639, 935.429
436.978, 742.843
438.318, 643.200
439.657, 516.502
440.996, 473.751
442.334, 401.951
443.673, 388.102
445.011, 375.207
446.349, 389.268
447.687, 445.288
449.024, 477.269
450.361, 545.211
451.699, 565.117
453.036, 642.988
454.372, 765.034
455.709, 813.604
457.045, 1030.373
458.381, 1102.829
459.717, 1317.911
461.053, 1314.136
462.388, 1371.591
463.724, 1231.691
465.059, 1135.363
466.394, 936.339
467.728, 795.265
469.063, 745.810
470.397, 735.118
471.731, 864.728
473.065, 1024.610
474.398, 1358.432
475.732, 1710.260
477.065, 2073.162
478.398, 2288.779
479.731, 2245.400
481.063, 2063.028
482.396, 1666.699
483.728, 1187.409
485.060, 929.156
486.391, 641.917
487.723, 525.683
489.054, 364.446
490.385, 333.226
491.716, 289.586
493.047, 261.693
494.377, 273.603
495.708, 232.713
497.038, 207.034
498.368, 162.323
499.697, 112.053
501.027, 24.861
502.356, 7.604
503.685, 24.676
505.014, 60.987
506.342, 57.344
507.671, 41.744
508.999, 106.184
510.327, 93.688
511.655, 59.250
512.982, 60.855
514.310, 82.506
515.637, 83.209
516.964, 56.964
518.291, 0.761
519.617, 12.585
520.944, 61.562
522.270, 68.853
523.596, 104.142
524.921, 187.673
526.247, 247.078
527.572, 285.720
528.897, 313.409
530.222, 440.893
531.547, 443.512
532.871, 555.695
534.196, 605.515
535.520, 660.487
536.844, 732.108
538.167, 771.067
539.491, 805.536
540.814, 766.031
542.137, 702.980
543.460, 705.064
544.783, 607.918
546.105, 558.590
547.427, 494.777
548.749, 433.857
550.071, 409.585
551.393, 362.839
552.714, 340.187
554.035, 368.818
555.356, 315.430
556.677, 350.483
557.998, 375.343
559.318, 357.927
560.638, 355.749
561.958, 345.511
563.278, 352.172
564.597, 371.704
565.917, 412.407
567.236, 374.983
568.555, 474.411
569.874, 447.646
571.192, 475.826
572.511, 572.988
573.829, 546.142
575.147, 620.284
576.464, 660.409
577.782, 695.527
579.099, 729.636
580.416, 751.735
581.733, 754.829
583.050, 742.920
584.366, 651.011
585.683, 683.103
586.999, 669.193
588.315, 686.288
589.630, 714.384
590.946, 703.490
592.261, 792.599
593.576, 830.699
594.891, 959.799
596.206, 1045.888
597.520, 1169.967
598.834, 1360.039
600.148, 1637.109
601.462, 1933.172
602.776, 2256.185
604.089, 2682.149
605.402, 3346.171
606.715, 4078.192
608.028, 5105.206
609.341, 6137.204
610.653, 7312.329
611.965, 8471.441
613.277, 8980.663
614.589, 9103.891
615.901, 8916.069
617.212, 8543.198
618.523, 8665.447
619.834, 8749.769
621.145, 9440.076
622.456, 9718.306
623.766, 9595.498
625.076, 9500.643
626.386, 9006.806
627.696, 8945.037
629.006, 9238.267
630.315, 9584.436
631.624, 10384.624
632.933, 10261.688
634.242, 10602.814
635.551, 10343.846
636.859, 9908.909
638.167, 9746.924
639.475, 9758.023
640.783, 9637.036
642.090, 10283.923
643.398, 10438.959
644.705, 11068.928
646.012, 11170.782
647.318, 11157.575
648.625, 10411.418
649.931, 8969.284
651.237, 7786.877
652.543, 6065.561
653.849, 4989.013
655.155, 3922.524
656.460, 3096.859
657.765, 2511.823
659.070, 1958.371
660.375, 1683.974
661.679, 1328.906
662.984, 1153.651
664.288, 971.437
665.592, 860.912
666.895, 759.375
668.199, 604.636
669.502, 565.340
670.805, 506.018
672.108, 431.856
673.411, 383.491
674.713, 301.181
676.016, 260.637
677.318, 231.659
678.620, 160.463
679.921, 155.006
681.223, 91.686
682.524, 116.775
683.825, 56.202
685.126, 41.704
686.427, 32.034
687.727, 55.181
689.028, 10.626
690.328, 4.471
691.628, 12.651
692.927, 0.254
694.227, 53.191
695.526, 13.189
696.825, 45.226
698.124, 52.321
699.423, 38.476
700.721, 66.686
702.020, 31.964
703.318, 24.292
704.616, 22.667
705.913, 33.087
707.211, 41.560
708.508, 62.088
709.805, 44.682
711.102, 31.335
712.399, 22.038
713.695, 17.212
714.992, 35.436
716.288, 22.637
717.584, 28.812
718.879, 61.963
720.175, 101.096
721.470, 65.206
722.765, 93.339
724.060, 126.026
725.355, 166.066
726.649, 212.864
727.944, 264.813
729.238, 326.506
730.532, 387.635
731.825, 461.047
733.119, 587.209
734.412, 619.274
735.705, 744.892
736.998, 930.586
738.291, 1057.712
739.584, 1115.349
740.876, 1263.524
742.168, 1273.673
743.460, 1298.196
744.752, 1321.986
746.043, 1139.757
747.334, 1044.954
748.626, 909.637
749.916, 825.479
751.207, 721.017
752.498, 654.946
753.788, 507.071
755.078, 464.746
756.368, 409.995
757.658, 338.539
758.947, 309.259
760.237, 289.276
761.526, 263.780
762.815, 230.715
764.104, 207.418
765.392, 162.807
766.680, 161.189
767.969, 131.548
769.257, 127.168
770.544, 136.499
771.832, 145.958
773.119, 116.223
774.406, 96.464
775.693, 98.680
776.980, 116.872
778.267, 126.040
779.553, 139.184
780.839, 134.094
782.125, 117.402
783.411, 117.476
784.697, 130.526
785.982, 124.553
787.267, 152.556
788.552, 133.537
789.837, 153.494
791.122, 139.430
792.406, 145.343
793.690, 120.234
794.974, 136.102
796.258, 159.948
797.542, 119.772
798.825, 129.574
800.108, 151.354
801.391, 164.113
802.674, 142.851
803.957, 117.568
805.239, 151.264
806.522, 138.939
807.804, 149.594
809.085, 106.230
810.367, 99.846
811.649, 134.443
812.930, 142.022
814.211, 107.586
815.492, 128.134
816.772, 112.670
818.053, 130.199
819.333, 96.721
820.613, 127.233
821.893, 90.749
823.173, 113.264
824.452, 98.773
825.732, 75.275
827.011, 107.773
828.290, 119.271
829.568, 76.762
830.847, 132.238
832.125, 69.702
833.403, 131.982
834.681, 135.227
835.959, 103.194
837.236, 77.250
838.514, 71.037
839.791, 121.744
841.068, 114.634
842.345, 135.368
843.621, 120.520
844.898, 125.019
846.174, 153.354
847.450, 141.029
848.726, 169.355
850.001, 158.156
851.277, 167.911
852.552, 190.187
853.827, 195.300
855.102, 171.611
856.376, 200.073
857.651, 170.990
858.925, 191.981
860.199, 180.294
861.473, 179.051
862.746, 164.497
864.020, 153.976
865.293, 146.264
866.566, 131.255
867.839, 123.371
869.112, 114.807
870.384, 91.063
871.656, 58.441
872.928, 20.973
874.200, 20.664
875.472, 16.200
876.744, 0.848
878.015, 26.620
879.286, 13.444
880.557, 5.514
881.828, 36.540
883.098, 10.625
884.369, 1.271
885.639, 29.845
886.909, 28.990
888.178, 22.160
889.448, 41.354
890.717, 49.579
891.987, 58.840
893.256, 52.140
894.524, 18.477
895.793, 42.833
897.061, 31.218
898.330, 65.628
899.598, 40.079
900.865, 9.442
902.133, 53.042
903.401, 13.558
904.668, 22.088
905.935, 26.634
907.202, 54.199
908.468, 30.796
909.735, 2.588
911.001, 41.033
912.267, 9.678
913.533, 20.331
914.799, 24.998
916.064, 6.321
917.330, 11.362
918.595, 16.806
919.860, 41.970
921.124, 7.986
922.389, 1.038
923.653, 5.896
924.918, 8.211
926.182, 27.197
927.445, 25.106
928.709, 40.029
929.972, 57.033
931.236, 26.081
932.499, 47.190
933.761, 15.283
935.024, 49.313
936.286, 46.350
937.549, 42.449
938.811, 105.529
940.073, 85.734
941.334, 89.867
942.596, 68.092
943.857, 60.266
945.118, 91.472
946.379, 97.583
947.640, 97.768
948.900, 141.063
950.161, 119.199
951.421, 127.385
952.681, 137.673
953.940, 153.009
955.200, 163.252
956.459, 183.459
957.719, 179.788
958.978, 182.077
960.236, 170.421
961.495, 190.995
962.753, 204.392
964.012, 244.073
965.270, 249.433
966.527, 303.665
967.785, 321.996
969.043, 340.275
970.300, 390.641
971.557, 361.880
972.814, 418.260
974.071, 396.502
975.327, 476.852
976.583, 510.157
977.840, 581.363
979.095, 568.737
980.351, 649.176
981.607, 710.448
982.862, 706.945
984.117, 847.170
985.372, 891.688
986.627, 994.220
987.882, 1123.694
989.136, 1192.078
990.390, 1345.431
991.644, 1470.015
992.898, 1601.628
994.152, 1834.254
995.405, 2003.900
996.659, 2332.573
997.912, 2589.261
999.165, 2863.966
1000.417, 3237.714
1001.670, 3502.483
1002.922, 3675.293
1004.174, 3746.134
1005.426, 3727.006
1006.678, 3656.919
1007.930, 3559.862
1009.181, 3448.832
1010.432, 3652.831
1011.683, 3829.862
1012.934, 4218.939
1014.185, 4754.062
1015.435, 5404.223
1016.685, 6125.428
1017.935, 6737.660
1019.185, 6946.914
1020.435, 6457.196
1021.684, 5895.495
1022.934, 5133.819
1024.183, 4562.158
1025.432, 3992.515
1026.680, 3669.859
1027.929, 3456.641
1029.177, 3225.063
1030.425, 3145.097
1031.673, 3156.235
1032.921, 3284.994
1034.169, 3202.324
1035.416, 3414.364
1036.663, 3512.651
1037.911, 3801.036
1039.157, 4056.866
1040.404, 4484.621
1041.650, 4840.940
1042.897, 5473.748
1044.143, 6160.022
1045.389, 7059.322
1046.634, 8142.246
1047.880, 9668.899
1049.125, 11529.567
1050.371, 13910.808
1051.615, 17229.561
1052.860, 21418.148
1054.105, 26431.035
1055.349, 33287.535
1056.593, 40217.836
1057.837, 46346.582
1059.081, 51694.750
1060.325, 51030.637
1061.568, 47872.320
1062.812, 40749.719
1064.055, 32521.621
1065.298, 25683.346
1066.540, 19580.324
1067.783, 15292.819
1069.025, 12131.841
1070.267, 9919.887
1071.509, 8250.674
1072.751, 7140.743
1073.993, 6211.687
1075.234, 5626.823
1076.475, 5113.980
1077.716, 4858.161
1078.957, 4607.366
1080.198, 4519.590
1081.438, 4613.838
1082.679, 4634.106
1083.919, 4695.401
1085.159, 5083.720
1086.398, 5246.058
1087.638, 5803.434
1088.877, 6176.831
1090.116, 6741.249
1091.355, 7321.694
1092.594, 7912.158
1093.833, 8607.646
1095.071, 9566.163
1096.309, 10755.700
1097.547, 12331.262
1098.785, 14169.847
1100.023, 15780.453
1101.260, 16708.084
1102.498, 16588.736
1103.735, 15321.414
1104.972, 13538.111
1106.208, 11260.834
1107.445, 9247.584
1108.681, 7591.355
1109.918, 6179.149
1111.154, 5434.964
1112.389, 4627.803
1113.625, 3989.662
1114.860, 3573.143
1116.096, 3253.045
1117.331, 3098.010
1118.566, 2901.956
1119.800, 2828.924
1121.035, 2894.915
1122.269, 2938.227
1123.503, 3008.262
1124.737, 3193.823
1125.971, 3264.902
1127.205, 3679.597
1128.438, 4123.181
1129.671, 4776.323
1130.904, 5619.484
1132.137, 6730.667
1133.370, 8124.521
1134.602, 9719.772
1135.834, 10554.553
1137.066, 11347.295
1138.298, 10701.664
1139.530, 9664.089
1140.762, 8023.394
1141.993, 6518.780
1143.224, 5475.145
1144.455, 4267.339
1145.686, 3591.741
1146.917, 3069.161
1148.147, 2495.709
1149.377, 2148.168
1150.607, 1971.627
1151.837, 1653.120
1153.067, 1487.702
1154.296, 1383.902
1155.526, 1219.115
1156.755, 1161.678
1157.984, 988.970
1159.213, 934.053
1160.441, 969.991
1161.670, 882.200
1162.898, 848.490
1164.126, 768.124
1165.354, 768.392
1166.581, 664.786
1167.809, 695.621
1169.036, 589.344
1170.263, 637.664
1171.490, 564.949
1172.717, 558.386
1173.943, 560.738
1175.170, 474.533
1176.396, 510.345
1177.622, 450.407
1178.848, 410.253
1180.073, 409.114
1181.299, 315.485
1182.524, 345.413
1183.749, 329.480
1184.974, 272.715
1186.199, 263.786
1187.423, 256.296
1188.648, 232.307
1189.872, 201.974
1191.096, 201.885
1192.320, 177.410
1193.543, 201.522
1194.767, 103.659
1195.990, 107.816
1197.213, 133.005
1198.436, 105.213
1199.659, 143.432
1200.881, 108.771
1202.104, 138.030
1203.326, 113.238
1204.548, 89.562
1205.770, 166.062
1206.991, 210.396
1208.213, 155.742
1209.434, 247.107
1210.655, 205.485
1211.876, 285.877
1213.096, 307.284
1214.317, 260.700
1215.537, 325.134
1216.757, 348.818
1217.977, 336.538
1219.197, 418.033
1220.417, 390.135
1221.636, 417.607
1222.855, 424.570
1224.074, 420.364
1225.293, 414.859
1226.512, 375.362
1227.731, 364.078
1228.949, 334.594
1230.167, 235.483
1231.385, 228.141
1232.603, 175.710
1233.820, 105.512
1235.038, 126.445
1236.255, 121.006
1237.472, 114.381
1238.689, 122.326
1239.906, 79.987
1241.122, 75.674
1242.338, 64.294
1243.555, 78.104
1244.771, 72.249
1245.986, 59.087
1247.202, 37.368
1248.417, 40.637
1249.633, 49.487
1250.848, 31.772
1252.063, 53.849
1253.277, 33.592
1254.492, 64.623
1255.706, 77.694
1256.920, 23.483
1258.134, 23.377
1259.348, 6.246
1260.562, 23.964
1261.775, 36.771
1262.988, 2.495
1264.201, 71.441
1265.414, 23.272
1266.627, 35.724
1267.839, 13.412
1269.052, 11.324
1270.264, 18.715
1271.476, 16.988
1272.688, 20.309
1273.899, 16.629
1275.111, 2.157
1276.322, 11.838
1277.533, 11.655
1278.744, 19.627
1279.955, 26.923
1281.165, 16.317
1282.376, 14.712
1283.586, 3.086
1284.796, 4.349
1286.006, 23.686
1287.215, 0.756
1288.425, 7.941
1289.634, 37.490
1290.843, 8.126
1292.052, 19.675
1293.261, 40.778
1294.469, 32.870
1295.678, 37.561
1296.886, 8.037
1298.094, 0.431
1299.302, 12.887
1300.509, 12.364
1301.717, 13.207
1302.924, 12.294
1304.131, 7.701
1305.338, 54.224
1306.545, 41.764
1307.752, 9.343
1308.958, 46.941
1310.164, 7.559
1311.370, 9.202
1312.576, 47.860
1313.782, 17.456
1314.987, 22.242
1316.193, 20.962
1317.398, 6.710
1318.603, 52.474
1319.807, 18.736
1321.012, 27.937
1322.216, 13.873
1323.421, 40.293
1324.625, 15.449
1325.829, 32.409
1327.032, 10.714
1328.236, 6.825
1329.439, 12.077
1330.642, 9.004
1331.845, 14.925
1333.048, 26.126
1334.251, 0.161
1335.453, 18.818
1336.656, 11.817
1337.858, 28.165
1339.060, 28.133
1340.261, 34.089
1341.463, 21.030
1342.664, 72.957
1343.866, 37.869
1345.067, 16.769
1346.267, 35.655
1347.468, 0.472
1348.669, 22.385
1349.869, 16.229
1351.069, 37.059
1352.269, 34.877
1353.469, 76.683
1354.668, 34.478
1355.868, 59.260
1357.067, 48.030
1358.266, 34.788
1359.465, 32.535
1360.664, 1.730
1361.862, 18.989
1363.061, 30.696
1364.259, 10.392
1365.457, 48.076
1366.655, 68.751
1367.852, 8.418
1369.050, 65.073
1370.247, 49.721
1371.444, 26.376
1372.641, 73.013
1373.838, 0.018
1375.035, 32.609
1376.231, 40.236
1377.427, 29.249
1378.623, 23.144
1379.819, 53.051
1381.015, 13.947
1382.211, 27.830
1383.406, 45.701
1384.601, 6.437
1385.796, 67.412
1386.991, 42.250
1388.185, 29.071
1389.380, 44.878
1390.574, 27.676
1391.768, 28.805
1392.962, 49.536
1394.156, 31.303
1395.350, 40.716
1396.543, 19.877
1397.736, 44.913
1398.929, 44.082
1400.122, 66.779
1401.315, 56.471
1402.507, 58.915
1403.700, 69.171
1404.892, 93.683
1406.084, 82.045
1407.276, 56.620
1408.467, 64.518
1409.659, 28.512
1410.850, 60.049
1412.041, 93.653
1413.232, 52.529
1414.423, 93.076
1415.614, 70.526
1416.804, 82.028
1417.994, 48.942
1419.184, 60.761
1420.374, 35.872
1421.564, 46.901
1422.753, 47.126
1423.943, 68.465
1425.132, 85.140
1426.321, 54.952
1427.510, 35.503
1428.698, 39.385
1429.887, 17.048
1431.075, 33.769
1432.263, 57.469
1433.451, 45.007
1434.639, 83.145
1435.827, 84.428
1437.014, 39.048
1438.201, 54.653
1439.388, 46.244
1440.575, 95.810
1441.762, 55.635
1442.949, 57.905
1444.135, 46.378
1445.321, 81.351
1446.507, 40.375
1447.693, 117.117
1448.879, 83.133
1450.064, 53.129
1451.250, 106.619
1452.435, 91.761
1453.620, 49.292
1454.805, 94.586
1455.989, 49.473
1457.174, 81.290
1458.358, 72.483
1459.542, 70.616
1460.726, 99.763
1461.910, 95.077
1463.093, 88.897
1464.277, 108.298
1465.460, 65.049
1466.643, 101.443
1467.826, 69.571
1469.009, 73.360
1470.191, 79.821
1471.373, 103.997
1472.556, 49.696
1473.738, 140.506
1474.919, 113.689
1476.101, 64.995
1477.283, 116.537
1478.464, 47.238
1479.645, 59.342
1480.826, 86.535
1482.007, 64.788
1483.187, 83.834
1484.368, 107.656
1485.548, 49.870
1486.728, 137.170
1487.908, 73.548
1489.088, 83.959
1490.268, 109.474
1491.447, 96.055
1492.626, 81.629
1493.805, 93.288
1494.984, 45.968
1496.163, 94.661
1497.341, 64.354
1498.520, 37.101
1499.698, 81.892
1500.876, 69.735
1502.054, 18.651
1503.232, 47.688
1504.409, 43.821
1505.586, 32.052
1506.763, 61.382
1507.940, 71.820
1509.117, 50.389
1510.294, 49.121
1511.470, 35.050
1512.647, 18.204
1513.823, 43.625
