##NAMES=Lazulite
##RRUFFID=R050110
##IDEAL CHEMISTRY=MgAl_2_(PO_4_)_2_(OH)_2_
##LOCALITY=Rapid Creek, Yukon Territory, Canada
##OWNER=RRUFF
##SOURCE=Rock Currier
##DESCRIPTION=Azure-blue stubby crystals with complex terminations
##STATUS=The identification of this mineral has been confirmed by X-ray diffraction and chemical analysis
##URL=rruff.info/R050110
##MEASURED CHEMISTRY=(Mg_0.84_Fe_0.16_)Al_2.00_(P_1.00_O_4_)_2_(OH)_2_
##PIN_ID=L00379
##ORIENTATION=Laser parallel to -c* (0 0 -1). Fiducial mark perpendicular to laser is parallel to a [1 0 0]
77.333, 0.000
78.729, 99.694
80.125, 46.106
81.521, 103.452
82.916, 3.529
84.311, 29.980
85.706, 61.260
87.101, 156.522
88.496, 232.832
89.890, 354.825
91.284, 449.693
92.678, 499.286
94.071, 556.525
95.465, 550.159
96.858, 681.976
98.251, 1089.364
99.644, 1420.382
101.036, 1606.577
102.428, 1221.083
103.820, 869.663
105.212, 533.418
106.604, 394.783
107.995, 515.722
109.387, 629.976
110.777, 1066.155
112.168, 1402.792
113.559, 1465.340
114.949, 1068.825
116.339, 839.462
117.729, 627.683
119.119, 528.940
120.508, 467.852
121.897, 403.030
123.286, 423.784
124.675, 373.107
126.063, 285.489
127.452, 319.927
128.840, 269.421
130.228, 230.966
131.615, 297.556
133.003, 270.184
134.390, 131.845
135.777, 132.536
137.164, 201.247
138.550, 135.961
139.937, 200.670
141.323, 71.367
142.709, 43.437
144.094, 21.147
145.480, 10.984
146.865, 13.200
148.250, 29.141
149.635, 11.222
151.019, 24.494
152.403, 16.760
153.788, 15.977
155.171, 9.284
156.555, 35.457
157.939, 42.664
159.322, 9.567
160.705, 30.974
162.088, 32.082
163.470, 0.042
164.853, 32.875
166.235, 77.414
167.617, 127.812
168.998, 445.304
170.380, 645.877
171.761, 1088.518
173.142, 1593.212
174.523, 1536.951
175.904, 1302.722
177.284, 853.518
178.664, 520.324
180.044, 533.131
181.424, 625.927
182.803, 1551.705
184.183, 1712.456
185.562, 3086.172
186.940, 5120.850
188.319, 7686.495
189.698, 12223.089
191.076, 15310.640
192.454, 15154.141
193.831, 10610.004
195.209, 6484.316
196.586, 3840.500
197.963, 2279.566
199.340, 1505.549
200.717, 948.448
202.093, 696.244
203.470, 443.940
204.846, 367.562
206.221, 235.171
207.597, 201.791
208.972, 190.420
210.347, 165.060
211.722, 215.711
213.097, 201.377
214.472, 362.079
215.846, 516.419
217.220, 771.774
218.594, 1368.925
219.967, 2093.429
221.341, 3210.908
222.714, 4712.231
224.087, 6145.580
225.460, 7183.600
226.832, 6461.607
228.204, 4893.607
229.577, 3199.605
230.948, 2029.604
232.320, 1192.603
233.692, 750.602
235.063, 530.601
236.434, 251.601
237.805, 205.604
239.175, 129.616
240.545, 172.656
241.916, 158.735
243.286, 197.681
244.655, 432.174
246.025, 496.204
247.394, 843.112
248.763, 1397.187
250.132, 2328.601
251.501, 3549.967
252.869, 5053.317
254.237, 6716.516
255.605, 6392.556
256.973, 4941.441
258.340, 3387.167
259.708, 2215.740
261.075, 1580.147
262.442, 1143.383
263.808, 1105.450
265.175, 986.340
266.541, 1080.060
267.907, 1163.611
269.273, 1354.001
270.639, 1634.256
272.004, 2066.343
273.369, 2734.295
274.734, 3575.112
276.099, 4830.749
277.463, 6460.144
278.828, 8470.304
280.192, 11069.248
281.556, 12788.043
282.919, 13894.675
284.283, 13365.147
285.646, 11020.455
287.009, 8717.340
288.372, 6304.313
289.734, 4621.091
291.097, 3353.521
292.459, 2436.112
293.821, 1889.508
295.183, 1397.760
296.544, 1105.306
297.905, 829.753
299.266, 709.271
300.627, 511.820
301.988, 434.971
303.348, 402.602
304.709, 277.799
306.069, 272.761
307.428, 177.282
308.788, 301.319
310.147, 328.827
311.507, 420.274
312.865, 661.795
314.224, 1007.514
315.583, 1711.471
316.941, 2724.984
318.299, 4429.263
319.657, 6405.381
321.015, 8512.156
322.372, 10130.306
323.729, 9091.584
325.086, 7198.578
326.443, 5006.561
327.800, 3363.614
329.156, 2405.662
330.512, 1690.196
331.868, 1248.168
333.224, 959.359
334.579, 798.547
335.935, 702.733
337.290, 487.917
338.645, 481.097
339.999, 376.275
341.354, 385.449
342.708, 319.752
344.062, 338.110
345.416, 318.487
346.769, 265.121
348.123, 263.756
349.476, 200.704
350.829, 139.860
352.182, 95.830
353.534, 44.169
354.887, 7.914
356.239, 13.844
357.591, 32.505
358.942, 25.547
360.294, 18.401
361.645, 49.895
362.996, 24.520
364.347, 59.484
365.698, 50.180
367.048, 151.730
368.398, 159.260
369.748, 279.165
371.098, 428.704
372.448, 640.203
373.797, 930.605
375.146, 1291.228
376.495, 1628.800
377.844, 1987.877
379.192, 1993.956
380.540, 1943.027
381.889, 1576.082
383.236, 1217.124
384.584, 879.158
385.932, 652.186
387.279, 469.211
388.626, 351.234
389.973, 298.254
391.319, 181.271
392.666, 230.399
394.012, 233.623
395.358, 231.933
396.704, 242.398
398.049, 314.925
399.394, 258.828
400.740, 404.576
402.084, 504.023
403.429, 818.287
404.774, 1181.680
406.118, 1916.041
407.462, 3250.841
408.806, 5804.238
410.150, 9886.423
411.493, 15816.730
412.836, 23655.781
414.179, 25950.771
415.522, 20332.688
416.865, 13165.454
418.207, 8312.200
419.549, 6003.928
420.891, 5086.635
422.233, 5372.323
423.575, 6360.994
424.916, 7914.644
426.257, 10338.278
427.598, 11377.897
428.939, 11486.613
430.279, 9409.442
431.619, 6898.374
432.959, 4932.485
434.299, 3585.471
435.639, 2796.988
436.978, 2189.810
438.318, 1817.505
439.657, 1635.013
440.996, 1427.507
442.334, 1277.992
443.673, 1190.470
445.011, 1240.942
446.349, 1161.407
447.687, 1207.867
449.024, 1215.323
450.361, 1311.776
451.699, 1380.225
453.036, 1437.672
454.372, 1558.116
455.709, 1744.560
457.045, 1868.001
458.381, 2065.440
459.717, 2073.877
461.053, 2064.316
462.388, 1979.757
463.724, 1779.196
465.059, 1612.636
466.394, 1494.076
467.728, 1531.519
469.063, 1663.657
470.397, 2037.113
471.731, 2685.591
473.065, 3354.069
474.398, 4573.572
475.732, 5909.090
477.065, 7363.622
478.398, 8444.168
479.731, 8407.722
481.063, 7763.289
482.396, 6226.857
483.728, 4784.446
485.060, 3726.045
486.391, 2653.660
487.723, 2030.292
489.054, 1426.930
490.385, 1160.583
491.716, 903.238
493.047, 690.890
494.377, 600.536
495.708, 488.176
497.038, 405.809
498.368, 329.436
499.697, 212.055
501.027, 221.668
502.356, 106.274
503.685, 91.871
505.014, 86.460
506.342, 24.040
507.671, 22.609
508.999, 54.831
510.327, 8.311
511.655, 54.955
512.982, 44.831
514.310, 65.961
515.637, 76.298
516.964, 29.029
518.291, 55.429
519.617, 71.640
520.944, 16.136
522.270, 66.510
523.596, 6.043
524.921, 0.562
526.247, 18.120
527.572, 22.101
528.897, 73.125
530.222, 182.282
531.547, 195.465
532.871, 272.703
534.196, 313.980
535.520, 405.245
536.844, 457.620
538.167, 540.653
539.491, 593.958
540.814, 538.253
542.137, 518.480
543.460, 473.765
544.783, 396.259
546.105, 320.524
547.427, 236.687
548.749, 200.874
550.071, 128.989
551.393, 96.231
552.714, 72.235
554.035, 50.229
555.356, 12.211
556.677, 3.181
557.998, 25.421
559.318, 25.935
560.638, 42.033
561.958, 36.166
563.278, 39.098
564.597, 20.528
565.917, 21.749
567.236, 4.003
568.555, 44.742
569.874, 9.470
571.192, 65.190
572.511, 73.908
573.829, 86.623
575.147, 178.338
576.464, 218.058
577.782, 296.788
579.099, 343.514
580.416, 386.242
581.733, 390.971
583.050, 301.713
584.366, 255.459
585.683, 147.200
586.999, 84.956
588.315, 53.718
589.630, 25.477
590.946, 2.344
592.261, 6.050
593.576, 6.215
594.891, 38.555
596.206, 66.329
597.520, 108.105
598.834, 146.880
600.148, 229.656
601.462, 371.431
602.776, 523.206
604.089, 647.978
605.402, 701.749
606.715, 729.514
608.028, 618.271
609.341, 562.022
610.653, 497.768
611.965, 447.511
613.277, 427.245
614.589, 415.403
615.901, 433.698
617.212, 459.411
618.523, 528.115
619.834, 611.809
621.145, 747.494
622.456, 847.169
623.766, 901.835
625.076, 949.492
626.386, 912.139
627.696, 940.777
629.006, 885.406
630.315, 810.025
631.624, 807.633
632.933, 728.232
634.242, 733.820
635.551, 693.397
636.859, 812.964
638.167, 972.520
639.475, 1313.066
640.783, 1762.242
642.090, 2222.124
643.398, 2993.637
644.705, 3720.138
646.012, 4561.628
647.318, 5346.106
648.625, 5613.572
649.931, 5571.027
651.237, 5241.530
652.543, 4477.049
653.849, 4029.469
655.155, 3220.979
656.460, 2822.390
657.765, 2266.774
659.070, 1888.146
660.375, 1655.375
661.679, 1391.555
662.984, 1153.740
664.288, 1027.592
665.592, 862.947
666.895, 748.601
668.199, 631.934
669.502, 606.029
670.805, 516.729
672.108, 430.076
673.411, 370.250
674.713, 309.494
676.016, 263.702
677.318, 223.405
678.620, 199.362
679.921, 177.665
681.223, 124.932
682.524, 110.783
683.825, 111.918
685.126, 68.726
686.427, 66.275
687.727, 60.340
689.028, 45.554
690.328, 34.697
691.628, 35.878
692.927, 8.070
694.227, 10.826
695.526, 20.259
696.825, 20.330
698.124, 34.389
699.423, 18.436
700.721, 1.530
702.020, 18.488
703.318, 40.493
704.616, 32.486
705.913, 47.467
707.211, 14.437
708.508, 86.281
709.805, 94.016
711.102, 75.649
712.399, 97.114
713.695, 148.503
714.992, 203.318
716.288, 187.086
717.584, 286.830
718.879, 247.929
720.175, 347.832
721.470, 400.889
722.765, 501.903
724.060, 554.303
725.355, 668.820
726.649, 792.012
727.944, 980.626
729.238, 1097.458
730.532, 1360.219
731.825, 1581.977
733.119, 1918.924
734.412, 2235.670
735.705, 2548.545
736.998, 3014.232
738.291, 3364.933
739.584, 3574.250
740.876, 4063.457
742.168, 4155.544
743.460, 4068.578
744.752, 3953.355
746.043, 3530.541
747.334, 3244.714
748.626, 2809.198
749.916, 2378.908
751.207, 2128.305
752.498, 1714.392
753.788, 1482.411
755.078, 1334.141
756.368, 1112.068
757.658, 1029.387
758.947, 839.922
760.237, 778.083
761.526, 698.124
762.815, 601.608
764.104, 537.463
765.392, 513.614
766.680, 460.309
767.969, 398.740
769.257, 388.238
770.544, 354.642
771.832, 284.032
773.119, 299.409
774.406, 258.773
775.693, 252.123
776.980, 232.460
778.267, 183.784
779.553, 212.095
780.839, 180.393
782.125, 180.677
783.411, 209.949
784.697, 175.207
785.982, 139.453
787.267, 166.686
788.552, 125.906
789.837, 135.113
791.122, 137.307
792.406, 144.489
793.690, 131.658
794.974, 134.303
796.258, 124.958
797.542, 123.090
798.825, 131.209
800.108, 118.316
801.391, 113.266
802.674, 96.492
803.957, 92.563
805.239, 68.621
806.522, 60.666
807.804, 81.699
809.085, 55.720
810.367, 75.728
811.649, 94.725
812.930, 82.709
814.211, 92.057
815.492, 70.645
816.772, 60.596
818.053, 83.536
819.333, 18.468
820.613, 37.384
821.893, 60.305
823.173, 14.220
824.452, 14.134
825.732, 14.045
827.011, 41.959
828.290, 64.884
829.568, 4.808
830.847, 21.729
832.125, 13.343
833.403, 5.439
834.681, 5.461
835.959, 22.344
837.236, 2.782
838.514, 44.071
839.791, 10.896
841.068, 4.694
842.345, 44.448
843.621, 62.130
844.898, 44.759
846.174, 38.384
847.450, 59.883
848.726, 61.708
850.001, 74.243
851.277, 88.770
852.552, 107.349
853.827, 122.853
855.102, 120.130
856.376, 125.621
857.651, 148.196
858.925, 129.731
860.199, 144.322
861.473, 166.768
862.746, 154.436
864.020, 179.097
865.293, 139.752
866.566, 153.401
867.839, 167.046
869.112, 146.693
870.384, 96.343
871.656, 54.000
872.928, 78.662
874.200, 78.331
875.472, 23.002
876.744, 17.675
878.015, 36.343
879.286, 2.995
880.557, 22.345
881.828, 9.720
883.098, 24.111
884.369, 38.528
885.639, 57.978
886.909, 7.470
888.178, 25.978
889.448, 23.511
890.717, 72.068
891.987, 34.673
893.256, 1.308
894.524, 79.954
895.793, 49.651
897.061, 16.384
898.330, 89.134
899.598, 28.939
900.865, 32.764
902.133, 77.613
903.401, 46.505
904.668, 40.428
905.935, 21.379
907.202, 33.348
908.468, 21.340
909.735, 28.350
911.001, 16.380
912.267, 27.423
913.533, 9.486
914.799, 31.442
916.064, 7.632
917.330, 13.714
918.595, 23.807
919.860, 32.086
921.124, 22.024
922.389, 22.854
923.653, 10.729
924.918, 20.603
926.182, 56.476
927.445, 41.347
928.709, 59.218
929.972, 43.087
931.236, 42.955
932.499, 86.823
933.761, 64.690
935.024, 68.556
936.286, 35.423
937.549, 79.289
938.811, 111.156
940.073, 105.023
941.334, 112.890
942.596, 107.758
943.857, 85.626
945.118, 112.495
946.379, 129.366
947.640, 101.237
948.900, 180.110
950.161, 134.984
951.421, 105.860
952.681, 122.738
953.940, 131.618
955.200, 155.499
956.459, 141.383
957.719, 146.212
958.978, 209.012
960.236, 195.904
961.495, 207.696
962.753, 206.578
964.012, 252.479
965.270, 259.383
966.527, 264.291
967.785, 257.178
969.043, 270.033
970.300, 280.955
971.557, 351.359
972.814, 320.142
974.071, 372.027
975.327, 429.327
976.583, 398.647
977.840, 492.985
979.095, 479.839
980.351, 505.798
981.607, 607.753
982.862, 592.426
984.117, 646.290
985.372, 707.680
986.627, 734.761
987.882, 870.521
989.136, 937.142
990.390, 1030.105
991.644, 1101.540
992.898, 1208.695
994.152, 1370.700
995.405, 1538.447
996.659, 1715.823
997.912, 1982.847
999.165, 2245.953
1000.417, 2537.085
1001.670, 2968.226
1002.922, 3127.378
1004.174, 3365.540
1005.426, 3461.711
1006.678, 3356.898
1007.930, 3296.095
1009.181, 3077.306
1010.432, 3071.534
1011.683, 2994.770
1012.934, 3027.020
1014.185, 3166.295
1015.435, 3262.579
1016.685, 3570.878
1017.935, 3858.187
1019.185, 3897.513
1020.435, 3823.851
1021.684, 3648.199
1022.934, 3478.561
1024.183, 3317.938
1025.432, 3149.324
1026.680, 3033.683
1027.929, 3014.033
1029.177, 2933.457
1030.425, 3127.070
1031.673, 3178.497
1032.921, 3292.751
1034.169, 3437.138
1035.416, 3606.650
1036.663, 3760.972
1037.911, 4140.509
1039.157, 4436.917
1040.404, 4885.518
1041.650, 5284.104
1042.897, 6026.075
1044.143, 6739.156
1045.389, 7594.359
1046.634, 8904.503
1047.880, 10497.778
1049.125, 12399.522
1050.371, 14928.092
1051.615, 18241.469
1052.860, 22652.072
1054.105, 28474.674
1055.349, 35089.711
1056.593, 44237.977
1057.837, 50815.562
1059.081, 57870.938
1060.325, 60046.918
1061.568, 56114.703
1062.812, 48774.855
1064.055, 39415.121
1065.298, 30765.955
1066.540, 23451.418
1067.783, 18090.590
1069.025, 14033.223
1070.267, 11269.121
1071.509, 8968.951
1072.751, 7571.883
1073.993, 6339.833
1075.234, 5497.800
1076.475, 4833.784
1077.716, 4275.786
1078.957, 3997.805
1080.198, 3627.841
1081.438, 3389.899
1082.679, 3175.974
1083.919, 3079.067
1085.159, 2978.184
1086.398, 2915.318
1087.638, 2967.471
1088.877, 3069.641
1090.116, 3113.827
1091.355, 3232.035
1092.594, 3351.266
1093.833, 3423.517
1095.071, 3546.786
1096.309, 3816.073
1097.547, 3982.377
1098.785, 4500.699
1100.023, 4719.040
1101.260, 4874.399
1102.498, 4931.776
1103.735, 4608.172
1104.972, 4270.590
1106.208, 3792.025
1107.445, 3290.482
1108.681, 2954.959
1109.918, 2651.453
1111.154, 2524.966
1112.389, 2424.523
1113.625, 2251.072
1114.860, 2235.643
1116.096, 2275.232
1117.331, 2330.245
1118.566, 2454.892
1119.800, 2571.535
1121.035, 2790.428
1122.269, 3057.118
1123.503, 3402.827
1124.737, 3802.668
1125.971, 4174.192
1127.205, 4814.781
1128.438, 5785.570
1129.671, 6789.375
1130.904, 8394.886
1132.137, 10555.730
1133.370, 12835.810
1134.602, 15901.917
1135.834, 18213.832
1137.066, 19701.453
1138.298, 19628.912
1139.530, 17966.887
1140.762, 15100.340
1141.993, 12516.036
1143.224, 10409.424
1144.455, 8477.265
1145.686, 6944.539
1146.917, 5622.620
1148.147, 4800.709
1149.377, 4086.954
1150.607, 3573.689
1151.837, 3093.115
1153.067, 2743.275
1154.296, 2487.833
1155.526, 2222.140
1156.755, 2013.461
1157.984, 1835.540
1159.213, 1617.776
1160.441, 1601.896
1161.670, 1446.955
1162.898, 1331.235
1164.126, 1312.106
1165.354, 1185.501
1166.581, 1181.567
1167.809, 1120.521
1169.036, 1064.228
1170.263, 1023.406
1171.490, 965.179
1172.717, 950.572
1173.943, 918.666
1175.170, 846.351
1176.396, 823.955
1177.622, 770.854
1178.848, 724.317
1180.073, 677.498
1181.299, 630.629
1182.524, 579.303
1183.749, 538.615
1184.974, 472.084
1186.199, 425.682
1187.423, 359.930
1188.648, 321.571
1189.872, 294.693
1191.096, 284.942
1192.320, 260.653
1193.543, 264.400
1194.767, 254.172
1195.990, 213.963
1197.213, 209.790
1198.436, 176.734
1199.659, 206.602
1200.881, 165.504
1202.104, 181.430
1203.326, 204.378
1204.548, 191.344
1205.770, 202.329
1206.991, 246.331
1208.213, 195.352
1209.434, 255.479
1210.655, 257.539
1211.876, 219.612
1213.096, 272.723
1214.317, 219.829
1215.537, 244.927
1216.757, 262.052
1217.977, 216.174
1219.197, 247.310
1220.417, 213.088
1221.636, 289.356
1222.855, 233.516
1224.074, 178.298
1225.293, 235.474
1226.512, 202.828
1227.731, 143.204
1228.949, 195.450
1230.167, 149.855
1231.385, 177.851
1232.603, 147.069
1233.820, 81.688
1235.038, 120.033
1236.255, 86.299
1237.472, 66.113
1238.689, 71.167
1239.906, 63.036
1241.122, 65.665
1242.338, 52.975
1243.555, 50.069
1244.771, 53.893
1245.986, 44.262
1247.202, 26.257
1248.417, 33.622
1249.633, 42.360
1250.848, 32.627
1252.063, 70.043
1253.277, 30.448
1254.492, 44.154
1255.706, 46.558
1256.920, 10.240
1258.134, 1.315
1259.348, 62.408
1260.562, 22.662
1261.775, 27.277
1262.988, 17.312
1264.201, 0.642
1265.414, 46.907
1266.627, 10.661
1267.839, 13.956
1269.052, 16.474
1270.264, 32.130
1271.476, 24.420
1272.688, 25.004
1273.899, 12.408
1275.111, 6.760
1276.322, 20.892
1277.533, 5.568
1278.744, 49.100
1279.955, 7.792
1281.165, 39.683
1282.376, 19.031
1283.586, 14.580
1284.796, 19.701
1286.006, 32.858
1287.215, 17.516
1288.425, 47.235
1289.634, 4.037
1290.843, 11.311
1292.052, 22.598
1293.261, 55.123
1294.469, 2.686
1295.678, 13.368
1296.886, 6.073
1298.094, 7.198
1299.302, 26.432
1300.509, 1.112
1301.717, 20.843
1302.924, 32.599
1304.131, 12.726
1305.338, 15.066
1306.545, 61.865
1307.752, 15.317
1308.958, 25.523
1310.164, 1.658
1311.370, 27.204
1312.576, 8.078
1313.782, 2.922
1314.987, 10.813
1316.193, 19.736
1317.398, 13.454
1318.603, 23.493
1319.807, 0.536
1321.012, 2.669
1322.216, 34.323
1323.421, 9.643
1324.625, 21.400
1325.829, 18.462
1327.032, 16.461
1328.236, 17.376
1329.439, 38.715
1330.642, 57.215
1331.845, 1.907
1333.048, 20.958
1334.251, 32.816
1335.453, 16.664
1336.656, 44.501
1337.858, 22.327
1339.060, 33.141
1340.261, 50.943
1341.463, 33.732
1342.664, 12.509
1343.866, 27.274
1345.067, 36.026
1346.267, 54.766
1347.468, 64.523
1348.669, 53.849
1349.869, 56.935
1351.069, 25.623
1352.269, 29.299
1353.469, 17.964
1354.668, 22.616
1355.868, 23.256
1357.067, 22.144
1358.266, 23.669
1359.465, 33.108
1360.664, 25.700
1361.862, 45.280
1363.061, 53.997
1364.259, 8.553
1365.457, 23.095
1366.655, 55.626
1367.852, 10.146
1369.050, 37.653
1370.247, 23.150
1371.444, 0.623
1372.641, 30.079
1373.838, 23.523
1375.035, 8.046
1376.231, 38.370
1377.427, 18.783
1378.623, 30.467
1379.819, 38.149
1381.015, 17.810
1382.211, 4.535
1383.406, 19.117
1384.601, 27.764
1385.796, 61.404
1386.991, 37.032
1388.185, 42.645
1389.380, 50.252
1390.574, 23.823
1391.768, 60.409
1392.962, 34.506
1394.156, 19.813
1395.350, 58.351
1396.543, 16.704
1397.736, 38.252
1398.929, 79.936
1400.122, 38.787
1401.315, 56.975
1402.507, 37.973
1403.700, 19.597
1404.892, 40.225
1406.084, 70.567
1407.276, 36.116
1408.467, 43.458
1409.659, 12.360
1410.850, 7.654
1412.041, 42.951
1413.232, 73.959
1414.423, 26.984
1415.614, 45.793
1416.804, 42.574
1417.994, 76.932
1419.184, 72.921
1420.374, 33.050
1421.564, 47.128
1422.753, 50.463
1423.943, 23.959
1425.132, 59.359
1426.321, 21.074
1427.510, 44.720
1428.698, 23.351
1429.887, 32.969
1431.075, 68.573
1432.263, 77.006
1433.451, 51.580
1434.639, 46.140
1435.827, 67.687
1437.014, 26.062
1438.201, 38.554
1439.388, 43.958
1440.575, 50.429
1441.762, 33.907
1442.949, 37.987
1444.135, 47.264
1445.321, 69.341
1446.507, 32.330
1447.693, 72.744
1448.879, 52.207
1450.064, 55.143
1451.250, 88.415
1452.435, 33.442
1453.620, 63.927
1454.805, 74.426
1455.989, 30.669
1457.174, 35.399
1458.358, 52.452
1459.542, 16.089
1460.726, 79.646
1461.910, 51.064
1463.093, 13.739
1464.277, 68.862
1465.460, 25.104
1466.643, 49.781
1467.826, 103.784
1469.009, 52.680
1470.191, 33.388
1471.373, 50.493
1472.556, 12.145
1473.738, 27.780
1474.919, 41.146
1476.101, 30.086
1477.283, 72.889
1478.464, 24.024
1479.645, 43.332
1480.826, 59.389
1482.007, 15.447
1483.187, 42.348
1484.368, 44.673
1485.548, 36.970
1486.728, 30.143
1487.908, 37.209
1489.088, 3.479
1490.268, 42.193
1491.447, 24.986
1492.626, 16.444
1493.805, 37.026
1494.984, 35.596
1496.163, 22.858
1497.341, 31.352
1498.520, 21.804
1499.698, 2.259
1500.876, 31.746
1502.054, 18.286
1503.232, 35.854
1504.409, 3.801
1505.586, 9.916
1506.763, 22.692
1507.940, 27.508
1509.117, 9.394
1510.294, 51.276
1511.470, 3.343
1512.647, 18.325
1513.823, 17.994
1514.999, 13.473
1516.174, 66.051
1517.350, 3.312
