##NAMES=Lazulite
##RRUFFID=R060494
##IDEAL CHEMISTRY=MgAl_2_(PO_4_)_2_(OH)_2_
##LOCALITY=Champion mine, White Mountains, Mono County, California, USA
##OWNER=RRUFF
##SOURCE=Michael Scott
##DESCRIPTION=Dark-blue coarsely crystalline mass
##STATUS=The identification of this mineral has been confirmed by X-ray diffraction and chemical analysis
##URL=rruff.info/R060494
##MEASURED CHEMISTRY=(Mg_0.67_Fe^2+^_0.33_)_Î£=1_Al_2.00_(P_1.00_O_4_)_2_(OH)_2_
##PIN_ID=M01648
##ORIENTATION=Laser parallel to b* (0 1 0). Fiducial mark perpendicular to laser is parallel to c [0 0 1]
140.6980, 0.0000000E+00
141.9290, 119.2607
143.1600, 115.8906
144.3910, 395.1943
145.6220, 318.3198
146.8530, 414.1514
148.0830, 253.9517
149.3140, 195.1494
150.5440, 170.8975
151.7740, 68.67920
153.0040, 88.03564
154.2340, 128.2036
155.4630, 130.0752
156.6930, 19.52686
157.9220, 5.552734
159.1510, 22.26367
160.3800, 21.66553
161.6090, 17.59717
162.8370, 97.13672
164.0660, 213.4482
165.2940, 313.2031
166.5220, 372.3174
167.7500, 374.6821
168.9780, 563.2100
170.2050, 693.8335
171.4330, 866.5020
172.6600, 900.1768
173.8870, 1153.828
175.1140, 1202.435
176.3410, 1426.978
177.5670, 1683.448
178.7940, 1906.862
180.0200, 2202.740
181.2460, 2501.965
182.4720, 3067.828
183.6980, 3573.703
184.9230, 4093.795
186.1490, 4582.598
187.3740, 5274.099
188.5990, 5869.145
189.8240, 6701.332
191.0490, 7480.343
192.2730, 8230.990
193.4980, 8590.276
194.7220, 8860.221
195.9460, 9110.858
197.1700, 9492.201
198.3940, 9603.271
199.6180, 10241.09
200.8410, 10476.66
202.0640, 10725.01
203.2870, 10987.15
204.5100, 10826.08
205.7330, 10506.82
206.9560, 10450.39
208.1780, 10030.78
209.4000, 9551.001
210.6230, 8952.077
211.8450, 8479.007
213.0660, 8026.798
214.2880, 7535.499
215.5090, 6880.216
216.7310, 6343.959
217.9520, 5879.302
219.1730, 5362.655
220.3940, 4935.888
221.6140, 4555.652
222.8350, 4148.496
224.0550, 3858.929
225.2750, 3525.501
226.4950, 3306.507
227.7150, 2994.452
228.9350, 2730.331
230.1540, 2594.577
231.3730, 2350.664
232.5930, 2173.488
233.8120, 2037.285
235.0300, 1806.813
236.2490, 1596.505
237.4680, 1509.483
238.6860, 1472.794
239.9040, 1414.216
241.1220, 1378.579
242.3400, 1389.655
243.5580, 1366.870
244.7750, 1439.102
245.9920, 1436.002
247.2100, 1500.606
248.4270, 1503.878
249.6430, 1573.161
250.8600, 1656.455
252.0770, 1670.757
253.2930, 1727.068
254.5090, 1674.383
255.7250, 1695.695
256.9410, 1486.999
258.1570, 1421.294
259.3720, 1219.578
260.5880, 1146.852
261.8030, 1026.116
263.0180, 994.3687
264.2330, 958.6094
265.4470, 897.8398
266.6620, 819.0591
267.8760, 737.2686
269.0900, 803.4697
270.3040, 757.6646
271.5180, 795.8516
272.7320, 859.0337
273.9460, 764.2109
275.1590, 893.3833
276.3720, 999.5522
277.5850, 975.7246
278.7980, 1054.905
280.0110, 1300.087
281.2230, 1314.275
282.4360, 1198.461
283.6480, 1118.648
284.8600, 1072.836
286.0720, 727.0264
287.2840, 611.8667
288.4950, 436.5181
289.7070, 363.9087
290.9180, 244.0098
292.1290, 169.7959
293.3400, 81.20410
294.5500, 56.58447
295.7610, 57.27783
296.9710, 26.59863
298.1820, 71.08887
299.3920, 133.1875
300.6020, 182.2373
301.8110, 148.3096
303.0210, 68.31250
304.2300, 62.20312
305.4400, 135.0332
306.6490, 76.74951
307.8580, 74.13477
309.0660, 95.47266
310.2750, 8.497559
311.4830, 23.54541
312.6920, 113.6216
313.9000, 54.24854
315.1080, 97.10107
316.3160, 66.93652
317.5230, 172.7544
318.7310, 8.443848
319.9380, 133.3315
321.1450, 108.0903
322.3520, 219.8320
323.5590, 205.5596
324.7650, 232.2725
325.9720, 195.9688
327.1780, 5.356934
328.3840, 31.27686
329.5900, 0.1279300
330.7960, 40.42383
332.0020, 27.93799
333.2070, 67.58496
334.4120, 62.83545
335.6170, 36.77881
336.8220, 131.5586
338.0270, 13.13477
339.2320, 53.13330
340.4360, 97.37207
341.6410, 216.5845
342.8450, 203.7725
344.0490, 388.9390
345.2530, 489.0840
346.4560, 787.2095
347.6600, 1149.317
348.8630, 1332.405
350.0660, 1514.725
351.2690, 1592.533
352.4720, 1754.573
353.6750, 2159.598
354.8770, 2326.610
356.0790, 2376.608
357.2820, 2268.594
358.4840, 1828.568
359.6860, 1360.530
360.8870, 933.4805
362.0890, 604.4150
363.2900, 529.2783
364.4910, 383.4727
365.6920, 522.8359
366.8930, 450.3530
368.0940, 459.7622
369.2940, 620.0303
370.4950, 572.1831
371.6950, 782.2852
372.8950, 757.3140
374.0950, 888.3354
375.2940, 922.3369
376.4940, 799.3345
377.6930, 953.3335
378.8930, 884.3340
380.0920, 880.3130
381.2910, 788.2754
382.4890, 716.1934
383.6880, 628.0225
384.8860, 562.8101
386.0840, 453.8301
387.2820, 397.7051
388.4800, 411.5835
389.6780, 254.4678
390.8760, 415.3574
392.0730, 317.2515
393.2700, 262.2046
394.4670, 385.1621
395.6640, 282.1587
396.8610, 372.1714
398.0580, 563.1890
399.2540, 455.2114
400.4500, 622.2388
401.6460, 766.2700
402.8420, 972.3066
404.0380, 1469.353
405.2340, 1791.426
406.4290, 2185.272
407.6240, 2806.670
408.8190, 3069.813
410.0140, 3562.971
411.2090, 4137.138
412.4040, 4665.340
413.5980, 4974.544
414.7920, 5014.546
415.9870, 4305.768
417.1810, 3079.999
418.3740, 2360.669
419.5680, 1746.938
420.7610, 1363.212
421.9550, 1400.506
423.1480, 1256.841
424.3410, 1085.190
425.5340, 1215.553
426.7260, 1262.925
427.9190, 1147.301
429.1110, 1244.683
430.3030, 1155.069
431.4950, 1206.441
432.6870, 981.7998
433.8790, 855.1465
435.0700, 988.3682
436.2610, 998.2715
437.4530, 1094.685
438.6440, 1200.649
439.8340, 1357.859
441.0250, 1503.611
442.2160, 1749.956
443.4060, 1891.201
444.5960, 2198.394
445.7860, 2516.740
446.9760, 2923.147
448.1660, 3619.993
449.3550, 4233.368
450.5450, 5411.486
451.7340, 6896.852
452.9230, 8799.910
454.1120, 11483.45
455.3000, 14801.08
456.4890, 18713.08
457.6770, 22735.51
458.8650, 25887.26
460.0530, 28862.81
461.2410, 31523.88
462.4290, 33999.63
463.6170, 35763.55
464.8040, 35602.36
465.9910, 33994.64
467.1780, 29660.87
468.3650, 24973.23
469.5520, 19982.42
470.7390, 15859.57
471.9250, 12620.91
473.1110, 10277.45
474.2970, 8521.889
475.4830, 7194.238
476.6690, 6418.631
477.8540, 5454.299
479.0400, 4791.694
480.2250, 4244.683
481.4100, 3812.632
482.5950, 3404.379
483.7800, 3109.140
484.9650, 2761.519
486.1490, 2339.854
487.3330, 1958.269
488.5170, 1739.687
489.7010, 1702.108
490.8850, 1570.534
492.0690, 1400.963
493.2520, 1362.396
494.4350, 1146.841
495.6190, 1146.290
496.8020, 1021.745
497.9840, 898.2036
499.1670, 852.6675
500.3490, 879.1362
501.5320, 764.6089
502.7140, 719.0854
503.8960, 712.5679
505.0780, 613.0547
506.2590, 658.5454
507.4410, 667.0405
508.6220, 621.5410
509.8030, 597.0469
510.9840, 625.5591
512.1650, 615.0776
513.3460, 706.7378
514.5260, 712.1367
515.7070, 771.9600
516.8870, 703.6338
518.0670, 420.7822
519.2470, 422.3457
520.4260, 368.9170
521.6060, 357.4951
522.7850, 292.0820
523.9650, 225.6758
525.1440, 295.2783
526.3220, 223.8882
527.5010, 228.5532
528.6800, 167.1792
529.8580, 167.8135
531.0360, 182.7241
532.2140, 187.6675
533.3920, 238.3657
534.5700, 225.7266
535.7480, 148.6182
536.9250, 205.2373
538.1020, 139.6147
539.2790, 126.6147
540.4560, 153.4312
541.6330, 110.1978
542.8100, 126.0884
543.9860, 147.9883
545.1620, 134.5996
546.3380, 135.4209
547.5140, 172.7778
548.6900, 100.0308
549.8660, 148.1050
551.0410, 109.5400
552.2160, 69.26855
553.3910, 49.02344
554.5660, 72.28906
555.7410, 40.48926
556.9160, 116.5625
558.0900, 17.91699
559.2650, 25.34668
560.4390, 123.8564
561.6130, 37.70996
562.7860, 197.9414
563.9600, 15.85938
565.1340, 81.79883
566.3070, 57.59473
567.4800, 51.00098
568.6530, 38.78027
569.8260, 67.67383
570.9980, 111.6846
572.1710, 159.4707
573.3430, 168.0684
574.5150, 187.7051
575.6870, 194.0752
576.8590, 184.2324
578.0310, 205.0322
579.2030, 186.4834
580.3740, 200.3867
581.5450, 183.1631
582.7160, 238.0732
583.8870, 194.2246
585.0580, 254.2080
586.2280, 302.3057
587.3990, 94.95312
588.5690, 307.0078
589.7390, 232.7041
590.9090, 336.1807
592.0780, 308.3809
593.2480, 323.8105
594.4170, 545.2207
595.5870, 490.5166
596.7560, 403.0605
597.9250, 557.3691
599.0930, 520.6836
600.2620, 621.0000
601.4300, 778.3203
602.5990, 790.6426
603.7670, 808.1064
604.9350, 969.4443
606.1020, 1023.784
607.2700, 954.1250
608.4370, 1095.466
609.6050, 1143.809
610.7720, 1201.149
611.9390, 1249.502
613.1060, 1362.859
614.2720, 1328.250
615.4390, 1382.854
616.6050, 1220.568
617.7710, 1194.035
618.9370, 1117.635
620.1030, 1142.056
621.2680, 1125.539
622.4340, 1184.061
623.5990, 1154.721
624.7640, 1300.275
625.9290, 1234.811
627.0940, 1386.243
628.2590, 1390.674
629.4230, 1636.104
630.5880, 1510.151
631.7520, 1684.349
632.9160, 1807.184
634.0800, 1883.094
635.2440, 1762.824
636.4070, 1893.982
637.5700, 1923.979
638.7340, 1950.269
639.8970, 2116.379
641.0600, 2024.268
642.2220, 2187.984
643.3850, 1956.037
644.5470, 1816.437
645.7090, 1735.835
646.8710, 1766.229
648.0330, 1666.620
649.1950, 1448.222
650.3570, 1245.605
651.5180, 1129.986
652.6790, 963.1494
653.8400, 818.7363
655.0010, 722.1055
656.1620, 652.4707
657.3230, 554.8320
658.4830, 487.9873
659.6430, 404.5420
660.8030, 348.8896
661.9630, 259.2324
663.1230, 180.5723
664.2830, 107.9062
665.4420, 76.23535
666.6020, 59.55957
667.7610, 75.87891
668.9200, 106.1924
670.0780, 9.500000
671.2370, 4.804688
672.3960, 66.10059
673.5540, 201.5967
674.7120, 48.59082
675.8700, 123.2236
677.0280, 39.11035
678.1860, 6.972656
679.3430, 53.06055
680.5000, 67.44824
681.6580, 40.21777
682.8150, 40.29199
683.9710, 9.642578
685.1280, 75.59277
686.2850, 93.59570
687.4410, 95.66113
688.5970, 9.211914
689.7530, 17.90625
690.9090, 6.015625
692.0650, 53.12402
693.2200, 31.23047
694.3760, 13.33984
695.5310, 19.75391
696.6860, 1.624023
697.8410, 68.51758
698.9960, 12.12109
700.1500, 72.69531
701.3050, 43.49805
702.4590, 117.7285
703.6130, 22.01465
704.7670, 19.32617
705.9210, 3.339844
707.0740, 98.99219
708.2280, 72.65234
709.3810, 46.30273
710.5340, 110.9580
711.6870, 173.6064
712.8400, 55.24512
713.9930, 94.87500
715.1450, 17.49414
716.2970, 109.1035
717.4490, 9.297852
718.6010, 139.2764
719.7530, 135.8428
720.9050, 93.39746
722.0560, 37.94336
723.2080, 90.47754
724.3590, 79.00000
725.5100, 6.487305
726.6610, 126.9980
727.8110, 21.52734
728.9620, 30.04688
730.1120, 11.66016
731.2620, 57.73535
732.4120, 72.11816
733.5620, 103.4873
734.7120, 48.84473
735.8620, 140.1865
737.0110, 182.5156
738.1600, 154.8340
739.3090, 306.1377
740.4580, 246.4307
741.6070, 87.71094
742.7550, 218.9766
743.9040, 249.2295
745.0520, 185.4707
746.2000, 215.6973
747.3480, 266.9111
748.4960, 298.1123
749.6430, 199.3008
750.7910, 258.4746
751.9380, 117.6357
753.0850, 67.78320
754.2320, 42.91504
755.3790, 109.0303
756.5260, 78.13184
757.6720, 171.2168
758.8180, 111.2891
759.9650, 105.3447
761.1110, 73.38672
762.2560, 99.20898
763.4020, 104.4219
764.5470, 161.4180
765.6930, 223.3984
766.8380, 226.0498
767.9830, 106.3154
769.1280, 150.2510
770.2720, 107.1729
771.4170, 1.078125
772.5610, 83.95117
773.7060, 34.84863
774.8500, 147.6455
775.9930, 44.46973
777.1370, 105.2734
778.2810, 105.0615
779.4240, 204.8330
780.5670, 34.58887
781.7100, 232.3252
782.8530, 135.0459
783.9960, 302.7529
785.1390, 152.4443
786.2810, 85.12109
787.4230, 150.7783
788.5650, 239.4219
789.7070, 259.0508
790.8490, 253.6631
791.9910, 380.2588
793.1320, 246.8408
794.2730, 235.4072
795.4140, 364.9580
796.5550, 408.4932
797.6960, 260.0127
798.8370, 326.5176
799.9770, 378.0068
801.1180, 434.4814
802.2580, 446.2061
803.3980, 484.4746
804.5380, 497.8389
805.6770, 504.2510
806.8170, 625.6475
807.9560, 596.3438
809.0950, 595.6250
810.2340, 446.9463
811.3730, 531.5059
812.5120, 461.5273
813.6500, 372.6562
814.7890, 371.3809
815.9270, 287.5605
817.0650, 300.8398
818.2030, 386.2715
819.3400, 229.5400
820.4780, 333.7705
821.6150, 254.0420
822.7530, 207.1221
823.8900, 253.1611
825.0270, 297.8096
826.1630, 349.4561
827.3000, 433.2510
828.4360, 263.6777
829.5730, 388.4160
830.7090, 223.2568
831.8450, 307.6904
832.9800, 289.1943
834.1160, 227.0273
835.2520, 290.3740
836.3870, 332.6836
837.5220, 413.7793
838.6570, 385.6455
839.7920, 254.6406
840.9260, 431.1660
842.0610, 406.9355
843.1950, 268.4717
844.3290, 393.2715
845.4630, 370.2520
846.5970, 318.9092
847.7310, 400.0059
848.8640, 433.0869
849.9980, 351.7441
851.1310, 450.5508
852.2640, 464.0156
853.3970, 494.8271
854.5300, 405.9785
855.6620, 464.7607
856.7940, 476.5273
857.9270, 422.2236
859.0590, 555.6699
860.1910, 572.3184
861.3220, 475.9023
862.4540, 474.9746
863.5850, 523.6572
864.7170, 468.7148
865.8480, 523.0244
866.9790, 472.6318
868.1090, 421.0254
869.2400, 396.4639
870.3710, 385.0176
871.5010, 471.3252
872.6310, 321.8965
873.7610, 347.4541
874.8910, 288.9980
876.0200, 388.5273
877.1500, 334.0439
878.2790, 330.4199
879.4080, 191.9082
880.5370, 283.3848
881.6660, 209.8477
882.7950, 248.2969
883.9230, 291.7324
885.0520, 182.1553
886.1800, 267.5654
887.3080, 179.9609
888.4360, 213.3193
889.5640, 223.4531
890.6910, 333.4688
891.8180, 308.7451
892.9460, 296.8770
894.0730, 214.1943
895.2000, 336.4346
896.3260, 257.6367
897.4530, 298.6885
898.5790, 340.8350
899.7060, 317.9873
900.8320, 276.2285
901.9580, 355.4561
903.0830, 203.6709
904.2090, 304.7734
905.3340, 302.9639
906.4600, 235.0420
907.5850, 312.3506
908.7100, 231.3037
909.8350, 291.9463
910.9590, 295.0762
912.0840, 278.8164
913.2080, 337.8037
914.3320, 292.7764
915.4560, 304.2275
916.5800, 232.3672
917.7040, 283.4268
918.8270, 286.4717
919.9510, 268.5059
921.0740, 339.5303
922.1970, 300.3281
923.3200, 283.3281
924.4430, 272.3184
925.5650, 152.2949
926.6870, 142.2646
927.8100, 191.2227
928.9320, 141.1836
930.0540, 229.1318
931.1750, 244.1025
932.2970, 171.0723
933.4180, 162.0381
934.5400, 239.0049
935.6610, 127.9727
936.7820, 130.9336
937.9030, 143.8896
939.0230, 86.83496
940.1440, 186.7695
941.2640, 112.6943
942.3840, 21.60742
943.5040, 53.51855
944.6240, 25.58203
945.7440, 98.30664
946.8630, 12.23926
947.9820, 14.15625
949.1020, 71.09570
950.2210, 28.96387
951.3390, 67.94922
952.4580, 40.85156
953.5770, 2.741211
954.6950, 52.61133
955.8130, 70.46875
956.9310, 77.32324
958.0490, 45.19434
959.1670, 126.0820
960.2840, 55.01270
961.4020, 95.15625
962.5190, 46.36426
963.6360, 194.6162
964.7530, 30.97363
965.8700, 7.357422
966.9860, 13.23828
968.1030, 27.82031
969.2190, 33.39258
970.3350, 86.02441
971.4510, 50.49902
972.5670, 29.01270
973.6830, 61.47070
974.7980, 12.03027
975.9140, 8.526367
977.0290, 35.01465
978.1440, 41.47852
979.2590, 43.98633
980.3730, 27.55859
981.4880, 34.86230
982.6020, 34.27539
983.7160, 144.6787
984.8300, 151.0762
985.9440, 209.4639
987.0580, 242.8457
988.1710, 351.2207
989.2850, 321.5947
990.3980, 258.9609
991.5110, 440.3203
992.6240, 283.6719
993.7370, 512.0186
994.8490, 432.3574
995.9620, 594.6885
997.0740, 668.0205
998.1860, 747.3457
999.2980, 828.6758
1000.410, 791.9990
1001.522, 808.3271
1002.633, 778.6475
1003.744, 828.9619
1004.856, 737.2705
1005.966, 732.5732
1007.077, 515.8701
1008.188, 607.1592
1009.298, 428.4434
1010.409, 518.7188
1011.519, 304.9902
1012.629, 485.2549
1013.739, 578.5137
1014.849, 566.7656
1015.958, 629.0127
1017.068, 704.2529
1018.177, 324.4873
1019.286, 657.7168
1020.395, 437.9404
1021.503, 646.1582
1022.612, 468.3701
1023.720, 272.5781
1024.829, 394.7822
1025.937, 403.9824
1027.045, 495.1768
1028.153, 428.3662
1029.260, 527.5508
1030.368, 467.7314
1031.475, 353.9072
1032.582, 341.0801
1033.689, 366.6680
1034.796, 430.1709
1035.903, 527.5693
1037.009, 640.7236
1038.115, 801.8740
1039.222, 843.0195
1040.328, 894.1602
1041.433, 1175.308
1042.539, 1053.451
1043.645, 1429.593
1044.750, 1503.730
1045.855, 1978.864
1046.960, 2150.996
1048.065, 2553.126
1049.170, 3084.252
1050.275, 3861.376
1051.379, 4324.498
1052.483, 5210.615
1053.587, 5849.729
1054.691, 6673.842
1055.795, 7211.949
1056.899, 7427.057
1058.002, 7495.159
1059.105, 7307.635
1060.209, 6674.730
1061.312, 5909.725
1062.414, 5289.814
1063.517, 4333.180
1064.620, 3586.719
1065.722, 2968.160
1066.824, 2524.979
1067.926, 2179.337
1069.028, 1796.354
1070.130, 1523.622
1071.231, 1593.688
1072.333, 1424.675
1073.434, 1271.734
1074.535, 1479.790
1075.636, 1498.778
1076.737, 1777.620
1077.837, 1875.376
1078.938, 2246.404
1080.038, 2361.795
1081.138, 2824.249
1082.238, 2737.158
1083.338, 2907.896
1084.437, 2858.790
1085.537, 2903.567
1086.636, 2663.374
1087.735, 2385.199
1088.834, 1856.098
1089.933, 1843.103
1091.032, 1744.894
1092.130, 1703.902
1093.228, 1984.080
1094.327, 1959.736
1095.425, 2022.455
1096.523, 2385.872
1097.620, 2391.565
1098.718, 2484.748
1099.815, 2524.013
1100.912, 2584.633
1102.009, 2455.351
1103.106, 2133.676
1104.203, 2087.503
1105.300, 1812.166
1106.396, 1622.612
1107.492, 1268.890
1108.589, 1126.055
1109.685, 990.6855
1110.780, 840.8115
1111.876, 741.6328
1112.971, 574.6504
1114.067, 594.2207
1115.162, 709.0137
1116.257, 567.0195
1117.352, 591.0254
1118.446, 588.0332
1119.541, 511.0439
1120.635, 595.0557
1121.729, 468.0693
1122.823, 708.0850
1123.917, 559.1016
1125.011, 744.1201
1126.105, 604.1416
1127.198, 827.1650
1128.291, 804.1904
1129.384, 1108.219
1130.477, 1281.250
1131.570, 1355.283
1132.663, 1513.319
1133.755, 1644.357
1134.847, 1804.398
1135.940, 1778.442
1137.031, 1654.489
1138.123, 1600.541
1139.215, 1468.624
1140.306, 1253.650
1141.398, 1160.710
1142.489, 951.7725
1143.580, 730.8398
1144.671, 765.9092
1145.761, 576.9824
1146.852, 598.0596
1147.942, 506.1406
1149.033, 455.2246
1150.123, 404.3135
1151.213, 329.4062
1152.302, 334.5020
1153.392, 515.6025
1154.481, 380.7070
1155.571, 354.8154
1156.660, 550.9287
1157.749, 454.0449
1158.837, 401.1670
1159.926, 404.2939
1161.014, 439.4229
1162.103, 330.5586
1163.191, 288.6973
1164.279, 196.8418
1165.367, 200.9902
1166.454, 163.1445
1167.542, 153.3027
1168.629, 122.4658
1169.716, 55.63477
1170.803, 239.8076
1171.890, 246.9863
1172.977, 218.1689
1174.064, 250.3584
1175.150, 144.5527
1176.236, 153.7510
1177.322, 123.9561
1178.408, 103.1660
1179.494, 180.3818
1180.580, 166.4238
1181.665, 174.8301
1182.750, 211.0615
1183.835, 207.2998
1184.920, 210.5439
1186.005, 51.79297
1187.090, 110.0488
1188.174, 47.31055
1189.259, 7.421875
1190.343, 66.84766
1191.427, 58.87500
1192.511, 82.38086
1193.594, 131.3574
1194.678, 51.15234
1195.761, 29.96191
1196.844, 56.78027
1197.928, 48.61523
1199.010, 21.62500
1200.093, 27.31738
1201.176, 63.82422
1202.258, 48.97461
1203.340, 139.1318
1204.423, 101.2959
1205.504, 54.53223
1206.586, 118.6260
1207.668, 110.2061
1208.749, 44.93066
1209.831, 3.923828
1210.912, 28.76953
1211.993, 71.38477
1213.074, 44.45215
1214.154, 200.7158
1215.235, 51.89062
1216.315, 47.07617
1217.395, 154.2754
1218.475, 182.4834
1219.555, 28.29980
1220.635, 76.91602
1221.715, 25.14160
1222.794, 158.3730
1223.873, 97.63574
1224.952, 41.93848
1226.031, 125.2695
1227.110, 224.6670
1228.189, 31.08691
1229.267, 105.5264
1230.345, 68.97754
1231.424, 160.4385
1232.502, 1.087891
1233.579, 183.4219
1234.657, 188.9443
1235.735, 19.52344
1236.812, 37.03711
1237.889, 84.60840
1238.966, 120.5449
1240.043, 35.06055
1241.120, 129.6523
1242.196, 166.4150
1243.273, 24.89746
1244.349, 76.15234
1245.425, 58.69336
1246.501, 35.49707
1247.577, 175.0137
1248.652, 12.01465
1249.728, 147.0576
1250.803, 161.8125
1251.878, 230.2480
1252.953, 179.4551
1254.028, 164.2441
1255.103, 266.4248
1256.177, 302.1338
1257.251, 233.9531
1258.326, 300.2148
1259.400, 123.6582
1260.473, 158.3955
1261.547, 283.7734
1262.621, 216.8438
1263.694, 280.5566
1264.767, 293.2197
1265.840, 254.6650
1266.913, 336.5742
1267.986, 396.5039
1269.059, 382.4453
1270.131, 434.3975
1271.203, 377.3604
1272.275, 315.3340
1273.347, 219.3174
1274.419, 372.3105
1275.491, 386.3145
1276.562, 306.3291
1277.634, 210.3516
1278.705, 356.3838
1279.776, 399.4248
1280.847, 146.4746
1281.917, 334.5342
1282.988, 145.6016
1284.058, 323.6758
1285.128, 135.7598
1286.199, 270.8516
1287.268, 312.9521
1288.338, 288.0596
1289.408, 459.1768
1290.477, 309.3027
1291.546, 497.4395
1292.616, 241.5840
1293.685, 660.7393
1294.753, 537.9033
1295.822, 567.0771
1296.890, 535.2617
1297.959, 483.4541
1299.027, 534.6572
1300.095, 534.5410
1301.163, 468.0938
1302.231, 571.3271
1303.298, 530.5703
1304.365, 458.8223
1305.433, 608.0859
1306.500, 584.3594
1307.567, 674.6455
1308.633, 670.9414
1309.700, 551.2480
1310.766, 582.5674
1311.833, 600.8975
1312.899, 606.2402
