##NAMES=Legrandite
##RRUFFID=R040151
##IDEAL CHEMISTRY=Zn^2+^_2_As^5+^O_4_(OH)&#183;H_2_O
##LOCALITY=Mapimi, Durango, Mexico
##OWNER=RRUFF
##SOURCE=University of Arizona Mineral Museum
##DESCRIPTION=Yellow crystal fragments; same material used in McLean et al. (1971) study
##STATUS=The identification of this mineral has been confirmed by X-ray diffraction and chemical analysis
##URL=rruff.info/R040151
##MEASURED CHEMISTRY=Zn_1.88_Fe^2+^_0.04_As_1.03_O_4_(OH)Â·H_2_O
##PIN_ID=M00054
##ORIENTATION=Laser parallel to -b* (0 -1 0). Fiducial mark perpendicular to laser is parallel to c [0 0 1]
56.488, 0.000
57.882, 11.241
59.275, 6.436
60.668, 33.159
62.061, 41.049
63.454, 82.837
64.846, 95.112
66.238, 155.001
67.630, 176.724
69.022, 180.524
70.413, 199.983
71.805, 197.902
73.196, 131.026
74.587, 110.830
75.978, 155.247
77.368, 171.219
78.758, 147.708
80.149, 121.674
81.538, 151.081
82.928, 94.890
84.318, 12.930
85.707, 80.410
87.096, 34.575
88.485, 84.550
89.873, 196.946
91.262, 194.594
92.650, 167.477
94.038, 163.581
95.426, 200.893
96.813, 235.405
98.201, 397.139
99.588, 664.093
100.975, 952.246
102.362, 967.582
103.748, 757.083
105.135, 533.737
106.521, 406.526
107.907, 472.439
109.292, 638.469
110.678, 1104.609
112.063, 1461.852
113.448, 1657.194
114.833, 1847.630
116.218, 1750.155
117.602, 1916.766
118.987, 1907.460
120.371, 2128.232
121.755, 2204.081
123.138, 2470.003
124.522, 2692.996
125.905, 2632.057
127.288, 2702.185
128.671, 2462.378
130.053, 2459.633
131.436, 2641.948
132.818, 2895.322
134.200, 3268.752
135.582, 3135.257
136.963, 2857.062
138.345, 2313.225
139.726, 1819.605
141.107, 1492.014
142.488, 1178.422
143.868, 1121.828
145.248, 886.231
146.629, 869.634
148.008, 697.030
149.388, 643.419
150.768, 504.807
152.147, 415.196
153.526, 471.581
154.905, 492.881
156.284, 666.177
157.662, 870.485
159.040, 1186.807
160.418, 1665.144
161.796, 2139.496
163.174, 2990.864
164.551, 3538.249
165.929, 4568.651
167.306, 4860.070
168.683, 4757.509
170.059, 4250.965
171.436, 3293.440
172.812, 2636.935
174.188, 1980.448
175.564, 1534.982
176.939, 1099.536
178.315, 853.110
179.690, 739.704
181.065, 566.319
182.440, 610.954
183.814, 554.608
185.188, 703.283
186.563, 691.978
187.937, 725.692
189.310, 766.427
190.684, 847.181
192.057, 1056.955
193.430, 1263.748
194.803, 1578.561
196.176, 1827.393
197.549, 1973.243
198.921, 2147.112
200.293, 1986.998
201.665, 2050.902
203.037, 1717.822
204.408, 1471.759
205.779, 1221.712
207.150, 940.681
208.521, 780.664
209.892, 533.662
211.262, 540.675
212.633, 388.700
214.003, 383.588
215.373, 399.479
216.742, 409.207
218.112, 501.987
219.481, 448.299
220.850, 510.152
222.219, 582.657
223.588, 579.559
224.956, 696.169
226.324, 756.654
227.692, 924.163
229.060, 1014.690
230.428, 1210.189
231.795, 1257.682
233.162, 1218.188
234.529, 1249.710
235.896, 1077.209
237.263, 1032.438
238.629, 913.721
239.995, 1080.058
241.361, 1178.443
242.727, 1344.877
244.093, 1655.355
245.458, 1650.876
246.823, 1738.438
248.188, 1553.037
249.553, 1451.809
250.917, 1285.601
252.282, 1083.458
253.646, 1019.196
255.010, 919.965
256.374, 929.763
257.737, 935.590
259.101, 954.443
260.464, 1029.321
261.827, 930.222
263.189, 877.145
264.552, 734.089
265.914, 751.054
267.276, 667.038
268.638, 648.041
270.000, 736.064
271.362, 739.104
272.723, 881.165
274.084, 879.244
275.445, 952.340
276.806, 912.462
278.166, 870.602
279.526, 845.757
280.887, 696.933
282.246, 662.123
283.606, 540.333
284.966, 578.556
286.325, 552.798
287.684, 505.064
289.043, 509.345
290.402, 444.646
291.760, 440.963
293.118, 381.295
294.477, 375.647
295.834, 356.009
297.192, 284.391
298.550, 345.783
299.907, 239.194
301.264, 349.617
302.621, 332.049
303.978, 368.499
305.334, 419.954
306.690, 404.417
308.046, 435.902
309.402, 415.389
310.758, 420.888
312.113, 401.390
313.469, 380.903
314.824, 398.426
316.179, 389.965
317.533, 475.518
318.888, 407.087
320.242, 423.669
321.596, 463.265
322.950, 427.864
324.304, 472.474
325.657, 412.096
327.010, 434.724
328.363, 421.365
329.716, 396.010
331.069, 402.657
332.421, 332.304
333.774, 289.957
335.126, 234.614
336.478, 177.273
337.829, 191.932
339.181, 97.594
340.532, 132.256
341.883, 93.919
343.234, 54.582
344.585, 103.244
345.935, 56.905
347.285, 110.570
348.635, 134.234
349.985, 185.896
351.335, 203.557
352.684, 273.216
354.034, 392.874
355.383, 385.530
356.731, 474.183
358.080, 451.834
359.429, 426.482
360.777, 385.128
362.125, 279.771
363.473, 249.411
364.820, 130.047
366.168, 87.681
367.515, 18.310
368.862, 30.064
370.209, 29.451
371.556, 93.850
372.902, 68.279
374.249, 83.731
375.595, 49.210
376.940, 88.718
378.286, 66.290
379.632, 64.928
380.977, 54.628
382.322, 38.268
383.667, 34.188
385.012, 6.011
386.356, 0.158
387.700, 22.327
389.044, 56.514
390.388, 80.672
391.732, 81.828
393.075, 112.986
394.419, 92.819
395.762, 162.292
397.105, 106.745
398.447, 144.824
399.790, 108.048
401.132, 89.535
402.474, 86.877
403.816, 78.764
405.158, 84.270
406.499, 78.733
407.841, 99.797
409.182, 121.116
410.523, 157.584
411.864, 184.140
413.204, 237.446
414.544, 273.416
415.884, 370.003
417.224, 424.490
418.564, 584.243
419.904, 561.505
421.243, 722.851
422.582, 779.942
423.921, 818.045
425.260, 877.199
426.598, 805.316
427.937, 843.534
429.275, 802.795
430.613, 808.209
431.951, 794.574
433.288, 686.351
434.625, 702.192
435.963, 586.415
437.300, 565.161
438.636, 531.910
439.973, 438.539
441.309, 412.066
442.646, 322.196
443.981, 367.358
445.317, 320.450
446.653, 295.059
447.988, 312.087
449.323, 271.895
450.658, 318.124
451.993, 324.642
453.328, 343.449
454.662, 378.120
455.996, 365.166
457.331, 434.551
458.664, 400.100
459.998, 400.265
461.331, 397.600
462.665, 433.295
463.998, 437.487
465.330, 395.673
466.663, 452.396
467.996, 370.437
469.328, 402.261
470.660, 406.839
471.992, 383.633
473.323, 364.324
474.655, 326.320
475.986, 299.258
477.317, 260.628
478.648, 229.060
479.979, 236.115
481.309, 197.171
482.640, 182.908
483.970, 218.341
485.300, 176.965
486.629, 222.338
487.959, 170.474
489.288, 219.482
490.617, 236.965
491.946, 211.432
493.275, 235.461
494.603, 212.750
495.932, 260.306
497.260, 290.705
498.588, 308.452
499.916, 338.996
501.243, 318.343
502.571, 434.673
503.898, 437.985
505.225, 538.285
506.552, 589.370
507.878, 620.630
509.205, 716.872
510.531, 698.097
511.857, 761.304
513.183, 784.493
514.508, 832.664
515.834, 939.818
517.159, 897.954
518.484, 995.072
519.809, 1072.172
521.133, 1062.254
522.458, 1088.319
523.782, 1024.365
525.106, 1021.394
526.430, 933.405
527.754, 799.397
529.077, 748.601
530.400, 658.797
531.723, 620.905
533.046, 496.573
534.369, 450.227
535.692, 406.005
537.014, 305.261
538.336, 338.884
539.658, 236.555
540.980, 229.837
542.301, 157.112
543.623, 138.610
544.944, 149.845
546.265, 79.437
547.585, 74.181
548.906, 85.910
550.226, 97.623
551.547, 78.322
552.867, 20.005
554.186, 33.667
555.506, 34.310
556.825, 5.065
558.145, 57.527
559.464, 31.104
560.783, 39.661
562.101, 16.202
563.420, 28.720
564.738, 30.220
566.056, 15.701
567.374, 35.160
568.692, 21.601
570.009, 24.022
571.326, 38.424
572.643, 11.809
573.960, 22.171
575.277, 25.513
576.594, 15.837
577.910, 38.139
579.226, 30.424
580.542, 77.692
581.858, 63.774
583.173, 49.184
584.489, 55.406
585.804, 34.613
587.119, 29.804
588.434, 20.978
589.748, 22.134
591.063, 9.271
592.377, 7.387
593.691, 26.480
595.005, 24.443
596.318, 7.595
597.632, 9.611
598.945, 6.393
600.258, 26.573
601.571, 17.475
602.884, 26.442
604.196, 9.657
605.508, 32.785
606.821, 2.046
608.132, 21.146
609.444, 10.372
610.756, 0.373
612.067, 29.905
613.378, 16.779
614.689, 26.552
616.000, 2.081
617.311, 24.307
618.621, 11.729
619.931, 2.179
621.241, 42.650
622.551, 4.836
623.861, 4.695
625.170, 58.249
626.479, 14.147
627.788, 20.469
629.097, 11.884
630.406, 23.775
631.714, 13.464
633.023, 45.179
634.331, 36.933
635.639, 38.724
636.946, 33.551
638.254, 34.411
639.561, 1.695
640.868, 26.213
642.175, 30.149
643.482, 11.114
644.789, 40.098
646.095, 7.117
647.401, 21.849
648.707, 15.805
650.013, 10.250
651.319, 15.320
652.624, 2.409
653.929, 21.490
655.234, 8.619
656.539, 4.743
657.844, 28.123
659.148, 55.979
660.453, 22.827
661.757, 1.667
663.061, 20.502
664.364, 11.312
665.668, 27.119
666.971, 26.918
668.274, 54.710
669.577, 53.362
670.880, 53.271
672.183, 54.041
673.485, 34.804
674.787, 19.561
676.089, 28.312
677.391, 25.686
678.693, 33.793
679.994, 38.525
681.296, 49.252
682.597, 43.972
683.898, 69.688
685.198, 66.398
686.499, 24.111
687.799, 82.829
689.099, 67.567
690.399, 61.319
691.699, 106.090
692.998, 68.872
694.298, 76.674
695.597, 79.491
696.896, 118.323
698.195, 98.167
699.493, 97.020
700.792, 137.881
702.090, 106.743
703.388, 86.600
704.686, 145.433
705.984, 107.290
707.281, 155.144
708.578, 115.992
709.876, 129.159
711.172, 159.682
712.469, 145.220
713.766, 146.127
715.062, 175.887
716.358, 193.380
717.654, 177.014
718.950, 148.099
720.246, 203.562
721.541, 165.063
722.836, 159.161
724.131, 175.763
725.426, 179.080
726.721, 233.475
728.015, 217.137
729.310, 242.139
730.604, 253.519
731.898, 217.995
733.191, 256.200
734.485, 254.891
735.778, 287.494
737.071, 274.345
738.364, 267.181
739.657, 309.961
740.950, 312.772
742.242, 328.337
743.535, 362.135
744.827, 356.634
746.118, 373.178
747.410, 388.305
748.702, 443.364
749.993, 444.036
751.284, 455.182
752.575, 495.319
753.866, 442.571
755.156, 469.921
756.447, 532.663
757.737, 452.369
759.027, 509.140
760.316, 537.392
761.606, 521.220
762.896, 519.264
764.185, 527.228
765.474, 514.207
766.763, 532.238
768.051, 525.401
769.340, 530.184
770.628, 454.623
771.916, 501.895
773.204, 464.545
774.492, 463.020
775.780, 507.132
777.067, 474.742
778.354, 479.355
779.641, 495.426
780.928, 510.175
782.215, 503.137
783.501, 526.342
784.787, 587.325
786.073, 616.408
787.359, 608.188
788.645, 705.030
789.930, 729.436
791.216, 846.782
792.501, 963.500
793.786, 1052.218
795.071, 1275.255
796.355, 1373.601
797.640, 1606.752
798.924, 1779.160
800.208, 1871.804
801.492, 2129.583
802.775, 2194.882
804.059, 2267.199
805.342, 2264.950
806.625, 2194.440
807.908, 2156.658
809.191, 2105.035
810.474, 2030.063
811.756, 1965.295
813.038, 1870.727
814.320, 1904.182
815.602, 1890.660
816.884, 1919.151
818.165, 2039.859
819.446, 2045.394
820.727, 2265.944
822.008, 2426.516
823.289, 2553.111
824.569, 2830.726
825.850, 2955.360
827.130, 3362.012
828.410, 3561.702
829.690, 3962.373
830.969, 4107.087
832.249, 4282.822
833.528, 4591.577
834.807, 4697.352
836.086, 4699.148
837.364, 4863.960
838.643, 4812.792
839.921, 5022.640
841.199, 5178.503
842.477, 5257.396
843.755, 5777.309
845.033, 6289.238
846.310, 6929.215
847.587, 7833.178
848.864, 8643.163
850.141, 10412.171
851.418, 12031.218
852.694, 14700.319
853.971, 18039.500
855.247, 21878.584
856.523, 28457.943
857.798, 34827.051
859.074, 43006.199
860.349, 50865.352
861.624, 54124.516
862.899, 55193.707
864.174, 49292.910
865.449, 40902.137
866.723, 33341.391
867.998, 25660.658
869.272, 20229.945
870.545, 16329.257
871.819, 13048.588
873.093, 11267.943
874.366, 9417.319
875.639, 8486.712
876.912, 7759.130
878.185, 6971.566
879.458, 6633.025
880.730, 6216.504
882.002, 5725.002
883.274, 5377.523
884.546, 4992.063
885.818, 4633.622
887.090, 4351.200
888.361, 4177.796
889.632, 4135.413
890.903, 3986.044
892.174, 4183.694
893.444, 4377.364
894.715, 4556.050
895.985, 5226.754
897.255, 5763.476
898.525, 6792.217
899.795, 7911.992
901.064, 8948.946
902.334, 10268.959
903.603, 10208.782
904.872, 9898.686
906.140, 9238.566
907.409, 7777.462
908.677, 6757.380
909.946, 5749.694
911.214, 4792.656
912.482, 4330.878
913.749, 3597.012
915.017, 3248.076
916.284, 2890.328
917.551, 2735.411
918.818, 2508.519
920.085, 2191.647
921.352, 2138.803
922.618, 1982.977
923.884, 1912.178
925.150, 1777.399
926.416, 1693.646
927.682, 1640.918
928.947, 1581.415
930.213, 1476.738
931.478, 1454.080
932.743, 1306.442
934.008, 1242.839
935.272, 1216.253
936.537, 1110.692
937.801, 1086.279
939.065, 959.985
940.329, 896.156
941.593, 793.687
942.856, 833.286
944.119, 745.894
945.383, 699.141
946.646, 631.811
947.908, 579.199
949.171, 503.900
950.433, 485.510
951.696, 480.927
952.958, 408.446
954.220, 404.412
955.481, 341.894
956.743, 369.682
958.004, 331.552
959.265, 318.375
960.526, 302.771
961.787, 303.230
963.048, 276.085
964.308, 256.104
965.569, 219.856
966.829, 220.730
968.089, 189.057
969.348, 196.432
970.608, 183.909
971.867, 152.870
973.126, 176.564
974.385, 162.179
975.644, 132.837
976.903, 146.107
978.161, 88.147
979.420, 118.600
980.678, 82.143
981.936, 75.986
983.193, 89.693
984.451, 75.070
985.708, 47.560
986.966, 63.914
988.223, 51.006
989.479, 25.791
990.736, 36.902
991.993, 48.042
993.249, 60.659
994.505, 39.950
995.761, 50.139
997.017, 3.414
998.272, 19.747
999.528, 2.571
1000.783, 0.101
1002.038, 3.916
1003.293, 6.733
1004.548, 11.855
1005.802, 6.038
1007.057, 18.563
1008.311, 8.653
1009.565, 13.497
1010.818, 1.173
1012.072, 11.151
1013.326, 42.536
1014.579, 28.190
1015.832, 26.490
1017.085, 20.195
1018.338, 8.486
1019.590, 37.847
1020.842, 42.793
1022.095, 32.956
1023.347, 79.287
1024.599, 28.715
1025.850, 65.695
1027.102, 35.217
1028.353, 63.578
1029.604, 42.078
1030.855, 45.472
1032.106, 64.502
1033.356, 74.943
1034.607, 62.331
1035.857, 57.720
1037.107, 69.128
1038.357, 86.537
1039.607, 29.944
1040.856, 16.411
1042.106, 43.074
1043.355, 21.796
1044.604, 54.142
1045.852, 26.519
1047.101, 20.053
1048.350, 17.418
1049.598, 0.250
1050.846, 9.886
1052.094, 11.290
1053.342, 30.155
1054.589, 3.460
1055.837, 0.007
1057.084, 25.361
1058.331, 3.716
1059.578, 15.731
1060.824, 7.631
1062.071, 10.970
1063.317, 6.542
1064.563, 1.547
1065.809, 8.726
1067.055, 3.894
1068.301, 1.236
1069.546, 3.621
1070.791, 16.961
1072.036, 17.479
1073.281, 9.648
1074.526, 25.019
1075.771, 11.361
1077.015, 3.989
1078.259, 6.680
1079.503, 19.725
1080.747, 28.048
1081.991, 29.369
1083.234, 31.303
1084.478, 21.363
1085.721, 10.766
1086.964, 2.779
1088.206, 25.426
1089.449, 32.080
1090.691, 5.196
1091.934, 20.509
1093.176, 1.831
1094.418, 11.920
1095.659, 18.682
1096.901, 29.372
1098.142, 2.830
1099.384, 30.959
1100.625, 10.785
1101.865, 27.623
1103.106, 0.483
1104.347, 9.352
1105.587, 7.766
1106.827, 3.977
1108.067, 7.948
1109.307, 4.794
1110.546, 5.121
1111.786, 10.637
1113.025, 12.479
1114.264, 23.441
1115.503, 24.642
1116.742, 0.704
1117.980, 15.288
1119.219, 0.221
1120.457, 12.828
1121.695, 18.233
1122.933, 16.316
1124.171, 0.415
1125.408, 9.529
1126.645, 15.338
1127.883, 5.196
1129.120, 11.959
1130.356, 16.136
1131.593, 2.663
1132.829, 7.499
1134.066, 8.264
1135.302, 5.981
1136.538, 61.749
1137.773, 4.546
1139.009, 57.294
1140.244, 28.990
1141.480, 23.325
1142.715, 1.670
1143.950, 27.083
1145.184, 16.707
1146.419, 45.307
1147.653, 8.939
1148.887, 23.525
1150.121, 48.100
1151.355, 12.368
1152.589, 36.121
1153.822, 17.384
1155.056, 25.314
1156.289, 49.547
1157.522, 13.051
1158.755, 31.510
1159.987, 32.985
1161.220, 30.422
1162.452, 20.905
1163.684, 42.358
1164.916, 20.756
1166.148, 49.235
1167.379, 37.610
1168.611, 15.971
1169.842, 11.441
1171.073, 8.390
1172.304, 37.089
1173.534, 17.388
1174.765, 33.661
1175.995, 48.944
1177.225, 7.192
1178.455, 45.417
1179.685, 18.690
1180.915, 42.892
1182.144, 51.075
1183.374, 52.291
1184.603, 49.449
1185.832, 50.985
1187.060, 53.154
1188.289, 46.274
1189.518, 35.422
1190.746, 33.514
1191.974, 76.590
1193.202, 66.711
1194.430, 44.762
1195.657, 71.799
1196.884, 16.905
1198.112, 73.898
1199.339, 87.820
1200.566, 38.589
1201.792, 70.552
1203.019, 54.552
1204.245, 91.479
1205.471, 84.441
1206.697, 48.478
1207.923, 77.995
1209.149, 69.879
1210.374, 62.693
1211.600, 77.421
1212.825, 59.281
1214.050, 44.995
1215.275, 126.810
1216.499, 73.736
1217.724, 96.526
1218.948, 85.305
1220.172, 83.581
1221.396, 78.334
1222.620, 85.078
1223.843, 46.967
1225.067, 99.678
1226.290, 69.172
1227.513, 111.938
1228.736, 110.610
1229.959, 57.270
1231.181, 61.950
1232.404, 60.257
1233.626, 62.411
1234.848, 80.881
1236.070, 78.285
1237.291, 89.504
1238.513, 84.066
1239.734, 69.655
1240.955, 101.169
1242.177, 122.056
1243.397, 68.578
1244.618, 105.339
1245.838, 84.799
1247.059, 119.450
1248.279, 114.211
1249.499, 84.984
1250.719, 88.243
1251.938, 98.959
1253.158, 61.369
1254.377, 96.701
1255.596, 79.085
1256.815, 91.899
1258.034, 111.650
1259.253, 60.010
1260.471, 85.207
1261.689, 107.672
1262.907, 50.059
1264.125, 72.951
1265.343, 52.796
1266.561, 55.372
1267.778, 101.636
1268.995, 95.167
1270.212, 93.434
1271.429, 95.002
1272.646, 90.300
1273.862, 85.219
1275.079, 82.991
1276.295, 90.705
1277.511, 77.086
1278.727, 60.602
1279.943, 92.448
1281.158, 71.180
1282.373, 83.047
1283.589, 53.176
1284.804, 60.611
1286.019, 89.719
1287.233, 93.797
1288.448, 94.245
1289.662, 40.337
1290.876, 88.361
1292.090, 64.125
1293.304, 61.172
1294.518, 74.557
1295.731, 65.154
1296.944, 75.605
1298.158, 63.628
1299.371, 43.591
1300.583, 26.419
1301.796, 94.213
1303.008, 57.243
1304.221, 83.584
1305.433, 53.435
1306.645, 82.340
1307.856, 49.128
1309.068, 52.645
1310.280, 79.513
1311.491, 39.973
1312.702, 61.834
1313.913, 100.740
1315.124, 32.937
1316.334, 69.914
1317.545, 55.720
1318.755, 58.424
1319.965, 75.573
1321.175, 54.175
1322.385, 73.934
1323.594, 68.552
1324.804, 44.271
1326.013, 56.350
1327.222, 110.109
1328.431, 46.813
1329.639, 96.512
1330.848, 9.229
1332.056, 43.880
1333.265, 79.529
1334.473, 47.112
1335.680, 87.494
1336.888, 66.812
1338.096, 42.500
1339.303, 93.152
1340.510, 74.640
1341.717, 36.292
1342.924, 97.972
1344.131, 30.610
1345.337, 56.250
1346.544, 93.548
1347.750, 30.143
1348.956, 75.647
1350.162, 62.276
1351.367, 19.880
1352.573, 60.276
1353.778, 68.970
1354.983, 16.505
1356.188, 110.002
1357.393, 41.557
1358.598, 33.016
1359.802, 67.295
1361.007, 22.906
1362.211, 64.407
1363.415, 71.511
1364.619, 0.044
1365.822, 100.559
1367.026, 50.064
1368.229, 17.572
1369.432, 123.788
1370.635, 82.319
1371.838, 30.739
1373.041, 111.317
1374.243, 58.857
1375.446, 41.173
1376.648, 42.660
1377.850, 12.039
1379.052, 74.258
1380.253, 38.693
1381.455, 3.066
1382.656, 104.484
1383.857, 28.869
1385.058, 53.168
1386.259, 50.537
1387.459, 37.268
1388.660, 116.158
1389.860, 74.710
1391.060, 25.279
1392.260, 80.851
1393.460, 22.314
1394.660, 38.835
1395.859, 90.376
1397.059, 79.813
1398.258, 78.223
1399.457, 100.637
1400.655, 49.083
1401.854, 58.640
1403.052, 58.197
1404.251, 52.749
1405.449, 117.314
1406.647, 33.827
1407.845, 48.401
1409.042, 78.840
1410.240, 9.590
1411.437, 43.862
1412.634, 106.428
1413.831, 23.025
1415.028, 106.538
1416.224, 23.996
1417.421, 47.346
1418.617, 127.904
1419.813, 34.440
1421.009, 65.891
1422.205, 93.348
1423.401, 103.918
1424.596, 91.330
1425.791, 86.882
1426.986, 78.143
1428.181, 45.042
1429.376, 69.555
1430.571, 52.094
1431.765, 84.165
1432.960, 35.674
1434.154, 41.204
1435.348, 78.713
1436.541, 42.304
1437.735, 63.777
1438.929, 85.222
1440.122, 7.668
1441.315, 100.268
1442.508, 58.605
1443.701, 4.898
1444.893, 108.417
1446.086, 25.880
1447.278, 60.267
1448.470, 108.977
1449.662, 26.545
1450.854, 61.839
1452.046, 136.271
1453.237, 46.849
1454.428, 88.314
1455.619, 83.671
1456.810, 8.552
1458.001, 101.946
1459.192, 55.499
1460.382, 76.967
1461.573, 147.343
1462.763, 77.690
1463.953, 46.180
1465.143, 94.736
1466.332, 74.297
1467.522, 80.858
1468.711, 103.418
1469.900, 13.882
1471.089, 113.480
1472.278, 81.002
1473.467, 17.441
1474.655, 115.681
1475.843, 33.026
1477.032, 45.448
1478.220, 150.865
1479.407, 38.277
1480.595, 90.680
1481.783, 82.081
1482.970, 42.420
1484.157, 62.810
1485.344, 46.193
1486.531, 51.082
1487.718, 87.872
1488.904, 43.014
1490.090, 30.351
1491.277, 73.503
1492.463, 25.828
1493.648, 88.175
1494.834, 128.098
1496.020, 3.467
1497.205, 93.832
1498.390, 94.186
1499.575, 29.522
1500.760, 111.397
1501.945, 92.760
1503.129, 15.988
1504.314, 122.516
1505.498, 9.948
1506.682, 90.595
1507.866, 103.152
1509.049, 27.736
1510.233, 94.392
1511.416, 111.086
1512.600, 27.683
1513.783, 125.536
1514.966, 15.332
1516.148, 24.170
1517.331, 115.503
1518.513, 1.050
1519.695, 42.439
1520.878, 165.486
1522.059, 23.238
