##NAMES=Legrandite
##RRUFFID=R040151
##IDEAL CHEMISTRY=Zn^2+^_2_As^5+^O_4_(OH)&#183;H_2_O
##LOCALITY=Mapimi, Durango, Mexico
##OWNER=RRUFF
##SOURCE=University of Arizona Mineral Museum
##DESCRIPTION=Yellow crystal fragments; same material used in McLean et al. (1971) study
##STATUS=The identification of this mineral has been confirmed by X-ray diffraction and chemical analysis
##URL=rruff.info/R040151
##MEASURED CHEMISTRY=Zn_1.88_Fe^2+^_0.04_As_1.03_O_4_(OH)Â·H_2_O
##PIN_ID=M00054
##ORIENTATION=Laser parallel to -b* (0 -1 0). Fiducial mark perpendicular to laser is parallel to c [0 0 1]
56.488, 0.000
57.882, 129.953
59.275, 168.353
60.668, 253.932
62.061, 269.568
63.454, 253.043
64.846, 281.657
66.238, 323.825
67.630, 318.836
69.022, 237.283
70.413, 177.747
71.805, 64.985
73.196, 58.500
74.587, 4.502
75.978, 5.050
77.368, 20.192
78.758, 17.042
80.149, 126.623
81.538, 243.522
82.928, 184.716
84.318, 70.242
85.707, 38.914
87.096, 11.787
88.485, 139.593
89.873, 235.203
91.262, 165.022
92.650, 148.035
94.038, 165.230
95.426, 243.593
96.813, 220.117
98.201, 230.792
99.588, 223.612
100.975, 237.569
102.362, 253.653
103.748, 277.851
105.135, 297.153
106.521, 224.549
107.907, 276.036
109.292, 307.742
110.678, 458.115
112.063, 695.663
113.448, 779.232
114.833, 981.826
116.218, 1113.447
117.602, 1146.948
118.987, 1359.781
120.371, 1166.499
121.755, 936.255
123.138, 857.049
124.522, 947.884
125.905, 942.762
127.288, 1147.683
128.671, 1316.648
130.053, 1604.658
131.436, 2108.715
132.818, 2541.819
134.200, 3008.969
135.582, 2966.167
136.963, 2819.412
138.345, 2286.705
139.726, 1801.052
141.107, 1497.462
142.488, 1143.923
143.868, 1083.421
145.248, 802.939
146.629, 746.470
148.008, 565.996
149.388, 389.487
150.768, 303.931
152.147, 184.389
153.526, 154.869
154.905, 87.323
156.284, 223.796
157.662, 234.299
159.040, 425.832
160.418, 737.448
161.796, 1130.218
163.174, 1986.397
164.551, 2810.274
165.929, 3777.173
167.306, 4021.517
168.683, 3659.904
170.059, 3042.336
171.436, 2315.811
172.812, 1814.332
174.188, 1411.896
175.564, 1227.504
176.939, 1000.158
178.315, 909.857
179.690, 868.601
181.065, 859.389
182.440, 1060.223
183.814, 1165.102
185.188, 1464.026
186.563, 1563.995
187.937, 1531.010
189.310, 1502.069
190.684, 1386.172
192.057, 1440.320
193.430, 1310.510
194.803, 1416.741
196.176, 1366.013
197.549, 1243.323
198.921, 1207.674
200.293, 921.065
201.665, 871.494
203.037, 546.962
204.408, 405.467
205.779, 251.010
207.150, 82.590
208.521, 77.207
209.892, 27.859
211.262, 126.547
212.633, 136.270
214.003, 264.027
215.373, 428.818
216.742, 458.642
218.112, 505.499
219.481, 443.387
220.850, 443.308
222.219, 368.076
223.588, 383.745
224.956, 365.258
226.324, 376.602
227.692, 507.730
229.060, 610.713
230.428, 811.476
231.795, 825.919
233.162, 852.144
234.529, 919.402
235.896, 740.689
237.263, 650.159
238.629, 661.708
239.995, 718.219
241.361, 868.431
242.727, 962.956
244.093, 1228.544
245.458, 1156.957
246.823, 1214.447
248.188, 1036.981
249.553, 817.375
250.917, 641.079
252.282, 432.675
253.646, 369.374
255.010, 232.111
256.374, 191.884
257.737, 114.698
259.101, 95.545
260.464, 104.436
261.827, 2.362
263.189, 0.670
264.552, 109.665
265.914, 91.645
267.276, 144.596
268.638, 123.538
270.000, 75.457
271.362, 102.351
272.723, 34.221
274.084, 26.053
275.445, 19.143
276.806, 77.373
278.166, 74.641
279.526, 162.937
280.887, 144.267
282.246, 303.625
283.606, 355.012
284.966, 452.432
286.325, 667.884
287.684, 688.368
289.043, 904.889
290.402, 870.440
291.760, 871.019
293.118, 904.629
294.477, 862.279
295.834, 942.958
297.192, 931.672
298.550, 1066.419
299.907, 1000.195
301.264, 1150.004
302.621, 1201.838
303.978, 1163.707
305.334, 1227.606
306.690, 1076.538
308.046, 1080.504
309.402, 947.491
310.758, 840.518
312.113, 806.569
313.469, 665.655
314.824, 676.763
316.179, 530.893
317.533, 518.055
318.888, 471.241
320.242, 402.454
321.596, 447.692
322.950, 369.958
324.304, 413.248
325.657, 365.515
327.010, 335.743
328.363, 295.958
329.716, 226.181
331.069, 265.430
332.421, 154.695
333.774, 178.985
335.126, 157.291
336.478, 118.613
337.829, 127.954
339.181, 86.311
340.532, 107.682
341.883, 102.071
343.234, 194.473
344.585, 237.893
345.935, 299.325
347.285, 471.771
348.635, 564.230
349.985, 671.700
351.335, 976.188
352.684, 1131.687
354.034, 1514.198
355.383, 1658.719
356.731, 2022.253
358.080, 2128.798
359.429, 2263.352
360.777, 2279.917
362.125, 2026.491
363.473, 1942.074
364.820, 1599.667
366.168, 1512.268
367.515, 1221.878
368.862, 1077.496
370.209, 1062.122
371.556, 890.756
372.902, 996.397
374.249, 935.046
375.595, 1044.701
376.940, 1147.364
378.286, 1181.033
379.632, 1363.708
380.977, 1385.389
382.322, 1552.076
383.667, 1651.768
385.012, 1620.464
386.356, 1779.162
387.700, 1673.863
389.044, 1726.569
390.388, 1553.279
391.732, 1470.995
393.075, 1447.718
394.419, 1242.447
395.762, 1130.185
397.105, 1033.974
398.447, 928.857
399.790, 821.625
401.132, 753.502
402.474, 712.419
403.816, 641.405
405.158, 617.405
406.499, 591.443
407.841, 630.520
409.182, 727.795
410.523, 719.862
411.864, 867.405
413.204, 889.535
414.544, 1042.510
415.884, 1240.788
417.224, 1403.940
418.564, 1738.544
419.904, 1808.582
421.243, 2184.970
422.582, 2408.812
423.921, 2479.291
425.260, 2841.676
426.598, 2693.516
427.937, 2882.351
429.275, 2691.010
430.613, 2691.209
431.951, 2666.277
433.288, 2509.711
434.625, 2629.518
435.963, 2325.827
437.300, 2306.317
438.636, 2141.999
439.973, 1958.300
441.309, 1943.237
442.646, 1829.486
443.981, 1833.995
445.317, 1810.767
446.653, 1774.174
447.988, 1929.781
449.323, 1905.595
450.658, 2195.479
451.993, 2235.443
453.328, 2560.740
454.662, 2815.441
455.996, 2956.592
457.331, 3468.959
458.664, 3532.290
459.998, 3860.644
461.331, 4091.904
462.665, 4264.314
463.998, 4556.079
465.330, 4368.871
466.663, 4594.266
467.996, 4303.326
469.328, 4101.976
470.660, 3998.994
471.992, 3494.666
473.323, 3351.704
474.655, 2903.399
475.986, 2543.581
477.317, 2208.695
478.648, 1806.101
479.979, 1723.061
481.309, 1410.886
482.640, 1309.518
483.970, 1148.763
485.300, 1007.124
486.629, 1003.234
487.959, 851.588
489.288, 889.345
490.617, 835.078
491.946, 800.828
493.275, 902.375
494.603, 848.073
495.932, 963.787
497.260, 967.341
498.588, 1063.031
499.916, 1218.611
501.243, 1266.870
502.571, 1512.404
503.898, 1584.429
505.225, 1730.929
506.552, 1937.474
507.878, 1842.980
509.205, 1943.431
510.531, 1802.700
511.857, 1743.111
513.183, 1608.491
514.508, 1465.928
515.834, 1444.255
517.159, 1254.802
518.484, 1309.096
519.809, 1246.372
521.133, 1174.632
522.458, 1138.874
523.782, 1033.098
525.106, 1012.306
526.430, 873.495
527.754, 800.667
529.077, 736.821
530.400, 655.957
531.723, 623.075
533.046, 487.175
534.369, 463.257
535.692, 444.320
537.014, 374.365
538.336, 364.391
539.658, 275.399
540.980, 277.388
542.301, 242.359
543.623, 201.310
544.944, 214.242
546.265, 148.156
547.585, 147.050
548.906, 118.925
550.226, 94.781
551.547, 109.618
552.867, 96.435
554.186, 97.233
555.506, 69.011
556.825, 48.769
558.145, 79.506
559.464, 56.223
560.783, 50.919
562.101, 38.594
563.420, 40.247
564.738, 33.878
566.056, 29.487
567.374, 19.073
568.692, 32.633
570.009, 12.172
571.326, 28.682
572.643, 4.169
573.960, 21.624
575.277, 29.054
576.594, 5.540
577.910, 52.829
579.226, 17.824
580.542, 7.479
581.858, 19.249
583.173, 2.021
584.489, 32.171
585.804, 17.646
587.119, 13.506
588.434, 29.349
589.748, 4.763
591.063, 18.149
592.377, 34.091
593.691, 7.082
595.005, 19.110
596.318, 38.183
597.632, 0.311
598.945, 26.473
600.258, 0.316
601.571, 3.930
602.884, 24.213
604.196, 18.543
605.508, 21.917
606.821, 41.337
608.132, 10.814
609.444, 12.330
610.756, 17.887
612.067, 56.488
613.378, 16.152
614.689, 35.858
616.000, 35.617
617.311, 20.428
618.621, 35.283
619.931, 6.189
621.241, 44.132
622.551, 29.130
623.861, 39.176
625.170, 50.275
626.479, 3.567
627.788, 66.620
629.097, 13.873
630.406, 52.164
631.714, 0.486
633.023, 7.894
634.331, 39.309
635.639, 12.773
636.946, 22.274
638.254, 20.816
639.561, 34.397
640.868, 13.024
642.175, 0.313
643.482, 12.376
644.789, 1.099
646.095, 27.150
647.401, 24.621
648.707, 19.570
650.013, 23.260
651.319, 22.873
652.624, 13.987
653.929, 9.920
655.234, 10.145
656.539, 31.190
657.844, 7.784
659.148, 32.216
660.453, 5.802
661.757, 30.156
663.061, 14.095
664.364, 18.016
665.668, 25.920
666.971, 14.194
668.274, 24.666
669.577, 26.508
670.880, 7.334
672.183, 34.143
673.485, 5.064
674.787, 39.709
676.089, 34.467
677.391, 50.209
678.693, 40.935
679.994, 48.749
681.296, 65.126
682.597, 39.023
683.898, 100.689
685.198, 60.341
686.499, 73.978
687.799, 77.601
689.099, 42.209
690.399, 99.804
691.699, 73.385
692.998, 83.952
694.298, 93.505
695.597, 62.046
696.896, 85.573
698.195, 87.088
699.493, 51.589
700.792, 95.078
702.090, 93.555
703.388, 96.020
704.686, 122.473
705.984, 93.915
707.281, 111.344
708.578, 72.762
709.876, 83.169
711.172, 130.565
712.469, 69.908
713.766, 88.153
715.062, 109.514
716.358, 137.766
717.654, 117.984
718.950, 118.139
720.246, 133.289
721.541, 125.401
722.836, 115.473
724.131, 123.343
725.426, 105.417
726.721, 140.013
728.015, 113.032
729.310, 134.206
730.604, 131.074
731.898, 120.065
733.191, 132.599
734.485, 145.696
735.778, 145.439
737.071, 147.725
738.364, 143.361
739.657, 154.072
740.950, 137.033
742.242, 168.751
743.535, 184.267
744.827, 154.240
746.118, 199.338
747.410, 204.003
748.702, 179.663
749.993, 207.015
751.284, 179.611
752.575, 235.008
753.866, 221.783
755.156, 210.918
756.447, 258.736
757.737, 237.293
759.027, 270.580
760.316, 246.230
761.606, 247.675
762.896, 271.910
764.185, 269.071
765.474, 344.150
766.763, 316.892
768.051, 372.225
769.340, 413.105
770.628, 385.765
771.916, 439.459
773.204, 488.125
774.492, 516.880
775.780, 562.485
777.067, 608.732
778.354, 740.945
779.641, 820.557
780.928, 811.502
782.215, 928.852
783.501, 911.835
784.787, 989.160
786.073, 1029.116
787.359, 959.414
788.645, 1088.221
789.930, 1042.095
791.216, 1094.674
792.501, 1163.702
793.786, 1189.867
795.071, 1356.225
796.355, 1442.976
797.640, 1581.609
798.924, 1759.499
800.208, 1854.145
801.492, 2032.387
802.775, 2049.653
804.059, 2113.903
805.342, 2183.360
806.625, 2098.666
807.908, 2095.959
809.191, 2022.410
810.474, 1990.734
811.756, 1985.165
813.038, 1805.923
814.320, 1856.407
815.602, 1827.401
816.884, 1818.923
818.165, 2005.404
819.446, 1982.924
820.727, 2204.497
822.008, 2383.258
823.289, 2490.877
824.569, 2798.528
825.850, 2792.126
827.130, 3006.832
828.410, 3076.318
829.690, 3131.194
830.969, 3298.816
832.249, 3300.593
833.528, 3491.387
834.807, 3716.198
836.086, 3706.032
837.364, 4170.880
838.643, 4243.749
839.921, 4698.633
841.199, 5099.536
842.477, 5285.455
843.755, 5913.392
845.033, 6462.345
846.310, 7139.319
847.587, 8068.313
848.864, 8615.325
850.141, 10374.367
851.418, 11533.428
852.694, 13862.507
853.971, 16931.613
855.247, 20576.191
856.523, 25699.895
857.798, 30399.051
859.074, 36868.238
860.349, 43817.449
861.624, 44896.672
862.899, 45545.918
864.174, 40935.188
865.449, 33534.469
866.723, 27613.771
867.998, 21383.104
869.272, 17092.447
870.545, 14091.815
871.819, 11391.202
873.093, 10250.609
874.366, 8890.034
875.639, 8192.480
876.912, 7796.944
878.185, 7171.431
879.458, 7058.940
880.730, 6590.470
882.002, 5953.025
883.274, 5815.609
884.546, 5226.213
885.818, 5094.840
887.090, 4856.494
888.361, 4628.168
889.632, 4882.875
890.903, 4791.608
892.174, 5338.374
893.444, 5879.169
894.715, 6445.987
895.985, 7774.837
897.255, 8663.713
898.525, 10523.620
899.795, 12883.555
901.064, 14473.520
902.334, 17143.523
903.603, 17263.553
904.872, 16623.615
906.140, 15763.715
907.409, 12843.841
908.677, 11114.003
909.946, 9144.190
911.214, 7410.409
912.482, 6547.661
913.749, 5314.944
915.017, 4757.260
916.284, 4140.616
917.551, 3623.329
918.818, 3474.745
920.085, 2936.193
921.352, 2777.727
922.618, 2670.249
923.884, 2341.811
925.150, 2259.406
926.416, 2129.031
927.682, 1937.144
928.947, 1911.830
930.213, 1667.555
931.478, 1702.958
932.743, 1536.024
934.008, 1454.882
935.272, 1362.572
936.537, 1254.469
937.801, 1198.612
939.065, 1130.956
940.329, 1031.944
941.593, 966.307
942.856, 872.642
944.119, 841.037
945.383, 787.229
946.646, 733.521
947.908, 641.565
949.171, 605.935
950.433, 563.416
951.696, 579.214
952.958, 474.876
954.220, 475.799
955.481, 424.871
956.743, 403.625
958.004, 420.447
959.265, 352.324
960.526, 341.711
961.787, 317.722
963.048, 292.427
964.308, 288.437
965.569, 276.789
966.829, 248.252
968.089, 228.713
969.348, 185.671
970.608, 179.850
971.867, 209.566
973.126, 163.040
974.385, 200.217
975.644, 201.569
976.903, 178.742
978.161, 168.373
979.420, 160.175
980.678, 139.090
981.936, 140.096
983.193, 127.533
984.451, 115.417
985.708, 124.136
986.966, 107.663
988.223, 116.411
989.479, 107.012
990.736, 110.094
991.993, 87.142
993.249, 81.230
994.505, 82.800
995.761, 71.435
997.017, 82.916
998.272, 88.773
999.528, 80.226
1000.783, 89.318
1002.038, 95.587
1003.293, 84.855
1004.548, 87.715
1005.802, 77.771
1007.057, 85.825
1008.311, 54.269
1009.565, 113.691
1010.818, 141.371
1012.072, 115.370
1013.326, 178.855
1014.579, 174.362
1015.832, 186.375
1017.085, 220.088
1018.338, 258.178
1019.590, 303.681
1020.842, 331.921
1022.095, 369.570
1023.347, 441.393
1024.599, 442.516
1025.850, 485.610
1027.102, 537.737
1028.353, 547.973
1029.604, 591.558
1030.855, 637.780
1032.106, 633.647
1033.356, 664.962
1034.607, 558.324
1035.857, 566.461
1037.107, 503.698
1038.357, 494.202
1039.607, 471.726
1040.856, 385.362
1042.106, 311.148
1043.355, 355.928
1044.604, 246.713
1045.852, 262.073
1047.101, 202.552
1048.350, 156.989
1049.598, 204.225
1050.846, 137.437
1052.094, 132.690
1053.342, 121.606
1054.589, 92.916
1055.837, 104.135
1057.084, 40.609
1058.331, 66.167
1059.578, 33.461
1060.824, 13.996
1062.071, 53.749
1063.317, 10.157
1064.563, 12.480
1065.809, 22.533
1067.055, 18.093
1068.301, 23.142
1069.546, 15.953
1070.791, 3.397
1072.036, 19.849
1073.281, 1.317
1074.526, 1.669
1075.771, 11.908
1077.015, 19.708
1078.259, 9.523
1079.503, 15.786
1080.747, 23.868
1081.991, 12.642
1083.234, 1.427
1084.478, 27.025
1085.721, 2.177
1086.964, 9.577
1088.206, 14.302
1089.449, 6.885
1090.691, 12.632
1091.934, 10.455
1093.176, 33.284
1094.418, 28.050
1095.659, 28.910
1096.901, 41.736
1098.142, 5.632
1099.384, 46.489
1100.625, 14.386
1101.865, 10.323
1103.106, 15.268
1104.347, 17.203
1105.587, 29.176
1106.827, 10.099
1108.067, 29.101
1109.307, 6.877
1110.546, 45.088
1111.786, 4.145
1113.025, 27.180
1114.264, 15.218
1115.503, 16.322
1116.742, 15.331
1117.980, 22.455
1119.219, 11.603
1120.457, 9.240
1121.695, 27.940
1122.933, 6.052
1124.171, 8.209
1125.408, 20.443
1126.645, 19.582
1127.883, 4.682
1129.120, 5.933
1130.356, 1.832
1131.593, 4.477
1132.829, 10.801
1134.066, 14.874
1135.302, 19.447
1136.538, 14.209
1137.773, 3.138
1139.009, 6.540
1140.244, 8.182
1141.480, 8.326
1142.715, 5.332
1143.950, 14.876
1145.184, 3.404
1146.419, 1.992
1147.653, 5.552
1148.887, 30.965
1150.121, 4.519
1151.355, 12.076
1152.589, 14.516
1153.822, 1.069
1155.056, 21.290
1156.289, 11.645
1157.522, 4.993
1158.755, 8.313
1159.987, 31.889
1161.220, 14.166
1162.452, 14.508
1163.684, 40.379
1164.916, 11.610
1166.148, 4.908
1167.379, 18.234
1168.611, 27.435
1169.842, 28.723
1171.073, 29.869
1172.304, 37.334
1173.534, 47.149
1174.765, 42.319
1175.995, 34.477
1177.225, 22.677
1178.455, 37.746
1179.685, 16.846
1180.915, 7.953
1182.144, 33.956
1183.374, 63.148
1184.603, 43.148
1185.832, 31.108
1187.060, 31.293
1188.289, 28.219
1189.518, 24.432
1190.746, 25.336
1191.974, 25.835
1193.202, 43.231
1194.430, 38.067
1195.657, 40.886
1196.884, 61.764
1198.112, 69.614
1199.339, 61.418
1200.566, 26.236
1201.792, 53.975
1203.019, 88.698
1204.245, 44.408
1205.471, 41.101
1206.697, 60.807
1207.923, 43.468
1209.149, 35.111
1210.374, 51.736
1211.600, 60.420
1212.825, 27.013
1214.050, 56.584
1215.275, 83.813
1216.499, 35.362
1217.724, 41.883
1218.948, 81.343
1220.172, 52.200
1221.396, 61.666
1222.620, 85.127
1223.843, 59.567
1225.067, 95.537
1226.290, 78.955
1227.513, 63.364
1228.736, 86.122
1229.959, 90.225
1231.181, 57.546
1232.404, 107.044
1233.626, 77.362
1234.848, 69.448
1236.070, 91.356
1237.291, 50.705
1238.513, 107.613
1239.734, 92.570
1240.955, 69.520
1242.177, 112.646
1243.397, 75.833
1244.618, 106.139
1245.838, 75.129
1247.059, 77.032
1248.279, 83.612
1249.499, 83.336
1250.719, 77.881
1251.938, 104.211
1253.158, 65.947
1254.377, 94.543
1255.596, 101.089
1256.815, 66.199
1258.034, 87.621
1259.253, 71.352
1260.471, 65.780
1261.689, 93.875
1262.907, 51.860
1264.125, 72.870
1265.343, 72.368
1266.561, 70.481
1267.778, 82.519
1268.995, 50.509
1270.212, 57.864
1271.429, 89.983
1272.646, 30.284
1273.862, 89.128
1275.079, 63.313
1276.295, 55.368
1277.511, 71.847
1278.727, 69.888
1279.943, 63.483
1281.158, 60.244
1282.373, 58.198
1283.589, 57.008
1284.804, 45.888
1286.019, 51.317
1287.233, 79.722
1288.448, 59.117
1289.662, 64.315
1290.876, 73.874
1292.090, 42.875
1293.304, 51.498
1294.518, 61.525
1295.731, 50.241
1296.944, 32.143
1298.158, 75.355
1299.371, 41.976
1300.583, 58.424
1301.796, 54.850
1303.008, 48.950
1304.221, 59.006
1305.433, 13.802
1306.645, 54.278
1307.856, 34.266
1309.068, 1.233
1310.280, 80.692
1311.491, 32.450
1312.702, 23.831
1313.913, 44.796
1315.124, 24.023
1316.334, 57.253
1317.545, 43.481
1318.755, 54.818
1319.965, 35.184
1321.175, 34.523
1322.385, 23.743
1323.594, 47.609
1324.804, 36.838
1326.013, 29.419
1327.222, 67.550
1328.431, 12.631
1329.639, 40.934
1330.848, 58.132
1332.056, 9.062
1333.265, 62.970
1334.473, 4.762
1335.680, 41.400
1336.888, 61.042
1338.096, 11.675
1339.303, 49.730
1340.510, 65.663
1341.717, 24.634
1342.924, 27.803
1344.131, 34.993
1345.337, 28.137
1346.544, 54.614
1347.750, 53.719
1348.956, 42.885
1350.162, 51.796
1351.367, 32.616
1352.573, 46.694
1353.778, 43.543
1354.983, 41.762
1356.188, 20.106
1357.393, 48.139
1358.598, 48.437
1359.802, 59.416
1361.007, 34.521
1362.211, 37.046
1363.415, 51.745
1364.619, 3.173
1365.822, 54.682
1367.026, 32.648
1368.229, 37.723
1369.432, 53.648
1370.635, 31.721
1371.838, 29.757
1373.041, 26.705
1374.243, 29.768
1375.446, 34.006
1376.648, 53.802
1377.850, 39.922
1379.052, 51.948
1380.253, 37.954
1381.455, 13.033
1382.656, 36.816
1383.857, 32.927
1385.058, 20.004
1386.259, 35.010
1387.459, 1.460
1388.660, 44.140
1389.860, 70.140
1391.060, 25.155
1392.260, 69.164
1393.460, 29.127
1394.660, 9.159
1395.859, 51.123
1397.059, 7.068
1398.258, 40.984
1399.457, 63.998
1400.655, 9.016
1401.854, 49.884
1403.052, 62.609
1404.251, 38.606
1405.449, 33.564
1406.647, 38.569
1407.845, 19.515
1409.042, 41.393
1410.240, 47.338
1411.437, 1.689
1412.634, 49.204
1413.831, 7.139
1415.028, 52.951
1416.224, 52.902
1417.421, 28.936
1418.617, 42.943
1419.813, 31.626
1421.009, 17.755
1422.205, 49.678
1423.401, 52.505
1424.596, 24.371
1425.791, 23.359
1426.986, 0.202
1428.181, 20.037
1429.376, 52.863
1430.571, 24.599
1431.765, 49.577
1432.960, 37.243
1434.154, 20.792
1435.348, 15.553
1436.541, 20.573
1437.735, 24.384
1438.929, 51.260
1440.122, 10.276
1441.315, 41.289
1442.508, 43.256
1443.701, 8.276
1444.893, 45.173
1446.086, 0.795
1447.278, 20.224
1448.470, 40.631
1449.662, 29.653
1450.854, 24.689
1452.046, 44.683
1453.237, 40.647
1454.428, 46.681
1455.619, 38.713
1456.810, 38.000
1458.001, 64.631
1459.192, 35.575
1460.382, 47.303
1461.573, 56.292
1462.763, 23.313
1463.953, 8.169
1465.143, 49.010
1466.332, 21.874
1467.522, 36.896
1468.711, 21.921
1469.900, 29.907
1471.089, 58.937
1472.278, 16.668
1473.467, 19.546
1474.655, 48.579
1475.843, 21.615
1477.032, 22.656
1478.220, 19.725
1479.407, 56.592
1480.595, 39.673
1481.783, 60.766
1482.970, 20.877
1484.157, 66.001
1485.344, 56.141
1486.531, 10.227
1487.718, 69.300
1488.904, 46.240
1490.090, 2.411
1491.277, 45.599
1492.463, 7.798
1493.648, 38.007
1494.834, 58.231
1496.020, 5.475
1497.205, 48.740
1498.390, 61.991
1499.575, 23.307
1500.760, 49.645
1501.945, 9.014
1503.129, 39.421
1504.314, 35.860
1505.498, 7.335
1506.682, 43.850
1507.866, 56.403
1509.049, 45.999
1510.233, 35.653
1511.416, 68.178
1512.600, 20.907
1513.783, 82.604
