##NAMES=Legrandite
##RRUFFID=R040151
##IDEAL CHEMISTRY=Zn^2+^_2_As^5+^O_4_(OH)&#183;H_2_O
##LOCALITY=Mapimi, Durango, Mexico
##OWNER=RRUFF
##SOURCE=University of Arizona Mineral Museum
##DESCRIPTION=Yellow crystal fragments; same material used in McLean et al. (1971) study
##STATUS=The identification of this mineral has been confirmed by X-ray diffraction and chemical analysis
##URL=rruff.info/R040151
##MEASURED CHEMISTRY=Zn_1.88_Fe^2+^_0.04_As_1.03_O_4_(OH)Â·H_2_O
##PIN_ID=M00379
##ORIENTATION=Laser parallel to (-1 0 -1). Fiducial mark perpendicular to laser is parallel to b [0 1 0]
56.488, 0.000
57.882, 17.416
59.275, 28.807
60.668, 34.103
62.061, 162.448
63.454, 224.562
64.846, 272.553
66.238, 327.296
67.630, 359.560
69.022, 253.938
70.413, 208.541
71.805, 8.360
73.196, 5.317
74.587, 6.694
75.978, 5.499
77.368, 9.821
78.758, 145.778
80.149, 398.334
81.538, 506.873
82.928, 429.426
84.318, 90.113
85.707, 62.944
87.096, 59.894
88.485, 317.422
89.873, 329.432
91.262, 193.603
92.650, 103.916
94.038, 162.358
95.426, 294.918
96.813, 322.585
98.201, 233.352
99.588, 195.212
100.975, 258.159
102.362, 319.186
103.748, 404.285
105.135, 397.451
106.521, 326.681
107.907, 209.971
109.292, 233.814
110.678, 311.565
112.063, 430.446
113.448, 321.275
114.833, 251.057
116.218, 76.799
117.602, 10.507
118.987, 56.813
120.371, 48.155
121.755, 9.485
123.138, 181.114
124.522, 495.734
125.905, 590.350
127.288, 724.965
128.671, 529.581
130.053, 485.203
131.436, 524.832
132.818, 580.470
134.200, 858.120
135.582, 939.782
136.963, 996.460
138.345, 838.155
139.726, 783.867
141.107, 832.598
142.488, 858.345
143.868, 843.104
145.248, 601.870
146.629, 482.644
148.008, 304.415
149.388, 182.179
150.768, 238.933
152.147, 183.701
153.526, 283.484
154.905, 338.285
156.284, 558.099
157.662, 697.928
159.040, 958.772
160.418, 1403.325
161.796, 2049.824
163.174, 3685.233
164.551, 5354.716
165.929, 7615.698
167.306, 7763.953
168.683, 6546.241
170.059, 4940.566
171.436, 3233.871
172.812, 2551.197
174.188, 1841.558
175.564, 1661.957
176.939, 1298.393
178.315, 1108.867
179.690, 1044.378
181.065, 864.927
182.440, 1028.515
183.814, 918.140
185.188, 1201.804
186.563, 1403.506
187.937, 1581.246
189.310, 1940.025
190.684, 2136.842
192.057, 2847.696
193.430, 3022.585
194.803, 3414.506
196.176, 3327.461
197.549, 2866.448
198.921, 2583.467
200.293, 1850.520
201.665, 1541.604
203.037, 1057.719
204.408, 872.866
205.779, 642.043
207.150, 434.251
208.521, 352.489
209.892, 289.756
211.262, 428.054
212.633, 416.380
214.003, 598.735
215.373, 758.118
216.742, 854.529
218.112, 1065.967
219.481, 939.432
220.850, 1078.924
222.219, 934.624
223.588, 849.313
224.956, 935.969
226.324, 998.580
227.692, 1289.138
229.060, 1443.668
230.428, 1854.095
231.795, 2066.459
233.162, 2042.787
234.529, 2063.150
235.896, 1673.545
237.263, 1684.677
238.629, 1350.214
239.995, 1493.427
241.361, 1568.110
242.727, 1653.612
244.093, 1976.153
245.458, 1827.718
246.823, 1891.307
248.188, 1540.920
249.553, 1294.557
250.917, 1016.218
252.282, 670.901
253.646, 497.484
255.010, 294.093
256.374, 239.730
257.737, 116.394
259.101, 44.081
260.464, 18.793
261.827, 87.468
263.189, 52.721
264.552, 154.961
265.914, 85.209
267.276, 123.445
268.638, 131.682
270.000, 27.911
271.362, 135.122
272.723, 9.333
274.084, 13.522
275.445, 85.301
276.806, 31.155
278.166, 31.025
279.526, 105.920
280.887, 51.842
282.246, 181.778
283.606, 234.758
284.966, 283.330
286.325, 474.341
287.684, 507.375
289.043, 683.431
290.402, 668.532
291.760, 747.663
293.118, 742.814
294.477, 695.006
295.834, 781.223
297.192, 738.481
298.550, 892.762
299.907, 848.080
301.264, 1044.426
302.621, 1159.791
303.978, 1118.187
305.334, 1177.599
306.690, 986.041
308.046, 894.509
309.402, 716.993
310.758, 610.519
312.113, 620.060
313.469, 439.639
314.824, 508.248
316.179, 374.872
317.533, 383.520
318.888, 329.197
320.242, 274.904
321.596, 339.641
322.950, 267.401
324.304, 320.145
325.657, 300.825
327.010, 336.454
328.363, 406.048
329.716, 282.667
331.069, 426.303
332.421, 261.952
333.774, 340.622
335.126, 265.305
336.478, 243.007
337.829, 287.737
339.181, 166.479
340.532, 282.232
341.883, 286.998
343.234, 386.774
344.585, 476.563
345.935, 543.363
347.285, 768.174
348.635, 827.995
349.985, 1063.826
351.335, 1279.670
352.684, 1447.524
354.034, 1838.388
355.383, 2000.260
356.731, 2491.141
358.080, 2532.033
359.429, 2863.934
360.777, 2967.844
362.125, 2755.761
363.473, 2721.687
364.820, 2320.626
366.168, 2235.573
367.515, 1901.529
368.862, 1701.491
370.209, 1685.460
371.556, 1370.434
372.902, 1478.414
374.249, 1361.401
375.595, 1429.392
376.940, 1524.390
378.286, 1497.396
379.632, 1867.406
380.977, 1853.421
382.322, 2201.439
383.667, 2432.461
385.012, 2533.488
386.356, 2855.517
387.700, 2721.549
389.044, 3020.585
390.388, 2709.625
391.732, 2639.668
393.075, 2495.716
394.419, 2102.767
395.762, 2185.823
397.105, 1749.882
398.447, 1740.962
399.790, 1505.030
401.132, 1255.104
402.474, 1275.183
403.816, 1077.332
405.158, 1188.473
406.499, 1076.565
407.841, 1111.797
409.182, 1253.915
410.523, 1132.270
411.864, 1400.596
413.204, 1441.852
414.544, 1641.211
415.884, 1888.333
417.224, 1980.203
418.564, 2546.558
419.904, 2544.784
421.243, 3213.192
422.582, 3457.335
423.921, 3746.982
425.260, 4400.640
426.598, 4286.653
427.937, 4842.918
429.275, 4627.041
430.613, 4878.449
431.951, 4863.161
433.288, 4462.835
434.625, 4777.919
435.963, 4409.002
437.300, 4421.243
438.636, 4207.988
439.973, 3795.944
441.309, 3873.203
442.646, 3412.508
443.981, 3602.501
445.317, 3384.554
446.653, 3383.550
447.988, 3606.731
449.323, 3466.595
450.658, 4023.045
451.993, 3962.983
453.328, 4520.314
454.662, 5006.085
455.996, 5058.472
457.331, 6046.199
458.664, 6132.294
459.998, 6752.981
461.331, 7067.550
462.665, 7325.613
463.998, 8055.974
465.330, 7727.911
466.663, 8612.754
467.996, 8406.744
469.328, 8238.664
470.660, 8236.538
471.992, 7287.173
473.323, 7142.042
474.655, 6112.128
475.986, 5443.793
477.317, 4756.321
478.648, 3964.019
479.979, 3603.449
481.309, 2968.170
482.640, 2736.058
483.970, 2453.741
485.300, 2088.282
486.629, 2052.573
487.959, 1689.027
489.288, 1725.358
490.617, 1632.674
491.946, 1544.535
493.275, 1611.031
494.603, 1492.770
495.932, 1689.758
497.260, 1645.004
498.588, 1807.661
499.916, 2043.304
501.243, 2114.006
502.571, 2606.613
503.898, 2580.429
505.225, 2976.002
506.552, 3210.671
507.878, 3103.210
509.205, 3345.836
510.531, 3006.988
511.857, 2788.472
513.183, 2563.977
514.508, 2175.543
515.834, 2114.973
517.159, 1686.901
518.484, 1663.294
519.809, 1462.958
521.133, 1357.314
522.458, 1252.649
523.782, 1151.488
525.106, 1143.785
526.430, 994.603
527.754, 904.861
529.077, 803.099
530.400, 669.317
531.723, 707.515
533.046, 606.875
534.369, 543.033
535.692, 550.262
537.014, 433.155
538.336, 509.251
539.658, 421.327
540.980, 404.382
542.301, 317.416
543.623, 354.466
544.944, 343.458
546.265, 258.429
547.585, 287.379
548.906, 237.307
550.226, 211.413
551.547, 229.299
552.867, 140.163
554.186, 203.006
555.506, 141.826
556.825, 104.626
558.145, 140.403
559.464, 123.158
560.783, 168.892
562.101, 93.603
563.420, 97.292
564.738, 174.957
566.056, 76.601
567.374, 104.221
568.692, 53.818
570.009, 57.390
571.326, 71.938
572.643, 53.462
573.960, 103.961
575.277, 24.437
576.594, 53.883
577.910, 79.303
579.226, 47.700
580.542, 16.071
581.858, 59.409
583.173, 40.739
584.489, 23.051
585.804, 3.367
587.119, 19.660
588.434, 29.052
589.748, 40.207
591.063, 4.556
592.377, 11.667
593.691, 46.857
595.005, 36.977
596.318, 26.128
597.632, 16.795
598.945, 21.768
600.258, 53.207
601.571, 33.843
602.884, 2.951
604.196, 2.100
605.508, 5.291
606.821, 0.525
608.132, 89.799
609.444, 34.159
610.756, 7.422
612.067, 80.031
613.378, 10.567
614.689, 80.146
616.000, 6.807
617.311, 64.510
618.621, 31.286
619.931, 8.884
621.241, 44.979
622.551, 10.096
623.861, 37.860
625.170, 24.874
626.479, 8.062
627.788, 88.034
629.097, 12.788
630.406, 73.420
631.714, 45.702
633.023, 8.957
634.331, 22.414
635.639, 41.831
636.946, 54.304
638.254, 43.839
639.561, 31.430
640.868, 29.071
642.175, 4.241
643.482, 56.476
644.789, 3.746
646.095, 43.061
647.401, 4.080
648.707, 32.193
650.013, 16.716
651.319, 50.338
652.624, 10.629
653.929, 47.628
655.234, 102.320
656.539, 50.249
657.844, 30.158
659.148, 102.047
660.453, 1.918
661.757, 86.765
663.061, 13.593
664.364, 54.402
665.668, 11.192
666.971, 9.036
668.274, 44.709
669.577, 21.437
670.880, 2.147
672.183, 27.838
673.485, 10.489
674.787, 68.162
676.089, 6.204
677.391, 17.409
678.693, 64.006
679.994, 31.413
681.296, 29.137
682.597, 15.329
683.898, 8.184
685.198, 4.682
686.499, 13.163
687.799, 23.260
689.099, 7.917
690.399, 28.519
691.699, 5.060
692.998, 25.654
694.298, 91.730
695.597, 10.100
696.896, 26.457
698.195, 59.801
699.493, 1.868
700.792, 59.449
702.090, 18.755
703.388, 28.047
704.686, 79.328
705.984, 12.403
707.281, 37.852
708.578, 29.095
709.876, 27.328
711.172, 17.549
712.469, 58.760
713.766, 51.942
715.062, 32.132
716.358, 79.311
717.654, 42.481
718.950, 32.576
720.246, 52.677
721.541, 9.818
722.836, 38.814
724.131, 71.917
725.426, 15.775
726.721, 38.655
728.015, 13.598
729.310, 26.431
730.604, 64.494
731.898, 55.802
733.191, 84.619
734.485, 31.559
735.778, 60.311
737.071, 90.320
738.364, 79.160
739.657, 122.810
740.950, 80.061
742.242, 74.438
743.535, 164.574
744.827, 19.916
746.118, 114.545
747.410, 49.423
748.702, 96.237
749.993, 128.946
751.284, 98.792
752.575, 151.129
753.866, 103.248
755.156, 121.060
756.447, 203.821
757.737, 121.889
759.027, 214.904
760.316, 186.983
761.606, 144.872
762.896, 242.072
764.185, 227.682
765.474, 303.800
766.763, 284.519
768.051, 293.794
769.340, 369.448
770.628, 367.758
771.916, 468.694
773.204, 471.034
774.492, 539.488
775.780, 627.445
777.067, 630.098
778.354, 870.172
779.641, 906.335
780.928, 975.348
782.215, 1147.426
783.501, 1058.546
784.787, 1236.902
786.073, 1176.019
787.359, 1072.917
788.645, 1218.232
789.930, 1010.680
791.216, 1062.958
792.501, 1040.502
793.786, 890.752
795.071, 1073.832
796.355, 1035.113
797.640, 1111.534
798.924, 1286.209
800.208, 1278.717
801.492, 1484.348
802.775, 1433.998
804.059, 1656.109
805.342, 1609.587
806.625, 1555.830
807.908, 1776.823
809.191, 1624.562
810.474, 1694.888
811.756, 1723.236
813.038, 1497.528
814.320, 1714.912
815.602, 1607.096
816.884, 1663.530
818.165, 1771.876
819.446, 1668.364
820.727, 1934.772
822.008, 2111.667
823.289, 2210.239
824.569, 2424.802
825.850, 2351.317
827.130, 2645.976
828.410, 2667.139
829.690, 2564.843
830.969, 2834.275
832.249, 2689.025
833.528, 3058.807
834.807, 3056.093
836.086, 3265.921
837.364, 3741.230
838.643, 3806.097
839.921, 4327.999
841.199, 4762.921
842.477, 4999.875
843.755, 5840.676
845.033, 6276.684
846.310, 7134.626
847.587, 8120.908
848.864, 8617.985
850.141, 10905.094
851.418, 11752.225
852.694, 14529.376
853.971, 17966.521
855.247, 20623.727
856.523, 28160.951
857.798, 33098.211
859.074, 41605.484
860.349, 52662.582
861.624, 55359.902
862.899, 61337.258
864.174, 56574.625
865.449, 47532.016
866.723, 40669.449
867.998, 30546.889
869.272, 24994.354
870.545, 20341.850
871.819, 16039.373
873.093, 14666.920
874.366, 11934.494
875.639, 11042.094
876.912, 10109.721
878.185, 8897.366
879.458, 8725.045
880.730, 8032.746
882.002, 7310.476
883.274, 7208.236
884.546, 6642.021
885.818, 6963.834
887.090, 6670.674
888.361, 6683.540
889.632, 7557.432
890.903, 7365.355
892.174, 8693.305
893.444, 9611.292
894.715, 10489.309
895.985, 13647.358
897.255, 14825.445
898.525, 18943.576
899.795, 23121.727
901.064, 25399.926
902.334, 31768.152
903.603, 31646.412
904.872, 31484.709
906.140, 30653.041
907.409, 24741.410
908.677, 22219.814
909.946, 17778.254
911.214, 14296.736
912.482, 12645.252
913.749, 9783.809
915.017, 8952.402
916.284, 7581.032
917.551, 6567.725
918.818, 6223.461
920.085, 5153.228
921.352, 5006.052
922.618, 4535.910
923.884, 3892.823
925.150, 3961.773
926.416, 3601.773
927.682, 3243.818
928.947, 3261.894
930.213, 2760.015
931.478, 2896.167
932.743, 2500.361
934.008, 2371.597
935.272, 2404.866
936.537, 2027.217
937.801, 2036.571
939.065, 1803.974
940.329, 1592.423
941.593, 1681.012
942.856, 1414.990
944.119, 1358.943
945.383, 1318.547
946.646, 1190.238
947.908, 1114.923
949.171, 967.646
950.433, 940.773
951.696, 969.571
952.958, 782.397
954.220, 873.655
955.481, 781.363
956.743, 705.724
958.004, 723.906
959.265, 568.961
960.526, 597.157
961.787, 596.207
963.048, 469.186
964.308, 590.933
965.569, 432.054
966.829, 438.505
968.089, 498.310
969.348, 358.358
970.608, 415.343
971.867, 409.785
973.126, 335.667
974.385, 366.556
975.644, 357.267
976.903, 384.441
978.161, 298.963
979.420, 282.208
980.678, 273.884
981.936, 238.294
983.193, 234.287
984.451, 221.806
985.708, 204.941
986.966, 231.178
988.223, 200.694
989.479, 265.231
990.736, 268.089
991.993, 210.663
993.249, 217.062
994.505, 181.735
995.761, 167.086
997.017, 241.472
998.272, 161.137
999.528, 159.388
1000.783, 194.898
1002.038, 110.619
1003.293, 222.354
1004.548, 217.077
1005.802, 278.101
1007.057, 226.910
1008.311, 248.342
1009.565, 212.458
1010.818, 230.374
1012.072, 179.259
1013.326, 296.123
1014.579, 264.521
1015.832, 321.490
1017.085, 328.250
1018.338, 358.221
1019.590, 439.220
1020.842, 470.972
1022.095, 532.881
1023.347, 663.471
1024.599, 663.794
1025.850, 776.839
1027.102, 874.301
1028.353, 933.327
1029.604, 1187.218
1030.855, 1141.533
1032.106, 1212.670
1033.356, 1345.344
1034.607, 1152.483
1035.857, 1239.907
1037.107, 1095.102
1038.357, 949.301
1039.607, 897.920
1040.856, 664.261
1042.106, 668.459
1043.355, 586.601
1044.604, 445.781
1045.852, 487.021
1047.101, 335.829
1048.350, 270.082
1049.598, 314.405
1050.846, 161.155
1052.094, 228.369
1053.342, 151.298
1054.589, 136.669
1055.837, 122.957
1057.084, 107.366
1058.331, 109.685
1059.578, 72.661
1060.824, 104.460
1062.071, 55.741
1063.317, 70.081
1064.563, 56.458
1065.809, 148.784
1067.055, 22.192
1068.301, 122.574
1069.546, 53.871
1070.791, 95.250
1072.036, 18.552
1073.281, 71.038
1074.526, 31.508
1075.771, 126.816
1077.015, 92.106
1078.259, 84.417
1079.503, 50.804
1080.747, 56.369
1081.991, 34.684
1083.234, 12.487
1084.478, 33.554
1085.721, 1.133
1086.964, 12.236
1088.206, 23.548
1089.449, 16.872
1090.691, 6.413
1091.934, 19.093
1093.176, 16.673
1094.418, 18.633
1095.659, 1.907
1096.901, 6.502
1098.142, 62.798
1099.384, 37.892
1100.625, 4.869
1101.865, 20.139
1103.106, 35.967
1104.347, 43.666
1105.587, 13.413
1106.827, 49.726
1108.067, 1.538
1109.307, 28.357
1110.546, 25.933
1111.786, 40.647
1113.025, 15.151
1114.264, 59.050
1115.503, 44.838
1116.742, 32.612
1117.980, 35.551
1119.219, 49.380
1120.457, 39.455
1121.695, 45.202
1122.933, 44.005
1124.171, 39.946
1125.408, 62.067
1126.645, 18.170
1127.883, 12.354
1129.120, 18.557
1130.356, 62.274
1131.593, 31.960
1132.829, 44.225
1134.066, 11.395
1135.302, 5.639
1136.538, 49.079
1137.773, 36.514
1139.009, 44.571
1140.244, 34.224
1141.480, 35.187
1142.715, 22.620
1143.950, 0.480
1145.184, 15.978
1146.419, 56.780
1147.653, 4.243
1148.887, 14.980
1150.121, 39.567
1151.355, 36.969
1152.589, 15.577
1153.822, 15.085
1155.056, 27.431
1156.289, 8.237
1157.522, 16.757
1158.755, 25.043
1159.987, 32.895
1161.220, 46.289
1162.452, 15.073
1163.684, 30.529
1164.916, 7.264
1166.148, 39.257
1167.379, 37.602
1168.611, 12.817
1169.842, 62.263
1171.073, 0.371
1172.304, 27.464
1173.534, 50.795
1174.765, 25.839
1175.995, 67.889
1177.225, 16.963
1178.455, 34.947
1179.685, 51.202
1180.915, 4.222
1182.144, 59.139
1183.374, 36.547
1184.603, 54.427
1185.832, 57.341
1187.060, 33.412
1188.289, 46.235
1189.518, 69.246
1190.746, 13.968
1191.974, 80.774
1193.202, 71.256
1194.430, 10.021
1195.657, 74.696
1196.884, 61.658
1198.112, 13.295
1199.339, 111.907
1200.566, 36.508
1201.792, 66.076
1203.019, 88.908
1204.245, 65.566
1205.471, 87.076
1206.697, 39.715
1207.923, 47.179
1209.149, 103.620
1210.374, 31.107
1211.600, 85.500
1212.825, 32.873
1214.050, 31.372
1215.275, 90.687
1216.499, 128.281
1217.724, 95.556
1218.948, 146.811
1220.172, 77.045
1221.396, 80.259
1222.620, 132.514
1223.843, 39.795
1225.067, 127.939
1226.290, 104.207
1227.513, 75.936
1228.736, 179.018
1229.959, 62.080
1231.181, 51.116
1232.404, 171.126
1233.626, 115.376
1234.848, 172.486
1236.070, 127.554
1237.291, 73.958
1238.513, 202.788
1239.734, 110.340
1240.955, 179.928
1242.177, 99.765
1243.397, 111.542
1244.618, 174.335
1245.838, 135.102
1247.059, 70.614
1248.279, 179.334
1249.499, 64.036
1250.719, 127.325
1251.938, 132.171
1253.158, 70.366
1254.377, 141.752
1255.596, 181.269
1256.815, 107.798
1258.034, 85.349
1259.253, 75.021
1260.471, 117.965
1261.689, 205.454
1262.907, 102.619
1264.125, 178.434
1265.343, 102.008
1266.561, 85.695
1267.778, 205.882
1268.995, 75.630
1270.212, 91.528
1271.429, 197.453
1272.646, 107.917
1273.862, 162.087
1275.079, 166.481
1276.295, 107.447
1277.511, 137.715
1278.727, 124.707
1279.943, 86.031
1281.158, 98.165
1282.373, 102.576
1283.589, 122.911
1284.804, 103.027
1286.019, 67.821
1287.233, 127.116
1288.448, 109.367
1289.662, 29.342
1290.876, 152.661
1292.090, 51.925
1293.304, 130.046
1294.518, 46.442
1295.731, 77.578
1296.944, 154.618
1298.158, 94.511
1299.371, 47.415
1300.583, 127.763
1301.796, 114.579
1303.008, 20.769
1304.221, 211.273
1305.433, 25.974
1306.645, 75.706
1307.856, 28.456
1309.068, 55.668
1310.280, 161.302
1311.491, 41.144
1312.702, 63.770
1313.913, 91.552
1315.124, 43.361
1316.334, 112.952
1317.545, 103.010
1318.755, 48.236
1319.965, 135.735
1321.175, 99.825
1322.385, 90.335
1323.594, 162.250
1324.804, 45.461
1326.013, 88.845
1327.222, 153.869
1328.431, 25.242
1329.639, 108.324
1330.848, 92.654
1332.056, 51.949
1333.265, 112.818
1334.473, 54.960
1335.680, 108.236
1336.888, 203.563
1338.096, 9.843
1339.303, 88.055
1340.510, 167.937
1341.717, 38.122
1342.924, 122.228
1344.131, 138.365
1345.337, 14.435
1346.544, 155.031
1347.750, 40.090
1348.956, 69.182
1350.162, 177.201
1351.367, 64.246
1352.573, 150.621
1353.778, 149.209
1354.983, 83.263
1356.188, 120.250
1357.393, 119.298
1358.598, 60.277
1359.802, 178.162
1361.007, 34.062
1362.211, 112.038
1363.415, 167.982
1364.619, 107.933
1365.822, 207.684
1367.026, 80.729
1368.229, 69.597
1369.432, 213.469
1370.635, 60.802
1371.838, 7.551
1373.041, 161.107
1374.243, 106.042
1375.446, 101.327
1376.648, 193.339
1377.850, 32.221
1379.052, 58.874
1380.253, 63.732
1381.455, 42.617
1382.656, 82.591
1383.857, 60.510
1385.058, 61.942
1386.259, 192.424
1387.459, 90.192
1388.660, 173.372
1389.860, 215.028
1391.060, 56.583
1392.260, 161.977
1393.460, 135.912
1394.660, 96.434
1395.859, 189.295
1397.059, 93.612
1398.258, 117.479
1399.457, 147.281
1400.655, 52.880
1401.854, 117.581
1403.052, 75.417
1404.251, 66.375
1405.449, 263.336
1406.647, 116.350
1407.845, 96.147
1409.042, 228.102
1410.240, 74.816
1411.437, 114.815
1412.634, 166.115
1413.831, 48.802
1415.028, 162.258
1416.224, 148.182
1417.421, 72.807
1418.617, 249.928
1419.813, 128.164
1421.009, 74.240
1422.205, 198.862
1423.401, 42.094
1424.596, 86.478
1425.791, 160.350
1426.986, 34.869
1428.181, 123.613
1429.376, 199.076
1430.571, 30.831
1431.765, 159.964
1432.960, 87.399
1434.154, 76.917
1435.348, 163.740
1436.541, 47.356
1437.735, 89.715
1438.929, 151.520
1440.122, 48.221
1441.315, 120.330
1442.508, 124.828
1443.701, 6.438
1444.893, 201.190
1446.086, 117.674
1447.278, 83.922
1448.470, 181.658
1449.662, 78.387
1450.854, 129.810
1452.046, 176.281
1453.237, 80.872
1454.428, 180.568
1455.619, 182.743
1456.810, 31.943
1458.001, 194.908
1459.192, 136.990
1460.382, 61.548
1461.573, 252.128
1462.763, 103.428
1463.953, 68.005
1465.143, 222.580
1466.332, 12.147
1467.522, 184.393
1468.711, 171.642
1469.900, 27.162
1471.089, 229.666
1472.278, 189.045
1473.467, 64.158
1474.655, 262.623
1475.843, 100.955
1477.032, 441.320
1478.220, 278.333
1479.407, 129.785
1480.595, 154.673
1481.783, 197.480
1482.970, 14.882
1484.157, 234.208
1485.344, 189.179
1486.531, 20.805
1487.718, 284.638
1488.904, 128.622
1490.090, 57.975
1491.277, 214.309
1492.463, 54.629
1493.648, 153.960
1494.834, 289.572
1496.020, 58.090
1497.205, 159.445
1498.390, 115.909
1499.575, 42.221
