##NAMES=Legrandite
##RRUFFID=R040151
##IDEAL CHEMISTRY=Zn^2+^_2_As^5+^O_4_(OH)&#183;H_2_O
##LOCALITY=Mapimi, Durango, Mexico
##OWNER=RRUFF
##SOURCE=University of Arizona Mineral Museum
##DESCRIPTION=Yellow crystal fragments; same material used in McLean et al. (1971) study
##STATUS=The identification of this mineral has been confirmed by X-ray diffraction and chemical analysis
##URL=rruff.info/R040151
##MEASURED CHEMISTRY=Zn_1.88_Fe^2+^_0.04_As_1.03_O_4_(OH)Â·H_2_O
##PIN_ID=M00379
##ORIENTATION=Laser parallel to (-1 0 -1). Fiducial mark perpendicular to laser is parallel to b [0 1 0]
56.488, 0.000
57.882, 9.292
59.275, 7.120
60.668, 53.218
62.061, 88.063
63.454, 180.644
64.846, 236.193
66.238, 247.787
67.630, 352.703
69.022, 326.018
70.413, 245.859
71.805, 111.864
73.196, 68.150
74.587, 139.844
75.978, 228.626
77.368, 189.353
78.758, 315.992
80.149, 377.081
81.538, 557.067
82.928, 343.301
84.318, 164.064
85.707, 79.584
87.096, 153.043
88.485, 214.746
89.873, 609.255
91.262, 668.856
92.650, 932.564
94.038, 1262.779
95.426, 1427.948
96.813, 1334.052
98.201, 1206.403
99.588, 1280.301
100.975, 1497.267
102.362, 1603.374
103.748, 1681.620
105.135, 1806.000
106.521, 1855.508
107.907, 2175.138
109.292, 2526.886
110.678, 2912.743
112.063, 2714.703
113.448, 1986.762
114.833, 1340.916
116.218, 730.150
117.602, 390.450
118.987, 106.812
120.371, 35.235
121.755, 34.278
123.138, 61.723
124.522, 37.064
125.905, 15.342
127.288, 13.445
128.671, 97.707
130.053, 106.799
131.436, 66.829
132.818, 33.799
134.200, 154.292
135.582, 117.443
136.963, 205.654
138.345, 125.924
139.726, 116.261
141.107, 131.694
142.488, 255.223
143.868, 304.626
145.248, 429.555
146.629, 506.347
148.008, 611.214
149.388, 707.151
150.768, 729.149
152.147, 626.204
153.526, 539.309
154.905, 343.464
156.284, 347.661
157.662, 321.889
159.040, 400.136
160.418, 506.399
161.796, 770.681
163.174, 1544.983
164.551, 2257.307
165.929, 3478.654
167.306, 3671.025
168.683, 3138.425
170.059, 2416.851
171.436, 1503.292
172.812, 1129.648
174.188, 676.913
175.564, 604.120
176.939, 333.172
178.315, 252.181
179.690, 220.236
181.065, 109.336
182.440, 211.485
183.814, 163.681
185.188, 272.926
186.563, 396.218
187.937, 505.557
189.310, 642.424
190.684, 759.311
192.057, 1139.768
193.430, 1236.303
194.803, 1581.960
196.176, 1667.566
197.549, 1576.197
198.921, 1831.871
200.293, 1648.584
201.665, 1858.339
203.037, 1687.134
204.408, 1579.967
205.779, 1312.839
207.150, 926.748
208.521, 776.694
209.892, 582.677
211.262, 643.695
212.633, 655.748
214.003, 805.834
215.373, 891.955
216.742, 910.109
218.112, 976.294
219.481, 783.512
220.850, 802.760
222.219, 694.229
223.588, 648.875
224.956, 651.605
226.324, 676.374
227.692, 843.155
229.060, 885.929
230.428, 1109.687
231.795, 1117.416
233.162, 1078.103
234.529, 1009.748
235.896, 803.353
237.263, 829.920
238.629, 604.441
239.995, 657.890
241.361, 787.251
242.727, 855.537
244.093, 1068.760
245.458, 961.931
246.823, 1095.068
248.188, 867.169
249.553, 686.248
250.917, 628.306
252.282, 434.346
253.646, 432.334
255.010, 292.063
256.374, 329.625
257.737, 290.002
259.101, 346.109
260.464, 399.175
261.827, 325.271
263.189, 437.416
264.552, 392.598
265.914, 551.820
267.276, 644.092
268.638, 812.399
270.000, 1061.755
271.362, 1286.153
272.723, 1670.598
274.084, 1753.090
275.445, 1996.622
276.806, 1995.203
278.166, 1900.826
279.526, 1959.493
280.887, 1675.205
282.246, 1705.943
283.606, 1410.291
284.966, 1341.598
286.325, 1269.287
287.684, 1051.411
289.043, 1135.229
290.402, 916.567
291.760, 864.747
293.118, 766.194
294.477, 621.207
295.834, 675.860
297.192, 404.717
298.550, 482.920
299.907, 412.025
301.264, 448.295
302.621, 409.532
303.978, 299.779
305.334, 396.139
306.690, 231.555
308.046, 246.009
309.402, 196.491
310.758, 141.003
312.113, 167.532
313.469, 61.090
314.824, 114.664
316.179, 42.257
317.533, 64.880
318.888, 5.519
320.242, 31.825
321.596, 55.848
322.950, 65.466
324.304, 59.229
325.657, 4.936
327.010, 2.344
328.363, 49.386
329.716, 10.872
331.069, 76.880
332.421, 0.643
333.774, 42.416
335.126, 54.199
336.478, 27.992
337.829, 71.797
339.181, 13.612
340.532, 165.439
341.883, 156.277
343.234, 229.126
344.585, 346.987
345.935, 291.858
347.285, 555.739
348.635, 601.630
349.985, 769.530
351.335, 975.440
352.684, 1122.357
354.034, 1446.274
355.383, 1520.200
356.731, 1969.134
358.080, 1979.076
359.429, 2234.023
360.777, 2342.979
362.125, 2137.941
363.473, 2154.910
364.820, 1862.885
366.168, 1807.866
367.515, 1476.853
368.862, 1251.845
370.209, 1157.842
371.556, 824.844
372.902, 887.850
374.249, 718.861
375.595, 775.876
376.940, 832.894
378.286, 756.916
379.632, 1007.941
380.977, 1010.968
382.322, 1232.999
383.667, 1383.031
385.012, 1432.061
386.356, 1782.089
387.700, 1611.112
389.044, 1895.132
390.388, 1773.146
391.732, 1771.157
393.075, 1833.164
394.419, 1537.165
395.762, 1502.292
397.105, 1224.460
398.447, 1118.761
399.790, 949.022
401.132, 743.366
402.474, 740.588
403.816, 568.118
405.158, 586.305
406.499, 464.692
407.841, 517.384
409.182, 529.691
410.523, 445.321
411.864, 597.255
413.204, 546.635
414.544, 649.323
415.884, 769.222
417.224, 869.603
418.564, 1095.932
419.904, 1165.424
421.243, 1434.406
422.582, 1533.949
423.921, 1738.667
425.260, 2078.283
426.598, 1901.976
427.937, 2234.640
429.275, 2135.103
430.613, 2246.327
431.951, 2345.577
433.288, 2140.492
434.625, 2343.320
435.963, 2195.681
437.300, 2143.280
438.636, 2182.419
439.973, 1967.106
441.309, 2090.031
442.646, 1945.847
443.981, 2189.631
445.317, 2149.907
446.653, 2259.925
447.988, 2520.413
449.323, 2625.300
450.658, 3175.288
451.993, 3329.344
453.328, 3741.170
454.662, 4206.666
455.996, 4330.460
457.331, 4850.590
458.664, 4760.525
459.998, 4959.605
461.331, 4932.146
462.665, 4792.086
463.998, 5002.424
465.330, 4617.878
466.663, 4896.089
467.996, 4656.961
469.328, 4414.483
470.660, 4338.669
471.992, 3721.996
473.323, 3594.885
474.655, 3191.103
475.986, 2850.756
477.317, 2554.464
478.648, 2104.533
479.979, 2012.388
481.309, 1668.717
482.640, 1556.652
483.970, 1392.507
485.300, 1295.195
486.629, 1254.076
487.959, 1092.607
489.288, 1064.145
490.617, 1051.568
491.946, 977.063
493.275, 1009.522
494.603, 898.973
495.932, 1005.403
497.260, 927.811
498.588, 968.197
499.916, 1103.560
501.243, 1086.901
502.571, 1311.220
503.898, 1343.516
505.225, 1522.789
506.552, 1594.038
507.878, 1487.265
509.205, 1582.469
510.531, 1405.649
511.857, 1376.806
513.183, 1273.938
514.508, 1062.048
515.834, 1043.133
517.159, 780.194
518.484, 872.232
519.809, 745.245
521.133, 665.233
522.458, 637.198
523.782, 570.137
525.106, 581.052
526.430, 556.951
527.754, 507.817
529.077, 530.657
530.400, 481.475
531.723, 560.266
533.046, 490.030
534.369, 539.769
535.692, 584.483
537.014, 569.171
538.336, 654.834
539.658, 565.471
540.980, 585.082
542.301, 528.667
543.623, 432.227
544.944, 459.760
546.265, 291.267
547.585, 304.748
548.906, 287.203
550.226, 225.631
551.547, 206.034
552.867, 185.410
554.186, 130.760
555.506, 120.082
556.825, 87.376
558.145, 95.641
559.464, 74.877
560.783, 103.084
562.101, 45.261
563.420, 109.408
564.738, 61.525
566.056, 5.612
567.374, 77.656
568.692, 6.670
570.009, 22.640
571.326, 59.575
572.643, 5.479
573.960, 23.339
575.277, 5.837
576.594, 5.063
577.910, 43.662
579.226, 0.355
580.542, 39.001
581.858, 43.385
583.173, 6.160
584.489, 11.339
585.804, 42.891
587.119, 8.489
588.434, 52.174
589.748, 20.910
591.063, 47.704
592.377, 46.569
593.691, 23.504
595.005, 59.498
596.318, 36.569
597.632, 45.704
598.945, 49.910
600.258, 18.814
601.571, 64.499
602.884, 56.891
604.196, 5.358
605.508, 60.872
606.821, 35.462
608.132, 85.114
609.444, 22.856
610.756, 35.653
612.067, 30.512
613.378, 19.430
614.689, 25.043
616.000, 22.430
617.311, 25.512
618.621, 33.649
619.931, 40.846
621.241, 48.054
622.551, 50.737
623.861, 47.824
625.170, 59.282
626.479, 22.811
627.788, 34.390
629.097, 12.974
630.406, 31.694
631.714, 13.583
633.023, 1.831
634.331, 47.957
635.639, 19.194
636.946, 4.683
638.254, 3.597
639.561, 30.455
640.868, 5.481
642.175, 75.482
643.482, 22.458
644.789, 96.409
646.095, 121.336
647.401, 109.239
648.707, 149.120
650.013, 127.978
651.319, 157.814
652.624, 175.904
653.929, 230.418
655.234, 233.186
656.539, 240.933
657.844, 298.658
659.148, 329.361
660.453, 261.043
661.757, 293.704
663.061, 212.344
664.364, 229.964
665.668, 138.563
666.971, 103.141
668.274, 128.700
669.577, 97.239
670.880, 115.758
672.183, 73.258
673.485, 60.739
674.787, 58.201
676.089, 42.644
677.391, 43.069
678.693, 82.476
679.994, 50.865
681.296, 68.236
682.597, 22.589
683.898, 76.925
685.198, 82.244
686.499, 16.546
687.799, 70.831
689.099, 40.100
690.399, 82.352
691.699, 88.589
692.998, 44.809
694.298, 106.014
695.597, 43.204
696.896, 78.379
698.195, 51.539
699.493, 41.685
700.792, 74.816
702.090, 62.933
703.388, 58.036
704.686, 102.125
705.984, 57.202
707.281, 126.265
708.578, 21.315
709.876, 76.352
711.172, 99.247
712.469, 45.085
713.766, 85.773
715.062, 44.485
716.358, 109.098
717.654, 94.818
718.950, 84.215
720.246, 93.940
721.541, 66.452
722.836, 107.644
724.131, 128.208
725.426, 61.435
726.721, 139.347
728.015, 134.799
729.310, 106.931
730.604, 122.840
731.898, 94.255
733.191, 178.713
734.485, 96.999
735.778, 140.787
737.071, 155.007
738.364, 116.044
739.657, 167.177
740.950, 118.224
742.242, 178.293
743.535, 170.557
744.827, 120.050
746.118, 205.512
747.410, 144.300
748.702, 159.168
749.993, 228.496
751.284, 134.578
752.575, 236.114
753.866, 200.094
755.156, 236.828
756.447, 273.665
757.737, 227.527
759.027, 307.890
760.316, 284.515
761.606, 287.685
762.896, 335.478
764.185, 305.186
765.474, 367.837
766.763, 393.719
768.051, 438.961
769.340, 519.938
770.628, 443.602
771.916, 584.471
773.204, 607.189
774.492, 699.439
775.780, 764.284
777.067, 835.723
778.354, 955.042
779.641, 1063.594
780.928, 1138.480
782.215, 1241.710
783.501, 1297.272
784.787, 1499.688
786.073, 1490.546
787.359, 1406.071
788.645, 1577.160
789.930, 1448.202
791.216, 1518.877
792.501, 1580.775
793.786, 1471.805
795.071, 1679.616
796.355, 1533.326
797.640, 1706.386
798.924, 1854.252
800.208, 1809.436
801.492, 2036.633
802.775, 1954.858
804.059, 2053.097
805.342, 2234.356
806.625, 2123.640
807.908, 2398.941
809.191, 2267.264
810.474, 2425.613
811.756, 2478.979
813.038, 2245.380
814.320, 2488.797
815.602, 2270.231
816.884, 2327.691
818.165, 2497.168
819.446, 2326.671
820.727, 2599.203
822.008, 2693.762
823.289, 2713.347
824.569, 3097.958
825.850, 2945.594
827.130, 3337.253
828.410, 3303.936
829.690, 3359.644
830.969, 3713.377
832.249, 3710.135
833.528, 4042.919
834.807, 4262.726
836.086, 4450.552
837.364, 5131.390
838.643, 5163.258
839.921, 5867.146
841.199, 6408.053
842.477, 6573.984
843.755, 7591.949
845.033, 7872.936
846.310, 8810.952
847.587, 9648.988
848.864, 10097.045
850.141, 12325.139
851.418, 13173.258
852.694, 15331.394
853.971, 18479.559
855.247, 20787.746
856.523, 27495.961
857.798, 31464.201
859.074, 37902.469
860.349, 46030.770
861.624, 46949.074
862.899, 50047.410
864.174, 44975.777
865.449, 37634.160
866.723, 32452.578
867.998, 25121.021
869.272, 21059.488
870.545, 17967.984
871.819, 14846.500
873.093, 14255.044
874.366, 12203.623
875.639, 11672.226
876.912, 11210.868
878.185, 10149.541
879.458, 9978.245
880.730, 9256.985
882.002, 8545.753
883.274, 8304.553
884.546, 7455.392
885.818, 7358.267
887.090, 6786.182
888.361, 6552.123
889.632, 7090.101
890.903, 6718.106
892.174, 7548.160
893.444, 8066.245
894.715, 8645.371
895.985, 10754.539
897.255, 11573.752
898.525, 14353.013
899.795, 17022.318
901.064, 18421.678
902.334, 21381.086
903.603, 20650.535
904.872, 19490.045
906.140, 18169.594
907.409, 14349.196
908.677, 12648.846
909.946, 10358.523
911.214, 8468.348
912.482, 7698.555
913.749, 6057.511
915.017, 5675.378
916.284, 4896.287
917.551, 4175.752
918.818, 4164.757
920.085, 3513.806
921.352, 3444.136
922.618, 3303.300
923.884, 2920.466
925.150, 2993.671
926.416, 2764.916
927.682, 2656.201
928.947, 2594.529
930.213, 2245.902
931.478, 2259.321
932.743, 1988.783
934.008, 1758.344
935.272, 1789.522
936.537, 1455.108
937.801, 1428.379
939.065, 1324.726
940.329, 1089.042
941.593, 1123.640
942.856, 961.388
944.119, 952.317
945.383, 909.120
946.646, 720.320
947.908, 770.413
949.171, 678.292
950.433, 610.089
951.696, 654.014
952.958, 502.960
954.220, 554.395
955.481, 467.385
956.743, 395.866
958.004, 467.375
959.265, 327.429
960.526, 345.726
961.787, 393.888
963.048, 270.004
964.308, 361.251
965.569, 218.408
966.829, 274.584
968.089, 263.181
969.348, 180.669
970.608, 296.345
971.867, 210.375
973.126, 190.194
974.385, 190.369
975.644, 167.291
976.903, 176.737
978.161, 161.407
979.420, 126.323
980.678, 189.210
981.936, 79.944
983.193, 127.291
984.451, 108.247
985.708, 60.030
986.966, 144.536
988.223, 59.041
989.479, 110.658
990.736, 146.264
991.993, 27.810
993.249, 101.497
994.505, 69.090
995.761, 38.659
997.017, 46.026
998.272, 30.624
999.528, 71.550
1000.783, 61.127
1002.038, 40.768
1003.293, 130.421
1004.548, 32.538
1005.802, 84.415
1007.057, 147.183
1008.311, 63.895
1009.565, 85.652
1010.818, 108.076
1012.072, 58.859
1013.326, 165.155
1014.579, 51.112
1015.832, 166.897
1017.085, 247.968
1018.338, 144.984
1019.590, 255.795
1020.842, 233.176
1022.095, 250.042
1023.347, 375.197
1024.599, 300.830
1025.850, 439.731
1027.102, 471.733
1028.353, 467.989
1029.604, 646.305
1030.855, 564.293
1032.106, 659.203
1033.356, 664.432
1034.607, 568.030
1035.857, 640.958
1037.107, 580.593
1038.357, 460.587
1039.607, 457.770
1040.856, 321.257
1042.106, 323.281
1043.355, 312.319
1044.604, 198.606
1045.852, 274.584
1047.101, 193.187
1048.350, 122.173
1049.598, 164.264
1050.846, 70.307
1052.094, 130.304
1053.342, 37.944
1054.589, 21.977
1055.837, 104.007
1057.084, 54.009
1058.331, 11.023
1059.578, 72.134
1060.824, 7.749
1062.071, 22.732
1063.317, 10.181
1064.563, 12.185
1065.809, 29.226
1067.055, 23.674
1068.301, 33.441
1069.546, 7.444
1070.791, 13.405
1072.036, 2.408
1073.281, 5.599
1074.526, 16.998
1075.771, 19.988
1077.015, 24.807
1078.259, 17.119
1079.503, 32.182
1080.747, 20.575
1081.991, 30.653
1083.234, 2.327
1084.478, 21.015
1085.721, 11.938
1086.964, 60.836
1088.206, 20.843
1089.449, 18.937
1090.691, 77.932
1091.934, 6.932
1093.176, 64.210
1094.418, 27.808
1095.659, 31.375
1096.901, 62.564
1098.142, 27.346
1099.384, 19.900
1100.625, 2.921
1101.865, 20.651
1103.106, 45.513
1104.347, 13.379
1105.587, 7.939
1106.827, 42.870
1108.067, 12.867
1109.307, 20.470
1110.546, 33.665
1111.786, 35.915
1113.025, 64.517
1114.264, 17.182
1115.503, 11.695
1116.742, 18.802
1117.980, 1.733
1119.219, 17.801
1120.457, 38.262
1121.695, 17.856
1122.933, 22.458
1124.171, 17.351
1125.408, 8.725
1126.645, 11.250
1127.883, 2.067
1129.120, 12.668
1130.356, 9.208
1131.593, 2.062
1132.829, 10.802
1134.066, 10.426
1135.302, 20.575
1136.538, 22.757
1137.773, 19.296
1139.009, 21.402
1140.244, 29.494
1141.480, 21.574
1142.715, 29.345
1143.950, 67.980
1145.184, 8.010
1146.419, 91.237
1147.653, 21.347
1148.887, 24.700
1150.121, 76.216
1151.355, 88.158
1152.589, 1.036
1153.822, 30.268
1155.056, 38.154
1156.289, 6.029
1157.522, 49.776
1158.755, 19.544
1159.987, 52.438
1161.220, 25.168
1162.452, 10.876
1163.684, 64.756
1164.916, 36.421
1166.148, 40.067
1167.379, 83.297
1168.611, 29.908
1169.842, 66.685
1171.073, 40.257
1172.304, 4.809
1173.534, 69.414
1174.765, 0.021
1175.995, 41.445
1177.225, 40.509
1178.455, 21.932
1179.685, 85.329
1180.915, 47.769
1182.144, 5.874
1183.374, 92.555
1184.603, 35.923
1185.832, 80.197
1187.060, 56.584
1188.289, 43.819
1189.518, 81.031
1190.746, 80.468
1191.974, 55.641
1193.202, 114.940
1194.430, 0.926
1195.657, 111.166
1196.884, 79.285
1198.112, 6.662
1199.339, 111.346
1200.566, 47.404
1201.792, 35.368
1203.019, 104.336
1204.245, 37.520
1205.471, 116.410
1206.697, 89.390
1207.923, 89.240
1209.149, 113.975
1210.374, 55.499
1211.600, 65.144
1212.825, 108.907
1214.050, 95.802
1215.275, 91.025
1216.499, 151.728
1217.724, 84.428
1218.948, 145.848
1220.172, 117.495
1221.396, 66.143
1222.620, 125.742
1223.843, 86.495
1225.067, 128.052
1226.290, 104.590
1227.513, 68.269
1228.736, 100.763
1229.959, 114.236
1231.181, 73.638
1232.404, 182.437
1233.626, 79.086
1234.848, 107.840
1236.070, 145.615
1237.291, 103.818
1238.513, 180.291
1239.734, 155.661
1240.955, 81.159
1242.177, 169.429
1243.397, 119.465
1244.618, 84.458
1245.838, 139.670
1247.059, 99.967
1248.279, 151.140
1249.499, 93.293
1250.719, 76.083
1251.938, 157.197
1253.158, 59.820
1254.377, 93.484
1255.596, 109.540
1256.815, 74.356
1258.034, 115.308
1259.253, 123.308
1260.471, 72.220
1261.689, 143.183
1262.907, 133.127
1264.125, 98.878
1265.343, 133.511
1266.561, 87.959
1267.778, 144.130
1268.995, 103.435
1270.212, 61.146
1271.429, 130.348
1272.646, 125.025
1273.862, 95.555
1275.079, 182.763
1276.295, 56.000
1277.511, 125.396
1278.727, 135.172
1279.943, 84.334
1281.158, 127.670
1282.373, 88.282
1283.589, 36.980
1284.804, 156.475
1286.019, 124.981
1287.233, 131.082
1288.448, 96.504
1289.662, 43.019
1290.876, 140.619
1292.090, 44.356
1293.304, 61.859
1294.518, 95.096
1295.731, 91.610
1296.944, 82.061
1298.158, 139.494
1299.371, 31.462
1300.583, 79.694
1301.796, 136.005
1303.008, 85.371
1304.221, 134.688
1305.433, 54.336
1306.645, 101.622
1307.856, 112.392
1309.068, 44.497
1310.280, 109.770
1311.491, 97.756
1312.702, 15.791
1313.913, 104.148
1315.124, 44.789
1316.334, 114.939
1317.545, 166.794
1318.755, 65.168
1319.965, 70.269
1321.175, 109.263
1322.385, 10.999
1323.594, 123.669
1324.804, 92.663
1326.013, 66.730
1327.222, 137.470
1328.431, 51.837
1329.639, 61.866
1330.848, 94.175
1332.056, 46.117
1333.265, 83.865
1334.473, 101.303
1335.680, 27.196
1336.888, 120.068
1338.096, 40.684
1339.303, 81.597
1340.510, 141.876
1341.717, 61.764
1342.924, 98.539
1344.131, 95.353
1345.337, 5.794
1346.544, 112.407
1347.750, 60.595
1348.956, 16.388
1350.162, 90.202
1351.367, 39.994
1352.573, 75.677
1353.778, 90.346
1354.983, 31.106
1356.188, 83.319
1357.393, 97.708
1358.598, 27.413
1359.802, 93.050
1361.007, 74.777
1362.211, 58.489
1363.415, 157.044
1364.619, 51.753
1365.822, 55.433
1367.026, 125.712
1368.229, 20.392
1369.432, 113.895
1370.635, 123.556
1371.838, 21.124
1373.041, 186.355
1374.243, 78.978
1375.446, 62.561
1376.648, 132.844
1377.850, 9.495
1379.052, 51.847
1380.253, 32.414
1381.455, 34.939
1382.656, 47.597
1383.857, 41.385
1385.058, 0.949
1386.259, 157.547
1387.459, 18.820
1388.660, 73.866
1389.860, 128.500
1391.060, 74.179
1392.260, 77.602
1393.460, 134.921
1394.660, 23.507
1395.859, 153.022
1397.059, 82.561
1398.258, 36.280
1399.457, 134.928
1400.655, 53.535
1401.854, 98.000
1403.052, 142.728
1404.251, 39.418
1405.449, 141.899
1406.647, 112.562
1407.845, 2.235
1409.042, 125.457
1410.240, 55.141
1411.437, 28.444
1412.634, 192.807
1413.831, 12.702
1415.028, 59.913
1416.224, 97.116
1417.421, 26.714
1418.617, 75.357
1419.813, 127.830
1421.009, 42.232
1422.205, 127.883
1423.401, 108.727
1424.596, 50.100
1425.791, 94.607
1426.986, 21.151
1428.181, 73.935
1429.376, 166.482
1430.571, 11.036
1431.765, 104.515
1432.960, 113.970
1434.154, 24.256
1435.348, 155.672
1436.541, 55.314
1437.735, 23.897
1438.929, 138.934
1440.122, 45.560
1441.315, 40.818
1442.508, 121.319
1443.701, 29.761
1444.893, 105.438
1446.086, 77.863
1447.278, 48.506
1448.470, 196.106
1449.662, 92.735
1450.854, 53.104
1452.046, 161.487
1453.237, 59.163
1454.428, 35.842
1455.619, 217.035
1456.810, 1.246
1458.001, 140.167
1459.192, 88.039
1460.382, 38.304
1461.573, 128.874
1462.763, 65.446
1463.953, 70.762
1465.143, 123.195
1466.332, 90.758
1467.522, 125.320
1468.711, 144.783
1469.900, 32.816
1471.089, 89.361
1472.278, 143.724
1473.467, 40.394
1474.655, 139.715
1475.843, 105.219
1477.032, 103.705
1478.220, 169.221
1479.407, 58.501
1480.595, 94.029
1481.783, 131.012
1482.970, 23.316
1484.157, 53.802
1485.344, 155.112
1486.531, 33.625
1487.718, 155.053
1488.904, 109.563
1490.090, 12.934
1491.277, 141.564
1492.463, 76.062
1493.648, 44.553
1494.834, 139.654
1496.020, 49.326
1497.205, 60.009
1498.390, 161.707
1499.575, 30.416
1500.760, 86.146
1501.945, 67.901
1503.129, 1.236
1504.314, 121.659
