##NAMES=Legrandite
##RRUFFID=R040151
##IDEAL CHEMISTRY=Zn^2+^_2_As^5+^O_4_(OH)&#183;H_2_O
##LOCALITY=Mapimi, Durango, Mexico
##OWNER=RRUFF
##SOURCE=University of Arizona Mineral Museum
##DESCRIPTION=Yellow crystal fragments; same material used in McLean et al. (1971) study
##STATUS=The identification of this mineral has been confirmed by X-ray diffraction and chemical analysis
##URL=rruff.info/R040151
##MEASURED CHEMISTRY=Zn_1.88_Fe^2+^_0.04_As_1.03_O_4_(OH)Â·H_2_O
##PIN_ID=M00379
##ORIENTATION=Laser parallel to (-1 0 -1). Fiducial mark perpendicular to laser is parallel to b [0 1 0]
56.488, 0.000
57.882, 1.637
59.275, 18.443
60.668, 25.209
62.061, 17.964
63.454, 39.109
64.846, 138.100
66.238, 154.728
67.630, 213.580
69.022, 201.990
70.413, 248.186
71.805, 111.878
73.196, 115.725
74.587, 137.169
75.978, 175.945
77.368, 214.456
78.758, 342.444
80.149, 556.383
81.538, 683.641
82.928, 568.507
84.318, 416.212
85.707, 396.942
87.096, 545.639
88.485, 948.396
89.873, 1095.855
91.262, 1064.893
92.650, 909.157
94.038, 888.827
95.426, 1052.371
96.813, 1107.761
98.201, 1153.313
99.588, 1362.021
100.975, 1669.882
102.362, 1784.893
103.748, 1462.050
105.135, 1062.348
106.521, 747.781
107.907, 618.344
109.292, 525.031
110.678, 504.834
112.063, 409.749
113.448, 323.772
114.833, 224.896
116.218, 160.207
117.602, 82.407
118.987, 48.773
120.371, 18.213
121.755, 0.275
123.138, 28.691
124.522, 38.643
125.905, 32.304
127.288, 60.504
128.671, 78.630
130.053, 100.684
131.436, 68.666
132.818, 62.574
134.200, 23.592
135.582, 89.834
136.963, 204.151
138.345, 312.544
139.726, 481.013
141.107, 731.563
142.488, 969.197
143.868, 1212.915
145.248, 1267.712
146.629, 1481.585
148.008, 1378.529
149.388, 1266.541
150.768, 1016.613
152.147, 810.743
153.526, 834.925
154.905, 789.158
156.284, 1159.438
157.662, 1315.756
159.040, 1188.099
160.418, 1308.467
161.796, 1390.859
163.174, 1792.278
164.551, 2191.723
165.929, 3078.198
167.306, 3225.701
168.683, 2999.235
170.059, 2574.799
171.436, 2002.383
172.812, 1707.947
174.188, 1271.453
175.564, 1192.875
176.939, 980.184
178.315, 828.446
179.690, 687.755
181.065, 499.111
182.440, 533.515
183.814, 369.967
185.188, 413.465
186.563, 443.010
187.937, 418.601
189.310, 394.238
190.684, 388.919
192.057, 502.645
193.430, 580.413
194.803, 785.224
196.176, 869.077
197.549, 870.973
198.921, 1066.918
200.293, 968.930
201.665, 1116.000
203.037, 1032.116
204.408, 1012.272
205.779, 980.469
207.150, 840.711
208.521, 927.011
209.892, 911.390
211.262, 1042.855
212.633, 1084.382
214.003, 1305.963
215.373, 1424.583
216.742, 1393.241
218.112, 1508.932
219.481, 1268.651
220.850, 1322.399
222.219, 1126.643
223.588, 1043.938
224.956, 1081.374
226.324, 1051.867
227.692, 1236.390
229.060, 1219.927
230.428, 1477.481
231.795, 1501.028
233.162, 1531.562
234.529, 1604.075
235.896, 1337.574
237.263, 1478.063
238.629, 1444.529
239.995, 1640.954
241.361, 1867.316
242.727, 2029.628
244.093, 2407.899
245.458, 2445.137
246.823, 2618.354
248.188, 2454.551
249.553, 2412.738
250.917, 2300.917
252.282, 2141.085
253.646, 2287.223
255.010, 2130.241
256.374, 2432.113
257.737, 2528.775
259.101, 2806.221
260.464, 3081.610
261.827, 3026.032
263.189, 3417.500
264.552, 3331.004
265.914, 3795.540
267.276, 4075.109
268.638, 4681.709
270.000, 5456.346
271.362, 5987.013
272.723, 7232.725
274.084, 7416.474
275.445, 7924.254
276.806, 7883.075
278.166, 7137.928
279.526, 7014.822
280.887, 5787.753
282.246, 5524.567
283.606, 4705.126
284.966, 4294.208
286.325, 4010.415
287.684, 3395.995
289.043, 3336.102
290.402, 2864.764
291.760, 2624.807
293.118, 2270.867
294.477, 1924.695
295.834, 1731.671
297.192, 1339.174
298.550, 1268.299
299.907, 1044.734
301.264, 998.201
302.621, 916.687
303.978, 828.205
305.334, 905.748
306.690, 741.316
308.046, 828.915
309.402, 754.532
310.758, 731.184
312.113, 789.852
313.469, 717.541
314.824, 869.244
316.179, 802.964
317.533, 855.701
318.888, 901.452
320.242, 849.217
321.596, 965.995
322.950, 845.787
324.304, 974.591
325.657, 863.409
327.010, 909.239
328.363, 928.081
329.716, 880.936
331.069, 951.803
332.421, 827.736
333.774, 962.626
335.126, 886.618
336.478, 837.530
337.829, 902.510
339.181, 796.006
340.532, 921.990
341.883, 880.221
343.234, 984.194
344.585, 1126.959
345.935, 1121.083
347.285, 1451.220
348.635, 1529.427
349.985, 1813.635
351.335, 2049.927
352.684, 2254.051
354.034, 2864.241
355.383, 2983.710
356.731, 3562.834
358.080, 3574.991
359.429, 3771.143
360.777, 3795.357
362.125, 3499.329
363.473, 3347.605
364.820, 2734.139
366.168, 2511.493
367.515, 2105.975
368.862, 1788.285
370.209, 1629.737
371.556, 1350.920
372.902, 1278.173
374.249, 1040.059
375.595, 1079.305
376.940, 1025.460
378.286, 945.703
379.632, 1128.861
380.977, 1079.314
382.322, 1360.503
383.667, 1465.752
385.012, 1617.196
386.356, 1981.378
387.700, 2005.873
389.044, 2457.085
390.388, 2543.359
391.732, 2748.096
393.075, 2952.417
394.419, 2764.429
395.762, 2917.603
397.105, 2480.028
398.447, 2337.102
399.790, 2086.347
401.132, 1633.272
402.474, 1552.521
403.816, 1202.493
405.158, 1050.768
406.499, 896.104
407.841, 758.657
409.182, 701.850
410.523, 539.023
411.864, 569.854
413.204, 442.061
414.544, 474.333
415.884, 380.519
417.224, 361.298
418.564, 437.477
419.904, 323.023
421.243, 421.726
422.582, 419.885
423.921, 402.115
425.260, 396.726
426.598, 332.276
427.937, 365.856
429.275, 276.170
430.613, 222.554
431.951, 267.672
433.288, 181.097
434.625, 159.819
435.963, 95.524
437.300, 130.038
438.636, 76.849
439.973, 34.345
441.309, 49.395
442.646, 16.121
443.981, 39.345
445.317, 11.746
446.653, 41.305
447.988, 7.854
449.323, 23.164
450.658, 163.688
451.993, 130.289
453.328, 174.109
454.662, 258.150
455.996, 233.469
457.331, 302.828
458.664, 221.720
459.998, 297.743
461.331, 317.527
462.665, 235.792
463.998, 264.919
465.330, 205.556
466.663, 240.083
467.996, 214.386
469.328, 168.837
470.660, 236.806
471.992, 164.034
473.323, 195.784
474.655, 192.812
475.986, 140.108
477.317, 141.533
478.648, 85.520
479.979, 136.493
481.309, 74.452
482.640, 112.397
483.970, 108.329
485.300, 68.245
486.629, 148.147
487.959, 68.035
489.288, 60.908
490.617, 80.766
491.946, 36.609
493.275, 76.437
494.603, 29.249
495.932, 82.046
497.260, 38.826
498.588, 18.409
499.916, 44.325
501.243, 44.957
502.571, 54.716
503.898, 4.627
505.225, 24.006
506.552, 23.621
507.878, 16.218
509.205, 17.797
510.531, 11.358
511.857, 37.900
513.183, 24.425
514.508, 12.068
515.834, 45.408
517.159, 38.133
518.484, 21.719
519.809, 22.341
521.133, 50.000
522.458, 6.710
523.782, 26.448
525.106, 16.773
526.430, 25.025
527.754, 22.139
529.077, 12.283
530.400, 3.594
531.723, 33.501
533.046, 1.578
534.369, 36.629
535.692, 71.661
537.014, 38.677
538.336, 75.673
539.658, 14.652
540.980, 52.610
542.301, 38.551
543.623, 15.472
544.944, 54.374
546.265, 13.257
547.585, 46.119
548.906, 30.962
550.226, 26.213
551.547, 23.571
552.867, 1.335
554.186, 52.072
555.506, 5.208
556.825, 15.518
558.145, 32.135
559.464, 2.771
560.783, 29.380
562.101, 1.970
563.420, 24.535
564.738, 19.080
566.056, 7.395
567.374, 38.099
568.692, 1.425
570.009, 4.023
571.326, 31.445
572.643, 19.150
573.960, 34.217
575.277, 4.566
576.594, 33.890
577.910, 9.196
579.226, 10.520
580.542, 36.731
581.858, 35.035
583.173, 7.153
584.489, 8.318
585.804, 7.461
587.119, 14.582
588.434, 6.318
589.748, 2.247
591.063, 39.204
592.377, 28.208
593.691, 3.748
595.005, 41.320
596.318, 14.436
597.632, 41.585
598.945, 34.781
600.258, 14.021
601.571, 22.293
602.884, 17.602
604.196, 20.304
605.508, 44.431
606.821, 24.855
608.132, 60.317
609.444, 45.833
610.756, 65.397
612.067, 69.019
613.378, 25.700
614.689, 58.417
616.000, 67.188
617.311, 38.016
618.621, 34.886
619.931, 5.204
621.241, 41.724
622.551, 18.696
623.861, 17.697
625.170, 46.728
626.479, 1.802
627.788, 58.896
629.097, 0.959
630.406, 9.203
631.714, 5.613
633.023, 2.587
634.331, 5.804
635.639, 33.959
636.946, 9.708
638.254, 10.443
639.561, 47.166
640.868, 30.875
642.175, 113.571
643.482, 82.254
644.789, 144.925
646.095, 156.583
647.401, 190.229
648.707, 235.863
650.013, 254.430
651.319, 253.040
652.624, 336.549
653.929, 332.136
655.234, 417.658
656.539, 403.663
657.844, 486.181
659.148, 513.454
660.453, 420.989
661.757, 519.731
663.061, 396.117
664.364, 390.491
665.668, 351.796
666.971, 324.102
668.274, 298.325
669.577, 204.717
670.880, 210.043
672.183, 207.092
673.485, 160.487
674.787, 202.849
676.089, 130.218
677.391, 184.524
678.693, 138.074
679.994, 133.320
681.296, 147.309
682.597, 114.477
683.898, 145.520
685.198, 134.733
686.499, 148.806
687.799, 228.148
689.099, 139.420
690.399, 197.059
691.699, 150.339
692.998, 169.709
694.298, 214.991
695.597, 195.356
696.896, 227.428
698.195, 192.765
699.493, 181.041
700.792, 281.120
702.090, 179.461
703.388, 213.487
704.686, 248.792
705.984, 212.033
707.281, 300.812
708.578, 269.008
709.876, 206.509
711.172, 254.852
712.469, 216.941
713.766, 303.379
715.062, 237.648
716.358, 303.236
717.654, 250.498
718.950, 232.035
720.246, 334.269
721.541, 269.441
722.836, 256.395
724.131, 361.710
725.426, 248.045
726.721, 336.722
728.015, 298.022
729.310, 333.259
730.604, 327.582
731.898, 328.313
733.191, 364.647
734.485, 325.617
735.778, 375.434
737.071, 388.800
738.364, 363.099
739.657, 441.021
740.950, 404.010
742.242, 397.972
743.535, 490.204
744.827, 463.371
746.118, 583.809
747.410, 533.943
748.702, 514.787
749.993, 565.652
751.284, 541.713
752.575, 657.483
753.866, 604.572
755.156, 639.111
756.447, 714.979
757.737, 608.365
759.027, 703.080
760.316, 722.663
761.606, 760.767
762.896, 843.136
764.185, 743.312
765.474, 951.442
766.763, 900.380
768.051, 930.127
769.340, 1016.635
770.628, 994.131
771.916, 1165.132
773.204, 1186.009
774.492, 1332.128
775.780, 1484.774
777.067, 1593.562
778.354, 1869.849
779.641, 1991.248
780.928, 2146.876
782.215, 2498.370
783.501, 2386.349
784.787, 2738.082
786.073, 2858.300
787.359, 2798.246
788.645, 3073.927
789.930, 2892.489
791.216, 3051.492
792.501, 3146.524
793.786, 2926.575
795.071, 3182.653
796.355, 3084.749
797.640, 3101.864
798.924, 3060.005
800.208, 2936.171
801.492, 3056.367
802.775, 2798.589
804.059, 2907.830
805.342, 3009.098
806.625, 2887.388
807.908, 3221.698
809.191, 3106.030
810.474, 3300.385
811.756, 3462.775
813.038, 3282.186
814.320, 3670.635
815.602, 3651.111
816.884, 3769.626
818.165, 4082.167
819.446, 4075.729
820.727, 4571.319
822.008, 4850.938
823.289, 5021.582
824.569, 5547.254
825.850, 5546.962
827.130, 6117.703
828.410, 6226.465
829.690, 6476.276
830.969, 6942.119
832.249, 7040.001
833.528, 7719.924
834.807, 8112.878
836.086, 8481.869
837.364, 9810.929
838.643, 9679.981
839.921, 10929.062
841.199, 11648.378
842.477, 11707.512
843.755, 13046.708
845.033, 13316.235
846.310, 14045.451
847.587, 14854.695
848.864, 14804.164
850.141, 17073.486
851.418, 17383.312
852.694, 19572.656
853.971, 22082.266
855.247, 24121.809
856.523, 30051.227
857.798, 33340.777
859.074, 38800.254
860.349, 44780.359
861.624, 44550.938
862.899, 45800.488
864.174, 40221.051
865.449, 32750.662
866.723, 27320.299
867.998, 20721.010
869.272, 16880.705
870.545, 14020.425
871.819, 11070.170
873.093, 10159.944
874.366, 8449.745
875.639, 7702.566
876.912, 7085.417
878.185, 6229.294
879.458, 6025.200
880.730, 5580.135
882.002, 5176.092
883.274, 4985.087
884.546, 4540.104
885.818, 4616.149
887.090, 4339.218
888.361, 4236.312
889.632, 4594.438
890.903, 4431.586
892.174, 4819.772
893.444, 5353.984
894.715, 5717.222
895.985, 6776.488
897.255, 7427.781
898.525, 8951.102
899.795, 10401.455
901.064, 11312.048
902.334, 12882.471
903.603, 12123.413
904.872, 11373.923
906.140, 10594.444
907.409, 8425.002
908.677, 7464.718
909.946, 6118.669
911.214, 5105.136
912.482, 4617.090
913.749, 3678.196
915.017, 3442.061
916.284, 3039.967
917.551, 2687.040
918.818, 2592.906
920.085, 2239.815
921.352, 2227.116
922.618, 2071.099
923.884, 1866.260
925.150, 1919.324
926.416, 1743.422
927.682, 1665.240
928.947, 1707.392
930.213, 1432.324
931.478, 1507.536
932.743, 1359.776
934.008, 1206.018
935.272, 1153.315
936.537, 1041.286
937.801, 999.419
939.065, 962.832
940.329, 794.227
941.593, 833.610
942.856, 712.048
944.119, 649.900
945.383, 650.374
946.646, 540.564
947.908, 552.214
949.171, 471.771
950.433, 449.998
951.696, 445.425
952.958, 353.563
954.220, 394.591
955.481, 318.201
956.743, 280.581
958.004, 281.382
959.265, 212.053
960.526, 245.205
961.787, 259.530
963.048, 180.467
964.308, 187.368
965.569, 131.721
966.829, 127.973
968.089, 153.627
969.348, 90.676
970.608, 133.669
971.867, 111.217
973.126, 99.657
974.385, 99.086
975.644, 106.333
976.903, 75.618
978.161, 80.138
979.420, 71.058
980.678, 92.112
981.936, 24.057
983.193, 52.542
984.451, 26.992
985.708, 28.304
986.966, 65.546
988.223, 4.475
989.479, 41.149
990.736, 59.726
991.993, 16.266
993.249, 37.383
994.505, 2.467
995.761, 22.050
997.017, 12.979
998.272, 2.681
999.528, 15.238
1000.783, 2.053
1002.038, 27.628
1003.293, 5.600
1004.548, 16.197
1005.802, 11.080
1007.057, 5.065
1008.311, 8.742
1009.565, 14.566
1010.818, 29.965
1012.072, 42.152
1013.326, 3.112
1014.579, 39.633
1015.832, 4.442
1017.085, 31.593
1018.338, 40.271
1019.590, 55.215
1020.842, 4.687
1022.095, 33.848
1023.347, 42.400
1024.599, 40.556
1025.850, 69.734
1027.102, 90.880
1028.353, 51.060
1029.604, 76.593
1030.855, 74.014
1032.106, 88.208
1033.356, 129.228
1034.607, 117.354
1035.857, 166.486
1037.107, 93.934
1038.357, 40.176
1039.607, 97.413
1040.856, 62.550
1042.106, 69.769
1043.355, 45.230
1044.604, 31.534
1045.852, 50.892
1047.101, 11.891
1048.350, 9.079
1049.598, 16.374
1050.846, 7.002
1052.094, 31.117
1053.342, 14.546
1054.589, 0.803
1055.837, 29.911
1057.084, 21.164
1058.331, 2.734
1059.578, 49.271
1060.824, 39.147
1062.071, 6.032
1063.317, 29.958
1064.563, 23.890
1065.809, 0.874
1067.055, 43.763
1068.301, 11.226
1069.546, 30.551
1070.791, 5.406
1072.036, 19.563
1073.281, 54.090
1074.526, 6.841
1075.771, 26.765
1077.015, 10.238
1078.259, 18.666
1079.503, 10.372
1080.747, 15.680
1081.991, 30.555
1083.234, 29.387
1084.478, 9.495
1085.721, 22.672
1086.964, 7.686
1088.206, 9.122
1089.449, 28.944
1090.691, 9.103
1091.934, 26.670
1093.176, 30.484
1094.418, 18.259
1095.659, 17.990
1096.901, 9.913
1098.142, 14.599
1099.384, 15.725
1100.625, 2.049
1101.865, 28.417
1103.106, 9.818
1104.347, 37.757
1105.587, 13.679
1106.827, 15.586
1108.067, 22.111
1109.307, 9.623
1110.546, 7.256
1111.786, 2.266
1113.025, 19.297
1114.264, 9.738
1115.503, 4.838
1116.742, 26.400
1117.980, 0.040
1119.219, 23.296
1120.457, 10.655
1121.695, 4.043
1122.933, 15.231
1124.171, 0.487
1125.408, 31.283
1126.645, 16.109
1127.883, 38.285
1129.120, 25.561
1130.356, 40.629
1131.593, 0.727
1132.829, 22.799
1134.066, 27.917
1135.302, 6.951
1136.538, 51.960
1137.773, 21.909
1139.009, 2.883
1140.244, 55.915
1141.480, 23.637
1142.715, 12.568
1143.950, 32.565
1145.184, 62.098
1146.419, 25.127
1147.653, 55.956
1148.887, 3.433
1150.121, 36.472
1151.355, 45.735
1152.589, 48.482
1153.822, 58.702
1155.056, 55.740
1156.289, 52.650
1157.522, 46.388
1158.755, 40.050
1159.987, 28.162
1161.220, 49.740
1162.452, 51.343
1163.684, 86.416
1164.916, 64.007
1166.148, 69.690
1167.379, 40.223
1168.611, 41.741
1169.842, 66.373
1171.073, 39.854
1172.304, 71.314
1173.534, 67.845
1174.765, 77.272
1175.995, 70.681
1177.225, 44.198
1178.455, 50.571
1179.685, 71.963
1180.915, 28.299
1182.144, 90.612
1183.374, 91.328
1184.603, 52.607
1185.832, 69.866
1187.060, 71.163
1188.289, 94.386
1189.518, 75.592
1190.746, 54.806
1191.974, 75.974
1193.202, 57.250
1194.430, 33.445
1195.657, 86.550
1196.884, 70.252
1198.112, 49.321
1199.339, 107.165
1200.566, 67.197
1201.792, 65.718
1203.019, 122.687
1204.245, 75.661
1205.471, 128.615
1206.697, 58.506
1207.923, 94.116
1209.149, 90.208
1210.374, 99.049
1211.600, 95.529
1212.825, 117.269
1214.050, 81.976
1215.275, 125.545
1216.499, 54.341
1217.724, 89.117
1218.948, 120.526
1220.172, 52.311
1221.396, 122.894
1222.620, 125.599
1223.843, 84.339
1225.067, 131.320
1226.290, 87.974
1227.513, 67.955
1228.736, 126.574
1229.959, 66.176
1231.181, 92.791
1232.404, 125.357
1233.626, 65.655
1234.848, 98.420
1236.070, 93.010
1237.291, 69.586
1238.513, 134.102
1239.734, 84.694
1240.955, 99.747
1242.177, 96.181
1243.397, 60.902
1244.618, 114.162
1245.838, 120.516
1247.059, 94.364
1248.279, 121.852
1249.499, 104.626
1250.719, 109.513
1251.938, 114.818
1253.158, 22.352
1254.377, 114.468
1255.596, 107.713
1256.815, 62.478
1258.034, 149.071
1259.253, 68.052
1260.471, 99.186
1261.689, 135.751
1262.907, 82.417
1264.125, 90.681
1265.343, 93.551
1266.561, 79.514
1267.778, 111.883
1268.995, 93.358
1270.212, 110.844
1271.429, 96.511
1272.646, 41.137
1273.862, 79.575
1275.079, 105.562
1276.295, 60.415
1277.511, 107.372
1278.727, 93.787
1279.943, 61.234
1281.158, 108.817
1282.373, 81.467
1283.589, 75.378
1284.804, 100.640
1286.019, 52.945
1287.233, 111.908
1288.448, 68.133
1289.662, 38.852
1290.876, 109.302
1292.090, 34.134
1293.304, 90.350
1294.518, 76.118
1295.731, 34.777
1296.944, 139.252
1298.158, 115.858
1299.371, 22.484
1300.583, 39.269
1301.796, 58.941
1303.008, 31.552
1304.221, 100.044
1305.433, 45.369
1306.645, 76.343
1307.856, 74.854
1309.068, 7.369
1310.280, 61.055
1311.491, 34.659
1312.702, 55.269
1313.913, 106.531
1315.124, 32.762
1316.334, 65.296
1317.545, 79.434
1318.755, 42.960
1319.965, 69.457
1321.175, 89.979
1322.385, 33.460
1323.594, 127.690
1324.804, 52.917
1326.013, 76.362
1327.222, 98.422
1328.431, 4.918
1329.639, 90.401
1330.848, 62.560
1332.056, 46.918
1333.265, 87.271
1334.473, 74.716
1335.680, 53.071
1336.888, 120.175
1338.096, 28.507
1339.303, 42.616
1340.510, 128.155
1341.717, 2.505
1342.924, 115.719
1344.131, 81.675
1345.337, 55.053
1346.544, 98.203
1347.750, 72.329
1348.956, 65.686
1350.162, 69.938
1351.367, 35.280
1352.573, 49.251
1353.778, 115.109
1354.983, 10.390
1356.188, 86.701
1357.393, 58.999
1358.598, 10.675
1359.802, 90.546
1361.007, 66.867
1362.211, 70.844
1363.415, 166.131
1364.619, 40.439
1365.822, 127.360
1367.026, 56.672
1368.229, 36.979
1369.432, 147.204
1370.635, 101.506
1371.838, 26.720
1373.041, 139.829
1374.243, 77.161
1375.446, 102.243
1376.648, 96.518
1377.850, 3.208
1379.052, 43.896
1380.253, 20.230
1381.455, 46.525
1382.656, 52.579
1383.857, 15.909
1385.058, 81.093
1386.259, 112.364
1387.459, 67.072
1388.660, 59.685
1389.860, 113.025
1391.060, 9.339
1392.260, 92.694
1393.460, 100.292
1394.660, 60.630
1395.859, 110.815
1397.059, 47.027
1398.258, 112.307
1399.457, 105.654
1400.655, 61.957
1401.854, 125.309
1403.052, 63.452
1404.251, 11.821
1405.449, 100.130
1406.647, 51.457
1407.845, 72.860
1409.042, 120.262
1410.240, 29.571
1411.437, 79.791
1412.634, 118.990
1413.831, 58.397
1415.028, 116.636
1416.224, 81.738
1417.421, 25.947
1418.617, 114.135
1419.813, 37.419
1421.009, 78.218
1422.205, 130.409
1423.401, 64.734
1424.596, 52.937
1425.791, 127.200
1426.986, 45.576
1428.181, 87.779
1429.376, 132.098
1430.571, 12.879
1431.765, 136.246
1432.960, 42.534
1434.154, 35.861
1435.348, 97.042
1436.541, 19.319
1437.735, 67.762
1438.929, 140.131
1440.122, 18.509
1441.315, 53.890
1442.508, 79.121
1443.701, 13.134
1444.893, 149.509
1446.086, 72.225
1447.278, 56.582
1448.470, 173.871
1449.662, 66.237
1450.854, 76.513
1452.046, 154.718
1453.237, 54.089
1454.428, 116.465
1455.619, 125.095
1456.810, 15.375
1458.001, 111.410
1459.192, 61.682
1460.382, 70.952
1461.573, 212.895
1462.763, 46.165
1463.953, 30.441
1465.143, 176.717
1466.332, 1.008
1467.522, 146.266
1468.711, 130.269
1469.900, 12.468
1471.089, 184.698
1472.278, 87.953
1473.467, 63.205
1474.655, 160.339
1475.843, 88.591
1477.032, 113.853
1478.220, 146.114
1479.407, 35.373
1480.595, 108.630
1481.783, 103.631
1482.970, 53.885
1484.157, 114.953
1485.344, 100.222
1486.531, 4.289
1487.718, 141.280
1488.904, 64.551
1490.090, 32.840
1491.277, 154.125
1492.463, 9.409
1493.648, 64.698
1494.834, 121.051
1496.020, 14.434
1497.205, 95.107
1498.390, 88.665
1499.575, 23.746
1500.760, 107.228
1501.945, 64.758
1503.129, 61.310
1504.314, 117.887
1505.498, 13.489
1506.682, 73.126
1507.866, 167.808
1509.049, 51.073
1510.233, 88.845
1511.416, 108.668
