##NAMES=Legrandite
##RRUFFID=R040151
##IDEAL CHEMISTRY=Zn^2+^_2_As^5+^O_4_(OH)&#183;H_2_O
##LOCALITY=Mapimi, Durango, Mexico
##OWNER=RRUFF
##SOURCE=University of Arizona Mineral Museum
##DESCRIPTION=Yellow crystal fragments; same material used in McLean et al. (1971) study
##STATUS=The identification of this mineral has been confirmed by X-ray diffraction and chemical analysis
##URL=rruff.info/R040151
##MEASURED CHEMISTRY=Zn_1.88_Fe^2+^_0.04_As_1.03_O_4_(OH)Â·H_2_O
##PIN_ID=M00409
##ORIENTATION=Laser parallel to -c* (0 0 -1). Fiducial mark perpendicular to laser is parallel to b [0 1 0]
56.488, 0.000
57.882, 0.884
59.275, 14.551
60.668, 23.041
62.061, 16.829
63.454, 33.755
64.846, 100.631
66.238, 44.269
67.630, 76.239
69.022, 48.943
70.413, 9.690
71.805, 13.275
73.196, 18.215
74.587, 1.211
75.978, 16.249
77.368, 85.133
78.758, 234.407
80.149, 354.036
81.538, 496.989
82.928, 521.241
84.318, 461.773
85.707, 388.569
87.096, 473.612
88.485, 547.885
89.873, 519.377
91.262, 472.074
92.650, 288.964
94.038, 217.037
95.426, 156.323
96.813, 93.807
98.201, 109.439
99.588, 143.209
100.975, 241.104
102.362, 261.115
103.748, 192.231
105.135, 176.450
106.521, 75.773
107.907, 112.209
109.292, 131.760
110.678, 312.420
112.063, 483.185
113.448, 696.047
114.833, 1151.003
116.218, 1607.047
117.602, 2330.177
118.987, 2205.386
120.371, 1928.676
121.755, 1463.039
123.138, 1377.475
124.522, 1507.981
125.905, 1667.554
127.288, 2124.191
128.671, 2396.893
130.053, 3313.654
131.436, 4359.474
132.818, 5724.351
134.200, 7288.297
135.582, 7129.247
136.963, 6740.249
138.345, 5237.299
139.726, 4076.389
141.107, 3151.486
142.488, 2551.592
143.868, 2267.701
145.248, 1801.817
146.629, 1698.935
148.008, 1375.049
149.388, 1031.171
150.768, 667.311
152.147, 416.501
153.526, 322.775
154.905, 168.165
156.284, 253.691
157.662, 231.362
159.040, 371.148
160.418, 539.005
161.796, 778.900
163.174, 1308.823
164.551, 1664.761
165.929, 2509.712
167.306, 2711.678
168.683, 2837.660
170.059, 2503.660
171.436, 1958.676
172.812, 1526.710
174.188, 1078.762
175.564, 936.833
176.939, 605.923
178.315, 547.032
179.690, 495.160
181.065, 615.308
182.440, 881.474
183.814, 1021.659
185.188, 1393.863
186.563, 1323.086
187.937, 1163.327
189.310, 891.586
190.684, 709.864
192.057, 781.159
193.430, 776.471
194.803, 1049.801
196.176, 1032.146
197.549, 1020.508
198.921, 965.886
200.293, 744.278
201.665, 659.685
203.037, 390.107
204.408, 339.542
205.779, 197.990
207.150, 72.451
208.521, 51.924
209.892, 53.591
211.262, 22.906
212.633, 4.413
214.003, 130.932
215.373, 136.460
216.742, 220.989
218.112, 281.527
219.481, 198.074
220.850, 328.630
222.219, 247.262
223.588, 372.790
224.956, 427.365
226.324, 502.917
227.692, 662.467
229.060, 735.955
230.428, 1010.413
231.795, 1055.929
233.162, 1100.503
234.529, 1030.132
235.896, 929.856
237.263, 951.586
238.629, 870.328
239.995, 1143.124
241.361, 1298.988
242.727, 1624.894
244.093, 2002.838
245.458, 1937.143
246.823, 2065.967
248.188, 1722.589
249.553, 1621.583
250.917, 1353.232
252.282, 1144.249
253.646, 1069.838
255.010, 927.240
256.374, 1010.979
257.737, 951.195
259.101, 1046.571
260.464, 1038.675
261.827, 831.152
263.189, 771.250
264.552, 526.647
265.914, 471.051
267.276, 290.506
268.638, 276.035
270.000, 249.535
271.362, 166.054
272.723, 231.596
274.084, 174.166
275.445, 237.756
276.806, 263.378
278.166, 322.016
279.526, 497.682
280.887, 479.372
282.246, 791.076
283.606, 779.810
284.966, 1123.559
286.325, 1337.334
287.684, 1439.126
289.043, 1660.937
290.402, 1566.771
291.760, 1604.621
293.118, 1357.492
294.477, 1292.380
295.834, 1265.283
297.192, 1060.202
298.550, 1133.123
299.907, 1024.059
301.264, 1122.010
302.621, 1070.972
303.978, 1148.948
305.334, 1347.932
306.690, 1263.930
308.046, 1537.933
309.402, 1433.942
310.758, 1484.957
312.113, 1486.978
313.469, 1314.009
314.824, 1422.050
316.179, 1125.102
317.533, 1211.160
318.888, 1122.225
320.242, 1074.300
321.596, 1115.378
322.950, 946.457
324.304, 1084.537
325.657, 916.619
327.010, 1050.706
328.363, 981.792
329.716, 897.879
331.069, 909.966
332.421, 743.053
333.774, 802.139
335.126, 575.225
336.478, 480.309
337.829, 402.393
339.181, 230.475
340.532, 235.556
341.883, 135.636
343.234, 104.714
344.585, 94.789
345.935, 66.863
347.285, 106.934
348.635, 84.002
349.985, 142.068
351.335, 188.131
352.684, 254.191
354.034, 427.248
355.383, 459.301
356.731, 691.351
358.080, 715.397
359.429, 857.438
360.777, 820.476
362.125, 738.510
363.473, 712.539
364.820, 545.563
366.168, 577.583
367.515, 387.597
368.862, 356.607
370.209, 371.611
371.556, 259.610
372.902, 346.650
374.249, 275.638
375.595, 357.620
376.940, 371.596
378.286, 383.565
379.632, 515.529
380.977, 422.486
382.322, 550.436
383.667, 475.380
385.012, 448.322
386.356, 443.262
387.700, 355.200
389.044, 441.137
390.388, 273.071
391.732, 350.003
393.075, 290.933
394.419, 268.861
395.762, 277.787
397.105, 171.839
398.447, 217.917
399.790, 124.908
401.132, 78.070
402.474, 113.082
403.816, 51.538
405.158, 57.592
406.499, 2.355
407.841, 41.486
409.182, 5.411
410.523, 58.127
411.864, 35.697
413.204, 56.584
414.544, 48.667
415.884, 76.722
417.224, 81.131
418.564, 24.247
419.904, 73.681
421.243, 20.184
422.582, 24.864
423.921, 17.585
425.260, 61.299
426.598, 20.695
427.937, 65.405
429.275, 45.175
430.613, 110.959
431.951, 147.868
433.288, 130.153
434.625, 189.414
435.963, 117.267
437.300, 213.605
438.636, 187.806
439.973, 187.596
441.309, 222.549
442.646, 193.294
443.981, 280.092
445.317, 232.484
446.653, 301.183
447.988, 350.796
449.323, 388.464
450.658, 541.622
451.993, 511.515
453.328, 620.529
454.662, 709.034
455.996, 746.528
457.331, 945.630
458.664, 948.802
459.998, 1114.725
461.331, 1184.584
462.665, 1281.878
463.998, 1435.738
465.330, 1447.176
466.663, 1644.853
467.996, 1459.999
469.328, 1540.105
470.660, 1446.246
471.992, 1259.413
473.323, 1230.176
474.655, 1010.323
475.986, 931.416
477.317, 759.828
478.648, 659.219
479.979, 637.595
481.309, 498.563
482.640, 514.511
483.970, 462.430
485.300, 467.195
486.629, 448.825
487.959, 388.616
489.288, 430.313
490.617, 387.063
491.946, 428.722
493.275, 499.382
494.603, 428.002
495.932, 551.604
497.260, 517.186
498.588, 582.750
499.916, 652.293
501.243, 673.818
502.571, 843.324
503.898, 858.809
505.225, 1025.276
506.552, 1112.723
507.878, 1146.151
509.205, 1265.559
510.531, 1170.948
511.857, 1321.317
513.183, 1292.666
514.508, 1334.996
515.834, 1462.306
517.159, 1407.597
518.484, 1686.867
519.809, 1659.118
521.133, 1760.350
522.458, 1780.561
523.782, 1715.753
525.106, 1807.925
526.430, 1554.077
527.754, 1516.209
529.077, 1388.322
530.400, 1190.415
531.723, 1128.488
533.046, 867.545
534.369, 887.583
535.692, 748.600
537.014, 620.598
538.336, 598.577
539.658, 480.535
540.980, 481.474
542.301, 380.392
543.623, 327.291
544.944, 323.170
546.265, 228.029
547.585, 274.869
548.906, 173.688
550.226, 165.488
551.547, 166.267
552.867, 153.027
554.186, 139.767
555.506, 106.487
556.825, 100.186
558.145, 119.864
559.464, 82.521
560.783, 113.157
562.101, 56.771
563.420, 100.360
564.738, 98.929
566.056, 38.150
567.374, 80.865
568.692, 58.792
570.009, 45.358
571.326, 60.276
572.643, 21.833
573.960, 62.821
575.277, 22.002
576.594, 46.849
577.910, 15.222
579.226, 5.564
580.542, 4.084
581.858, 4.982
583.173, 24.492
584.489, 2.332
585.804, 37.171
587.119, 24.924
588.434, 17.058
589.748, 16.978
591.063, 10.008
592.377, 26.028
593.691, 4.090
595.005, 44.183
596.318, 5.672
597.632, 36.498
598.945, 23.714
600.258, 15.029
601.571, 54.248
602.884, 0.581
604.196, 37.941
605.508, 5.347
606.821, 22.782
608.132, 31.255
609.444, 11.770
610.756, 30.316
612.067, 22.903
613.378, 7.526
614.689, 17.932
616.000, 3.862
617.311, 16.572
618.621, 16.314
619.931, 8.087
621.241, 17.887
622.551, 4.282
623.861, 16.568
625.170, 19.552
626.479, 23.656
627.788, 11.685
629.097, 5.819
630.406, 6.124
631.714, 13.089
633.023, 13.080
634.331, 3.096
635.639, 3.615
636.946, 20.186
638.254, 5.732
639.561, 4.636
640.868, 5.526
642.175, 36.401
643.482, 12.735
644.789, 18.107
646.095, 37.936
647.401, 15.753
648.707, 68.558
650.013, 25.352
651.319, 56.134
652.624, 72.904
653.929, 73.664
655.234, 68.413
656.539, 49.151
657.844, 65.878
659.148, 68.595
660.453, 47.302
661.757, 91.999
663.061, 61.686
664.364, 72.363
665.668, 60.031
666.971, 54.689
668.274, 81.338
669.577, 35.978
670.880, 89.609
672.183, 88.231
673.485, 72.844
674.787, 132.449
676.089, 82.046
677.391, 108.635
678.693, 93.217
679.994, 123.791
681.296, 132.357
682.597, 116.916
683.898, 154.469
685.198, 140.015
686.499, 134.554
687.799, 163.088
689.099, 148.615
690.399, 205.136
691.699, 190.652
692.998, 199.161
694.298, 223.665
695.597, 163.162
696.896, 238.655
698.195, 206.143
699.493, 172.625
700.792, 267.103
702.090, 189.577
703.388, 261.046
704.686, 243.513
705.984, 232.977
707.281, 250.437
708.578, 221.897
709.876, 270.354
711.172, 241.811
712.469, 250.134
713.766, 267.429
715.062, 197.807
716.358, 277.013
717.654, 241.360
718.950, 228.260
720.246, 285.555
721.541, 242.844
722.836, 314.307
724.131, 269.543
725.426, 272.560
726.721, 315.405
728.015, 283.548
729.310, 329.861
730.604, 279.124
731.898, 299.709
733.191, 354.969
734.485, 291.531
735.778, 388.131
737.071, 312.892
738.364, 354.675
739.657, 404.838
740.950, 358.869
742.242, 399.790
743.535, 407.032
744.827, 412.251
746.118, 462.337
747.410, 413.042
748.702, 483.762
749.993, 487.882
751.284, 451.509
752.575, 540.265
753.866, 444.424
755.156, 515.411
756.447, 565.599
757.737, 500.725
759.027, 582.249
760.316, 492.457
761.606, 543.743
762.896, 553.967
764.185, 529.694
765.474, 598.678
766.763, 542.534
768.051, 547.891
769.340, 586.250
770.628, 506.993
771.916, 658.657
773.204, 581.563
774.492, 638.525
775.780, 662.044
777.067, 597.990
778.354, 742.348
779.641, 697.464
780.928, 783.102
782.215, 860.774
783.501, 842.404
784.787, 1032.001
786.073, 1023.999
787.359, 1115.605
788.645, 1318.259
789.930, 1353.586
791.216, 1614.927
792.501, 1735.279
793.786, 1923.031
795.071, 2381.797
796.355, 2532.586
797.640, 3024.524
798.924, 3263.593
800.208, 3467.494
801.492, 3960.488
802.775, 3786.421
804.059, 4125.438
805.342, 4027.457
806.625, 3804.511
807.908, 3930.578
809.191, 3436.656
810.474, 3490.761
811.756, 3417.880
813.038, 3059.019
814.320, 3346.170
815.602, 2986.334
816.884, 3023.512
818.165, 3261.710
819.446, 3085.921
820.727, 3559.147
822.008, 3503.386
823.289, 3881.638
824.569, 4126.903
825.850, 3946.188
827.130, 4535.495
828.410, 4180.825
829.690, 4357.168
830.969, 4539.613
832.249, 4372.989
833.528, 4875.429
834.807, 4803.837
836.086, 4947.262
837.364, 5617.919
838.643, 5395.384
839.921, 6344.862
841.199, 6630.657
842.477, 7037.166
843.755, 8090.816
845.033, 8312.358
846.310, 9760.949
847.587, 10690.538
848.864, 11480.135
850.141, 14209.768
851.418, 15069.521
852.694, 18879.166
853.971, 22368.893
855.247, 25688.600
856.523, 35158.535
857.798, 38738.477
859.074, 48638.559
860.349, 56318.555
861.624, 55148.883
862.899, 58059.086
864.174, 48129.418
865.449, 38989.254
866.723, 32139.256
867.998, 23469.508
869.272, 19759.387
870.545, 15609.288
871.819, 12749.996
873.093, 11899.924
874.366, 9839.898
875.639, 9549.856
876.912, 8959.838
878.185, 8296.832
879.458, 8594.845
880.730, 7685.876
882.002, 7322.924
883.274, 6779.000
884.546, 5768.102
885.818, 5611.215
887.090, 4648.344
888.361, 4231.492
889.632, 3982.749
890.903, 3320.945
892.174, 3477.164
893.444, 3043.402
894.715, 2851.670
895.985, 2947.963
897.255, 2593.272
898.525, 2811.607
899.795, 2691.548
901.064, 2461.957
902.334, 2679.359
903.603, 2249.784
904.872, 2206.392
906.140, 2004.867
907.409, 1660.372
908.677, 1615.927
909.946, 1370.475
911.214, 1186.057
912.482, 1226.658
913.749, 1043.291
915.017, 1057.945
916.284, 896.240
917.551, 865.021
918.818, 935.749
920.085, 742.505
921.352, 820.284
922.618, 758.084
923.884, 693.908
925.150, 709.750
926.416, 613.614
927.682, 600.500
928.947, 624.405
930.213, 539.332
931.478, 569.910
932.743, 493.874
934.008, 491.217
935.272, 462.239
936.537, 388.327
937.801, 399.315
939.065, 376.391
940.329, 307.759
941.593, 327.833
942.856, 277.921
944.119, 283.680
945.383, 278.804
946.646, 225.078
947.908, 235.876
949.171, 199.297
950.433, 200.942
951.696, 236.340
952.958, 155.817
954.220, 203.067
955.481, 142.293
956.743, 163.371
958.004, 189.336
959.265, 98.811
960.526, 150.081
961.787, 122.290
963.048, 66.194
964.308, 110.930
965.569, 44.261
966.829, 80.582
968.089, 89.335
969.348, 44.083
970.608, 96.544
971.867, 63.092
973.126, 54.461
974.385, 90.840
975.644, 58.227
976.903, 61.971
978.161, 26.238
979.420, 4.029
980.678, 39.452
981.936, 8.118
983.193, 17.551
984.451, 4.922
985.708, 18.541
986.966, 34.198
988.223, 14.980
989.479, 25.624
990.736, 2.318
991.993, 18.194
993.249, 17.847
994.505, 9.653
995.761, 4.626
997.017, 2.966
998.272, 0.779
999.528, 9.390
1000.783, 1.903
1002.038, 9.326
1003.293, 2.575
1004.548, 5.614
1005.802, 1.522
1007.057, 13.515
1008.311, 13.226
1009.565, 17.176
1010.818, 13.343
1012.072, 23.856
1013.326, 18.879
1014.579, 22.261
1015.832, 22.429
1017.085, 9.516
1018.338, 17.901
1019.590, 17.100
1020.842, 0.285
1022.095, 28.679
1023.347, 29.243
1024.599, 2.144
1025.850, 23.473
1027.102, 16.135
1028.353, 36.770
1029.604, 19.604
1030.855, 12.196
1032.106, 13.844
1033.356, 12.191
1034.607, 0.124
1035.857, 3.531
1037.107, 11.599
1038.357, 10.237
1039.607, 3.897
1040.856, 16.829
1042.106, 21.544
1043.355, 4.626
1044.604, 0.451
1045.852, 44.307
1047.101, 13.244
1048.350, 14.860
1049.598, 17.374
1050.846, 0.638
1052.094, 6.998
1053.342, 6.692
1054.589, 4.646
1055.837, 7.038
1057.084, 9.714
1058.331, 0.372
1059.578, 17.054
1060.824, 6.655
1062.071, 22.344
1063.317, 12.491
1064.563, 5.099
1065.809, 14.152
1067.055, 0.457
1068.301, 24.126
1069.546, 14.888
1070.791, 20.467
1072.036, 7.100
1073.281, 7.827
1074.526, 18.376
1075.771, 7.943
1077.015, 10.669
1078.259, 20.229
1079.503, 10.870
1080.747, 10.542
1081.991, 8.034
1083.234, 4.424
1084.478, 4.113
1085.721, 2.638
1086.964, 14.841
1088.206, 4.666
1089.449, 1.778
1090.691, 18.733
1091.934, 11.221
1093.176, 7.226
1094.418, 29.245
1095.659, 3.711
1096.901, 5.830
1098.142, 1.617
1099.384, 1.945
1100.625, 3.488
1101.865, 14.093
1103.106, 9.441
1104.347, 20.836
1105.587, 21.749
1106.827, 3.383
1108.067, 5.970
1109.307, 28.336
1110.546, 37.326
1111.786, 0.021
1113.025, 12.693
1114.264, 14.580
1115.503, 25.845
1116.742, 5.103
1117.980, 10.650
1119.219, 13.577
1120.457, 11.795
1121.695, 29.003
1122.933, 33.208
1124.171, 24.401
1125.408, 7.414
1126.645, 15.249
1127.883, 23.108
1129.120, 33.004
1130.356, 36.109
1131.593, 3.882
1132.829, 21.237
1134.066, 0.259
1135.302, 18.309
1136.538, 14.384
1137.773, 16.806
1139.009, 19.221
1140.244, 48.210
1141.480, 10.889
1142.715, 37.855
1143.950, 6.721
1145.184, 4.675
1146.419, 9.619
1147.653, 10.516
1148.887, 24.411
1150.121, 33.272
1151.355, 19.018
1152.589, 0.121
1153.822, 4.308
1155.056, 2.648
1156.289, 34.171
1157.522, 6.726
1158.755, 16.155
1159.987, 6.721
1161.220, 2.099
1162.452, 36.229
1163.684, 30.476
1164.916, 17.168
1166.148, 39.714
1167.379, 18.984
1168.611, 41.638
1169.842, 45.270
1171.073, 22.105
1172.304, 43.725
1173.534, 44.393
1174.765, 36.992
1175.995, 42.641
1177.225, 28.219
1178.455, 67.784
1179.685, 43.340
1180.915, 6.115
1182.144, 39.404
1183.374, 21.082
1184.603, 48.576
1185.832, 51.104
1187.060, 30.627
1188.289, 39.003
1189.518, 40.469
1190.746, 22.905
1191.974, 34.097
1193.202, 33.155
1194.430, 29.588
1195.657, 62.971
1196.884, 39.388
1198.112, 41.159
1199.339, 57.537
1200.566, 45.874
1201.792, 52.063
1203.019, 47.391
1204.245, 48.771
1205.471, 53.063
1206.697, 48.385
1207.923, 77.666
1209.149, 47.998
1210.374, 23.328
1211.600, 65.602
1212.825, 42.858
1214.050, 46.454
1215.275, 88.642
1216.499, 40.982
1217.724, 83.156
1218.948, 56.319
1220.172, 45.475
1221.396, 88.616
1222.620, 92.762
1223.843, 43.882
1225.067, 90.990
1226.290, 52.087
1227.513, 63.173
1228.736, 63.613
1229.959, 69.884
1231.181, 81.573
1232.404, 85.585
1233.626, 81.564
1234.848, 96.616
1236.070, 58.601
1237.291, 67.288
1238.513, 93.277
1239.734, 55.256
1240.955, 82.570
1242.177, 80.528
1243.397, 72.381
1244.618, 112.669
1245.838, 78.337
1247.059, 69.781
1248.279, 107.479
1249.499, 44.143
1250.719, 127.990
1251.938, 63.863
1253.158, 71.982
1254.377, 80.118
1255.596, 62.744
1256.815, 72.647
1258.034, 76.541
1259.253, 56.798
1260.471, 97.166
1261.689, 88.939
1262.907, 66.722
1264.125, 78.073
1265.343, 66.429
1266.561, 76.087
1267.778, 91.643
1268.995, 61.378
1270.212, 81.104
1271.429, 81.820
1272.646, 91.181
1273.862, 100.050
1275.079, 66.362
1276.295, 63.042
1277.511, 91.713
1278.727, 46.145
1279.943, 55.786
1281.158, 59.429
1282.373, 46.870
1283.589, 59.145
1284.804, 46.637
1286.019, 78.038
1287.233, 68.642
1288.448, 57.692
1289.662, 44.301
1290.876, 48.601
1292.090, 38.785
1293.304, 63.679
1294.518, 50.589
1295.731, 68.959
1296.944, 70.463
1298.158, 73.635
1299.371, 37.895
1300.583, 100.871
1301.796, 20.930
1303.008, 78.379
1304.221, 56.955
1305.433, 30.930
1306.645, 48.492
1307.856, 36.561
1309.068, 25.984
1310.280, 46.327
1311.491, 33.305
1312.702, 73.717
1313.913, 56.739
1315.124, 48.145
1316.334, 74.557
1317.545, 39.645
1318.755, 19.039
1319.965, 68.427
1321.175, 24.765
1322.385, 49.127
1323.594, 84.285
1324.804, 47.683
1326.013, 49.020
1327.222, 53.656
1328.431, 7.949
1329.639, 74.845
1330.848, 25.171
1332.056, 23.500
1333.265, 77.597
1334.473, 30.829
1335.680, 44.068
1336.888, 52.936
1338.096, 1.944
1339.303, 25.141
1340.510, 40.139
1341.717, 22.456
1342.924, 35.616
1344.131, 17.800
1345.337, 50.079
1346.544, 65.296
1347.750, 25.539
1348.956, 13.756
1350.162, 35.975
1351.367, 16.206
1352.573, 28.409
1353.778, 13.722
1354.983, 11.908
1356.188, 20.208
1357.393, 21.963
1358.598, 29.074
1359.802, 14.262
1361.007, 3.525
1362.211, 39.604
1363.415, 48.022
1364.619, 28.219
1365.822, 75.338
1367.026, 24.767
1368.229, 63.016
1369.432, 70.100
1370.635, 31.384
1371.838, 41.543
1373.041, 42.749
1374.243, 1.042
1375.446, 54.190
1376.648, 37.478
1377.850, 19.712
1379.052, 60.935
1380.253, 23.157
1381.455, 38.323
1382.656, 56.525
1383.857, 28.758
1385.058, 65.897
1386.259, 43.165
1387.459, 15.624
1388.660, 44.518
1389.860, 30.693
1391.060, 46.856
1392.260, 69.888
1393.460, 13.021
1394.660, 37.161
1395.859, 80.326
1397.059, 2.467
1398.258, 32.639
1399.457, 38.811
1400.655, 4.980
1401.854, 71.134
1403.052, 7.288
1404.251, 26.467
1405.449, 53.647
1406.647, 24.779
1407.845, 39.923
1409.042, 55.082
1410.240, 16.276
1411.437, 45.427
1412.634, 61.547
1413.831, 26.748
1415.028, 43.948
1416.224, 34.099
1417.421, 10.176
1418.617, 72.408
1419.813, 47.583
1421.009, 58.731
1422.205, 41.947
1423.401, 1.203
1424.596, 15.599
1425.791, 33.588
1426.986, 17.756
1428.181, 36.002
1429.376, 43.247
1430.571, 29.252
1431.765, 61.451
1432.960, 10.638
1434.154, 45.873
1435.348, 68.505
1436.541, 18.714
1437.735, 64.909
1438.929, 42.077
1440.122, 13.297
1441.315, 44.440
1442.508, 22.579
1443.701, 24.585
1444.893, 74.722
1446.086, 33.872
1447.278, 61.876
1448.470, 104.131
1449.662, 39.363
1450.854, 70.623
1452.046, 72.884
1453.237, 17.768
1454.428, 92.025
1455.619, 74.226
1456.810, 45.457
1458.001, 92.714
1459.192, 16.972
1460.382, 69.146
1461.573, 78.407
1462.763, 37.578
1463.953, 110.846
1465.143, 88.908
1466.332, 13.023
1467.522, 69.163
1468.711, 60.435
1469.900, 27.712
1471.089, 88.959
1472.278, 65.243
1473.467, 44.531
1474.655, 71.740
1475.843, 42.035
1477.032, 39.335
1478.220, 62.439
1479.407, 34.742
1480.595, 79.047
1481.783, 57.361
1482.970, 25.615
1484.157, 90.951
1485.344, 35.293
1486.531, 42.627
1487.718, 86.988
1488.904, 16.363
1490.090, 17.752
1491.277, 60.148
1492.463, 47.558
1493.648, 38.983
1494.834, 76.419
1496.020, 3.867
1497.205, 74.329
1498.390, 5.810
1499.575, 1.316
1500.760, 36.841
1501.945, 5.385
1503.129, 49.951
1504.314, 50.539
1505.498, 3.840
1506.682, 46.808
1507.866, 91.489
1509.049, 3.797
1510.233, 22.953
1511.416, 38.742
1512.600, 7.574
1513.783, 84.170
1514.966, 25.835
1516.148, 35.329
1517.331, 72.959
1518.513, 6.113
1519.695, 71.968
1520.878, 66.318
1522.059, 29.238
1523.241, 57.594
