##NAMES=Legrandite
##RRUFFID=R040151
##IDEAL CHEMISTRY=Zn^2+^_2_As^5+^O_4_(OH)&#183;H_2_O
##LOCALITY=Mapimi, Durango, Mexico
##OWNER=RRUFF
##SOURCE=University of Arizona Mineral Museum
##DESCRIPTION=Yellow crystal fragments; same material used in McLean et al. (1971) study
##STATUS=The identification of this mineral has been confirmed by X-ray diffraction and chemical analysis
##URL=rruff.info/R040151
##MEASURED CHEMISTRY=Zn_1.88_Fe^2+^_0.04_As_1.03_O_4_(OH)Â·H_2_O
##PIN_ID=M00409
##ORIENTATION=Laser parallel to -c* (0 0 -1). Fiducial mark perpendicular to laser is parallel to b [0 1 0]
56.488, 0.000
57.882, 1.595
59.275, 13.280
60.668, 16.604
62.061, 50.637
63.454, 79.731
64.846, 181.038
66.238, 186.130
67.630, 150.307
69.022, 129.250
70.413, 99.086
71.805, 127.506
73.196, 135.601
74.587, 229.440
75.978, 219.081
77.368, 201.568
78.758, 386.940
80.149, 681.227
81.538, 788.342
82.928, 745.427
84.318, 558.651
85.707, 581.760
87.096, 633.789
88.485, 780.815
89.873, 764.803
91.262, 743.770
92.650, 624.729
94.038, 577.693
95.426, 495.670
96.813, 352.667
98.201, 292.691
99.588, 458.743
100.975, 661.826
102.362, 641.942
103.748, 373.093
105.135, 164.487
106.521, 41.524
107.907, 53.670
109.292, 8.463
110.678, 104.710
112.063, 169.062
113.448, 149.513
114.833, 374.059
116.218, 597.697
117.602, 968.422
118.987, 844.164
120.371, 735.036
121.755, 444.989
123.138, 308.019
124.522, 386.118
125.905, 455.285
127.288, 791.518
128.671, 1007.815
130.053, 1557.175
131.436, 2140.596
132.818, 2921.075
134.200, 3768.613
135.582, 3691.207
136.963, 3591.854
138.345, 2707.555
139.726, 2094.299
141.107, 1557.064
142.488, 1311.861
143.868, 1243.694
145.248, 1033.564
146.629, 1016.472
148.008, 737.419
149.388, 549.403
150.768, 242.424
152.147, 45.484
153.526, 25.377
154.905, 142.115
156.284, 75.720
157.662, 62.250
159.040, 73.258
160.418, 167.792
161.796, 336.352
163.174, 767.938
164.551, 1072.530
165.929, 1735.076
167.306, 1886.644
168.683, 1882.238
170.059, 1595.859
171.436, 1136.506
172.812, 853.181
174.188, 441.883
175.564, 352.613
176.939, 86.371
178.315, 55.158
179.690, 14.026
181.065, 32.817
182.440, 260.689
183.814, 357.589
185.188, 517.516
186.563, 434.470
187.937, 381.445
189.310, 204.342
190.684, 54.217
192.057, 165.121
193.430, 130.051
194.803, 407.008
196.176, 400.991
197.549, 512.998
198.921, 528.030
200.293, 468.085
201.665, 529.159
203.037, 291.254
204.408, 361.371
205.779, 221.509
207.150, 86.667
208.521, 52.844
209.892, 48.040
211.262, 175.254
212.633, 137.485
214.003, 376.734
215.373, 314.998
216.742, 305.277
218.112, 326.572
219.481, 172.881
220.850, 225.203
222.219, 177.680
223.588, 145.339
224.956, 263.182
226.324, 338.138
227.692, 548.180
229.060, 602.288
230.428, 833.447
231.795, 770.648
233.162, 853.887
234.529, 799.155
235.896, 670.440
237.263, 703.740
238.629, 710.055
239.995, 1008.390
241.361, 1161.741
242.727, 1438.115
244.093, 1716.510
245.458, 1761.039
246.823, 1867.395
248.188, 1539.236
249.553, 1499.353
250.917, 1323.381
252.282, 1139.701
253.646, 1076.953
255.010, 928.924
256.374, 1059.139
257.737, 1006.661
259.101, 1036.929
260.464, 1013.420
261.827, 933.939
263.189, 1010.484
264.552, 774.058
265.914, 923.658
267.276, 894.284
268.638, 1156.936
270.000, 1265.600
271.362, 1405.395
272.723, 1734.246
274.084, 1700.500
275.445, 1978.090
276.806, 1868.715
278.166, 1852.366
279.526, 1813.049
280.887, 1618.757
282.246, 1688.493
283.606, 1570.261
284.966, 1659.044
286.325, 1612.862
287.684, 1593.704
289.043, 1608.567
290.402, 1417.459
291.760, 1326.374
293.118, 1087.315
294.477, 977.276
295.834, 834.261
297.192, 694.268
298.550, 741.295
299.907, 577.346
301.264, 689.411
302.621, 599.492
303.978, 592.586
305.334, 749.691
306.690, 661.810
308.046, 834.940
309.402, 711.077
310.758, 806.229
312.113, 766.387
313.469, 683.558
314.824, 758.734
316.179, 641.916
317.533, 695.149
318.888, 583.842
320.242, 586.584
321.596, 570.080
322.950, 501.277
324.304, 627.477
325.657, 516.678
327.010, 600.881
328.363, 517.084
329.716, 512.288
331.069, 571.492
332.421, 397.697
333.774, 426.901
335.126, 287.105
336.478, 310.308
337.829, 307.510
339.181, 199.711
340.532, 241.911
341.883, 115.109
343.234, 139.950
344.585, 117.143
345.935, 182.334
347.285, 229.523
348.635, 248.708
349.985, 361.890
351.335, 491.069
352.684, 628.244
354.034, 777.416
355.383, 914.584
356.731, 1138.749
358.080, 1137.909
359.429, 1273.064
360.777, 1237.215
362.125, 1097.361
363.473, 1024.502
364.820, 756.638
366.168, 715.768
367.515, 491.892
368.862, 414.010
370.209, 340.122
371.556, 238.227
372.902, 233.759
374.249, 203.417
375.595, 238.501
376.940, 261.578
378.286, 296.647
379.632, 452.709
380.977, 395.762
382.322, 570.807
383.667, 522.844
385.012, 598.876
386.356, 625.903
387.700, 653.183
389.044, 782.499
390.388, 681.938
391.732, 823.373
393.075, 800.771
394.419, 730.317
395.762, 763.766
397.105, 563.649
398.447, 555.538
399.790, 385.127
401.132, 309.555
402.474, 237.336
403.816, 119.178
405.158, 112.633
406.499, 6.715
407.841, 41.050
409.182, 11.374
410.523, 79.526
411.864, 13.494
413.204, 97.189
414.544, 47.118
415.884, 41.837
417.224, 28.358
418.564, 34.490
419.904, 10.325
421.243, 90.466
422.582, 66.205
423.921, 102.911
425.260, 168.824
426.598, 129.576
427.937, 202.979
429.275, 226.476
430.613, 277.759
431.951, 308.948
433.288, 337.443
434.625, 386.489
435.963, 358.274
437.300, 438.231
438.636, 410.039
439.973, 472.530
441.309, 477.191
442.646, 518.224
443.981, 633.010
445.317, 642.983
446.653, 818.703
447.988, 965.600
449.323, 1054.249
450.658, 1335.724
451.993, 1476.452
453.328, 1663.632
454.662, 1801.256
455.996, 1887.586
457.331, 1940.733
458.664, 1940.607
459.998, 1934.057
461.331, 1883.584
462.665, 1827.513
463.998, 1795.716
465.330, 1670.571
466.663, 1694.271
467.996, 1531.938
469.328, 1523.295
470.660, 1415.034
471.992, 1192.233
473.323, 1163.607
474.655, 984.752
475.986, 971.713
477.317, 899.709
478.648, 814.523
479.979, 850.500
481.309, 764.322
482.640, 830.140
483.970, 831.077
485.300, 943.669
486.629, 1036.398
487.959, 1060.934
489.288, 1224.440
490.617, 1249.959
491.946, 1303.409
493.275, 1318.831
494.603, 1172.225
495.932, 1190.589
497.260, 947.925
498.588, 910.232
499.916, 843.510
501.243, 789.759
502.571, 859.979
503.898, 818.172
505.225, 928.335
506.552, 905.469
507.878, 933.574
509.205, 987.650
510.531, 898.696
511.857, 998.712
513.183, 955.699
514.508, 1030.656
515.834, 1073.584
517.159, 1010.482
518.484, 1139.350
519.809, 1104.188
521.133, 1128.996
522.458, 1165.775
523.782, 1062.523
525.106, 1113.242
526.430, 988.930
527.754, 946.588
529.077, 853.217
530.400, 685.815
531.723, 688.383
533.046, 539.921
534.369, 536.429
535.692, 476.906
537.014, 388.353
538.336, 364.770
539.658, 245.157
540.980, 276.514
542.301, 216.840
543.623, 198.137
544.944, 200.403
546.265, 130.638
547.585, 119.842
548.906, 92.012
550.226, 91.148
551.547, 94.250
552.867, 75.318
554.186, 85.351
555.506, 17.350
556.825, 48.301
558.145, 66.213
559.464, 27.089
560.783, 50.922
562.101, 15.716
563.420, 24.463
564.738, 35.166
566.056, 4.714
567.374, 0.324
568.692, 12.304
570.009, 27.985
571.326, 18.733
572.643, 0.833
573.960, 10.644
575.277, 11.621
576.594, 3.157
577.910, 25.026
579.226, 35.672
580.542, 3.575
581.858, 35.530
583.173, 23.545
584.489, 21.619
585.804, 16.751
587.119, 18.936
588.434, 32.177
589.748, 15.480
591.063, 36.835
592.377, 14.254
593.691, 42.725
595.005, 46.261
596.318, 12.865
597.632, 40.519
598.945, 12.237
600.258, 35.003
601.571, 63.829
602.884, 19.270
604.196, 64.664
605.508, 20.673
606.821, 17.732
608.132, 47.840
609.444, 21.012
610.756, 45.234
612.067, 21.517
613.378, 33.849
614.689, 28.235
616.000, 32.673
617.311, 39.163
618.621, 9.710
619.931, 17.296
621.241, 6.925
622.551, 2.592
623.861, 17.292
625.170, 2.035
626.479, 4.191
627.788, 21.613
629.097, 12.542
630.406, 18.331
631.714, 8.758
633.023, 40.820
634.331, 23.858
635.639, 59.871
636.946, 19.859
638.254, 51.824
639.561, 46.764
640.868, 9.682
642.175, 89.574
643.482, 41.446
644.789, 105.294
646.095, 94.122
647.401, 64.929
648.707, 117.715
650.013, 97.481
651.319, 147.227
652.624, 154.952
653.929, 163.658
655.234, 188.345
656.539, 194.385
657.844, 199.662
659.148, 222.292
660.453, 210.904
661.757, 231.498
663.061, 186.074
664.364, 248.632
665.668, 182.173
666.971, 170.697
668.274, 191.203
669.577, 148.694
670.880, 203.167
672.183, 136.625
673.485, 140.067
674.787, 186.493
676.089, 157.903
677.391, 203.301
678.693, 164.683
679.994, 201.051
681.296, 230.405
682.597, 177.744
683.898, 243.070
685.198, 200.381
686.499, 215.681
687.799, 247.967
689.099, 207.241
690.399, 299.501
691.699, 261.752
692.998, 255.990
694.298, 334.218
695.597, 248.437
696.896, 373.644
698.195, 300.839
699.493, 333.025
700.792, 319.203
702.090, 276.373
703.388, 362.274
704.686, 321.122
705.984, 345.831
707.281, 399.533
708.578, 297.254
709.876, 361.810
711.172, 339.450
712.469, 342.641
713.766, 359.808
715.062, 312.260
716.358, 414.855
717.654, 356.080
718.950, 324.227
720.246, 391.744
721.541, 343.616
722.836, 419.216
724.131, 358.560
725.426, 367.611
726.721, 383.441
728.015, 347.977
729.310, 446.705
730.604, 406.193
731.898, 428.455
733.191, 445.323
734.485, 373.837
735.778, 524.724
737.071, 436.648
738.364, 467.589
739.657, 508.305
740.950, 443.168
742.242, 533.362
743.535, 524.448
744.827, 519.733
746.118, 579.633
747.410, 542.151
748.702, 621.660
749.993, 640.418
751.284, 590.993
752.575, 709.701
753.866, 676.712
755.156, 737.544
756.447, 700.989
757.737, 694.670
759.027, 765.151
760.316, 703.872
761.606, 847.404
762.896, 825.169
764.185, 738.094
765.474, 878.754
766.763, 824.945
768.051, 904.679
769.340, 888.694
770.628, 932.117
771.916, 1046.322
773.204, 1011.177
774.492, 1177.946
775.780, 1182.304
777.067, 1229.374
778.354, 1405.780
779.641, 1423.328
780.928, 1595.898
782.215, 1720.769
783.501, 1765.250
784.787, 2025.258
786.073, 2036.085
787.359, 2163.131
788.645, 2426.348
789.930, 2423.517
791.216, 2694.865
792.501, 2848.071
793.786, 3167.435
795.071, 3556.806
796.355, 3710.056
797.640, 4156.639
798.924, 4363.076
800.208, 4642.695
801.492, 5196.336
802.775, 5006.952
804.059, 5443.626
805.342, 5494.320
806.625, 5485.039
807.908, 5841.781
809.191, 5502.543
810.474, 5731.331
811.756, 5576.139
813.038, 5174.968
814.320, 5347.822
815.602, 4886.699
816.884, 4857.601
818.165, 4867.526
819.446, 4600.477
820.727, 4997.449
822.008, 4955.446
823.289, 5192.473
824.569, 5388.521
825.850, 5311.593
827.130, 5855.685
828.410, 5525.796
829.690, 5816.933
830.969, 6166.533
832.249, 6056.713
833.528, 6744.917
834.807, 6824.141
836.086, 7202.392
837.364, 8021.661
838.643, 8200.979
839.921, 9380.405
841.199, 9829.864
842.477, 10269.224
843.755, 11438.605
845.033, 11778.415
846.310, 13327.849
847.587, 14197.705
848.864, 15027.527
850.141, 18067.053
851.418, 18966.570
852.694, 23046.318
853.971, 26486.529
855.247, 30386.564
856.523, 39236.160
857.798, 43316.031
859.074, 52395.680
860.349, 58826.836
861.624, 56886.531
862.899, 57856.262
864.174, 48157.055
865.449, 39457.516
866.723, 32407.322
867.998, 25676.199
869.272, 20297.410
870.545, 16187.359
871.819, 13427.354
873.093, 12317.311
874.366, 10107.294
875.639, 9827.305
876.912, 9027.352
878.185, 8241.430
879.458, 8270.540
880.730, 7398.682
882.002, 7019.852
883.274, 6459.058
884.546, 5671.292
885.818, 5561.562
887.090, 4843.867
888.361, 4584.206
889.632, 4510.589
890.903, 3998.002
892.174, 4169.458
893.444, 4002.952
894.715, 4031.484
895.985, 4544.053
897.255, 4468.977
898.525, 5138.620
899.795, 5466.298
901.064, 5547.832
902.334, 5619.019
903.603, 5387.208
904.872, 5040.043
906.140, 4526.909
907.409, 3684.012
908.677, 3377.037
909.946, 2788.345
911.214, 2501.094
912.482, 2262.138
913.749, 1906.779
915.017, 1916.902
916.284, 1626.087
917.551, 1539.281
918.818, 1521.508
920.085, 1212.842
921.352, 1383.138
922.618, 1242.469
923.884, 1182.369
925.150, 1257.767
926.416, 1124.277
927.682, 1104.721
928.947, 1105.210
930.213, 973.839
931.478, 1041.838
932.743, 911.636
934.008, 856.239
935.272, 777.990
936.537, 715.824
937.801, 659.827
939.065, 642.272
940.329, 549.981
941.593, 536.824
942.856, 489.420
944.119, 497.887
945.383, 456.671
946.646, 395.106
947.908, 358.312
949.171, 336.151
950.433, 330.269
951.696, 280.142
952.958, 264.987
954.220, 282.905
955.481, 228.543
956.743, 180.721
958.004, 209.586
959.265, 196.377
960.526, 154.214
961.787, 183.668
963.048, 134.431
964.308, 149.139
965.569, 91.388
966.829, 111.320
968.089, 126.056
969.348, 49.216
970.608, 96.566
971.867, 69.116
973.126, 59.340
974.385, 72.628
975.644, 58.794
976.903, 96.892
978.161, 48.072
979.420, 31.491
980.678, 36.857
981.936, 28.897
983.193, 48.470
984.451, 38.688
985.708, 11.431
986.966, 37.619
988.223, 6.158
989.479, 2.089
990.736, 10.388
991.993, 11.026
993.249, 15.417
994.505, 5.773
995.761, 24.780
997.017, 10.704
998.272, 24.241
999.528, 21.829
1000.783, 2.199
1002.038, 7.162
1003.293, 14.717
1004.548, 32.006
1005.802, 24.406
1007.057, 27.035
1008.311, 15.512
1009.565, 19.578
1010.818, 53.794
1012.072, 4.258
1013.326, 3.198
1014.579, 41.010
1015.832, 30.283
1017.085, 6.214
1018.338, 17.895
1019.590, 3.043
1020.842, 3.794
1022.095, 5.292
1023.347, 36.224
1024.599, 22.301
1025.850, 61.793
1027.102, 53.413
1028.353, 40.876
1029.604, 105.604
1030.855, 49.790
1032.106, 84.263
1033.356, 100.527
1034.607, 32.084
1035.857, 99.944
1037.107, 36.738
1038.357, 75.274
1039.607, 57.896
1040.856, 12.681
1042.106, 50.218
1043.355, 64.886
1044.604, 7.454
1045.852, 31.493
1047.101, 11.593
1048.350, 15.893
1049.598, 15.607
1050.846, 23.848
1052.094, 12.366
1053.342, 13.717
1054.589, 17.818
1055.837, 21.280
1057.084, 30.177
1058.331, 1.630
1059.578, 8.852
1060.824, 18.350
1062.071, 20.105
1063.317, 13.318
1064.563, 33.177
1065.809, 1.691
1067.055, 12.239
1068.301, 33.730
1069.546, 1.115
1070.791, 16.590
1072.036, 7.965
1073.281, 9.568
1074.526, 18.792
1075.771, 19.793
1077.015, 17.423
1078.259, 17.967
1079.503, 2.326
1080.747, 5.221
1081.991, 0.188
1083.234, 15.346
1084.478, 17.093
1085.721, 2.337
1086.964, 21.347
1088.206, 6.108
1089.449, 11.103
1090.691, 6.388
1091.934, 8.419
1093.176, 5.242
1094.418, 17.934
1095.659, 2.847
1096.901, 30.709
1098.142, 15.430
1099.384, 11.471
1100.625, 29.608
1101.865, 5.268
1103.106, 16.822
1104.347, 0.121
1105.587, 9.974
1106.827, 17.933
1108.067, 15.870
1109.307, 0.170
1110.546, 8.804
1111.786, 3.171
1113.025, 5.088
1114.264, 19.003
1115.503, 2.887
1116.742, 9.249
1117.980, 0.719
1119.219, 17.495
1120.457, 14.259
1121.695, 1.998
1122.933, 30.244
1124.171, 33.457
1125.408, 9.877
1126.645, 46.791
1127.883, 24.416
1129.120, 4.027
1130.356, 35.906
1131.593, 5.036
1132.829, 8.588
1134.066, 20.191
1135.302, 10.753
1136.538, 28.245
1137.773, 22.821
1139.009, 25.344
1140.244, 39.754
1141.480, 9.057
1142.715, 11.511
1143.950, 38.892
1145.184, 9.853
1146.419, 20.290
1147.653, 44.209
1148.887, 34.200
1150.121, 60.507
1151.355, 20.863
1152.589, 33.911
1153.822, 38.500
1155.056, 49.281
1156.289, 49.447
1157.522, 23.543
1158.755, 40.716
1159.987, 24.457
1161.220, 4.596
1162.452, 34.704
1163.684, 36.808
1164.916, 49.204
1166.148, 31.261
1167.379, 33.028
1168.611, 21.007
1169.842, 52.991
1171.073, 52.906
1172.304, 27.874
1173.534, 60.820
1174.765, 48.751
1175.995, 71.666
1177.225, 44.565
1178.455, 27.446
1179.685, 74.378
1180.915, 26.222
1182.144, 59.044
1183.374, 41.867
1184.603, 45.654
1185.832, 66.423
1187.060, 57.180
1188.289, 47.916
1189.518, 69.633
1190.746, 18.414
1191.974, 65.089
1193.202, 38.785
1194.430, 44.423
1195.657, 84.722
1196.884, 55.325
1198.112, 71.909
1199.339, 84.663
1200.566, 58.829
1201.792, 69.915
1203.019, 87.433
1204.245, 68.935
1205.471, 66.223
1206.697, 49.697
1207.923, 72.817
1209.149, 81.524
1210.374, 62.022
1211.600, 69.873
1212.825, 67.259
1214.050, 63.598
1215.275, 69.951
1216.499, 103.287
1217.724, 71.577
1218.948, 121.881
1220.172, 72.266
1221.396, 106.003
1222.620, 81.259
1223.843, 87.423
1225.067, 78.664
1226.290, 84.873
1227.513, 66.038
1228.736, 69.756
1229.959, 62.685
1231.181, 63.818
1232.404, 96.808
1233.626, 76.783
1234.848, 89.423
1236.070, 94.872
1237.291, 73.003
1238.513, 103.939
1239.734, 96.160
1240.955, 88.480
1242.177, 76.487
1243.397, 99.879
1244.618, 82.468
1245.838, 106.429
1247.059, 110.196
1248.279, 76.128
1249.499, 79.088
1250.719, 85.130
1251.938, 71.300
1253.158, 68.931
1254.377, 67.877
1255.596, 65.465
1256.815, 63.960
1258.034, 69.320
1259.253, 78.414
1260.471, 75.523
1261.689, 71.091
1262.907, 71.975
1264.125, 46.070
1265.343, 92.728
1266.561, 88.199
1267.778, 88.467
1268.995, 64.061
1270.212, 65.590
1271.429, 91.243
1272.646, 61.962
1273.862, 81.600
1275.079, 82.998
1276.295, 26.525
1277.511, 125.094
1278.727, 68.541
1279.943, 49.178
1281.158, 54.247
1282.373, 76.870
1283.589, 41.141
1284.804, 43.196
1286.019, 44.302
1287.233, 68.745
1288.448, 51.105
1289.662, 80.551
1290.876, 61.938
1292.090, 38.251
1293.304, 59.998
1294.518, 52.377
1295.731, 49.533
1296.944, 40.957
1298.158, 80.619
1299.371, 71.687
1300.583, 76.859
1301.796, 64.242
1303.008, 34.556
1304.221, 75.227
1305.433, 45.357
1306.645, 56.054
1307.856, 60.860
1309.068, 43.809
1310.280, 64.816
1311.491, 63.047
1312.702, 38.879
1313.913, 55.802
1315.124, 43.266
1316.334, 50.473
1317.545, 58.662
1318.755, 58.285
1319.965, 55.488
1321.175, 56.557
1322.385, 61.781
1323.594, 103.733
1324.804, 32.221
1326.013, 52.418
1327.222, 82.819
1328.431, 43.922
1329.639, 87.717
1330.848, 48.572
1332.056, 45.680
1333.265, 66.696
1334.473, 76.542
1335.680, 26.631
1336.888, 62.583
1338.096, 35.628
1339.303, 67.195
1340.510, 68.882
1341.717, 47.987
1342.924, 63.858
1344.131, 41.891
1345.337, 55.976
1346.544, 80.884
1347.750, 62.946
1348.956, 42.023
1350.162, 63.507
1351.367, 19.479
1352.573, 61.210
1353.778, 64.208
1354.983, 21.241
1356.188, 50.144
1357.393, 42.132
1358.598, 54.079
1359.802, 71.016
1361.007, 54.970
1362.211, 29.020
1363.415, 51.971
1364.619, 15.029
1365.822, 71.971
1367.026, 60.010
1368.229, 48.984
1369.432, 54.989
1370.635, 39.965
1371.838, 14.942
1373.041, 50.814
1374.243, 52.717
1375.446, 60.550
1376.648, 44.484
1377.850, 20.497
1379.052, 40.436
1380.253, 31.539
1381.455, 17.612
1382.656, 47.543
1383.857, 24.650
1385.058, 77.641
1386.259, 63.636
1387.459, 24.724
1388.660, 59.344
1389.860, 44.284
1391.060, 11.191
1392.260, 76.089
1393.460, 41.876
1394.660, 1.661
1395.859, 53.467
1397.059, 42.376
1398.258, 30.270
1399.457, 65.073
1400.655, 7.064
1401.854, 44.998
1403.052, 16.978
1404.251, 43.991
1405.449, 62.672
1406.647, 42.604
1407.845, 22.564
1409.042, 82.360
1410.240, 24.272
1411.437, 38.229
1412.634, 65.133
1413.831, 33.114
1415.028, 45.980
1416.224, 62.994
1417.421, 30.004
1418.617, 45.886
1419.813, 4.827
1421.009, 38.789
1422.205, 70.809
1423.401, 11.748
1424.596, 26.713
1425.791, 37.737
1426.986, 23.760
1428.181, 36.781
1429.376, 56.705
1430.571, 44.710
1431.765, 52.743
1432.960, 43.767
1434.154, 11.682
1435.348, 66.672
1436.541, 17.725
1437.735, 39.780
1438.929, 54.833
1440.122, 20.889
1441.315, 50.943
1442.508, 54.851
1443.701, 55.777
1444.893, 4.831
1446.086, 21.887
1447.278, 26.881
1448.470, 63.773
1449.662, 37.829
1450.854, 61.887
1452.046, 59.790
1453.237, 25.851
1454.428, 50.917
1455.619, 45.878
1456.810, 2.802
1458.001, 101.800
1459.192, 53.863
1460.382, 33.867
1461.573, 58.770
1462.763, 29.845
1463.953, 40.606
1465.143, 69.692
1466.332, 45.596
1467.522, 68.595
1468.711, 34.694
1469.900, 19.769
1471.089, 61.875
1472.278, 49.996
1473.467, 55.123
1474.655, 85.256
1475.843, 75.684
1477.032, 72.955
1478.220, 75.379
1479.407, 61.531
1480.595, 43.690
1481.783, 69.855
1482.970, 33.925
1484.157, 51.079
1485.344, 40.261
1486.531, 25.448
1487.718, 53.647
1488.904, 33.666
1490.090, 2.879
1491.277, 76.102
1492.463, 11.662
1493.648, 41.584
1494.834, 76.623
1496.020, 20.892
1497.205, 60.180
1498.390, 23.493
1499.575, 12.828
1500.760, 54.181
1501.945, 8.552
1503.129, 27.939
1504.314, 66.354
1505.498, 30.795
1506.682, 14.258
1507.866, 64.753
1509.049, 21.276
1510.233, 58.836
1511.416, 62.073
1512.600, 11.882
1513.783, 76.293
1514.966, 26.711
1516.148, 43.004
1517.331, 40.064
1518.513, 1.419
