##NAMES=Legrandite
##RRUFFID=R040151
##IDEAL CHEMISTRY=Zn^2+^_2_As^5+^O_4_(OH)&#183;H_2_O
##LOCALITY=Mapimi, Durango, Mexico
##OWNER=RRUFF
##SOURCE=University of Arizona Mineral Museum
##DESCRIPTION=Yellow crystal fragments; same material used in McLean et al. (1971) study
##STATUS=The identification of this mineral has been confirmed by X-ray diffraction and chemical analysis
##URL=rruff.info/R040151
##MEASURED CHEMISTRY=Zn_1.88_Fe^2+^_0.04_As_1.03_O_4_(OH)Â·H_2_O
##PIN_ID=M00409
##ORIENTATION=Laser parallel to -c* (0 0 -1). Fiducial mark perpendicular to laser is parallel to b [0 1 0]
56.488, 0.000
57.882, 2.159
59.275, 3.121
60.668, 27.172
62.061, 106.674
63.454, 181.366
64.846, 252.425
66.238, 301.188
67.630, 319.461
69.022, 316.092
70.413, 277.134
71.805, 274.650
73.196, 281.532
74.587, 353.711
75.978, 380.184
77.368, 473.902
78.758, 665.160
80.149, 932.600
81.538, 1086.723
82.928, 930.923
84.318, 810.517
85.707, 780.909
87.096, 1015.353
88.485, 1450.725
89.873, 1592.019
91.262, 1533.731
92.650, 1297.974
94.038, 1271.138
95.426, 1320.174
96.813, 1345.216
98.201, 1461.451
99.588, 1647.876
100.975, 2065.486
102.362, 1928.280
103.748, 1523.253
105.135, 1126.399
106.521, 741.712
107.907, 541.186
109.292, 397.811
110.678, 352.580
112.063, 294.486
113.448, 174.523
114.833, 138.683
116.218, 101.950
117.602, 93.309
118.987, 11.754
120.371, 2.715
121.755, 36.096
123.138, 53.391
124.522, 9.599
125.905, 99.720
127.288, 64.755
128.671, 109.704
130.053, 82.568
131.436, 78.346
132.818, 24.040
134.200, 104.351
135.582, 128.830
136.963, 258.398
138.345, 353.053
139.726, 666.803
141.107, 867.666
142.488, 1160.645
143.868, 1418.736
145.248, 1403.934
146.629, 1611.233
148.008, 1431.626
149.388, 1359.107
150.768, 1072.666
152.147, 908.298
153.526, 923.998
154.905, 989.761
156.284, 1231.580
157.662, 1294.440
159.040, 1437.329
160.418, 1508.245
161.796, 1645.191
163.174, 2164.166
164.551, 2665.174
165.929, 3402.216
167.306, 3425.292
168.683, 3210.402
170.059, 2660.537
171.436, 2126.660
172.812, 1683.711
174.188, 1314.684
175.564, 1279.532
176.939, 929.260
178.315, 828.971
179.690, 698.739
181.065, 579.564
182.440, 505.448
183.814, 414.389
185.188, 439.388
186.563, 389.443
187.937, 437.554
189.310, 417.721
190.684, 451.942
192.057, 555.217
193.430, 604.544
194.803, 871.923
196.176, 940.353
197.549, 1048.833
198.921, 1097.363
200.293, 1055.941
201.665, 1154.569
203.037, 1002.246
204.408, 1030.973
205.779, 966.749
207.150, 932.580
208.521, 949.469
209.892, 1060.438
211.262, 1226.467
212.633, 1294.568
214.003, 1504.748
215.373, 1515.000
216.742, 1537.312
218.112, 1556.672
219.481, 1394.086
220.850, 1420.559
222.219, 1251.133
223.588, 1203.710
224.956, 1184.477
226.324, 1169.309
227.692, 1379.166
229.060, 1430.027
230.428, 1621.888
231.795, 1647.728
233.162, 1699.538
234.529, 1644.308
235.896, 1609.043
237.263, 1649.742
238.629, 1690.392
239.995, 1935.970
241.361, 2155.455
242.727, 2489.871
244.093, 2806.223
245.458, 2851.523
246.823, 3039.787
248.188, 2716.017
249.553, 2812.227
250.917, 2602.405
252.282, 2527.548
253.646, 2592.565
255.010, 2622.358
256.374, 2898.938
257.737, 2963.254
259.101, 3327.351
260.464, 3444.433
261.827, 3561.558
263.189, 3871.737
264.552, 3984.955
265.914, 4571.224
267.276, 4764.539
268.638, 5627.896
270.000, 6437.300
271.362, 7104.754
272.723, 8243.255
274.084, 8380.789
275.445, 8971.369
276.806, 8371.988
278.166, 7997.520
279.526, 7429.973
280.887, 6421.235
282.246, 5971.501
283.606, 5069.164
284.966, 4828.192
286.325, 4339.328
287.684, 3941.573
289.043, 3702.757
290.402, 3151.483
291.760, 2964.574
293.118, 2453.030
294.477, 2112.359
295.834, 1831.128
297.192, 1531.479
298.550, 1394.659
299.907, 1130.997
301.264, 1196.362
302.621, 1011.762
303.978, 1000.197
305.334, 941.662
306.690, 890.163
308.046, 936.697
309.402, 832.256
310.758, 881.850
312.113, 910.463
313.469, 902.100
314.824, 984.760
316.179, 891.444
317.533, 1087.147
318.888, 1007.868
320.242, 1079.605
321.596, 1104.358
322.950, 1026.128
324.304, 1100.914
325.657, 1004.715
327.010, 1081.532
328.363, 995.365
329.716, 1019.212
331.069, 1058.074
332.421, 976.950
333.774, 1109.841
335.126, 960.746
336.478, 1030.665
337.829, 1000.599
339.181, 951.548
340.532, 1127.513
341.883, 1031.493
343.234, 1220.525
344.585, 1251.658
345.935, 1415.784
347.285, 1702.969
348.635, 1854.087
349.985, 2226.367
351.335, 2469.651
352.684, 2896.880
354.034, 3321.313
355.383, 3543.205
356.731, 4099.539
358.080, 4012.997
359.429, 4268.707
360.777, 4004.610
362.125, 3711.105
363.473, 3438.541
364.820, 2821.773
366.168, 2602.196
367.515, 2125.442
368.862, 1855.378
370.209, 1648.638
371.556, 1443.155
372.902, 1365.058
374.249, 1083.852
375.595, 1140.402
376.940, 1081.977
378.286, 1154.626
379.632, 1297.421
380.977, 1352.919
382.322, 1650.528
383.667, 1708.122
385.012, 2021.545
386.356, 2305.991
387.700, 2392.957
389.044, 2839.375
390.388, 2847.083
391.732, 3134.481
393.075, 3330.900
394.419, 3184.843
395.762, 3134.414
397.105, 2626.343
398.447, 2612.859
399.790, 2152.676
401.132, 1874.884
402.474, 1657.534
403.816, 1363.807
405.158, 1198.149
406.499, 952.412
407.841, 908.664
409.182, 778.010
410.523, 642.214
411.864, 646.489
413.204, 530.195
414.544, 523.805
415.884, 464.481
417.224, 483.341
418.564, 521.189
419.904, 415.684
421.243, 517.132
422.582, 451.581
423.921, 456.833
425.260, 465.167
426.598, 381.281
427.937, 405.512
429.275, 293.673
430.613, 292.840
431.951, 271.881
433.288, 224.174
434.625, 193.961
435.963, 122.881
437.300, 126.363
438.636, 71.979
439.973, 52.611
441.309, 73.063
442.646, 26.014
443.981, 52.491
445.317, 41.925
446.653, 46.519
447.988, 98.079
449.323, 110.120
450.658, 164.578
451.993, 153.083
453.328, 222.827
454.662, 257.869
455.996, 272.661
457.331, 308.757
458.664, 288.573
459.998, 293.112
461.331, 296.867
462.665, 278.902
463.998, 255.718
465.330, 237.813
466.663, 236.136
467.996, 194.678
469.328, 199.190
470.660, 235.559
471.992, 155.731
473.323, 208.692
474.655, 160.750
475.986, 166.085
477.317, 120.474
478.648, 137.571
479.979, 144.652
481.309, 110.717
482.640, 133.766
483.970, 151.798
485.300, 124.815
486.629, 143.815
487.959, 122.798
489.288, 201.764
490.617, 183.714
491.946, 178.646
493.275, 177.561
494.603, 124.459
495.932, 142.340
497.260, 90.202
498.588, 83.047
499.916, 90.874
501.243, 58.382
502.571, 49.474
503.898, 29.246
505.225, 34.999
506.552, 24.731
507.878, 44.444
509.205, 13.138
510.531, 14.810
511.857, 28.462
513.183, 4.093
514.508, 5.299
515.834, 16.281
517.159, 13.161
518.484, 16.635
519.809, 35.144
521.133, 7.302
522.458, 12.725
523.782, 38.875
525.106, 16.478
526.430, 38.191
527.754, 16.909
529.077, 21.662
530.400, 9.456
531.723, 0.717
533.046, 13.138
534.369, 11.972
535.692, 11.058
537.014, 9.880
538.336, 4.147
539.658, 22.853
540.980, 11.106
542.301, 7.959
543.623, 5.059
544.944, 23.809
546.265, 29.345
547.585, 26.455
548.906, 8.233
550.226, 20.016
551.547, 4.304
552.867, 12.625
554.186, 13.016
555.506, 3.634
556.825, 15.223
558.145, 5.788
559.464, 16.674
560.783, 9.825
562.101, 17.702
563.420, 30.731
564.738, 48.143
566.056, 1.466
567.374, 25.893
568.692, 0.769
570.009, 40.538
571.326, 7.823
572.643, 10.083
573.960, 8.317
575.277, 11.475
576.594, 4.697
577.910, 12.841
579.226, 5.039
580.542, 14.048
581.858, 33.888
583.173, 19.127
584.489, 31.879
585.804, 17.932
587.119, 1.024
588.434, 33.146
589.748, 31.315
591.063, 35.531
592.377, 4.206
593.691, 30.084
595.005, 7.420
596.318, 25.787
597.632, 58.198
598.945, 55.667
600.258, 0.193
601.571, 56.748
602.884, 40.360
604.196, 75.021
605.508, 42.749
606.821, 50.526
608.132, 89.357
609.444, 5.738
610.756, 62.190
612.067, 19.177
613.378, 47.200
614.689, 52.273
616.000, 16.400
617.311, 44.560
618.621, 0.769
619.931, 38.002
621.241, 35.280
622.551, 24.599
623.861, 44.955
625.170, 33.356
626.479, 17.797
627.788, 48.270
629.097, 8.212
630.406, 11.324
631.714, 13.887
633.023, 19.475
634.331, 3.094
635.639, 37.268
636.946, 27.613
638.254, 36.942
639.561, 59.256
640.868, 48.554
642.175, 142.837
643.482, 101.104
644.789, 175.357
646.095, 188.595
647.401, 231.819
648.707, 270.029
650.013, 263.225
651.319, 330.407
652.624, 380.575
653.929, 376.731
655.234, 477.873
656.539, 496.002
657.844, 577.119
659.148, 543.223
660.453, 500.278
661.757, 533.234
663.061, 455.201
664.364, 483.111
665.668, 382.091
666.971, 326.910
668.274, 348.728
669.577, 257.603
670.880, 281.275
672.183, 230.491
673.485, 213.265
674.787, 225.919
676.089, 203.322
677.391, 211.532
678.693, 192.152
679.994, 176.832
681.296, 225.718
682.597, 213.413
683.898, 231.288
685.198, 201.473
686.499, 197.335
687.799, 239.941
689.099, 214.163
690.399, 229.496
691.699, 210.072
692.998, 268.626
694.298, 282.107
695.597, 244.441
696.896, 314.071
698.195, 264.592
699.493, 252.126
700.792, 324.831
702.090, 280.514
703.388, 322.673
704.686, 304.378
705.984, 260.789
707.281, 329.508
708.578, 305.206
709.876, 355.374
711.172, 334.911
712.469, 319.086
713.766, 340.438
715.062, 350.952
716.358, 350.840
717.654, 320.283
718.950, 329.102
720.246, 359.851
721.541, 299.676
722.836, 362.513
724.131, 352.255
725.426, 382.138
726.721, 426.952
728.015, 390.334
729.310, 459.813
730.604, 422.227
731.898, 427.459
733.191, 488.707
734.485, 432.314
735.778, 515.972
737.071, 496.635
738.364, 511.502
739.657, 585.293
740.950, 489.309
742.242, 598.214
743.535, 605.195
744.827, 600.176
746.118, 640.290
747.410, 626.158
748.702, 679.545
749.993, 695.804
751.284, 674.512
752.575, 774.092
753.866, 671.662
755.156, 742.421
756.447, 837.696
757.737, 786.450
759.027, 888.267
760.316, 877.945
761.606, 929.688
762.896, 1006.984
764.185, 927.887
765.474, 1100.790
766.763, 1104.489
768.051, 1208.934
769.340, 1244.665
770.628, 1248.130
771.916, 1465.894
773.204, 1497.941
774.492, 1703.779
775.780, 1896.344
777.067, 1976.133
778.354, 2371.652
779.641, 2379.960
780.928, 2662.055
782.215, 3002.187
783.501, 2995.476
784.787, 3330.972
786.073, 3308.692
787.359, 3406.319
788.645, 3602.682
789.930, 3421.998
791.216, 3660.621
792.501, 3657.273
793.786, 3660.948
795.071, 3822.657
796.355, 3606.392
797.640, 3780.159
798.924, 3727.958
800.208, 3610.782
801.492, 3770.638
802.775, 3535.521
804.059, 3792.429
805.342, 3797.372
806.625, 3846.341
807.908, 4128.337
809.191, 4085.359
810.474, 4352.408
811.756, 4436.484
813.038, 4383.589
814.320, 4710.727
815.602, 4581.895
816.884, 4899.091
818.165, 5120.317
819.446, 5103.572
820.727, 5705.859
822.008, 5864.183
823.289, 6242.538
824.569, 6736.927
825.850, 6710.347
827.130, 7459.798
828.410, 7257.281
829.690, 7873.796
830.969, 8402.349
832.249, 8561.950
833.528, 9551.581
834.807, 9901.247
836.086, 10520.952
837.364, 11720.703
838.643, 11940.478
839.921, 13590.285
841.199, 13950.297
842.477, 14410.184
843.755, 15500.314
845.033, 15810.271
846.310, 17350.717
847.587, 17740.797
848.864, 18200.857
850.141, 20510.941
851.418, 20991.086
852.694, 24181.297
853.971, 26812.123
855.247, 29913.400
856.523, 36823.660
857.798, 40184.539
859.074, 47204.930
860.349, 51725.988
861.624, 50726.820
862.899, 50157.254
864.174, 41957.836
865.449, 34698.336
866.723, 28168.887
867.998, 22554.143
869.272, 17680.271
870.545, 14200.901
871.819, 11481.562
873.093, 10252.261
874.366, 8380.986
875.639, 7679.743
876.912, 6797.532
878.185, 5994.348
879.458, 5642.199
880.730, 5116.078
882.002, 4920.987
883.274, 4659.929
884.546, 4515.901
885.818, 4616.909
887.090, 4413.945
888.361, 4532.013
889.632, 4784.114
890.903, 4751.242
892.174, 5548.415
893.444, 5947.614
894.715, 6727.855
895.985, 7959.131
897.255, 8831.441
898.525, 10873.081
899.795, 12294.512
901.064, 13207.528
902.334, 13592.780
903.603, 13311.305
904.872, 12613.081
906.140, 11134.655
907.409, 9036.966
908.677, 8008.632
909.946, 6514.327
911.214, 5470.520
912.482, 4890.049
913.749, 4038.824
915.017, 3778.464
916.284, 3250.441
917.551, 2970.434
918.818, 2854.322
920.085, 2405.560
921.352, 2435.631
922.618, 2231.822
923.884, 2024.975
925.150, 2028.159
926.416, 1834.740
927.682, 1801.146
928.947, 1734.432
930.213, 1568.817
931.478, 1627.278
932.743, 1420.111
934.008, 1349.608
935.272, 1299.872
936.537, 1199.536
937.801, 1115.332
939.065, 1038.871
940.329, 888.888
941.593, 872.910
942.856, 767.590
944.119, 748.908
945.383, 720.909
946.646, 620.133
947.908, 576.115
949.171, 503.555
950.433, 487.767
951.696, 484.181
952.958, 331.986
954.220, 398.809
955.481, 366.984
956.743, 284.415
958.004, 311.109
959.265, 258.829
960.526, 269.886
961.787, 186.890
963.048, 166.533
964.308, 216.474
965.569, 174.562
966.829, 189.740
968.089, 139.329
969.348, 114.568
970.608, 146.222
971.867, 117.638
973.126, 113.770
974.385, 108.623
975.644, 97.948
976.903, 92.968
978.161, 78.534
979.420, 91.724
980.678, 73.174
981.936, 70.115
983.193, 39.922
984.451, 62.606
985.708, 19.036
986.966, 23.505
988.223, 0.060
989.479, 49.484
990.736, 28.897
991.993, 14.712
993.249, 10.727
994.505, 17.384
995.761, 28.997
997.017, 29.039
998.272, 6.073
999.528, 24.718
1000.783, 15.220
1002.038, 0.271
1003.293, 5.126
1004.548, 34.130
1005.802, 47.430
1007.057, 9.009
1008.311, 31.526
1009.565, 5.636
1010.818, 34.648
1012.072, 24.979
1013.326, 16.855
1014.579, 9.436
1015.832, 41.600
1017.085, 1.890
1018.338, 15.111
1019.590, 29.794
1020.842, 33.760
1022.095, 44.588
1023.347, 69.430
1024.599, 62.995
1025.850, 107.545
1027.102, 89.257
1028.353, 114.748
1029.604, 86.580
1030.855, 123.380
1032.106, 116.894
1033.356, 131.759
1034.607, 102.261
1035.857, 117.896
1037.107, 91.321
1038.357, 90.958
1039.607, 76.469
1040.856, 64.012
1042.106, 52.057
1043.355, 52.267
1044.604, 28.938
1045.852, 38.338
1047.101, 46.003
1048.350, 11.437
1049.598, 0.947
1050.846, 42.194
1052.094, 13.569
1053.342, 23.759
1054.589, 8.233
1055.837, 9.200
1057.084, 19.416
1058.331, 25.984
1059.578, 8.466
1060.824, 12.140
1062.071, 18.772
1063.317, 22.408
1064.563, 18.052
1065.809, 23.697
1067.055, 22.334
1068.301, 19.054
1069.546, 2.610
1070.791, 16.700
1072.036, 20.827
1073.281, 10.448
1074.526, 10.644
1075.771, 4.209
1077.015, 0.971
1078.259, 18.174
1079.503, 16.552
1080.747, 33.390
1081.991, 3.324
1083.234, 5.816
1084.478, 26.042
1085.721, 15.028
1086.964, 15.934
1088.206, 18.035
1089.449, 16.946
1090.691, 1.015
1091.934, 25.067
1093.176, 18.151
1094.418, 4.710
1095.659, 30.358
1096.901, 9.467
1098.142, 15.681
1099.384, 26.923
1100.625, 2.858
1101.865, 18.350
1103.106, 1.677
1104.347, 11.045
1105.587, 25.295
1106.827, 3.499
1108.067, 4.103
1109.307, 19.765
1110.546, 1.302
1111.786, 8.862
1113.025, 4.353
1114.264, 13.180
1115.503, 2.253
1116.742, 14.673
1117.980, 3.110
1119.219, 15.626
1120.457, 14.035
1121.695, 8.694
1122.933, 14.623
1124.171, 10.131
1125.408, 13.139
1126.645, 25.408
1127.883, 11.615
1129.120, 31.823
1130.356, 19.946
1131.593, 13.774
1132.829, 28.306
1134.066, 11.388
1135.302, 38.394
1136.538, 36.380
1137.773, 43.367
1139.009, 45.446
1140.244, 48.395
1141.480, 16.138
1142.715, 31.162
1143.950, 18.865
1145.184, 30.740
1146.419, 31.088
1147.653, 11.808
1148.887, 51.644
1150.121, 31.412
1151.355, 49.103
1152.589, 34.856
1153.822, 45.963
1155.056, 60.625
1156.289, 60.243
1157.522, 39.312
1158.755, 36.823
1159.987, 49.747
1161.220, 42.840
1162.452, 81.344
1163.684, 77.710
1164.916, 63.255
1166.148, 48.757
1167.379, 44.010
1168.611, 42.409
1169.842, 48.894
1171.073, 49.147
1172.304, 65.504
1173.534, 67.856
1174.765, 58.141
1175.995, 75.458
1177.225, 53.711
1178.455, 55.929
1179.685, 76.124
1180.915, 54.298
1182.144, 79.448
1183.374, 68.577
1184.603, 95.689
1185.832, 69.811
1187.060, 81.876
1188.289, 78.920
1189.518, 72.942
1190.746, 72.942
1191.974, 70.469
1193.202, 106.875
1194.430, 71.837
1195.657, 80.749
1196.884, 88.348
1198.112, 67.184
1199.339, 64.445
1200.566, 70.267
1201.792, 80.259
1203.019, 90.793
1204.245, 101.549
1205.471, 89.595
1206.697, 85.308
1207.923, 92.041
1209.149, 96.262
1210.374, 94.163
1211.600, 91.850
1212.825, 89.690
1214.050, 86.226
1215.275, 97.759
1216.499, 73.471
1217.724, 86.797
1218.948, 70.303
1220.172, 87.709
1221.396, 104.173
1222.620, 130.617
1223.843, 103.684
1225.067, 95.933
1226.290, 83.318
1227.513, 98.619
1228.736, 118.857
1229.959, 91.749
1231.181, 88.983
1232.404, 126.459
1233.626, 86.566
1234.848, 120.532
1236.070, 95.802
1237.291, 102.592
1238.513, 131.358
1239.734, 100.471
1240.955, 128.949
1242.177, 84.746
1243.397, 84.321
1244.618, 107.140
1245.838, 107.502
1247.059, 85.093
1248.279, 77.482
1249.499, 101.481
1250.719, 78.474
1251.938, 89.104
1253.158, 56.537
1254.377, 85.650
1255.596, 65.737
1256.815, 98.487
1258.034, 79.290
1259.253, 91.467
1260.471, 97.331
1261.689, 98.050
1262.907, 83.686
1264.125, 73.902
1265.343, 53.468
1266.561, 86.671
1267.778, 73.058
1268.995, 68.727
1270.212, 96.673
1271.429, 63.147
1272.646, 56.923
1273.862, 66.152
1275.079, 58.755
1276.295, 74.096
1277.511, 39.978
1278.727, 65.923
1279.943, 60.023
1281.158, 78.374
1282.373, 71.683
1283.589, 60.904
1284.804, 41.252
1286.019, 63.608
1287.233, 74.983
1288.448, 38.306
1289.662, 52.194
1290.876, 54.565
1292.090, 67.351
1293.304, 86.128
1294.518, 42.074
1295.731, 53.306
1296.944, 64.984
1298.158, 35.147
1299.371, 41.870
1300.583, 41.881
1301.796, 81.143
1303.008, 46.374
1304.221, 68.170
1305.433, 41.864
1306.645, 63.867
1307.856, 72.697
1309.068, 71.994
1310.280, 37.286
1311.491, 35.422
1312.702, 40.280
1313.913, 64.005
1315.124, 50.661
1316.334, 63.449
1317.545, 45.217
1318.755, 41.305
1319.965, 66.350
1321.175, 38.226
1322.385, 48.314
1323.594, 59.054
1324.804, 49.817
1326.013, 70.860
1327.222, 73.543
1328.431, 54.580
1329.639, 46.478
1330.848, 38.576
1332.056, 58.454
1333.265, 60.449
1334.473, 76.405
1335.680, 61.271
1336.888, 76.120
1338.096, 65.290
1339.303, 36.984
1340.510, 48.772
1341.717, 43.657
1342.924, 40.599
1344.131, 48.269
1345.337, 48.912
1346.544, 50.637
1347.750, 45.492
1348.956, 55.430
1350.162, 40.407
1351.367, 52.322
1352.573, 28.204
1353.778, 63.130
1354.983, 39.070
1356.188, 53.000
1357.393, 73.922
1358.598, 34.831
1359.802, 49.726
1361.007, 20.678
1362.211, 74.451
1363.415, 48.347
1364.619, 48.068
1365.822, 53.971
1367.026, 42.942
1368.229, 53.953
1369.432, 72.918
1370.635, 46.848
1371.838, 41.697
1373.041, 60.643
1374.243, 27.665
1375.446, 37.601
1376.648, 40.527
1377.850, 25.566
1379.052, 51.510
1380.253, 18.923
1381.455, 20.924
1382.656, 43.971
1383.857, 32.984
1385.058, 35.942
1386.259, 36.908
1387.459, 49.651
1388.660, 33.571
1389.860, 72.355
1391.060, 47.218
1392.260, 56.921
1393.460, 32.715
1394.660, 19.595
1395.859, 49.526
1397.059, 7.457
1398.258, 24.176
1399.457, 48.083
1400.655, 40.998
1401.854, 34.821
1403.052, 15.677
1404.251, 34.444
1405.449, 52.359
1406.647, 15.361
1407.845, 32.160
1409.042, 38.121
1410.240, 2.866
1411.437, 32.807
1412.634, 33.706
1413.831, 33.667
1415.028, 36.426
1416.224, 31.337
1417.421, 37.533
1418.617, 42.189
1419.813, 45.194
1421.009, 34.975
1422.205, 33.889
1423.401, 16.874
1424.596, 31.776
1425.791, 39.706
1426.986, 20.695
1428.181, 64.703
1429.376, 27.714
1430.571, 20.667
1431.765, 50.678
1432.960, 4.690
1434.154, 18.707
1435.348, 52.683
1436.541, 8.694
1437.735, 44.722
1438.929, 10.758
1440.122, 48.796
1441.315, 1.228
1442.508, 24.814
1443.701, 15.860
1444.893, 20.904
1446.086, 15.857
1447.278, 7.915
1448.470, 24.977
1449.662, 6.041
1450.854, 40.109
1452.046, 9.165
1453.237, 0.761
1454.428, 37.293
1455.619, 10.236
1456.810, 5.305
1458.001, 21.376
1459.192, 38.454
1460.382, 9.540
1461.573, 3.363
1462.763, 37.719
1463.953, 20.706
1465.143, 41.824
1466.332, 17.923
1467.522, 36.061
1468.711, 19.187
1469.900, 2.209
1471.089, 15.373
1472.278, 15.547
1473.467, 14.732
1474.655, 40.927
1475.843, 8.136
1477.032, 49.355
1478.220, 63.587
1479.407, 32.828
1480.595, 58.081
1481.783, 42.290
1482.970, 12.565
1484.157, 45.852
1485.344, 48.017
1486.531, 5.327
1487.718, 58.652
1488.904, 13.992
1490.090, 37.347
1491.277, 48.625
1492.463, 18.014
1493.648, 56.424
1494.834, 40.855
1496.020, 4.084
1497.205, 24.557
1498.390, 9.055
1499.575, 35.582
1500.760, 38.139
1501.945, 0.275
1503.129, 10.342
1504.314, 50.992
1505.498, 17.679
1506.682, 43.405
1507.866, 51.182
1509.049, 38.007
1510.233, 18.888
1511.416, 46.830
1512.600, 42.846
