##NAMES=Legrandite
##RRUFFID=R040151
##IDEAL CHEMISTRY=Zn^2+^_2_As^5+^O_4_(OH)&#183;H_2_O
##LOCALITY=Mapimi, Durango, Mexico
##OWNER=RRUFF
##SOURCE=University of Arizona Mineral Museum
##DESCRIPTION=Yellow crystal fragments; same material used in McLean et al. (1971) study
##STATUS=The identification of this mineral has been confirmed by X-ray diffraction and chemical analysis
##URL=rruff.info/R040151
##MEASURED CHEMISTRY=Zn_1.88_Fe^2+^_0.04_As_1.03_O_4_(OH)Â·H_2_O
##PIN_ID=M00054
##ORIENTATION=Laser parallel to -b* (0 -1 0). Fiducial mark perpendicular to laser is parallel to c [0 0 1]
56.488, 0.000
57.882, 2.206
59.275, 50.336
60.668, 69.589
62.061, 148.209
63.454, 138.570
64.846, 122.849
66.238, 187.293
67.630, 226.415
69.022, 164.886
70.413, 115.942
71.805, 67.075
73.196, 56.611
74.587, 2.870
75.978, 20.188
77.368, 27.597
78.758, 4.392
80.149, 32.287
81.538, 10.114
82.928, 107.545
84.318, 30.850
85.707, 33.398
87.096, 71.778
88.485, 219.356
89.873, 368.319
91.262, 396.650
92.650, 357.334
94.038, 505.363
95.426, 429.724
96.813, 466.406
98.201, 602.399
99.588, 800.687
100.975, 1074.247
102.362, 1194.062
103.748, 1112.113
105.135, 994.383
106.521, 885.862
107.907, 837.543
109.292, 976.418
110.678, 1318.482
112.063, 1802.730
113.448, 2038.159
114.833, 2217.765
116.218, 2303.543
117.602, 2451.673
118.987, 2304.945
120.371, 2706.898
121.755, 2103.349
123.138, 2329.961
124.522, 2621.736
125.905, 2719.669
127.288, 2866.760
128.671, 2676.020
130.053, 2744.461
131.436, 2926.058
132.818, 3391.803
134.200, 3883.697
135.582, 4069.736
136.963, 3842.919
138.345, 3212.244
139.726, 2677.691
141.107, 2148.191
142.488, 1876.743
143.868, 1712.340
145.248, 1470.978
146.629, 1424.654
148.008, 1175.371
149.388, 1081.099
150.768, 917.824
152.147, 793.606
153.526, 830.453
154.905, 821.354
156.284, 944.326
157.662, 1159.373
159.040, 1372.495
160.418, 1888.694
161.796, 2348.973
163.174, 3114.332
164.551, 3853.775
165.929, 4904.300
167.306, 5260.911
168.683, 4955.604
170.059, 4378.386
171.436, 3491.253
172.812, 2790.208
174.188, 2017.251
175.564, 1754.382
176.939, 1414.602
178.315, 1211.911
179.690, 1120.310
181.065, 1135.798
182.440, 1223.376
183.814, 1275.043
185.188, 1354.372
186.563, 1393.744
187.937, 1499.581
189.310, 1503.604
190.684, 1498.716
192.057, 1630.917
193.430, 1738.204
194.803, 2093.580
196.176, 2251.042
197.549, 2259.590
198.921, 2310.243
200.293, 2109.981
201.665, 2009.245
203.037, 1704.608
204.408, 1533.557
205.779, 1284.586
207.150, 1090.697
208.521, 851.887
209.892, 718.156
211.262, 639.503
212.633, 559.928
214.003, 587.428
215.373, 636.003
216.742, 628.653
218.112, 686.376
219.481, 628.171
220.850, 708.038
222.219, 694.915
223.588, 678.626
224.956, 728.391
226.324, 796.136
227.692, 915.816
229.060, 999.479
230.428, 1198.152
231.795, 1304.620
233.162, 1287.002
234.529, 1230.501
235.896, 1128.110
237.263, 1079.726
238.629, 1024.504
239.995, 1111.128
241.361, 1204.858
242.727, 1376.646
244.093, 1656.388
245.458, 1626.721
246.823, 1711.149
248.188, 1537.685
249.553, 1346.325
250.917, 1235.148
252.282, 967.966
253.646, 977.865
255.010, 850.854
256.374, 920.921
257.737, 873.073
259.101, 892.299
260.464, 945.617
261.827, 865.010
263.189, 835.474
264.552, 669.022
265.914, 647.654
267.276, 555.362
268.638, 574.144
270.000, 629.003
271.362, 585.951
272.723, 658.961
274.084, 707.050
275.445, 802.207
276.806, 809.442
278.166, 741.751
279.526, 728.131
280.887, 663.569
282.246, 621.077
283.606, 590.647
284.966, 691.298
286.325, 734.014
287.684, 739.803
289.043, 777.663
290.402, 785.598
291.760, 743.603
293.118, 667.664
294.477, 587.799
295.834, 493.993
297.192, 512.258
298.550, 509.594
299.907, 524.988
301.264, 516.435
302.621, 587.945
303.978, 573.522
305.334, 635.160
306.690, 664.854
308.046, 653.612
309.402, 634.421
310.758, 617.300
312.113, 614.224
313.469, 552.207
314.824, 550.243
316.179, 476.330
317.533, 443.471
318.888, 418.666
320.242, 391.908
321.596, 404.211
322.950, 355.559
324.304, 405.967
325.657, 349.429
327.010, 360.935
328.363, 357.495
329.716, 305.098
331.069, 355.742
332.421, 281.438
333.774, 249.176
335.126, 210.959
336.478, 134.782
337.829, 68.643
339.181, 1.542
340.532, 46.479
341.883, 81.547
343.234, 43.540
344.585, 10.499
345.935, 50.422
347.285, 81.689
348.635, 149.834
349.985, 189.014
351.335, 301.228
352.684, 397.475
354.034, 594.756
355.383, 722.069
356.731, 913.414
358.080, 977.792
359.429, 1038.200
360.777, 992.639
362.125, 900.109
363.473, 783.604
364.820, 574.125
366.168, 486.674
367.515, 331.250
368.862, 158.856
370.209, 160.489
371.556, 71.150
372.902, 54.837
374.249, 15.551
375.595, 69.292
376.940, 46.057
378.286, 13.849
379.632, 125.665
380.977, 138.506
382.322, 207.370
383.667, 243.259
385.012, 264.180
386.356, 308.136
387.700, 261.126
389.044, 312.150
390.388, 323.208
391.732, 342.299
393.075, 443.425
394.419, 402.978
395.762, 372.744
397.105, 277.973
398.447, 307.553
399.790, 234.853
401.132, 211.460
402.474, 176.601
403.816, 119.687
405.158, 97.370
406.499, 164.624
407.841, 109.491
409.182, 164.288
410.523, 160.390
411.864, 202.075
413.204, 308.698
414.544, 320.347
415.884, 408.309
417.224, 484.007
418.564, 675.382
419.904, 761.129
421.243, 939.092
422.582, 1068.014
423.921, 1161.062
425.260, 1362.271
426.598, 1409.232
427.937, 1485.253
429.275, 1494.650
430.613, 1569.369
431.951, 1602.730
433.288, 1560.684
434.625, 1397.301
435.963, 1301.419
437.300, 1179.368
438.636, 1075.912
439.973, 987.996
441.309, 882.112
442.646, 818.603
443.981, 710.940
445.317, 639.347
446.653, 578.758
447.988, 564.641
449.323, 626.836
450.658, 624.067
451.993, 642.688
453.328, 754.918
454.662, 823.220
455.996, 856.473
457.331, 906.263
458.664, 1028.334
459.998, 996.800
461.331, 1139.091
462.665, 1184.814
463.998, 1187.764
465.330, 1226.181
466.663, 1364.569
467.996, 1252.877
469.328, 1191.209
470.660, 1168.917
471.992, 999.349
473.323, 949.256
474.655, 860.455
475.986, 703.669
477.317, 582.024
478.648, 487.175
479.979, 427.104
481.309, 342.363
482.640, 299.608
483.970, 245.158
485.300, 234.564
486.629, 248.139
487.959, 117.219
489.288, 136.672
490.617, 195.903
491.946, 99.904
493.275, 174.195
494.603, 216.689
495.932, 260.902
497.260, 287.663
498.588, 242.311
499.916, 323.491
501.243, 396.681
502.571, 430.973
503.898, 558.816
505.225, 623.920
506.552, 671.645
507.878, 705.800
509.205, 752.948
510.531, 774.089
511.857, 795.221
513.183, 804.345
514.508, 801.460
515.834, 833.566
517.159, 806.664
518.484, 895.751
519.809, 985.830
521.133, 1028.898
522.458, 1046.956
523.782, 1024.004
525.106, 1025.042
526.430, 984.069
527.754, 898.085
529.077, 825.090
530.400, 714.084
531.723, 586.066
533.046, 540.037
534.369, 420.995
535.692, 374.941
537.014, 277.875
538.336, 311.797
539.658, 185.706
540.980, 184.602
542.301, 113.485
543.623, 122.354
544.944, 93.210
546.265, 62.052
547.585, 84.881
548.906, 68.695
550.226, 8.494
551.547, 24.279
552.867, 5.951
554.186, 9.202
555.506, 18.526
556.825, 55.762
558.145, 15.097
559.464, 0.458
560.783, 43.840
562.101, 24.264
563.420, 2.278
564.738, 24.200
566.056, 1.286
567.374, 63.249
568.692, 50.841
570.009, 26.483
571.326, 41.838
572.643, 30.140
573.960, 27.576
575.277, 37.502
576.594, 15.294
577.910, 121.082
579.226, 54.747
580.542, 15.367
581.858, 13.459
583.173, 39.472
584.489, 34.454
585.804, 18.484
587.119, 7.554
588.434, 27.660
589.748, 68.811
591.063, 48.969
592.377, 39.271
593.691, 1.436
595.005, 42.890
596.318, 28.272
597.632, 19.703
598.945, 35.822
600.258, 16.676
601.571, 2.390
602.884, 61.792
604.196, 13.436
605.508, 38.122
606.821, 38.864
608.132, 56.664
609.444, 30.530
610.756, 8.552
612.067, 56.399
613.378, 7.418
614.689, 47.477
616.000, 51.599
617.311, 9.786
618.621, 9.984
619.931, 29.278
621.241, 48.594
622.551, 23.974
623.861, 7.404
625.170, 37.876
626.479, 10.593
627.788, 59.970
629.097, 37.397
630.406, 15.260
631.714, 3.963
633.023, 13.293
634.331, 6.482
635.639, 3.298
636.946, 19.845
638.254, 37.039
639.561, 60.019
640.868, 41.945
642.175, 7.968
643.482, 29.967
644.789, 19.123
646.095, 34.740
647.401, 91.580
648.707, 18.602
650.013, 43.170
651.319, 4.920
652.624, 106.636
653.929, 81.332
655.234, 54.007
656.539, 94.662
657.844, 62.140
659.148, 94.911
660.453, 44.510
661.757, 58.089
663.061, 50.649
664.364, 67.192
665.668, 52.715
666.971, 52.218
668.274, 70.702
669.577, 58.861
670.880, 47.611
672.183, 56.038
673.485, 66.444
674.787, 66.833
676.089, 76.202
677.391, 77.601
678.693, 84.577
679.994, 78.198
681.296, 93.494
682.597, 89.771
683.898, 83.673
685.198, 100.272
686.499, 77.496
687.799, 71.702
689.099, 65.891
690.399, 108.065
691.699, 129.222
692.998, 98.364
694.298, 118.490
695.597, 110.598
696.896, 115.693
698.195, 94.772
699.493, 103.834
700.792, 88.882
702.090, 115.912
703.388, 69.927
704.686, 154.926
705.984, 122.912
707.281, 123.891
708.578, 173.855
709.876, 158.411
711.172, 179.774
712.469, 176.201
713.766, 145.281
715.062, 147.168
716.358, 158.766
717.654, 135.855
718.950, 174.026
720.246, 178.628
721.541, 192.679
722.836, 173.132
724.131, 174.673
725.426, 189.925
726.721, 175.608
728.015, 203.374
729.310, 235.129
730.604, 232.586
731.898, 233.320
733.191, 246.393
734.485, 239.442
735.778, 199.620
737.071, 236.186
738.364, 239.640
739.657, 249.945
740.950, 344.513
742.242, 259.032
743.535, 352.187
744.827, 351.032
746.118, 359.249
747.410, 368.883
748.702, 399.866
749.993, 416.359
751.284, 444.036
752.575, 427.592
753.866, 470.653
755.156, 488.241
756.447, 510.423
757.737, 478.769
759.027, 442.055
760.316, 566.348
761.606, 513.065
762.896, 569.710
764.185, 561.220
765.474, 501.348
766.763, 537.876
768.051, 524.345
769.340, 517.872
770.628, 517.870
771.916, 515.173
773.204, 520.638
774.492, 528.480
775.780, 550.594
777.067, 558.489
778.354, 602.927
779.641, 619.402
780.928, 568.963
782.215, 726.510
783.501, 687.687
784.787, 687.156
786.073, 798.156
787.359, 770.878
788.645, 860.592
789.930, 909.172
791.216, 960.966
792.501, 1114.989
793.786, 1154.689
795.071, 1304.410
796.355, 1646.834
797.640, 1678.413
798.924, 1947.830
800.208, 2183.745
801.492, 2409.295
802.775, 2513.074
804.059, 2617.087
805.342, 2597.815
806.625, 2562.347
807.908, 2540.177
809.191, 2492.019
810.474, 2380.870
811.756, 2285.740
813.038, 2229.623
814.320, 2181.515
815.602, 2172.402
816.884, 2265.318
818.165, 2453.262
819.446, 2502.219
820.727, 2747.187
822.008, 3025.188
823.289, 3209.200
824.569, 3478.225
825.850, 3796.262
827.130, 4076.313
828.410, 4188.380
829.690, 4361.459
830.969, 4503.553
832.249, 4625.536
833.528, 4768.200
834.807, 4879.965
836.086, 4967.140
837.364, 5103.329
838.643, 5094.545
839.921, 5171.775
841.199, 5434.021
842.477, 5608.283
843.755, 5903.079
845.033, 6543.378
846.310, 7239.107
847.587, 7814.437
848.864, 8849.788
850.141, 10235.906
851.418, 11721.287
852.694, 14266.684
853.971, 16772.152
855.247, 20977.594
856.523, 26743.053
857.798, 32838.520
859.074, 41504.527
860.349, 49211.855
861.624, 55277.375
862.899, 57712.938
864.174, 52738.508
865.449, 45834.113
866.723, 36689.715
867.998, 28805.371
869.272, 22721.059
870.545, 17966.766
871.819, 14632.510
873.093, 12568.284
874.366, 10774.080
875.639, 9929.904
876.912, 9055.753
878.185, 8531.637
879.458, 7977.572
880.730, 7673.539
882.002, 7089.525
883.274, 6535.529
884.546, 6111.563
885.818, 5523.630
887.090, 5173.723
888.361, 4985.834
889.632, 4836.989
890.903, 4878.163
892.174, 4957.359
893.444, 5318.596
894.715, 5795.867
895.985, 6557.184
897.255, 7543.528
898.525, 8849.903
899.795, 10486.340
901.064, 12312.795
902.334, 14159.286
903.603, 14836.356
904.872, 14902.925
906.140, 13870.298
907.409, 12076.935
908.677, 10203.590
909.946, 8670.300
911.214, 7207.036
912.482, 6093.924
913.749, 5245.007
915.017, 4662.856
916.284, 3979.823
917.551, 3752.752
918.818, 3292.737
920.085, 3090.110
921.352, 2934.151
922.618, 2608.257
923.884, 2510.225
925.150, 2446.378
926.416, 2325.224
927.682, 2235.263
928.947, 2111.188
930.213, 1999.592
931.478, 1893.914
932.743, 1716.265
934.008, 1718.654
935.272, 1510.068
936.537, 1622.148
937.801, 1458.627
939.065, 1453.385
940.329, 1287.923
941.593, 1092.485
942.856, 1150.757
944.119, 972.377
945.383, 907.020
946.646, 950.933
947.908, 780.812
949.171, 806.434
950.433, 697.199
951.696, 675.984
952.958, 592.801
954.220, 584.638
955.481, 576.494
956.743, 551.380
958.004, 455.285
959.265, 446.999
960.526, 372.947
961.787, 371.914
963.048, 370.547
964.308, 289.549
965.569, 268.568
966.829, 347.604
968.089, 222.657
969.348, 299.608
970.608, 261.695
971.867, 184.798
973.126, 234.271
974.385, 181.053
975.644, 252.560
976.903, 161.728
978.161, 165.912
979.420, 194.703
980.678, 59.918
981.936, 129.148
983.193, 205.970
984.451, 56.230
985.708, 143.680
986.966, 70.042
988.223, 8.346
989.479, 58.524
990.736, 11.857
991.993, 87.214
993.249, 29.807
994.505, 35.818
995.761, 88.143
997.017, 30.354
998.272, 64.057
999.528, 39.267
1000.783, 44.296
1002.038, 42.222
1003.293, 25.797
1004.548, 5.721
1005.802, 90.500
1007.057, 18.999
1008.311, 97.574
1009.565, 32.652
1010.818, 74.129
1012.072, 32.394
1013.326, 31.070
1014.579, 56.710
1015.832, 95.432
1017.085, 61.087
1018.338, 102.670
1019.590, 39.706
1020.842, 105.308
1022.095, 76.533
1023.347, 100.549
1024.599, 148.186
1025.850, 111.855
1027.102, 161.542
1028.353, 271.210
1029.604, 232.397
1030.855, 274.083
1032.106, 298.633
1033.356, 210.999
1034.607, 301.711
1035.857, 241.164
1037.107, 184.036
1038.357, 229.817
1039.607, 69.308
1040.856, 136.060
1042.106, 91.340
1043.355, 52.344
1044.604, 73.114
1045.852, 30.659
1047.101, 73.594
1048.350, 4.381
1049.598, 54.836
1050.846, 10.638
1052.094, 57.888
1053.342, 22.409
1054.589, 31.434
1055.837, 28.434
1057.084, 74.515
1058.331, 55.333
1059.578, 9.291
1060.824, 53.113
1062.071, 4.788
1063.317, 10.765
1064.563, 56.060
1065.809, 31.948
1067.055, 52.921
1068.301, 0.736
1069.546, 12.654
1070.791, 105.172
1072.036, 0.071
1073.281, 23.932
1074.526, 15.882
1075.771, 40.305
1077.015, 14.250
1078.259, 4.589
1079.503, 2.163
1080.747, 65.618
1081.991, 59.396
1083.234, 68.270
1084.478, 59.041
1085.721, 35.191
1086.964, 83.566
1088.206, 26.681
1089.449, 36.196
1090.691, 27.940
1091.934, 13.320
1093.176, 51.653
1094.418, 71.376
1095.659, 1.747
1096.901, 0.037
1098.142, 15.335
1099.384, 15.351
1100.625, 84.032
1101.865, 59.711
1103.106, 89.614
1104.347, 72.276
1105.587, 22.932
1106.827, 59.631
1108.067, 41.728
1109.307, 45.284
1110.546, 32.887
1111.786, 21.520
1113.025, 121.193
1114.264, 55.755
1115.503, 36.309
1116.742, 86.853
1117.980, 53.611
1119.219, 64.912
1120.457, 24.400
1121.695, 59.123
1122.933, 91.448
1124.171, 58.871
1125.408, 33.284
1126.645, 57.782
1127.883, 4.175
1129.120, 32.552
1130.356, 45.917
1131.593, 25.727
1132.829, 127.638
1134.066, 34.051
1135.302, 24.222
1136.538, 109.481
1137.773, 27.270
1139.009, 100.029
1140.244, 46.229
1141.480, 20.417
1142.715, 130.772
1143.950, 4.469
1145.184, 29.665
1146.419, 128.443
1147.653, 10.551
1148.887, 85.699
1150.121, 43.082
1151.355, 34.142
1152.589, 61.316
1153.822, 19.703
1155.056, 66.291
1156.289, 52.529
1157.522, 29.494
1158.755, 146.991
1159.987, 115.299
1161.220, 24.781
1162.452, 53.642
1163.684, 38.655
1164.916, 58.502
1166.148, 83.997
1167.379, 43.187
1168.611, 99.575
1169.842, 24.814
1171.073, 7.540
1172.304, 115.236
1173.534, 16.107
1174.765, 84.763
1175.995, 116.674
1177.225, 40.546
1178.455, 105.022
1179.685, 77.552
1180.915, 38.087
1182.144, 151.600
1183.374, 10.306
1184.603, 70.149
1185.832, 94.990
1187.060, 30.189
1188.289, 167.583
1189.518, 39.253
1190.746, 18.608
1191.974, 156.934
1193.202, 24.122
1194.430, 78.136
1195.657, 183.481
1196.884, 21.501
1198.112, 117.669
1199.339, 48.008
1200.566, 8.526
1201.792, 112.024
1203.019, 61.477
1204.245, 93.754
1205.471, 198.780
1206.697, 42.726
1207.923, 205.218
1209.149, 69.329
1210.374, 83.827
1211.600, 173.440
1212.825, 92.482
1214.050, 119.246
1215.275, 176.069
1216.499, 14.936
1217.724, 190.329
1218.948, 121.079
1220.172, 97.999
1221.396, 218.852
1222.620, 161.808
1223.843, 72.865
1225.067, 175.004
1226.290, 58.801
1227.513, 142.291
1228.736, 230.878
1229.959, 119.456
1231.181, 188.003
1232.404, 244.609
1233.626, 171.438
1234.848, 213.006
1236.070, 115.356
1237.291, 149.490
1238.513, 269.929
1239.734, 89.976
1240.955, 253.375
1242.177, 111.756
1243.397, 172.078
1244.618, 287.238
1245.838, 154.669
1247.059, 191.271
1248.279, 187.553
1249.499, 95.237
1250.719, 202.481
1251.938, 211.708
1253.158, 142.408
1254.377, 373.598
1255.596, 70.985
1256.815, 186.469
1258.034, 197.603
1259.253, 119.069
1260.471, 261.168
1261.689, 260.248
1262.907, 168.414
1264.125, 246.459
1265.343, 144.604
1266.561, 222.480
1267.778, 290.472
1268.995, 116.092
1270.212, 284.592
1271.429, 163.524
1272.646, 128.439
1273.862, 327.621
1275.079, 181.907
1276.295, 170.761
1277.511, 289.595
1278.727, 139.834
1279.943, 298.936
1281.158, 196.530
1282.373, 162.210
1283.589, 267.109
1284.804, 125.958
1286.019, 179.642
1287.233, 239.300
1288.448, 103.716
1289.662, 119.392
1290.876, 250.421
1292.090, 18.905
1293.304, 179.719
1294.518, 132.479
1295.731, 132.005
1296.944, 221.441
1298.158, 116.795
1299.371, 147.235
1300.583, 203.930
1301.796, 84.340
1303.008, 205.667
1304.221, 132.762
1305.433, 12.101
1306.645, 266.620
1307.856, 41.785
1309.068, 107.979
1310.280, 261.088
1311.491, 32.257
1312.702, 201.478
1313.913, 196.222
1315.124, 0.387
1316.334, 237.921
1317.545, 148.656
1318.755, 93.762
1319.965, 176.828
1321.175, 2.864
1322.385, 100.906
1323.594, 192.579
1324.804, 7.585
1326.013, 207.481
1327.222, 191.026
1328.431, 26.979
1329.639, 231.172
1330.848, 44.931
1332.056, 12.771
1333.265, 237.888
1334.473, 61.733
1335.680, 207.036
1336.888, 200.605
1338.096, 19.395
1339.303, 144.398
1340.510, 101.000
1341.717, 6.739
1342.924, 169.795
1344.131, 78.492
1345.337, 43.730
1346.544, 197.503
1347.750, 40.879
1348.956, 175.437
1350.162, 126.950
1351.367, 22.553
1352.573, 201.004
1353.778, 70.580
1354.983, 0.867
1356.188, 259.219
1357.393, 71.754
1358.598, 161.111
1359.802, 228.737
1361.007, 55.755
1362.211, 192.946
1363.415, 176.493
1364.619, 58.883
1365.822, 285.165
1367.026, 48.815
1368.229, 100.260
1369.432, 287.396
1370.635, 71.839
1371.838, 111.814
1373.041, 226.251
1374.243, 108.685
1375.446, 123.173
1376.648, 92.600
1377.850, 23.975
1379.052, 92.441
1380.253, 26.663
1381.455, 1.374
1382.656, 169.051
1383.857, 38.887
1385.058, 199.075
1386.259, 203.307
1387.459, 66.029
1388.660, 304.951
1389.860, 144.921
1391.060, 38.765
1392.260, 295.336
1393.460, 21.119
1394.660, 169.821
1395.859, 257.150
1397.059, 11.727
1398.258, 239.434
1399.457, 181.113
1400.655, 30.766
1401.854, 311.289
1403.052, 116.953
1404.251, 113.486
1405.449, 285.104
1406.647, 84.661
1407.845, 159.268
1409.042, 247.868
1410.240, 9.627
1411.437, 306.740
1412.634, 330.168
1413.831, 1.433
1415.028, 427.810
1416.224, 108.157
1417.421, 38.653
1418.617, 337.825
1419.813, 105.721
1421.009, 237.479
1422.205, 355.731
1423.401, 31.291
1424.596, 255.771
1425.791, 206.198
1426.986, 63.367
1428.181, 365.829
1429.376, 221.904
1430.571, 149.305
1431.765, 336.866
1432.960, 87.576
1434.154, 238.534
1435.348, 230.912
1436.541, 40.366
1437.735, 258.410
1438.929, 247.550
1440.122, 173.468
1441.315, 319.626
1442.508, 183.229
1443.701, 120.359
1444.893, 357.641
1446.086, 109.753
1447.278, 289.331
1448.470, 419.655
1449.662, 42.591
1450.854, 330.352
1452.046, 254.356
1453.237, 101.652
1454.428, 378.924
1455.619, 272.466
1456.810, 163.533
1458.001, 620.359
1459.192, 245.847
1460.382, 284.525
1461.573, 508.579
1462.763, 606.003
1463.953, 295.137
1465.143, 356.067
1466.332, 43.996
1467.522, 450.170
1468.711, 272.031
1469.900, 173.630
1471.089, 480.425
1472.278, 227.142
1473.467, 176.523
1474.655, 455.187
1475.843, 174.100
1477.032, 308.724
1478.220, 316.524
1479.407, 154.131
1480.595, 349.271
1481.783, 230.873
1482.970, 156.323
1484.157, 366.912
1485.344, 229.749
1486.531, 144.303
1487.718, 407.968
1488.904, 153.625
1490.090, 275.357
1491.277, 315.489
1492.463, 71.261
1493.648, 310.001
1494.834, 272.896
1496.020, 82.896
1497.205, 376.911
1498.390, 165.956
1499.575, 125.377
1500.760, 443.489
1501.945, 43.625
1503.129, 520.904
