##NAMES=Leucophanite
##RRUFFID=R050004
##IDEAL CHEMISTRY=NaCaBeSi_2_O_6_F
##LOCALITY=Langesundfjord, Norway
##OWNER=RRUFF
##SOURCE=University of Arizona Mineral Museum
##DESCRIPTION=Pale green massive
##STATUS=The identification of this mineral has been confirmed by X-ray diffraction and chemical analysis
##URL=rruff.info/R050004
##MEASURED CHEMISTRY=Ca_1.00_Ca_1.00_Na_2.00_Be_2.00_Si_4.00_O_12_(F_0.96_(OH)_0.04_)_2_
##PIN_ID=M00469
##ORIENTATION=Laser parallel to -c* (0 0 -1). Fiducial mark perpendicular to laser is parallel to -a [-1 0 0]
60.426, 0.000
61.830, 40.489
63.234, 44.660
64.637, 42.429
66.041, 0.537
67.444, 56.477
68.847, 65.648
70.250, 30.829
71.652, 63.404
73.054, 103.881
74.456, 69.792
75.858, 52.408
77.260, 45.032
78.661, 40.896
80.062, 23.704
81.463, 3.605
82.863, 8.409
84.264, 8.415
85.664, 16.784
87.064, 4.979
88.463, 14.233
89.863, 30.544
91.262, 22.914
92.661, 79.337
94.059, 83.805
95.458, 73.313
96.856, 76.859
98.254, 118.449
99.652, 117.104
101.049, 156.833
102.446, 166.584
103.843, 176.359
105.240, 208.156
106.637, 219.973
108.033, 368.815
109.429, 426.295
110.825, 402.381
112.220, 585.461
113.616, 350.397
115.011, 282.342
116.406, 287.300
117.800, 252.315
119.195, 250.389
120.589, 280.502
121.983, 281.629
123.377, 283.744
124.770, 297.846
126.163, 270.942
127.556, 284.563
128.949, 279.376
130.342, 279.253
131.734, 275.372
133.126, 250.517
134.518, 242.831
135.909, 230.129
137.301, 212.953
138.692, 198.530
140.083, 229.695
141.473, 232.130
142.864, 236.214
144.254, 198.283
145.644, 189.391
147.034, 210.985
148.423, 184.126
149.812, 261.283
151.201, 293.531
152.590, 335.711
153.979, 338.100
155.367, 355.572
156.755, 351.980
158.143, 310.825
159.530, 317.049
160.918, 290.714
162.305, 249.249
163.692, 242.974
165.078, 197.488
166.465, 285.618
167.851, 248.886
169.237, 351.993
170.623, 379.198
172.008, 372.938
173.393, 351.320
174.778, 254.518
176.163, 259.073
177.548, 183.067
178.932, 162.949
180.316, 163.186
181.700, 134.582
183.083, 173.519
184.467, 124.447
185.850, 124.364
187.233, 101.272
188.616, 130.169
189.998, 110.056
191.380, 68.939
192.762, 119.983
194.144, 100.442
195.525, 156.278
196.907, 216.719
198.288, 234.204
199.669, 265.404
201.049, 195.617
202.429, 197.028
203.810, 130.672
205.189, 95.459
206.569, 107.305
207.949, 58.946
209.328, 59.933
210.707, 84.730
212.085, 53.538
213.464, 21.357
214.842, 66.183
216.220, 34.047
217.598, 1.753
218.976, 37.292
220.353, 36.057
221.730, 81.804
223.107, 75.531
224.483, 80.244
225.860, 125.156
227.236, 86.727
228.612, 85.096
229.988, 85.197
231.363, 119.225
232.738, 22.807
234.113, 100.693
235.488, 98.393
236.863, 94.092
238.237, 164.811
239.611, 74.330
240.985, 123.610
242.359, 91.866
243.732, 96.075
245.105, 88.065
246.478, 54.871
247.851, 78.234
249.223, 44.081
250.595, 79.261
251.967, 90.231
253.339, 100.340
254.711, 101.501
256.082, 83.199
257.453, 78.624
258.824, 62.659
260.195, 40.756
261.565, 72.164
262.935, 51.589
264.305, 82.809
265.675, 12.720
267.044, 73.529
268.414, 51.300
269.783, 109.066
271.151, 116.834
272.520, 68.604
273.888, 103.406
275.256, 104.173
276.624, 101.956
277.992, 93.227
279.359, 77.133
280.726, 54.247
282.093, 29.995
283.460, 22.857
284.827, 9.413
286.193, 11.771
287.559, 2.196
288.925, 11.277
290.290, 0.486
291.656, 14.166
293.021, 17.041
294.386, 29.839
295.750, 17.490
297.115, 10.624
298.479, 37.998
299.843, 56.712
301.207, 70.007
302.570, 121.053
303.933, 146.624
305.296, 197.377
306.659, 208.722
308.022, 311.254
309.384, 405.774
310.746, 479.282
312.108, 637.776
313.470, 673.257
314.831, 515.726
316.193, 475.199
317.554, 304.641
318.914, 232.301
320.275, 143.407
321.635, 140.395
322.995, 83.262
324.355, 62.370
325.715, 56.396
327.074, 26.586
328.434, 19.494
329.792, 78.592
331.151, 44.509
332.510, 65.463
333.868, 49.229
335.226, 110.078
336.584, 61.837
337.941, 73.316
339.299, 95.979
340.656, 47.590
342.013, 81.180
343.370, 22.917
344.726, 57.613
346.082, 14.410
347.438, 20.843
348.794, 22.053
350.150, 11.958
351.505, 51.776
352.860, 24.640
354.215, 122.359
355.570, 94.295
356.924, 184.501
358.278, 289.282
359.632, 438.395
360.986, 592.786
362.339, 588.430
363.693, 555.416
365.046, 460.783
366.399, 305.106
367.751, 212.662
369.104, 130.970
370.456, 101.397
371.808, 94.321
373.159, 84.352
374.511, 148.749
375.862, 144.523
377.213, 219.082
378.564, 304.970
379.914, 311.698
381.265, 363.217
382.615, 342.297
383.965, 356.087
385.315, 196.101
386.664, 155.430
388.013, 102.668
389.362, 68.693
390.711, 54.638
392.060, 55.535
393.408, 40.779
394.756, 20.827
396.104, 17.540
397.451, 42.909
398.799, 2.783
400.146, 5.877
401.493, 21.008
402.840, 29.781
404.186, 15.572
405.533, 21.331
406.879, 71.058
408.225, 86.756
409.570, 127.675
410.916, 99.599
412.261, 31.853
413.606, 47.072
414.951, 2.882
416.295, 21.798
417.639, 27.573
418.983, 5.234
420.327, 12.301
421.671, 13.407
423.014, 19.838
424.357, 23.258
425.700, 74.861
427.043, 148.426
428.386, 172.409
429.728, 257.829
431.070, 280.964
432.412, 341.226
433.753, 326.137
435.095, 180.369
436.436, 235.700
437.777, 190.116
439.118, 233.114
440.458, 235.263
441.798, 220.302
443.138, 222.212
444.478, 172.007
445.818, 208.735
447.157, 92.408
448.496, 127.104
449.835, 152.445
451.174, 187.578
452.513, 212.810
453.851, 159.108
455.189, 175.508
456.527, 208.886
457.864, 151.066
459.202, 227.172
460.539, 149.612
461.876, 217.898
463.212, 264.252
464.549, 356.671
465.885, 454.146
467.221, 579.448
468.557, 702.890
469.893, 751.155
471.228, 725.192
472.563, 592.475
473.898, 447.427
475.233, 403.507
476.567, 219.686
477.902, 251.529
479.236, 170.388
480.570, 60.915
481.903, 86.627
483.237, 4.590
484.570, 52.801
485.903, 68.985
487.235, 25.741
488.568, 89.667
489.900, 40.314
491.232, 79.956
492.564, 67.587
493.896, 108.936
495.227, 85.213
496.558, 102.151
497.889, 163.454
499.220, 114.461
500.551, 121.514
501.881, 121.321
503.211, 81.219
504.541, 85.480
505.870, 56.527
507.200, 63.998
508.529, 22.630
509.858, 16.031
511.187, 32.344
512.515, 16.771
513.844, 47.032
515.172, 7.650
516.500, 0.094
517.827, 18.630
519.155, 16.885
520.482, 101.535
521.809, 35.906
523.136, 49.774
524.462, 92.465
525.789, 97.653
527.115, 36.792
528.441, 88.890
529.766, 54.893
531.092, 154.717
532.417, 162.463
533.742, 247.115
535.067, 168.968
536.391, 182.768
537.716, 143.525
539.040, 144.231
540.364, 148.887
541.688, 51.519
543.011, 114.094
544.334, 96.617
545.657, 15.088
546.980, 32.503
548.303, 77.655
549.625, 89.605
550.947, 93.438
552.269, 12.215
553.591, 42.866
554.913, 105.373
556.234, 143.807
557.555, 198.287
558.876, 308.468
560.197, 350.496
561.517, 467.668
562.837, 512.869
564.157, 440.379
565.477, 328.891
566.797, 299.836
568.116, 204.301
569.435, 221.416
570.754, 104.160
572.073, 142.600
573.391, 180.431
574.709, 164.333
576.027, 119.915
577.345, 78.473
578.663, 45.372
579.980, 24.577
581.297, 9.835
582.614, 28.666
583.931, 16.645
585.248, 5.625
586.564, 36.105
587.880, 13.017
589.196, 25.884
590.511, 27.254
591.827, 21.680
593.142, 10.802
594.457, 29.663
595.772, 14.201
597.086, 41.881
598.401, 18.418
599.715, 21.502
601.029, 22.397
602.343, 18.323
603.656, 19.033
604.969, 4.148
606.282, 10.849
607.595, 56.212
608.908, 46.098
610.220, 5.784
611.532, 63.328
612.844, 32.957
614.156, 43.152
615.468, 70.528
616.779, 13.060
618.090, 14.884
619.401, 59.944
620.712, 49.208
622.022, 59.534
623.332, 38.894
624.642, 73.112
625.952, 32.118
627.262, 67.052
628.571, 114.003
629.880, 47.545
631.189, 119.389
632.498, 81.166
633.807, 49.504
635.115, 122.442
636.423, 110.840
637.731, 181.913
639.039, 128.335
640.346, 102.080
641.653, 155.018
642.960, 173.307
644.267, 260.050
645.574, 179.424
646.880, 228.787
648.186, 279.262
649.492, 237.139
650.798, 315.268
652.103, 306.514
653.409, 367.322
654.714, 461.776
656.019, 472.944
657.323, 572.765
658.628, 560.531
659.932, 743.956
661.236, 773.977
662.540, 938.567
663.843, 1263.987
665.147, 1455.558
666.450, 1933.784
667.753, 2341.473
669.056, 3021.532
670.358, 4019.611
671.660, 5025.717
672.963, 6077.129
674.264, 6958.341
675.566, 6849.987
676.868, 6449.868
678.169, 5491.859
679.470, 4378.023
680.771, 3562.838
682.071, 2817.403
683.372, 2371.943
684.672, 1928.439
685.972, 1713.631
687.271, 1549.577
688.571, 1265.521
689.870, 1289.756
691.169, 1057.229
692.468, 1051.132
693.767, 1156.757
695.065, 1064.598
696.364, 1178.229
697.662, 1161.003
698.960, 1260.554
700.257, 1490.882
701.555, 1477.604
702.852, 1732.465
704.149, 1786.282
705.446, 1799.093
706.742, 1707.606
708.038, 1604.430
709.335, 1494.295
710.631, 1145.527
711.926, 1026.866
713.222, 825.993
714.517, 606.688
715.812, 608.107
717.107, 478.482
718.402, 444.868
719.696, 338.852
720.990, 331.792
722.284, 265.633
723.578, 383.238
724.872, 255.438
726.165, 302.543
727.458, 293.194
728.751, 440.197
730.044, 344.676
731.336, 414.908
732.629, 330.407
733.921, 284.918
735.213, 355.396
736.504, 233.216
737.796, 244.103
739.087, 259.723
740.378, 230.873
741.669, 242.516
742.960, 155.831
744.250, 151.384
745.540, 145.430
746.830, 193.585
748.120, 198.515
749.410, 160.533
750.699, 179.410
751.988, 189.881
753.277, 175.088
754.566, 220.204
755.854, 248.501
757.143, 225.696
758.431, 350.848
759.719, 269.813
761.006, 360.326
762.294, 458.619
763.581, 341.712
764.868, 305.286
766.155, 306.489
767.442, 356.964
768.728, 220.497
770.014, 193.426
771.300, 330.880
772.586, 65.322
773.872, 177.708
775.157, 175.073
776.442, 80.411
777.727, 181.851
779.012, 134.637
780.297, 168.837
781.581, 173.319
782.865, 151.404
784.149, 249.110
785.433, 159.963
786.716, 158.202
787.999, 251.662
789.282, 85.273
790.565, 201.669
791.848, 205.873
793.130, 234.145
794.413, 172.447
795.695, 133.432
796.977, 209.337
798.258, 98.426
799.540, 124.608
800.821, 174.901
802.102, 79.628
803.382, 243.759
804.663, 152.868
805.943, 147.451
807.224, 210.946
808.504, 41.742
809.783, 165.525
811.063, 180.281
812.342, 22.774
813.621, 241.128
814.900, 39.183
816.179, 124.061
817.457, 115.727
818.736, 67.179
820.014, 89.457
821.292, 0.309
822.569, 100.163
823.847, 60.258
825.124, 64.889
826.401, 153.557
827.678, 112.889
828.954, 85.886
830.231, 162.733
831.507, 43.939
832.783, 155.309
834.059, 130.344
835.334, 73.184
836.610, 63.567
837.885, 18.764
839.160, 94.720
840.435, 99.417
841.709, 16.106
842.983, 93.330
844.258, 99.056
845.532, 133.635
846.805, 16.441
848.079, 76.714
849.352, 103.933
850.625, 82.720
851.898, 222.054
853.171, 75.445
854.443, 13.260
855.715, 40.655
856.988, 47.602
858.259, 70.008
859.531, 129.336
860.803, 36.385
862.074, 150.964
863.345, 78.399
864.616, 90.684
865.886, 155.819
867.157, 49.807
868.427, 179.636
869.697, 167.314
870.967, 141.838
872.236, 214.204
873.506, 199.991
874.775, 198.591
876.044, 229.292
877.313, 211.253
878.581, 224.059
879.849, 187.908
881.118, 115.558
882.386, 252.664
883.653, 31.051
884.921, 138.238
886.188, 24.537
887.455, 63.598
888.722, 130.279
889.989, 42.268
891.255, 111.801
892.522, 123.795
893.788, 31.477
895.054, 122.115
896.319, 84.810
897.585, 116.028
898.850, 62.682
900.115, 20.598
901.380, 245.973
902.645, 117.767
903.909, 138.343
905.174, 74.345
906.438, 79.721
907.701, 286.053
908.965, 42.914
910.229, 20.083
911.492, 36.168
912.755, 53.193
914.018, 119.790
915.280, 196.198
916.543, 43.025
917.805, 129.059
919.067, 25.175
920.329, 191.619
921.590, 76.687
922.852, 97.533
924.113, 97.532
925.374, 89.611
926.635, 105.531
927.895, 69.022
929.156, 22.905
930.416, 127.671
931.676, 31.271
932.936, 54.114
934.195, 229.563
935.454, 156.895
936.714, 2.050
937.973, 151.034
939.231, 65.052
940.490, 168.879
941.748, 20.861
943.006, 25.542
944.264, 46.854
945.522, 90.458
946.780, 212.881
948.037, 14.556
949.294, 197.093
950.551, 229.296
951.808, 19.141
953.064, 243.590
954.320, 164.380
955.577, 96.153
956.832, 268.347
958.088, 8.225
959.344, 320.845
960.599, 287.057
961.854, 377.155
963.109, 648.833
964.364, 647.684
965.618, 688.562
966.872, 698.939
968.127, 478.696
969.380, 498.936
970.634, 508.110
971.888, 247.227
973.141, 397.730
974.394, 216.256
975.647, 295.592
976.900, 254.712
978.152, 303.007
979.404, 351.901
980.656, 355.525
981.908, 478.045
983.160, 406.916
984.411, 453.817
985.663, 470.846
986.914, 307.408
988.165, 443.494
989.415, 447.263
990.666, 123.091
991.916, 568.354
993.166, 643.183
994.416, 488.112
995.665, 833.347
996.915, 639.429
998.164, 822.733
999.413, 708.730
1000.662, 644.674
1001.911, 832.927
1003.159, 549.188
1004.407, 412.784
1005.655, 477.609
1006.903, 312.509
1008.151, 646.217
1009.398, 631.397
1010.646, 424.104
1011.893, 858.418
1013.139, 782.670
1014.386, 876.126
1015.633, 1249.930
1016.879, 1243.971
1018.125, 2165.400
1019.371, 2509.681
1020.616, 3451.619
1021.862, 4353.677
1023.107, 4276.588
1024.352, 4028.583
1025.597, 2851.170
1026.842, 2113.646
1028.086, 1825.188
1029.330, 1058.219
1030.574, 1038.725
1031.818, 820.158
1033.062, 572.595
1034.305, 652.351
1035.548, 524.450
1036.791, 503.022
1038.034, 778.730
1039.277, 480.427
1040.519, 1027.058
1041.762, 817.786
1043.004, 858.459
1044.246, 1426.010
1045.487, 1176.949
1046.729, 1600.792
1047.970, 1960.218
1049.211, 1571.725
1050.452, 1737.943
1051.692, 1578.382
1052.933, 1130.705
1054.173, 1188.822
1055.413, 757.502
1056.653, 821.018
1057.893, 519.434
1059.132, 387.865
1060.371, 734.885
1061.610, 393.012
1062.849, 551.312
1064.088, 658.287
1065.326, 407.164
1066.565, 523.834
1067.803, 470.518
1069.041, 409.941
1070.278, 565.023
1071.516, 331.998
1072.753, 583.680
1073.990, 808.295
1075.227, 320.529
1076.464, 675.627
1077.700, 450.779
1078.936, 309.666
1080.173, 503.725
1081.408, 258.010
1082.644, 441.215
1083.880, 415.105
1085.115, 131.928
1086.350, 425.369
1087.585, 188.627
1088.820, 230.250
1090.054, 493.738
1091.288, 23.180
1092.522, 701.693
1093.756, 363.541
1094.990, 92.139
1096.224, 415.432
1097.457, 246.016
1098.690, 179.916
1099.923, 321.234
1101.156, 52.021
1102.388, 385.516
1103.621, 275.125
1104.853, 46.252
1106.085, 557.633
1107.316, 24.273
1108.548, 307.844
1109.779, 407.605
1111.010, 7.334
1112.241, 410.000
1113.472, 189.582
1114.703, 70.719
1115.933, 271.285
1117.163, 111.271
1118.393, 281.686
1119.623, 281.109
1120.853, 90.676
1122.082, 361.328
1123.311, 88.258
1124.540, 106.574
1125.769, 354.980
1126.997, 131.723
1128.226, 180.812
1129.454, 389.832
1130.682, 14.172
1131.910, 506.740
1133.138, 414.719
1134.365, 431.029
1135.592, 499.529
1136.819, 465.309
1138.046, 520.076
1139.273, 619.213
1140.499, 525.143
1141.725, 626.270
1142.951, 523.303
1144.177, 320.607
1145.403, 768.299
1146.628, 213.072
1147.854, 222.014
1149.079, 540.246
1150.304, 194.879
1151.528, 652.389
1152.753, 186.752
1153.977, 231.514
1155.201, 507.445
1156.425, 141.436
1157.649, 755.721
1158.872, 259.543
1160.096, 352.199
1161.319, 439.771
1162.542, 334.098
1163.764, 309.520
1164.987, 794.955
1166.209, 208.730
1167.431, 723.961
1168.653, 640.900
1169.875, 472.203
1171.097, 649.297
1172.318, 472.496
1173.539, 492.928
1174.760, 667.832
1175.981, 287.660
1177.202, 817.977
1178.422, 489.732
1179.642, 348.238
1180.862, 747.277
1182.082, 256.807
1183.302, 513.812
1184.521, 634.791
1185.740, 232.570
1186.959, 648.557
1188.178, 387.576
1189.397, 373.506
1190.615, 490.832
1191.834, 244.412
1193.052, 568.609
1194.269, 529.293
1195.487, 27.902
1196.705, 791.678
1197.922, 310.225
1199.139, 294.834
1200.356, 679.129
1201.573, 446.285
1202.789, 487.770
1204.006, 644.279
1205.222, 358.254
1206.438, 626.934
1207.653, 340.967
1208.869, 271.152
1210.084, 609.729
1211.299, 235.490
1212.514, 563.311
1213.729, 605.039
1214.944, 3.256
1216.158, 963.525
1217.372, 352.795
1218.586, 251.443
1219.800, 846.541
1221.014, 208.725
1222.227, 693.916
1223.440, 599.545
1224.654, 6.627
1225.866, 897.518
1227.079, 706.178
1228.292, 344.154
1229.504, 947.828
1230.716, 360.881
1231.928, 780.795
1233.139, 963.615
1234.351, 529.721
1235.562, 891.662
1236.773, 794.695
1237.984, 337.465
1239.195, 1017.998
1240.406, 699.955
1241.616, 740.637
1242.826, 1138.650
1244.036, 479.391
1245.246, 1080.092
1246.456, 777.658
1247.665, 482.812
1248.874, 1279.525
1250.083, 796.727
1251.292, 859.631
1252.501, 1332.805
1253.709, 628.250
1254.917, 1116.785
1256.125, 1160.408
1257.333, 677.027
1258.541, 1363.943
1259.748, 976.645
1260.956, 1073.518
1262.163, 935.469
1263.370, 799.242
1264.576, 996.016
1265.783, 967.701
1266.989, 288.090
1268.195, 1133.240
1269.401, 822.264
1270.607, 702.846
1271.813, 1094.238
1273.018, 521.883
1274.223, 502.375
1275.428, 1290.818
1276.633, 217.104
1277.838, 681.447
1279.042, 1038.434
1280.246, 378.234
1281.450, 1027.373
1282.654, 323.191
1283.858, 834.258
1285.061, 953.516
1286.265, 138.346
1287.468, 498.721
1288.671, 612.736
1289.873, 426.258
1291.076, 1103.852
1292.278, 255.402
1293.480, 278.498
1294.682, 962.625
1295.884, 262.734
1297.086, 586.621
1298.287, 495.883
1299.488, 75.223
1300.689, 718.891
1301.890, 566.250
1303.091, 44.438
1304.291, 935.867
1305.491, 152.211
1306.691, 459.977
1307.891, 295.758
1309.091, 260.297
1310.290, 427.516
1311.490, 230.730
1312.689, 95.586
1313.888, 722.320
1315.086, 65.219
1316.285, 328.348
1317.483, 721.691
1318.681, 133.270
1319.879, 725.070
1321.077, 534.781
1322.275, 326.242
1323.472, 827.258
1324.669, 34.203
1325.866, 425.340
1327.063, 713.719
1328.260, 161.328
1329.456, 638.902
1330.653, 696.047
1331.849, 47.320
1333.045, 857.609
1334.240, 493.945
1335.436, 28.301
1336.631, 1042.547
1337.826, 106.180
1339.021, 219.074
1340.216, 909.496
1341.411, 172.477
1342.605, 552.922
1343.799, 554.305
1344.993, 205.352
1346.187, 1034.895
1347.381, 204.520
1348.574, 293.914
1349.767, 1091.637
1350.961, 309.996
1352.153, 566.652
1353.346, 1022.664
1354.539, 260.516
1355.731, 884.023
1356.923, 269.570
1358.115, 224.688
1359.307, 865.980
1360.498, 443.125
1361.690, 355.750
1362.881, 1187.477
1364.072, 238.738
1365.263, 731.738
1366.453, 893.820
1367.644, 464.918
1368.834, 691.703
1370.024, 188.508
1371.214, 241.434
1372.404, 676.527
1373.593, 323.176
1374.783, 137.906
1375.972, 596.754
1377.161, 401.648
1378.349, 519.922
1379.538, 489.414
1380.726, 238.730
1381.915, 1098.246
1383.103, 458.215
1384.290, 447.109
1385.478, 1224.949
1386.665, 453.586
1387.853, 393.098
1389.040, 1040.977
1390.227, 58.340
1391.413, 1173.664
1392.600, 879.457
1393.786, 301.465
1394.972, 1204.020
1396.158, 736.422
1397.344, 448.945
1398.530, 1505.277
1399.715, 454.254
1400.900, 581.938
1402.085, 1281.891
1403.270, 343.141
1404.455, 1377.582
1405.639, 702.094
1406.824, 345.438
1408.008, 1205.887
1409.192, 661.797
1410.375, 434.375
1411.559, 1353.301
1412.742, 907.824
1413.925, 871.504
1415.108, 1455.453
1416.291, 28.172
1417.474, 1325.637
1418.656, 1317.688
1419.839, 274.836
1421.021, 1429.504
1422.202, 657.453
1423.384, 787.199
1424.566, 1712.332
1425.747, 369.719
1426.928, 580.488
1428.109, 1577.953
1429.290, 356.715
1430.470, 1701.520
1431.651, 1236.352
1432.831, 613.891
1434.011, 1663.105
1435.191, 948.328
1436.370, 845.980
1437.550, 1581.246
1438.729, 814.891
1439.908, 1686.469
1441.087, 1512.855
1442.266, 391.590
1443.444, 1834.199
1444.623, 1393.129
1445.801, 327.500
1446.979, 1822.262
1448.157, 609.766
1449.334, 858.113
1450.512, 1354.969
1451.689, 751.191
1452.866, 1146.637
1454.043, 1914.270
1455.220, 329.836
1456.396, 1735.613
1457.573, 1368.020
1458.749, 596.395
1459.925, 1763.422
1461.100, 1004.809
1462.276, 907.055
1463.451, 2159.484
1464.627, 527.938
1465.802, 1196.906
1466.977, 1911.051
1468.151, 487.094
1469.326, 1654.980
1470.500, 1633.469
1471.674, 332.156
1472.848, 2164.867
1474.022, 1309.531
1475.195, 226.652
1476.369, 2188.969
1477.542, 309.504
1478.715, 1077.648
1479.888, 2016.125
1481.061, 492.531
1482.233, 1325.352
1483.405, 1304.383
1484.577, 207.691
1485.749, 1784.887
1486.921, 858.621
1488.093, 426.789
1489.264, 1730.594
1490.435, 1224.086
1491.606, 519.086
1492.777, 1584.242
1493.948, 426.812
1495.118, 1158.281
1496.288, 1417.574
1497.459, 389.066
1498.628, 1571.242
1499.798, 900.008
1500.968, 69.746
1502.137, 1781.398
1503.306, 879.383
1504.475, 470.996
1505.644, 1521.930
1506.813, 555.867
1507.981, 950.078
1509.149, 1260.559
1510.318, 33.227
