##NAMES=Leucophanite
##RRUFFID=R050004
##IDEAL CHEMISTRY=NaCaBeSi_2_O_6_F
##LOCALITY=Langesundfjord, Norway
##OWNER=RRUFF
##SOURCE=University of Arizona Mineral Museum
##DESCRIPTION=Pale green massive
##STATUS=The identification of this mineral has been confirmed by X-ray diffraction and chemical analysis
##URL=rruff.info/R050004
##MEASURED CHEMISTRY=Ca_1.00_Ca_1.00_Na_2.00_Be_2.00_Si_4.00_O_12_(F_0.96_(OH)_0.04_)_2_
##PIN_ID=M00205
##ORIENTATION=Laser parallel to -b* (0 -1 0). Fiducial mark perpendicular to laser is parallel to c [0 0 1]
75.858, 0.000
77.260, 27.225
78.661, 18.863
80.062, 16.001
81.463, 56.685
82.863, 4.803
84.264, 0.087
85.664, 26.245
87.064, 22.708
88.463, 29.343
89.863, 4.866
91.262, 12.107
92.661, 41.207
94.059, 11.415
95.458, 74.784
96.856, 76.272
98.254, 93.800
99.652, 71.312
101.049, 132.771
102.446, 162.434
103.843, 205.266
105.240, 303.330
106.637, 158.485
108.033, 187.405
109.429, 230.169
110.825, 282.093
112.220, 253.451
113.616, 256.982
115.011, 260.172
116.406, 193.033
117.800, 231.213
119.195, 240.145
120.589, 199.881
121.983, 250.393
123.377, 230.724
124.770, 176.885
126.163, 203.849
127.556, 198.509
128.949, 129.374
130.342, 98.173
131.734, 142.660
133.126, 119.511
134.518, 145.991
135.909, 191.458
137.301, 191.841
138.692, 129.116
140.083, 118.300
141.473, 153.983
142.864, 160.086
144.254, 187.327
145.644, 176.314
147.034, 247.486
148.423, 279.450
149.812, 288.900
151.201, 392.910
152.590, 501.271
153.979, 768.316
155.367, 683.081
156.755, 731.124
158.143, 657.496
159.530, 627.424
160.918, 634.726
162.305, 382.931
163.692, 331.945
165.078, 185.346
166.465, 215.397
167.851, 246.445
169.237, 351.069
170.623, 517.852
172.008, 589.576
173.393, 620.284
174.778, 333.985
176.163, 189.682
177.548, 74.377
178.932, 26.068
180.316, 67.572
181.700, 0.080
183.083, 35.175
184.467, 73.959
185.850, 67.643
187.233, 51.347
188.616, 30.678
189.998, 43.481
191.380, 27.067
192.762, 52.354
194.144, 68.746
195.525, 70.105
196.907, 113.078
198.288, 106.721
199.669, 153.979
201.049, 167.468
202.429, 190.434
203.810, 203.853
205.189, 154.610
206.569, 104.804
207.949, 10.074
209.328, 53.516
210.707, 1.051
212.085, 29.808
213.464, 32.059
214.842, 56.900
216.220, 60.025
217.598, 41.170
218.976, 17.600
220.353, 32.665
221.730, 18.958
223.107, 30.717
224.483, 10.646
225.860, 28.239
227.236, 14.771
228.612, 23.332
229.988, 21.702
231.363, 20.441
232.738, 28.133
234.113, 41.669
235.488, 97.655
236.863, 49.138
238.237, 155.486
239.611, 75.142
240.985, 162.568
242.359, 131.000
243.732, 110.519
245.105, 145.529
246.478, 59.302
247.851, 89.998
249.223, 80.180
250.595, 101.916
251.967, 122.033
253.339, 146.439
254.711, 229.797
256.082, 133.602
257.453, 212.227
258.824, 139.244
260.195, 101.900
261.565, 150.861
262.935, 94.115
264.305, 137.411
265.675, 102.453
267.044, 136.730
268.414, 204.326
269.783, 284.972
271.151, 305.557
272.520, 349.877
273.888, 383.277
275.256, 383.355
276.624, 378.329
277.992, 316.991
279.359, 196.510
280.726, 229.457
282.093, 86.702
283.460, 183.488
284.827, 82.715
286.193, 56.280
287.559, 100.949
288.925, 46.993
290.290, 130.789
291.656, 86.103
293.021, 124.580
294.386, 104.934
295.750, 88.113
297.115, 134.346
298.479, 80.905
299.843, 196.535
301.207, 152.982
302.570, 241.399
303.933, 290.786
305.296, 241.147
306.659, 452.477
308.022, 515.764
309.384, 789.008
310.746, 1084.185
312.108, 1573.296
313.470, 2089.343
314.831, 1820.336
316.193, 1663.285
317.554, 1036.183
318.914, 746.031
320.275, 578.150
321.635, 372.932
322.995, 396.534
324.355, 168.575
325.715, 254.354
327.074, 198.020
328.434, 110.747
329.792, 154.184
331.151, 102.121
332.510, 228.393
333.868, 230.863
335.226, 203.902
336.584, 214.575
337.941, 191.649
339.299, 227.168
340.656, 150.541
342.013, 204.075
343.370, 143.813
344.726, 113.161
346.082, 182.989
347.438, 32.429
348.794, 179.813
350.150, 93.719
351.505, 144.618
352.860, 173.185
354.215, 269.320
355.570, 296.800
356.924, 304.170
358.278, 535.987
359.632, 674.567
360.986, 1260.463
362.339, 1912.539
363.693, 1946.128
365.046, 1886.058
366.399, 1045.589
367.751, 720.250
369.104, 425.106
370.456, 304.584
371.808, 340.332
373.159, 166.425
374.511, 242.796
375.862, 130.716
377.213, 141.951
378.564, 174.905
379.914, 115.836
381.265, 214.418
382.615, 131.071
383.965, 137.138
385.315, 109.040
386.664, 11.611
388.013, 134.982
389.362, 9.301
390.711, 93.418
392.060, 52.320
393.408, 56.255
394.756, 59.994
396.104, 35.569
397.451, 137.432
398.799, 16.100
400.146, 9.382
401.493, 75.261
402.840, 35.235
404.186, 73.466
405.533, 1.412
406.879, 38.790
408.225, 7.665
409.570, 16.671
410.916, 49.741
412.261, 78.085
413.606, 95.124
414.951, 16.808
416.295, 37.062
417.639, 41.831
418.983, 22.914
420.327, 111.614
421.671, 24.587
423.014, 132.589
424.357, 55.273
425.700, 39.961
427.043, 93.627
428.386, 29.835
429.728, 192.047
431.070, 172.357
432.412, 183.391
433.753, 239.092
435.095, 39.625
436.436, 215.632
437.777, 59.522
439.118, 134.501
440.458, 160.007
441.798, 49.282
443.138, 208.977
444.478, 70.221
445.818, 199.226
447.157, 109.802
448.496, 76.587
449.835, 218.643
451.174, 30.563
452.513, 149.277
453.851, 99.613
455.189, 116.250
456.527, 149.124
457.864, 125.897
459.202, 320.581
460.539, 245.514
461.876, 376.108
463.212, 463.086
464.549, 450.100
465.885, 732.256
467.221, 722.091
468.557, 1120.358
469.893, 1235.926
471.228, 1290.410
472.563, 1351.115
473.898, 877.647
475.233, 839.669
476.567, 556.021
477.902, 451.255
479.236, 479.622
480.570, 217.705
481.903, 385.332
483.237, 90.065
484.570, 218.037
485.903, 274.919
487.235, 55.805
488.568, 272.692
489.900, 96.043
491.232, 208.544
492.564, 121.996
493.896, 67.667
495.227, 163.291
496.558, 7.800
497.889, 141.328
499.220, 28.706
500.551, 57.152
501.881, 176.255
503.211, 54.530
504.541, 199.533
505.870, 72.358
507.200, 127.429
508.529, 170.828
509.858, 31.789
511.187, 247.338
512.515, 58.054
513.844, 167.834
515.172, 188.798
516.500, 106.723
517.827, 248.603
519.155, 60.438
520.482, 260.220
521.809, 203.964
523.136, 121.654
524.462, 273.297
525.789, 122.894
527.115, 382.436
528.441, 267.981
529.766, 301.474
531.092, 529.923
532.417, 340.333
533.742, 774.423
535.067, 564.764
536.391, 840.631
537.716, 817.522
539.040, 547.507
540.364, 654.194
541.688, 368.294
543.011, 390.997
544.334, 417.698
545.657, 115.253
546.980, 352.337
548.303, 62.909
549.625, 183.344
550.947, 235.637
552.269, 16.714
553.591, 255.755
554.913, 87.763
556.234, 191.491
557.555, 127.705
558.876, 65.487
560.197, 303.065
561.517, 62.867
562.837, 325.361
564.157, 182.037
565.477, 130.568
566.797, 232.979
568.116, 0.803
569.435, 262.478
570.754, 60.742
572.073, 46.816
573.391, 182.144
574.709, 65.212
576.027, 201.258
577.345, 27.156
578.663, 2.947
579.980, 117.014
581.297, 19.369
582.614, 131.961
583.931, 12.369
585.248, 103.373
586.564, 167.383
587.880, 56.411
589.196, 211.974
590.511, 33.068
591.827, 101.414
593.142, 132.790
594.457, 9.754
595.772, 269.005
597.086, 69.836
598.401, 103.504
599.715, 149.174
601.029, 38.462
602.343, 266.663
603.656, 21.737
604.969, 162.225
606.282, 74.856
607.595, 43.272
608.908, 250.909
610.220, 94.001
611.532, 169.047
612.844, 124.238
614.156, 36.705
615.468, 273.870
616.779, 9.028
618.090, 208.933
619.401, 157.013
620.712, 12.513
622.022, 288.561
623.332, 7.443
624.642, 315.425
625.952, 204.086
627.262, 123.409
628.571, 384.619
629.880, 83.181
631.189, 356.591
632.498, 231.323
633.807, 143.924
635.115, 409.090
636.423, 129.571
637.731, 444.225
639.039, 290.459
640.346, 256.084
641.653, 491.918
642.960, 162.606
644.267, 636.249
645.574, 411.398
646.880, 475.506
648.186, 677.604
649.492, 396.419
650.798, 761.750
652.103, 640.031
653.409, 603.917
654.714, 913.437
656.019, 644.240
657.323, 1129.576
658.628, 964.684
659.932, 1258.108
661.236, 1636.557
662.540, 1460.390
663.843, 2229.066
665.147, 2324.804
666.450, 3136.644
667.753, 4172.055
669.056, 4724.129
670.358, 7275.314
671.660, 8299.983
672.963, 11431.285
674.264, 14723.823
675.566, 14456.035
676.868, 16486.766
678.169, 12670.501
679.470, 10550.823
680.771, 8613.055
682.071, 5805.109
683.372, 5605.530
684.672, 4054.593
685.972, 3540.117
687.271, 3469.026
688.571, 2485.521
689.870, 2960.090
691.169, 2138.151
692.468, 2315.479
693.767, 2437.244
695.065, 1947.497
696.364, 2590.671
697.662, 2223.928
698.960, 2562.667
700.257, 3024.492
701.555, 2744.445
702.852, 3932.682
704.149, 3694.662
705.446, 4054.815
706.742, 4523.917
708.038, 3616.626
709.335, 3853.165
710.631, 2819.740
711.926, 2359.006
713.222, 2065.470
714.517, 1194.144
715.812, 1514.619
717.107, 934.881
718.402, 927.017
719.696, 975.190
720.990, 504.895
722.284, 899.124
723.578, 599.008
724.872, 637.016
726.165, 742.789
727.458, 437.527
728.751, 826.547
730.044, 414.111
731.336, 461.946
732.629, 654.372
733.921, 262.357
735.213, 623.982
736.504, 253.333
737.796, 288.141
739.087, 592.467
740.378, 64.831
741.669, 518.957
742.960, 393.655
744.250, 248.022
745.540, 554.941
746.830, 179.500
748.120, 487.479
749.410, 369.951
750.699, 237.685
751.988, 567.392
753.277, 89.660
754.566, 500.723
755.854, 465.154
757.143, 392.446
758.431, 774.878
759.719, 404.803
761.006, 739.184
762.294, 643.418
763.581, 466.725
764.868, 783.918
766.155, 245.744
767.442, 631.221
768.728, 564.781
770.014, 175.558
771.300, 632.854
772.586, 81.929
773.872, 499.500
775.157, 417.575
776.442, 41.905
777.727, 536.620
779.012, 37.726
780.297, 318.716
781.581, 383.423
782.865, 54.361
784.149, 533.716
785.433, 73.464
786.716, 219.840
787.999, 474.341
789.282, 26.043
790.565, 471.594
791.848, 173.831
793.130, 186.724
794.413, 391.859
795.695, 41.733
796.977, 524.810
798.258, 96.309
799.540, 217.786
800.821, 434.833
802.102, 29.666
803.382, 408.599
804.663, 182.932
805.943, 123.258
807.224, 538.095
808.504, 67.046
809.783, 501.270
811.063, 244.291
812.342, 69.742
813.621, 573.798
814.900, 85.962
816.179, 462.104
817.457, 354.335
818.736, 16.287
820.014, 617.234
821.292, 84.309
822.569, 361.893
823.847, 369.518
825.124, 8.140
826.401, 436.381
827.678, 41.653
828.954, 242.591
830.231, 392.074
831.507, 8.757
832.783, 594.684
834.059, 40.040
835.334, 213.330
836.610, 436.980
837.885, 153.035
839.160, 519.313
840.435, 212.540
841.709, 77.068
842.983, 520.182
844.258, 44.405
845.532, 542.258
846.805, 187.249
848.079, 51.587
849.352, 529.889
850.625, 55.254
851.898, 358.110
853.171, 320.479
854.443, 31.346
855.715, 675.307
856.988, 3.423
858.259, 364.243
859.531, 477.758
860.803, 7.121
862.074, 642.390
863.345, 135.733
864.616, 258.733
865.886, 536.612
867.157, 67.646
868.427, 603.906
869.697, 153.349
870.967, 159.638
872.236, 633.798
873.506, 101.829
874.775, 619.431
876.044, 542.196
877.313, 204.820
878.581, 847.305
879.849, 99.680
881.118, 481.309
882.386, 463.405
883.653, 116.934
884.921, 707.306
886.188, 19.367
887.455, 411.121
888.722, 572.466
889.989, 65.159
891.255, 784.579
892.522, 205.474
893.788, 274.021
895.054, 654.312
896.319, 13.992
897.585, 592.926
898.850, 233.011
900.115, 1.447
901.380, 781.000
902.645, 120.056
903.909, 568.104
905.174, 377.492
906.438, 24.789
907.701, 673.639
908.965, 92.197
910.229, 261.929
911.492, 500.849
912.755, 87.880
914.018, 761.119
915.280, 209.594
916.543, 420.362
917.805, 858.563
919.067, 43.988
920.329, 865.615
921.590, 443.122
922.852, 52.065
924.113, 909.564
925.374, 145.377
926.635, 623.851
927.895, 389.937
929.156, 66.616
930.416, 885.273
931.676, 209.293
932.936, 619.042
934.195, 1095.047
935.454, 395.932
936.714, 1305.452
937.973, 719.004
939.231, 536.385
940.490, 981.780
941.748, 131.941
943.006, 641.053
944.264, 274.308
945.522, 48.800
946.780, 935.824
948.037, 165.586
949.294, 692.363
950.551, 464.745
951.808, 52.749
953.064, 975.586
954.320, 183.888
955.577, 329.280
956.832, 833.439
958.088, 5.222
959.344, 942.358
960.599, 497.785
961.854, 541.076
963.109, 1518.577
964.364, 718.980
965.618, 1632.740
966.872, 1711.635
968.127, 835.805
969.380, 1597.539
970.634, 657.670
971.888, 842.874
973.141, 1067.749
974.394, 178.219
975.647, 1093.606
976.900, 382.185
978.152, 412.490
979.404, 1036.218
980.656, 65.420
981.908, 947.222
983.160, 620.016
984.411, 250.219
985.663, 1112.746
986.914, 121.631
988.165, 490.672
989.415, 822.285
990.666, 98.631
991.916, 990.699
993.166, 310.246
994.416, 208.792
995.665, 825.764
996.915, 65.265
998.164, 841.355
999.413, 582.730
1000.662, 180.480
1001.911, 1275.077
1003.159, 225.645
1004.407, 792.028
1005.655, 1082.881
1006.903, 161.234
1008.151, 1514.989
1009.398, 757.225
1010.646, 763.475
1011.893, 1721.131
1013.139, 470.904
1014.386, 1715.263
1015.633, 1835.812
1016.879, 1311.705
1018.125, 3391.826
1019.371, 2733.527
1020.616, 4567.189
1021.862, 6595.363
1023.107, 5513.346
1024.352, 6976.350
1025.597, 4787.012
1026.842, 3211.520
1028.086, 3555.573
1029.330, 1816.826
1030.574, 2069.127
1031.818, 1616.455
1033.062, 702.753
1034.305, 1847.266
1035.548, 637.292
1036.791, 947.000
1038.034, 1591.048
1039.277, 429.631
1040.519, 2016.560
1041.762, 1345.394
1043.004, 1399.642
1044.246, 2941.069
1045.487, 1717.035
1046.729, 3187.771
1047.970, 3923.496
1049.211, 2628.789
1050.452, 4598.082
1051.692, 3106.662
1052.933, 2583.746
1054.173, 3055.244
1055.413, 1382.070
1056.653, 2150.963
1057.893, 1333.467
1059.132, 718.283
1060.371, 1757.648
1061.610, 302.549
1062.849, 1018.904
1064.088, 1309.818
1065.326, 375.650
1066.565, 1715.004
1067.803, 897.361
1069.041, 729.027
1070.278, 1809.633
1071.516, 373.393
1072.753, 1372.896
1073.990, 1492.967
1075.227, 511.680
1076.464, 1860.627
1077.700, 588.605
1078.936, 613.580
1080.173, 1442.945
1081.408, 73.146
1082.644, 1005.781
1083.880, 774.588
1085.115, 257.564
1086.350, 1756.240
1087.585, 394.109
1088.820, 1097.102
1090.054, 1425.287
1091.288, 142.576
1092.522, 1884.357
1093.756, 899.473
1094.990, 472.221
1096.224, 1831.283
1097.457, 287.969
1098.690, 1197.822
1099.923, 1342.863
1101.156, 38.273
1102.388, 1500.521
1103.621, 653.844
1104.853, 694.031
1106.085, 1901.008
1107.316, 162.787
1108.548, 1352.082
1109.779, 1105.717
1111.010, 38.760
1112.241, 1343.389
1113.472, 162.689
1114.703, 57.174
1115.933, 712.432
1117.163, 473.873
1118.393, 1055.930
1119.623, 528.131
1120.853, 42.887
1122.082, 1743.797
1123.311, 143.301
1124.540, 1001.783
1125.769, 1535.150
1126.997, 114.982
1128.226, 1586.557
1129.454, 864.506
1130.682, 55.908
1131.910, 1666.465
1133.138, 244.490
1134.365, 1257.670
1135.592, 1469.176
1136.819, 307.547
1138.046, 1926.287
1139.273, 999.061
1140.499, 778.799
1141.725, 2035.027
1142.951, 441.188
1144.177, 1284.500
1145.403, 1672.746
1146.628, 140.885
1147.854, 1816.086
1149.079, 703.547
1150.304, 541.537
1151.528, 1975.791
1152.753, 82.562
1153.977, 1291.789
1155.201, 1434.371
1156.425, 31.238
1157.649, 1902.533
1158.872, 542.861
1160.096, 758.984
1161.319, 1772.619
1162.542, 128.471
1163.764, 1486.330
1164.987, 1268.729
1166.209, 103.660
1167.431, 2083.594
1168.653, 442.012
1169.875, 926.178
1171.097, 1851.059
1172.318, 214.973
1173.539, 1878.350
1174.760, 1364.377
1175.981, 197.273
1177.202, 2464.119
1178.422, 765.770
1179.642, 957.879
1180.862, 2230.781
1182.082, 256.299
1183.302, 1635.969
1184.521, 1349.283
1185.740, 390.223
1186.959, 2159.635
1188.178, 501.885
1189.397, 981.906
1190.615, 1727.568
1191.834, 117.072
1193.052, 1532.055
1194.269, 928.881
1195.487, 130.621
1196.705, 2317.590
1197.922, 356.912
1199.139, 704.545
1200.356, 1893.611
1201.573, 267.391
1202.789, 1864.170
1204.006, 1527.645
1205.222, 356.475
1206.438, 2310.770
1207.653, 678.211
1208.869, 1100.287
1210.084, 2335.412
1211.299, 242.701
1212.514, 2054.021
1213.729, 1534.861
1214.944, 334.010
1216.158, 2765.857
1217.372, 687.566
1218.586, 1268.160
1219.800, 2640.756
1221.014, 37.562
1222.227, 2016.879
1223.440, 1898.600
1224.654, 122.766
1225.866, 2805.891
1227.079, 1069.791
1228.292, 851.240
1229.504, 2840.553
1230.716, 581.053
1231.928, 2347.967
1233.139, 2096.994
1234.351, 617.496
1235.562, 2955.479
1236.773, 1495.477
1237.984, 885.561
1239.195, 2453.273
1240.406, 247.656
1241.616, 1643.594
1242.826, 1800.473
1244.036, 146.816
1245.246, 2659.285
1246.456, 1065.359
1247.665, 732.854
1248.874, 2988.441
1250.083, 581.268
1251.292, 1810.436
1252.501, 2745.250
1253.709, 20.672
1254.917, 2686.096
1256.125, 1689.283
1257.333, 498.148
1258.541, 2831.627
1259.748, 843.430
1260.956, 1912.488
1262.163, 2212.582
1263.370, 647.654
1264.576, 2562.461
1265.783, 1670.877
1266.989, 412.465
1268.195, 3203.715
1269.401, 719.617
1270.607, 1345.307
1271.813, 2965.711
1273.018, 230.600
1274.223, 2239.441
1275.428, 2386.805
1276.633, 160.941
1277.838, 2902.348
1279.042, 1606.020
1280.246, 1132.889
1281.450, 3260.791
1282.654, 323.684
1283.858, 2120.670
1285.061, 2435.740
1286.265, 299.578
1287.468, 2652.572
1288.671, 1074.090
1289.873, 929.219
1291.076, 3287.824
1292.278, 437.145
1293.480, 1616.637
1294.682, 3097.650
1295.884, 297.252
1297.086, 2967.844
1298.287, 1774.779
1299.488, 386.480
1300.689, 3386.467
1301.890, 891.621
1303.091, 1072.781
1304.291, 2892.686
1305.491, 289.568
1306.691, 2202.750
1307.891, 1656.141
1309.091, 604.844
1310.290, 3106.309
1311.490, 988.223
1312.689, 1295.844
1313.888, 3145.301
1315.086, 219.461
1316.285, 2195.852
1317.483, 2307.184
1318.681, 247.164
1319.879, 2819.289
1321.077, 1238.121
1322.275, 372.465
1323.472, 3100.699
1324.669, 131.441
1325.866, 1324.578
1327.063, 2586.734
1328.260, 80.980
1329.456, 2229.469
1330.653, 1909.090
1331.849, 69.984
1333.045, 2795.438
1334.240, 832.488
1335.436, 842.066
1336.631, 3193.555
1337.826, 168.535
1339.021, 1776.270
1340.216, 2805.961
1341.411, 66.828
1342.605, 3264.023
1343.799, 1818.402
1344.993, 674.293
1346.187, 3833.375
1347.381, 638.371
1348.574, 1591.895
1349.767, 3410.070
1350.961, 163.664
1352.153, 2172.160
1353.346, 2094.355
1354.539, 723.461
1355.731, 2940.918
1356.923, 663.082
1358.115, 712.254
1359.307, 3285.703
1360.498, 445.242
1361.690, 1969.246
1362.881, 3185.262
1364.072, 596.547
1365.263, 3541.270
1366.453, 2361.230
1367.644, 327.586
1368.834, 3875.000
1370.024, 1402.207
1371.214, 803.863
1372.404, 2662.770
1373.593, 722.406
1374.783, 1800.820
1375.972, 2827.348
1377.161, 129.480
1378.349, 3293.203
1379.538, 1704.109
1380.726, 653.027
1381.915, 3977.398
1383.103, 439.574
1384.290, 1655.090
1385.478, 3633.973
1386.665, 202.145
1387.853, 2507.828
1389.040, 2942.234
1390.227, 10.223
1391.413, 3752.695
1392.600, 2119.195
1393.786, 670.957
1394.972, 4376.758
1396.158, 815.059
1397.344, 1855.562
1398.530, 3664.320
1399.715, 212.383
1400.900, 2987.578
1402.085, 2916.164
1403.270, 214.254
1404.455, 4607.473
1405.639, 1319.461
1406.824, 1203.934
1408.008, 4309.500
1409.192, 824.398
1410.375, 2259.730
1411.559, 4192.379
1412.742, 695.246
1413.925, 3477.340
1415.108, 3272.824
1416.291, 415.023
1417.474, 4284.277
1418.656, 2028.109
1419.839, 1474.953
1421.021, 4878.477
1422.202, 372.797
1423.384, 2889.152
1424.566, 4386.855
1425.747, 302.457
1426.928, 3403.867
1428.109, 3344.945
1429.290, 577.641
1430.470, 4782.652
1431.651, 1908.602
1432.831, 1166.109
1434.011, 4498.352
1435.191, 786.258
1436.370, 2582.766
1437.550, 3871.141
1438.729, 413.973
1439.908, 4134.117
1441.087, 3357.617
1442.266, 251.715
1443.444, 5416.984
1444.623, 2024.012
1445.801, 1055.926
1446.979, 5512.473
1448.157, 782.824
1449.334, 2818.711
1450.512, 4513.738
1451.689, 660.035
1452.866, 3802.469
1454.043, 3807.566
1455.220, 194.348
1456.396, 4682.027
1457.573, 1940.680
1458.749, 1308.305
1459.925, 5080.191
1461.100, 929.898
1462.276, 2727.590
1463.451, 4972.785
1464.627, 62.254
1465.802, 3707.344
1466.977, 4238.363
1468.151, 302.965
1469.326, 4842.773
1470.500, 3073.156
1471.674, 519.371
1472.848, 5794.543
1474.022, 1806.730
1475.195, 1688.820
1476.369, 5588.957
1477.542, 181.719
1478.715, 3906.133
1479.888, 4065.148
1481.061, 33.480
1482.233, 4849.020
1483.405, 2944.480
1484.577, 603.445
1485.749, 6054.723
1486.921, 1671.719
1488.093, 1418.473
1489.264, 5589.676
1490.435, 1403.246
1491.606, 2845.602
1492.777, 4977.219
1493.948, 507.828
1495.118, 4735.594
1496.288, 3444.395
1497.459, 832.492
1498.628, 5671.453
1499.798, 1966.625
1500.968, 1110.059
