##NAMES=Leucophanite
##RRUFFID=R050004
##IDEAL CHEMISTRY=NaCaBeSi_2_O_6_F
##LOCALITY=Langesundfjord, Norway
##OWNER=RRUFF
##SOURCE=University of Arizona Mineral Museum
##DESCRIPTION=Pale green massive
##STATUS=The identification of this mineral has been confirmed by X-ray diffraction and chemical analysis
##URL=rruff.info/R050004
##MEASURED CHEMISTRY=Ca_1.00_Ca_1.00_Na_2.00_Be_2.00_Si_4.00_O_12_(F_0.96_(OH)_0.04_)_2_
##PIN_ID=M00205
##ORIENTATION=Laser parallel to -b* (0 -1 0). Fiducial mark perpendicular to laser is parallel to c [0 0 1]
59.021, 0.000
60.426, 60.696
61.830, 43.844
63.234, 58.648
64.637, 2.820
66.041, 9.593
67.444, 40.575
68.847, 131.050
70.250, 152.390
71.652, 156.863
73.054, 155.329
74.456, 235.920
75.858, 306.819
77.260, 346.993
78.661, 390.251
80.062, 510.800
81.463, 629.955
82.863, 601.967
84.264, 592.442
85.664, 845.030
87.064, 872.783
88.463, 746.371
89.863, 551.679
91.262, 383.387
92.661, 326.093
94.059, 198.872
95.458, 168.893
96.856, 157.728
98.254, 116.438
99.652, 76.325
101.049, 21.973
102.446, 97.192
103.843, 124.977
105.240, 155.282
106.637, 99.141
108.033, 92.598
109.429, 106.689
110.825, 98.877
112.220, 150.956
113.616, 150.032
115.011, 177.818
116.406, 152.306
117.800, 143.999
119.195, 101.671
120.589, 97.518
121.983, 183.659
123.377, 178.475
124.770, 146.205
126.163, 150.590
127.556, 151.090
128.949, 130.118
130.342, 111.533
131.734, 139.593
133.126, 140.115
134.518, 164.648
135.909, 167.904
137.301, 229.727
138.692, 265.178
140.083, 320.370
141.473, 596.456
142.864, 804.856
144.254, 773.144
145.644, 984.642
147.034, 687.912
148.423, 490.560
149.812, 336.159
151.201, 342.828
152.590, 359.546
153.979, 496.318
155.367, 489.142
156.755, 404.004
158.143, 357.908
159.530, 227.859
160.918, 207.819
162.305, 70.782
163.692, 132.736
165.078, 56.677
166.465, 62.599
167.851, 83.502
169.237, 28.390
170.623, 89.265
172.008, 9.879
173.393, 47.946
174.778, 32.257
176.163, 23.509
177.548, 11.238
178.932, 33.074
180.316, 3.570
181.700, 17.466
183.083, 13.799
184.467, 19.301
185.850, 23.152
187.233, 28.558
188.616, 57.919
189.998, 112.235
191.380, 44.506
192.762, 61.860
194.144, 17.062
195.525, 17.659
196.907, 22.056
198.288, 14.559
199.669, 18.713
201.049, 22.890
202.429, 80.469
203.810, 42.415
205.189, 25.355
206.569, 23.360
207.949, 30.731
209.328, 12.860
210.707, 6.009
212.085, 21.652
213.464, 15.162
214.842, 25.550
216.220, 1.279
217.598, 6.864
218.976, 11.900
220.353, 4.271
221.730, 4.497
223.107, 2.938
224.483, 24.901
225.860, 90.833
227.236, 40.802
228.612, 113.515
229.988, 69.094
231.363, 71.146
232.738, 108.486
234.113, 112.431
235.488, 140.088
236.863, 165.724
238.237, 295.056
239.611, 329.282
240.985, 372.029
242.359, 404.999
243.732, 314.586
245.105, 391.943
246.478, 317.750
247.851, 364.112
249.223, 376.863
250.595, 539.424
251.967, 761.153
253.339, 896.908
254.711, 884.707
256.082, 887.242
257.453, 727.756
258.824, 585.105
260.195, 392.568
261.565, 383.756
262.935, 316.923
264.305, 310.965
265.675, 292.594
267.044, 276.131
268.414, 323.568
269.783, 368.204
271.151, 450.553
272.520, 458.504
273.888, 568.925
275.256, 539.003
276.624, 550.443
277.992, 526.076
279.359, 375.298
280.726, 393.011
282.093, 290.945
283.460, 352.941
284.827, 365.490
286.193, 315.073
287.559, 400.934
288.925, 375.632
290.290, 554.198
291.656, 602.583
293.021, 584.896
294.386, 613.089
295.750, 428.940
297.115, 377.153
298.479, 272.797
299.843, 294.503
301.207, 198.096
302.570, 220.795
303.933, 242.441
305.296, 220.039
306.659, 255.866
308.022, 308.094
309.384, 313.572
310.746, 404.017
312.108, 472.431
313.470, 609.817
314.831, 516.179
316.193, 548.520
317.554, 495.836
318.914, 450.129
320.275, 486.395
321.635, 381.636
322.995, 332.851
324.355, 214.530
325.715, 259.654
327.074, 234.600
328.434, 185.536
329.792, 198.888
331.151, 210.553
332.510, 200.158
333.868, 188.652
335.226, 187.420
336.584, 253.372
337.941, 193.049
339.299, 212.012
340.656, 185.131
342.013, 160.437
343.370, 130.748
344.726, 69.031
346.082, 116.785
347.438, 48.048
348.794, 105.561
350.150, 28.494
351.505, 88.081
352.860, 82.046
354.215, 37.205
355.570, 83.880
356.924, 86.794
358.278, 131.992
359.632, 120.214
360.986, 123.473
362.339, 283.550
363.693, 246.699
365.046, 265.914
366.399, 163.640
367.751, 155.085
369.104, 131.276
370.456, 22.411
371.808, 127.896
373.159, 25.775
374.511, 65.778
375.862, 89.801
377.213, 53.206
378.564, 121.945
379.914, 18.192
381.265, 145.810
382.615, 108.548
383.965, 83.567
385.315, 86.064
386.664, 19.143
388.013, 91.055
389.362, 17.350
390.711, 11.348
392.060, 29.651
393.408, 9.726
394.756, 18.771
396.104, 9.070
397.451, 3.944
398.799, 4.747
400.146, 13.512
401.493, 24.972
402.840, 28.608
404.186, 57.759
405.533, 9.913
406.879, 6.627
408.225, 47.615
409.570, 45.181
410.916, 30.963
412.261, 15.931
413.606, 6.130
414.951, 21.848
416.295, 17.508
417.639, 8.077
418.983, 39.110
420.327, 18.250
421.671, 3.493
423.014, 23.031
424.357, 12.201
425.700, 27.764
427.043, 80.274
428.386, 15.426
429.728, 116.422
431.070, 74.643
432.412, 130.993
433.753, 189.562
435.095, 56.461
436.436, 140.454
437.777, 30.270
439.118, 2.569
440.458, 86.819
441.798, 5.515
443.138, 120.652
444.478, 68.383
445.818, 97.419
447.157, 55.781
448.496, 40.247
449.835, 64.022
451.174, 52.635
452.513, 88.808
453.851, 91.523
455.189, 84.220
456.527, 138.499
457.864, 70.048
459.202, 201.364
460.539, 181.164
461.876, 231.504
463.212, 308.844
464.549, 355.730
465.885, 509.401
467.221, 625.267
468.557, 877.205
469.893, 1078.568
471.228, 980.313
472.563, 1065.458
473.898, 704.155
475.233, 662.192
476.567, 515.642
477.902, 367.296
479.236, 394.577
480.570, 251.183
481.903, 266.766
483.237, 245.571
484.570, 78.108
485.903, 188.516
487.235, 74.002
488.568, 145.450
489.900, 175.669
491.232, 106.941
492.564, 155.239
493.896, 34.470
495.227, 108.648
496.558, 35.797
497.889, 41.141
499.220, 166.288
500.551, 76.519
501.881, 249.630
503.211, 57.621
504.541, 125.497
505.870, 176.101
507.200, 104.901
508.529, 203.408
509.858, 83.153
511.187, 182.556
512.515, 169.191
513.844, 184.777
515.172, 252.172
516.500, 171.742
517.827, 311.303
519.155, 191.039
520.482, 277.707
521.809, 350.399
523.136, 310.454
524.462, 537.490
525.789, 470.512
527.115, 685.304
528.441, 898.055
529.766, 984.689
531.092, 1568.848
532.417, 1620.456
533.742, 2326.615
535.067, 2565.935
536.391, 2584.335
537.716, 2938.573
539.040, 2164.109
540.364, 2056.195
541.688, 1658.801
543.011, 1164.232
544.334, 1145.543
545.657, 698.865
546.980, 692.891
548.303, 582.199
549.625, 484.177
550.947, 528.103
552.269, 352.083
553.591, 519.957
554.913, 412.843
556.234, 425.218
557.555, 633.826
558.876, 642.385
560.197, 1065.162
561.517, 1194.961
562.837, 1657.156
564.157, 1732.041
565.477, 1410.337
566.797, 1284.662
568.116, 755.425
569.435, 655.567
570.754, 448.229
572.073, 250.201
573.391, 379.709
574.709, 125.106
576.027, 160.360
577.345, 126.469
578.663, 86.364
579.980, 103.107
581.297, 30.571
582.614, 107.998
583.931, 6.486
585.248, 12.029
586.564, 91.179
587.880, 33.032
589.196, 61.874
590.511, 23.556
591.827, 4.802
593.142, 119.721
594.457, 15.424
595.772, 127.457
597.086, 4.661
598.401, 9.620
599.715, 142.667
601.029, 14.634
602.343, 113.068
603.656, 33.133
604.969, 6.016
606.282, 157.260
607.595, 53.888
608.908, 69.599
610.220, 6.396
611.532, 70.655
612.844, 69.167
614.156, 46.861
615.468, 93.250
616.779, 9.741
618.090, 22.688
619.401, 127.747
620.712, 34.642
622.022, 210.266
623.332, 39.124
624.642, 205.264
625.952, 206.239
627.262, 99.669
628.571, 299.413
629.880, 144.681
631.189, 251.597
632.498, 161.728
633.807, 58.178
635.115, 394.300
636.423, 100.708
637.731, 333.421
639.039, 299.323
640.346, 200.579
641.653, 424.742
642.960, 293.698
644.267, 503.136
645.574, 461.708
646.880, 375.683
648.186, 692.687
649.492, 434.695
650.798, 670.573
652.103, 694.168
653.409, 679.879
654.714, 999.358
656.019, 802.905
657.323, 1160.836
658.628, 1194.461
659.932, 1351.795
661.236, 1901.927
662.540, 1854.822
663.843, 2526.176
665.147, 2919.216
666.450, 3444.647
667.753, 4872.175
669.056, 5476.373
670.358, 8104.366
671.660, 9948.266
672.963, 12757.737
674.264, 17327.398
675.566, 17017.547
676.868, 19066.725
678.169, 15862.703
679.470, 12082.193
680.771, 10351.764
682.071, 6832.519
683.372, 6111.453
684.672, 4650.356
685.972, 3636.740
687.271, 3504.869
688.571, 2496.979
689.870, 2660.582
691.169, 2110.184
692.468, 1876.939
693.767, 2114.450
695.065, 1627.956
696.364, 1911.388
697.662, 1832.807
698.960, 1699.478
700.257, 2178.720
701.555, 1972.394
702.852, 2587.725
704.149, 2581.704
705.446, 2654.628
706.742, 3083.120
708.038, 2393.160
709.335, 2458.259
710.631, 1930.421
711.926, 1514.265
713.222, 1372.911
714.517, 852.020
715.812, 892.582
717.107, 726.572
718.402, 549.185
719.696, 685.932
720.990, 326.318
722.284, 465.550
723.578, 397.595
724.872, 388.539
726.165, 547.682
727.458, 313.662
728.751, 438.634
730.044, 390.833
731.336, 228.259
732.629, 430.677
733.921, 254.148
735.213, 307.344
736.504, 323.256
737.796, 138.998
739.087, 345.899
740.378, 101.692
741.669, 249.241
742.960, 264.062
744.250, 85.117
745.540, 329.113
746.830, 148.801
748.120, 235.843
749.410, 255.172
750.699, 84.927
751.988, 368.684
753.277, 152.479
754.566, 210.011
755.854, 328.172
757.143, 136.808
758.431, 409.179
759.719, 238.712
761.006, 334.038
762.294, 471.965
763.581, 265.934
764.868, 444.577
766.155, 328.987
767.442, 264.247
768.728, 377.708
770.014, 142.423
771.300, 339.755
772.586, 114.462
773.872, 181.732
775.157, 295.792
776.442, 19.618
777.727, 215.925
779.012, 139.339
780.297, 16.382
781.581, 293.581
782.865, 1.876
784.149, 314.745
785.433, 150.297
786.716, 90.189
787.999, 244.076
789.282, 79.989
790.565, 235.887
791.848, 153.922
793.130, 100.386
794.413, 248.004
795.695, 28.432
796.977, 185.603
798.258, 173.017
799.540, 26.732
800.821, 225.320
802.102, 37.631
803.382, 161.464
804.663, 233.250
805.943, 43.168
807.224, 209.428
808.504, 7.082
809.783, 161.204
811.063, 184.924
812.342, 27.952
813.621, 337.065
814.900, 3.990
816.179, 111.909
817.457, 281.724
818.736, 36.511
820.014, 264.212
821.292, 116.862
822.569, 46.432
823.847, 310.984
825.124, 51.617
826.401, 205.975
827.678, 125.833
828.954, 23.941
830.231, 239.298
831.507, 88.588
832.783, 151.209
834.059, 122.374
835.334, 2.005
836.610, 252.388
837.885, 43.487
839.160, 123.832
840.435, 175.202
841.709, 5.521
842.983, 279.287
844.258, 31.446
845.532, 222.298
846.805, 270.726
848.079, 26.665
849.352, 266.901
850.625, 20.420
851.898, 186.795
853.171, 277.087
854.443, 53.714
855.715, 231.363
856.988, 64.472
858.259, 65.360
859.531, 395.161
860.803, 12.872
862.074, 225.487
863.345, 198.018
864.616, 22.450
865.886, 296.792
867.157, 37.955
868.427, 292.173
869.697, 177.223
870.967, 15.174
872.236, 211.026
873.506, 44.791
874.775, 69.335
876.044, 339.903
877.313, 79.619
878.581, 292.712
879.849, 78.962
881.118, 67.899
882.386, 238.947
883.653, 131.091
884.921, 347.087
886.188, 47.795
887.455, 61.890
888.722, 370.100
889.989, 32.489
891.255, 345.801
892.522, 254.866
893.788, 72.107
895.054, 300.310
896.319, 19.468
897.585, 195.408
898.850, 214.892
900.115, 74.747
901.380, 363.173
902.645, 0.819
903.909, 235.091
905.174, 326.281
906.438, 10.391
907.701, 344.018
908.965, 87.031
910.229, 1.280
911.492, 337.127
912.755, 79.274
914.018, 337.117
915.280, 229.857
916.543, 47.461
917.805, 502.152
919.067, 107.067
920.329, 280.583
921.590, 296.508
922.852, 97.948
924.113, 483.468
925.374, 4.040
926.635, 108.659
927.895, 391.704
929.156, 28.052
930.416, 348.889
931.676, 345.010
932.936, 288.814
934.195, 865.782
935.454, 423.348
936.714, 856.650
937.973, 718.351
939.231, 460.162
940.490, 806.321
941.748, 255.416
943.006, 284.792
944.264, 319.024
945.522, 22.926
946.780, 472.000
948.037, 93.379
949.294, 257.140
950.551, 406.527
951.808, 12.401
953.064, 529.196
954.320, 249.136
955.577, 65.333
956.832, 580.708
958.088, 63.910
959.344, 550.516
960.599, 634.888
961.854, 452.880
963.109, 1319.322
964.364, 985.574
965.618, 1243.047
966.872, 1795.459
968.127, 1090.288
969.380, 1308.336
970.634, 947.325
971.888, 597.647
973.141, 899.645
974.394, 355.219
975.647, 711.161
976.900, 537.647
978.152, 214.742
979.404, 881.516
980.656, 296.450
981.908, 574.662
983.160, 668.715
984.411, 270.342
985.663, 696.737
986.914, 413.451
988.165, 218.860
989.415, 715.364
990.666, 110.841
991.916, 580.576
993.166, 453.102
994.416, 99.910
995.665, 684.585
996.915, 235.740
998.164, 411.190
999.413, 694.913
1000.662, 387.581
1001.911, 1018.482
1003.159, 677.356
1004.407, 743.313
1005.655, 1277.455
1006.903, 615.068
1008.151, 1489.881
1009.398, 1478.146
1010.646, 1294.340
1011.893, 2270.463
1013.139, 1918.544
1014.386, 2753.408
1015.633, 3770.477
1016.879, 3557.459
1018.125, 6438.925
1019.371, 7787.922
1020.616, 11212.183
1021.862, 17257.463
1023.107, 17364.422
1024.352, 19017.820
1025.597, 15094.239
1026.842, 9539.808
1028.086, 8188.237
1029.330, 4856.399
1030.574, 3749.466
1031.818, 3404.002
1033.062, 1900.748
1034.305, 2175.596
1035.548, 1432.395
1036.791, 1076.296
1038.034, 1588.742
1039.277, 636.279
1040.519, 966.592
1041.762, 951.770
1043.004, 437.979
1044.246, 1166.491
1045.487, 513.874
1046.729, 607.543
1047.970, 1101.698
1049.211, 324.308
1050.452, 861.684
1051.692, 696.995
1052.933, 291.812
1054.173, 1053.584
1055.413, 219.015
1056.653, 711.104
1057.893, 663.452
1059.132, 159.693
1060.371, 779.847
1061.610, 133.191
1062.849, 243.154
1064.088, 694.357
1065.326, 88.921
1066.565, 670.321
1067.803, 752.195
1069.041, 287.661
1070.278, 1058.162
1071.516, 360.587
1072.753, 548.449
1073.990, 1009.417
1075.227, 282.175
1076.464, 933.287
1077.700, 593.533
1078.936, 231.064
1080.173, 880.921
1081.408, 152.415
1082.644, 456.357
1083.880, 686.768
1085.115, 119.863
1086.350, 891.731
1087.585, 451.845
1088.820, 505.540
1090.054, 965.471
1091.288, 164.304
1092.522, 986.731
1093.756, 885.269
1094.990, 186.236
1096.224, 998.198
1097.457, 395.695
1098.690, 463.423
1099.923, 942.112
1101.156, 179.814
1102.388, 813.151
1103.621, 650.354
1104.853, 179.704
1106.085, 1161.036
1107.316, 297.076
1108.548, 551.400
1109.779, 839.733
1111.010, 16.970
1112.241, 501.704
1113.472, 129.175
1114.703, 211.033
1115.933, 499.076
1117.163, 203.992
1118.393, 347.480
1119.623, 475.570
1120.853, 137.116
1122.082, 891.956
1123.311, 326.910
1124.540, 445.783
1125.769, 865.697
1126.997, 119.612
1128.226, 680.713
1129.454, 807.188
1130.682, 47.859
1131.910, 825.879
1133.138, 349.622
1134.365, 434.413
1135.592, 912.921
1136.819, 145.599
1138.046, 963.797
1139.273, 928.197
1140.499, 231.932
1141.725, 1140.726
1142.951, 493.656
1144.177, 549.277
1145.403, 1306.387
1146.628, 168.599
1147.854, 885.451
1149.079, 800.736
1150.304, 233.398
1151.528, 1191.347
1152.753, 344.381
1153.977, 516.546
1155.201, 1157.076
1156.425, 178.951
1157.649, 983.180
1158.872, 600.229
1160.096, 321.590
1161.319, 1078.307
1162.542, 321.980
1163.764, 593.870
1164.987, 1101.997
1166.209, 92.471
1167.431, 1064.871
1168.653, 639.988
1169.875, 409.916
1171.097, 1234.300
1172.318, 357.158
1173.539, 806.533
1174.760, 1126.838
1175.981, 137.013
1177.202, 1286.939
1178.422, 757.419
1179.642, 376.262
1180.862, 1358.545
1182.082, 431.955
1183.302, 799.880
1184.521, 1254.387
1185.740, 214.528
1186.959, 1212.121
1188.178, 720.005
1189.397, 357.738
1190.615, 1025.957
1191.834, 143.316
1193.052, 668.921
1194.269, 711.788
1195.487, 247.986
1196.705, 1185.971
1197.922, 541.941
1199.139, 247.058
1200.356, 1220.256
1201.573, 401.816
1202.789, 744.267
1204.006, 1100.886
1205.222, 59.399
1206.438, 1230.920
1207.653, 780.735
1208.869, 314.373
1210.084, 1325.597
1211.299, 373.273
1212.514, 914.053
1213.729, 1228.488
1214.944, 117.912
1216.158, 1448.146
1217.372, 813.600
1218.586, 448.258
1219.800, 1648.932
1221.014, 344.197
1222.227, 843.275
1223.440, 1304.156
1224.654, 18.238
1225.866, 1339.844
1227.079, 900.516
1228.292, 300.854
1229.504, 1699.141
1230.716, 580.027
1231.928, 981.750
1233.139, 1520.701
1234.351, 422.426
1235.562, 1489.709
1236.773, 1328.076
1237.984, 470.824
1239.195, 1438.848
1240.406, 499.430
1241.616, 678.131
1242.826, 1335.586
1244.036, 1.666
1245.246, 1305.352
1246.456, 1042.229
1247.665, 340.674
1248.874, 1787.053
1250.083, 702.551
1251.292, 715.545
1252.501, 1841.459
1253.709, 176.621
1254.917, 1344.582
1256.125, 1459.760
1257.333, 125.609
1258.541, 1689.297
1259.748, 860.867
1260.956, 729.979
1262.163, 1572.660
1263.370, 363.768
1264.576, 1081.902
1265.783, 1223.811
1266.989, 40.625
1268.195, 1694.621
1269.401, 735.117
1270.607, 408.980
1271.813, 1891.273
1273.018, 270.221
1274.223, 858.326
1275.428, 1659.672
1276.633, 46.066
1277.838, 1381.988
1279.042, 1440.504
1280.246, 381.445
1281.450, 1972.398
1282.654, 519.350
1283.858, 883.826
1285.061, 1743.545
1286.265, 280.080
1287.468, 1115.484
1288.671, 962.549
1289.873, 319.639
1291.076, 1923.350
1292.278, 558.336
1293.480, 646.658
1294.682, 2094.957
1295.884, 329.189
1297.086, 1319.045
1298.287, 1503.211
1299.488, 112.145
1300.689, 1755.320
1301.890, 887.758
1303.091, 333.340
1304.291, 1801.764
1305.491, 333.713
1306.691, 858.434
1307.891, 1239.707
1309.091, 151.834
1310.290, 1585.582
1311.490, 984.906
1312.689, 398.145
1313.888, 1882.896
1315.086, 442.676
1316.285, 704.969
1317.483, 1596.045
1318.681, 143.369
1319.879, 1217.973
1321.077, 1225.031
1322.275, 154.184
1323.472, 1396.887
1324.669, 523.873
1325.866, 363.748
1327.063, 1733.543
1328.260, 211.328
1329.456, 860.230
1330.653, 1369.018
1331.849, 27.332
1333.045, 1293.420
1334.240, 869.471
1335.436, 26.201
1336.631, 1839.004
1337.826, 183.545
1339.021, 477.943
1340.216, 1706.701
1341.411, 22.234
1342.605, 1494.727
1343.799, 1547.926
1344.993, 192.621
1346.187, 2073.572
1347.381, 877.117
1348.574, 410.375
1349.767, 2148.252
1350.961, 241.363
1352.153, 782.309
1353.346, 1570.928
1354.539, 527.021
1355.731, 1250.801
1356.923, 901.289
1358.115, 162.012
1359.307, 1836.953
1360.498, 571.000
1361.690, 398.828
1362.881, 2084.744
1364.072, 36.135
1365.263, 1548.602
1366.453, 1895.115
1367.644, 96.809
1368.834, 1952.043
1370.024, 1242.072
1371.214, 182.938
1372.404, 1398.879
1373.593, 164.605
1374.783, 277.061
1375.972, 1889.518
1377.161, 207.129
1378.349, 1472.520
1379.538, 1511.701
1380.726, 130.930
1381.915, 2120.250
1383.103, 671.816
1384.290, 467.119
1385.478, 2035.564
1386.665, 133.664
1387.853, 967.320
1389.040, 2160.254
1390.227, 42.094
1391.413, 1824.727
1392.600, 1687.605
1393.786, 41.605
1394.972, 2267.492
1396.158, 891.338
1397.344, 460.484
1398.530, 2358.535
1399.715, 395.971
1400.900, 1227.883
1402.085, 2147.477
1403.270, 97.490
1404.455, 2299.641
1405.639, 1249.188
1406.824, 185.941
1408.008, 2464.699
1409.192, 1009.215
1410.375, 769.980
1411.559, 2563.920
1412.742, 540.738
1413.925, 1489.615
1415.108, 2373.051
1416.291, 146.545
1417.474, 2163.074
1418.656, 1501.164
1419.839, 271.811
1421.021, 2680.533
1422.202, 675.424
1423.384, 1088.625
1424.566, 2795.314
1425.747, 318.689
1426.928, 1413.611
1428.109, 2246.566
1429.290, 168.023
1430.470, 2370.373
1431.651, 1679.273
1432.831, 236.906
1434.011, 2693.781
1435.191, 1021.744
1436.370, 885.195
1437.550, 2493.818
1438.729, 444.383
1439.908, 1774.523
1441.087, 2722.361
1442.266, 27.443
1443.444, 2594.820
1444.623, 1798.926
1445.801, 129.162
1446.979, 3189.699
1448.157, 873.996
1449.334, 1016.180
1450.512, 2792.680
1451.689, 949.824
1452.866, 1584.176
1454.043, 2640.023
1455.220, 126.059
1456.396, 2171.270
1457.573, 1743.430
1458.749, 320.176
1459.925, 2623.711
1461.100, 1217.348
1462.276, 769.441
1463.451, 3194.645
1464.627, 236.719
1465.802, 1378.684
1466.977, 2917.988
1468.151, 86.703
1469.326, 2169.578
1470.500, 2430.055
1471.674, 4.691
1472.848, 3256.734
1474.022, 1352.207
1475.195, 215.828
1476.369, 3241.438
1477.542, 516.559
1478.715, 1469.043
1479.888, 2889.891
1481.061, 11.602
1482.233, 2198.379
1483.405, 2277.754
1484.577, 47.434
1485.749, 2776.594
1486.921, 1728.664
1488.093, 116.801
1489.264, 3204.016
1490.435, 1110.375
1491.606, 954.871
1492.777, 3279.746
1493.948, 645.805
1495.118, 1914.219
1496.288, 2666.145
1497.459, 175.691
