##NAMES=Leucophanite
##RRUFFID=R050004
##IDEAL CHEMISTRY=NaCaBeSi_2_O_6_F
##LOCALITY=Langesundfjord, Norway
##OWNER=RRUFF
##SOURCE=University of Arizona Mineral Museum
##DESCRIPTION=Pale green massive
##STATUS=The identification of this mineral has been confirmed by X-ray diffraction and chemical analysis
##URL=rruff.info/R050004
##MEASURED CHEMISTRY=Ca_1.00_Ca_1.00_Na_2.00_Be_2.00_Si_4.00_O_12_(F_0.96_(OH)_0.04_)_2_
##PIN_ID=M00290
##ORIENTATION=Laser parallel to -a* (-1 0 0). Fiducial mark perpendicular to laser is parallel to -b [0 -1 0]
61.830, 0.000
63.234, 44.644
64.637, 17.457
66.041, 12.202
67.444, 52.068
68.847, 57.566
70.250, 78.225
71.652, 86.907
73.054, 68.078
74.456, 25.207
75.858, 22.722
77.260, 1.409
78.661, 16.215
80.062, 1.276
81.463, 6.959
82.863, 44.056
84.264, 132.303
85.664, 287.766
87.064, 384.428
88.463, 327.278
89.863, 237.303
91.262, 185.490
92.661, 142.830
94.059, 126.312
95.458, 145.927
96.856, 148.667
98.254, 177.522
99.652, 181.486
101.049, 229.553
102.446, 248.718
103.843, 303.974
105.240, 319.322
106.637, 374.759
108.033, 524.283
109.429, 1094.889
110.825, 851.672
112.220, 868.783
113.616, 688.157
115.011, 499.052
116.406, 513.011
117.800, 471.029
119.195, 471.103
120.589, 478.233
121.983, 483.415
123.377, 544.646
124.770, 559.923
126.163, 531.243
127.556, 499.602
128.949, 494.998
130.342, 505.078
131.734, 506.895
133.126, 564.391
134.518, 603.919
135.909, 657.485
137.301, 768.083
138.692, 892.704
140.083, 1034.348
141.473, 1277.029
142.864, 1493.747
144.254, 1534.492
145.644, 1414.276
147.034, 1207.133
148.423, 1026.050
149.812, 926.985
151.201, 961.005
152.590, 1019.071
153.979, 1025.129
155.367, 883.202
156.755, 839.282
158.143, 735.377
159.530, 667.506
160.918, 585.674
162.305, 517.870
163.692, 507.104
165.078, 480.339
166.465, 474.577
167.851, 426.816
169.237, 451.060
170.623, 403.315
172.008, 366.583
173.393, 374.858
174.778, 349.141
176.163, 352.457
177.548, 355.810
178.932, 310.174
180.316, 346.539
181.700, 340.900
183.083, 348.258
184.467, 325.611
185.850, 390.961
187.233, 343.307
188.616, 397.648
189.998, 425.986
191.380, 381.319
192.762, 364.648
194.144, 327.977
195.525, 318.556
196.907, 332.638
198.288, 314.975
199.669, 328.317
201.049, 348.661
202.429, 349.002
203.810, 329.341
205.189, 341.677
206.569, 285.150
207.949, 270.671
209.328, 268.508
210.707, 252.929
212.085, 257.588
213.464, 257.506
214.842, 264.785
216.220, 266.056
217.598, 264.375
218.976, 317.156
220.353, 283.339
221.730, 273.035
223.107, 330.447
224.483, 319.046
225.860, 345.649
227.236, 311.214
228.612, 346.471
229.988, 361.529
231.363, 340.156
232.738, 368.083
234.113, 403.718
235.488, 485.096
236.863, 509.191
238.237, 617.495
239.611, 657.443
240.985, 690.430
242.359, 690.764
243.732, 612.175
245.105, 666.559
246.478, 681.202
247.851, 731.896
249.223, 891.108
250.595, 1104.517
251.967, 1315.961
253.339, 1414.283
254.711, 1418.230
256.082, 1232.061
257.453, 1055.899
258.824, 867.387
260.195, 695.709
261.565, 602.168
262.935, 573.343
264.305, 554.882
265.675, 549.226
267.044, 558.454
268.414, 580.977
269.783, 665.090
271.151, 737.564
272.520, 803.925
273.888, 858.457
275.256, 826.960
276.624, 748.582
277.992, 644.608
279.359, 614.298
280.726, 562.880
282.093, 473.471
283.460, 514.096
284.827, 510.701
286.193, 539.458
287.559, 592.027
288.925, 693.383
290.290, 816.304
291.656, 843.281
293.021, 763.024
294.386, 708.619
295.750, 581.062
297.115, 474.425
298.479, 421.619
299.843, 334.812
301.207, 322.004
302.570, 314.196
303.933, 311.386
305.296, 331.403
306.659, 337.760
308.022, 404.943
309.384, 465.122
310.746, 546.295
312.108, 572.464
313.470, 591.053
314.831, 651.783
316.193, 575.934
317.554, 473.079
318.914, 436.216
320.275, 407.345
321.635, 338.467
322.995, 293.515
324.355, 192.282
325.715, 186.475
327.074, 166.861
328.434, 141.388
329.792, 171.990
331.151, 161.896
332.510, 168.242
333.868, 188.659
335.226, 208.250
336.584, 234.669
337.941, 204.920
339.299, 187.170
340.656, 206.462
342.013, 149.581
343.370, 121.791
344.726, 91.045
346.082, 103.085
347.438, 54.539
348.794, 112.565
350.150, 60.606
351.505, 69.567
352.860, 5.466
354.215, 58.353
355.570, 81.228
356.924, 73.091
358.278, 113.943
359.632, 219.783
360.986, 258.612
362.339, 291.429
363.693, 269.235
365.046, 256.029
366.399, 207.811
367.751, 157.580
369.104, 101.338
370.456, 85.083
371.808, 24.815
373.159, 53.531
374.511, 53.234
375.862, 8.076
377.213, 45.598
378.564, 50.258
379.914, 97.905
381.265, 63.538
382.615, 72.157
383.965, 45.757
385.315, 112.342
386.664, 8.913
388.013, 44.468
389.362, 81.007
390.711, 17.469
392.060, 17.973
393.408, 14.503
394.756, 25.059
396.104, 19.643
397.451, 26.747
398.799, 26.122
400.146, 56.518
401.493, 67.201
402.840, 20.932
404.186, 7.688
405.533, 4.537
406.879, 31.250
408.225, 14.063
409.570, 20.898
410.916, 28.243
412.261, 7.368
413.606, 3.476
414.951, 15.435
416.295, 8.138
417.639, 23.901
418.983, 23.684
420.327, 11.892
421.671, 13.599
423.014, 15.775
424.357, 28.133
425.700, 13.474
427.043, 67.467
428.386, 98.039
429.728, 31.240
431.070, 132.026
432.412, 49.003
433.753, 81.065
435.095, 42.847
436.436, 57.033
437.777, 32.729
439.118, 0.088
440.458, 25.068
441.798, 53.021
443.138, 52.748
444.478, 46.362
445.818, 53.024
447.157, 21.032
448.496, 7.504
449.835, 21.013
451.174, 13.417
452.513, 4.163
453.851, 31.226
455.189, 67.434
456.527, 104.691
457.864, 124.952
459.202, 168.229
460.539, 276.529
461.876, 318.490
463.212, 459.957
464.549, 567.890
465.885, 734.945
467.221, 961.867
468.557, 1181.622
469.893, 1299.202
471.228, 1377.590
472.563, 1207.125
473.898, 1010.544
475.233, 746.734
476.567, 595.376
477.902, 448.532
479.236, 376.770
480.570, 234.891
481.903, 215.997
483.237, 117.086
484.570, 108.158
485.903, 162.209
487.235, 115.242
488.568, 80.257
489.900, 61.249
491.232, 59.222
492.564, 48.172
493.896, 102.099
495.227, 59.003
496.558, 98.885
497.889, 137.751
499.220, 136.596
500.551, 125.422
501.881, 165.226
503.211, 142.008
504.541, 129.781
505.870, 179.531
507.200, 79.258
508.529, 179.838
509.858, 174.518
511.187, 192.071
512.515, 231.638
513.844, 253.911
515.172, 249.380
516.500, 268.920
517.827, 345.400
519.155, 293.927
520.482, 392.432
521.809, 505.924
523.136, 578.394
524.462, 721.842
525.789, 909.267
527.115, 1166.362
528.441, 1489.805
529.766, 1871.476
531.092, 2320.793
532.417, 2860.831
533.742, 3436.960
535.067, 3762.061
536.391, 3882.626
537.716, 3708.636
539.040, 3156.640
540.364, 2631.818
541.688, 2135.831
543.011, 1686.848
544.334, 1418.734
545.657, 1100.866
546.980, 947.553
548.303, 766.358
549.625, 676.304
550.947, 611.025
552.269, 565.680
553.591, 602.498
554.913, 625.703
556.234, 743.175
557.555, 945.727
558.876, 1226.244
560.197, 1669.459
561.517, 2062.969
562.837, 2218.175
564.157, 2245.066
565.477, 1804.328
566.797, 1409.827
568.116, 1015.252
569.435, 806.276
570.754, 537.509
572.073, 412.618
573.391, 330.684
574.709, 186.851
576.027, 196.395
577.345, 194.547
578.663, 101.551
579.980, 114.956
581.297, 34.945
582.614, 72.708
583.931, 73.369
585.248, 37.061
586.564, 76.957
587.880, 5.221
589.196, 21.700
590.511, 1.099
591.827, 21.344
593.142, 16.576
594.457, 40.964
595.772, 14.950
597.086, 27.107
598.401, 7.071
599.715, 22.452
601.029, 11.513
602.343, 35.504
603.656, 20.233
604.969, 22.192
606.282, 59.956
607.595, 46.110
608.908, 20.631
610.220, 78.765
611.532, 47.792
612.844, 88.281
614.156, 73.009
615.468, 68.923
616.779, 62.177
618.090, 54.395
619.401, 132.577
620.712, 9.095
622.022, 134.616
623.332, 102.595
624.642, 132.042
625.952, 169.507
627.262, 208.707
628.571, 252.126
629.880, 214.510
631.189, 239.609
632.498, 297.958
633.807, 180.569
635.115, 376.991
636.423, 272.069
637.731, 363.071
639.039, 399.678
640.346, 464.719
641.653, 510.488
642.960, 557.306
644.267, 590.176
645.574, 625.318
646.880, 669.369
648.186, 771.436
649.492, 791.491
650.798, 880.526
652.103, 1029.799
653.409, 1054.743
654.714, 1349.539
656.019, 1372.688
657.323, 1600.297
658.628, 1947.518
659.932, 2236.458
661.236, 2684.149
662.540, 3128.039
663.843, 3956.632
665.147, 4777.977
666.450, 6000.875
667.753, 7617.450
669.056, 9984.381
670.358, 12901.001
671.660, 16737.750
672.963, 20414.631
674.264, 24861.168
675.566, 25208.174
676.868, 24274.555
678.169, 20843.361
679.470, 16679.936
680.771, 13196.454
682.071, 10212.808
683.372, 8181.569
684.672, 6580.345
685.972, 5420.780
687.271, 4744.699
688.571, 3936.788
689.870, 3561.599
691.169, 3133.589
692.468, 2906.381
693.767, 2669.929
695.065, 2670.400
696.364, 2606.782
697.662, 2679.763
698.960, 2822.835
700.257, 3103.547
701.555, 3275.512
702.852, 3550.877
704.149, 3889.949
705.446, 3899.402
706.742, 3879.135
708.038, 3539.057
709.335, 3193.071
710.631, 2568.809
711.926, 2139.202
713.222, 1689.668
714.517, 1385.368
715.812, 1239.855
717.107, 876.168
718.402, 869.613
719.696, 651.993
720.990, 552.255
722.284, 566.297
723.578, 479.228
724.872, 457.829
726.165, 446.814
727.458, 457.312
728.751, 473.474
730.044, 456.912
731.336, 428.469
732.629, 306.784
733.921, 337.019
735.213, 324.061
736.504, 219.864
737.796, 245.019
739.087, 331.297
740.378, 260.335
741.669, 190.772
742.960, 258.842
744.250, 160.993
745.540, 194.760
746.830, 212.526
748.120, 201.390
749.410, 262.656
750.699, 166.408
751.988, 336.413
753.277, 217.896
754.566, 182.062
755.854, 309.791
757.143, 315.316
758.431, 360.891
759.719, 393.282
761.006, 447.368
762.294, 500.500
763.581, 434.285
764.868, 382.160
766.155, 384.333
767.442, 320.063
768.728, 287.895
770.014, 269.387
771.300, 197.106
772.586, 235.194
773.872, 234.589
775.157, 143.908
776.442, 131.666
777.727, 250.643
779.012, 127.648
780.297, 112.077
781.581, 164.039
782.865, 99.110
784.149, 95.246
785.433, 151.109
786.716, 78.964
787.999, 242.916
789.282, 36.290
790.565, 107.549
791.848, 114.886
793.130, 20.082
794.413, 85.046
795.695, 18.133
796.977, 165.563
798.258, 70.589
799.540, 17.332
800.821, 160.586
802.102, 10.143
803.382, 113.456
804.663, 94.867
805.943, 78.541
807.224, 100.977
808.504, 5.659
809.783, 101.310
811.063, 19.164
812.342, 41.904
813.621, 133.525
814.900, 22.966
816.179, 79.418
817.457, 184.687
818.736, 127.843
820.014, 80.885
821.292, 136.812
822.569, 53.632
823.847, 125.333
825.124, 79.127
826.401, 33.599
827.678, 100.009
828.954, 15.244
830.231, 107.393
831.507, 20.617
832.783, 30.245
834.059, 27.000
835.334, 50.611
836.610, 24.901
837.885, 26.426
839.160, 54.240
840.435, 90.384
841.709, 33.359
842.983, 83.312
844.258, 24.120
845.532, 54.616
846.805, 96.985
848.079, 0.438
849.352, 0.535
850.625, 11.508
851.898, 21.301
853.171, 18.021
854.443, 47.494
855.715, 18.872
856.988, 71.105
858.259, 59.792
859.531, 116.144
860.803, 53.953
862.074, 41.368
863.345, 63.153
864.616, 34.458
865.886, 93.778
867.157, 18.888
868.427, 50.867
869.697, 76.718
870.967, 30.438
872.236, 28.023
873.506, 37.476
874.775, 70.793
876.044, 79.977
877.313, 20.969
878.581, 29.934
879.849, 126.705
881.118, 18.656
882.386, 100.834
883.653, 32.804
884.921, 44.392
886.188, 41.941
887.455, 35.517
888.722, 22.805
889.989, 77.441
891.255, 62.221
892.522, 100.110
893.788, 7.427
895.054, 47.621
896.319, 30.077
897.585, 84.041
898.850, 41.468
900.115, 94.525
901.380, 54.763
902.645, 51.571
903.909, 83.929
905.174, 22.513
906.438, 81.928
907.701, 66.594
908.965, 80.899
910.229, 69.269
911.492, 74.411
912.755, 37.730
914.018, 130.497
915.280, 178.612
916.543, 112.371
917.805, 78.580
919.067, 130.550
920.329, 123.882
921.590, 163.947
922.852, 80.402
924.113, 198.266
925.374, 18.249
926.635, 160.480
927.895, 143.671
929.156, 189.858
930.416, 125.312
931.676, 265.338
932.936, 388.146
934.195, 810.851
935.454, 652.547
936.714, 905.206
937.973, 807.574
939.231, 618.318
940.490, 620.899
941.748, 250.878
943.006, 182.257
944.264, 212.592
945.522, 1.915
946.780, 183.363
948.037, 73.165
949.294, 143.723
950.551, 184.609
951.808, 33.695
953.064, 174.697
954.320, 204.316
955.577, 154.025
956.832, 304.472
958.088, 333.237
959.344, 563.459
960.599, 752.086
961.854, 1001.946
963.109, 1242.429
964.364, 1641.430
965.618, 1811.556
966.872, 1922.254
968.127, 1581.337
969.380, 1271.353
970.634, 1020.618
971.888, 810.055
973.141, 791.460
974.394, 639.888
975.647, 589.069
976.900, 738.731
978.152, 627.181
979.404, 715.816
980.656, 633.878
981.908, 651.322
983.160, 680.081
984.411, 641.769
985.663, 683.463
986.914, 650.660
988.165, 613.711
989.415, 667.014
990.666, 498.169
991.916, 622.939
993.166, 598.686
994.416, 603.728
995.665, 757.980
996.915, 733.326
998.164, 596.966
999.413, 750.835
1000.662, 764.771
1001.911, 936.503
1003.159, 1051.287
1004.407, 902.915
1005.655, 1263.472
1006.903, 1167.938
1008.151, 1571.610
1009.398, 1902.049
1010.646, 2096.223
1011.893, 2640.771
1013.139, 3171.121
1014.386, 3754.814
1015.633, 5126.176
1016.879, 6280.451
1018.125, 9084.084
1019.371, 12888.129
1020.616, 17721.420
1021.862, 23773.830
1023.107, 26256.629
1024.352, 24288.650
1025.597, 19360.828
1026.842, 13683.940
1028.086, 10083.990
1029.330, 6926.733
1030.574, 5158.561
1031.818, 4058.962
1033.062, 2901.735
1034.305, 2280.805
1035.548, 1903.224
1036.791, 1345.783
1038.034, 1504.879
1039.277, 1077.878
1040.519, 1114.035
1041.762, 1006.073
1043.004, 728.384
1044.246, 949.452
1045.487, 650.807
1046.729, 580.080
1047.970, 855.194
1049.211, 564.345
1050.452, 658.434
1051.692, 599.289
1052.933, 267.678
1054.173, 628.345
1055.413, 488.289
1056.653, 414.007
1057.893, 324.287
1059.132, 285.182
1060.371, 355.024
1061.610, 314.561
1062.849, 235.234
1064.088, 394.859
1065.326, 165.292
1066.565, 215.059
1067.803, 243.669
1069.041, 63.928
1070.278, 541.721
1071.516, 400.433
1072.753, 439.780
1073.990, 537.737
1075.227, 445.508
1076.464, 454.066
1077.700, 411.178
1078.936, 202.726
1080.173, 389.847
1081.408, 157.724
1082.644, 207.619
1083.880, 356.865
1085.115, 95.666
1086.350, 195.418
1087.585, 484.418
1088.820, 184.912
1090.054, 573.651
1091.288, 279.446
1092.522, 507.358
1093.756, 563.524
1094.990, 148.645
1096.224, 376.128
1097.457, 380.986
1098.690, 177.610
1099.923, 453.911
1101.156, 178.089
1102.388, 204.333
1103.621, 377.702
1104.853, 152.627
1106.085, 508.402
1107.316, 152.051
1108.548, 88.764
1109.779, 184.846
1111.010, 31.400
1112.241, 275.539
1113.472, 69.986
1114.703, 115.889
1115.933, 209.322
1117.163, 64.004
1118.393, 158.441
1119.623, 42.904
1120.853, 73.793
1122.082, 201.602
1123.311, 64.965
1124.540, 32.074
1125.769, 92.441
1126.997, 85.285
1128.226, 69.209
1129.454, 323.836
1130.682, 95.000
1131.910, 330.484
1133.138, 383.502
1134.365, 214.555
1135.592, 588.766
1136.819, 479.865
1138.046, 553.605
1139.273, 727.264
1140.499, 407.734
1141.725, 602.350
1142.951, 705.029
1144.177, 446.305
1145.403, 1049.111
1146.628, 548.854
1147.854, 511.447
1149.079, 856.055
1150.304, 415.584
1151.528, 738.270
1152.753, 528.963
1153.977, 408.654
1155.201, 656.582
1156.425, 335.498
1157.649, 524.674
1158.872, 364.914
1160.096, 582.623
1161.319, 523.268
1162.542, 404.299
1163.764, 363.359
1164.987, 415.068
1166.209, 321.531
1167.431, 500.141
1168.653, 642.230
1169.875, 519.686
1171.097, 688.191
1172.318, 655.330
1173.539, 411.457
1174.760, 700.777
1175.981, 397.920
1177.202, 683.562
1178.422, 582.471
1179.642, 377.682
1180.862, 653.994
1182.082, 350.389
1183.302, 284.318
1184.521, 540.516
1185.740, 106.379
1186.959, 569.988
1188.178, 332.463
1189.397, 276.822
1190.615, 329.039
1191.834, 412.891
1193.052, 444.020
1194.269, 616.730
1195.487, 272.795
1196.705, 663.127
1197.922, 397.146
1199.139, 239.299
1200.356, 407.736
1201.573, 489.793
1202.789, 348.951
1204.006, 387.527
1205.222, 258.281
1206.438, 394.562
1207.653, 473.900
1208.869, 133.088
1210.084, 437.102
1211.299, 273.355
1212.514, 328.627
1213.729, 533.881
1214.944, 165.732
1216.158, 710.150
1217.372, 496.391
1218.586, 239.957
1219.800, 652.807
1221.014, 321.670
1222.227, 406.154
1223.440, 698.779
1224.654, 13.072
1225.866, 650.256
1227.079, 572.887
1228.292, 238.193
1229.504, 579.648
1230.716, 655.352
1231.928, 466.307
1233.139, 605.768
1234.351, 273.492
1235.562, 646.090
1236.773, 946.713
1237.984, 362.684
1239.195, 771.451
1240.406, 771.088
1241.616, 350.467
1242.826, 828.541
1244.036, 437.664
1245.246, 517.205
1246.456, 834.000
1247.665, 444.248
1248.874, 1120.775
1250.083, 655.912
1251.292, 564.762
1252.501, 1059.715
1253.709, 513.611
1254.917, 692.229
1256.125, 1204.346
1257.333, 398.129
1258.541, 954.844
1259.748, 986.084
1260.956, 677.607
1262.163, 760.486
1263.370, 771.889
1264.576, 727.760
1265.783, 958.328
1266.989, 407.055
1268.195, 851.625
1269.401, 849.932
1270.607, 479.502
1271.813, 820.523
1273.018, 527.801
1274.223, 340.613
1275.428, 1099.891
1276.633, 193.578
1277.838, 555.059
1279.042, 982.092
1280.246, 280.984
1281.450, 850.938
1282.654, 297.193
1283.858, 215.887
1285.061, 885.807
1286.265, 130.645
1287.468, 319.383
1288.671, 575.152
1289.873, 279.469
1291.076, 799.111
1292.278, 262.836
1293.480, 77.078
1294.682, 765.605
1295.884, 187.668
1297.086, 402.404
1298.287, 585.709
1299.488, 173.389
1300.689, 671.508
1301.890, 561.285
1303.091, 58.684
1304.291, 820.025
1305.491, 249.225
1306.691, 187.480
1307.891, 386.750
1309.091, 283.207
1310.290, 399.561
1311.490, 356.115
1312.689, 61.996
1313.888, 440.350
1315.086, 285.518
1316.285, 420.988
1317.483, 588.605
1318.681, 142.125
1319.879, 336.438
1321.077, 530.637
1322.275, 124.020
1323.472, 516.871
1324.669, 318.861
1325.866, 280.850
1327.063, 643.248
1328.260, 242.857
1329.456, 253.100
1330.653, 533.162
1331.849, 17.346
1333.045, 340.658
1334.240, 681.234
1335.436, 51.668
1336.631, 785.334
1337.826, 362.088
1339.021, 88.979
1340.216, 704.348
1341.411, 180.533
1342.605, 315.018
1343.799, 669.314
1344.993, 273.012
1346.187, 576.625
1347.381, 581.156
1348.574, 193.449
1349.767, 854.787
1350.961, 287.426
1352.153, 248.795
1353.346, 1128.273
1354.539, 21.375
1355.731, 607.762
1356.923, 586.629
1358.115, 25.949
1359.307, 483.258
1360.498, 453.492
1361.690, 8.672
1362.881, 1007.621
1364.072, 106.039
1365.263, 471.703
1366.453, 847.312
1367.644, 266.156
1368.834, 355.477
1370.024, 541.941
1371.214, 413.613
1372.404, 478.707
1373.593, 92.863
1374.783, 524.051
1375.972, 697.500
1377.161, 297.680
1378.349, 148.191
1379.538, 572.336
1380.726, 136.207
1381.915, 834.672
1383.103, 625.645
1384.290, 336.449
1385.478, 697.652
1386.665, 426.820
1387.853, 247.047
1389.040, 908.207
1390.227, 156.426
1391.413, 605.582
1392.600, 1053.668
1393.786, 201.941
1394.972, 1107.730
1396.158, 943.340
1397.344, 148.539
1398.530, 1273.477
1399.715, 503.820
1400.900, 306.512
1402.085, 1168.125
1403.270, 328.488
1404.455, 773.836
1405.639, 911.977
1406.824, 210.449
1408.008, 945.344
1409.192, 869.535
1410.375, 233.660
1411.559, 1251.129
1412.742, 663.918
1413.925, 463.086
1415.108, 1264.328
1416.291, 195.949
1417.474, 862.301
1418.656, 1182.094
1419.839, 330.215
1421.021, 1220.152
1422.202, 526.188
1423.384, 562.207
1424.566, 1389.934
1425.747, 666.562
1426.928, 459.887
1428.109, 1411.848
1429.290, 439.547
1430.470, 1131.191
1431.651, 1131.078
1432.831, 335.289
1434.011, 1221.738
1435.191, 964.977
1436.370, 333.598
1437.550, 1336.262
1438.729, 791.199
1439.908, 822.875
1441.087, 1569.996
1442.266, 398.984
1443.444, 1293.090
1444.623, 1406.348
1445.801, 17.680
1446.979, 1673.184
1448.157, 992.770
1449.334, 410.012
1450.512, 1281.609
1451.689, 868.441
1452.866, 629.215
1454.043, 1454.152
1455.220, 299.512
1456.396, 882.594
1457.573, 1207.961
1458.749, 198.262
1459.925, 1208.184
1461.100, 1212.004
1462.276, 410.734
1463.451, 1676.141
1464.627, 691.000
1465.802, 578.816
1466.977, 1634.516
1468.151, 218.656
1469.326, 1052.277
1470.500, 1447.055
1471.674, 186.496
1472.848, 1614.738
1474.022, 1279.285
1475.195, 10.930
1476.369, 1588.277
1477.542, 605.570
1478.715, 570.477
1479.888, 1667.238
1481.061, 471.445
1482.233, 787.082
1483.405, 1164.797
1484.577, 284.316
1485.749, 1182.965
1486.921, 1166.504
1488.093, 33.152
1489.264, 1536.402
1490.435, 1050.969
1491.606, 157.086
1492.777, 1314.809
1493.948, 695.680
1495.118, 667.117
1496.288, 1255.500
1497.459, 414.660
1498.628, 873.121
1499.798, 1050.992
1500.968, 86.688
1502.137, 1409.641
