##NAMES=Ludlamite
##RRUFFID=R040152
##IDEAL CHEMISTRY=Fe^2+^_3_(PO_4_)_2_&#183;4H_2_O
##LOCALITY=Cobalt, Lemhi County, Idaho, USA
##OWNER=RRUFF
##SOURCE=University of Arizona Mineral Museum
##DESCRIPTION=Green tabular single crystals
##STATUS=The identification of this mineral has been confirmed by X-ray diffraction and chemical analysis
##URL=rruff.info/R040152
##MEASURED CHEMISTRY=Fe_3.01_(P_1.00_O_4_)_2_Â·4H_2_O
##PIN_ID=S00001
##ORIENTATION=Laser parallel to b* (0 1 0). Fiducial mark perpendicular to laser is parallel to -c [0 0 -1]
79.427, 0.000
80.823, 5.572
82.218, 9.001
83.614, 26.188
85.009, 3.758
86.404, 107.555
87.798, 108.814
89.193, 213.044
90.587, 365.503
91.981, 592.926
93.375, 857.360
94.768, 1317.064
96.161, 2084.449
97.554, 3102.042
98.947, 4601.451
100.340, 6217.362
101.732, 8173.513
103.124, 8659.683
104.516, 7173.674
105.908, 4979.318
107.300, 2974.464
108.691, 1792.981
110.082, 1081.753
111.473, 694.679
112.864, 560.668
114.254, 474.639
115.644, 418.521
117.034, 306.250
118.424, 287.768
119.813, 290.047
121.203, 218.076
122.592, 261.805
123.981, 301.178
125.369, 278.151
126.758, 250.684
128.146, 338.742
129.534, 463.292
130.922, 494.302
132.309, 668.744
133.696, 802.592
135.083, 1129.822
136.470, 1480.413
137.857, 2100.347
139.243, 2664.606
140.630, 3421.176
142.016, 3916.044
143.401, 4416.197
144.787, 4570.619
146.172, 4518.299
147.557, 4205.224
148.942, 3529.387
150.327, 2620.778
151.711, 1969.387
153.096, 1497.206
154.480, 1175.227
155.863, 973.443
157.247, 877.915
158.630, 841.794
160.013, 865.173
161.396, 1008.988
162.779, 1253.080
164.161, 1573.169
165.544, 2085.328
166.926, 2477.549
168.308, 3188.880
169.689, 4007.333
171.070, 4975.886
172.452, 5525.507
173.833, 5224.217
175.213, 4257.055
176.594, 3281.953
177.974, 2591.933
179.354, 2300.993
180.734, 2094.106
182.114, 1977.278
183.493, 1817.505
184.872, 1474.791
186.251, 1280.136
187.630, 993.542
189.008, 930.010
190.387, 928.540
191.765, 1046.132
193.143, 1364.787
194.520, 1644.505
195.898, 2358.285
197.275, 3041.128
198.652, 3872.031
200.029, 4265.998
201.405, 4366.024
202.782, 3831.112
204.158, 3270.458
205.534, 2839.661
206.909, 2424.511
208.285, 1977.240
209.660, 1753.612
211.035, 1404.041
212.410, 1162.523
213.784, 887.058
215.159, 737.646
216.533, 570.287
217.907, 411.977
219.281, 329.718
220.654, 250.508
222.027, 274.347
223.400, 245.233
224.773, 254.166
226.146, 241.452
227.518, 242.149
228.891, 229.237
230.263, 245.348
231.634, 276.503
233.006, 270.831
234.377, 353.712
235.748, 419.797
237.119, 501.472
238.490, 744.254
239.860, 811.040
241.231, 1034.219
242.601, 1343.556
243.970, 1689.386
245.340, 2126.512
246.709, 2469.524
248.079, 2992.236
249.448, 2884.830
250.816, 2690.978
252.185, 2202.111
253.553, 1682.757
254.921, 1288.392
256.289, 948.765
257.657, 852.012
259.024, 714.402
260.391, 749.548
261.758, 650.742
263.125, 644.950
264.492, 647.377
265.858, 543.856
267.224, 569.308
268.590, 495.425
269.956, 565.445
271.321, 523.479
272.687, 413.120
274.052, 396.611
275.416, 486.503
276.781, 522.676
278.146, 591.249
279.510, 721.914
280.874, 851.079
282.237, 1169.916
283.601, 1426.833
284.964, 1623.826
286.327, 1749.893
287.690, 1652.029
289.053, 1462.232
290.416, 1326.500
291.778, 1125.830
293.140, 1040.219
294.502, 946.664
295.863, 960.164
297.225, 1050.717
298.586, 1009.321
299.947, 1133.974
301.308, 1213.674
302.668, 1048.420
304.029, 1073.211
305.389, 1009.045
306.749, 847.920
308.108, 778.836
309.468, 560.791
310.827, 515.784
312.186, 422.813
313.545, 309.879
314.903, 274.978
316.262, 183.111
317.620, 153.277
318.978, 111.476
320.336, 66.704
321.693, 60.963
323.051, 48.250
324.408, 53.562
325.765, 87.897
327.121, 12.745
328.478, 37.635
329.834, 39.037
331.190, 103.461
332.546, 94.907
333.902, 131.373
335.257, 115.860
336.612, 161.368
337.967, 230.896
339.322, 206.442
340.677, 295.008
342.031, 223.593
343.385, 315.196
344.739, 361.817
346.093, 231.456
347.446, 275.113
348.799, 265.787
350.153, 257.479
351.505, 283.187
352.858, 209.912
354.210, 354.654
355.563, 309.412
356.915, 339.185
358.267, 415.974
359.618, 431.778
360.969, 490.598
362.321, 477.432
363.672, 518.280
365.022, 527.143
366.373, 477.019
367.723, 488.906
369.073, 324.808
370.423, 382.722
371.773, 244.649
373.122, 172.589
374.471, 223.542
375.821, 126.505
377.169, 126.480
378.518, 37.467
379.866, 63.465
381.215, 62.475
382.563, 11.506
383.910, 20.480
385.258, 12.450
386.605, 6.416
387.952, 82.375
389.299, 12.345
390.646, 121.312
391.992, 54.299
393.339, 53.292
394.685, 104.292
396.031, 25.321
397.376, 92.360
398.722, 33.443
400.067, 89.576
401.412, 115.768
402.757, 26.016
404.101, 61.302
405.446, 33.640
406.790, 18.001
408.134, 68.339
409.478, 40.678
410.821, 45.008
412.165, 100.339
413.508, 2.306
414.851, 38.032
416.193, 49.374
417.536, 56.726
418.878, 67.135
420.220, 11.521
421.562, 36.853
422.904, 33.237
424.245, 43.368
425.586, 11.010
426.927, 67.609
428.268, 77.748
429.609, 13.140
430.949, 11.461
432.289, 69.067
433.629, 4.696
434.969, 43.324
436.309, 13.038
437.648, 26.588
438.987, 83.235
440.326, 97.893
441.665, 39.563
443.003, 138.239
444.342, 126.925
445.680, 110.635
447.018, 192.355
448.355, 266.091
449.693, 258.835
451.030, 295.588
452.367, 368.401
453.704, 492.123
455.041, 544.907
456.377, 604.703
457.713, 760.506
459.049, 841.328
460.385, 908.157
461.721, 1018.997
463.056, 991.842
464.391, 960.695
465.726, 924.554
467.061, 734.426
468.395, 673.303
469.730, 613.193
471.064, 407.091
472.398, 524.995
473.731, 367.905
475.065, 354.822
476.398, 383.744
477.731, 435.693
479.064, 480.660
480.397, 537.631
481.729, 508.613
483.062, 593.599
484.394, 666.588
485.725, 781.591
487.057, 922.225
488.389, 1040.507
489.720, 1258.556
491.051, 1486.620
492.382, 1692.688
493.712, 1875.761
495.043, 1950.839
496.373, 1984.028
497.703, 1956.024
499.032, 1869.125
500.362, 1664.233
501.691, 1489.346
503.020, 1225.481
504.349, 1111.618
505.678, 968.783
507.007, 768.961
508.335, 752.142
509.663, 646.323
510.991, 709.520
512.319, 602.718
513.646, 602.917
514.973, 556.119
516.300, 633.327
517.627, 658.537
518.954, 641.747
520.280, 691.959
521.607, 711.444
522.933, 786.385
524.259, 792.600
525.584, 900.814
526.910, 972.029
528.235, 1089.256
529.560, 1256.482
530.885, 1269.708
532.209, 1489.935
533.534, 1672.161
534.858, 1911.388
536.182, 2185.614
537.506, 2553.840
538.829, 2919.065
540.152, 3485.292
541.476, 4201.517
542.799, 4784.976
544.121, 5732.978
545.444, 6419.302
546.766, 6906.858
548.088, 7177.563
549.410, 6971.758
550.732, 6567.208
552.053, 5827.196
553.375, 4837.185
554.696, 4101.360
556.017, 3478.648
557.337, 2962.349
558.658, 2450.129
559.978, 2110.862
561.298, 1834.115
562.618, 1556.134
563.938, 1391.244
565.257, 1276.162
566.576, 980.494
567.895, 972.074
569.214, 824.643
570.533, 695.399
571.851, 555.620
573.170, 515.759
574.488, 421.760
575.805, 374.283
577.123, 360.407
578.440, 313.700
579.758, 310.683
581.075, 307.172
582.391, 297.594
583.708, 330.802
585.024, 324.071
586.341, 356.572
587.657, 422.161
588.972, 449.094
590.288, 466.709
591.603, 480.823
592.918, 580.623
594.233, 653.790
595.548, 798.564
596.863, 731.475
598.177, 728.772
599.491, 853.325
600.805, 827.607
602.119, 783.521
603.432, 848.831
604.746, 848.141
606.059, 717.975
607.372, 756.289
608.685, 864.605
609.997, 719.150
611.309, 817.470
612.621, 842.957
613.933, 944.116
615.245, 1030.441
616.557, 1119.408
617.868, 1281.736
619.179, 1312.882
620.490, 1362.212
621.801, 1593.764
623.111, 1753.097
624.421, 1896.935
625.731, 1994.270
627.041, 2396.104
628.351, 2343.087
629.660, 2601.674
630.970, 2913.012
632.279, 2892.022
633.588, 2957.370
634.896, 2815.959
636.205, 2974.325
637.513, 2738.722
638.821, 2707.587
640.129, 2418.926
641.437, 2356.310
642.744, 2056.926
644.051, 1882.972
645.358, 1750.723
646.665, 1657.848
647.972, 1520.758
649.278, 1426.586
650.584, 1310.557
651.890, 1242.157
653.196, 1165.938
654.502, 1099.875
655.807, 971.327
657.113, 938.872
658.418, 864.514
659.722, 844.511
661.027, 738.898
662.331, 683.055
663.636, 787.059
664.940, 626.373
666.244, 681.752
667.547, 665.967
668.851, 619.272
670.154, 505.575
671.457, 503.163
672.760, 583.456
674.062, 379.965
675.365, 526.255
676.667, 367.543
677.969, 449.863
679.271, 410.253
680.572, 297.532
681.874, 319.808
683.175, 320.081
684.476, 327.641
685.777, 333.073
687.077, 329.836
688.378, 319.433
689.678, 282.690
690.978, 240.945
692.278, 124.197
693.577, 300.446
694.877, 158.692
696.176, 177.935
697.475, 79.175
698.774, 199.413
700.072, 132.651
701.371, 132.894
702.669, 69.138
703.967, 73.496
705.265, 72.924
706.562, 87.911
707.860, 84.204
709.157, 106.509
710.454, 88.826
711.751, 111.167
713.047, 83.514
714.344, 99.081
715.640, 117.408
716.936, 107.660
718.232, 113.087
719.527, 94.523
720.823, 21.026
722.118, 46.414
723.413, 73.859
724.708, 13.324
726.002, 104.794
727.297, 13.278
728.591, 134.783
729.885, 115.292
731.179, 30.812
732.472, 27.345
733.766, 66.894
735.059, 13.461
736.352, 74.025
737.645, 34.603
738.937, 48.191
740.230, 35.777
741.522, 3.630
742.814, 33.946
744.106, 54.545
745.397, 14.152
746.689, 14.242
747.980, 61.344
749.271, 36.934
750.562, 100.522
751.853, 39.881
753.143, 84.688
754.433, 24.252
755.723, 73.813
757.013, 72.372
758.303, 35.071
759.592, 84.457
760.881, 10.019
762.170, 66.488
763.459, 102.993
764.748, 25.494
766.036, 101.991
767.325, 4.515
768.613, 0.964
769.901, 121.433
771.188, 30.101
772.476, 87.337
773.763, 0.774
775.050, 63.199
776.337, 24.621
777.624, 80.038
778.910, 11.547
780.196, 96.851
781.482, 11.755
782.768, 2.623
784.054, 20.992
785.339, 87.355
786.625, 1.715
787.910, 50.066
789.195, 73.586
790.479, 38.287
791.764, 39.982
793.048, 13.752
794.332, 69.498
795.616, 40.744
796.900, 27.013
798.183, 81.793
799.467, 6.375
800.750, 19.464
802.033, 37.323
803.316, 50.791
804.598, 3.650
805.880, 14.000
807.163, 14.905
808.445, 17.826
809.726, 27.234
811.008, 11.708
812.289, 7.768
813.570, 67.627
814.851, 32.368
816.132, 86.639
817.413, 36.699
818.693, 64.214
819.973, 30.127
821.253, 40.963
822.533, 69.919
823.813, 107.799
825.092, 4.677
826.371, 11.449
827.650, 9.414
828.929, 45.277
830.208, 112.139
831.486, 34.000
832.764, 19.860
834.042, 43.718
835.320, 131.580
836.598, 77.440
837.875, 34.700
839.152, 78.139
840.429, 125.976
841.706, 42.821
842.983, 106.665
844.259, 118.521
845.536, 91.392
846.812, 126.262
848.088, 113.131
849.363, 176.000
850.639, 151.868
851.914, 90.738
853.189, 72.608
854.464, 143.477
855.739, 204.356
857.013, 132.234
858.288, 192.112
859.562, 184.002
860.836, 184.891
862.110, 218.530
863.383, 189.667
864.656, 261.553
865.930, 211.439
867.203, 235.324
868.475, 264.226
869.748, 185.125
871.020, 224.025
872.292, 221.922
873.564, 221.821
874.836, 241.363
876.108, 202.232
877.379, 261.136
878.650, 273.507
879.922, 274.430
881.192, 254.832
882.463, 293.754
883.733, 273.676
885.004, 375.415
886.274, 214.108
887.544, 323.025
888.813, 266.452
890.083, 359.366
891.352, 390.148
892.621, 437.048
893.890, 407.843
895.159, 469.591
896.427, 462.293
897.695, 542.199
898.964, 519.658
900.232, 523.731
901.499, 601.633
902.767, 698.432
904.034, 715.331
905.301, 837.915
906.568, 935.813
907.835, 1063.457
909.102, 1133.359
910.368, 1340.260
911.634, 1602.177
912.900, 1720.095
914.166, 1973.491
915.432, 2034.408
916.697, 2008.324
917.962, 2200.014
919.227, 2143.932
920.492, 2221.684
921.757, 2055.765
923.021, 2052.682
924.285, 2123.958
925.550, 2235.876
926.813, 2309.979
928.077, 2400.899
929.341, 2566.599
930.604, 2918.520
931.867, 3093.951
933.130, 3530.888
934.393, 4071.325
935.655, 4555.614
936.918, 5295.304
938.180, 6135.246
939.442, 7366.517
940.703, 8872.452
941.965, 10980.145
943.226, 13722.062
944.488, 17961.953
945.749, 23791.373
947.009, 30615.320
948.270, 38670.227
949.530, 46116.887
950.791, 49404.133
952.051, 47241.664
953.311, 40693.824
954.570, 33605.891
955.830, 26920.852
957.089, 20973.043
958.348, 16839.738
959.607, 13864.251
960.866, 11332.615
962.124, 9754.484
963.383, 8665.265
964.641, 7767.949
965.899, 7366.276
967.156, 7024.363
968.414, 6828.530
969.671, 6825.848
970.928, 6754.750
972.185, 6785.453
973.442, 6847.238
974.699, 6892.261
975.955, 6866.296
977.211, 6841.172
978.468, 6839.219
979.723, 6744.126
980.979, 6573.333
982.234, 6732.512
983.490, 6251.642
984.745, 6400.778
986.000, 6210.974
987.254, 5912.036
988.509, 5950.308
989.763, 5621.387
991.017, 5538.468
992.271, 5230.547
993.525, 4849.769
994.779, 4462.755
996.032, 3979.504
997.285, 3674.589
998.538, 2860.929
999.791, 2731.020
1001.044, 2153.402
1002.296, 1968.898
1003.548, 1597.260
1004.800, 1422.418
1006.052, 1313.125
1007.304, 1081.227
1008.555, 1116.476
1009.807, 981.549
1011.058, 831.700
1012.309, 879.940
1013.559, 764.260
1014.810, 700.371
1016.060, 744.668
1017.310, 684.858
1018.560, 558.129
1019.810, 555.256
1021.060, 618.614
1022.309, 576.759
1023.558, 686.501
1024.807, 491.004
1026.056, 626.852
1027.305, 633.013
1028.553, 684.235
1029.801, 765.636
1031.049, 633.052
1032.297, 715.663
1033.545, 807.967
1034.793, 868.379
1036.040, 1015.561
1037.287, 1142.750
1038.534, 1360.203
1039.781, 1651.405
1041.027, 1797.609
1042.274, 2187.822
1043.520, 2165.126
1044.766, 1969.356
1046.012, 1668.122
1047.257, 1350.393
1048.503, 1217.986
1049.748, 869.239
1050.993, 880.581
1052.238, 711.822
1053.483, 608.062
1054.727, 542.300
1055.971, 494.203
1057.216, 476.353
1058.459, 498.138
1059.703, 485.383
1060.947, 521.270
1062.190, 595.684
1063.433, 620.936
1064.676, 609.458
1065.919, 566.772
1067.162, 798.584
1068.404, 690.063
1069.646, 876.616
1070.888, 980.070
1072.130, 1008.575
1073.372, 1163.084
1074.613, 1444.750
1075.855, 1492.245
1077.096, 1529.065
1078.337, 1853.306
1079.578, 1724.923
1080.818, 1652.058
1082.059, 1448.417
1083.299, 1316.645
1084.539, 1018.208
1085.779, 840.444
1087.018, 570.015
1088.258, 559.728
1089.497, 459.112
1090.736, 428.437
1091.975, 327.010
1093.213, 306.412
1094.452, 272.948
1095.690, 134.410
1096.928, 188.651
1098.166, 151.933
1099.404, 245.172
1100.642, 140.428
1101.879, 137.937
1103.116, 71.189
1104.353, 108.894
1105.590, 11.543
1106.827, 72.028
1108.063, 68.847
1109.299, 47.350
1110.536, 130.887
1111.771, 38.128
1113.007, 67.358
1114.243, 53.717
1115.478, 3.020
1116.713, 71.244
1117.948, 83.529
1119.183, 6.788
1120.418, 107.759
1121.652, 114.285
1122.886, 112.703
1124.120, 78.021
1125.354, 19.512
1126.588, 60.200
1127.821, 24.445
1129.055, 14.937
1130.288, 23.399
1131.521, 29.075
1132.753, 11.619
1133.986, 23.948
1135.218, 110.520
1136.450, 11.038
1137.682, 1.313
1138.914, 60.079
1140.146, 37.291
1141.377, 29.991
1142.609, 50.919
1143.840, 62.676
1145.071, 117.404
1146.301, 8.979
1147.532, 75.387
1148.762, 2.569
1149.992, 2.169
1151.222, 9.932
1152.452, 60.170
1153.682, 42.905
1154.911, 126.190
1156.140, 42.230
1157.369, 47.619
1158.598, 68.413
1159.827, 48.509
1161.055, 30.588
1162.284, 99.812
1163.512, 38.849
1164.740, 65.871
1165.967, 64.140
1167.195, 88.578
1168.422, 42.832
1169.650, 153.374
1170.877, 1.064
1172.103, 15.673
1173.330, 20.267
1174.557, 132.546
1175.783, 85.074
1177.009, 75.613
1178.235, 41.992
1179.461, 11.199
1180.686, 71.672
1181.912, 46.430
1183.137, 130.984
1184.362, 123.335
1185.587, 54.057
1186.811, 128.380
1188.036, 131.391
1189.260, 123.052
1190.484, 97.616
1191.708, 150.409
1192.932, 19.947
1194.155, 117.452
1195.378, 41.783
1196.602, 123.115
1197.825, 104.857
1199.047, 181.439
1200.270, 161.799
1201.492, 215.049
1202.715, 23.121
1203.937, 161.746
1205.159, 4.805
1206.380, 144.074
1207.602, 53.759
1208.823, 98.696
1210.044, 152.472
1211.265, 75.048
1212.486, 124.778
1213.707, 28.487
1214.927, 85.562
1216.147, 67.405
1217.367, 92.343
1218.587, 81.279
1219.807, 80.038
1221.027, 50.095
1222.246, 85.822
1223.465, 32.339
1224.684, 158.144
1225.903, 56.799
1227.121, 37.757
1228.340, 118.633
1229.558, 172.003
1230.776, 70.352
1231.994, 10.676
1233.212, 68.271
1234.429, 53.960
1235.646, 122.200
1236.864, 135.419
1238.081, 81.021
1239.297, 124.201
1240.514, 91.363
1241.730, 109.507
1242.947, 166.890
1244.163, 151.134
1245.378, 180.283
1246.594, 191.312
1247.810, 102.637
1249.025, 190.737
1250.240, 64.708
1251.455, 70.959
1252.670, 109.821
1253.885, 6.800
1255.099, 104.656
1256.313, 68.476
1257.527, 166.506
1258.741, 194.352
1259.955, 137.421
1261.168, 154.425
1262.382, 183.959
1263.595, 162.672
1264.808, 72.309
1266.021, 98.597
1267.233, 15.236
1268.446, 128.793
1269.658, 0.410
1270.870, 107.906
1272.082, 68.250
1273.294, 137.691
1274.505, 126.293
1275.716, 104.482
1276.928, 64.843
1278.139, 80.566
1279.349, 104.401
1280.560, 90.497
1281.770, 77.699
1282.981, 60.640
1284.191, 102.438
1285.401, 61.554
1286.610, 117.546
1287.820, 160.363
1289.029, 112.394
1290.239, 137.629
1291.448, 45.501
1292.656, 64.091
1293.865, 103.900
1295.073, 81.391
1296.282, 115.670
1297.490, 79.192
1298.698, 150.826
1299.906, 98.882
1301.113, 109.514
1302.320, 78.973
1303.528, 95.579
1304.735, 77.105
1305.942, 77.526
1307.148, 55.758
1308.355, 80.181
1309.561, 79.386
1310.767, 83.673
1311.973, 22.149
1313.179, 46.855
1314.384, 213.177
1315.590, 158.394
1316.795, 110.984
1318.000, 49.785
1319.205, 6.224
1320.410, 143.313
1321.614, 20.312
1322.819, 101.095
1324.023, 17.832
1325.227, 123.347
1326.431, 58.138
1327.634, 27.214
1328.838, 6.364
1330.041, 32.423
1331.244, 135.960
1332.447, 21.699
1333.650, 14.593
1334.852, 65.234
1336.055, 49.214
1337.257, 63.385
1338.459, 64.425
1339.661, 99.932
1340.862, 94.090
1342.064, 29.560
1343.265, 44.922
1344.466, 72.357
1345.667, 93.767
1346.868, 131.214
1348.068, 30.020
1349.269, 47.408
1350.469, 193.180
1351.669, 82.464
1352.869, 28.081
1354.069, 176.158
1355.268, 15.375
1356.468, 185.301
1357.667, 208.410
1358.866, 58.997
1360.065, 107.111
1361.263, 78.913
1362.462, 72.848
1363.660, 109.662
1364.858, 46.580
1366.056, 105.270
1367.254, 153.045
1368.451, 74.481
1369.649, 104.482
1370.846, 175.078
1372.043, 208.140
1373.240, 213.569
1374.436, 180.099
1375.633, 158.798
1376.829, 72.456
1378.025, 66.185
1379.221, 143.350
1380.417, 151.431
1381.613, 53.234
1382.808, 205.967
1384.003, 171.125
1385.199, 200.296
1386.393, 83.156
1387.588, 111.354
1388.783, 126.458
1389.977, 187.356
1391.171, 63.238
1392.365, 111.866
1393.559, 145.632
1394.753, 65.564
1395.946, 244.604
1397.140, 113.555
1398.333, 211.415
1399.526, 127.401
1400.719, 87.843
1401.911, 114.543
1403.104, 54.809
1404.296, 64.152
1405.488, 173.150
1406.680, 0.051
1407.872, 189.997
1409.063, 141.488
1410.255, 120.985
1411.446, 191.753
1412.637, 113.167
1413.828, 189.502
1415.018, 264.470
1416.209, 218.624
1417.399, 62.998
1418.589, 261.615
1419.779, 85.242
1420.969, 173.490
1422.159, 49.014
1423.348, 243.348
1424.537, 148.359
1425.726, 246.453
1426.915, 274.645
1428.104, 90.305
1429.293, 122.095
1430.481, 158.264
1431.669, 207.840
1432.857, 214.311
1434.045, 192.446
1435.233, 226.379
1436.420, 178.705
1437.608, 172.288
1438.795, 166.076
1439.982, 279.231
1441.169, 255.346
1442.355, 221.314
1443.542, 251.157
1444.728, 223.425
1445.914, 258.847
1447.100, 204.803
1448.286, 214.738
1449.472, 196.050
1450.657, 272.047
1451.842, 167.877
1453.027, 246.438
1454.212, 364.357
1455.397, 261.289
1456.581, 201.039
1457.766, 373.129
1458.950, 158.705
1460.134, 262.727
1461.318, 98.343
1462.501, 274.420
1463.685, 309.707
1464.868, 184.995
1466.051, 296.657
1467.234, 133.146
1468.417, 98.783
1469.600, 265.621
1470.782, 239.848
1471.965, 159.613
1473.147, 277.193
1474.329, 240.942
1475.510, 105.666
1476.692, 25.681
1477.873, 174.697
1479.055, 121.702
1480.236, 330.714
1481.416, 130.687
1482.597, 227.653
1483.778, 174.592
1484.958, 206.473
1486.138, 84.482
1487.318, 249.662
1488.498, 42.840
1489.678, 134.033
1490.857, 44.247
1492.037, 177.504
1493.216, 205.885
1494.395, 84.382
1495.574, 73.972
1496.752, 76.703
1497.931, 107.558
1499.109, 102.505
1500.287, 72.490
1501.465, 12.578
1502.643, 71.788
1503.820, 50.153
1504.998, 69.107
1506.175, 34.221
1507.352, 50.883
1508.529, 86.053
1509.706, 87.290
1510.882, 72.885
1512.059, 120.346
1513.235, 88.191
1514.411, 6.013
1515.587, 157.318
1516.762, 64.650
1517.938, 92.717
1519.113, 2.361
