##NAMES=Ludlamite
##RRUFFID=R040152
##IDEAL CHEMISTRY=Fe^2+^_3_(PO_4_)_2_&#183;4H_2_O
##LOCALITY=Cobalt, Lemhi County, Idaho, USA
##OWNER=RRUFF
##SOURCE=University of Arizona Mineral Museum
##DESCRIPTION=Green tabular single crystals
##STATUS=The identification of this mineral has been confirmed by X-ray diffraction and chemical analysis
##URL=rruff.info/R040152
##MEASURED CHEMISTRY=Fe_3.01_(P_1.00_O_4_)_2_Â·4H_2_O
##PIN_ID=S00410
##ORIENTATION=Laser parallel to -a* (-1 0 0). Fiducial mark perpendicular to laser is parallel to b [0 1 0]
100.340, 0.000
101.732, 56.005
103.124, 116.977
104.516, 130.972
105.908, 168.216
107.300, 64.909
108.691, 30.445
110.082, 13.672
111.473, 12.817
112.864, 21.718
114.254, 107.697
115.644, 115.928
117.034, 168.252
118.424, 92.538
119.813, 105.683
121.203, 125.610
122.592, 144.246
123.981, 140.522
125.369, 178.375
126.758, 253.750
128.146, 347.598
129.534, 545.877
130.922, 637.549
132.309, 926.581
133.696, 1274.948
135.083, 1826.625
136.470, 2435.595
137.857, 3199.867
139.243, 4272.446
140.630, 5490.315
142.016, 6668.448
143.401, 7725.816
144.787, 8442.390
146.172, 8893.151
147.557, 8922.081
148.942, 8089.164
150.327, 6367.391
151.711, 4476.750
153.096, 2924.236
154.480, 1849.836
155.863, 1255.547
157.247, 863.363
158.630, 615.276
160.013, 514.283
161.396, 559.380
162.779, 596.560
164.161, 713.826
165.544, 865.215
166.926, 953.675
168.308, 905.203
169.689, 887.795
171.070, 911.498
172.452, 921.422
173.833, 928.689
175.213, 819.195
176.594, 642.947
177.974, 500.820
179.354, 428.733
180.734, 392.644
182.114, 394.552
183.493, 377.445
184.872, 416.294
186.251, 437.105
187.630, 578.884
189.008, 667.625
190.387, 989.348
191.765, 1403.061
193.143, 2001.769
194.520, 2662.478
195.898, 3619.189
197.275, 4502.905
198.652, 5535.629
200.029, 6422.364
201.405, 6820.108
202.782, 6783.867
204.158, 6673.639
205.534, 6792.423
206.909, 6793.223
208.285, 7065.040
209.660, 7153.872
211.035, 6686.718
212.410, 5927.580
213.784, 4714.458
215.159, 3770.352
216.533, 2864.261
217.907, 2122.186
219.281, 1630.126
220.654, 1252.083
222.027, 1002.053
223.400, 704.040
224.773, 564.040
226.146, 424.054
227.518, 372.294
228.891, 283.137
230.263, 244.170
231.634, 202.216
233.006, 120.274
234.377, 145.345
235.748, 121.429
237.119, 80.525
238.490, 112.632
239.860, 97.752
241.231, 142.394
242.601, 161.247
243.970, 201.699
245.340, 318.067
246.709, 376.077
248.079, 472.594
249.448, 469.389
250.816, 524.404
252.185, 448.838
253.553, 461.010
254.921, 422.403
256.289, 478.258
257.657, 523.040
259.024, 609.803
260.391, 676.573
261.758, 738.349
263.125, 863.132
264.492, 993.921
265.858, 1104.486
267.224, 1297.184
268.590, 1400.958
269.956, 1529.818
271.321, 1451.633
272.687, 1422.572
274.052, 1222.621
275.416, 1170.064
276.781, 1158.832
278.146, 1141.149
279.510, 1273.540
280.874, 1406.999
282.237, 1662.520
283.601, 1891.099
284.964, 2034.732
286.327, 2109.420
287.690, 1869.155
289.053, 1681.937
290.416, 1513.760
291.778, 1243.622
293.140, 1171.530
294.502, 1067.476
295.863, 1082.455
297.225, 1226.472
298.586, 1285.519
299.947, 1456.597
301.308, 1535.703
302.668, 1629.836
304.029, 1602.527
305.389, 1544.168
306.749, 1424.366
308.108, 1283.585
309.468, 1088.822
310.827, 946.074
312.186, 771.343
313.545, 648.625
314.903, 549.922
316.262, 460.231
317.620, 426.554
318.978, 343.888
320.336, 249.233
321.693, 226.590
323.051, 244.957
324.408, 186.333
325.765, 157.719
327.121, 117.117
328.478, 92.500
329.834, 64.938
331.190, 59.364
332.546, 82.797
333.902, 78.240
335.257, 96.544
336.612, 129.147
337.967, 135.611
339.322, 152.080
340.677, 182.553
342.031, 159.028
343.385, 191.504
344.739, 166.979
346.093, 150.454
347.446, 130.929
348.799, 83.407
350.153, 43.885
351.505, 7.629
352.858, 34.857
354.210, 32.654
355.563, 39.835
356.915, 21.324
358.267, 56.813
359.618, 27.303
360.969, 96.795
362.321, 108.287
363.672, 71.788
365.022, 131.293
366.373, 146.799
367.723, 107.311
369.073, 114.822
370.423, 75.344
371.773, 44.868
373.122, 82.390
374.471, 84.924
375.821, 38.460
377.169, 61.010
378.518, 40.442
379.866, 24.901
381.215, 31.369
382.563, 6.838
383.910, 19.312
385.258, 54.789
386.605, 28.284
387.952, 86.791
389.299, 32.322
390.646, 77.867
391.992, 45.444
393.339, 14.026
394.685, 22.616
396.031, 26.218
397.376, 31.832
398.722, 48.459
400.067, 57.106
401.412, 43.772
402.757, 16.544
404.101, 14.165
405.446, 5.896
406.790, 2.659
408.134, 8.467
409.478, 27.684
410.821, 16.810
412.165, 48.914
413.508, 59.989
414.851, 43.029
416.193, 65.063
417.536, 93.089
418.878, 127.106
420.220, 153.124
421.562, 171.131
422.904, 175.157
424.245, 190.172
425.586, 253.182
426.927, 243.190
428.268, 224.200
429.609, 297.216
430.949, 339.234
432.289, 394.254
433.629, 385.275
434.969, 458.297
436.309, 507.321
437.648, 596.348
438.987, 612.376
440.326, 649.403
441.665, 794.428
443.003, 928.460
444.342, 1040.500
445.680, 1205.638
447.018, 1443.662
448.355, 1657.510
449.693, 1860.611
451.030, 2178.922
452.367, 2612.277
453.704, 2873.592
455.041, 3363.605
456.377, 3682.988
457.713, 4026.896
459.049, 4159.224
460.385, 4244.209
461.721, 4101.102
463.056, 3708.554
464.391, 3319.577
465.726, 2845.092
467.061, 2331.117
468.395, 1958.943
469.730, 1686.927
471.064, 1311.905
472.398, 1137.875
473.731, 892.838
475.065, 847.792
476.398, 727.738
477.731, 714.677
479.064, 659.606
480.397, 706.552
481.729, 692.465
483.062, 836.368
484.394, 848.361
485.725, 956.247
487.057, 1167.806
488.389, 1333.684
489.720, 1562.674
491.051, 1823.297
492.382, 2084.139
493.712, 2439.798
495.043, 2504.617
496.373, 2642.418
497.703, 2713.823
499.032, 2554.888
500.362, 2279.647
501.691, 2059.751
503.020, 1774.509
504.349, 1592.257
505.678, 1338.994
507.007, 1157.721
508.335, 986.022
509.663, 873.728
510.991, 783.181
512.319, 668.700
513.646, 599.148
514.973, 499.608
516.300, 554.259
517.627, 509.898
518.954, 441.651
520.280, 507.392
521.607, 461.146
522.933, 505.746
524.259, 549.235
525.584, 498.039
526.910, 619.943
528.235, 689.490
529.560, 721.688
530.885, 710.553
532.209, 718.064
533.534, 820.578
534.858, 825.712
536.182, 840.583
537.506, 904.046
538.829, 871.287
540.152, 947.233
541.476, 1067.735
542.799, 1013.883
544.121, 1200.949
545.444, 1283.888
546.766, 1300.434
548.088, 1400.605
549.410, 1441.820
550.732, 1494.280
552.053, 1449.358
553.375, 1451.549
554.696, 1608.200
556.017, 1661.585
557.337, 1744.578
558.658, 1863.486
559.978, 1903.852
561.298, 2018.003
562.618, 2058.231
563.938, 2043.419
565.257, 2041.653
566.576, 1930.282
567.895, 1913.986
569.214, 1833.160
570.533, 1718.296
571.851, 1660.521
573.170, 1715.269
574.488, 1627.010
575.805, 1624.551
577.123, 1591.879
578.440, 1601.426
579.758, 1517.809
581.075, 1392.833
582.391, 1253.901
583.708, 1089.958
585.024, 933.005
586.341, 777.042
587.657, 678.591
588.972, 603.861
590.288, 509.865
591.603, 395.859
592.918, 251.842
594.233, 263.259
595.548, 261.221
596.863, 166.192
598.177, 181.132
599.491, 140.061
600.805, 116.732
602.119, 57.640
603.432, 45.203
604.746, 10.088
606.059, 31.079
607.372, 23.929
608.685, 33.773
609.997, 32.485
611.309, 11.496
612.621, 12.947
613.933, 34.482
615.245, 2.778
616.557, 36.832
617.868, 14.547
619.179, 19.475
620.490, 33.134
621.801, 62.366
623.111, 29.998
624.421, 58.614
625.731, 19.218
627.041, 110.631
628.351, 80.429
629.660, 63.993
630.970, 88.595
632.279, 73.136
633.588, 65.667
634.896, 66.187
636.205, 86.696
637.513, 54.194
638.821, 65.682
640.129, 74.158
641.437, 44.625
642.744, 69.080
644.051, 18.524
645.358, 51.952
646.665, 39.370
647.972, 14.775
649.278, 51.164
650.584, 12.542
651.890, 70.903
653.196, 8.254
654.502, 16.585
655.807, 26.902
657.113, 7.205
658.418, 23.119
659.722, 60.763
661.027, 45.026
662.331, 49.281
663.636, 80.525
664.940, 12.761
666.244, 72.982
667.547, 8.806
668.851, 67.382
670.154, 6.562
671.457, 1.274
672.760, 61.877
674.062, 56.020
675.365, 24.154
676.667, 23.279
677.969, 21.394
679.271, 16.500
680.572, 0.581
681.874, 15.644
683.175, 7.302
684.476, 34.731
685.777, 29.242
687.077, 9.754
688.378, 31.739
689.678, 36.283
690.978, 1.662
692.278, 43.406
693.577, 33.490
694.877, 8.621
696.176, 35.262
697.475, 22.854
698.774, 7.015
700.072, 6.121
701.371, 21.734
702.669, 33.715
703.967, 2.467
705.265, 44.349
706.562, 5.237
707.860, 39.861
709.157, 26.025
710.454, 38.912
711.751, 57.803
713.047, 17.698
714.344, 36.599
715.640, 4.510
716.936, 4.435
718.232, 69.368
719.527, 1.703
720.823, 34.226
722.118, 24.156
723.413, 7.915
724.708, 47.012
726.002, 42.935
727.297, 0.856
728.591, 10.227
729.885, 10.707
731.179, 7.421
732.472, 3.529
733.766, 8.641
735.059, 5.761
736.352, 18.886
737.645, 34.978
738.937, 47.840
740.230, 16.701
741.522, 21.560
742.814, 12.581
744.106, 6.729
745.397, 39.118
746.689, 16.965
747.980, 54.812
749.271, 12.342
750.562, 7.499
751.853, 0.339
753.143, 24.179
754.433, 54.019
755.723, 40.141
757.013, 16.684
758.303, 19.503
759.592, 19.207
760.881, 29.971
762.170, 12.477
763.459, 0.753
764.748, 30.727
766.036, 88.741
767.325, 61.753
768.613, 45.960
769.901, 47.451
771.188, 28.666
772.476, 0.210
773.763, 75.416
775.050, 42.453
776.337, 22.240
777.624, 13.490
778.910, 4.723
780.196, 22.443
781.482, 29.641
782.768, 11.890
784.054, 11.862
785.339, 3.382
786.625, 29.378
787.910, 39.144
789.195, 94.914
790.479, 104.689
791.764, 148.469
793.048, 214.229
794.332, 202.021
795.616, 263.818
796.900, 243.522
798.183, 209.332
799.467, 244.465
800.750, 215.276
802.033, 233.972
803.316, 309.033
804.598, 227.873
805.880, 246.894
807.163, 191.751
808.445, 177.625
809.726, 165.893
811.008, 179.499
812.289, 150.413
813.570, 179.979
814.851, 95.891
816.132, 133.811
817.413, 120.740
818.693, 178.679
819.973, 113.041
821.253, 134.999
822.533, 140.207
823.813, 119.184
825.092, 167.396
826.371, 160.187
827.650, 96.191
828.929, 176.210
830.208, 143.122
831.486, 128.048
832.764, 144.962
834.042, 184.035
835.320, 131.223
836.598, 163.095
837.875, 167.877
839.152, 130.015
840.429, 167.511
841.706, 106.342
842.983, 144.527
844.259, 179.711
845.536, 121.279
846.812, 120.113
848.088, 144.360
849.363, 215.452
850.639, 206.492
851.914, 218.824
853.189, 217.137
854.464, 199.548
855.739, 179.889
857.013, 161.244
858.288, 192.283
859.562, 226.675
860.836, 245.933
862.110, 225.581
863.383, 242.027
864.656, 209.490
865.930, 211.968
867.203, 216.442
868.475, 231.064
869.748, 245.480
871.020, 282.005
872.292, 336.573
873.564, 350.875
874.836, 294.488
876.108, 342.121
877.379, 366.206
878.650, 372.871
879.922, 442.557
881.192, 380.186
882.463, 434.300
883.733, 430.434
885.004, 478.775
886.274, 472.335
887.544, 538.684
888.813, 619.203
890.083, 579.088
891.352, 711.937
892.621, 741.802
893.890, 766.687
895.159, 872.589
896.427, 882.985
897.695, 992.669
898.964, 1146.626
900.232, 1168.601
901.499, 1329.601
902.767, 1507.175
904.034, 1702.212
905.301, 1986.249
906.568, 2317.455
907.835, 2751.416
909.102, 3153.775
910.368, 3743.907
911.634, 4316.390
912.900, 4972.561
914.166, 5531.628
915.432, 5698.843
916.697, 5777.071
917.962, 5787.225
919.227, 5336.505
920.492, 4941.148
921.757, 4510.703
923.021, 4259.060
924.285, 4043.547
925.550, 3995.937
926.813, 3923.118
928.077, 3925.576
929.341, 4088.465
930.604, 4385.975
931.867, 4547.506
933.130, 5067.060
934.393, 5726.810
935.655, 6186.186
936.918, 7205.806
938.180, 8237.397
939.442, 9782.065
940.703, 11789.751
941.965, 14274.466
943.226, 17706.197
944.488, 22878.949
945.749, 30142.730
947.009, 38420.523
948.270, 47934.355
949.530, 56369.215
950.791, 60591.102
952.051, 58407.988
953.311, 50688.941
954.570, 42436.906
955.830, 33435.902
957.089, 26242.932
958.348, 20578.980
959.607, 16544.049
960.866, 13131.146
962.124, 10844.274
963.383, 8971.361
964.641, 7494.542
965.899, 6447.759
967.156, 5651.000
968.414, 4970.263
969.671, 4457.549
970.928, 4018.859
972.185, 3676.192
973.442, 3367.558
974.699, 3074.487
975.955, 2940.373
977.211, 2629.830
978.468, 2503.318
979.723, 2375.830
980.979, 2220.694
982.234, 2333.096
983.490, 2193.685
984.745, 2303.250
986.000, 2385.716
987.254, 2397.388
988.509, 2549.720
989.763, 2502.503
991.017, 2635.980
992.271, 2689.804
993.525, 2706.609
994.779, 2671.435
996.032, 2501.141
997.285, 2459.462
998.538, 2085.998
999.791, 1972.956
1001.044, 1699.930
1002.296, 1530.253
1003.548, 1300.275
1004.800, 1101.320
1006.052, 1089.389
1007.304, 905.478
1008.555, 886.588
1009.807, 838.016
1011.058, 797.169
1012.309, 732.344
1013.559, 752.648
1014.810, 732.238
1016.060, 686.210
1017.310, 772.649
1018.560, 754.259
1019.810, 824.569
1021.060, 904.899
1022.309, 968.248
1023.558, 1120.716
1024.807, 1274.958
1026.056, 1408.908
1027.305, 1488.331
1028.553, 1548.777
1029.801, 1513.259
1031.049, 1362.750
1032.297, 1256.261
1033.545, 1132.645
1034.793, 1007.195
1036.040, 933.504
1037.287, 849.383
1038.534, 796.964
1039.781, 743.592
1041.027, 699.242
1042.274, 676.910
1043.520, 707.622
1044.766, 666.328
1046.012, 656.052
1047.257, 590.188
1048.503, 556.556
1049.748, 480.333
1050.993, 506.566
1052.238, 574.375
1053.483, 490.201
1054.727, 561.041
1055.971, 584.895
1057.216, 604.763
1058.459, 672.647
1059.703, 763.553
1060.947, 821.474
1062.190, 918.412
1063.433, 1034.362
1064.676, 1138.331
1065.919, 1215.313
1067.162, 1400.309
1068.404, 1404.331
1069.646, 1510.357
1070.888, 1598.447
1072.130, 1572.517
1073.372, 1511.599
1074.613, 1503.695
1075.855, 1368.822
1077.096, 1183.007
1078.337, 1190.151
1079.578, 968.011
1080.818, 923.289
1082.059, 761.514
1083.299, 755.705
1084.539, 617.013
1085.779, 588.227
1087.018, 476.560
1088.258, 437.589
1089.497, 395.248
1090.736, 357.509
1091.975, 230.868
1093.213, 276.570
1094.452, 266.848
1095.690, 140.467
1096.928, 139.315
1098.166, 168.306
1099.404, 145.862
1100.642, 128.440
1101.879, 113.863
1103.116, 92.210
1104.353, 98.981
1105.590, 57.434
1106.827, 98.919
1108.063, 28.373
1109.299, 29.273
1110.536, 11.229
1111.771, 36.909
1113.007, 31.378
1114.243, 35.962
1115.478, 22.922
1116.713, 29.745
1117.948, 47.254
1119.183, 39.546
1120.418, 62.437
1121.652, 43.858
1122.886, 74.242
1124.120, 80.533
1125.354, 30.880
1126.588, 35.194
1127.821, 27.542
1129.055, 40.686
1130.288, 28.680
1131.521, 7.456
1132.753, 30.569
1133.986, 27.153
1135.218, 22.562
1136.450, 44.922
1137.682, 2.573
1138.914, 46.062
1140.146, 1.460
1141.377, 11.176
1142.609, 29.670
1143.840, 24.996
1145.071, 14.411
1146.301, 18.903
1147.532, 0.536
1148.762, 3.575
1149.992, 34.037
1151.222, 2.280
1152.452, 46.409
1153.682, 9.850
1154.911, 66.452
1156.140, 7.094
1157.369, 31.204
1158.598, 2.782
1159.827, 5.514
1161.055, 45.646
1162.284, 1.260
1163.512, 15.613
1164.740, 3.376
1165.967, 47.839
1167.195, 39.566
1168.422, 25.246
1169.650, 41.559
1170.877, 23.128
1172.103, 37.183
1173.330, 10.769
1174.557, 13.397
1175.783, 26.155
1177.009, 18.918
1178.235, 69.464
1179.461, 38.028
1180.686, 32.740
1181.912, 29.575
1183.137, 47.903
1184.362, 37.479
1185.587, 24.065
1186.811, 90.455
1188.036, 47.107
1189.260, 16.708
1190.484, 6.008
1191.708, 63.482
1192.932, 88.121
1194.155, 69.609
1195.378, 45.186
1196.602, 97.455
1197.825, 18.116
1199.047, 94.112
1200.270, 30.127
1201.492, 80.167
1202.715, 53.231
1203.937, 115.118
1205.159, 45.539
1206.380, 37.644
1207.602, 23.968
1208.823, 70.854
1210.044, 73.612
1211.265, 60.432
1212.486, 29.765
1213.707, 61.613
1214.927, 30.615
1216.147, 65.483
1217.367, 26.302
1218.587, 65.049
1219.807, 56.637
1221.027, 51.333
1222.246, 37.950
1223.465, 31.695
1224.684, 59.415
1225.903, 10.938
1227.121, 22.736
1228.340, 39.323
1229.558, 87.321
1230.776, 28.815
1231.994, 77.388
1233.212, 30.984
1234.429, 7.348
1235.646, 16.703
1236.864, 59.591
1238.081, 40.061
1239.297, 18.417
1240.514, 73.790
1241.730, 23.038
1242.947, 2.480
1244.163, 4.242
1245.378, 28.998
1246.594, 29.141
1247.810, 41.502
1249.025, 71.640
1250.240, 14.250
1251.455, 52.275
1252.670, 47.459
1253.885, 57.663
1255.099, 23.643
1256.313, 22.650
1257.527, 26.540
1258.741, 13.863
1259.955, 24.688
1261.168, 24.112
1262.382, 29.890
1263.595, 58.741
1264.808, 19.501
1266.021, 96.206
1267.233, 14.112
1268.446, 107.539
1269.658, 18.476
1270.870, 17.923
1272.082, 18.829
1273.294, 18.364
1274.505, 40.033
1275.716, 28.184
1276.928, 0.875
1278.139, 29.299
1279.349, 89.880
1280.560, 7.598
1281.770, 65.060
1282.981, 14.836
1284.191, 11.052
1285.401, 46.770
1286.610, 43.945
1287.820, 62.307
1289.029, 14.608
1290.239, 48.883
1291.448, 57.543
1292.656, 70.055
1293.865, 0.920
1295.073, 82.678
1296.282, 95.333
1297.490, 18.290
1298.698, 65.217
1299.906, 45.120
1301.113, 41.998
1302.320, 37.993
1303.528, 22.522
1304.735, 34.569
1305.942, 29.033
1307.148, 63.980
1308.355, 24.608
1309.561, 19.292
1310.767, 4.779
1311.973, 54.086
1313.179, 30.686
1314.384, 67.258
1315.590, 65.805
1316.795, 17.220
1318.000, 44.853
1319.205, 85.771
1320.410, 21.319
1321.614, 22.270
1322.819, 43.097
1324.023, 29.447
1325.227, 59.789
1326.431, 45.341
1327.634, 43.086
1328.838, 24.849
1330.041, 24.062
1331.244, 36.245
1332.447, 20.401
1333.650, 22.528
1334.852, 41.787
1336.055, 2.169
1337.257, 19.636
1338.459, 26.876
1339.661, 21.856
1340.862, 40.909
1342.064, 28.909
1343.265, 40.366
1344.466, 64.237
1345.667, 59.083
1346.868, 56.610
1348.068, 89.240
1349.269, 25.115
1350.469, 47.862
1351.669, 29.619
1352.869, 77.315
1354.069, 104.985
1355.268, 86.978
1356.468, 26.256
1357.667, 74.031
1358.866, 49.602
1360.065, 64.155
1361.263, 70.708
1362.462, 84.167
1363.660, 118.588
1364.858, 89.050
1366.056, 104.411
1367.254, 69.726
1368.451, 71.760
1369.649, 85.242
1370.846, 69.768
1372.043, 85.981
1373.240, 32.325
1374.436, 100.655
1375.633, 77.647
1376.829, 67.603
1378.025, 118.361
1379.221, 113.324
1380.417, 31.657
1381.613, 79.842
1382.808, 104.186
1384.003, 91.479
1385.199, 129.533
1386.393, 56.745
1387.588, 100.515
1388.783, 95.675
1389.977, 192.827
1391.171, 58.618
1392.365, 93.724
1393.559, 97.303
1394.753, 28.601
1395.946, 63.731
1397.140, 50.402
1398.333, 94.241
1399.526, 82.032
1400.719, 101.179
1401.911, 98.388
1403.104, 103.831
1404.296, 113.885
1405.488, 102.055
1406.680, 75.186
1407.872, 92.439
1409.063, 122.756
1410.255, 100.208
1411.446, 154.103
1412.637, 34.529
1413.828, 108.363
1415.018, 50.740
1416.209, 126.124
1417.399, 53.296
1418.589, 124.643
1419.779, 72.516
1420.969, 134.200
1422.159, 51.345
1423.348, 43.237
1424.537, 55.583
1425.726, 60.279
1426.915, 86.737
1428.104, 37.640
1429.293, 80.583
1430.481, 37.354
1431.669, 44.406
1432.857, 103.592
1434.045, 131.586
1435.233, 65.612
1436.420, 105.537
1437.608, 0.819
1438.795, 97.020
1439.982, 94.022
1441.169, 95.391
1442.355, 75.126
1443.542, 138.206
1444.728, 39.978
1445.914, 101.561
1447.100, 23.129
1448.286, 113.056
1449.472, 94.402
1450.657, 104.438
1451.842, 86.962
1453.027, 73.543
1454.212, 117.902
1455.397, 107.531
1456.581, 110.866
1457.766, 105.439
1458.950, 68.690
1460.134, 109.869
1461.318, 102.451
1462.501, 37.212
1463.685, 148.968
1464.868, 83.371
1466.051, 73.062
1467.234, 55.898
1468.417, 34.003
1469.600, 113.142
1470.782, 81.479
1471.965, 67.606
1473.147, 120.250
1474.329, 98.458
1475.510, 69.366
1476.692, 21.894
1477.873, 136.476
1479.055, 68.856
1480.236, 149.380
1481.416, 95.897
1482.597, 30.397
1483.778, 36.335
1484.958, 72.822
1486.138, 57.250
1487.318, 105.694
1488.498, 17.868
1489.678, 33.564
1490.857, 28.041
1492.037, 99.972
1493.216, 43.396
1494.395, 77.698
1495.574, 66.522
1496.752, 58.949
1497.931, 119.422
1499.109, 17.899
1500.287, 75.390
1501.465, 48.994
1502.643, 44.277
1503.820, 131.906
1504.998, 82.646
1506.175, 24.560
1507.352, 74.558
1508.529, 47.704
1509.706, 82.583
1510.882, 47.646
1512.059, 40.719
1513.235, 71.563
1514.411, 2.425
1515.587, 82.537
1516.762, 98.909
1517.938, 31.896
1519.113, 6.750
1520.288, 0.000
##END=



