##NAMES=Ludlamite
##RRUFFID=R040152
##IDEAL CHEMISTRY=Fe^2+^_3_(PO_4_)_2_&#183;4H_2_O
##LOCALITY=Cobalt, Lemhi County, Idaho, USA
##OWNER=RRUFF
##SOURCE=University of Arizona Mineral Museum
##DESCRIPTION=Green tabular single crystals
##STATUS=The identification of this mineral has been confirmed by X-ray diffraction and chemical analysis
##URL=rruff.info/R040152
##MEASURED CHEMISTRY=Fe_3.01_(P_1.00_O_4_)_2_Â·4H_2_O
##PIN_ID=S00001
##ORIENTATION=Laser parallel to b* (0 1 0). Fiducial mark perpendicular to laser is parallel to -c [0 0 -1]
79.427, 0.000
80.823, 5.481
82.218, 24.747
83.614, 83.289
85.009, 74.753
86.404, 105.949
87.798, 162.690
89.193, 302.865
90.587, 389.024
91.981, 657.107
93.375, 920.307
94.768, 1517.991
96.161, 2361.659
97.554, 3421.912
98.947, 4846.486
100.340, 6903.126
101.732, 9147.593
103.124, 10231.683
104.516, 8847.229
105.908, 5902.077
107.300, 3404.102
108.691, 1943.191
110.082, 1023.248
111.473, 637.187
112.864, 384.934
114.254, 343.423
115.644, 231.664
117.034, 189.967
118.424, 165.010
119.813, 196.559
121.203, 116.622
122.592, 116.172
123.981, 88.176
125.369, 129.604
126.758, 191.426
128.146, 184.611
129.534, 314.131
130.922, 446.963
132.309, 519.086
133.696, 739.483
135.083, 1122.136
136.470, 1463.033
137.857, 2174.158
139.243, 2986.501
140.630, 3853.050
142.016, 4683.794
143.401, 5242.725
144.787, 5678.833
146.172, 5885.108
147.557, 5447.544
148.942, 4525.138
150.327, 3421.877
151.711, 2353.797
153.096, 1669.738
154.480, 1163.313
155.863, 827.129
157.247, 692.341
158.630, 611.880
160.013, 624.906
161.396, 701.353
162.779, 932.051
164.161, 1239.738
165.544, 1577.529
166.926, 2013.442
168.308, 2492.442
169.689, 2985.489
171.070, 3868.638
172.452, 4550.798
173.833, 4410.972
175.213, 3812.155
176.594, 3076.358
177.974, 2706.582
179.354, 2652.831
180.734, 2707.108
182.114, 2652.415
183.493, 2468.755
184.872, 1959.127
186.251, 1531.534
187.630, 1164.975
189.008, 970.451
190.387, 897.963
191.765, 787.510
193.143, 1113.093
194.520, 1874.712
195.898, 1771.365
197.275, 2348.054
198.652, 3003.777
200.029, 3412.533
201.405, 3408.322
202.782, 3124.142
204.158, 2710.992
205.534, 2357.872
206.909, 2068.943
208.285, 1744.721
209.660, 1483.688
211.035, 1187.684
212.410, 900.705
213.784, 629.753
215.159, 424.827
216.533, 247.926
217.907, 121.050
219.281, 110.197
220.654, 4.368
222.027, 19.438
223.400, 74.222
224.773, 106.984
226.146, 49.726
227.518, 67.446
228.891, 104.147
230.263, 40.828
231.634, 31.491
233.006, 0.831
234.377, 60.257
235.748, 128.449
237.119, 194.991
238.490, 344.704
239.860, 439.173
241.231, 631.952
242.601, 881.388
243.970, 1129.770
245.340, 1529.960
246.709, 1836.987
248.079, 2250.475
249.448, 2166.281
250.816, 1955.542
252.185, 1683.577
253.553, 1292.980
254.921, 1138.705
256.289, 984.669
257.657, 996.697
259.024, 1092.516
260.391, 1178.883
261.758, 1276.042
263.125, 1370.353
264.492, 1568.828
265.858, 1655.071
267.224, 1921.421
268.590, 1919.872
269.956, 1992.415
271.321, 1791.045
272.687, 1560.757
274.052, 1227.545
275.416, 1107.405
276.781, 1008.332
278.146, 899.323
279.510, 928.375
280.874, 1062.482
282.237, 1360.642
283.601, 1472.850
284.964, 1718.104
286.327, 1880.401
287.690, 1767.740
289.053, 1613.117
290.416, 1496.531
291.778, 1312.981
293.140, 1258.464
294.502, 1213.979
295.863, 1348.524
297.225, 1340.099
298.586, 1537.701
299.947, 1744.330
301.308, 1803.984
302.668, 1847.663
304.029, 1845.365
305.389, 1651.088
306.749, 1396.833
308.108, 1277.599
309.468, 1052.384
310.827, 927.188
312.186, 761.010
313.545, 572.849
314.903, 524.704
316.262, 341.560
317.620, 300.404
318.978, 334.232
320.336, 240.066
321.693, 232.914
323.051, 185.774
324.408, 118.645
325.765, 132.524
327.121, 89.410
328.478, 71.303
329.834, 101.204
331.190, 153.110
332.546, 148.022
333.902, 194.940
335.257, 256.864
336.612, 239.792
337.967, 297.726
339.322, 389.664
340.677, 419.607
342.031, 405.555
343.385, 470.508
344.739, 428.444
346.093, 463.427
347.446, 344.392
348.799, 361.362
350.153, 276.336
351.505, 300.313
352.858, 311.294
354.210, 342.278
355.563, 359.265
356.915, 397.255
358.267, 415.248
359.618, 416.243
360.969, 542.240
362.321, 599.239
363.672, 522.240
365.022, 608.243
366.373, 543.247
367.723, 466.252
369.073, 405.259
370.423, 384.266
371.773, 313.274
373.122, 231.283
374.471, 239.292
375.821, 171.301
377.169, 150.312
378.518, 65.322
379.866, 75.332
381.215, 75.342
382.563, 17.351
383.910, 11.645
385.258, 16.827
386.605, 23.993
387.952, 63.061
389.299, 18.755
390.646, 28.837
391.992, 27.896
393.339, 75.468
394.685, 102.914
396.031, 13.071
397.376, 93.240
398.722, 35.477
400.067, 93.761
401.412, 54.136
402.757, 17.576
404.101, 47.077
405.446, 40.632
406.790, 2.244
408.134, 35.852
409.478, 7.462
410.821, 56.072
412.165, 107.711
413.508, 46.388
414.851, 13.094
416.193, 30.816
417.536, 30.562
418.878, 7.664
420.220, 46.881
421.562, 77.893
422.904, 47.280
424.245, 47.459
425.586, 46.645
426.927, 128.833
428.268, 88.027
429.609, 74.223
430.949, 97.421
432.289, 162.622
433.629, 127.833
434.969, 212.046
436.309, 199.265
437.648, 320.485
438.987, 278.709
440.326, 303.933
441.665, 326.156
443.003, 455.398
444.342, 468.639
445.680, 562.880
447.018, 716.127
448.355, 740.374
449.693, 890.623
451.030, 1059.874
452.367, 1380.135
453.704, 1427.393
455.041, 1719.657
456.377, 1939.917
457.713, 2141.174
459.049, 2185.428
460.385, 2299.678
461.721, 2268.625
463.056, 2155.167
464.391, 2057.405
465.726, 1920.639
467.061, 1643.868
468.395, 1416.092
469.730, 1292.311
471.064, 1086.524
472.398, 1066.733
473.731, 899.936
475.065, 928.133
476.398, 949.323
477.731, 955.509
479.064, 993.689
480.397, 1108.865
481.729, 1164.040
483.062, 1336.210
484.394, 1457.374
485.725, 1742.532
487.057, 1940.686
488.389, 2328.834
489.720, 2635.979
491.051, 3024.144
492.382, 3522.301
493.712, 3817.488
495.043, 4010.669
496.373, 4058.844
497.703, 3971.011
499.032, 3713.184
500.362, 3321.350
501.691, 2873.534
503.020, 2469.713
504.349, 2186.888
505.678, 1916.069
507.007, 1714.251
508.335, 1472.426
509.663, 1329.594
510.991, 1155.755
512.319, 1155.912
513.646, 1081.060
514.973, 1003.205
516.300, 1038.347
517.627, 1018.481
518.954, 997.607
520.280, 1096.727
521.607, 1059.838
522.933, 1115.941
524.259, 1146.038
525.584, 1167.126
526.910, 1422.206
528.235, 1511.278
529.560, 1628.343
530.885, 1755.399
532.209, 1948.447
533.534, 2208.487
534.858, 2456.518
536.182, 2633.781
537.506, 3187.796
538.829, 3684.803
540.152, 4132.801
541.476, 4969.792
542.799, 5598.132
544.121, 6609.980
545.444, 7433.545
546.766, 8111.048
548.088, 8616.219
549.410, 8460.657
550.732, 7958.542
552.053, 7043.802
553.375, 5964.032
554.696, 5016.761
556.017, 4392.521
557.337, 3705.554
558.658, 3189.915
559.978, 2615.807
561.298, 2408.989
562.618, 2097.203
563.938, 1822.727
565.257, 1680.641
566.576, 1412.582
567.895, 1320.744
569.214, 1131.510
570.533, 909.256
571.851, 738.879
573.170, 689.115
574.488, 583.265
575.805, 510.358
577.123, 439.415
578.440, 402.341
579.758, 474.350
581.075, 373.535
582.391, 379.243
583.708, 403.091
585.024, 292.300
586.341, 319.510
587.657, 380.429
588.972, 357.300
590.288, 465.238
591.603, 359.323
592.918, 462.298
594.233, 484.441
595.548, 552.330
596.863, 571.160
598.177, 522.963
599.491, 592.873
600.805, 498.570
602.119, 569.336
603.432, 597.410
604.746, 517.327
606.059, 592.137
607.372, 518.313
608.685, 627.901
609.997, 522.473
611.309, 601.200
612.621, 605.287
613.933, 679.002
615.245, 792.712
616.557, 840.642
617.868, 901.338
619.179, 1008.353
620.490, 1073.222
621.801, 1197.900
623.111, 1234.573
624.421, 1527.414
625.731, 1563.073
627.041, 1762.735
628.351, 1841.404
629.660, 1940.046
630.970, 2053.637
632.279, 2198.340
633.588, 2219.962
634.896, 2230.579
636.205, 2299.426
637.513, 2096.263
638.821, 2031.862
640.129, 1953.562
641.437, 1810.147
642.744, 1604.898
644.051, 1526.768
645.358, 1377.333
646.665, 1262.674
647.972, 1274.945
649.278, 1103.492
650.584, 1103.640
651.890, 1124.173
653.196, 980.699
654.502, 932.271
655.807, 865.305
657.113, 869.872
658.418, 805.348
659.722, 744.977
661.027, 646.986
662.331, 654.691
663.636, 668.638
664.940, 565.171
666.244, 593.623
667.547, 454.257
668.851, 502.983
670.154, 505.434
671.457, 406.626
672.760, 447.882
674.062, 363.287
675.365, 307.684
676.667, 369.074
677.969, 369.456
679.271, 310.907
680.572, 280.274
681.874, 328.633
683.175, 248.985
684.476, 204.329
685.777, 281.666
687.077, 125.995
688.378, 168.317
689.678, 225.632
690.978, 252.939
692.278, 26.239
693.577, 113.529
694.877, 71.812
696.176, 163.088
697.475, 84.356
698.774, 145.618
700.072, 105.876
701.371, 38.138
702.669, 51.403
703.967, 25.664
705.265, 88.938
706.562, 68.218
707.860, 51.496
709.157, 110.760
710.454, 1.966
711.751, 30.321
713.047, 64.612
714.344, 64.926
715.640, 72.810
716.936, 36.599
718.232, 58.960
719.527, 33.329
720.823, 26.709
722.118, 51.102
723.413, 19.504
724.708, 4.119
726.002, 60.259
727.297, 64.347
728.591, 64.034
729.885, 141.429
731.179, 34.830
732.472, 52.241
733.766, 45.664
735.059, 4.913
736.352, 53.495
737.645, 5.074
738.937, 7.660
740.230, 1.737
741.522, 10.123
742.814, 25.498
744.106, 28.865
745.397, 23.226
746.689, 23.422
747.980, 19.903
749.271, 8.780
750.562, 25.519
751.853, 4.191
753.143, 33.083
754.433, 22.351
755.723, 66.390
757.013, 49.821
758.303, 11.026
759.592, 22.779
760.881, 28.391
762.170, 11.446
763.459, 2.303
764.748, 34.174
766.036, 106.923
767.325, 26.986
768.613, 62.078
769.901, 68.137
771.188, 13.189
772.476, 154.234
773.763, 7.272
775.050, 15.302
776.337, 88.325
777.624, 65.341
778.910, 15.353
780.196, 50.357
781.482, 35.355
782.768, 32.349
784.054, 38.336
785.339, 83.319
786.625, 30.296
787.910, 62.268
789.195, 39.234
790.479, 8.195
791.764, 8.149
793.048, 8.905
794.332, 19.027
795.616, 37.953
796.900, 11.873
798.183, 2.787
799.467, 46.692
800.750, 11.407
802.033, 80.522
803.316, 117.311
804.598, 131.860
805.880, 64.891
807.163, 64.637
808.445, 24.379
809.726, 35.883
811.008, 21.827
812.289, 91.468
813.570, 11.181
814.851, 5.176
816.132, 48.523
817.413, 20.897
818.693, 17.709
819.973, 35.317
821.253, 2.920
822.533, 1.482
823.813, 29.107
825.092, 11.307
826.371, 12.732
827.650, 46.829
828.929, 99.409
830.208, 44.985
831.486, 66.559
832.764, 14.128
834.042, 43.693
835.320, 94.257
836.598, 97.816
837.875, 64.381
839.152, 65.943
840.429, 135.506
841.706, 53.066
842.983, 35.628
844.259, 144.193
845.536, 93.758
846.812, 65.084
848.088, 118.648
849.363, 135.210
850.639, 92.771
851.914, 106.328
853.189, 196.883
854.464, 239.437
855.739, 184.942
857.013, 208.491
858.288, 212.858
859.562, 201.402
860.836, 257.945
862.110, 149.204
863.383, 260.744
864.656, 187.136
865.930, 208.590
867.203, 238.126
868.475, 273.674
869.748, 210.219
871.020, 174.747
872.292, 245.290
873.564, 176.794
874.836, 229.241
876.108, 201.784
877.379, 337.175
878.650, 238.537
879.922, 300.074
881.192, 253.669
882.463, 365.216
883.733, 348.762
885.004, 315.288
886.274, 327.828
887.544, 326.006
888.813, 334.732
890.083, 360.272
891.352, 373.874
892.621, 408.288
893.890, 428.650
895.159, 492.794
896.427, 567.226
897.695, 576.699
898.964, 700.102
900.232, 739.351
901.499, 672.704
902.767, 799.882
904.034, 809.310
905.301, 984.789
906.568, 1068.289
907.835, 1296.676
909.102, 1417.270
910.368, 1628.789
911.634, 1918.995
912.900, 2048.359
914.166, 2396.824
915.432, 2456.917
916.697, 2406.594
917.962, 2540.285
919.227, 2357.815
920.492, 2315.980
921.757, 2205.511
923.021, 2182.044
924.285, 2201.350
925.550, 2241.950
926.813, 2335.099
928.077, 2474.453
929.341, 2615.992
930.604, 2834.540
931.867, 3055.915
933.130, 3404.473
934.393, 3851.021
935.655, 4343.561
936.918, 5143.121
938.180, 5968.681
939.442, 7113.212
940.703, 8682.777
941.965, 10678.334
943.226, 13358.662
944.488, 17130.996
945.749, 22750.557
947.009, 29461.010
948.270, 37330.582
949.530, 44484.977
950.791, 48302.258
952.051, 46800.824
953.311, 41007.312
954.570, 34419.477
955.830, 27510.051
957.089, 21946.109
958.348, 17449.785
959.607, 14264.365
960.866, 11750.895
962.124, 10040.962
963.383, 8711.517
964.641, 7685.129
965.899, 6972.584
967.156, 6500.277
968.414, 6186.723
969.671, 6037.848
970.928, 5804.506
972.185, 5888.117
973.442, 5679.539
974.699, 5620.863
975.955, 5644.463
977.211, 5439.368
978.468, 5374.151
979.723, 5258.745
980.979, 5095.455
982.234, 5062.184
983.490, 4881.808
984.745, 4903.438
986.000, 4849.208
987.254, 4673.851
988.509, 4736.462
989.763, 4429.107
991.017, 4289.744
992.271, 4022.504
993.525, 3777.973
994.779, 3572.992
996.032, 3166.251
997.285, 2873.735
998.538, 2435.631
999.791, 2328.516
1001.044, 1864.339
1002.296, 1755.190
1003.548, 1552.913
1004.800, 1352.685
1006.052, 1269.430
1007.304, 1082.114
1008.555, 1039.919
1009.807, 991.767
1011.058, 965.780
1012.309, 914.798
1013.559, 851.803
1014.810, 928.790
1016.060, 852.813
1017.310, 870.785
1018.560, 910.639
1019.810, 928.843
1021.060, 980.648
1022.309, 1046.625
1023.558, 1083.446
1024.807, 1148.567
1026.056, 1194.545
1027.305, 1180.406
1028.553, 1206.440
1029.801, 1182.521
1031.049, 1071.522
1032.297, 965.641
1033.545, 1080.563
1034.793, 898.428
1036.040, 930.188
1037.287, 1104.229
1038.534, 1098.108
1039.781, 1264.224
1041.027, 1376.068
1042.274, 1515.981
1043.520, 1614.005
1044.766, 1534.788
1046.012, 1238.328
1047.257, 1118.493
1048.503, 1071.724
1049.748, 765.564
1050.993, 779.608
1052.238, 663.460
1053.483, 564.516
1054.727, 476.368
1055.971, 627.223
1057.216, 501.133
1058.459, 514.088
1059.703, 587.032
1060.947, 489.277
1062.190, 590.204
1063.433, 586.078
1064.676, 620.993
1065.919, 656.033
1067.162, 736.218
1068.404, 708.333
1069.646, 955.516
1070.888, 1052.468
1072.130, 996.822
1073.372, 1255.917
1074.613, 1431.121
1075.855, 1439.214
1077.096, 1570.090
1078.337, 1737.115
1079.578, 1690.906
1080.818, 1573.430
1082.059, 1358.126
1083.299, 1155.976
1084.539, 934.378
1085.779, 819.424
1087.018, 619.270
1088.258, 543.282
1089.497, 466.441
1090.736, 425.251
1091.975, 261.281
1093.213, 223.146
1094.452, 303.936
1095.690, 166.258
1096.928, 197.334
1098.166, 138.440
1099.404, 166.309
1100.642, 147.123
1101.879, 158.189
1103.116, 83.118
1104.353, 70.141
1105.590, 9.239
1106.827, 7.227
1108.063, 37.314
1109.299, 116.439
1110.536, 84.533
1111.771, 26.735
1113.007, 90.951
1114.243, 70.151
1115.478, 87.335
1116.713, 28.174
1117.948, 67.352
1119.183, 28.688
1120.418, 76.333
1121.652, 216.249
1122.886, 214.190
1124.120, 173.390
1125.354, 33.238
1126.588, 106.282
1127.821, 88.894
1129.055, 30.620
1130.288, 32.317
1131.521, 49.308
1132.753, 35.060
1133.986, 21.925
1135.218, 112.661
1136.450, 38.667
1137.682, 58.223
1138.914, 21.037
1140.146, 31.159
1141.377, 16.405
1142.609, 26.667
1143.840, 10.850
1145.071, 15.748
1146.301, 8.764
1147.532, 13.625
1148.762, 30.053
1149.992, 24.769
1151.222, 58.729
1152.452, 48.299
1153.682, 55.499
1154.911, 92.252
1156.140, 44.388
1157.369, 36.394
1158.598, 0.703
1159.827, 1.009
1161.055, 7.666
1162.284, 13.195
1163.512, 6.727
1164.740, 19.947
1165.967, 47.913
1167.195, 132.435
1168.422, 9.524
1169.650, 113.457
1170.877, 13.479
1172.103, 0.527
1173.330, 35.626
1174.557, 57.657
1175.783, 18.583
1177.009, 9.529
1178.235, 28.531
1179.461, 47.526
1180.686, 53.305
1181.912, 67.282
1183.137, 120.746
1184.362, 26.764
1185.587, 65.418
1186.811, 13.948
1188.036, 76.272
1189.260, 61.283
1190.484, 42.026
1191.708, 127.439
1192.932, 0.977
1194.155, 31.524
1195.378, 22.513
1196.602, 110.921
1197.825, 68.704
1199.047, 146.052
1200.270, 72.766
1201.492, 162.490
1202.715, 137.414
1203.937, 108.371
1205.159, 97.829
1206.380, 105.091
1207.602, 35.695
1208.823, 12.646
1210.044, 125.535
1211.265, 118.270
1212.486, 89.625
1213.707, 0.995
1214.927, 78.058
1216.147, 61.272
1217.367, 118.583
1218.587, 33.800
1219.807, 82.769
1221.027, 57.549
1222.246, 4.513
1223.465, 134.395
1224.684, 101.050
1225.903, 5.760
1227.121, 21.034
1228.340, 4.019
1229.558, 158.743
1230.776, 29.868
1231.994, 90.859
1233.212, 137.585
1234.429, 96.486
1235.646, 60.112
1236.864, 165.714
1238.081, 88.713
1239.297, 127.358
1240.514, 172.948
1241.730, 36.463
1242.947, 73.953
1244.163, 7.419
1245.378, 120.972
1246.594, 132.382
1247.810, 71.001
1249.025, 103.622
1250.240, 84.954
1251.455, 65.345
1252.670, 98.539
1253.885, 72.763
1255.099, 61.994
1256.313, 67.529
1257.527, 52.098
1258.741, 49.806
1259.955, 53.921
1261.168, 27.009
1262.382, 48.481
1263.595, 20.848
1264.808, 83.837
1266.021, 63.672
1267.233, 86.850
1268.446, 78.746
1269.658, 3.662
1270.870, 96.494
1272.082, 54.241
1273.294, 99.004
1274.505, 14.777
1275.716, 109.409
1276.928, 47.020
1278.139, 90.671
1279.349, 61.229
1280.560, 88.702
1281.770, 101.276
1282.981, 48.833
1284.191, 73.287
1285.401, 20.689
1286.610, 6.079
1287.820, 58.394
1289.029, 44.288
1290.239, 19.917
1291.448, 94.291
1292.656, 11.220
1293.865, 23.242
1295.073, 44.870
1296.282, 2.104
1297.490, 60.854
1298.698, 92.730
1299.906, 61.592
1301.113, 13.483
1302.320, 17.228
1303.528, 102.896
1304.735, 10.368
1305.942, 16.806
1307.148, 83.243
1308.355, 43.670
1309.561, 100.036
1310.767, 9.425
1311.973, 52.896
1313.179, 8.463
1314.384, 128.195
1315.590, 10.301
1316.795, 110.076
1318.000, 82.096
1319.205, 93.276
1320.410, 113.517
1321.614, 103.400
1322.819, 84.523
1324.023, 93.537
1325.227, 105.423
1326.431, 65.473
1327.634, 13.545
1328.838, 47.691
1330.041, 141.522
1331.244, 132.485
1332.447, 19.188
1333.650, 35.132
1334.852, 30.018
1336.055, 8.697
1337.257, 75.371
1338.459, 60.224
1339.661, 24.270
1340.862, 5.667
1342.064, 17.572
1343.265, 27.034
1344.466, 42.670
1345.667, 38.147
1346.868, 102.801
1348.068, 75.430
1349.269, 75.976
1350.469, 174.452
1351.669, 36.937
1352.869, 3.906
1354.069, 111.548
1355.268, 6.961
1356.468, 57.470
1357.667, 1.694
1358.866, 2.433
1360.065, 69.624
1361.263, 40.730
1362.462, 56.061
1363.660, 178.977
1364.858, 5.139
1366.056, 96.141
1367.254, 162.239
1368.451, 11.456
1369.649, 29.688
1370.846, 119.070
1372.043, 60.735
1373.240, 89.284
1374.436, 19.463
1375.633, 31.932
1376.829, 85.043
1378.025, 38.422
1379.221, 102.924
1380.417, 174.585
1381.613, 18.549
1382.808, 76.587
1384.003, 84.505
1385.199, 139.256
1386.393, 123.902
1387.588, 112.206
1388.783, 68.405
1389.977, 105.219
1391.171, 39.147
1392.365, 34.598
1393.559, 110.547
1394.753, 72.841
1395.946, 139.488
1397.140, 75.769
1398.333, 143.024
1399.526, 190.425
1400.719, 25.418
1401.911, 101.776
1403.104, 92.564
1404.296, 155.131
1405.488, 75.685
1406.680, 11.571
1407.872, 100.510
1409.063, 112.410
1410.255, 26.632
1411.446, 137.544
1412.637, 68.060
1413.828, 190.727
1415.018, 98.144
1416.209, 199.435
1417.399, 132.312
1418.589, 173.255
1419.779, 124.059
1420.969, 200.945
1422.159, 165.688
1423.348, 122.332
1424.537, 137.566
1425.726, 133.025
1426.915, 118.046
1428.104, 155.894
1429.293, 169.180
1430.481, 102.356
1431.669, 157.182
1432.857, 135.106
1434.045, 91.955
1435.233, 174.850
1436.420, 223.002
1437.608, 120.216
1438.795, 216.610
1439.982, 175.401
1441.169, 212.882
1442.355, 258.519
1443.542, 317.863
1444.728, 195.458
1445.914, 327.947
1447.100, 232.151
1448.286, 291.914
1449.472, 208.520
1450.657, 329.998
1451.842, 360.520
1453.027, 139.711
1454.212, 402.956
1455.397, 252.070
1456.581, 258.151
1457.766, 315.303
1458.950, 375.612
1460.134, 304.646
1461.318, 219.431
1462.501, 161.358
1463.685, 323.564
1464.868, 247.251
1466.051, 313.054
1467.234, 166.782
1468.417, 161.401
1469.600, 269.936
1470.782, 123.436
1471.965, 91.305
1473.147, 150.433
1474.329, 152.586
1475.510, 71.723
1476.692, 101.995
1477.873, 85.305
1479.055, 112.679
1480.236, 109.458
1481.416, 50.548
1482.597, 106.005
1483.778, 67.475
1484.958, 58.978
1486.138, 68.528
1487.318, 168.131
1488.498, 91.828
1489.678, 77.638
1490.857, 38.566
1492.037, 201.613
1493.216, 150.819
1494.395, 53.178
1495.574, 195.676
1496.752, 47.327
1497.931, 49.145
1499.109, 17.849
1500.287, 98.388
1501.465, 20.896
1502.643, 63.721
1503.820, 77.910
1504.998, 5.520
1506.175, 60.631
1507.352, 29.316
1508.529, 30.998
1509.706, 45.868
1510.882, 48.575
1512.059, 148.537
1513.235, 115.723
1514.411, 0.000
##END=



