##NAMES=Ludlamite
##RRUFFID=R040152
##IDEAL CHEMISTRY=Fe^2+^_3_(PO_4_)_2_&#183;4H_2_O
##LOCALITY=Cobalt, Lemhi County, Idaho, USA
##OWNER=RRUFF
##SOURCE=University of Arizona Mineral Museum
##DESCRIPTION=Green tabular single crystals
##STATUS=The identification of this mineral has been confirmed by X-ray diffraction and chemical analysis
##URL=rruff.info/R040152
##MEASURED CHEMISTRY=Fe_3.01_(P_1.00_O_4_)_2_Â·4H_2_O
##PIN_ID=S00001
##ORIENTATION=Laser parallel to b* (0 1 0). Fiducial mark perpendicular to laser is parallel to -c [0 0 -1]
79.427, 0.000
80.823, 7.908
82.218, 91.630
83.614, 91.713
85.009, 51.243
86.404, 126.513
87.798, 237.827
89.193, 362.085
90.587, 539.144
91.981, 871.443
93.375, 1305.809
94.768, 2156.325
96.161, 3220.268
97.554, 4552.054
98.947, 6299.233
100.340, 8390.429
101.732, 10700.313
103.124, 11365.619
104.516, 9461.097
105.908, 6304.539
107.300, 3670.758
108.691, 2147.591
110.082, 1318.900
111.473, 894.559
112.864, 693.461
114.254, 579.509
115.644, 466.646
117.034, 425.918
118.424, 332.182
119.813, 307.472
121.203, 308.351
122.592, 265.196
123.981, 345.793
125.369, 321.084
126.758, 335.017
128.146, 405.541
129.534, 571.614
130.922, 640.200
132.309, 905.267
133.696, 1032.784
135.083, 1516.729
136.470, 1937.078
137.857, 2710.810
139.243, 3419.906
140.630, 4434.349
142.016, 4934.123
143.401, 5443.215
144.787, 5611.609
146.172, 5668.292
147.557, 5287.254
148.942, 4273.482
150.327, 3199.320
151.711, 2207.289
153.096, 1538.933
154.480, 1081.583
155.863, 867.201
157.247, 715.113
158.630, 687.553
160.013, 681.628
161.396, 845.245
162.779, 1049.225
164.161, 1314.253
165.544, 1582.643
166.926, 2012.389
168.308, 2302.569
169.689, 2793.810
171.070, 3372.117
172.452, 3619.458
173.833, 3537.825
175.213, 3134.234
176.594, 2490.688
177.974, 2372.194
179.354, 2327.758
180.734, 2277.383
182.114, 2190.073
183.493, 2042.830
184.872, 1619.657
186.251, 1302.556
187.630, 1018.527
189.008, 793.570
190.387, 748.688
191.765, 745.880
193.143, 935.146
194.520, 1152.486
195.898, 1531.900
197.275, 1943.388
198.652, 2330.947
200.029, 2606.581
201.405, 2542.283
202.782, 2441.057
204.158, 2090.899
205.534, 1913.811
206.909, 1576.788
208.285, 1487.831
209.660, 1262.940
211.035, 948.112
212.410, 788.347
213.784, 456.644
215.159, 267.001
216.533, 192.419
217.907, 109.896
219.281, 2.431
220.654, 19.977
222.027, 16.329
223.400, 23.375
224.773, 57.868
226.146, 28.056
227.518, 66.192
228.891, 81.276
230.263, 3.017
231.634, 8.466
233.006, 67.170
234.377, 83.926
235.748, 160.214
237.119, 181.549
238.490, 354.852
239.860, 390.209
241.231, 538.729
242.601, 661.500
243.970, 874.921
245.340, 1147.599
246.709, 1211.489
248.079, 1492.678
249.448, 1443.311
250.816, 1426.391
252.185, 1194.230
253.553, 1094.223
254.921, 1096.160
256.289, 1114.545
257.657, 1166.599
259.024, 1314.652
260.391, 1568.869
261.758, 1648.051
263.125, 1830.813
264.492, 1959.775
265.858, 1977.927
267.224, 2149.256
268.590, 2153.910
269.956, 2186.562
271.321, 1929.360
272.687, 1646.297
274.052, 1333.365
275.416, 1152.557
276.781, 1182.867
278.146, 1083.288
279.510, 1130.816
280.874, 1324.446
282.237, 1623.172
283.601, 1792.990
284.964, 2027.896
286.327, 2134.885
287.690, 2032.954
289.053, 1806.099
290.416, 1814.317
291.778, 1642.605
293.140, 1580.961
294.502, 1572.383
295.863, 1752.867
297.225, 1945.411
298.586, 2178.014
299.947, 2350.673
301.308, 2600.387
302.668, 2606.153
304.029, 2595.971
305.389, 2414.838
306.749, 2223.753
308.108, 1906.715
309.468, 1482.723
310.827, 1317.774
312.186, 1026.867
313.545, 881.002
314.903, 789.175
316.262, 585.385
317.620, 555.625
318.978, 441.885
320.336, 351.180
321.693, 365.507
323.051, 288.867
324.408, 173.255
325.765, 245.669
327.121, 163.107
328.478, 196.570
329.834, 227.056
331.190, 265.566
332.546, 178.100
333.902, 353.657
335.257, 300.237
336.612, 451.840
337.967, 582.466
339.322, 469.114
340.677, 554.785
342.031, 702.478
343.385, 643.192
344.739, 518.929
346.093, 481.686
347.446, 413.465
348.799, 323.264
350.153, 390.084
351.505, 278.924
352.858, 275.784
354.210, 284.663
355.563, 309.561
356.915, 298.478
358.267, 448.414
359.618, 475.367
360.969, 525.337
362.321, 527.326
363.672, 516.331
365.022, 593.353
366.373, 514.391
367.723, 516.445
369.073, 409.514
370.423, 343.599
371.773, 217.699
373.122, 127.814
374.471, 196.944
375.821, 55.087
377.169, 169.256
378.518, 41.561
379.866, 59.623
381.215, 26.180
382.563, 81.979
383.910, 87.910
385.258, 13.174
386.605, 50.622
387.952, 91.971
389.299, 28.996
390.646, 99.483
391.992, 77.248
393.339, 74.150
394.685, 154.102
396.031, 19.064
397.376, 81.053
398.722, 121.097
400.067, 72.221
401.412, 127.422
402.757, 32.311
404.101, 87.006
405.446, 47.368
406.790, 72.785
408.134, 111.207
409.478, 33.644
410.821, 8.074
412.165, 42.491
413.508, 27.893
414.851, 2.296
416.193, 12.692
417.536, 69.066
418.878, 21.542
420.220, 73.168
421.562, 11.179
422.904, 15.467
424.245, 78.121
425.586, 170.801
426.927, 158.514
428.268, 141.246
429.609, 69.005
430.949, 242.779
432.289, 226.572
433.629, 181.382
434.969, 282.210
436.309, 210.053
437.648, 304.911
438.987, 396.805
440.326, 372.713
441.665, 352.645
443.003, 598.604
444.342, 644.575
445.680, 753.559
447.018, 935.553
448.355, 998.559
449.693, 1315.594
451.030, 1455.639
452.367, 1803.718
453.704, 1938.804
455.041, 2409.904
456.377, 2690.011
457.713, 2954.125
459.049, 3140.260
460.385, 3222.401
461.721, 3231.556
463.056, 2966.716
464.391, 2780.882
465.726, 2477.053
467.061, 2094.234
468.395, 1740.419
469.730, 1554.611
471.064, 1307.808
472.398, 1260.009
473.731, 1109.215
475.065, 1071.445
476.398, 1090.678
477.731, 1084.919
479.064, 1056.164
480.397, 1189.414
481.729, 1355.674
483.062, 1368.938
484.394, 1545.205
485.725, 1787.476
487.057, 2070.749
488.389, 2348.025
489.720, 2541.303
491.051, 3055.583
492.382, 3498.866
493.712, 3830.193
495.043, 4038.521
496.373, 3995.850
497.703, 3800.201
499.032, 3597.556
500.362, 3175.910
501.691, 2811.294
503.020, 2452.680
504.349, 2108.065
505.678, 1817.452
507.007, 1693.864
508.335, 1431.276
509.663, 1387.689
510.991, 1249.103
512.319, 1231.515
513.646, 1106.927
514.973, 980.339
516.300, 1140.751
517.627, 1189.180
518.954, 985.606
520.280, 1200.033
521.607, 1161.459
522.933, 1275.886
524.259, 1255.312
525.584, 1397.736
526.910, 1549.159
528.235, 1621.580
529.560, 1816.999
530.885, 1962.505
532.209, 2135.919
533.534, 2489.333
534.858, 2859.743
536.182, 3136.772
537.506, 3583.177
538.829, 4123.139
540.152, 4799.538
541.476, 5703.684
542.799, 6424.842
544.121, 7629.622
545.444, 8654.399
546.766, 9137.951
548.088, 9376.089
549.410, 9517.858
550.732, 8791.865
552.053, 7787.258
553.375, 6682.379
554.696, 5611.919
556.017, 4833.753
557.337, 4242.805
558.658, 3587.104
559.978, 3117.120
561.298, 2842.041
562.618, 2484.427
563.938, 2232.282
565.257, 1949.371
566.576, 1639.968
567.895, 1504.693
569.214, 1327.342
570.533, 999.250
571.851, 895.469
573.170, 804.320
574.488, 605.416
575.805, 555.293
577.123, 513.557
578.440, 440.087
579.758, 365.770
581.075, 405.235
582.391, 381.334
583.708, 318.844
585.024, 368.241
586.341, 408.695
587.657, 464.155
588.972, 386.375
590.288, 352.253
591.603, 271.782
592.918, 368.848
594.233, 366.409
595.548, 496.085
596.863, 503.467
598.177, 443.337
599.491, 547.848
600.805, 364.001
602.119, 358.360
603.432, 488.125
604.746, 419.478
606.059, 351.122
607.372, 425.151
608.685, 434.494
609.997, 380.559
611.309, 394.894
612.621, 388.012
613.933, 470.338
615.245, 460.660
616.557, 569.929
617.868, 611.241
619.179, 681.669
620.490, 701.972
621.801, 908.270
623.111, 779.562
624.421, 991.446
625.731, 918.728
627.041, 1183.242
628.351, 1180.659
629.660, 1333.926
630.970, 1515.186
632.279, 1417.930
633.588, 1541.179
634.896, 1498.206
636.205, 1474.605
637.513, 1382.836
638.821, 1400.965
640.129, 1492.238
641.437, 1268.450
642.744, 1105.654
644.051, 1141.160
645.358, 1153.352
646.665, 1053.537
647.972, 971.798
649.278, 920.969
650.584, 863.931
651.890, 818.089
653.196, 790.239
654.502, 737.170
655.807, 665.447
657.113, 690.768
658.418, 710.202
659.722, 635.356
661.027, 620.460
662.331, 522.555
663.636, 577.539
664.940, 407.617
666.244, 521.823
667.547, 396.885
668.851, 463.938
670.154, 359.981
671.457, 348.056
672.760, 303.622
674.062, 276.676
675.365, 270.091
676.667, 249.927
677.969, 258.436
679.271, 251.418
680.572, 251.792
681.874, 265.656
683.175, 219.611
684.476, 160.556
685.777, 145.494
687.077, 64.423
688.378, 252.340
689.678, 83.249
690.978, 135.149
692.278, 13.959
693.577, 167.899
694.877, 31.750
696.176, 101.599
697.475, 40.560
698.774, 156.248
700.072, 116.069
701.371, 11.907
702.669, 85.731
703.967, 110.563
705.265, 148.414
706.562, 53.270
707.860, 38.144
709.157, 108.029
710.454, 22.068
711.751, 96.841
713.047, 28.754
714.344, 77.679
715.640, 6.631
716.936, 59.587
718.232, 27.572
719.527, 24.454
720.823, 62.514
722.118, 91.491
723.413, 2.486
724.708, 67.495
726.002, 132.512
727.297, 44.468
728.591, 64.525
729.885, 149.526
731.179, 47.471
732.472, 7.502
733.766, 1.533
735.059, 37.418
736.352, 72.359
737.645, 33.305
738.937, 3.247
740.230, 26.832
741.522, 61.052
742.814, 12.074
744.106, 87.771
745.397, 23.608
746.689, 51.433
747.980, 14.245
749.271, 47.042
750.562, 36.333
751.853, 59.396
753.143, 22.325
754.433, 13.968
755.723, 40.289
757.013, 138.346
758.303, 26.970
759.592, 117.583
760.881, 35.186
762.170, 55.223
763.459, 152.317
764.748, 72.150
766.036, 110.321
767.325, 8.784
768.613, 90.231
769.901, 80.669
771.188, 28.902
772.476, 105.490
773.763, 0.125
775.050, 138.239
776.337, 108.593
777.624, 195.939
778.910, 15.277
780.196, 126.599
781.482, 37.913
782.768, 45.215
784.054, 104.506
785.339, 138.789
786.625, 55.937
787.910, 193.289
789.195, 4.507
790.479, 43.707
791.764, 225.896
793.048, 15.921
794.332, 57.233
795.616, 96.379
796.900, 141.516
798.183, 31.646
799.467, 79.765
800.750, 73.874
802.033, 51.976
803.316, 141.068
804.598, 143.848
805.880, 82.148
807.163, 119.135
808.445, 64.884
809.726, 45.048
811.008, 38.971
812.289, 90.102
813.570, 56.762
814.851, 79.619
816.132, 72.475
817.413, 84.675
818.693, 108.118
819.973, 44.909
821.253, 108.694
822.533, 83.472
823.813, 77.242
825.092, 56.004
826.371, 48.760
827.650, 52.493
828.929, 61.237
830.208, 154.960
831.486, 7.674
832.764, 87.382
834.042, 24.087
835.320, 87.784
836.598, 123.474
837.875, 139.184
839.152, 63.888
840.429, 209.600
841.706, 247.222
842.983, 147.954
844.259, 193.700
845.536, 177.443
846.812, 165.561
848.088, 119.291
849.363, 192.439
850.639, 185.159
851.914, 75.754
853.189, 179.464
854.464, 287.170
855.739, 340.813
857.013, 170.527
858.288, 195.248
859.562, 187.974
860.836, 308.535
862.110, 209.895
863.383, 271.619
864.656, 200.505
865.930, 240.222
867.203, 313.426
868.475, 351.134
869.748, 327.587
871.020, 292.330
872.292, 254.515
873.564, 303.273
874.836, 275.896
876.108, 317.575
877.379, 357.981
878.650, 392.633
879.922, 391.295
881.192, 286.794
882.463, 355.401
883.733, 322.049
885.004, 397.352
886.274, 383.160
887.544, 466.343
888.813, 405.653
890.083, 345.271
891.352, 572.523
892.621, 550.999
893.890, 466.587
895.159, 594.111
896.427, 618.621
897.695, 654.208
898.964, 678.288
900.232, 717.712
901.499, 886.591
902.767, 874.968
904.034, 894.224
905.301, 1146.767
906.568, 1337.816
907.835, 1482.217
909.102, 1599.970
910.368, 1733.508
911.634, 2108.632
912.900, 2225.164
914.166, 2594.398
915.432, 2638.237
916.697, 2580.757
917.962, 2676.547
919.227, 2428.059
920.492, 2404.781
921.757, 2133.287
923.021, 2160.794
924.285, 2212.344
925.550, 2248.845
926.813, 2272.221
928.077, 2435.713
929.341, 2537.202
930.604, 2753.689
931.867, 3039.577
933.130, 3323.057
934.393, 3948.295
935.655, 4355.620
936.918, 5270.093
938.180, 5770.562
939.442, 6829.537
940.703, 8620.002
941.965, 10573.678
943.226, 13287.971
944.488, 17182.424
945.749, 22881.971
947.009, 29477.363
948.270, 36770.805
949.530, 43246.453
950.791, 46149.590
952.051, 43842.176
953.311, 37982.609
954.570, 31556.965
955.830, 24986.396
957.089, 19831.740
958.348, 16078.172
959.607, 13005.220
960.866, 10684.099
962.124, 8948.394
963.383, 7872.053
964.641, 6727.169
965.899, 6185.961
967.156, 5421.742
968.414, 5257.709
969.671, 4789.346
970.928, 4520.619
972.185, 4415.301
973.442, 4285.769
974.699, 4213.191
975.955, 4010.613
977.211, 3762.380
978.468, 3795.983
979.723, 3592.833
980.979, 3433.385
982.234, 3497.806
983.490, 3233.631
984.745, 3296.798
986.000, 3194.559
987.254, 2877.062
988.509, 3142.793
989.763, 2801.208
991.017, 2761.503
992.271, 2652.782
993.525, 2536.043
994.779, 2349.266
996.032, 2101.184
997.285, 1971.969
998.538, 1603.575
999.791, 1785.174
1001.044, 1312.700
1002.296, 1343.639
1003.548, 1131.357
1004.800, 1166.162
1006.052, 1044.931
1007.304, 959.836
1008.555, 920.517
1009.807, 963.302
1011.058, 915.157
1012.309, 982.802
1013.559, 887.712
1014.810, 908.685
1016.060, 1024.005
1017.310, 982.840
1018.560, 938.786
1019.810, 1032.266
1021.060, 1297.296
1022.309, 1192.198
1023.558, 1529.406
1024.807, 1512.250
1026.056, 1610.105
1027.305, 1712.875
1028.553, 1718.990
1029.801, 1567.894
1031.049, 1293.583
1032.297, 1299.184
1033.545, 1238.179
1034.793, 1078.707
1036.040, 1025.435
1037.287, 1098.491
1038.534, 1132.425
1039.781, 1273.980
1041.027, 1368.822
1042.274, 1473.545
1043.520, 1553.079
1044.766, 1320.604
1046.012, 1261.177
1047.257, 1028.645
1048.503, 975.455
1049.748, 749.910
1050.993, 767.359
1052.238, 748.872
1053.483, 635.757
1054.727, 638.379
1055.971, 676.253
1057.216, 630.847
1058.459, 606.443
1059.703, 681.950
1060.947, 602.495
1062.190, 750.437
1063.433, 843.031
1064.676, 722.730
1065.919, 724.158
1067.162, 946.014
1068.404, 785.443
1069.646, 918.088
1070.888, 1095.196
1072.130, 1060.133
1073.372, 1107.819
1074.613, 1368.521
1075.855, 1247.088
1077.096, 1376.458
1078.337, 1341.247
1079.578, 1356.479
1080.818, 1208.299
1082.059, 1114.619
1083.299, 1011.929
1084.539, 688.407
1085.779, 561.543
1087.018, 426.005
1088.258, 436.333
1089.497, 332.812
1090.736, 325.059
1091.975, 209.812
1093.213, 214.034
1094.452, 279.241
1095.690, 141.731
1096.928, 248.123
1098.166, 37.858
1099.404, 103.014
1100.642, 53.157
1101.879, 118.254
1103.116, 158.366
1104.353, 123.793
1105.590, 12.713
1106.827, 148.582
1108.063, 9.011
1109.299, 37.420
1110.536, 126.944
1111.771, 61.750
1113.007, 196.802
1114.243, 6.859
1115.478, 24.629
1116.713, 3.224
1117.948, 81.036
1119.183, 33.557
1120.418, 14.385
1121.652, 98.673
1122.886, 159.961
1124.120, 210.815
1125.354, 21.285
1126.588, 46.143
1127.821, 83.619
1129.055, 85.317
1130.288, 166.061
1131.521, 10.046
1132.753, 5.368
1133.986, 2.170
1135.218, 103.925
1136.450, 99.062
1137.682, 165.987
1138.914, 59.503
1140.146, 6.607
1141.377, 105.035
1142.609, 72.297
1143.840, 13.964
1145.071, 45.847
1146.301, 91.376
1147.532, 93.336
1148.762, 112.145
1149.992, 14.457
1151.222, 77.617
1152.452, 57.537
1153.682, 60.331
1154.911, 37.401
1156.140, 42.119
1157.369, 27.606
1158.598, 12.301
1159.827, 24.055
1161.055, 39.718
1162.284, 24.492
1163.512, 2.278
1164.740, 67.245
1165.967, 41.245
1167.195, 151.768
1168.422, 32.279
1169.650, 59.301
1170.877, 11.284
1172.103, 75.133
1173.330, 72.592
1174.557, 92.349
1175.783, 24.398
1177.009, 70.070
1178.235, 120.122
1179.461, 144.864
1180.686, 49.188
1181.912, 160.479
1183.137, 120.363
1184.362, 48.188
1185.587, 76.868
1186.811, 166.428
1188.036, 98.967
1189.260, 126.485
1190.484, 172.468
1191.708, 177.269
1192.932, 164.887
1194.155, 195.435
1195.378, 108.164
1196.602, 208.782
1197.825, 202.728
1199.047, 178.380
1200.270, 89.077
1201.492, 151.854
1202.715, 95.062
1203.937, 161.357
1205.159, 161.280
1206.380, 184.953
1207.602, 174.328
1208.823, 77.700
1210.044, 158.276
1211.265, 136.483
1212.486, 204.188
1213.707, 100.027
1214.927, 253.891
1216.147, 152.479
1217.367, 53.610
1218.587, 79.988
1219.807, 137.417
1221.027, 135.097
1222.246, 164.972
1223.465, 212.613
1224.684, 148.941
1225.903, 198.804
1227.121, 96.947
1228.340, 222.052
1229.558, 237.206
1230.776, 171.244
1231.994, 42.364
1233.212, 170.467
1234.429, 199.391
1235.646, 165.277
1236.864, 245.170
1238.081, 95.145
1239.297, 242.938
1240.514, 246.704
1241.730, 151.549
1242.947, 172.536
1244.163, 87.214
1245.378, 271.805
1246.594, 331.422
1247.810, 36.846
1249.025, 242.050
1250.240, 145.552
1251.455, 126.022
1252.670, 179.089
1253.885, 148.494
1255.099, 138.241
1256.313, 16.418
1257.527, 165.857
1258.741, 93.688
1259.955, 32.896
1261.168, 102.034
1262.382, 119.805
1263.595, 149.353
1264.808, 116.295
1266.021, 218.459
1267.233, 131.021
1268.446, 126.890
1269.658, 37.893
1270.870, 79.871
1272.082, 217.271
1273.294, 18.930
1274.505, 23.473
1275.716, 219.960
1276.928, 1.561
1278.139, 284.185
1279.349, 93.947
1280.560, 112.744
1281.770, 127.063
1282.981, 95.116
1284.191, 32.415
1285.401, 110.785
1286.610, 17.869
1287.820, 116.451
1289.029, 22.765
1290.239, 62.337
1291.448, 134.994
1292.656, 47.799
1293.865, 41.567
1295.073, 24.373
1296.282, 36.271
1297.490, 41.266
1298.698, 18.672
1299.906, 0.928
1301.113, 87.302
1302.320, 64.713
1303.528, 100.982
1304.735, 18.863
1305.942, 52.464
1307.148, 242.486
1308.355, 56.594
1309.561, 137.954
1310.767, 18.944
1311.973, 146.786
1313.179, 53.948
1314.384, 97.730
1315.590, 99.490
1316.795, 123.908
1318.000, 20.656
1319.205, 131.351
1320.410, 60.090
1321.614, 65.558
1322.819, 126.965
1324.023, 105.659
1325.227, 221.422
1326.431, 17.743
1327.634, 17.513
1328.838, 16.989
1330.041, 83.175
1331.244, 104.426
1332.447, 2.018
1333.650, 99.283
1334.852, 25.630
1336.055, 42.133
1337.257, 60.621
1338.459, 32.022
1339.661, 79.499
1340.862, 49.596
1342.064, 15.012
1343.265, 38.398
1344.466, 29.687
1345.667, 20.565
1346.868, 91.674
1348.068, 65.514
1349.269, 143.601
1350.469, 207.658
1351.669, 77.789
1352.869, 234.847
1354.069, 202.475
1355.268, 17.585
1356.468, 148.221
1357.667, 114.267
1358.866, 99.947
1360.065, 166.653
1361.263, 52.483
1362.462, 199.777
1363.660, 179.215
1364.858, 110.875
1366.056, 200.550
1367.254, 211.295
1368.451, 171.221
1369.649, 56.716
1370.846, 206.115
1372.043, 221.009
1373.240, 178.486
1374.436, 310.674
1375.633, 168.547
1376.829, 161.656
1378.025, 207.296
1379.221, 281.960
1380.417, 183.409
1381.613, 157.117
1382.808, 263.296
1384.003, 333.923
1385.199, 168.420
1386.393, 126.434
1387.588, 262.053
1388.783, 158.326
1389.977, 326.457
1391.171, 310.080
1392.365, 54.292
1393.559, 305.950
1394.753, 207.758
1395.946, 107.919
1397.140, 222.907
1398.333, 280.666
1399.526, 128.131
1400.719, 271.020
1401.911, 185.784
1403.104, 237.111
1404.296, 98.667
1405.488, 223.677
1406.680, 212.377
1407.872, 249.586
1409.063, 291.949
1410.255, 207.884
1411.446, 202.663
1412.637, 147.974
1413.828, 144.823
1415.018, 370.534
1416.209, 119.901
1417.399, 176.254
1418.589, 359.246
1419.779, 162.940
1420.969, 287.992
1422.159, 218.519
1423.348, 246.778
1424.537, 331.835
1425.726, 152.113
1426.915, 292.051
1428.104, 216.773
1429.293, 172.125
1430.481, 190.331
1431.669, 171.650
1432.857, 182.915
1434.045, 196.383
1435.233, 195.984
1436.420, 223.390
1437.608, 240.954
1438.795, 264.847
1439.982, 336.796
1441.169, 341.200
1442.355, 259.264
1443.542, 339.640
1444.728, 231.453
1445.914, 420.674
1447.100, 403.779
1448.286, 523.971
1449.472, 282.056
1450.657, 664.073
1451.842, 430.269
1453.027, 395.164
1454.212, 492.053
1455.397, 297.484
1456.581, 382.096
1457.766, 425.543
1458.950, 476.365
1460.134, 617.318
1461.318, 385.404
1462.501, 273.029
1463.685, 344.707
1464.868, 307.275
1466.051, 452.783
1467.234, 316.355
1468.417, 446.197
1469.600, 308.238
1470.782, 436.930
1471.965, 307.607
1473.147, 411.375
1474.329, 465.182
1475.510, 191.176
1476.692, 221.211
1477.873, 322.297
1479.055, 257.465
1480.236, 476.660
1481.416, 186.893
1482.597, 226.230
1483.778, 332.586
1484.958, 308.971
1486.138, 280.379
1487.318, 419.803
1488.498, 183.252
1489.678, 188.756
1490.857, 173.359
1492.037, 279.066
1493.216, 352.881
1494.395, 255.812
1495.574, 190.871
1496.752, 262.096
1497.931, 431.453
1499.109, 16.049
1500.287, 126.588
1501.465, 40.627
1502.643, 136.322
1503.820, 190.447
1504.998, 284.777
1506.175, 165.350
1507.352, 148.197
1508.529, 205.344
1509.706, 217.830
