##NAMES=Ludlamite
##RRUFFID=R040152
##IDEAL CHEMISTRY=Fe^2+^_3_(PO_4_)_2_&#183;4H_2_O
##LOCALITY=Cobalt, Lemhi County, Idaho, USA
##OWNER=RRUFF
##SOURCE=University of Arizona Mineral Museum
##DESCRIPTION=Green tabular single crystals
##STATUS=The identification of this mineral has been confirmed by X-ray diffraction and chemical analysis
##URL=rruff.info/R040152
##MEASURED CHEMISTRY=Fe_3.01_(P_1.00_O_4_)_2_Â·4H_2_O
##PIN_ID=M00398
##ORIENTATION=Laser parallel to (1 0 1). Fiducial mark perpendicular to laser is parallel to b [0 1 0]
80.823, 0.000
82.218, 0.435
83.614, 61.713
85.009, 7.596
86.404, 2.212
87.798, 1.816
89.193, 74.936
90.587, 114.263
91.981, 171.908
93.375, 190.959
94.768, 208.719
96.161, 236.642
97.554, 342.292
98.947, 506.314
100.340, 853.423
101.732, 1219.391
103.124, 1485.034
104.516, 1239.188
105.908, 1267.702
107.300, 617.443
108.691, 505.295
110.082, 467.157
111.473, 408.940
112.864, 635.565
114.254, 833.963
115.644, 761.077
117.034, 644.864
118.424, 477.274
119.813, 297.280
121.203, 361.885
122.592, 310.084
123.981, 318.832
125.369, 393.070
126.758, 428.750
128.146, 531.834
129.534, 732.287
130.922, 997.081
132.309, 1387.192
133.696, 1962.598
135.083, 2917.279
136.470, 4691.219
137.857, 7338.404
139.243, 11107.823
140.630, 13799.454
142.016, 13962.297
143.401, 11761.335
144.787, 9919.563
146.172, 8889.976
147.557, 7076.608
148.942, 6736.302
150.327, 4472.311
151.711, 2732.550
153.096, 1774.918
154.480, 1333.409
155.863, 1026.078
157.247, 1019.013
158.630, 1173.358
160.013, 1644.235
161.396, 2450.569
162.779, 3730.188
164.161, 5333.007
165.544, 6384.749
166.926, 5986.441
168.308, 4697.093
169.689, 3610.703
171.070, 3045.282
172.452, 2949.843
173.833, 2646.397
175.213, 2185.950
176.594, 1853.511
177.974, 1806.084
179.354, 1949.674
180.734, 2279.284
182.114, 2272.917
183.493, 2015.576
184.872, 1663.262
186.251, 1212.977
187.630, 969.722
189.008, 762.499
190.387, 730.306
191.765, 802.146
193.143, 961.019
194.520, 1297.924
195.898, 1723.862
197.275, 2388.832
198.652, 3236.835
200.029, 4020.868
201.405, 4429.935
202.782, 4503.033
204.158, 4502.161
205.534, 4748.321
206.909, 5093.509
208.285, 5098.122
209.660, 5015.361
211.035, 4403.628
212.410, 3361.922
213.784, 2499.241
215.159, 1739.585
216.533, 1211.954
217.907, 861.447
219.281, 658.523
220.654, 501.982
222.027, 323.356
223.400, 221.752
224.773, 204.170
226.146, 155.610
227.518, 156.071
228.891, 170.857
230.263, 206.132
231.634, 269.621
233.006, 271.450
234.377, 313.299
235.748, 273.036
237.119, 300.486
238.490, 379.763
239.860, 513.374
241.231, 549.539
242.601, 638.249
243.970, 755.756
245.340, 846.546
246.709, 1060.501
248.079, 1080.229
249.448, 1194.150
250.816, 1076.842
252.185, 971.294
253.553, 960.740
254.921, 1121.875
256.289, 1410.175
257.657, 1509.622
259.024, 1612.256
260.391, 1536.060
261.758, 1476.020
263.125, 1403.121
264.492, 1394.353
265.858, 1544.706
267.224, 1680.171
268.590, 1927.740
269.956, 1856.406
271.321, 1853.163
272.687, 1477.005
274.052, 1286.925
275.416, 1130.920
276.781, 1056.985
278.146, 1066.118
279.510, 1298.312
280.874, 1546.565
282.237, 1875.875
283.601, 2370.238
284.964, 2748.650
286.327, 2910.111
287.690, 2942.615
289.053, 2774.163
290.416, 2434.750
291.778, 2091.375
293.140, 1771.035
294.502, 1487.729
295.863, 1318.456
297.225, 1307.213
298.586, 1263.001
299.947, 1256.817
301.308, 1418.659
302.668, 1366.528
304.029, 1301.421
305.389, 1227.338
306.749, 1128.278
308.108, 962.239
309.468, 862.222
310.827, 732.224
312.186, 634.245
313.545, 604.284
314.903, 531.340
316.262, 490.412
317.620, 467.499
318.978, 444.601
320.336, 443.716
321.693, 372.844
323.051, 337.981
324.408, 319.127
325.765, 200.278
327.121, 155.435
328.478, 63.594
329.834, 33.758
331.190, 51.925
332.546, 57.096
333.902, 12.729
335.257, 40.449
336.612, 59.632
337.967, 84.818
339.322, 145.009
340.677, 138.204
342.031, 124.403
343.385, 97.606
344.739, 72.383
346.093, 68.023
347.446, 16.237
348.799, 26.455
350.153, 26.675
351.505, 13.898
352.858, 18.876
354.210, 74.653
355.563, 50.445
356.915, 1.753
358.267, 6.951
359.618, 62.151
360.969, 48.352
362.321, 119.555
363.672, 113.758
365.022, 88.962
366.373, 157.167
367.723, 130.373
369.073, 99.578
370.423, 102.784
371.773, 71.987
373.122, 11.810
374.471, 27.386
375.821, 50.581
377.169, 34.224
378.518, 0.958
379.866, 23.865
381.215, 57.705
382.563, 19.599
383.910, 72.505
385.258, 69.436
386.605, 20.389
387.952, 35.351
389.299, 106.324
390.646, 91.330
391.992, 112.373
393.339, 115.464
394.685, 42.584
396.031, 125.752
397.376, 71.016
398.722, 48.242
400.067, 39.583
401.412, 46.010
402.757, 61.497
404.101, 37.025
405.446, 16.604
406.790, 52.216
408.134, 12.879
409.478, 19.456
410.821, 12.194
412.165, 19.160
413.508, 12.521
414.851, 21.521
416.193, 45.475
417.536, 51.703
418.878, 99.139
420.220, 125.590
421.562, 178.047
422.904, 204.592
424.245, 134.978
425.586, 262.457
426.927, 298.944
428.268, 327.446
429.609, 244.953
430.949, 302.463
432.289, 389.974
433.629, 501.486
434.969, 506.011
436.309, 611.545
437.648, 592.092
438.987, 721.636
440.326, 792.201
441.665, 847.763
443.003, 981.329
444.342, 1116.905
445.680, 1227.479
447.018, 1422.053
448.355, 1685.634
449.693, 1911.219
451.030, 2338.801
452.367, 2709.402
453.704, 3309.002
455.041, 3749.597
456.377, 4382.212
457.713, 5067.822
459.049, 5689.445
460.385, 6003.072
461.721, 6278.694
463.056, 6316.320
464.391, 6241.940
465.726, 5954.554
467.061, 5269.161
468.395, 4372.761
469.730, 3633.354
471.064, 2995.939
472.398, 2352.519
473.731, 2129.095
475.065, 1699.664
476.398, 1471.226
477.731, 1284.779
479.064, 1305.325
480.397, 1212.861
481.729, 1175.390
483.062, 1271.908
484.394, 1287.418
485.725, 1371.919
487.057, 1401.411
488.389, 1597.895
489.720, 1810.369
491.051, 2040.833
492.382, 2304.290
493.712, 2553.735
495.043, 2888.863
496.373, 2991.291
497.703, 3036.708
499.032, 3099.114
500.362, 2952.512
501.691, 2891.900
503.020, 2694.278
504.349, 2521.646
505.678, 2317.003
507.007, 2139.351
508.335, 1889.688
509.663, 1649.015
510.991, 1515.333
512.319, 1409.642
513.646, 1202.023
514.973, 1235.456
516.300, 1037.141
517.627, 1054.319
518.954, 1057.582
520.280, 1057.834
521.607, 1192.076
522.933, 1178.306
524.259, 1325.526
525.584, 1366.737
526.910, 1538.937
528.235, 1712.126
529.560, 1812.304
530.885, 2004.470
532.209, 2086.625
533.534, 2102.595
534.858, 2117.726
536.182, 2059.847
537.506, 1951.486
538.829, 1952.892
540.152, 1990.092
541.476, 2027.213
542.799, 2241.351
544.121, 2427.481
545.444, 2711.726
546.766, 3119.282
548.088, 3347.371
549.410, 3773.259
550.732, 4017.963
552.053, 4512.377
553.375, 4812.803
554.696, 5328.184
556.017, 5893.703
557.337, 6651.653
558.658, 7484.537
559.978, 8014.363
561.298, 8492.346
562.618, 8869.526
563.938, 8566.902
565.257, 8126.406
566.576, 7531.786
567.895, 6398.478
569.214, 5780.591
570.533, 5068.213
571.851, 4292.634
573.170, 3787.241
574.488, 3411.721
575.805, 2848.830
577.123, 2557.789
578.440, 2268.556
579.758, 2051.510
581.075, 1912.448
582.391, 1627.370
583.708, 1529.846
585.024, 1382.471
586.341, 1160.344
587.657, 1031.873
588.972, 1120.849
590.288, 1056.655
591.603, 964.664
592.918, 864.407
594.233, 885.349
595.548, 965.996
596.863, 1006.669
598.177, 1029.359
599.491, 962.061
600.805, 875.087
602.119, 822.577
603.432, 674.406
604.746, 710.870
606.059, 696.801
607.372, 568.128
608.685, 499.985
609.997, 548.193
611.309, 424.284
612.621, 400.878
613.933, 483.237
615.245, 455.937
616.557, 420.727
617.868, 512.417
619.179, 542.021
620.490, 569.971
621.801, 571.520
623.111, 629.036
624.421, 679.479
625.731, 828.031
627.041, 741.412
628.351, 1003.901
629.660, 924.329
630.970, 981.829
632.279, 1117.243
633.588, 1084.779
634.896, 1177.158
636.205, 1111.441
637.513, 1141.712
638.821, 1049.968
640.129, 1046.210
641.437, 1031.439
642.744, 946.654
644.051, 914.942
645.358, 797.184
646.665, 773.356
647.972, 719.516
649.278, 617.725
650.584, 641.856
651.890, 553.089
653.196, 618.196
654.502, 589.289
655.807, 604.367
657.113, 564.432
658.418, 576.602
659.722, 585.257
661.027, 592.751
662.331, 620.761
663.636, 567.890
664.940, 588.908
666.244, 531.877
667.547, 570.199
668.851, 388.228
670.154, 485.157
671.457, 420.746
672.760, 360.738
674.062, 447.662
675.365, 302.540
676.667, 245.440
677.969, 216.327
679.271, 255.199
680.572, 186.058
681.874, 193.457
683.175, 235.289
684.476, 279.108
685.777, 151.917
687.077, 142.710
688.378, 81.490
689.678, 200.257
690.978, 152.017
692.278, 118.765
693.577, 59.500
694.877, 124.234
696.176, 48.958
697.475, 111.678
698.774, 69.403
700.072, 69.125
701.371, 105.857
702.669, 23.598
703.967, 11.330
705.265, 76.054
706.562, 123.797
707.860, 68.556
709.157, 58.665
710.454, 98.091
711.751, 56.149
713.047, 71.592
714.344, 106.321
715.640, 25.057
716.936, 25.207
718.232, 39.508
719.527, 64.231
720.823, 41.042
722.118, 80.650
723.413, 54.351
724.708, 8.050
726.002, 10.268
727.297, 30.396
728.591, 38.952
729.885, 16.339
731.179, 17.390
732.472, 46.204
733.766, 10.699
735.059, 40.776
736.352, 41.238
737.645, 41.688
738.937, 7.874
740.230, 5.510
741.522, 31.072
742.814, 6.280
744.106, 29.614
745.397, 48.935
746.689, 24.244
747.980, 31.459
749.271, 19.201
750.562, 30.974
751.853, 107.217
753.143, 64.603
754.433, 53.524
755.723, 7.360
757.013, 31.268
758.303, 24.789
759.592, 0.167
760.881, 24.141
762.170, 15.146
763.459, 15.823
764.748, 78.221
766.036, 2.677
767.325, 45.559
768.613, 82.569
769.901, 20.244
771.188, 58.955
772.476, 26.201
773.763, 24.525
775.050, 31.760
776.337, 29.923
777.624, 33.598
778.910, 47.263
780.196, 17.919
781.482, 59.565
782.768, 24.204
784.054, 34.833
785.339, 14.546
786.625, 30.055
787.910, 4.647
789.195, 30.230
790.479, 56.805
791.764, 83.372
793.048, 79.932
794.332, 70.484
795.616, 142.029
796.900, 124.568
798.183, 130.100
799.467, 9.625
800.750, 106.141
802.033, 87.652
803.316, 26.156
804.598, 125.652
805.880, 12.143
807.163, 101.625
808.445, 81.103
809.726, 73.574
811.008, 58.039
812.289, 7.499
813.570, 19.952
814.851, 28.399
816.132, 87.839
817.413, 2.276
818.693, 23.707
819.973, 93.130
821.253, 10.438
822.533, 8.985
823.813, 62.402
825.092, 20.186
826.371, 11.215
827.650, 77.610
828.929, 27.999
830.208, 24.377
831.486, 56.750
832.764, 38.117
834.042, 106.482
835.320, 19.155
836.598, 72.200
837.875, 83.551
839.152, 18.921
840.429, 72.288
841.706, 126.667
842.983, 38.046
844.259, 159.422
845.536, 101.799
846.812, 84.173
848.088, 133.485
849.363, 150.854
850.639, 115.045
851.914, 93.413
853.189, 102.781
854.464, 78.151
855.739, 150.521
857.013, 196.280
858.288, 132.642
859.562, 90.045
860.836, 122.448
862.110, 151.846
863.383, 124.987
864.656, 107.384
865.930, 207.711
867.203, 162.106
868.475, 128.499
869.748, 171.422
871.020, 131.765
872.292, 203.962
873.564, 219.353
874.836, 112.757
876.108, 174.175
877.379, 155.529
878.650, 266.011
879.922, 175.406
881.192, 248.507
882.463, 196.131
883.733, 268.192
885.004, 145.204
886.274, 215.424
887.544, 244.893
888.813, 347.167
890.083, 297.451
891.352, 392.743
892.621, 403.474
893.890, 382.047
895.159, 515.362
896.427, 548.015
897.695, 546.221
898.964, 694.599
900.232, 641.766
901.499, 713.189
902.767, 786.406
904.034, 957.908
905.301, 1042.376
906.568, 1100.816
907.835, 1385.240
909.102, 1541.331
910.368, 1781.949
911.634, 2121.218
912.900, 2502.845
914.166, 2753.995
915.432, 2956.339
916.697, 3131.946
917.962, 3120.796
919.227, 3146.769
920.492, 2952.228
921.757, 2813.916
923.021, 2569.257
924.285, 2482.498
925.550, 2542.841
926.813, 2520.261
928.077, 2474.330
929.341, 2641.793
930.604, 2915.278
931.867, 3118.991
933.130, 3812.263
934.393, 3782.859
935.655, 4409.338
936.918, 4827.871
938.180, 5746.321
939.442, 6647.851
940.703, 7848.252
941.965, 9622.812
943.226, 11938.462
944.488, 15022.115
945.749, 19714.773
947.009, 26012.438
948.270, 33685.113
949.530, 42255.781
950.791, 49015.480
952.051, 51304.031
953.311, 46670.723
954.570, 38710.434
955.830, 31338.082
957.089, 24748.812
958.348, 19378.436
959.607, 15318.182
960.866, 12437.935
962.124, 10590.690
963.383, 8732.469
964.641, 7840.146
965.899, 6873.871
967.156, 6335.646
968.414, 5819.632
969.671, 5393.311
970.928, 5036.094
972.185, 4825.588
973.442, 4580.051
974.699, 4190.801
975.955, 3883.643
977.211, 3417.827
978.468, 3157.619
979.723, 2989.484
980.979, 2754.391
982.234, 2545.308
983.490, 2665.192
984.745, 2279.467
986.000, 2631.794
987.254, 2425.247
988.509, 2726.411
989.763, 2317.729
991.017, 2130.639
992.271, 2164.021
993.525, 2087.822
994.779, 2021.968
996.032, 1964.535
997.285, 1688.794
998.538, 1567.967
999.791, 1262.982
1001.044, 1250.725
1002.296, 1092.916
1003.548, 968.699
1004.800, 824.090
1006.052, 782.487
1007.304, 803.102
1008.555, 675.717
1009.807, 738.052
1011.058, 677.531
1012.309, 668.750
1013.559, 713.062
1014.810, 742.206
1016.060, 655.759
1017.310, 731.055
1018.560, 715.370
1019.810, 808.702
1021.060, 853.938
1022.309, 961.203
1023.558, 917.622
1024.807, 1114.975
1026.056, 1037.865
1027.305, 1228.605
1028.553, 1211.125
1029.801, 1406.549
1031.049, 1322.019
1032.297, 1261.668
1033.545, 1185.156
1034.793, 1289.974
1036.040, 1316.555
1037.287, 1392.280
1038.534, 1511.311
1039.781, 1830.335
1041.027, 2041.988
1042.274, 2292.859
1043.520, 2492.292
1044.766, 2580.800
1046.012, 2382.610
1047.257, 2099.384
1048.503, 1874.196
1049.748, 1704.985
1050.993, 1573.633
1052.238, 1519.188
1053.483, 1417.542
1054.727, 1378.118
1055.971, 1303.458
1057.216, 1559.893
1058.459, 1672.437
1059.703, 1731.103
1060.947, 1884.494
1062.190, 2078.999
1063.433, 2341.557
1064.676, 2564.419
1065.919, 2837.179
1067.162, 3041.081
1068.404, 3558.200
1069.646, 3547.681
1070.888, 3774.531
1072.130, 3891.749
1073.372, 3625.484
1074.613, 3685.113
1075.855, 3444.021
1077.096, 3143.317
1078.337, 2928.256
1079.578, 2693.955
1080.818, 2404.684
1082.059, 2141.239
1083.299, 1874.834
1084.539, 1607.438
1085.779, 1395.151
1087.018, 1336.809
1088.258, 1092.630
1089.497, 977.616
1090.736, 831.023
1091.975, 731.664
1093.213, 676.469
1094.452, 623.213
1095.690, 635.476
1096.928, 462.082
1098.166, 491.776
1099.404, 417.041
1100.642, 380.409
1101.879, 333.955
1103.116, 289.893
1104.353, 273.581
1105.590, 235.972
1106.827, 249.000
1108.063, 185.468
1109.299, 172.728
1110.536, 165.087
1111.771, 215.844
1113.007, 36.276
1114.243, 167.868
1115.478, 135.392
1116.713, 2.222
1117.948, 53.671
1119.183, 130.292
1120.418, 65.198
1121.652, 166.267
1122.886, 237.162
1124.120, 323.672
1125.354, 174.957
1126.588, 70.969
1127.821, 191.571
1129.055, 84.178
1130.288, 52.705
1131.521, 108.108
1132.753, 5.590
1133.986, 7.319
1135.218, 37.834
1136.450, 12.904
1137.682, 100.933
1138.914, 76.025
1140.146, 68.817
1141.377, 19.527
1142.609, 28.583
1143.840, 11.395
1145.071, 21.608
1146.301, 44.669
1147.532, 88.647
1148.762, 11.070
1149.992, 51.798
1151.222, 11.216
1152.452, 24.450
1153.682, 9.393
1154.911, 75.967
1156.140, 26.996
1157.369, 54.313
1158.598, 2.421
1159.827, 66.388
1161.055, 51.901
1162.284, 102.604
1163.512, 7.253
1164.740, 86.288
1165.967, 83.816
1167.195, 60.601
1168.422, 109.355
1169.650, 24.108
1170.877, 79.980
1172.103, 7.838
1173.330, 2.294
1174.557, 17.950
1175.783, 71.922
1177.009, 97.056
1178.235, 89.675
1179.461, 50.317
1180.686, 94.611
1181.912, 20.537
1183.137, 79.320
1184.362, 50.002
1185.587, 5.708
1186.811, 6.399
1188.036, 72.085
1189.260, 24.743
1190.484, 128.384
1191.708, 111.895
1192.932, 43.620
1194.155, 19.889
1195.378, 20.069
1196.602, 52.932
1197.825, 156.338
1199.047, 44.713
1200.270, 164.062
1201.492, 114.324
1202.715, 200.612
1203.937, 5.875
1205.159, 127.882
1206.380, 100.168
1207.602, 169.257
1208.823, 142.119
1210.044, 130.450
1211.265, 60.423
1212.486, 86.324
1213.707, 52.025
1214.927, 33.111
1216.147, 158.897
1217.367, 70.323
1218.587, 21.917
1219.807, 102.399
1221.027, 7.179
1222.246, 66.120
1223.465, 20.284
1224.684, 59.556
1225.903, 115.852
1227.121, 129.244
1228.340, 126.867
1229.558, 137.956
1230.776, 134.577
1231.994, 106.804
1233.212, 118.686
1234.429, 79.688
1235.646, 51.896
1236.864, 16.108
1238.081, 118.970
1239.297, 77.720
1240.514, 90.276
1241.730, 215.075
1242.947, 119.928
1244.163, 96.741
1245.378, 3.310
1246.594, 171.416
1247.810, 126.838
1249.025, 52.386
1250.240, 119.669
1251.455, 19.140
1252.670, 61.274
1253.885, 133.375
1255.099, 28.434
1256.313, 153.446
1257.527, 19.583
1258.741, 130.333
1259.955, 89.195
1261.168, 20.317
1262.382, 54.163
1263.595, 113.733
1264.808, 76.625
1266.021, 93.002
1267.233, 92.252
1268.446, 40.962
1269.658, 79.439
1270.870, 23.971
1272.082, 33.658
1273.294, 64.224
1274.505, 61.957
1275.716, 70.403
1276.928, 83.346
1278.139, 99.058
1279.349, 101.186
1280.560, 123.809
1281.770, 139.591
1282.981, 112.210
1284.191, 140.639
1285.401, 88.588
1286.610, 62.965
1287.820, 3.177
1289.029, 93.240
1290.239, 97.808
1291.448, 78.407
1292.656, 2.332
1293.865, 49.042
1295.073, 99.647
1296.282, 75.763
1297.490, 110.741
1298.698, 84.074
1299.906, 124.857
1301.113, 64.377
1302.320, 73.859
1303.528, 9.585
1304.735, 41.129
1305.942, 21.110
1307.148, 4.485
1308.355, 40.286
1309.561, 62.391
1310.767, 74.166
1311.973, 64.659
1313.179, 0.906
1314.384, 42.419
1315.590, 127.009
1316.795, 6.768
1318.000, 99.479
1319.205, 0.164
1320.410, 120.956
1321.614, 76.926
1322.819, 65.316
1324.023, 9.898
1325.227, 46.621
1326.431, 93.479
1327.634, 118.971
1328.838, 135.657
1330.041, 121.195
1331.244, 115.788
1332.447, 107.939
1333.650, 106.183
1334.852, 101.339
1336.055, 124.275
1337.257, 72.789
1338.459, 111.973
1339.661, 49.158
1340.862, 29.265
1342.064, 93.353
1343.265, 92.830
1344.466, 89.800
1345.667, 102.227
1346.868, 87.403
1348.068, 85.559
1349.269, 135.039
1350.469, 69.150
1351.669, 97.995
1352.869, 98.312
1354.069, 73.365
1355.268, 99.331
1356.468, 107.037
1357.667, 145.745
1358.866, 97.354
1360.065, 59.645
1361.263, 180.463
1362.462, 133.328
1363.660, 149.441
1364.858, 154.002
1366.056, 168.691
1367.254, 194.104
1368.451, 154.040
1369.649, 138.305
1370.846, 105.775
1372.043, 124.271
1373.240, 101.525
1374.436, 152.692
1375.633, 199.780
1376.829, 177.790
1378.025, 138.642
1379.221, 79.229
1380.417, 117.569
1381.613, 79.386
1382.808, 146.888
1384.003, 235.178
1385.199, 116.173
1386.393, 95.758
1387.588, 93.854
1388.783, 143.991
1389.977, 40.096
1391.171, 154.124
1392.365, 114.687
1393.559, 162.350
1394.753, 210.055
1395.946, 107.506
1397.140, 200.967
1398.333, 183.994
1399.526, 183.370
1400.719, 354.779
1401.911, 181.562
1403.104, 202.669
1404.296, 101.925
1405.488, 157.237
1406.680, 283.459
1407.872, 121.722
1409.063, 130.909
1410.255, 258.041
1411.446, 110.260
1412.637, 197.760
1413.828, 131.374
1415.018, 214.503
1416.209, 209.016
1417.399, 239.012
1418.589, 77.354
1419.779, 224.072
1420.969, 140.235
1422.159, 213.725
1423.348, 102.562
1424.537, 182.448
1425.726, 253.446
1426.915, 117.632
1428.104, 80.630
1429.293, 94.459
1430.481, 108.089
1431.669, 131.724
1432.857, 256.979
1434.045, 145.962
1435.233, 140.217
1436.420, 295.435
1437.608, 222.447
1438.795, 195.547
1439.982, 230.579
1441.169, 319.329
1442.355, 232.604
1443.542, 238.053
1444.728, 306.599
1445.914, 210.008
1447.100, 317.835
1448.286, 243.114
1449.472, 274.852
1450.657, 236.707
1451.842, 317.400
1453.027, 243.862
1454.212, 329.151
1455.397, 367.533
1456.581, 124.824
1457.766, 400.240
1458.950, 286.877
1460.134, 179.544
1461.318, 337.229
1462.501, 186.422
1463.685, 213.563
1464.868, 315.637
1466.051, 264.822
1467.234, 319.268
1468.417, 185.058
1469.600, 124.617
1470.782, 134.327
1471.965, 226.335
1473.147, 13.843
1474.329, 276.216
1475.510, 220.354
1476.692, 106.730
1477.873, 158.287
1479.055, 274.504
1480.236, 99.904
1481.416, 270.326
1482.597, 203.762
1483.778, 190.217
1484.958, 158.698
1486.138, 131.947
1487.318, 143.667
1488.498, 100.508
1489.678, 141.703
1490.857, 138.285
1492.037, 242.933
1493.216, 233.687
1494.395, 235.506
1495.574, 113.371
1496.752, 282.341
1497.931, 68.416
1499.109, 223.599
1500.287, 64.647
1501.465, 192.922
1502.643, 45.679
1503.820, 4.188
1504.998, 142.409
1506.175, 143.119
1507.352, 82.965
1508.529, 77.962
1509.706, 93.348
1510.882, 157.476
1512.059, 136.284
1513.235, 137.060
1514.411, 93.769
