##NAMES=Ludlamite
##RRUFFID=R040152
##IDEAL CHEMISTRY=Fe^2+^_3_(PO_4_)_2_&#183;4H_2_O
##LOCALITY=Cobalt, Lemhi County, Idaho, USA
##OWNER=RRUFF
##SOURCE=University of Arizona Mineral Museum
##DESCRIPTION=Green tabular single crystals
##STATUS=The identification of this mineral has been confirmed by X-ray diffraction and chemical analysis
##URL=rruff.info/R040152
##MEASURED CHEMISTRY=Fe_3.01_(P_1.00_O_4_)_2_Â·4H_2_O
##PIN_ID=M00387
##ORIENTATION=Laser parallel to -c* (0 0 -1). Fiducial mark perpendicular to laser is parallel to a [1 0 0]
85.009, 0.000
86.404, 4.223
87.798, 107.310
89.193, 89.936
90.587, 243.003
91.981, 250.183
93.375, 401.442
94.768, 636.379
96.161, 941.485
97.554, 1534.163
98.947, 2344.675
100.340, 3763.438
101.732, 5842.983
103.124, 8098.990
104.516, 7912.520
105.908, 5842.973
107.300, 3627.430
108.691, 1925.458
110.082, 1149.884
111.473, 683.551
112.864, 441.331
114.254, 447.107
115.644, 460.785
117.034, 348.276
118.424, 312.508
119.813, 158.570
121.203, 137.301
122.592, 45.778
123.981, 3.367
125.369, 41.129
126.758, 45.487
128.146, 106.551
129.534, 106.963
130.922, 329.729
132.309, 442.826
133.696, 804.225
135.083, 1107.901
136.470, 2085.833
137.857, 2970.000
139.243, 4867.387
140.630, 6836.979
142.016, 8322.759
143.401, 8131.721
144.787, 7562.849
146.172, 7148.134
147.557, 6702.565
148.942, 5854.138
150.327, 4316.839
151.711, 2862.663
153.096, 1809.602
154.480, 1172.722
155.863, 780.250
157.247, 584.071
158.630, 561.043
160.013, 603.791
161.396, 991.672
162.779, 1437.833
164.161, 2276.315
165.544, 3206.168
166.926, 3905.476
168.308, 3975.184
169.689, 4036.004
171.070, 4602.806
172.452, 5656.783
173.833, 6082.918
175.213, 5292.159
176.594, 4062.423
177.974, 2724.727
179.354, 1980.031
180.734, 1432.325
182.114, 1134.614
183.493, 795.899
184.872, 653.187
186.251, 408.478
187.630, 238.775
189.008, 223.066
190.387, 201.360
191.765, 308.665
193.143, 458.979
194.520, 777.302
195.898, 1059.635
197.275, 1698.979
198.652, 2497.333
200.029, 3363.697
201.405, 3914.071
202.782, 3874.454
204.158, 3603.844
205.534, 3334.237
206.909, 3226.636
208.285, 2980.038
209.660, 2803.444
211.035, 2508.854
212.410, 1922.266
213.784, 1475.680
215.159, 1015.096
216.533, 630.511
217.907, 387.928
219.281, 249.344
220.654, 103.758
222.027, 81.830
223.400, 34.419
224.773, 102.012
226.146, 152.607
227.518, 83.208
228.891, 63.812
230.263, 57.421
231.634, 9.964
233.006, 9.344
234.377, 24.717
235.748, 96.446
237.119, 168.236
238.490, 232.105
239.860, 386.517
241.231, 491.266
242.601, 600.995
243.970, 556.299
245.340, 566.324
246.709, 672.048
248.079, 497.271
249.448, 730.694
250.816, 629.283
252.185, 651.785
253.553, 697.771
254.921, 712.990
256.289, 964.753
257.657, 1114.664
259.024, 1232.334
260.391, 1429.480
261.758, 1429.096
263.125, 1487.064
264.492, 1343.213
265.858, 1398.468
267.224, 1307.784
268.590, 1307.891
269.956, 1185.287
271.321, 1174.899
272.687, 1084.556
274.052, 947.291
275.416, 823.096
276.781, 901.965
278.146, 840.895
279.510, 915.878
280.874, 1092.913
282.237, 1463.993
283.601, 1790.117
284.964, 2028.280
286.327, 2337.474
287.690, 2370.534
289.053, 2585.913
290.416, 2248.688
291.778, 2135.409
293.140, 1787.722
294.502, 1735.053
295.863, 1416.398
297.225, 1516.760
298.586, 1507.134
299.947, 1551.520
301.308, 1782.915
302.668, 1821.319
304.029, 1830.732
305.389, 1870.151
306.749, 1708.577
308.108, 1535.006
309.468, 1379.439
310.827, 1202.466
312.186, 1032.315
313.545, 887.756
314.903, 764.197
316.262, 685.638
317.620, 715.078
318.978, 612.484
320.336, 554.807
321.693, 590.086
323.051, 494.351
324.408, 535.614
325.765, 298.877
327.121, 367.137
328.478, 223.392
329.834, 148.641
331.190, 260.882
332.546, 185.113
333.902, 182.333
335.257, 217.541
336.612, 223.738
337.967, 264.922
339.322, 320.092
340.677, 338.250
342.031, 424.393
343.385, 449.523
344.739, 507.639
346.093, 457.740
347.446, 313.827
348.799, 322.900
350.153, 290.958
351.505, 318.001
352.858, 233.030
354.210, 237.044
355.563, 242.043
356.915, 287.026
358.267, 330.994
359.618, 325.946
360.969, 395.882
362.321, 529.803
363.672, 546.707
365.022, 591.595
366.373, 614.465
367.723, 593.320
369.073, 597.157
370.423, 633.977
371.773, 564.780
373.122, 516.567
374.471, 431.337
375.821, 479.090
377.169, 279.826
378.518, 349.557
379.866, 158.271
381.215, 196.989
382.563, 73.688
383.910, 66.370
385.258, 62.804
386.605, 49.684
387.952, 44.014
389.299, 26.072
390.646, 39.188
391.992, 17.919
393.339, 4.164
394.685, 13.294
396.031, 52.765
397.376, 72.726
398.722, 15.800
400.067, 19.638
401.412, 48.977
402.757, 67.658
404.101, 49.581
405.446, 70.225
406.790, 123.110
408.134, 2.881
409.478, 29.195
410.821, 79.373
412.165, 40.658
413.508, 106.993
414.851, 58.587
416.193, 68.154
417.536, 4.295
418.878, 80.787
420.220, 40.338
421.562, 11.941
422.904, 79.571
424.245, 2.291
425.586, 115.953
426.927, 16.179
428.268, 138.374
429.609, 25.564
430.949, 46.729
432.289, 135.859
433.629, 175.979
434.969, 164.114
436.309, 164.229
437.648, 192.975
438.987, 201.532
440.326, 236.463
441.665, 257.506
443.003, 282.528
444.342, 326.733
445.680, 385.842
447.018, 445.557
448.355, 532.539
449.693, 606.514
451.030, 686.466
452.367, 812.154
453.704, 981.310
455.041, 1084.199
456.377, 1303.064
457.713, 1471.905
459.049, 1732.721
460.385, 2112.513
461.721, 2257.279
463.056, 2512.021
464.391, 2639.738
465.726, 2721.428
467.061, 2646.092
468.395, 2324.730
469.730, 2042.343
471.064, 1859.929
472.398, 1568.489
473.731, 1548.022
475.065, 1243.529
476.398, 1249.018
477.731, 1259.480
479.064, 1222.074
480.397, 1286.323
481.729, 1328.705
483.062, 1473.683
484.394, 1595.357
485.725, 1722.690
487.057, 1959.965
488.389, 2248.213
489.720, 2526.435
491.051, 2939.628
492.382, 3288.795
493.712, 3764.933
495.043, 4279.045
496.373, 4507.127
497.703, 4578.185
499.032, 4665.213
500.362, 4527.222
501.691, 4019.203
503.020, 3919.160
504.349, 3446.088
505.678, 3073.989
507.007, 2949.865
508.335, 2551.719
509.663, 2306.545
510.991, 2053.343
512.319, 1887.552
513.646, 1848.855
514.973, 1709.569
516.300, 1713.254
517.627, 1713.912
518.954, 1539.542
520.280, 1563.143
521.607, 1688.715
522.933, 1762.261
524.259, 1894.779
525.584, 2041.953
526.910, 2195.195
528.235, 2386.162
529.560, 2589.566
530.885, 2812.949
532.209, 3083.634
533.534, 3360.952
534.858, 3560.581
536.182, 3694.923
537.506, 3687.140
538.829, 3846.343
540.152, 4060.649
541.476, 4325.899
542.799, 5000.247
544.121, 5375.274
545.444, 6214.109
546.766, 6932.130
548.088, 7590.191
549.410, 7943.348
550.732, 7869.947
552.053, 7776.128
553.375, 7101.645
554.696, 6621.859
556.017, 6506.467
557.337, 6172.464
558.658, 6127.521
559.978, 6252.948
561.298, 6176.442
562.618, 6335.602
563.938, 6126.257
565.257, 5774.572
566.576, 5261.381
567.895, 4675.639
569.214, 4416.880
570.533, 3875.680
571.851, 3329.469
573.170, 2820.838
574.488, 3042.600
575.805, 2532.395
577.123, 2666.362
578.440, 1765.523
579.758, 1719.121
581.075, 1746.301
582.391, 1485.142
583.708, 1468.746
585.024, 1354.253
586.341, 1297.128
587.657, 1401.204
588.972, 1479.745
590.288, 1483.382
591.603, 1496.467
592.918, 1586.082
594.233, 1641.704
595.548, 1734.938
596.863, 1851.227
598.177, 1949.897
599.491, 1868.189
600.805, 1918.623
602.119, 1790.569
603.432, 1685.598
604.746, 1626.104
606.059, 1526.286
607.372, 1405.854
608.685, 1141.753
609.997, 1168.612
611.309, 1005.193
612.621, 949.965
613.933, 907.801
615.245, 962.642
616.557, 1028.340
617.868, 1032.168
619.179, 1048.812
620.490, 1091.649
621.801, 1109.241
623.111, 1336.809
624.421, 1333.351
625.731, 1470.869
627.041, 1344.360
628.351, 1352.860
629.660, 1397.393
630.970, 1234.810
632.279, 1435.203
633.588, 1398.460
634.896, 1372.804
636.205, 1311.122
637.513, 1384.430
638.821, 1210.699
640.129, 1367.128
641.437, 1420.349
642.744, 1409.583
644.051, 1232.756
645.358, 1288.907
646.665, 1324.033
647.972, 1366.134
649.278, 1356.212
650.584, 1343.029
651.890, 1277.656
653.196, 1250.306
654.502, 1082.290
655.807, 985.334
657.113, 859.688
658.418, 907.604
659.722, 920.252
661.027, 861.121
662.331, 829.616
663.636, 681.183
664.940, 699.417
666.244, 624.196
667.547, 597.954
668.851, 525.688
670.154, 523.402
671.457, 475.093
672.760, 382.763
674.062, 426.410
675.365, 318.036
676.667, 383.641
677.969, 375.224
679.271, 307.136
680.572, 241.677
681.874, 228.196
683.175, 244.695
684.476, 235.175
685.777, 175.633
687.077, 164.071
688.378, 83.490
689.678, 163.886
690.978, 81.262
692.278, 141.616
693.577, 11.050
694.877, 186.239
696.176, 46.491
697.475, 130.714
698.774, 78.899
700.072, 108.067
701.371, 132.217
702.669, 31.350
703.967, 21.462
705.265, 3.553
706.562, 26.784
707.860, 53.334
709.157, 69.345
710.454, 52.228
711.751, 4.525
713.047, 6.354
714.344, 10.795
715.640, 21.039
716.936, 9.681
718.232, 10.682
719.527, 8.487
720.823, 37.313
722.118, 1.131
723.413, 6.967
724.708, 4.794
726.002, 8.335
727.297, 32.451
728.591, 0.707
729.885, 36.152
731.179, 79.000
732.472, 10.837
733.766, 89.326
735.059, 41.523
736.352, 87.736
737.645, 23.001
738.937, 40.239
740.230, 37.496
741.522, 30.782
742.814, 34.085
744.106, 53.427
745.397, 29.197
746.689, 22.186
747.980, 114.600
749.271, 37.908
750.562, 65.404
751.853, 44.886
753.143, 20.645
754.433, 28.798
755.723, 0.228
757.013, 60.358
758.303, 30.991
759.592, 71.654
760.881, 16.632
762.170, 59.095
763.459, 68.135
764.748, 70.356
766.036, 13.434
767.325, 185.760
768.613, 51.944
769.901, 43.118
771.188, 69.283
772.476, 30.439
773.763, 115.585
775.050, 12.724
776.337, 173.853
777.624, 125.973
778.910, 93.086
780.196, 59.191
781.482, 123.291
782.768, 25.383
784.054, 94.466
785.339, 169.543
786.625, 102.614
787.910, 46.320
789.195, 132.719
790.479, 123.753
791.764, 39.781
793.048, 101.804
794.332, 0.821
795.616, 39.831
796.900, 27.836
798.183, 49.836
799.467, 32.830
800.750, 37.820
802.033, 68.807
803.316, 82.789
804.598, 70.766
805.880, 80.568
807.163, 55.710
808.445, 53.677
809.726, 2.640
811.008, 46.403
812.289, 72.539
813.570, 29.521
814.851, 43.405
816.132, 93.331
817.413, 17.745
818.693, 49.829
819.973, 68.071
821.253, 59.977
822.533, 55.879
823.813, 76.780
825.092, 20.681
826.371, 13.580
827.650, 72.479
828.929, 133.375
830.208, 163.271
831.486, 174.166
832.764, 20.938
834.042, 81.952
835.320, 93.862
836.598, 71.788
837.875, 187.715
839.152, 203.680
840.429, 116.646
841.706, 322.635
842.983, 142.293
844.259, 153.340
845.536, 362.076
846.812, 246.072
848.088, 297.168
849.363, 261.254
850.639, 219.210
851.914, 414.216
853.189, 223.054
854.464, 261.024
855.739, 451.105
857.013, 408.340
858.288, 478.790
859.562, 504.320
860.836, 497.434
862.110, 558.048
863.383, 495.147
864.656, 504.377
865.930, 489.651
867.203, 459.646
868.475, 452.630
869.748, 497.238
871.020, 324.540
872.292, 399.172
873.564, 347.796
874.836, 434.189
876.108, 330.233
877.379, 350.682
878.650, 374.066
879.922, 455.682
881.192, 434.694
882.463, 420.902
883.733, 485.956
885.004, 449.202
886.274, 427.088
887.544, 441.925
888.813, 575.810
890.083, 581.842
891.352, 612.916
892.621, 612.050
893.890, 630.234
895.159, 687.062
896.427, 767.733
897.695, 842.246
898.964, 935.477
900.232, 898.086
901.499, 1053.948
902.767, 1102.282
904.034, 1265.744
905.301, 1351.137
906.568, 1529.127
907.835, 1827.493
909.102, 2058.699
910.368, 2253.379
911.634, 2616.959
912.900, 3077.043
914.166, 3415.439
915.432, 3930.436
916.697, 3981.085
917.962, 3803.765
919.227, 3876.710
920.492, 3530.450
921.757, 3289.111
923.021, 3094.752
924.285, 2920.521
925.550, 2889.149
926.813, 2889.947
928.077, 2957.557
929.341, 2990.397
930.604, 3117.248
931.867, 3374.111
933.130, 3669.994
934.393, 3929.892
935.655, 4644.676
936.918, 5091.596
938.180, 5975.532
939.442, 6862.480
940.703, 8056.551
941.965, 9829.523
943.226, 12245.508
944.488, 15265.484
945.749, 19725.490
947.009, 26228.320
948.270, 34008.344
949.530, 42336.332
950.791, 49671.383
952.051, 52012.438
953.311, 48781.516
954.570, 41412.590
955.830, 34485.676
957.089, 27519.770
958.348, 21825.881
959.607, 17597.000
960.866, 14108.129
962.124, 11788.186
963.383, 10037.924
964.641, 8645.089
965.899, 7579.506
967.156, 6648.690
968.414, 6115.888
969.671, 5737.705
970.928, 5397.486
972.185, 4937.996
973.442, 4638.763
974.699, 4328.478
975.955, 4006.730
977.211, 3738.996
978.468, 3472.269
979.723, 3279.551
980.979, 3082.896
982.234, 2875.199
983.490, 2910.510
984.745, 2461.480
986.000, 2677.471
987.254, 2674.244
988.509, 2412.590
989.763, 2556.959
991.017, 2381.321
992.271, 2379.261
993.525, 2184.973
994.779, 2097.824
996.032, 2166.206
997.285, 2072.904
998.538, 1950.906
999.791, 1618.951
1001.044, 2026.574
1002.296, 1810.531
1003.548, 1963.573
1004.800, 1487.624
1006.052, 1338.637
1007.304, 1307.248
1008.555, 1087.237
1009.807, 1100.490
1011.058, 1054.549
1012.309, 951.753
1013.559, 1070.950
1014.810, 1126.254
1016.060, 1001.308
1017.310, 1193.566
1018.560, 1345.620
1019.810, 1292.733
1021.060, 1504.595
1022.309, 1782.000
1023.558, 1764.058
1024.807, 2082.443
1026.056, 2182.949
1027.305, 2278.652
1028.553, 2395.637
1029.801, 2461.028
1031.049, 2455.295
1032.297, 2349.322
1033.545, 2362.535
1034.793, 2495.759
1036.040, 2585.712
1037.287, 3016.742
1038.534, 3513.844
1039.781, 4173.959
1041.027, 5252.970
1042.274, 5926.138
1043.520, 6865.181
1044.766, 7140.541
1046.012, 6607.555
1047.257, 5979.537
1048.503, 4867.523
1049.748, 4448.893
1050.993, 3312.877
1052.238, 3071.857
1053.483, 2628.822
1054.727, 2179.996
1055.971, 1995.938
1057.216, 2154.581
1058.459, 1963.560
1059.703, 2015.678
1060.947, 1982.665
1062.190, 2067.724
1063.433, 2152.254
1064.676, 2136.686
1065.919, 2452.952
1067.162, 2511.566
1068.404, 2768.710
1069.646, 2717.085
1070.888, 2915.487
1072.130, 3086.697
1073.372, 3045.025
1074.613, 3035.748
1075.855, 3060.340
1077.096, 2885.061
1078.337, 2725.362
1079.578, 2978.365
1080.818, 2637.069
1082.059, 2517.363
1083.299, 2174.753
1084.539, 2114.120
1085.779, 1701.051
1087.018, 1544.989
1088.258, 1172.695
1089.497, 1076.771
1090.736, 1020.192
1091.975, 773.118
1093.213, 761.077
1094.452, 598.984
1095.690, 604.883
1096.928, 450.878
1098.166, 494.915
1099.404, 488.187
1100.642, 524.043
1101.879, 209.886
1103.116, 255.142
1104.353, 258.963
1105.590, 322.771
1106.827, 246.802
1108.063, 349.585
1109.299, 143.353
1110.536, 275.663
1111.771, 140.855
1113.007, 149.589
1114.243, 122.309
1115.478, 220.427
1116.713, 144.621
1117.948, 105.300
1119.183, 162.963
1120.418, 25.382
1121.652, 301.270
1122.886, 599.879
1124.120, 672.472
1125.354, 605.048
1126.588, 296.608
1127.821, 163.150
1129.055, 105.674
1130.288, 137.179
1131.521, 224.666
1132.753, 178.134
1133.986, 72.416
1135.218, 52.021
1136.450, 156.323
1137.682, 139.176
1138.914, 207.122
1140.146, 98.567
1141.377, 58.619
1142.609, 174.985
1143.840, 86.941
1145.071, 73.069
1146.301, 6.970
1147.532, 5.840
1148.762, 103.651
1149.992, 59.577
1151.222, 139.873
1152.452, 16.772
1153.682, 27.415
1154.911, 82.980
1156.140, 40.415
1157.369, 59.805
1158.598, 30.688
1159.827, 14.172
1161.055, 19.605
1162.284, 8.875
1163.512, 61.492
1164.740, 24.842
1165.967, 69.173
1167.195, 59.928
1168.422, 122.723
1169.650, 16.965
1170.877, 82.146
1172.103, 24.352
1173.330, 13.478
1174.557, 39.434
1175.783, 111.619
1177.009, 31.652
1178.235, 46.340
1179.461, 109.618
1180.686, 68.546
1181.912, 67.450
1183.137, 133.326
1184.362, 117.543
1185.587, 108.343
1186.811, 110.102
1188.036, 142.830
1189.260, 54.314
1190.484, 143.584
1191.708, 68.377
1192.932, 166.067
1194.155, 23.141
1195.378, 45.062
1196.602, 2.771
1197.825, 190.811
1199.047, 10.680
1200.270, 211.607
1201.492, 162.434
1202.715, 232.136
1203.937, 2.437
1205.159, 213.232
1206.380, 180.979
1207.602, 217.301
1208.823, 209.619
1210.044, 101.911
1211.265, 126.015
1212.486, 41.533
1213.707, 101.687
1214.927, 48.784
1216.147, 159.931
1217.367, 152.871
1218.587, 199.610
1219.807, 171.506
1221.027, 90.364
1222.246, 107.303
1223.465, 22.695
1224.684, 177.058
1225.903, 248.077
1227.121, 95.139
1228.340, 19.809
1229.558, 153.440
1230.776, 158.046
1231.994, 71.624
1233.212, 71.234
1234.429, 94.727
1235.646, 223.302
1236.864, 141.767
1238.081, 283.199
1239.297, 249.608
1240.514, 286.976
1241.730, 287.237
1242.947, 236.448
1244.163, 224.640
1245.378, 166.713
1246.594, 363.742
1247.810, 363.734
1249.025, 164.860
1250.240, 357.712
1251.455, 367.396
1252.670, 211.038
1253.885, 301.639
1255.099, 363.322
1256.313, 135.826
1257.527, 161.393
1258.741, 329.771
1259.955, 313.104
1261.168, 172.387
1262.382, 150.700
1263.595, 309.873
1264.808, 341.992
1266.021, 299.055
1267.233, 264.779
1268.446, 332.920
1269.658, 387.812
1270.870, 444.145
1272.082, 451.938
1273.294, 424.681
1274.505, 437.370
1275.716, 458.960
1276.928, 409.553
1278.139, 452.913
1279.349, 396.605
1280.560, 435.818
1281.770, 366.756
1282.981, 225.085
1284.191, 242.705
1285.401, 234.737
1286.610, 239.086
1287.820, 183.404
1289.029, 227.355
1290.239, 217.154
1291.448, 313.390
1292.656, 298.799
1293.865, 264.433
1295.073, 394.493
1296.282, 472.723
1297.490, 413.354
1298.698, 217.465
1299.906, 328.002
1301.113, 223.686
1302.320, 206.239
1303.528, 294.579
1304.735, 216.661
1305.942, 249.973
1307.148, 191.777
1308.355, 341.913
1309.561, 280.521
1310.767, 363.893
1311.973, 331.392
1313.179, 401.493
1314.384, 257.856
1315.590, 429.402
1316.795, 199.207
1318.000, 332.455
1319.205, 311.556
1320.410, 420.712
1321.614, 423.927
1322.819, 324.940
1324.023, 470.684
1325.227, 261.789
1326.431, 410.997
1327.634, 315.510
1328.838, 114.015
1330.041, 291.257
1331.244, 292.587
1332.447, 207.919
1333.650, 167.508
1334.852, 26.511
1336.055, 163.041
1337.257, 60.841
1338.459, 89.115
1339.661, 26.301
1340.862, 55.286
1342.064, 32.543
1343.265, 35.023
1344.466, 10.181
1345.667, 91.901
1346.868, 111.562
1348.068, 168.626
1349.269, 101.153
1350.469, 85.597
1351.669, 170.040
1352.869, 29.577
1354.069, 143.757
1355.268, 245.041
1356.468, 99.724
1357.667, 171.551
1358.866, 176.402
1360.065, 156.498
1361.263, 255.335
1362.462, 50.811
1363.660, 194.535
1364.858, 250.438
1366.056, 171.312
1367.254, 28.164
1368.451, 309.770
1369.649, 127.503
1370.846, 111.038
1372.043, 202.781
1373.240, 231.575
1374.436, 323.414
1375.633, 273.215
1376.829, 184.161
1378.025, 196.055
1379.221, 188.973
1380.417, 420.887
1381.613, 311.837
1382.808, 328.960
1384.003, 397.979
1385.199, 266.096
1386.393, 403.207
1387.588, 174.479
1388.783, 375.659
1389.977, 186.666
1391.171, 303.531
1392.365, 132.900
1393.559, 208.632
1394.753, 237.621
1395.946, 161.709
1397.140, 382.716
1398.333, 97.677
1399.526, 291.287
1400.719, 93.633
1401.911, 201.785
1403.104, 182.502
1404.296, 119.764
1405.488, 95.090
1406.680, 260.951
1407.872, 129.398
1409.063, 266.740
1410.255, 278.035
1411.446, 53.766
1412.637, 195.746
1413.828, 8.230
1415.018, 133.367
1416.209, 241.227
1417.399, 425.227
1418.589, 147.348
1419.779, 301.596
1420.969, 80.971
1422.159, 240.104
1423.348, 11.709
1424.537, 262.391
1425.726, 221.611
1426.915, 25.453
1428.104, 179.936
1429.293, 131.846
1430.481, 235.092
1431.669, 0.000
##END=



