##NAMES=Ludlamite
##RRUFFID=R040152
##IDEAL CHEMISTRY=Fe^2+^_3_(PO_4_)_2_&#183;4H_2_O
##LOCALITY=Cobalt, Lemhi County, Idaho, USA
##OWNER=RRUFF
##SOURCE=University of Arizona Mineral Museum
##DESCRIPTION=Green tabular single crystals
##STATUS=The identification of this mineral has been confirmed by X-ray diffraction and chemical analysis
##URL=rruff.info/R040152
##MEASURED CHEMISTRY=Fe_3.01_(P_1.00_O_4_)_2_Â·4H_2_O
##PIN_ID=S00410
##ORIENTATION=Laser parallel to -a* (-1 0 0). Fiducial mark perpendicular to laser is parallel to b [0 1 0]
73.842, 0.000
75.239, 82.046
76.635, 103.286
78.031, 57.723
79.427, 1.439
80.823, 10.522
82.218, 31.001
83.614, 52.721
85.009, 74.311
86.404, 115.513
87.798, 160.116
89.193, 274.945
90.587, 441.852
91.981, 737.713
93.375, 1160.425
94.768, 1924.912
96.161, 3085.111
97.554, 4530.961
98.947, 6333.401
100.340, 7994.381
101.732, 9203.854
103.124, 9596.773
104.516, 8687.104
105.908, 6502.815
107.300, 4080.877
108.691, 2400.267
110.082, 1397.958
111.473, 914.934
112.864, 645.199
114.254, 482.769
115.644, 356.629
117.034, 262.761
118.424, 207.136
119.813, 169.730
121.203, 107.522
122.592, 91.496
123.981, 45.637
125.369, 46.935
126.758, 80.379
128.146, 100.960
129.534, 116.670
130.922, 214.502
132.309, 330.450
133.696, 551.508
135.083, 871.671
136.470, 1139.935
137.857, 1532.294
139.243, 1877.746
140.630, 2338.286
142.016, 2729.911
143.401, 2972.618
144.787, 3307.404
146.172, 3520.265
147.557, 3674.201
148.942, 3374.362
150.327, 2653.654
151.711, 1803.200
153.096, 1185.266
154.480, 756.262
155.863, 519.520
157.247, 414.891
158.630, 448.271
160.013, 547.612
161.396, 703.901
162.779, 922.165
164.161, 1043.414
165.544, 1264.652
166.926, 1510.886
168.308, 1656.119
169.689, 1815.355
171.070, 2072.598
172.452, 2258.849
173.833, 2145.112
175.213, 2010.388
176.594, 1666.678
177.974, 1487.984
179.354, 1469.308
180.734, 1408.649
182.114, 1391.010
183.493, 1328.389
184.872, 1181.789
186.251, 995.209
187.630, 750.650
189.008, 638.113
190.387, 523.597
191.765, 454.102
193.143, 470.630
194.520, 461.179
195.898, 556.750
197.275, 649.344
198.652, 795.958
200.029, 931.595
201.405, 1062.252
202.782, 1107.931
204.158, 1144.630
205.534, 1268.350
206.909, 1219.091
208.285, 1252.853
209.660, 1170.634
211.035, 1048.436
212.410, 872.259
213.784, 633.101
215.159, 410.963
216.533, 322.845
217.907, 196.746
219.281, 88.667
220.654, 18.607
222.027, 24.566
223.400, 8.456
224.773, 11.542
226.146, 10.329
227.518, 7.125
228.891, 10.245
230.263, 10.878
231.634, 9.057
233.006, 5.086
234.377, 36.622
235.748, 46.522
237.119, 71.805
238.490, 91.748
239.860, 97.156
241.231, 131.764
242.601, 168.176
243.970, 193.446
245.340, 236.172
246.709, 297.048
248.079, 389.714
249.448, 464.486
250.816, 536.356
252.185, 669.315
253.553, 848.358
254.921, 1015.478
256.289, 1291.669
257.657, 1564.928
259.024, 1860.251
260.391, 2095.632
261.758, 2303.393
263.125, 2520.562
264.492, 2618.104
265.858, 2730.694
267.224, 2777.330
268.590, 2682.008
269.956, 2697.729
271.321, 2406.488
272.687, 2138.287
274.052, 1890.122
275.416, 1782.993
276.781, 1798.897
278.146, 1842.833
279.510, 2163.802
280.874, 2433.801
282.237, 2964.828
283.601, 3405.882
284.964, 3696.963
286.327, 3913.071
287.690, 3802.202
289.053, 3605.359
290.416, 3373.538
291.778, 3188.741
293.140, 3298.966
294.502, 3337.213
295.863, 3672.480
297.225, 4117.769
298.586, 4586.078
299.947, 5073.408
301.308, 5364.754
302.668, 5513.120
304.029, 5538.507
305.389, 5235.909
306.749, 4744.330
308.108, 4198.768
309.468, 3687.223
310.827, 3179.694
312.186, 2675.183
313.545, 2251.685
314.903, 1979.203
316.262, 1679.733
317.620, 1463.274
318.978, 1278.826
320.336, 1157.389
321.693, 1031.961
323.051, 979.544
324.408, 879.136
325.765, 895.739
327.121, 811.352
328.478, 768.976
329.834, 767.609
331.190, 838.254
332.546, 917.909
333.902, 959.575
335.257, 1006.252
336.612, 1135.940
337.967, 1199.637
339.322, 1310.346
340.677, 1386.065
342.031, 1391.794
343.385, 1378.534
344.739, 1263.285
346.093, 1097.044
347.446, 957.815
348.799, 810.596
350.153, 676.387
351.505, 508.188
352.858, 449.999
354.210, 359.820
355.563, 339.650
356.915, 260.490
358.267, 278.340
359.618, 236.199
360.969, 241.067
362.321, 182.944
363.672, 184.831
365.022, 196.727
366.373, 144.632
367.723, 138.545
369.073, 95.468
370.423, 53.399
371.773, 22.338
373.122, 24.287
374.471, 13.757
375.821, 31.797
377.169, 5.838
378.518, 43.874
379.866, 66.914
381.215, 56.963
382.563, 37.019
383.910, 48.078
385.258, 75.139
386.605, 53.282
387.952, 84.361
389.299, 72.551
390.646, 77.683
391.992, 60.958
393.339, 75.277
394.685, 40.629
396.031, 45.927
397.376, 4.267
398.722, 24.622
400.067, 20.989
401.412, 26.369
402.757, 13.748
404.101, 13.121
405.446, 29.513
406.790, 39.173
408.134, 41.862
409.478, 44.573
410.821, 101.299
412.165, 80.039
413.508, 139.793
414.851, 106.568
416.193, 156.355
417.536, 192.160
418.878, 188.988
420.220, 240.832
421.562, 227.691
422.904, 297.562
424.245, 319.448
425.586, 370.350
426.927, 427.272
428.268, 446.213
429.609, 464.163
430.949, 570.135
432.289, 632.120
433.629, 646.124
434.969, 761.145
436.309, 793.183
437.648, 910.236
438.987, 1049.314
440.326, 1159.404
441.665, 1336.503
443.003, 1553.613
444.342, 1739.732
445.680, 2048.874
447.018, 2426.033
448.355, 2801.208
449.693, 3279.391
451.030, 3852.590
452.367, 4655.800
453.704, 5353.016
455.041, 6217.241
456.377, 6914.479
457.713, 7618.723
459.049, 7933.977
460.385, 8032.237
461.721, 7822.503
463.056, 7125.777
464.391, 6481.055
465.726, 5741.340
467.061, 4782.632
468.395, 4042.928
469.730, 3372.231
471.064, 2915.540
472.398, 2527.854
473.731, 2154.177
475.065, 1991.506
476.398, 1735.840
477.731, 1647.179
479.064, 1487.526
480.397, 1476.879
481.729, 1429.238
483.062, 1401.601
484.394, 1410.970
485.725, 1478.343
487.057, 1534.721
488.389, 1677.106
489.720, 1745.494
491.051, 1861.888
492.382, 1973.287
493.712, 2073.691
495.043, 2101.100
496.373, 2054.512
497.703, 2050.938
499.032, 1911.378
500.362, 1762.821
501.691, 1622.268
503.020, 1449.719
504.349, 1334.178
505.678, 1210.542
507.007, 1114.121
508.335, 1016.598
509.663, 962.078
510.991, 912.562
512.319, 818.050
513.646, 845.542
514.973, 827.036
516.300, 858.533
517.627, 842.034
518.954, 879.538
520.280, 971.045
521.607, 961.556
522.933, 1097.069
524.259, 1167.584
525.584, 1258.103
526.910, 1374.624
528.235, 1514.148
529.560, 1710.675
530.885, 1855.204
532.209, 2096.735
533.534, 2379.270
534.858, 2569.827
536.182, 2914.465
537.506, 3275.375
538.829, 3723.333
540.152, 4409.022
541.476, 5203.237
542.799, 6026.671
544.121, 7035.770
545.444, 7926.000
546.766, 8651.422
548.088, 9001.117
549.410, 9051.407
550.732, 8430.619
552.053, 7623.805
553.375, 6709.911
554.696, 5863.024
556.017, 5195.745
557.337, 4608.482
558.658, 4154.357
559.978, 3708.478
561.298, 3442.957
562.618, 3062.824
563.938, 2753.659
565.257, 2499.729
566.576, 2180.395
567.895, 1914.975
569.214, 1698.657
570.533, 1435.388
571.851, 1226.020
573.170, 1026.367
574.488, 939.018
575.805, 844.875
577.123, 734.089
578.440, 652.590
579.758, 620.950
581.075, 550.682
582.391, 519.296
583.708, 497.264
585.024, 429.026
586.341, 418.452
587.657, 367.204
588.972, 374.404
590.288, 291.017
591.603, 272.613
592.918, 232.442
594.233, 226.563
595.548, 249.666
596.863, 243.074
598.177, 238.118
599.491, 185.197
600.805, 209.671
602.119, 201.410
603.432, 176.490
604.746, 219.238
606.059, 180.973
607.372, 176.681
608.685, 224.265
609.997, 191.473
611.309, 245.176
612.621, 273.135
613.933, 294.857
615.245, 299.637
616.557, 330.735
617.868, 345.416
619.179, 392.101
620.490, 408.746
621.801, 443.389
623.111, 457.031
624.421, 549.670
625.731, 513.307
627.041, 656.942
628.351, 660.616
629.660, 733.255
630.970, 823.552
632.279, 859.179
633.588, 886.802
634.896, 922.422
636.205, 1006.454
637.513, 1005.245
638.821, 1024.915
640.129, 1026.525
641.437, 1030.132
642.744, 1046.737
644.051, 991.338
645.358, 1009.089
646.665, 963.684
647.972, 936.351
649.278, 909.940
650.584, 883.668
651.890, 893.251
653.196, 779.830
654.502, 803.296
655.807, 713.943
657.113, 707.513
658.418, 701.078
659.722, 656.640
661.027, 639.798
662.331, 572.855
663.636, 570.440
664.940, 486.986
666.244, 466.529
667.547, 454.068
668.851, 444.602
670.154, 389.133
671.457, 334.659
672.760, 342.182
674.062, 328.700
675.365, 305.215
676.667, 251.725
677.969, 236.230
679.271, 183.732
680.572, 181.230
681.874, 190.723
683.175, 175.212
684.476, 152.697
685.777, 128.178
687.077, 102.654
688.378, 127.126
689.678, 87.594
690.978, 80.058
692.278, 40.523
693.577, 77.992
694.877, 33.461
696.176, 41.937
697.475, 31.426
698.774, 12.926
700.072, 3.431
701.371, 18.939
702.669, 18.462
703.967, 8.006
705.265, 43.533
706.562, 9.087
707.860, 7.654
709.157, 27.230
710.454, 8.178
711.751, 27.410
713.047, 35.993
714.344, 6.422
715.640, 19.142
716.936, 1.291
718.232, 3.273
719.527, 4.833
720.823, 29.609
722.118, 23.079
723.413, 5.572
724.708, 19.921
726.002, 16.409
727.297, 28.340
728.591, 17.633
729.885, 24.823
731.179, 9.726
732.472, 31.291
733.766, 3.884
735.059, 1.490
736.352, 17.892
737.645, 5.732
738.937, 11.371
740.230, 24.026
741.522, 18.706
742.814, 16.594
744.106, 31.112
745.397, 5.846
746.689, 21.594
747.980, 25.364
749.271, 14.158
750.562, 13.971
751.853, 50.802
753.143, 3.670
754.433, 22.449
755.723, 4.437
757.013, 15.665
758.303, 46.239
759.592, 25.178
760.881, 25.140
762.170, 16.874
763.459, 23.116
764.748, 1.129
766.036, 15.848
767.325, 2.821
768.613, 10.215
769.901, 8.734
771.188, 0.322
772.476, 15.612
773.763, 14.542
775.050, 35.466
776.337, 22.387
777.624, 32.304
778.910, 37.216
780.196, 51.124
781.482, 42.029
782.768, 10.929
784.054, 14.825
785.339, 6.283
786.625, 15.598
787.910, 23.475
789.195, 49.348
790.479, 2.782
791.764, 1.079
793.048, 5.934
794.332, 46.784
795.616, 30.631
796.900, 40.475
798.183, 29.315
799.467, 0.152
800.750, 15.983
802.033, 1.588
803.316, 16.633
804.598, 0.547
805.880, 14.267
807.163, 18.078
808.445, 30.114
809.726, 33.326
811.008, 33.441
812.289, 6.206
813.570, 26.968
814.851, 10.270
816.132, 25.516
817.413, 0.224
818.693, 36.961
819.973, 49.697
821.253, 23.430
822.533, 36.161
823.813, 9.890
825.092, 58.617
826.371, 39.342
827.650, 23.065
828.929, 45.789
830.208, 34.511
831.486, 48.232
832.764, 59.952
834.042, 59.675
835.320, 77.401
836.598, 70.132
837.875, 78.861
839.152, 105.597
840.429, 122.332
841.706, 126.911
842.983, 126.802
844.259, 137.538
845.536, 119.273
846.812, 128.008
848.088, 168.741
849.363, 146.473
850.639, 172.205
851.914, 140.936
853.189, 130.517
854.464, 182.818
855.739, 169.496
857.013, 178.167
858.288, 163.811
859.562, 197.540
860.836, 212.034
862.110, 215.487
863.383, 240.214
864.656, 223.842
865.930, 230.568
867.203, 245.456
868.475, 229.180
869.748, 266.845
871.020, 255.867
872.292, 267.149
873.564, 279.495
874.836, 272.766
876.108, 294.358
877.379, 306.406
878.650, 327.882
879.922, 348.511
881.192, 358.243
882.463, 382.263
883.733, 418.984
885.004, 439.858
886.274, 473.668
887.544, 493.552
888.813, 497.579
890.083, 513.239
891.352, 533.021
892.621, 533.452
893.890, 549.094
895.159, 604.075
896.427, 659.735
897.695, 700.950
898.964, 733.757
900.232, 761.584
901.499, 873.182
902.767, 924.493
904.034, 929.826
905.301, 1068.857
906.568, 1161.858
907.835, 1294.625
909.102, 1414.603
910.368, 1625.319
911.634, 1805.698
912.900, 1901.413
914.166, 2025.383
915.432, 2099.677
916.697, 2145.801
917.962, 2202.072
919.227, 2189.852
920.492, 2233.381
921.757, 2190.150
923.021, 2201.866
924.285, 2245.267
925.550, 2347.090
926.813, 2471.913
928.077, 2699.779
929.341, 2976.652
930.604, 3317.531
931.867, 3559.415
933.130, 4072.307
934.393, 4715.204
935.655, 5390.066
936.918, 6289.968
938.180, 7289.215
939.442, 8727.139
940.703, 10829.066
941.965, 13388.006
943.226, 16662.533
944.488, 21659.314
945.749, 28638.209
947.009, 36861.176
948.270, 46138.152
949.530, 54869.121
950.791, 59719.121
952.051, 58268.957
953.311, 51340.961
954.570, 43583.910
955.830, 34961.922
957.089, 27707.811
958.348, 22125.848
959.607, 17790.893
960.866, 14504.064
962.124, 11831.057
963.383, 10060.373
964.641, 8392.457
965.899, 7227.169
967.156, 6193.748
968.414, 5393.011
969.671, 4792.104
970.928, 4194.465
972.185, 3736.611
973.442, 3341.772
974.699, 3021.949
975.955, 2745.144
977.211, 2366.351
978.468, 2255.566
979.723, 1927.378
980.979, 1806.611
982.234, 1609.874
983.490, 1416.151
984.745, 1294.668
986.000, 1171.902
987.254, 1092.535
988.509, 932.834
989.763, 834.841
991.017, 770.191
992.271, 701.808
993.525, 633.362
994.779, 591.070
996.032, 549.391
997.285, 525.763
998.538, 507.143
999.791, 510.539
1001.044, 505.644
1002.296, 505.436
1003.548, 525.864
1004.800, 536.302
1006.052, 561.854
1007.304, 541.748
1008.555, 598.217
1009.807, 608.706
1011.058, 620.204
1012.309, 696.714
1013.559, 659.236
1014.810, 739.767
1016.060, 706.312
1017.310, 824.866
1018.560, 836.446
1019.810, 885.040
1021.060, 961.654
1022.309, 1066.280
1023.558, 1169.051
1024.807, 1250.700
1026.056, 1287.369
1027.305, 1300.655
1028.553, 1339.770
1029.801, 1213.114
1031.049, 1077.843
1032.297, 916.586
1033.545, 883.345
1034.793, 718.116
1036.040, 642.902
1037.287, 560.709
1038.534, 524.333
1039.781, 558.371
1041.027, 531.218
1042.274, 567.082
1043.520, 605.960
1044.766, 531.857
1046.012, 590.771
1047.257, 595.696
1048.503, 586.642
1049.748, 552.601
1050.993, 610.581
1052.238, 647.580
1053.483, 625.595
1054.727, 663.627
1055.971, 756.684
1057.216, 742.753
1058.459, 837.832
1059.703, 903.923
1060.947, 1030.023
1062.190, 1126.146
1063.433, 1243.287
1064.676, 1321.446
1065.919, 1434.613
1067.162, 1609.796
1068.404, 1609.992
1069.646, 1701.197
1070.888, 1808.411
1072.130, 1806.638
1073.372, 1621.874
1074.613, 1604.123
1075.855, 1501.384
1077.096, 1353.653
1078.337, 1234.931
1079.578, 1119.216
1080.818, 971.508
1082.059, 787.808
1083.299, 719.115
1084.539, 580.430
1085.779, 539.751
1087.018, 454.081
1088.258, 368.420
1089.497, 325.768
1090.736, 290.275
1091.975, 249.636
1093.213, 238.006
1094.452, 205.054
1095.690, 151.771
1096.928, 153.207
1098.166, 122.755
1099.404, 83.187
1100.642, 73.600
1101.879, 68.619
1103.116, 54.046
1104.353, 45.501
1105.590, 75.201
1106.827, 40.720
1108.063, 23.233
1109.299, 59.333
1110.536, 45.808
1111.771, 13.695
1113.007, 13.880
1114.243, 25.667
1115.478, 5.122
1116.713, 26.522
1117.948, 1.991
1119.183, 12.454
1120.418, 6.861
1121.652, 66.252
1122.886, 108.403
1124.120, 117.071
1125.354, 19.497
1126.588, 14.085
1127.821, 22.311
1129.055, 9.435
1130.288, 0.945
1131.521, 0.560
1132.753, 37.561
1133.986, 30.508
1135.218, 39.162
1136.450, 10.075
1137.682, 46.355
1138.914, 1.562
1140.146, 12.034
1141.377, 9.495
1142.609, 12.847
1143.840, 30.040
1145.071, 22.788
1146.301, 31.448
1147.532, 44.525
1148.762, 21.346
1149.992, 2.903
1151.222, 29.716
1152.452, 38.483
1153.682, 16.885
1154.911, 31.757
1156.140, 10.539
1157.369, 27.584
1158.598, 17.160
1159.827, 31.298
1161.055, 29.829
1162.284, 13.933
1163.512, 31.526
1164.740, 22.098
1165.967, 29.553
1167.195, 23.523
1168.422, 20.484
1169.650, 8.187
1170.877, 3.214
1172.103, 38.459
1173.330, 15.122
1174.557, 63.384
1175.783, 62.970
1177.009, 14.689
1178.235, 38.859
1179.461, 16.531
1180.686, 86.176
1181.912, 56.313
1183.137, 45.143
1184.362, 65.790
1185.587, 61.414
1186.811, 59.246
1188.036, 56.918
1189.260, 76.189
1190.484, 39.744
1191.708, 47.399
1192.932, 69.928
1194.155, 61.109
1195.378, 43.926
1196.602, 57.518
1197.825, 90.755
1199.047, 59.479
1200.270, 59.417
1201.492, 82.230
1202.715, 61.815
1203.937, 108.512
1205.159, 65.242
1206.380, 69.726
1207.602, 53.347
1208.823, 75.875
1210.044, 68.404
1211.265, 83.943
1212.486, 77.407
1213.707, 77.855
1214.927, 74.821
1216.147, 75.271
1217.367, 51.963
1218.587, 51.425
1219.807, 88.861
1221.027, 54.890
1222.246, 74.396
1223.465, 38.981
1224.684, 28.009
1225.903, 60.049
1227.121, 15.478
1228.340, 18.882
1229.558, 61.301
1230.776, 37.711
1231.994, 32.120
1233.212, 43.536
1234.429, 18.927
1235.646, 19.362
1236.864, 6.751
1238.081, 45.169
1239.297, 59.522
1240.514, 87.949
1241.730, 52.474
1242.947, 14.813
1244.163, 9.163
1245.378, 20.492
1246.594, 51.810
1247.810, 1.310
1249.025, 46.608
1250.240, 8.901
1251.455, 22.391
1252.670, 15.653
1253.885, 18.988
1255.099, 13.707
1256.313, 35.547
1257.527, 33.924
1258.741, 17.880
1259.955, 17.929
1261.168, 25.768
1262.382, 17.868
1263.595, 45.482
1264.808, 29.637
1266.021, 0.530
1267.233, 16.342
1268.446, 12.217
1269.658, 20.173
1270.870, 0.119
1272.082, 31.922
1273.294, 29.956
1274.505, 15.389
1275.716, 27.385
1276.928, 14.647
1278.139, 9.298
1279.349, 6.999
1280.560, 8.976
1281.770, 20.576
1282.981, 36.482
1284.191, 10.674
1285.401, 57.517
1286.610, 41.093
1287.820, 19.739
1289.029, 25.586
1290.239, 13.253
1291.448, 20.056
1292.656, 12.115
1293.865, 11.660
1295.073, 6.577
1296.282, 29.105
1297.490, 14.843
1298.698, 27.604
1299.906, 25.780
1301.113, 14.479
1302.320, 10.842
1303.528, 42.818
1304.735, 4.469
1305.942, 7.106
1307.148, 39.730
1308.355, 41.343
1309.561, 46.945
1310.767, 3.465
1311.973, 17.108
1313.179, 24.332
1314.384, 24.205
1315.590, 42.730
1316.795, 28.118
1318.000, 29.616
1319.205, 12.899
1320.410, 46.566
1321.614, 2.019
1322.819, 53.831
1324.023, 3.745
1325.227, 31.663
1326.431, 6.059
1327.634, 16.440
1328.838, 31.879
1330.041, 2.765
1331.244, 16.659
1332.447, 28.987
1333.650, 3.304
1334.852, 51.603
1336.055, 30.891
1337.257, 57.168
1338.459, 5.433
1339.661, 17.683
1340.862, 40.921
1342.064, 4.148
1343.265, 23.361
1344.466, 12.562
1345.667, 17.751
1346.868, 39.928
1348.068, 25.093
1349.269, 22.247
1350.469, 72.390
1351.669, 32.523
1352.869, 49.645
1354.069, 48.757
1355.268, 46.201
1356.468, 68.290
1357.667, 32.369
1358.866, 17.438
1360.065, 77.496
1361.263, 23.545
1362.462, 58.585
1363.660, 82.616
1364.858, 8.639
1366.056, 1.349
1367.254, 31.863
1368.451, 26.836
1369.649, 57.800
1370.846, 58.755
1372.043, 63.701
1373.240, 58.637
1374.436, 59.540
1375.633, 58.601
1376.829, 55.398
1378.025, 60.319
1379.221, 48.010
1380.417, 58.594
1381.613, 51.319
1382.808, 81.028
1384.003, 48.525
1385.199, 33.177
1386.393, 77.210
1387.588, 64.555
1388.783, 95.040
1389.977, 74.875
1391.171, 32.358
1392.365, 69.721
1393.559, 79.155
1394.753, 28.751
1395.946, 74.307
1397.140, 39.307
1398.333, 45.597
1399.526, 54.678
1400.719, 26.380
1401.911, 74.667
1403.104, 60.848
1404.296, 30.879
1405.488, 78.061
1406.680, 31.203
1407.872, 52.402
1409.063, 78.763
1410.255, 51.594
1411.446, 75.553
1412.637, 83.469
1413.828, 71.797
1415.018, 73.204
1416.209, 79.492
1417.399, 61.501
1418.589, 86.018
1419.779, 66.779
1420.969, 66.179
1422.159, 76.928
1423.348, 64.195
1424.537, 40.042
1425.726, 58.294
1426.915, 50.032
1428.104, 78.471
1429.293, 62.976
1430.481, 39.662
1431.669, 11.763
1432.857, 35.928
1434.045, 73.354
1435.233, 31.480
1436.420, 80.661
1437.608, 47.896
1438.795, 38.215
1439.982, 56.465
1441.169, 30.335
1442.355, 55.315
1443.542, 38.653
1444.728, 85.739
1445.914, 74.615
1447.100, 61.859
1448.286, 53.039
1449.472, 45.155
1450.657, 79.189
1451.842, 44.176
1453.027, 90.131
1454.212, 78.818
1455.397, 32.797
1456.581, 86.375
1457.766, 38.336
1458.950, 27.824
1460.134, 58.451
1461.318, 30.944
1462.501, 35.895
1463.685, 67.467
1464.868, 64.058
1466.051, 99.940
1467.234, 50.842
1468.417, 48.739
1469.600, 51.610
1470.782, 8.531
1471.965, 36.480
1473.147, 5.379
1474.329, 30.355
1475.510, 44.354
1476.692, 63.816
1477.873, 51.755
1479.055, 23.640
1480.236, 102.609
1481.416, 55.455
1482.597, 50.434
1483.778, 62.483
1484.958, 43.524
1486.138, 23.557
1487.318, 63.590
1488.498, 31.636
1489.678, 44.699
1490.857, 26.747
1492.037, 91.872
1493.216, 66.032
1494.395, 46.218
1495.574, 57.428
1496.752, 5.746
1497.931, 55.981
1499.109, 20.227
1500.287, 45.516
1501.465, 38.843
1502.643, 43.209
1503.820, 25.610
1504.998, 82.055
1506.175, 48.550
1507.352, 59.097
1508.529, 1.305
1509.706, 69.097
1510.882, 45.429
1512.059, 69.731
1513.235, 40.960
1514.411, 52.036
1515.587, 39.664
1516.762, 28.757
1517.938, 30.785
1519.113, 0.125
1520.288, 0.000
##END=



