##NAMES=Ludlamite
##RRUFFID=R040152
##IDEAL CHEMISTRY=Fe^2+^_3_(PO_4_)_2_&#183;4H_2_O
##LOCALITY=Cobalt, Lemhi County, Idaho, USA
##OWNER=RRUFF
##SOURCE=University of Arizona Mineral Museum
##DESCRIPTION=Green tabular single crystals
##STATUS=The identification of this mineral has been confirmed by X-ray diffraction and chemical analysis
##URL=rruff.info/R040152
##MEASURED CHEMISTRY=Fe_3.01_(P_1.00_O_4_)_2_Â·4H_2_O
##PIN_ID=M00387
##ORIENTATION=Laser parallel to -c* (0 0 -1). Fiducial mark perpendicular to laser is parallel to a [1 0 0]
82.218, 0.000
83.614, 69.203
85.009, 8.043
86.404, 48.301
87.798, 64.000
89.193, 196.021
90.587, 421.712
91.981, 529.675
93.375, 780.277
94.768, 1142.327
96.161, 1787.915
97.554, 2852.335
98.947, 4222.030
100.340, 6360.558
101.732, 9308.646
103.124, 12045.992
104.516, 11461.333
105.908, 8370.441
107.300, 5187.130
108.691, 2874.232
110.082, 1673.607
111.473, 948.131
112.864, 718.697
114.254, 606.213
115.644, 605.597
117.034, 484.777
118.424, 413.905
119.813, 239.223
121.203, 326.223
122.592, 151.763
123.981, 336.852
125.369, 256.467
126.758, 60.563
128.146, 118.105
129.534, 98.058
130.922, 237.390
132.309, 370.072
133.696, 604.080
135.083, 871.394
136.470, 1551.992
137.857, 2093.859
139.243, 3169.979
140.630, 4397.339
142.016, 5147.926
143.401, 4996.729
144.787, 4578.733
146.172, 4366.934
147.557, 4097.317
148.942, 3414.878
150.327, 2503.605
151.711, 1660.492
153.096, 988.751
154.480, 689.295
155.863, 410.688
157.247, 358.783
158.630, 402.601
160.013, 508.173
161.396, 773.184
162.779, 1226.606
164.161, 1789.531
165.544, 2579.793
166.926, 3143.076
168.308, 3291.433
169.689, 3460.812
171.070, 3869.228
172.452, 4559.692
173.833, 4671.206
175.213, 3928.737
176.594, 3045.280
177.974, 2021.842
179.354, 1383.423
180.734, 1013.027
182.114, 745.658
183.493, 448.319
184.872, 391.011
186.251, 207.737
187.630, 209.498
189.008, 138.294
190.387, 222.127
191.765, 267.997
193.143, 377.903
194.520, 583.847
195.898, 785.827
197.275, 1194.844
198.652, 1603.897
200.029, 2058.987
201.405, 2384.111
202.782, 2235.270
204.158, 1958.460
205.534, 1789.682
206.909, 1646.934
208.285, 1371.218
209.660, 1255.530
211.035, 1030.294
212.410, 875.241
213.784, 631.638
215.159, 451.061
216.533, 273.510
217.907, 164.985
219.281, 49.484
220.654, 54.008
222.027, 0.446
223.400, 58.877
224.773, 75.286
226.146, 61.674
227.518, 132.041
228.891, 59.389
230.263, 64.716
231.634, 21.025
233.006, 5.763
234.377, 44.173
235.748, 44.949
237.119, 81.479
238.490, 20.580
239.860, 160.462
241.231, 183.273
242.601, 250.137
243.970, 308.441
245.340, 413.375
246.709, 419.345
248.079, 457.159
249.448, 587.445
250.816, 531.703
252.185, 626.780
253.553, 725.121
254.921, 861.753
256.289, 1003.118
257.657, 1279.207
259.024, 1475.973
260.391, 1557.538
261.758, 1775.252
263.125, 1680.345
264.492, 1618.548
265.858, 1414.835
267.224, 1233.348
268.590, 1020.954
269.956, 933.740
271.321, 847.020
272.687, 800.943
274.052, 732.958
275.416, 724.060
276.781, 915.240
278.146, 918.496
279.510, 1150.823
280.874, 1506.216
282.237, 1903.672
283.601, 2393.186
284.964, 2746.753
286.327, 3053.370
287.690, 3116.054
289.053, 3200.740
290.416, 2941.490
291.778, 2788.278
293.140, 2475.106
294.502, 2482.969
295.863, 2278.864
297.225, 2380.792
298.586, 2627.751
299.947, 2863.740
301.308, 3114.755
302.668, 3256.798
304.029, 3274.864
305.389, 3279.955
306.749, 3033.069
308.108, 2728.205
309.468, 2373.362
310.827, 1972.539
312.186, 1793.734
313.545, 1557.948
314.903, 1429.179
316.262, 1289.427
317.620, 1210.679
318.978, 1139.920
320.336, 1082.134
321.693, 938.348
323.051, 927.569
324.408, 846.803
325.765, 705.047
327.121, 723.300
328.478, 598.561
329.834, 540.826
331.190, 490.096
332.546, 503.352
333.902, 476.650
335.257, 613.934
336.612, 687.222
337.967, 779.513
339.322, 824.808
340.677, 854.106
342.031, 941.409
343.385, 929.714
344.739, 931.022
346.093, 784.333
347.446, 756.646
348.799, 656.964
350.153, 517.282
351.505, 508.603
352.858, 435.925
354.210, 389.250
355.563, 362.079
356.915, 410.902
358.267, 321.229
359.618, 446.558
360.969, 493.886
362.321, 454.215
363.672, 526.543
365.022, 515.872
366.373, 522.200
367.723, 482.527
369.073, 502.854
370.423, 429.180
371.773, 361.504
373.122, 286.826
374.471, 274.146
375.821, 233.466
377.169, 92.783
378.518, 139.118
379.866, 81.451
381.215, 28.789
382.563, 64.121
383.910, 14.547
385.258, 14.748
386.605, 35.880
387.952, 31.052
389.299, 38.688
390.646, 62.581
391.992, 33.327
393.339, 78.233
394.685, 32.264
396.031, 83.146
397.376, 35.357
398.722, 47.518
400.067, 45.440
401.412, 74.430
402.757, 75.475
404.101, 73.035
405.446, 71.034
406.790, 48.946
408.134, 62.247
409.478, 27.623
410.821, 58.011
412.165, 1.582
413.508, 66.831
414.851, 29.275
416.193, 89.255
417.536, 51.201
418.878, 36.305
420.220, 23.810
421.562, 11.308
422.904, 5.205
424.245, 9.293
425.586, 110.714
426.927, 38.171
428.268, 84.620
429.609, 93.077
430.949, 56.534
432.289, 145.983
433.629, 167.438
434.969, 162.896
436.309, 199.370
437.648, 201.852
438.987, 194.330
440.326, 280.819
441.665, 234.305
443.003, 335.787
444.342, 382.294
445.680, 464.799
447.018, 462.311
448.355, 529.825
449.693, 648.338
451.030, 766.844
452.367, 963.345
453.704, 1206.862
455.041, 1321.371
456.377, 1573.874
457.713, 1702.368
459.049, 1891.854
460.385, 2096.333
461.721, 2161.804
463.056, 2355.266
464.391, 2185.719
465.726, 2151.164
467.061, 2071.599
468.395, 1712.025
469.730, 1390.442
471.064, 1426.850
472.398, 1078.248
473.731, 1069.637
475.065, 893.015
476.398, 849.383
477.731, 932.741
479.064, 941.089
480.397, 853.427
481.729, 872.755
483.062, 944.073
484.394, 887.381
485.725, 1121.678
487.057, 1098.965
488.389, 1212.241
489.720, 1237.506
491.051, 1418.760
492.382, 1537.027
493.712, 1806.283
495.043, 1929.544
496.373, 2077.794
497.703, 2252.033
499.032, 2212.279
500.362, 2306.516
501.691, 2334.741
503.020, 2316.959
504.349, 2302.164
505.678, 2232.369
507.007, 2124.561
508.335, 2050.900
509.663, 1911.317
510.991, 1830.069
512.319, 1665.214
513.646, 1533.346
514.973, 1499.468
516.300, 1421.576
517.627, 1546.673
518.954, 1555.757
520.280, 1562.829
521.607, 1850.888
522.933, 1884.935
524.259, 2027.969
525.584, 2144.990
526.910, 2433.000
528.235, 2724.996
529.560, 3075.979
530.885, 3389.950
532.209, 3617.907
533.534, 4005.853
534.858, 4209.814
536.182, 4436.835
537.506, 4620.250
538.829, 4888.142
540.152, 5373.649
541.476, 5928.010
542.799, 6786.326
544.121, 7649.637
545.444, 8924.296
546.766, 10020.226
548.088, 10749.499
549.410, 11001.247
550.732, 10752.681
552.053, 10060.931
553.375, 9084.055
554.696, 8024.995
556.017, 7353.610
557.337, 6945.902
558.658, 6461.326
559.978, 6329.467
561.298, 6022.095
562.618, 5967.742
563.938, 5501.033
565.257, 5277.126
566.576, 4785.750
567.895, 4341.577
569.214, 3923.722
570.533, 3322.074
571.851, 2916.501
573.170, 2589.019
574.488, 2330.551
575.805, 2048.367
577.123, 1863.530
578.440, 1615.681
579.758, 1573.205
581.075, 1367.512
582.391, 1266.229
583.708, 1205.259
585.024, 1094.812
586.341, 1014.754
587.657, 981.940
588.972, 969.433
590.288, 935.397
591.603, 862.313
592.918, 828.543
594.233, 793.107
595.548, 798.046
596.863, 865.478
598.177, 839.188
599.491, 823.656
600.805, 822.210
602.119, 725.656
603.432, 806.588
604.746, 703.542
606.059, 711.507
607.372, 662.734
608.685, 656.062
609.997, 668.600
611.309, 560.145
612.621, 595.436
613.933, 596.747
615.245, 614.015
616.557, 631.473
617.868, 644.250
619.179, 666.745
620.490, 684.964
621.801, 718.171
623.111, 751.629
624.421, 834.548
625.731, 890.719
627.041, 850.877
628.351, 975.023
629.660, 816.159
630.970, 799.281
632.279, 910.392
633.588, 866.490
634.896, 878.578
636.205, 892.653
637.513, 938.717
638.821, 933.935
640.129, 1015.974
641.437, 1084.002
642.744, 1015.019
644.051, 966.024
645.358, 1045.018
646.665, 924.000
647.972, 962.970
649.278, 972.097
650.584, 912.044
651.890, 981.595
653.196, 968.519
654.502, 885.430
655.807, 952.571
657.113, 799.755
658.418, 757.631
659.722, 746.129
661.027, 731.981
662.331, 691.018
663.636, 638.846
664.940, 678.663
666.244, 487.467
667.547, 632.260
668.851, 483.041
670.154, 500.810
671.457, 400.567
672.760, 385.313
674.062, 370.908
675.365, 356.771
676.667, 355.482
677.969, 314.182
679.271, 319.871
680.572, 274.548
681.874, 230.215
683.175, 287.870
684.476, 178.515
685.777, 257.149
687.077, 212.772
688.378, 118.385
689.678, 229.987
690.978, 64.578
692.278, 55.159
693.577, 43.271
694.877, 175.249
696.176, 1.758
697.475, 133.242
698.774, 30.720
700.072, 49.183
701.371, 127.648
702.669, 67.109
703.967, 126.188
705.265, 79.044
706.562, 134.518
707.860, 45.007
709.157, 50.498
710.454, 11.976
711.751, 81.551
713.047, 81.886
714.344, 27.318
715.640, 89.758
716.936, 62.789
718.232, 81.363
719.527, 5.028
720.823, 10.429
722.118, 44.157
723.413, 51.236
724.708, 21.647
726.002, 19.935
727.297, 48.478
728.591, 17.106
729.885, 61.311
731.179, 3.262
732.472, 53.146
733.766, 11.571
735.059, 19.989
736.352, 4.404
737.645, 39.813
738.937, 10.771
740.230, 37.632
741.522, 11.029
742.814, 14.580
744.106, 41.788
745.397, 75.150
746.689, 11.492
747.980, 1.154
749.271, 54.831
750.562, 29.550
751.853, 44.701
753.143, 43.054
754.433, 27.155
755.723, 16.358
757.013, 104.446
758.303, 1.317
759.592, 34.202
760.881, 19.115
762.170, 8.048
763.459, 81.002
764.748, 5.048
766.036, 78.914
767.325, 131.074
768.613, 23.056
769.901, 181.033
771.188, 104.006
772.476, 52.974
773.763, 157.938
775.050, 48.897
776.337, 109.853
777.624, 148.804
778.910, 132.751
780.196, 134.695
781.482, 111.635
782.768, 136.545
784.054, 110.503
785.339, 136.433
786.625, 118.358
787.910, 110.152
789.195, 83.201
790.479, 64.117
791.764, 68.030
793.048, 3.059
794.332, 80.846
795.616, 38.749
796.900, 115.648
798.183, 92.546
799.467, 43.441
800.750, 143.335
802.033, 77.226
803.316, 92.886
804.598, 121.955
805.880, 69.206
807.163, 164.598
808.445, 58.401
809.726, 80.798
811.008, 12.036
812.289, 52.721
813.570, 22.524
814.851, 88.223
816.132, 51.031
817.413, 28.693
818.693, 20.417
819.973, 65.139
821.253, 12.862
822.533, 11.584
823.813, 60.306
825.092, 40.027
826.371, 93.748
827.650, 42.468
828.929, 40.189
830.208, 49.834
831.486, 119.632
832.764, 47.354
834.042, 52.076
835.320, 43.812
836.598, 140.551
837.875, 149.290
839.152, 142.069
840.429, 137.850
841.706, 168.636
842.983, 106.429
844.259, 188.260
845.536, 211.067
846.812, 190.813
848.088, 242.156
849.363, 188.017
850.639, 284.251
851.914, 245.134
853.189, 261.584
854.464, 106.378
855.739, 313.297
857.013, 410.231
858.288, 292.170
859.562, 224.112
860.836, 363.082
862.110, 347.934
863.383, 314.278
864.656, 355.454
865.930, 371.914
867.203, 422.914
868.475, 289.572
869.748, 262.602
871.020, 242.390
872.292, 205.827
873.564, 341.165
874.836, 276.560
876.108, 238.687
877.379, 386.784
878.650, 419.550
879.922, 399.287
881.192, 431.406
882.463, 312.391
883.733, 417.534
885.004, 352.461
886.274, 372.616
887.544, 487.325
888.813, 544.227
890.083, 563.152
891.352, 515.912
892.621, 620.549
893.890, 580.708
895.159, 655.533
896.427, 630.020
897.695, 786.223
898.964, 875.433
900.232, 796.207
901.499, 1022.660
902.767, 931.777
904.034, 1300.514
905.301, 1264.756
906.568, 1465.711
907.835, 1743.904
909.102, 2014.008
910.368, 2292.094
911.634, 2565.933
912.900, 2940.626
914.166, 3210.305
915.432, 3609.715
916.697, 3473.022
917.962, 3315.113
919.227, 3361.193
920.492, 3053.523
921.757, 2893.827
923.021, 2720.172
924.285, 2536.521
925.550, 2465.882
926.813, 2436.539
928.077, 2566.627
929.341, 2591.016
930.604, 2776.411
931.867, 3074.814
933.130, 3209.227
934.393, 3557.646
935.655, 4106.073
936.918, 4517.512
938.180, 5520.959
939.442, 6201.413
940.703, 7594.874
941.965, 11150.346
943.226, 11468.821
944.488, 14113.306
945.749, 18682.631
947.009, 24570.133
948.270, 31688.641
949.530, 39402.152
950.791, 45668.680
952.051, 46525.207
953.311, 42553.742
954.570, 35636.297
955.830, 29046.684
957.089, 23043.248
958.348, 18198.205
959.607, 14523.788
960.866, 11925.376
962.124, 9870.733
963.383, 8113.043
964.641, 6998.658
965.899, 5857.650
967.156, 5249.288
968.414, 4471.740
969.671, 3968.399
970.928, 3532.067
972.185, 3091.879
973.442, 2931.565
974.699, 2470.260
975.955, 2356.963
977.211, 2148.674
978.468, 1825.393
979.723, 1729.117
980.979, 1521.914
982.234, 1373.656
983.490, 1425.406
984.745, 1039.166
986.000, 1229.042
987.254, 1252.141
988.509, 1092.922
989.763, 899.805
991.017, 778.603
992.271, 798.534
993.525, 729.332
994.779, 675.041
996.032, 787.386
997.285, 736.569
998.538, 813.685
999.791, 747.000
1001.044, 939.163
1002.296, 875.904
1003.548, 992.646
1004.800, 972.835
1006.052, 857.775
1007.304, 828.562
1008.555, 895.722
1009.807, 957.014
1011.058, 984.841
1012.309, 1033.394
1013.559, 1078.476
1014.810, 1117.000
1016.060, 1064.980
1017.310, 1146.045
1018.560, 1301.318
1019.810, 1299.914
1021.060, 1488.940
1022.309, 1742.642
1023.558, 1772.009
1024.807, 1974.249
1026.056, 2111.150
1027.305, 2289.300
1028.553, 2231.523
1029.801, 2318.664
1031.049, 2102.045
1032.297, 1886.466
1033.545, 1838.997
1034.793, 1804.646
1036.040, 1655.102
1037.287, 1622.242
1038.534, 1714.723
1039.781, 1937.865
1041.027, 2345.538
1042.274, 2548.834
1043.520, 2852.416
1044.766, 3004.717
1046.012, 2720.967
1047.257, 2457.616
1048.503, 2208.232
1049.748, 2024.867
1050.993, 1650.333
1052.238, 1560.208
1053.483, 1489.494
1054.727, 1245.204
1055.971, 1350.508
1057.216, 1546.103
1058.459, 1318.418
1059.703, 1507.958
1060.947, 1481.937
1062.190, 1651.920
1063.433, 1691.484
1064.676, 1825.101
1065.919, 2027.676
1067.162, 2083.235
1068.404, 2280.794
1069.646, 2268.170
1070.888, 2384.666
1072.130, 2432.213
1073.372, 2368.613
1074.613, 2365.324
1075.855, 2286.951
1077.096, 2058.109
1078.337, 1953.982
1079.578, 2031.566
1080.818, 1727.974
1082.059, 1585.721
1083.299, 1249.240
1084.539, 1078.565
1085.779, 1097.759
1087.018, 862.543
1088.258, 696.850
1089.497, 639.145
1090.736, 525.751
1091.975, 495.167
1093.213, 386.441
1094.452, 345.811
1095.690, 444.091
1096.928, 291.575
1098.166, 276.844
1099.404, 362.912
1100.642, 265.142
1101.879, 230.387
1103.116, 228.080
1104.353, 126.284
1105.590, 236.797
1106.827, 136.700
1108.063, 204.934
1109.299, 113.193
1110.536, 86.612
1111.771, 137.313
1113.007, 123.816
1114.243, 195.635
1115.478, 52.381
1116.713, 183.956
1117.948, 79.550
1119.183, 133.055
1120.418, 27.631
1121.652, 182.058
1122.886, 502.498
1124.120, 601.607
1125.354, 397.021
1126.588, 182.106
1127.821, 197.180
1129.055, 55.509
1130.288, 109.961
1131.521, 90.095
1132.753, 80.481
1133.986, 51.248
1135.218, 2.768
1136.450, 126.918
1137.682, 144.628
1138.914, 142.629
1140.146, 15.938
1141.377, 12.760
1142.609, 138.924
1143.840, 1.869
1145.071, 33.573
1146.301, 26.048
1147.532, 18.068
1148.762, 24.883
1149.992, 55.308
1151.222, 102.503
1152.452, 29.171
1153.682, 90.798
1154.911, 37.661
1156.140, 42.978
1157.369, 13.610
1158.598, 84.356
1159.827, 10.708
1161.055, 28.698
1162.284, 12.525
1163.512, 127.058
1164.740, 3.412
1165.967, 55.844
1167.195, 74.532
1168.422, 121.483
1169.650, 27.087
1170.877, 52.866
1172.103, 50.203
1173.330, 44.331
1174.557, 114.624
1175.783, 98.422
1177.009, 119.197
1178.235, 18.032
1179.461, 56.680
1180.686, 35.403
1181.912, 18.252
1183.137, 55.091
1184.362, 158.182
1185.587, 1.143
1186.811, 134.755
1188.036, 21.274
1189.260, 104.848
1190.484, 46.170
1191.708, 114.188
1192.932, 132.392
1194.155, 48.662
1195.378, 60.126
1196.602, 56.718
1197.825, 99.016
1199.047, 36.804
1200.270, 212.413
1201.492, 65.801
1202.715, 231.572
1203.937, 101.735
1205.159, 229.576
1206.380, 120.134
1207.602, 44.218
1208.823, 44.638
1210.044, 125.658
1211.265, 114.812
1212.486, 126.076
1213.707, 129.153
1214.927, 130.087
1216.147, 181.370
1217.367, 150.418
1218.587, 137.469
1219.807, 172.301
1221.027, 97.233
1222.246, 117.337
1223.465, 40.289
1224.684, 66.475
1225.903, 126.213
1227.121, 170.251
1228.340, 88.157
1229.558, 141.866
1230.776, 291.043
1231.994, 41.557
1233.212, 78.040
1234.429, 189.502
1235.646, 241.928
1236.864, 115.567
1238.081, 160.008
1239.297, 211.588
1240.514, 169.076
1241.730, 189.486
1242.947, 138.766
1244.163, 190.741
1245.378, 48.968
1246.594, 216.567
1247.810, 191.735
1249.025, 85.032
1250.240, 199.137
1251.455, 128.337
1252.670, 61.638
1253.885, 195.748
1255.099, 187.741
1256.313, 147.975
1257.527, 86.923
1258.741, 129.029
1259.955, 71.612
1261.168, 79.814
1262.382, 33.625
1263.595, 102.405
1264.808, 121.257
1266.021, 102.107
1267.233, 134.660
1268.446, 129.894
1269.658, 242.180
1270.870, 130.921
1272.082, 212.463
1273.294, 206.979
1274.505, 143.459
1275.716, 110.845
1276.928, 184.269
1278.139, 120.666
1279.349, 145.937
1280.560, 194.271
1281.770, 158.270
1282.981, 89.558
1284.191, 99.724
1285.401, 71.911
1286.610, 108.921
1287.820, 183.999
1289.029, 102.144
1290.239, 60.572
1291.448, 204.118
1292.656, 122.708
1293.865, 98.080
1295.073, 127.577
1296.282, 113.479
1297.490, 120.195
1298.698, 126.823
1299.906, 143.394
1301.113, 107.151
1302.320, 103.507
1303.528, 38.693
1304.735, 13.683
1305.942, 30.388
1307.148, 6.504
1308.355, 69.373
1309.561, 9.762
1310.767, 135.065
1311.973, 53.132
1313.179, 183.847
1314.384, 62.102
1315.590, 240.679
1316.795, 185.588
1318.000, 194.599
1319.205, 123.921
1320.410, 190.985
1321.614, 171.948
1322.819, 152.174
1324.023, 172.518
1325.227, 99.401
1326.431, 146.956
1327.634, 96.365
1328.838, 38.943
1330.041, 123.807
1331.244, 61.301
1332.447, 146.103
1333.650, 28.648
1334.852, 41.051
1336.055, 27.241
1337.257, 24.214
1338.459, 57.641
1339.661, 13.485
1340.862, 83.676
1342.064, 161.794
1343.265, 99.938
1344.466, 2.102
1345.667, 105.316
1346.868, 21.702
1348.068, 165.659
1349.269, 13.721
1350.469, 19.964
1351.669, 199.104
1352.869, 55.742
1354.069, 151.355
1355.268, 104.379
1356.468, 71.373
1357.667, 108.357
1358.866, 99.328
1360.065, 85.290
1361.263, 96.438
1362.462, 88.934
1363.660, 134.612
1364.858, 103.690
1366.056, 55.444
1367.254, 84.405
1368.451, 31.748
1369.649, 119.182
1370.846, 5.050
1372.043, 64.859
1373.240, 104.392
1374.436, 15.160
1375.633, 151.070
1376.829, 167.945
1378.025, 133.248
1379.221, 143.687
1380.417, 79.345
1381.613, 121.309
1382.808, 82.071
1384.003, 97.156
1385.199, 110.052
1386.393, 135.415
1387.588, 7.180
1388.783, 176.872
1389.977, 39.812
1391.171, 159.451
1392.365, 93.872
1393.559, 192.556
1394.753, 102.229
1395.946, 71.309
1397.140, 109.335
1398.333, 149.363
1399.526, 66.062
1400.719, 126.556
1401.911, 81.475
1403.104, 112.562
1404.296, 155.581
1405.488, 148.281
1406.680, 126.751
1407.872, 102.162
1409.063, 94.682
1410.255, 189.364
1411.446, 70.051
1412.637, 252.932
1413.828, 84.392
1415.018, 134.884
1416.209, 117.946
1417.399, 223.361
1418.589, 166.927
1419.779, 220.110
1420.969, 195.145
1422.159, 191.329
1423.348, 173.208
1424.537, 118.081
1425.726, 164.375
1426.915, 125.002
1428.104, 149.461
1429.293, 136.542
1430.481, 147.409
1431.669, 144.465
1432.857, 156.807
1434.045, 227.844
1435.233, 170.154
1436.420, 362.457
1437.608, 384.201
1438.795, 240.751
1439.982, 238.490
1441.169, 347.991
1442.355, 395.770
1443.542, 520.018
1444.728, 520.799
1445.914, 541.259
1447.100, 457.233
1448.286, 513.979
1449.472, 405.905
1450.657, 371.320
1451.842, 633.543
1453.027, 501.729
1454.212, 556.842
1455.397, 558.544
1456.581, 425.717
1457.766, 627.928
1458.950, 694.561
1460.134, 506.271
1461.318, 576.033
1462.501, 476.086
1463.685, 557.237
1464.868, 604.723
1466.051, 341.114
1467.234, 544.668
1468.417, 289.657
1469.600, 300.617
1470.782, 395.471
1471.965, 449.207
1473.147, 281.822
1474.329, 348.482
1475.510, 294.455
1476.692, 219.691
1477.873, 273.204
1479.055, 292.807
1480.236, 193.401
1481.416, 321.985
1482.597, 233.152
1483.778, 328.273
1484.958, 142.996
1486.138, 230.728
1487.318, 186.510
1488.498, 141.608
1489.678, 210.279
1490.857, 120.281
1492.037, 124.357
1493.216, 153.554
1494.395, 185.884
1495.574, 171.337
1496.752, 222.954
1497.931, 42.763
1499.109, 202.731
1500.287, 22.152
1501.465, 77.135
1502.643, 57.617
1503.820, 59.325
1504.998, 10.290
1506.175, 108.553
1507.352, 75.151
1508.529, 38.135
1509.706, 108.021
1510.882, 78.038
1512.059, 147.027
1513.235, 126.183
