##NAMES=Ludlamite
##RRUFFID=R040152
##IDEAL CHEMISTRY=Fe^2+^_3_(PO_4_)_2_&#183;4H_2_O
##LOCALITY=Cobalt, Lemhi County, Idaho, USA
##OWNER=RRUFF
##SOURCE=University of Arizona Mineral Museum
##DESCRIPTION=Green tabular single crystals
##STATUS=The identification of this mineral has been confirmed by X-ray diffraction and chemical analysis
##URL=rruff.info/R040152
##MEASURED CHEMISTRY=Fe_3.01_(P_1.00_O_4_)_2_Â·4H_2_O
##PIN_ID=M00398
##ORIENTATION=Laser parallel to (1 0 1). Fiducial mark perpendicular to laser is parallel to b [0 1 0]
94.768, 0.000
96.161, 1.295
97.554, 1.931
98.947, 74.944
100.340, 148.517
101.732, 273.054
103.124, 307.855
104.516, 242.781
105.908, 213.035
107.300, 169.042
108.691, 40.358
110.082, 52.636
111.473, 44.598
112.864, 156.024
114.254, 250.740
115.644, 268.611
117.034, 168.520
118.424, 128.358
119.813, 81.028
121.203, 88.444
122.592, 66.532
123.981, 128.228
125.369, 155.474
126.758, 193.221
128.146, 249.437
129.534, 392.099
130.922, 601.167
132.309, 804.628
133.696, 1237.494
135.083, 1903.756
136.470, 2878.379
137.857, 4567.319
139.243, 6943.540
140.630, 8473.009
142.016, 8918.705
143.401, 8467.610
144.787, 8615.698
146.172, 9164.963
147.557, 9263.391
148.942, 7635.967
150.327, 4986.682
151.711, 3040.528
153.096, 1815.498
154.480, 1136.582
155.863, 770.778
157.247, 589.075
158.630, 577.469
160.013, 743.035
161.396, 1180.914
162.779, 1799.894
164.161, 2537.929
165.544, 2935.019
166.926, 2654.174
168.308, 1878.624
169.689, 1420.493
171.070, 1238.720
172.452, 1250.175
173.833, 1128.801
175.213, 899.494
176.594, 583.165
177.974, 472.784
179.354, 416.303
180.734, 454.752
182.114, 372.147
183.493, 315.501
184.872, 249.825
186.251, 217.126
187.630, 291.410
189.008, 352.683
190.387, 485.947
191.765, 774.208
193.143, 1159.466
194.520, 1673.725
195.898, 2465.987
197.275, 3533.252
198.652, 4859.522
200.029, 5926.798
201.405, 6223.081
202.782, 5825.371
204.158, 5450.667
205.534, 5538.972
206.909, 6177.284
208.285, 6759.605
209.660, 6780.933
211.035, 6221.270
212.410, 5004.614
213.784, 3770.966
215.159, 2653.395
216.533, 1915.760
217.907, 1422.132
219.281, 1076.510
220.654, 752.893
222.027, 534.281
223.400, 413.500
224.773, 281.155
226.146, 235.534
227.518, 197.134
228.891, 146.382
230.263, 119.657
231.634, 98.360
233.006, 69.152
234.377, 83.417
235.748, 56.685
237.119, 65.956
238.490, 63.644
239.860, 139.987
241.231, 181.112
242.601, 192.233
243.970, 239.579
245.340, 275.276
246.709, 354.185
248.079, 383.903
249.448, 404.675
250.816, 464.851
252.185, 450.800
253.553, 492.653
254.921, 577.331
256.289, 737.919
257.657, 761.500
259.024, 772.078
260.391, 802.736
261.758, 736.353
263.125, 704.502
264.492, 740.926
265.858, 884.564
267.224, 1062.383
268.590, 1259.359
269.956, 1263.470
271.321, 1290.702
272.687, 1104.042
274.052, 927.477
275.416, 794.000
276.781, 842.602
278.146, 893.275
279.510, 1005.014
280.874, 1173.813
282.237, 1501.668
283.601, 1887.574
284.964, 2063.527
286.327, 2197.522
287.690, 2209.559
289.053, 1952.632
290.416, 1547.740
291.778, 1429.880
293.140, 1146.051
294.502, 1032.249
295.863, 934.473
297.225, 1043.721
298.586, 1116.991
299.947, 1315.282
301.308, 1499.591
302.668, 1445.917
304.029, 1479.257
305.389, 1461.613
306.749, 1236.982
308.108, 1104.363
309.468, 897.755
310.827, 750.157
312.186, 625.570
313.545, 530.990
314.903, 498.419
316.262, 397.855
317.620, 339.298
318.978, 415.748
320.336, 759.202
321.693, 513.126
323.051, 473.459
324.408, 298.593
325.765, 88.063
327.121, 128.534
328.478, 63.006
329.834, 53.479
331.190, 85.953
332.546, 1.575
333.902, 25.894
335.257, 13.358
336.612, 6.817
337.967, 77.269
339.322, 148.714
340.677, 139.152
342.031, 195.924
343.385, 262.008
344.739, 187.426
346.093, 189.839
347.446, 57.246
348.799, 58.646
350.153, 40.958
351.505, 16.421
352.858, 18.205
354.210, 94.843
355.563, 11.511
356.915, 33.189
358.267, 9.883
359.618, 26.414
360.969, 15.706
362.321, 72.991
363.672, 94.270
365.022, 54.543
366.373, 165.811
367.723, 110.072
369.073, 52.326
370.423, 35.577
371.773, 37.822
373.122, 28.062
374.471, 39.294
375.821, 59.521
377.169, 35.742
378.518, 77.978
379.866, 8.794
381.215, 51.560
382.563, 24.351
383.910, 25.139
385.258, 74.945
386.605, 71.795
387.952, 27.684
389.299, 93.627
390.646, 66.624
391.992, 51.649
393.339, 41.703
394.685, 26.774
396.031, 25.341
397.376, 25.338
398.722, 23.095
400.067, 32.239
401.412, 29.411
402.757, 24.630
404.101, 17.090
405.446, 40.240
406.790, 9.652
408.134, 25.886
409.478, 10.388
410.821, 40.857
412.165, 9.293
413.508, 44.700
414.851, 62.076
416.193, 85.438
417.536, 63.790
418.878, 71.149
420.220, 138.503
421.562, 124.851
422.904, 171.759
424.245, 221.578
425.586, 228.946
426.927, 209.315
428.268, 208.682
429.609, 217.058
430.949, 227.434
432.289, 352.805
433.629, 414.172
434.969, 441.546
436.309, 415.917
437.648, 479.288
438.987, 526.652
440.326, 613.026
441.665, 647.393
443.003, 810.753
444.342, 819.123
445.680, 1038.492
447.018, 1167.866
448.355, 1359.252
449.693, 1485.643
451.030, 1709.033
452.367, 2009.419
453.704, 2490.800
455.041, 2785.188
456.377, 3271.567
457.713, 3672.938
459.049, 3975.302
460.385, 4349.656
461.721, 4296.785
463.056, 4184.795
464.391, 3945.687
465.726, 3504.019
467.061, 2994.340
468.395, 2496.649
469.730, 1947.956
471.064, 1660.251
472.398, 1294.538
473.731, 1212.812
475.065, 942.073
476.398, 766.322
477.731, 809.558
479.064, 808.781
480.397, 756.992
481.729, 754.189
483.062, 748.374
484.394, 866.545
485.725, 913.704
487.057, 1079.848
488.389, 1221.979
489.720, 1480.097
491.051, 1680.202
492.382, 1979.293
493.712, 2269.318
495.043, 2465.382
496.373, 2743.431
497.703, 2744.467
499.032, 2671.489
500.362, 2552.498
501.691, 2305.492
503.020, 2156.471
504.349, 1891.438
505.678, 1600.391
507.007, 1459.329
508.335, 1259.252
509.663, 1119.163
510.991, 1005.848
512.319, 928.729
513.646, 743.579
514.973, 733.748
516.300, 613.861
517.627, 731.712
518.954, 595.932
520.280, 602.928
521.607, 667.713
522.933, 708.483
524.259, 781.280
525.584, 806.299
526.910, 829.027
528.235, 975.742
529.560, 1087.313
530.885, 1141.099
532.209, 1178.162
533.534, 1190.931
534.858, 1223.610
536.182, 1221.876
537.506, 1142.803
538.829, 1146.403
540.152, 1211.195
541.476, 1266.812
542.799, 1366.347
544.121, 1469.983
545.444, 1624.895
546.766, 1754.022
548.088, 1882.122
549.410, 2118.915
550.732, 2166.319
552.053, 2524.459
553.375, 2611.561
554.696, 2813.157
556.017, 3148.825
557.337, 3566.410
558.658, 3945.366
559.978, 4287.803
561.298, 4350.801
562.618, 4573.294
563.938, 4386.140
565.257, 4137.688
566.576, 3900.099
567.895, 3368.200
569.214, 3159.814
570.533, 2828.857
571.851, 2515.147
573.170, 2289.797
574.488, 2164.192
575.805, 2020.424
577.123, 1944.858
578.440, 1780.103
579.758, 1666.490
581.075, 1600.275
582.391, 1416.471
583.708, 1243.724
585.024, 1051.925
586.341, 907.150
587.657, 766.882
588.972, 693.308
590.288, 595.232
591.603, 600.658
592.918, 493.492
594.233, 452.108
595.548, 463.146
596.863, 416.600
598.177, 373.217
599.491, 397.341
600.805, 359.436
602.119, 322.776
603.432, 260.214
604.746, 277.271
606.059, 298.009
607.372, 191.230
608.685, 160.809
609.997, 221.190
611.309, 136.524
612.621, 90.406
613.933, 116.154
615.245, 209.007
616.557, 146.789
617.868, 181.728
619.179, 174.668
620.490, 184.633
621.801, 104.401
623.111, 158.278
624.421, 181.032
625.731, 258.950
627.041, 172.459
628.351, 305.274
629.660, 250.667
630.970, 230.348
632.279, 337.016
633.588, 234.669
634.896, 283.308
636.205, 199.933
637.513, 325.543
638.821, 280.140
640.129, 242.722
641.437, 212.291
642.744, 215.845
644.051, 192.386
645.358, 172.913
646.665, 228.425
647.972, 174.924
649.278, 189.410
650.584, 164.881
651.890, 224.340
653.196, 178.785
654.502, 120.217
655.807, 211.635
657.113, 182.040
658.418, 250.432
659.722, 256.810
661.027, 237.175
662.331, 300.527
663.636, 216.867
664.940, 221.192
666.244, 163.507
667.547, 283.807
668.851, 179.105
670.154, 209.391
671.457, 156.670
672.760, 113.960
674.062, 127.243
675.365, 62.522
676.667, 45.793
677.969, 138.049
679.271, 160.293
680.572, 78.526
681.874, 37.746
683.175, 100.951
684.476, 93.145
685.777, 14.327
687.077, 61.489
688.378, 28.639
689.678, 57.774
690.978, 74.897
692.278, 18.009
693.577, 60.896
694.877, 146.141
696.176, 47.832
697.475, 80.152
698.774, 61.856
700.072, 102.089
701.371, 20.037
702.669, 70.993
703.967, 24.963
705.265, 33.933
706.562, 39.921
707.860, 76.921
709.157, 3.069
710.454, 96.935
711.751, 14.058
713.047, 91.934
714.344, 19.931
715.640, 14.927
716.936, 12.075
718.232, 55.912
719.527, 64.902
720.823, 24.887
722.118, 3.121
723.413, 47.861
724.708, 5.165
726.002, 1.793
727.297, 52.736
728.591, 8.674
729.885, 28.600
731.179, 85.518
732.472, 38.574
733.766, 54.299
735.059, 17.164
736.352, 13.980
737.645, 5.147
738.937, 38.667
740.230, 47.475
741.522, 38.274
742.814, 31.935
744.106, 2.826
745.397, 41.574
746.689, 54.315
747.980, 35.951
749.271, 1.249
750.562, 8.559
751.853, 19.115
753.143, 55.220
754.433, 25.405
755.723, 29.022
757.013, 64.367
758.303, 18.801
759.592, 45.254
760.881, 72.742
762.170, 49.277
763.459, 23.847
764.748, 21.438
766.036, 5.049
767.325, 78.330
768.613, 77.316
769.901, 90.009
771.188, 15.670
772.476, 11.636
773.763, 6.936
775.050, 52.770
776.337, 34.509
777.624, 8.729
778.910, 38.962
780.196, 0.809
781.482, 33.586
782.768, 5.615
784.054, 16.189
785.339, 63.997
786.625, 60.178
787.910, 97.149
789.195, 131.994
790.479, 127.702
791.764, 195.871
793.048, 132.036
794.332, 178.198
795.616, 179.357
796.900, 248.514
798.183, 192.667
799.467, 178.819
800.750, 244.967
802.033, 178.114
803.316, 173.259
804.598, 210.401
805.880, 70.542
807.163, 131.680
808.445, 166.816
809.726, 149.952
811.008, 44.086
812.289, 72.338
813.570, 204.369
814.851, 54.516
816.132, 66.661
817.413, 91.811
818.693, 29.960
819.973, 154.108
821.253, 56.271
822.533, 566.434
823.813, 648.596
825.092, 420.758
826.371, 467.928
827.650, 349.080
828.929, 85.242
830.208, 175.302
831.486, 109.279
832.764, 74.454
834.042, 69.629
835.320, 68.766
836.598, 109.680
837.875, 198.872
839.152, 75.090
840.429, 80.437
841.706, 241.561
842.983, 78.422
844.259, 127.566
845.536, 207.805
846.812, 111.446
848.088, 157.414
849.363, 165.724
850.639, 173.594
851.914, 199.912
853.189, 171.960
854.464, 122.288
855.739, 138.183
857.013, 125.172
858.288, 188.588
859.562, 159.790
860.836, 120.024
862.110, 178.426
863.383, 88.444
864.656, 250.859
865.930, 148.245
867.203, 250.667
868.475, 257.811
869.748, 201.855
871.020, 148.470
872.292, 278.849
873.564, 199.272
874.836, 215.537
876.108, 187.823
877.379, 242.198
878.650, 308.410
879.922, 255.084
881.192, 387.524
882.463, 330.623
883.733, 343.981
885.004, 355.498
886.274, 410.805
887.544, 361.296
888.813, 502.639
890.083, 405.578
891.352, 634.100
892.621, 525.557
893.890, 558.060
895.159, 568.532
896.427, 630.494
897.695, 695.675
898.964, 848.197
900.232, 908.781
901.499, 1031.623
902.767, 1207.674
904.034, 1313.299
905.301, 1364.771
906.568, 1725.532
907.835, 1915.051
909.102, 2310.594
910.368, 2580.886
911.634, 3081.073
912.900, 3652.644
914.166, 4213.527
915.432, 4755.921
916.697, 4885.951
917.962, 4812.173
919.227, 4687.438
920.492, 4308.148
921.757, 3933.985
923.021, 3628.711
924.285, 3432.502
925.550, 3280.129
926.813, 3196.749
928.077, 3184.342
929.341, 3151.124
930.604, 3424.790
931.867, 3708.575
933.130, 3838.191
934.393, 4295.209
935.655, 4983.914
936.918, 5291.037
938.180, 6250.861
939.442, 7213.698
940.703, 8396.542
941.965, 10430.396
943.226, 12997.260
944.488, 15838.131
945.749, 20906.012
947.009, 27438.898
948.270, 35492.793
949.530, 44480.707
950.791, 51839.625
952.051, 53764.539
953.311, 48676.469
954.570, 40046.406
955.830, 32129.354
957.089, 24472.309
958.348, 19165.266
959.607, 15074.240
960.866, 12243.329
962.124, 9873.434
963.383, 8348.968
964.641, 7294.660
965.899, 6242.864
967.156, 5395.888
968.414, 4855.879
969.671, 4391.986
970.928, 4022.134
972.185, 3727.639
973.442, 3461.705
974.699, 3165.779
975.955, 2858.861
977.211, 2595.953
978.468, 2321.247
979.723, 2235.416
980.979, 2101.512
982.234, 1966.660
983.490, 2079.791
984.745, 1819.146
986.000, 1996.486
987.254, 1954.710
988.509, 1911.989
989.763, 2078.940
991.017, 2108.117
992.271, 2240.408
993.525, 2200.709
994.779, 2193.499
996.032, 2146.921
997.285, 2015.523
998.538, 1938.070
999.791, 1591.764
1001.044, 1572.529
1002.296, 1307.479
1003.548, 1159.023
1004.800, 1060.966
1006.052, 981.540
1007.304, 818.793
1008.555, 779.489
1009.807, 772.872
1011.058, 674.799
1012.309, 723.532
1013.559, 651.291
1014.810, 641.131
1016.060, 652.311
1017.310, 709.343
1018.560, 685.026
1019.810, 668.714
1021.060, 732.146
1022.309, 918.337
1023.558, 914.252
1024.807, 1127.324
1026.056, 1122.267
1027.305, 1305.247
1028.553, 1476.958
1029.801, 1533.821
1031.049, 1425.926
1032.297, 1382.795
1033.545, 1243.734
1034.793, 1316.589
1036.040, 1125.549
1037.287, 1046.486
1038.534, 1207.435
1039.781, 1214.332
1041.027, 1427.053
1042.274, 1313.874
1043.520, 1534.642
1044.766, 1642.606
1046.012, 1398.713
1047.257, 1214.051
1048.503, 1050.033
1049.748, 1025.020
1050.993, 765.533
1052.238, 967.416
1053.483, 831.118
1054.727, 931.975
1055.971, 745.760
1057.216, 967.912
1058.459, 970.695
1059.703, 1095.664
1060.947, 1247.512
1062.190, 1272.158
1063.433, 1393.020
1064.676, 1588.722
1065.919, 1713.875
1067.162, 1880.856
1068.404, 2092.787
1069.646, 2106.707
1070.888, 2274.420
1072.130, 2397.198
1073.372, 2313.987
1074.613, 2161.631
1075.855, 1998.775
1077.096, 1943.096
1078.337, 1639.798
1079.578, 1622.458
1080.818, 1426.550
1082.059, 1286.606
1083.299, 1075.386
1084.539, 1032.034
1085.779, 840.671
1087.018, 804.440
1088.258, 765.211
1089.497, 617.054
1090.736, 604.688
1091.975, 430.088
1093.213, 389.129
1094.452, 306.911
1095.690, 282.937
1096.928, 219.181
1098.166, 303.094
1099.404, 264.912
1100.642, 280.419
1101.879, 251.906
1103.116, 228.729
1104.353, 154.161
1105.590, 126.870
1106.827, 76.853
1108.063, 119.493
1109.299, 37.824
1110.536, 37.539
1111.771, 36.014
1113.007, 14.829
1114.243, 27.534
1115.478, 115.181
1116.713, 20.969
1117.948, 60.571
1119.183, 55.124
1120.418, 65.412
1121.652, 126.625
1122.886, 153.387
1124.120, 169.818
1125.354, 179.942
1126.588, 42.562
1127.821, 75.883
1129.055, 53.568
1130.288, 88.081
1131.521, 99.732
1132.753, 50.222
1133.986, 56.059
1135.218, 51.292
1136.450, 77.803
1137.682, 93.399
1138.914, 122.755
1140.146, 14.705
1141.377, 95.521
1142.609, 1.090
1143.840, 64.266
1145.071, 36.977
1146.301, 54.144
1147.532, 96.163
1148.762, 13.402
1149.992, 0.002
1151.222, 76.771
1152.452, 2.444
1153.682, 84.523
1154.911, 84.221
1156.140, 59.199
1157.369, 37.467
1158.598, 11.822
1159.827, 41.357
1161.055, 59.975
1162.284, 9.359
1163.512, 82.819
1164.740, 126.013
1165.967, 89.904
1167.195, 96.008
1168.422, 173.602
1169.650, 10.922
1170.877, 60.651
1172.103, 29.667
1173.330, 60.450
1174.557, 57.247
1175.783, 123.289
1177.009, 88.999
1178.235, 65.295
1179.461, 90.263
1180.686, 1.854
1181.912, 95.469
1183.137, 71.236
1184.362, 81.375
1185.587, 80.161
1186.811, 96.851
1188.036, 141.072
1189.260, 121.070
1190.484, 134.042
1191.708, 87.044
1192.932, 53.145
1194.155, 1.092
1195.378, 90.541
1196.602, 89.541
1197.825, 216.393
1199.047, 116.354
1200.270, 159.753
1201.492, 123.114
1202.715, 139.436
1203.937, 57.716
1205.159, 142.430
1206.380, 98.826
1207.602, 131.039
1208.823, 1.226
1210.044, 130.556
1211.265, 173.034
1212.486, 67.795
1213.707, 110.442
1214.927, 122.898
1216.147, 125.269
1217.367, 173.257
1218.587, 161.207
1219.807, 156.983
1221.027, 190.676
1222.246, 71.376
1223.465, 49.980
1224.684, 174.541
1225.903, 185.058
1227.121, 79.534
1228.340, 86.271
1229.558, 150.797
1230.776, 181.141
1231.994, 181.990
1233.212, 148.698
1234.429, 145.912
1235.646, 126.080
1236.864, 31.202
1238.081, 226.442
1239.297, 77.834
1240.514, 130.092
1241.730, 206.400
1242.947, 116.369
1244.163, 90.488
1245.378, 110.328
1246.594, 181.125
1247.810, 138.884
1249.025, 143.631
1250.240, 189.311
1251.455, 119.950
1252.670, 71.602
1253.885, 129.140
1255.099, 199.696
1256.313, 104.036
1257.527, 36.321
1258.741, 218.146
1259.955, 138.760
1261.168, 29.824
1262.382, 68.765
1263.595, 109.946
1264.808, 103.562
1266.021, 119.484
1267.233, 43.008
1268.446, 62.216
1269.658, 104.075
1270.870, 36.965
1272.082, 73.101
1273.294, 116.435
1274.505, 77.010
1275.716, 58.603
1276.928, 57.061
1278.139, 0.103
1279.349, 197.045
1280.560, 52.441
1281.770, 115.635
1282.981, 180.730
1284.191, 82.107
1285.401, 23.802
1286.610, 71.128
1287.820, 37.005
1289.029, 105.352
1290.239, 42.992
1291.448, 44.438
1292.656, 16.890
1293.865, 110.179
1295.073, 94.345
1296.282, 7.307
1297.490, 8.373
1298.698, 29.522
1299.906, 145.740
1301.113, 82.237
1302.320, 95.249
1303.528, 9.466
1304.735, 25.237
1305.942, 12.913
1307.148, 26.871
1308.355, 72.536
1309.561, 3.314
1310.767, 125.217
1311.973, 25.086
1313.179, 11.562
1314.384, 80.581
1315.590, 130.484
1316.795, 13.222
1318.000, 99.871
1319.205, 10.953
1320.410, 47.145
1321.614, 90.468
1322.819, 82.589
1324.023, 93.421
1325.227, 76.764
1326.431, 63.999
1327.634, 41.289
1328.838, 12.077
1330.041, 31.855
1331.244, 18.887
1332.447, 105.415
1333.650, 1.724
1334.852, 52.080
1336.055, 129.812
1337.257, 96.303
1338.459, 122.889
1339.661, 20.350
1340.862, 86.019
1342.064, 111.329
1343.265, 76.067
1344.466, 595.404
1345.667, 365.333
1346.868, 834.167
1348.068, 226.480
1349.269, 84.399
1350.469, 10.645
1351.669, 183.661
1352.869, 179.774
1354.069, 130.056
1355.268, 84.093
1356.468, 37.271
1357.667, 45.327
1358.866, 62.882
1360.065, 67.843
1361.263, 153.279
1362.462, 152.273
1363.660, 183.186
1364.858, 285.049
1366.056, 181.023
1367.254, 242.931
1368.451, 225.710
1369.649, 209.518
1370.846, 223.366
1372.043, 116.582
1373.240, 155.782
1374.436, 256.880
1375.633, 190.374
1376.829, 233.803
1378.025, 211.045
1379.221, 200.128
1380.417, 202.956
1381.613, 143.820
1382.808, 98.813
1384.003, 121.593
1385.199, 99.650
1386.393, 172.012
1387.588, 126.586
1388.783, 186.190
1389.977, 218.134
1391.171, 191.535
1392.365, 206.136
1393.559, 172.134
1394.753, 178.614
1395.946, 165.329
1397.140, 197.955
1398.333, 163.657
1399.526, 213.864
1400.719, 179.564
1401.911, 170.780
1403.104, 282.860
1404.296, 198.413
1405.488, 29.145
1406.680, 252.271
1407.872, 38.875
1409.063, 173.097
1410.255, 291.114
1411.446, 87.756
1412.637, 252.042
1413.828, 139.769
1415.018, 118.145
1416.209, 135.312
1417.399, 283.309
1418.589, 168.098
1419.779, 279.645
1420.969, 39.109
1422.159, 315.465
1423.348, 65.058
1424.537, 312.020
1425.726, 192.734
1426.915, 247.114
1428.104, 252.823
1429.293, 226.714
1430.481, 255.239
1431.669, 174.050
1432.857, 287.766
1434.045, 177.223
1435.233, 129.032
1436.420, 345.797
1437.608, 358.761
1438.795, 198.188
1439.982, 180.566
1441.169, 292.551
1442.355, 292.136
1443.542, 312.891
1444.728, 343.124
1445.914, 330.313
1447.100, 326.514
1448.286, 304.103
1449.472, 302.946
1450.657, 266.002
1451.842, 370.013
1453.027, 255.654
1454.212, 256.280
1455.397, 398.213
1456.581, 225.361
1457.766, 259.913
1458.950, 287.298
1460.134, 283.523
1461.318, 306.703
1462.501, 279.052
1463.685, 248.161
1464.868, 230.549
1466.051, 191.246
1467.234, 200.437
1468.417, 87.887
1469.600, 181.456
1470.782, 328.497
1471.965, 301.882
1473.147, 53.284
1474.329, 343.033
1475.510, 182.563
1476.692, 60.229
1477.873, 125.916
1479.055, 274.708
1480.236, 182.459
1481.416, 335.229
1482.597, 74.022
1483.778, 268.871
1484.958, 263.700
1486.138, 142.507
1487.318, 221.306
1488.498, 132.800
1489.678, 142.923
1490.857, 85.797
1492.037, 99.699
1493.216, 190.649
1494.395, 149.688
1495.574, 101.894
1496.752, 297.227
1497.931, 128.669
1499.109, 289.579
1500.287, 136.762
1501.465, 33.495
1502.643, 30.682
1503.820, 172.165
1504.998, 107.202
1506.175, 187.385
1507.352, 124.735
1508.529, 176.280
1509.706, 102.040
1510.882, 143.020
1512.059, 88.329
1513.235, 252.596
1514.411, 97.341
1515.587, 1.104
1516.762, 244.464
1517.938, 72.410
1519.113, 255.597
1520.288, 14.877
1521.463, 30.070
1522.638, 0.000
##END=



