##NAMES=Ludlamite
##RRUFFID=R040152
##IDEAL CHEMISTRY=Fe^2+^_3_(PO_4_)_2_&#183;4H_2_O
##LOCALITY=Cobalt, Lemhi County, Idaho, USA
##OWNER=RRUFF
##SOURCE=University of Arizona Mineral Museum
##DESCRIPTION=Green tabular single crystals
##STATUS=The identification of this mineral has been confirmed by X-ray diffraction and chemical analysis
##URL=rruff.info/R040152
##MEASURED CHEMISTRY=Fe_3.01_(P_1.00_O_4_)_2_Â·4H_2_O
##PIN_ID=M00387
##ORIENTATION=Laser parallel to -c* (0 0 -1). Fiducial mark perpendicular to laser is parallel to a [1 0 0]
86.404, 0.000
87.798, 2.320
89.193, 2.825
90.587, 110.938
91.981, 97.271
93.375, 193.338
94.768, 225.429
96.161, 326.430
97.554, 473.564
98.947, 665.273
100.340, 908.133
101.732, 1290.821
103.124, 1979.080
104.516, 2096.709
105.908, 1719.540
107.300, 1181.429
108.691, 623.262
110.082, 431.941
111.473, 199.385
112.864, 162.521
114.254, 88.281
115.644, 131.612
117.034, 111.461
118.424, 92.805
119.813, 64.610
121.203, 48.833
122.592, 10.437
123.981, 5.913
125.369, 6.661
126.758, 12.229
128.146, 26.086
129.534, 76.220
130.922, 164.611
132.309, 272.246
133.696, 384.116
135.083, 526.205
136.470, 936.495
137.857, 1285.971
139.243, 1983.619
140.630, 2846.424
142.016, 3747.378
143.401, 3907.470
144.787, 3868.691
146.172, 3779.033
147.557, 3544.971
148.942, 3428.339
150.327, 2719.337
151.711, 2033.408
153.096, 1295.548
154.480, 840.753
155.863, 638.019
157.247, 550.344
158.630, 558.724
160.013, 583.156
161.396, 654.637
162.779, 894.165
164.161, 1249.738
165.544, 1728.362
166.926, 2112.144
168.308, 2543.061
169.689, 3212.178
171.070, 4295.337
172.452, 6051.533
173.833, 7386.810
175.213, 6670.160
176.594, 5134.557
177.974, 3500.037
179.354, 2479.664
180.734, 1661.337
182.114, 1111.021
183.493, 808.702
184.872, 599.378
186.251, 476.052
187.630, 449.726
189.008, 441.401
190.387, 585.078
191.765, 681.759
193.143, 902.444
194.520, 1338.134
195.898, 1813.828
197.275, 2540.528
198.652, 3522.234
200.029, 4701.945
201.405, 5583.664
202.782, 5557.386
204.158, 4812.116
205.534, 4262.851
206.909, 3699.668
208.285, 3089.361
209.660, 2980.682
211.035, 2710.468
212.410, 2255.934
213.784, 1909.540
215.159, 1450.151
216.533, 1163.769
217.907, 905.391
219.281, 770.018
220.654, 570.648
222.027, 528.283
223.400, 546.920
224.773, 387.562
226.146, 400.206
227.518, 347.851
228.891, 399.498
230.263, 457.146
231.634, 561.795
233.006, 661.443
234.377, 753.090
235.748, 846.737
237.119, 944.382
238.490, 1099.027
239.860, 1441.670
241.231, 1505.330
242.601, 1653.282
243.970, 1696.919
245.340, 1510.153
246.709, 1500.229
248.079, 1271.043
249.448, 1278.571
250.816, 1056.287
252.185, 1034.627
253.553, 904.914
254.921, 768.542
256.289, 799.485
257.657, 755.710
259.024, 823.381
260.391, 842.414
261.758, 904.286
263.125, 859.292
264.492, 926.625
265.858, 890.504
267.224, 1056.062
268.590, 1137.921
269.956, 1146.511
271.321, 1228.071
272.687, 1058.836
274.052, 943.670
275.416, 813.317
276.781, 695.704
278.146, 661.107
279.510, 612.495
280.874, 748.918
282.237, 846.374
283.601, 1074.860
284.964, 1236.376
286.327, 1406.917
287.690, 1474.483
289.053, 1298.072
290.416, 1042.681
291.778, 833.311
293.140, 557.959
294.502, 500.624
295.863, 374.305
297.225, 288.000
298.586, 245.708
299.947, 143.429
301.308, 126.330
302.668, 155.903
304.029, 89.655
305.389, 113.416
306.749, 112.184
308.108, 73.960
309.468, 52.742
310.827, 41.530
312.186, 50.323
313.545, 54.119
314.903, 55.918
316.262, 43.684
317.620, 13.522
318.978, 24.327
320.336, 14.133
321.693, 34.939
323.051, 12.747
324.408, 32.536
325.765, 22.640
327.121, 35.163
328.478, 20.036
329.834, 79.239
331.190, 25.462
332.546, 24.692
333.902, 31.931
335.257, 18.820
336.612, 45.433
337.967, 23.300
339.322, 47.027
340.677, 29.750
342.031, 62.467
343.385, 8.178
344.739, 66.883
346.093, 39.581
347.446, 33.272
348.799, 89.957
350.153, 62.634
351.505, 110.305
352.858, 105.969
354.210, 101.625
355.563, 189.275
356.915, 212.918
358.267, 210.553
359.618, 199.181
360.969, 266.801
362.321, 390.414
363.672, 361.019
365.022, 445.617
366.373, 437.206
367.723, 451.787
369.073, 542.360
370.423, 499.919
371.773, 548.466
373.122, 536.981
374.471, 529.472
375.821, 565.942
377.169, 382.405
378.518, 439.874
379.866, 244.335
381.215, 241.792
382.563, 242.252
383.910, 181.705
385.258, 172.149
386.605, 135.584
387.952, 205.012
389.299, 105.437
390.646, 148.857
391.992, 85.285
393.339, 28.721
394.685, 17.168
396.031, 31.618
397.376, 60.062
398.722, 46.498
400.067, 16.046
401.412, 30.609
402.757, 0.146
404.101, 30.300
405.446, 15.734
406.790, 15.158
408.134, 5.543
409.478, 68.071
410.821, 5.294
412.165, 38.368
413.508, 60.079
414.851, 21.822
416.193, 11.409
417.536, 5.593
418.878, 38.172
420.220, 42.006
421.562, 25.116
422.904, 39.772
424.245, 7.705
425.586, 5.339
426.927, 1.639
428.268, 10.637
429.609, 45.666
430.949, 55.745
432.289, 37.926
433.629, 33.941
434.969, 8.747
436.309, 43.529
437.648, 60.297
438.987, 63.054
440.326, 96.972
441.665, 80.573
443.003, 143.331
444.342, 132.077
445.680, 144.813
447.018, 170.538
448.355, 195.257
449.693, 212.965
451.030, 186.660
452.367, 238.344
453.704, 378.017
455.041, 349.676
456.377, 439.324
457.713, 602.958
459.049, 687.581
460.385, 811.189
461.721, 1004.786
463.056, 1182.370
464.391, 1248.940
465.726, 1345.498
467.061, 1311.380
468.395, 1296.571
469.730, 1101.088
471.064, 972.590
472.398, 724.080
473.731, 730.556
475.065, 571.018
476.398, 570.466
477.731, 458.901
479.064, 451.322
480.397, 392.733
481.729, 462.132
483.062, 457.515
484.394, 470.884
485.725, 498.239
487.057, 537.939
488.389, 623.117
489.720, 671.718
491.051, 770.079
492.382, 892.359
493.712, 1001.638
495.043, 1106.521
496.373, 1154.770
497.703, 1184.833
499.032, 1118.060
500.362, 1040.272
501.691, 923.471
503.020, 863.654
504.349, 749.824
505.678, 654.980
507.007, 594.123
508.335, 481.251
509.663, 470.365
510.991, 448.464
512.319, 372.549
513.646, 376.619
514.973, 412.675
516.300, 363.716
517.627, 428.742
518.954, 423.754
520.280, 379.751
521.607, 449.733
522.933, 423.702
524.259, 443.654
525.584, 410.593
526.910, 434.517
528.235, 608.425
529.560, 657.319
530.885, 741.199
532.209, 801.419
533.534, 881.269
534.858, 1005.105
536.182, 1046.926
537.506, 1036.930
538.829, 1135.722
540.152, 1314.522
541.476, 1269.521
542.799, 1441.504
544.121, 1425.236
545.444, 1617.955
546.766, 1838.658
548.088, 1914.536
549.410, 1981.415
550.732, 2069.501
552.053, 2070.835
553.375, 1902.225
554.696, 1775.412
556.017, 1836.993
557.337, 1701.573
558.658, 1823.959
559.978, 1779.396
561.298, 1694.266
562.618, 1653.491
563.938, 1578.850
565.257, 1572.134
566.576, 1508.959
567.895, 1410.933
569.214, 1316.065
570.533, 1180.776
571.851, 1093.187
573.170, 959.135
574.488, 965.479
575.805, 939.771
577.123, 863.029
578.440, 818.393
579.758, 786.265
581.075, 873.908
582.391, 872.823
583.708, 877.216
585.024, 990.857
586.341, 1008.478
587.657, 1218.037
588.972, 1349.353
590.288, 1472.994
591.603, 1673.528
592.918, 1799.085
594.233, 2131.610
595.548, 2250.357
596.863, 2632.396
598.177, 2741.098
599.491, 2902.813
600.805, 2833.533
602.119, 2745.596
603.432, 2518.645
604.746, 2337.680
606.059, 2135.957
607.372, 1834.965
608.685, 1641.959
609.997, 1512.941
611.309, 1302.910
612.621, 1232.864
613.933, 1127.806
615.245, 1136.735
616.557, 1112.650
617.868, 1140.552
619.179, 1188.441
620.490, 1205.318
621.801, 1273.182
623.111, 1508.032
624.421, 1401.871
625.731, 1668.696
627.041, 1547.508
628.351, 1682.310
629.660, 1550.097
630.970, 1598.911
632.279, 1581.674
633.588, 1572.490
634.896, 1453.229
636.205, 1455.957
637.513, 1423.838
638.821, 1417.508
640.129, 1398.199
641.437, 1382.879
642.744, 1374.548
644.051, 1339.247
645.358, 1252.873
646.665, 1233.511
647.972, 1208.141
649.278, 1074.777
650.584, 1111.407
651.890, 965.773
653.196, 1033.393
654.502, 925.231
655.807, 893.090
657.113, 733.687
658.418, 698.272
659.722, 721.847
661.027, 607.562
662.331, 466.117
663.636, 421.986
664.940, 422.519
666.244, 377.042
667.547, 375.555
668.851, 304.059
670.154, 418.552
671.457, 332.035
672.760, 238.509
674.062, 369.972
675.365, 220.427
676.667, 224.872
677.969, 194.307
679.271, 219.733
680.572, 212.062
681.874, 128.559
683.175, 192.958
684.476, 163.350
685.777, 91.732
687.077, 121.106
688.378, 7.472
689.678, 140.817
690.978, 105.154
692.278, 86.483
693.577, 24.195
694.877, 97.091
696.176, 10.369
697.475, 10.369
698.774, 30.865
700.072, 51.089
701.371, 92.307
702.669, 53.519
703.967, 3.725
705.265, 2.912
706.562, 33.038
707.860, 37.778
709.157, 55.689
710.454, 25.640
711.751, 3.379
713.047, 46.382
714.344, 90.619
715.640, 22.317
716.936, 166.745
718.232, 25.106
719.527, 38.958
720.823, 9.806
722.118, 104.649
723.413, 68.508
724.708, 66.708
726.002, 59.931
727.297, 66.809
728.591, 36.437
729.885, 34.311
731.179, 89.069
732.472, 44.831
733.766, 11.401
735.059, 45.370
736.352, 25.159
737.645, 59.950
738.937, 3.243
740.230, 26.567
741.522, 19.616
742.814, 62.193
744.106, 73.013
745.397, 52.854
746.689, 12.283
747.980, 25.590
749.271, 66.465
750.562, 48.348
751.853, 114.232
753.143, 60.884
754.433, 13.032
755.723, 46.189
757.013, 23.630
758.303, 111.450
759.592, 80.270
760.881, 26.909
762.170, 79.900
763.459, 155.709
764.748, 46.520
766.036, 88.331
767.325, 204.145
768.613, 140.958
769.901, 95.775
771.188, 121.593
772.476, 162.413
773.763, 207.236
775.050, 4.061
776.337, 96.887
777.624, 31.716
778.910, 107.548
780.196, 64.383
781.482, 133.221
782.768, 38.062
784.054, 82.905
785.339, 1.247
786.625, 62.604
787.910, 3.542
789.195, 94.315
790.479, 36.175
791.764, 37.959
793.048, 114.898
794.332, 125.761
795.616, 108.628
796.900, 141.499
798.183, 44.375
799.467, 0.257
800.750, 56.143
802.033, 81.033
803.316, 13.929
804.598, 20.831
805.880, 56.262
807.163, 40.634
808.445, 14.465
809.726, 46.560
811.008, 16.338
812.289, 90.242
813.570, 42.152
814.851, 10.931
816.132, 36.990
817.413, 20.079
818.693, 8.855
819.973, 49.796
821.253, 62.744
822.533, 78.285
823.813, 85.661
825.092, 83.630
826.371, 94.606
827.650, 83.591
828.929, 170.583
830.208, 147.583
831.486, 211.590
832.764, 89.606
834.042, 160.630
835.320, 114.676
836.598, 155.731
837.875, 256.795
839.152, 236.898
840.429, 98.010
841.706, 316.150
842.983, 287.953
844.259, 249.134
845.536, 401.360
846.812, 309.597
848.088, 416.648
849.363, 264.928
850.639, 419.194
851.914, 412.279
853.189, 377.401
854.464, 388.786
855.739, 507.182
857.013, 595.606
858.288, 612.850
859.562, 691.114
860.836, 749.181
862.110, 777.997
863.383, 688.736
864.656, 616.424
865.930, 591.984
867.203, 534.562
868.475, 486.330
869.748, 499.816
871.020, 468.130
872.292, 459.521
873.564, 503.167
874.836, 407.453
876.108, 456.135
877.379, 359.688
878.650, 462.413
879.922, 411.622
881.192, 452.363
882.463, 383.167
883.733, 475.937
885.004, 509.727
886.274, 448.531
887.544, 429.149
888.813, 537.997
890.083, 529.861
891.352, 614.739
892.621, 647.121
893.890, 749.029
895.159, 761.405
896.427, 700.442
897.695, 777.399
898.964, 889.373
900.232, 854.545
901.499, 946.550
902.767, 1024.569
904.034, 1158.603
905.301, 1151.652
906.568, 1336.064
907.835, 1488.521
909.102, 1617.977
910.368, 1867.092
911.634, 2247.224
912.900, 2640.400
914.166, 2879.341
915.432, 3197.554
916.697, 3463.783
917.962, 3342.027
919.227, 3449.289
920.492, 3163.566
921.757, 2956.860
923.021, 2840.170
924.285, 2740.496
925.550, 2731.839
926.813, 2711.208
928.077, 2730.594
929.341, 2771.996
930.604, 2978.418
931.867, 3204.556
933.130, 3345.314
934.393, 3882.789
935.655, 4374.281
936.918, 4818.801
938.180, 5686.297
939.442, 6442.850
940.703, 7576.352
941.965, 9199.935
943.226, 11083.535
944.488, 13635.018
945.749, 18079.646
947.009, 23658.293
948.270, 30810.955
949.530, 38494.633
950.791, 45675.324
952.051, 48514.008
953.311, 45595.738
954.570, 39032.484
955.830, 32429.244
957.089, 25602.018
958.348, 20312.072
959.607, 16261.869
960.866, 13293.461
962.124, 10805.047
963.383, 9223.901
964.641, 7999.771
965.899, 6967.656
967.156, 6353.409
968.414, 5779.038
969.671, 5422.648
970.928, 5248.598
972.185, 4815.566
973.442, 4839.547
974.699, 4696.543
975.955, 4706.553
977.211, 4277.578
978.468, 4188.619
979.723, 4167.674
980.979, 3940.847
982.234, 3825.932
983.490, 3912.031
984.745, 3563.146
986.000, 3642.293
987.254, 3701.584
988.509, 3477.741
989.763, 3654.046
991.017, 3414.230
992.271, 3400.791
993.525, 3196.786
994.779, 3030.117
996.032, 2877.857
997.285, 2516.219
998.538, 2393.977
999.791, 2186.185
1001.044, 2235.492
1002.296, 1978.617
1003.548, 1992.840
1004.800, 1677.268
1006.052, 1276.833
1007.304, 1050.932
1008.555, 857.531
1009.807, 688.319
1011.058, 720.234
1012.309, 634.821
1013.559, 682.293
1014.810, 667.095
1016.060, 616.854
1017.310, 680.977
1018.560, 743.522
1019.810, 631.119
1021.060, 847.886
1022.309, 1032.648
1023.558, 925.527
1024.807, 1236.109
1026.056, 1148.064
1027.305, 1385.064
1028.553, 1445.937
1029.801, 1624.717
1031.049, 1705.645
1032.297, 1812.424
1033.545, 2018.311
1034.793, 2350.975
1036.040, 2702.836
1037.287, 3311.655
1038.534, 4078.621
1039.781, 5221.709
1041.027, 6732.553
1042.274, 7822.455
1043.520, 9153.431
1044.766, 9475.564
1046.012, 8929.829
1047.257, 7665.121
1048.503, 6218.427
1049.748, 5271.553
1050.993, 4004.591
1052.238, 3316.528
1053.483, 2628.508
1054.727, 2123.616
1055.971, 1739.579
1057.216, 1624.264
1058.459, 1412.255
1059.703, 1200.761
1060.947, 1148.010
1062.190, 994.460
1063.433, 1000.307
1064.676, 952.908
1065.919, 961.085
1067.162, 959.188
1068.404, 1135.457
1069.646, 1072.607
1070.888, 1122.676
1072.130, 1252.750
1073.372, 1253.115
1074.613, 1303.563
1075.855, 1453.713
1077.096, 1457.164
1078.337, 1513.485
1079.578, 1804.008
1080.818, 1678.294
1082.059, 1639.706
1083.299, 1426.792
1084.539, 1276.214
1085.779, 1131.782
1087.018, 1061.143
1088.258, 867.229
1089.497, 790.366
1090.736, 541.452
1091.975, 595.536
1093.213, 510.619
1094.452, 360.709
1095.690, 533.794
1096.928, 242.881
1098.166, 288.964
1099.404, 331.089
1100.642, 273.168
1101.879, 264.307
1103.116, 194.941
1104.353, 158.013
1105.590, 77.082
1106.827, 22.146
1108.063, 175.216
1109.299, 105.281
1110.536, 136.344
1111.771, 131.733
1113.007, 43.794
1114.243, 142.852
1115.478, 88.598
1116.713, 20.220
1117.948, 79.814
1119.183, 157.852
1120.418, 16.882
1121.652, 75.906
1122.886, 238.924
1124.120, 240.935
1125.354, 177.941
1126.588, 80.938
1127.821, 89.929
1129.055, 6.913
1130.288, 54.889
1131.521, 135.857
1132.753, 45.818
1133.986, 50.229
1135.218, 5.687
1136.450, 184.594
1137.682, 113.510
1138.914, 100.315
1140.146, 67.870
1141.377, 26.104
1142.609, 46.365
1143.840, 131.664
1145.071, 31.239
1146.301, 2.157
1147.532, 72.584
1148.762, 90.944
1149.992, 69.576
1151.222, 86.138
1152.452, 56.754
1153.682, 19.599
1154.911, 50.076
1156.140, 19.217
1157.369, 75.496
1158.598, 44.856
1159.827, 40.382
1161.055, 77.600
1162.284, 40.189
1163.512, 22.001
1164.740, 11.822
1165.967, 84.341
1167.195, 79.863
1168.422, 42.612
1169.650, 58.735
1170.877, 34.737
1172.103, 14.058
1173.330, 25.023
1174.557, 22.094
1175.783, 55.149
1177.009, 85.192
1178.235, 58.188
1179.461, 117.167
1180.686, 77.134
1181.912, 7.087
1183.137, 89.025
1184.362, 122.947
1185.587, 28.156
1186.811, 44.711
1188.036, 154.554
1189.260, 94.667
1190.484, 80.641
1191.708, 44.727
1192.932, 32.519
1194.155, 33.690
1195.378, 34.314
1196.602, 66.651
1197.825, 91.474
1199.047, 131.662
1200.270, 112.736
1201.492, 84.851
1202.715, 174.497
1203.937, 25.249
1205.159, 136.868
1206.380, 36.733
1207.602, 73.298
1208.823, 71.001
1210.044, 25.972
1211.265, 37.491
1212.486, 110.776
1213.707, 130.219
1214.927, 91.652
1216.147, 122.259
1217.367, 144.989
1218.587, 166.090
1219.807, 77.158
1221.027, 66.494
1222.246, 4.898
1223.465, 68.267
1224.684, 93.545
1225.903, 61.805
1227.121, 104.046
1228.340, 22.285
1229.558, 160.501
1230.776, 77.691
1231.994, 0.877
1233.212, 91.023
1234.429, 190.152
1235.646, 146.268
1236.864, 250.365
1238.081, 340.449
1239.297, 192.539
1240.514, 205.592
1241.730, 216.626
1242.947, 233.629
1244.163, 191.573
1245.378, 155.492
1246.594, 349.435
1247.810, 335.258
1249.025, 60.062
1250.240, 289.842
1251.455, 217.562
1252.670, 259.202
1253.885, 263.821
1255.099, 174.505
1256.313, 220.045
1257.527, 95.688
1258.741, 253.314
1259.955, 211.058
1261.168, 60.492
1262.382, 142.897
1263.595, 246.562
1264.808, 286.267
1266.021, 288.581
1267.233, 273.856
1268.446, 283.146
1269.658, 369.359
1270.870, 277.720
1272.082, 382.873
1273.294, 370.999
1274.505, 379.096
1275.716, 320.356
1276.928, 392.378
1278.139, 253.580
1279.349, 351.479
1280.560, 350.369
1281.770, 297.035
1282.981, 394.812
1284.191, 194.391
1285.401, 313.034
1286.610, 255.268
1287.820, 189.023
1289.029, 217.961
1290.239, 91.916
1291.448, 274.684
1292.656, 239.893
1293.865, 243.598
1295.073, 232.921
1296.282, 198.384
1297.490, 149.807
1298.698, 136.264
1299.906, 245.987
1301.113, 229.211
1302.320, 225.332
1303.528, 55.131
1304.735, 134.864
1305.942, 177.243
1307.148, 240.034
1308.355, 277.838
1309.561, 257.710
1310.767, 315.571
1311.973, 240.518
1313.179, 333.285
1314.384, 200.623
1315.590, 327.438
1316.795, 266.380
1318.000, 375.874
1319.205, 303.220
1320.410, 323.874
1321.614, 338.735
1322.819, 233.660
1324.023, 402.178
1325.227, 265.175
1326.431, 378.959
1327.634, 236.082
1328.838, 209.273
1330.041, 252.975
1331.244, 186.998
1332.447, 189.771
1333.650, 68.142
1334.852, 91.997
1336.055, 61.636
1337.257, 7.307
1338.459, 16.064
1339.661, 12.521
1340.862, 28.001
1342.064, 106.502
1343.265, 2.008
1344.466, 49.398
1345.667, 42.765
1346.868, 10.438
1348.068, 102.836
1349.269, 127.681
1350.469, 64.855
1351.669, 172.980
1352.869, 95.063
1354.069, 18.896
1355.268, 122.104
1356.468, 40.938
1357.667, 173.978
1358.866, 127.906
1360.065, 81.861
1361.263, 52.883
1362.462, 15.974
1363.660, 16.645
1364.858, 196.958
1366.056, 108.454
1367.254, 112.039
1368.451, 209.695
1369.649, 155.474
1370.846, 207.044
1372.043, 127.585
1373.240, 128.087
1374.436, 143.607
1375.633, 128.276
1376.829, 155.531
1378.025, 173.936
1379.221, 145.399
1380.417, 198.958
1381.613, 209.489
1382.808, 128.046
1384.003, 225.664
1385.199, 163.028
1386.393, 204.767
1387.588, 166.411
1388.783, 201.467
1389.977, 107.677
1391.171, 234.704
1392.365, 175.078
1393.559, 126.946
1394.753, 209.377
1395.946, 115.652
1397.140, 157.608
1398.333, 77.398
1399.526, 181.311
1400.719, 66.383
1401.911, 63.320
1403.104, 33.397
1404.296, 192.153
1405.488, 105.721
1406.680, 109.090
1407.872, 12.838
1409.063, 131.774
1410.255, 199.126
1411.446, 77.519
1412.637, 174.595
1413.828, 42.315
1415.018, 97.997
1416.209, 89.540
1417.399, 147.432
1418.589, 20.792
1419.779, 111.573
1420.969, 31.758
1422.159, 196.467
1423.348, 57.629
1424.537, 171.562
1425.726, 105.162
1426.915, 86.449
1428.104, 99.013
1429.293, 70.262
1430.481, 184.375
1431.669, 0.690
1432.857, 161.714
1434.045, 0.000
##END=



