##NAMES=Ludlamite
##RRUFFID=R040152
##IDEAL CHEMISTRY=Fe^2+^_3_(PO_4_)_2_&#183;4H_2_O
##LOCALITY=Cobalt, Lemhi County, Idaho, USA
##OWNER=RRUFF
##SOURCE=University of Arizona Mineral Museum
##DESCRIPTION=Green tabular single crystals
##STATUS=The identification of this mineral has been confirmed by X-ray diffraction and chemical analysis
##URL=rruff.info/R040152
##MEASURED CHEMISTRY=Fe_3.01_(P_1.00_O_4_)_2_Â·4H_2_O
##PIN_ID=S00410
##ORIENTATION=Laser parallel to -a* (-1 0 0). Fiducial mark perpendicular to laser is parallel to b [0 1 0]
73.842, 0.000
75.239, 54.771
76.635, 79.394
78.031, 18.443
79.427, 12.928
80.823, 25.897
82.218, 0.994
83.614, 37.858
85.009, 48.047
86.404, 14.098
87.798, 55.631
89.193, 104.331
90.587, 250.934
91.981, 297.375
93.375, 366.009
94.768, 580.146
96.161, 831.523
97.554, 1231.033
98.947, 1697.577
100.340, 2144.063
101.732, 2693.410
103.124, 2958.543
104.516, 2772.398
105.908, 2104.916
107.300, 1423.047
108.691, 1002.744
110.082, 762.967
111.473, 744.679
112.864, 807.852
114.254, 915.504
115.644, 980.658
117.034, 890.287
118.424, 653.343
119.813, 525.784
121.203, 492.576
122.592, 422.687
123.981, 435.092
125.369, 495.770
126.758, 619.702
128.146, 756.870
129.534, 1027.261
130.922, 1426.862
132.309, 2017.660
133.696, 2874.645
135.083, 4128.809
136.470, 5464.141
137.857, 7487.633
139.243, 9762.280
140.630, 12341.070
142.016, 13599.003
143.401, 12631.071
144.787, 10415.264
146.172, 9113.582
147.557, 8271.020
148.942, 6835.568
150.327, 5202.242
151.711, 3632.269
153.096, 2608.814
154.480, 1950.978
155.863, 1643.579
157.247, 1599.463
158.630, 1820.323
160.013, 2318.134
161.396, 2961.886
162.779, 3874.622
164.161, 5097.334
165.544, 6397.021
166.926, 6642.692
168.308, 6064.353
169.689, 4915.012
171.070, 4256.673
172.452, 3718.341
173.833, 3221.019
175.213, 2499.711
176.594, 1829.420
177.974, 1419.147
179.354, 1129.895
180.734, 999.665
182.114, 884.459
183.493, 874.277
184.872, 805.121
186.251, 791.990
187.630, 779.887
189.008, 879.810
190.387, 964.761
191.765, 1188.740
193.143, 1599.747
194.520, 2033.781
195.898, 2589.844
197.275, 3192.935
198.652, 3952.053
200.029, 4546.199
201.405, 4969.370
202.782, 5116.567
204.158, 5259.791
205.534, 5381.040
206.909, 5394.314
208.285, 5445.613
209.660, 5224.936
211.035, 4601.283
212.410, 4017.654
213.784, 3076.048
215.159, 2405.465
216.533, 1810.905
217.907, 1333.366
219.281, 1025.850
220.654, 748.355
222.027, 563.881
223.400, 417.429
224.773, 372.996
226.146, 308.516
227.518, 224.803
228.891, 247.834
230.263, 216.816
231.634, 211.860
233.006, 208.037
234.377, 184.363
235.748, 178.556
237.119, 180.891
238.490, 190.526
239.860, 184.343
241.231, 204.303
242.601, 203.618
243.970, 237.447
245.340, 328.926
246.709, 406.376
248.079, 517.210
249.448, 583.166
250.816, 700.068
252.185, 797.891
253.553, 997.852
254.921, 1227.938
256.289, 1467.143
257.657, 1662.458
259.024, 1736.699
260.391, 1848.388
261.758, 1778.991
263.125, 1771.679
264.492, 1707.446
265.858, 1741.289
267.224, 1772.203
268.590, 1789.185
269.956, 1846.231
271.321, 1862.338
272.687, 1732.502
274.052, 1608.722
275.416, 1659.996
276.781, 1639.320
278.146, 1822.693
279.510, 2095.111
280.874, 2397.574
282.237, 2875.078
283.601, 3206.623
284.964, 3591.206
286.327, 3884.825
287.690, 3973.479
289.053, 3837.166
290.416, 3615.886
291.778, 3278.637
293.140, 3078.418
294.502, 2723.229
295.863, 2655.066
297.225, 2597.933
298.586, 2599.824
299.947, 2685.741
301.308, 2761.683
302.668, 2863.649
304.029, 2766.637
305.389, 2598.649
306.749, 2393.682
308.108, 2165.735
309.468, 1954.810
310.827, 1787.984
312.186, 1585.017
313.545, 1481.149
314.903, 1385.299
316.262, 1267.466
317.620, 1265.646
318.978, 1258.837
320.336, 1126.038
321.693, 1087.246
323.051, 921.463
324.408, 824.687
325.765, 786.920
327.121, 594.161
328.478, 544.410
329.834, 461.668
331.190, 435.934
332.546, 389.209
333.902, 462.493
335.257, 390.785
336.612, 456.085
337.967, 473.394
339.322, 511.711
340.677, 611.036
342.031, 502.370
343.385, 561.711
344.739, 515.061
346.093, 385.418
347.446, 390.782
348.799, 310.154
350.153, 232.533
351.505, 178.920
352.858, 150.313
354.210, 104.714
355.563, 149.120
356.915, 98.534
358.267, 123.953
359.618, 96.379
360.969, 107.811
362.321, 109.249
363.672, 95.692
365.022, 105.141
366.373, 100.595
367.723, 99.055
369.073, 98.520
370.423, 98.989
371.773, 33.464
373.122, 19.943
374.471, 11.573
375.821, 4.910
377.169, 35.604
378.518, 70.125
379.866, 52.661
381.215, 113.208
382.563, 96.781
383.910, 84.377
385.258, 106.992
386.605, 91.633
387.952, 179.296
389.299, 103.011
390.646, 73.783
391.992, 131.621
393.339, 68.542
394.685, 85.536
396.031, 82.624
397.376, 96.790
398.722, 69.018
400.067, 72.313
401.412, 27.656
402.757, 10.996
404.101, 17.328
405.446, 3.023
406.790, 4.024
408.134, 8.713
409.478, 5.431
410.821, 7.168
412.165, 7.073
413.508, 75.694
414.851, 50.473
416.193, 111.264
417.536, 122.073
418.878, 110.895
420.220, 172.740
421.562, 126.600
422.904, 181.479
424.245, 239.377
425.586, 260.300
426.927, 266.247
428.268, 275.211
429.609, 389.192
430.949, 402.185
432.289, 449.187
433.629, 494.216
434.969, 542.273
436.309, 558.354
437.648, 655.135
438.987, 766.564
440.326, 866.698
441.665, 1004.849
443.003, 1173.021
444.342, 1280.206
445.680, 1523.407
447.018, 1750.634
448.355, 1996.881
449.693, 2358.136
451.030, 2678.399
452.367, 3252.683
453.704, 3645.971
455.041, 4343.269
456.377, 4856.582
457.713, 5541.902
459.049, 6028.223
460.385, 6340.547
461.721, 6701.875
463.056, 6553.200
464.391, 6327.530
465.726, 5999.856
467.061, 5230.185
468.395, 4493.513
469.730, 3876.839
471.064, 3192.166
472.398, 2728.492
473.731, 2343.818
475.065, 1992.142
476.398, 1822.466
477.731, 1605.788
479.064, 1523.109
480.397, 1543.429
481.729, 1508.748
483.062, 1515.064
484.394, 1705.380
485.725, 1744.694
487.057, 1907.006
488.389, 2125.316
489.720, 2407.624
491.051, 2612.931
492.382, 3011.235
493.712, 3345.538
495.043, 3646.838
496.373, 3868.135
497.703, 4035.430
499.032, 4140.724
500.362, 4020.014
501.691, 4059.302
503.020, 3835.587
504.349, 3698.869
505.678, 3413.149
507.007, 3125.426
508.335, 2799.699
509.663, 2523.969
510.991, 2308.237
512.319, 2060.501
513.646, 1902.762
514.973, 1763.020
516.300, 1753.273
517.627, 1804.524
518.954, 1710.771
520.280, 1877.014
521.607, 1899.254
522.933, 2075.489
524.259, 2309.721
525.584, 2570.950
526.910, 2846.174
528.235, 3145.394
529.560, 3527.610
530.885, 3730.822
532.209, 3851.029
533.534, 4006.233
534.858, 3937.635
536.182, 3847.764
537.506, 3759.821
538.829, 3704.901
540.152, 3691.943
541.476, 3892.401
542.799, 4061.774
544.121, 4568.826
545.444, 4946.507
546.766, 5448.044
548.088, 5796.311
549.410, 6201.095
550.732, 6508.554
552.053, 6817.728
553.375, 7068.423
554.696, 7640.132
556.017, 8295.945
557.337, 8954.293
558.658, 9613.853
559.978, 10189.357
561.298, 10709.136
562.618, 10764.527
563.938, 10566.981
565.257, 10080.962
566.576, 9058.983
567.895, 8326.569
569.214, 7331.739
570.533, 6458.926
571.851, 5497.660
573.170, 5012.983
574.488, 4322.205
575.805, 3860.826
577.123, 3371.546
578.440, 3050.953
579.758, 2737.003
581.075, 2423.480
582.391, 2186.279
583.708, 1911.152
585.024, 1695.003
586.341, 1455.419
587.657, 1304.815
588.972, 1139.928
590.288, 985.993
591.603, 883.746
592.918, 764.266
594.233, 693.545
595.548, 660.721
596.863, 577.404
598.177, 518.792
599.491, 520.758
600.805, 428.685
602.119, 423.129
603.432, 441.841
604.746, 408.337
606.059, 390.161
607.372, 408.523
608.685, 393.558
609.997, 366.706
611.309, 391.382
612.621, 383.787
613.933, 455.009
615.245, 437.527
616.557, 493.545
617.868, 520.557
619.179, 516.104
620.490, 565.100
621.801, 656.089
623.111, 591.071
624.421, 716.044
625.731, 731.010
627.041, 799.969
628.351, 779.920
629.660, 844.863
630.970, 896.799
632.279, 925.727
633.588, 970.647
634.896, 963.560
636.205, 997.058
637.513, 972.363
638.821, 1023.252
640.129, 1010.135
641.437, 999.009
642.744, 970.876
644.051, 961.354
645.358, 942.587
646.665, 926.431
647.972, 900.268
649.278, 871.097
650.584, 883.918
651.890, 835.732
653.196, 855.538
654.502, 876.337
655.807, 817.128
657.113, 892.912
658.418, 887.688
659.722, 857.457
661.027, 818.219
662.331, 835.973
663.636, 867.719
664.940, 770.458
666.244, 774.190
667.547, 667.915
668.851, 746.632
670.154, 659.342
671.457, 551.045
672.760, 618.741
674.062, 514.429
675.365, 489.110
676.667, 404.784
677.969, 372.451
679.271, 379.111
680.572, 306.764
681.874, 367.410
683.175, 291.049
684.476, 199.681
685.777, 235.307
687.077, 162.925
688.378, 201.537
689.678, 166.142
690.978, 146.741
692.278, 145.643
693.577, 176.930
694.877, 104.526
696.176, 122.135
697.475, 82.752
698.774, 99.394
700.072, 99.055
701.371, 110.733
702.669, 111.812
703.967, 53.154
705.265, 78.916
706.562, 113.700
707.860, 29.500
709.157, 88.327
710.454, 1.170
711.751, 53.020
713.047, 5.112
714.344, 75.764
715.640, 18.344
716.936, 13.457
718.232, 9.418
719.527, 50.288
720.823, 13.161
722.118, 13.027
723.413, 29.113
724.708, 25.281
726.002, 40.476
727.297, 13.703
728.591, 23.053
729.885, 29.802
731.179, 8.456
732.472, 7.266
733.766, 38.023
735.059, 0.653
736.352, 23.687
737.645, 29.053
738.937, 46.450
740.230, 46.885
741.522, 23.358
742.814, 23.858
744.106, 2.385
745.397, 1.926
746.689, 62.482
747.980, 75.084
749.271, 55.738
750.562, 22.434
751.853, 47.154
753.143, 42.910
754.433, 36.701
755.723, 52.522
757.013, 29.383
758.303, 34.269
759.592, 79.183
760.881, 53.149
762.170, 13.153
763.459, 8.173
764.748, 60.207
766.036, 3.281
767.325, 16.367
768.613, 47.469
769.901, 19.603
771.188, 41.246
772.476, 41.092
773.763, 5.065
775.050, 47.768
776.337, 39.600
777.624, 82.429
778.910, 58.256
780.196, 99.082
781.482, 80.905
782.768, 57.727
784.054, 110.547
785.339, 74.366
786.625, 101.184
787.910, 84.000
789.195, 107.816
790.479, 115.630
791.764, 119.277
793.048, 154.257
794.332, 142.070
795.616, 191.882
796.900, 217.694
798.183, 142.506
799.467, 168.318
800.750, 161.131
802.033, 110.944
803.316, 160.757
804.598, 79.571
805.880, 107.386
807.163, 152.202
808.445, 133.020
809.726, 79.838
811.008, 152.658
812.289, 83.480
813.570, 81.303
814.851, 86.128
816.132, 74.955
817.413, 6.784
818.693, 15.616
819.973, 36.450
821.253, 91.286
822.533, 86.125
823.813, 34.967
825.092, 25.812
826.371, 60.660
827.650, 22.511
828.929, 84.366
830.208, 70.224
831.486, 60.086
832.764, 76.952
834.042, 87.822
835.320, 70.699
836.598, 77.581
837.875, 67.467
839.152, 86.357
840.429, 113.261
841.706, 77.171
842.983, 90.090
844.259, 113.016
845.536, 88.950
846.812, 122.890
848.088, 85.835
849.363, 127.786
850.639, 138.747
851.914, 102.715
853.189, 95.689
854.464, 97.669
855.739, 86.089
857.013, 155.644
858.288, 86.643
859.562, 148.649
860.836, 151.662
862.110, 148.543
863.383, 223.572
864.656, 203.568
865.930, 167.612
867.203, 208.272
868.475, 202.337
869.748, 228.257
871.020, 240.485
872.292, 242.005
873.564, 216.110
874.836, 275.787
876.108, 272.475
877.379, 317.815
878.650, 346.412
879.922, 351.061
881.192, 347.412
882.463, 379.396
883.733, 394.489
885.004, 414.191
886.274, 399.801
887.544, 426.026
888.813, 459.025
890.083, 476.899
891.352, 555.461
892.621, 615.955
893.890, 607.447
895.159, 706.444
896.427, 759.441
897.695, 844.729
898.964, 903.073
900.232, 1022.736
901.499, 1152.640
902.767, 1298.793
904.034, 1363.058
905.301, 1585.822
906.568, 1874.892
907.835, 2104.391
909.102, 2441.938
910.368, 2886.976
911.634, 3299.754
912.900, 3693.757
914.166, 4142.440
915.432, 4201.594
916.697, 4241.083
917.962, 4108.469
919.227, 3924.334
920.492, 3605.480
921.757, 3454.821
923.021, 3252.876
924.285, 3162.438
925.550, 3064.017
926.813, 3102.069
928.077, 3204.681
929.341, 3358.310
930.604, 3568.956
931.867, 3894.619
933.130, 4215.301
934.393, 4858.001
935.655, 5333.725
936.918, 6357.465
938.180, 7345.229
939.442, 8646.009
940.703, 10467.809
941.965, 12839.628
943.226, 15994.469
944.488, 20639.330
945.749, 27015.207
947.009, 34617.098
948.270, 43393.023
949.530, 51222.969
950.791, 55755.953
952.051, 54044.973
953.311, 47785.012
954.570, 40589.070
955.830, 32748.156
957.089, 26140.254
958.348, 20778.377
959.607, 16922.521
960.866, 13615.686
962.124, 11371.880
963.383, 9773.094
964.641, 8437.323
965.899, 7416.578
967.156, 6612.858
968.414, 6038.156
969.671, 5618.473
970.928, 5131.809
972.185, 4717.171
973.442, 4338.556
974.699, 3911.963
975.955, 3483.389
977.211, 3131.837
978.468, 2800.307
979.723, 2529.836
980.979, 2287.364
982.234, 2144.514
983.490, 1976.500
984.745, 1978.124
986.000, 1896.276
987.254, 1868.911
988.509, 1949.638
989.763, 1917.313
991.017, 1865.865
992.271, 1913.783
993.525, 1866.631
994.779, 1868.424
996.032, 1744.126
997.285, 1605.928
998.538, 1495.748
999.791, 1451.589
1001.044, 1288.522
1002.296, 1237.709
1003.548, 1135.612
1004.800, 1026.535
1006.052, 1049.477
1007.304, 933.438
1008.555, 992.002
1009.807, 1006.138
1011.058, 1000.636
1012.309, 1002.244
1013.559, 1015.698
1014.810, 944.268
1016.060, 1050.710
1017.310, 1018.228
1018.560, 1057.009
1019.810, 1155.284
1021.060, 1211.595
1022.309, 1295.560
1023.558, 1371.111
1024.807, 1488.645
1026.056, 1573.966
1027.305, 1603.287
1028.553, 1683.640
1029.801, 1591.029
1031.049, 1463.451
1032.297, 1355.899
1033.545, 1329.403
1034.793, 1183.888
1036.040, 1136.400
1037.287, 1099.933
1038.534, 1140.496
1039.781, 1221.082
1041.027, 1262.696
1042.274, 1375.343
1043.520, 1440.026
1044.766, 1412.744
1046.012, 1475.149
1047.257, 1433.922
1048.503, 1475.717
1049.748, 1359.534
1050.993, 1508.388
1052.238, 1551.281
1053.483, 1587.209
1054.727, 1713.166
1055.971, 1889.342
1057.216, 2028.359
1058.459, 2184.405
1059.703, 2466.484
1060.947, 2690.591
1062.190, 2943.730
1063.433, 3311.907
1064.676, 3564.117
1065.919, 3981.345
1067.162, 4314.621
1068.404, 4450.935
1069.646, 4687.269
1070.888, 4841.327
1072.130, 4779.670
1073.372, 4578.036
1074.613, 4467.412
1075.855, 4010.804
1077.096, 3698.290
1078.337, 3427.707
1079.578, 2999.189
1080.818, 2692.633
1082.059, 2310.715
1083.299, 2079.261
1084.539, 1792.000
1085.779, 1566.548
1087.018, 1344.349
1088.258, 1267.121
1089.497, 1105.645
1090.736, 979.716
1091.975, 839.298
1093.213, 727.871
1094.452, 761.612
1095.690, 592.328
1096.928, 522.959
1098.166, 566.083
1099.404, 461.636
1100.642, 406.918
1101.879, 393.517
1103.116, 333.063
1104.353, 319.849
1105.590, 229.642
1106.827, 291.378
1108.063, 197.022
1109.299, 244.883
1110.536, 206.211
1111.771, 125.056
1113.007, 98.765
1114.243, 92.313
1115.478, 78.931
1116.713, 67.791
1117.948, 131.501
1119.183, 21.329
1120.418, 63.976
1121.652, 142.034
1122.886, 161.357
1124.120, 98.284
1125.354, 78.655
1126.588, 66.246
1127.821, 2.579
1129.055, 54.808
1130.288, 49.223
1131.521, 0.587
1132.753, 2.046
1133.986, 25.923
1135.218, 20.212
1136.450, 5.714
1137.682, 14.502
1138.914, 59.507
1140.146, 12.394
1141.377, 40.189
1142.609, 2.121
1143.840, 34.547
1145.071, 58.315
1146.301, 43.267
1147.532, 33.746
1148.762, 37.335
1149.992, 14.838
1151.222, 24.721
1152.452, 18.212
1153.682, 26.200
1154.911, 10.364
1156.140, 22.289
1157.369, 7.060
1158.598, 18.632
1159.827, 21.044
1161.055, 13.304
1162.284, 20.381
1163.512, 13.450
1164.740, 14.908
1165.967, 44.648
1167.195, 32.702
1168.422, 32.170
1169.650, 22.932
1170.877, 10.620
1172.103, 9.367
1173.330, 0.163
1174.557, 9.873
1175.783, 4.968
1177.009, 32.218
1178.235, 17.983
1179.461, 24.133
1180.686, 0.088
1181.912, 20.773
1183.137, 38.277
1184.362, 33.027
1185.587, 18.604
1186.811, 21.592
1188.036, 40.378
1189.260, 55.264
1190.484, 26.322
1191.708, 23.687
1192.932, 14.677
1194.155, 5.264
1195.378, 23.131
1196.602, 45.999
1197.825, 10.599
1199.047, 45.345
1200.270, 44.052
1201.492, 75.450
1202.715, 1.058
1203.937, 33.294
1205.159, 43.096
1206.380, 71.668
1207.602, 66.603
1208.823, 23.552
1210.044, 71.924
1211.265, 40.384
1212.486, 85.647
1213.707, 10.942
1214.927, 11.438
1216.147, 12.667
1217.367, 6.055
1218.587, 49.151
1219.807, 71.323
1221.027, 40.455
1222.246, 29.614
1223.465, 12.872
1224.684, 56.076
1225.903, 23.700
1227.121, 57.903
1228.340, 1.116
1229.558, 22.105
1230.776, 7.847
1231.994, 30.205
1233.212, 7.297
1234.429, 12.001
1235.646, 66.875
1236.864, 7.279
1238.081, 0.878
1239.297, 51.143
1240.514, 19.098
1241.730, 25.059
1242.947, 14.830
1244.163, 22.025
1245.378, 28.230
1246.594, 23.296
1247.810, 27.732
1249.025, 6.050
1250.240, 33.667
1251.455, 35.378
1252.670, 51.874
1253.885, 9.655
1255.099, 31.881
1256.313, 19.473
1257.527, 38.078
1258.741, 73.517
1259.955, 12.211
1261.168, 6.073
1262.382, 46.198
1263.595, 84.566
1264.808, 59.159
1266.021, 4.646
1267.233, 5.590
1268.446, 22.886
1269.658, 46.334
1270.870, 22.969
1272.082, 17.712
1273.294, 10.500
1274.505, 13.538
1275.716, 2.420
1276.928, 26.474
1278.139, 26.981
1279.349, 37.352
1280.560, 36.674
1281.770, 41.466
1282.981, 34.295
1284.191, 52.152
1285.401, 38.305
1286.610, 9.556
1287.820, 41.190
1289.029, 21.080
1290.239, 71.900
1291.448, 54.556
1292.656, 24.124
1293.865, 60.637
1295.073, 23.030
1296.282, 21.147
1297.490, 23.542
1298.698, 50.909
1299.906, 37.249
1301.113, 29.563
1302.320, 34.074
1303.528, 26.420
1304.735, 30.170
1305.942, 46.801
1307.148, 56.653
1308.355, 54.556
1309.561, 21.002
1310.767, 30.685
1311.973, 48.102
1313.179, 2.899
1314.384, 26.974
1315.590, 23.191
1316.795, 36.816
1318.000, 37.446
1319.205, 3.677
1320.410, 32.148
1321.614, 0.060
1322.819, 60.923
1324.023, 29.647
1325.227, 58.341
1326.431, 47.966
1327.634, 16.600
1328.838, 60.203
1330.041, 95.979
1331.244, 37.529
1332.447, 54.150
1333.650, 6.636
1334.852, 33.077
1336.055, 20.482
1337.257, 70.853
1338.459, 37.536
1339.661, 41.850
1340.862, 41.135
1342.064, 68.391
1343.265, 49.619
1344.466, 52.818
1345.667, 16.990
1346.868, 84.129
1348.068, 114.051
1349.269, 41.171
1350.469, 62.225
1351.669, 35.251
1352.869, 1.243
1354.069, 94.200
1355.268, 70.131
1356.468, 114.029
1357.667, 102.897
1358.866, 60.711
1360.065, 111.530
1361.263, 96.282
1362.462, 107.303
1363.660, 111.810
1364.858, 117.823
1366.056, 107.508
1367.254, 80.164
1368.451, 88.718
1369.649, 37.374
1370.846, 80.906
1372.043, 74.465
1373.240, 128.368
1374.436, 104.126
1375.633, 95.374
1376.829, 36.774
1378.025, 47.913
1379.221, 128.000
1380.417, 37.280
1381.613, 116.967
1382.808, 69.088
1384.003, 82.906
1385.199, 70.314
1386.393, 42.525
1387.588, 82.400
1388.783, 46.954
1389.977, 114.585
1391.171, 87.304
1392.365, 56.809
1393.559, 86.449
1394.753, 60.880
1395.946, 118.177
1397.140, 105.520
1398.333, 82.031
1399.526, 48.682
1400.719, 53.040
1401.911, 73.856
1403.104, 29.169
1404.296, 25.394
1405.488, 102.779
1406.680, 63.463
1407.872, 26.281
1409.063, 131.038
1410.255, 75.738
1411.446, 52.557
1412.637, 27.434
1413.828, 119.688
1415.018, 109.630
1416.209, 133.536
1417.399, 125.668
1418.589, 114.156
1419.779, 53.073
1420.969, 97.987
1422.159, 41.190
1423.348, 70.426
1424.537, 79.559
1425.726, 46.978
1426.915, 49.393
1428.104, 20.700
1429.293, 0.228
1430.481, 27.976
1431.669, 16.862
1432.857, 34.364
1434.045, 47.334
1435.233, 58.947
1436.420, 65.240
1437.608, 70.752
1438.795, 70.695
1439.982, 68.716
1441.169, 79.052
1442.355, 71.945
1443.542, 93.086
1444.728, 73.380
1445.914, 55.305
1447.100, 95.285
1448.286, 91.826
1449.472, 67.882
1450.657, 76.730
1451.842, 115.069
1453.027, 84.030
1454.212, 108.280
1455.397, 31.097
1456.581, 133.194
1457.766, 141.982
1458.950, 94.250
1460.134, 61.684
1461.318, 38.298
1462.501, 51.174
1463.685, 131.888
1464.868, 3.617
1466.051, 123.083
1467.234, 51.541
1468.417, 52.849
1469.600, 133.392
1470.782, 101.891
1471.965, 2.004
1473.147, 37.017
1474.329, 12.424
1475.510, 41.164
1476.692, 80.708
1477.873, 66.485
1479.055, 77.349
1480.236, 65.104
1481.416, 57.434
1482.597, 50.764
1483.778, 34.047
1484.958, 107.179
1486.138, 63.392
1487.318, 92.575
1488.498, 102.761
1489.678, 101.575
1490.857, 15.749
1492.037, 70.901
1493.216, 40.842
1494.395, 76.883
1495.574, 63.014
1496.752, 21.162
1497.931, 59.161
1499.109, 56.582
1500.287, 28.675
1501.465, 8.920
1502.643, 51.186
1503.820, 41.438
1504.998, 1.692
1506.175, 62.946
1507.352, 19.908
1508.529, 51.182
1509.706, 47.573
1510.882, 5.049
1512.059, 65.717
1513.235, 36.930
1514.411, 39.563
1515.587, 2.683
