##NAMES=Magnesio-hastingsite
##RRUFFID=R040010
##IDEAL CHEMISTRY=NaCa_2_(Mg_4_Fe^3+^)Si_6_Al_2_O_22_(OH)_2_
##LOCALITY=Amity, New York, USA
##OWNER=RRUFF
##SOURCE=University of Arizona Mineral Museum
##DESCRIPTION=Group of black prismatic crystals
##STATUS=The identification of this mineral has been confirmed by X-ray diffraction and chemical analysis
##URL=rruff.info/R040010
##MEASURED CHEMISTRY=(Na_0.50_K_0.43_[box]_0.07_)_Σ=1_(Ca_1.77_Na_0.23_)_Σ=2_(Mg_1.74_Fe_1.22_Fe^3+^_0.79_Mn_0.57_Al_0.30_Zn_0.25_Ti_0.13_)_Σ=5_(Si_5.95_Al_2.05_)_Σ=8_O_22_((OH)_1.75_F_0.22_Cl_0.03_)_Σ=2_; OH estimated by charge balance
##PIN_ID=L00198
##ORIENTATION=Laser parallel to c [0 0 1]. Fiducial mark perpendicular to laser is parallel to -b* (0 -1 0)
190.4400, 0.0000000E+00
191.6680, 8.244141
192.8960, 240.7793
194.1230, 68.08789
195.3500, 119.7559
196.5770, 3.322266
197.8030, 50.59766
199.0300, 558.0312
200.2560, 1222.240
201.4830, 1839.170
202.7090, 2229.678
203.9340, 2705.277
205.1600, 3106.111
206.3860, 4258.756
207.6110, 5364.941
208.8360, 7037.549
210.0610, 8990.627
211.2860, 11211.37
212.5100, 13586.07
213.7350, 15947.09
214.9590, 18181.89
216.1830, 20864.00
217.4070, 22834.12
218.6310, 25449.36
219.8540, 26706.72
221.0780, 28245.73
222.3010, 28829.94
223.5240, 29021.00
224.7470, 28890.60
225.9690, 27743.48
227.1920, 25356.50
228.4140, 22939.54
229.6360, 20270.44
230.8580, 17851.04
232.0800, 15404.17
233.3020, 12999.68
234.5230, 11127.46
235.7440, 9338.402
236.9650, 7811.934
238.1860, 6591.412
239.4070, 5469.326
240.6280, 4814.090
241.8480, 4137.645
243.0680, 3674.482
244.2880, 3221.965
245.5080, 2959.146
246.7280, 2745.480
247.9470, 2375.504
249.1660, 2239.346
250.3860, 2310.012
251.6040, 1810.510
252.8230, 2051.854
254.0420, 1489.053
255.2600, 1752.113
256.4790, 1697.043
257.6970, 2148.855
258.9150, 1979.111
260.1320, 2708.420
261.3500, 1899.383
262.5670, 1840.016
263.7840, 2073.768
265.0010, 2341.879
266.2180, 2311.312
267.4350, 2540.961
268.6510, 2981.588
269.8680, 3170.086
271.0840, 3418.434
272.3000, 3814.633
273.5160, 4247.684
274.7310, 4599.613
275.9470, 4955.449
277.1620, 5449.209
278.3770, 5780.906
279.5920, 6296.555
280.8070, 6658.164
282.0210, 7127.738
283.2360, 7301.291
284.4500, 7778.820
285.6640, 7800.330
286.8780, 7938.824
288.0920, 8301.303
289.3050, 8158.770
290.5180, 8087.219
291.7320, 8420.656
292.9450, 8375.074
294.1570, 8019.467
295.3700, 7759.773
296.5830, 7930.736
297.7950, 7744.504
299.0070, 7455.484
300.2190, 7531.977
301.4310, 7019.148
302.6420, 6889.645
303.8540, 6685.648
305.0650, 6412.094
306.2760, 6002.510
307.4870, 5821.951
308.6980, 5258.406
309.9080, 5180.871
311.1190, 4904.344
312.3290, 4478.818
313.5390, 4099.291
314.7490, 3909.754
315.9580, 3530.207
317.1680, 3254.637
318.3770, 2687.023
319.5860, 2633.357
320.7950, 2113.629
322.0040, 2027.932
323.2130, 1510.295
324.4210, 1671.443
325.6290, 1497.320
326.8380, 1281.758
328.0460, 1176.553
329.2530, 1150.994
330.4610, 919.3359
331.6680, 921.2734
332.8760, 802.6348
334.0830, 896.1367
335.2890, 747.1211
336.4960, 1069.588
337.7030, 806.3359
338.9090, 912.3652
340.1150, 1158.025
341.3210, 854.8906
342.5270, 1178.432
343.7330, 1146.400
344.9380, 1339.625
346.1440, 1612.135
347.3490, 1653.348
348.5540, 1837.721
349.7590, 2145.438
350.9630, 1995.748
352.1680, 2314.168
353.3720, 2379.023
354.5760, 2606.307
355.7800, 2746.889
356.9840, 2895.785
358.1870, 3042.363
359.3910, 3195.398
360.5940, 3329.068
361.7970, 3498.951
363.0000, 3740.027
364.2030, 3818.273
365.4050, 3681.672
366.6080, 3552.205
367.8100, 3525.854
369.0120, 3444.176
370.2140, 3387.789
371.4150, 3419.371
372.6170, 3268.363
373.8180, 3343.408
375.0190, 3236.504
376.2200, 3193.637
377.4210, 2901.803
378.6220, 2828.994
379.8220, 2528.199
381.0230, 2319.416
382.2230, 2034.641
383.4230, 1858.863
384.6220, 1556.082
385.8220, 1338.291
387.0220, 1164.482
388.2210, 1115.652
389.4200, 838.7812
390.6190, 748.8594
391.8180, 435.8574
393.0160, 502.7715
394.2150, 136.5996
395.4130, 139.3457
396.6110, 65.00586
397.8090, 192.4199
399.0060, 355.9805
400.2040, 350.7188
401.4010, 461.6367
402.5980, 394.7676
403.7950, 481.0938
404.9920, 455.6387
406.1890, 360.4004
407.3860, 466.4121
408.5820, 352.5508
409.7780, 559.9492
410.9740, 606.6074
412.1700, 597.5430
413.3650, 369.7578
414.5610, 222.1895
415.7560, 130.8027
416.9510, 128.4238
418.1460, 190.5449
419.3410, 304.5625
420.5360, 569.4727
421.7300, 866.2793
422.9240, 970.9805
424.1180, 1509.576
425.3120, 1577.066
426.5060, 1757.449
427.7000, 1809.727
428.8930, 1913.896
430.0860, 2039.961
431.2790, 2035.918
432.4720, 1952.764
433.6650, 1870.504
434.8580, 1781.135
436.0500, 1727.658
437.2420, 1512.072
438.4340, 1463.377
439.6260, 1271.371
440.8180, 1294.961
442.0090, 1083.119
443.2010, 1085.865
444.3920, 1100.490
445.5830, 1131.566
446.7740, 1095.635
447.9640, 1074.668
449.1550, 962.8750
450.3450, 971.4453
451.5350, 763.8359
452.7250, 661.0352
453.9150, 679.9922
455.1050, 650.9316
456.2940, 551.7266
457.4830, 862.8164
458.6720, 482.2852
459.8610, 659.9746
461.0500, 457.6992
462.2390, 594.5312
463.4270, 273.0898
464.6150, 295.0840
465.8040, 409.3633
466.9910, 385.3535
468.1790, 326.7754
469.3670, 331.0762
470.5540, 99.25586
471.7410, 217.2695
472.9280, 65.86914
474.1150, 136.7871
475.3020, 24.24414
476.4890, 183.5508
477.6750, 147.6426
478.8610, 217.1113
480.0470, 279.8359
481.2330, 122.8320
482.4190, 145.0508
483.6040, 175.4922
484.7900, 5.230469
485.9750, 58.87695
487.1600, 139.8301
488.3450, 285.6523
489.5290, 290.3418
490.7140, 442.8984
491.8980, 471.3301
493.0820, 467.6445
494.2660, 700.8301
495.4500, 955.9004
496.6340, 936.8633
497.8170, 1052.713
499.0010, 1169.451
500.1840, 1315.074
501.3670, 1422.947
502.5500, 1540.633
503.7320, 1656.230
504.9150, 1775.377
506.0970, 1887.398
507.2790, 2037.299
508.4610, 2240.072
509.6430, 2375.721
510.8250, 2643.242
512.0060, 2863.484
513.1870, 3173.902
514.3680, 3392.037
515.5490, 3662.043
516.7300, 3956.916
517.9110, 4784.660
519.0910, 5135.273
520.2710, 5840.752
521.4510, 6495.100
522.6310, 7216.314
523.8110, 7884.965
524.9910, 8618.770
526.1700, 9260.152
527.3490, 10051.83
528.5280, 10789.37
529.7070, 11412.78
530.8860, 11775.05
532.0650, 12069.19
533.2430, 12176.20
534.4210, 12262.54
535.5990, 12432.79
536.7770, 12153.39
537.9550, 11765.85
539.1320, 11584.17
540.3100, 11000.51
541.4870, 10568.07
542.6640, 9781.457
543.8410, 9407.383
545.0170, 8848.016
546.1940, 8181.742
547.3700, 7670.592
548.5470, 6918.943
549.7230, 6548.176
550.8980, 6126.094
552.0740, 5830.541
553.2500, 5498.615
554.4250, 4760.820
555.6000, 4494.893
556.7750, 4281.807
557.9500, 3696.035
559.1250, 3623.709
560.2990, 3412.475
561.4730, 2958.432
562.6480, 2947.275
563.8220, 2673.002
564.9950, 2199.621
566.1690, 2239.145
567.3430, 2254.602
568.5160, 2042.973
569.6890, 1922.256
570.8620, 1822.428
572.0350, 1815.508
573.2070, 1753.527
574.3800, 1635.191
575.5520, 1494.395
576.7240, 1378.227
577.8960, 1336.004
579.0680, 1185.699
580.2400, 1007.332
581.4110, 1033.871
582.5830, 876.3438
583.7540, 847.7539
584.9250, 682.0625
586.0950, 686.2754
587.2660, 771.3926
588.4370, 885.4121
589.6070, 329.3418
590.7770, 73.15625
591.9470, 14.82227
593.1170, 80.32031
594.2860, 1.667969
595.4560, 143.1562
596.6250, 238.2344
597.7940, 197.1133
598.9630, 21.22852
600.1320, 19.54883
601.3000, 68.17383
602.4690, 149.8535
603.6370, 158.9355
604.8050, 439.4414
605.9730, 581.1055
607.1410, 621.8438
608.3090, 974.2188
609.4760, 1226.783
610.6430, 1495.227
611.8100, 1708.770
612.9770, 2044.832
614.1440, 2469.977
615.3110, 2960.055
616.4770, 3170.555
617.6430, 3616.148
618.8090, 4359.332
619.9750, 4868.582
621.1410, 5569.086
622.3070, 6246.445
623.4720, 6946.934
624.6370, 7678.934
625.8020, 8692.879
626.9670, 9446.367
628.1320, 10299.18
629.2970, 11183.28
630.4610, 11977.08
631.6250, 12869.32
632.7890, 13732.59
633.9530, 14541.76
635.1170, 15262.19
636.2810, 15979.41
637.4440, 16633.61
638.6070, 17283.78
639.7700, 17872.88
640.9330, 18574.91
642.0960, 18982.86
643.2590, 19425.75
644.4210, 19956.50
645.5830, 20616.30
646.7450, 20945.97
647.9070, 21493.59
649.0690, 21925.12
650.2310, 22431.59
651.3920, 22975.81
652.5530, 23788.32
653.7140, 24170.59
654.8750, 24662.80
656.0360, 25468.94
657.1970, 25368.01
658.3570, 25910.02
659.5170, 25388.96
660.6770, 25732.85
661.8370, 24672.67
662.9970, 24328.43
664.1570, 23475.13
665.3160, 22281.77
666.4750, 21212.35
667.6340, 20325.88
668.7930, 19486.34
669.9520, 18813.74
671.1110, 18055.77
672.2690, 17313.38
673.4270, 16881.62
674.5850, 16687.80
675.7430, 16496.93
676.9010, 16537.00
678.0590, 16422.03
679.2160, 16411.99
680.3730, 16128.96
681.5300, 15741.96
682.6870, 15598.01
683.8440, 14743.14
685.0010, 13758.32
686.1570, 12999.59
687.3130, 11682.94
688.4690, 10590.35
689.6250, 9210.838
690.7810, 7958.387
691.9370, 6735.051
693.0920, 5902.844
694.2470, 5130.766
695.4020, 4291.756
696.5570, 3519.783
697.7120, 3140.816
698.8670, 2640.814
700.0210, 2405.770
701.1750, 1994.684
702.3290, 1660.561
703.4830, 1435.977
704.6370, 1216.391
705.7910, 1206.176
706.9440, 978.6777
708.0970, 850.5273
709.2510, 949.1641
710.4030, 851.4609
711.5560, 853.6582
712.7090, 950.4805
713.8610, 867.2930
715.0140, 1045.439
716.1660, 804.9629
717.3180, 952.9941
718.4690, 1103.279
719.6210, 1320.471
720.7730, 1137.494
721.9240, 1422.941
723.0750, 1120.166
724.2260, 1626.148
725.3770, 1348.754
726.5270, 1211.807
727.6780, 1299.232
728.8280, 1257.316
729.9780, 1306.594
731.1280, 1223.922
732.2780, 1201.322
733.4280, 1277.842
734.5770, 1297.254
735.7260, 1253.686
736.8760, 1274.701
738.0250, 1084.217
739.1730, 1008.389
740.3220, 984.4062
741.4700, 1064.195
742.6190, 1028.133
743.7670, 982.5195
744.9150, 936.5020
746.0630, 755.6504
747.2100, 571.2441
748.3580, 310.8301
749.5050, 282.4121
750.6520, 116.0195
751.7990, 52.17969
752.9460, 58.30273
754.0930, 69.00586
755.2390, 75.32617
756.3860, 212.6016
757.5320, 159.9160
758.6780, 151.2168
759.8240, 123.4844
760.9690, 167.7441
762.1150, 35.00977
763.2600, 234.2031
764.4060, 154.4746
765.5510, 118.7910
766.6950, 7.843750
767.8400, 42.47852
768.9850, 130.1211
770.1290, 205.9473
771.2730, 287.4160
772.4170, 334.0684
773.5610, 439.7207
774.7050, 481.3652
775.8480, 464.0059
776.9920, 686.6406
778.1350, 573.2734
779.2780, 747.9023
780.4210, 747.5254
781.5640, 736.1465
782.7060, 939.7656
783.8490, 764.3828
784.9910, 761.9980
786.1330, 855.6133
787.2750, 874.2285
788.4170, 938.8438
789.5580, 950.4570
790.7000, 846.0742
791.8410, 930.6914
792.9820, 1065.312
794.1230, 925.9316
795.2640, 931.5547
796.4040, 890.1816
797.5450, 1015.812
798.6850, 1054.445
799.8250, 1092.086
800.9650, 1130.730
802.1050, 1117.379
803.2450, 1107.033
804.3840, 1143.963
805.5230, 1118.361
806.6630, 1199.037
807.8020, 1198.717
808.9400, 1225.855
810.0790, 1268.102
811.2170, 1250.809
812.3560, 1256.523
813.4940, 1248.596
814.6320, 1221.156
815.7700, 1203.719
816.9070, 1137.471
818.0450, 1092.234
819.1820, 1059.576
820.3190, 1000.168
821.4560, 981.5801
822.5930, 930.3828
823.7300, 881.1953
824.8670, 909.0156
826.0030, 791.8438
827.1390, 723.6836
828.2750, 425.5312
829.4110, 501.3887
830.5470, 596.2500
831.6820, 327.1230
832.8180, 405.0020
833.9530, 229.8867
835.0880, 175.7793
836.2230, 173.6777
837.3580, 103.5859
838.4920, 110.5020
839.6270, 11.57227
840.7610, 78.65234
841.8950, 191.7578
843.0290, 119.9492
844.1630, 109.1855
845.2960, 19.53516
846.4300, 101.7344
847.5630, 221.0410
848.6960, 232.4414
849.8290, 201.9453
850.9620, 175.5332
852.0940, 248.1914
853.2270, 123.9551
854.3590, 199.7617
855.4910, 92.65039
856.6230, 181.5625
857.7550, 190.5469
858.8870, 7.398438
860.0180, 59.64453
861.1500, 23.70117
862.2810, 43.24805
863.4120, 42.78516
864.5430, 147.1797
865.6730, 14.16797
866.8040, 66.19922
867.9340, 206.2852
869.0640, 45.41406
870.1940, 368.5996
871.3240, 322.8945
872.4540, 403.3086
873.5830, 473.8477
874.7130, 497.4395
875.8420, 659.1602
876.9710, 772.9297
878.1000, 821.7500
879.2290, 851.6406
880.3570, 1063.559
881.4860, 1044.557
882.6140, 1136.578
883.7420, 1273.619
884.8700, 1309.684
885.9980, 1321.795
887.1250, 1478.521
888.2530, 1601.027
889.3800, 1639.641
890.5070, 1851.035
891.6340, 2007.178
892.7610, 2069.803
893.8880, 2231.154
895.0140, 2298.561
896.1400, 2504.119
897.2670, 2684.973
898.3930, 2928.240
899.5180, 2966.117
900.6440, 3148.102
901.7700, 3356.467
902.8950, 3412.459
904.0200, 3474.914
905.1450, 3746.775
906.2700, 3847.861
907.3950, 3819.998
908.5190, 3752.189
909.6440, 3948.449
910.7680, 3970.734
911.8920, 3930.102
913.0160, 3983.945
914.1400, 4104.943
915.2630, 3910.404
916.3870, 3902.902
917.5100, 3810.436
918.6330, 3642.992
919.7560, 3587.576
920.8790, 3507.186
922.0010, 3457.820
923.1240, 3501.504
924.2460, 3219.219
925.3680, 3326.961
926.4900, 2994.730
927.6120, 3149.525
928.7340, 3037.344
929.8550, 3022.211
930.9760, 3029.105
932.0980, 2863.027
933.2190, 2956.975
934.3390, 3110.945
935.4600, 3054.947
936.5810, 3113.971
937.7010, 3056.020
938.8210, 3180.094
939.9410, 3036.199
941.0610, 3224.336
942.1810, 3139.494
943.3010, 3128.680
944.4200, 3206.891
945.5390, 3185.129
946.6580, 3407.391
947.7770, 3117.676
948.8960, 3346.984
950.0150, 3347.312
951.1330, 3306.666
952.2510, 3467.043
953.3690, 3378.441
954.4870, 3424.865
955.6050, 3622.307
956.7230, 3500.771
957.8400, 3587.262
958.9580, 3540.773
960.0750, 3566.305
961.1920, 3744.861
962.3090, 3797.436
963.4250, 3917.035
964.5420, 3628.648
965.6580, 3642.285
966.7740, 3722.939
967.8900, 3811.613
969.0060, 3718.307
970.1220, 3908.021
971.2380, 3823.756
972.3530, 4011.508
973.4680, 3826.279
974.5830, 4010.484
975.6980, 3980.674
976.8130, 4128.471
977.9280, 4214.531
979.0420, 4436.227
980.1560, 4402.115
981.2710, 4572.318
982.3850, 4711.729
983.4980, 4777.254
984.6120, 5024.887
985.7260, 5347.170
986.8390, 5529.062
987.9520, 5706.428
989.0650, 6066.521
990.1780, 6170.693
991.2910, 6475.018
992.4030, 6701.902
993.5160, 7113.994
994.6280, 7477.027
995.7400, 8044.438
996.8520, 8544.000
997.9640, 8948.836
999.0750, 9564.383
1000.187, 9826.285
1001.298, 10427.27
1002.409, 11087.21
1003.520, 11647.81
1004.631, 12347.03
1005.741, 12861.50
1006.852, 13385.67
1007.962, 13865.47
1009.072, 14277.35
1010.182, 14659.56
1011.292, 14924.42
1012.402, 15309.92
1013.511, 15525.12
1014.621, 15380.72
1015.730, 15568.64
1016.839, 15411.35
1017.948, 15402.87
1019.056, 15588.56
1020.165, 15363.56
1021.273, 15046.13
1022.382, 14794.52
1023.490, 14442.22
1024.598, 14088.33
1025.706, 13771.80
1026.813, 13303.25
1027.921, 13051.08
1029.028, 12664.17
1030.135, 12241.31
1031.242, 11939.74
1032.349, 11408.83
1033.456, 10829.10
1034.562, 10527.47
1035.668, 9898.324
1036.775, 9945.781
1037.881, 9239.973
1038.987, 9008.812
1040.092, 8575.865
1041.198, 8318.863
1042.303, 8149.160
1043.408, 7766.891
1044.514, 7871.877
1045.618, 7311.262
1046.723, 7107.031
1047.828, 7239.281
1048.932, 6907.574
1050.037, 6726.666
1051.141, 6646.719
1052.245, 6396.596
1053.349, 6292.857
1054.452, 6020.725
1055.556, 6021.332
1056.659, 5692.289
1057.762, 5770.168
1058.865, 5604.420
1059.968, 5464.246
1061.071, 5206.967
1062.174, 5118.094
1063.276, 5095.180
1064.378, 4896.494
1065.480, 4896.803
1066.582, 4848.740
1067.684, 4773.977
1068.786, 4675.543
1069.887, 4462.293
1070.988, 4355.270
1072.090, 4300.691
1073.191, 4246.309
1074.291, 4092.867
1075.392, 4124.338
1076.493, 3855.039
1077.593, 3930.314
1078.693, 3683.912
1079.793, 3772.375
1080.893, 3663.895
1081.993, 3881.314
1083.092, 3740.449
1084.192, 3521.010
1085.291, 3408.477
1086.390, 3230.902
1087.489, 3375.828
1088.588, 3084.768
1089.686, 3107.941
1090.785, 2919.121
1091.883, 2936.895
1092.981, 2755.324
1094.079, 2664.539
1095.177, 2638.348
1096.275, 2551.066
1097.373, 2493.801
1098.470, 2350.447
1099.567, 2274.455
1100.664, 2152.385
1101.761, 2054.525
1102.858, 1908.279
1103.954, 1752.094
1105.051, 1632.627
1106.147, 1534.275
1107.243, 1453.562
1108.339, 1343.488
1109.435, 1277.971
1110.531, 1119.656
1111.626, 1080.143
1112.722, 966.6035
1113.817, 887.1426
1114.912, 811.5566
1116.007, 764.0762
1117.101, 744.6172
1118.196, 733.1719
1119.290, 628.7578
1120.385, 642.3398
1121.479, 331.9453
1122.573, 483.5430
1123.666, 466.1484
1124.760, 205.0547
1125.853, 280.6445
1126.947, 195.2422
1128.040, 108.1270
1129.133, 192.6621
1130.226, 131.1992
1131.318, 55.83789
1132.411, 44.30664
1133.503, 66.74023
1134.596, 155.5586
1135.688, 31.93164
1136.780, 84.49023
1137.871, 28.25195
1138.963, 42.94141
1140.054, 225.9082
1141.146, 62.34570
1142.237, 30.71484
1143.328, 102.8418
1144.419, 87.92188
1145.509, 196.3555
1146.600, 167.2461
1147.690, 227.7676
1148.780, 42.82031
1149.870, 63.74414
1150.960, 51.05078
1152.050, 10.79883
1153.139, 133.6055
1154.229, 45.45508
1155.318, 264.5332
1156.407, 80.19336
1157.496, 180.4844
1158.585, 34.95117
1159.674, 164.5039
1160.762, 50.17383
1161.850, 6.533203
1162.939, 111.2129
1164.027, 79.90234
1165.114, 207.1807
1166.202, 37.80664
1167.290, 60.15234
1168.377, 90.98633
1169.464, 146.0312
1170.551, 37.02051
1171.638, 67.10938
1172.725, 102.9932
1173.812, 54.04102
1174.898, 144.2109
1175.984, 9.544922
1177.071, 22.43555
1178.157, 99.69531
1179.242, 37.36523
1180.328, 18.06250
1181.414, 138.6367
1182.499, 181.4951
1183.584, 102.8604
1184.669, 184.0781
1185.754, 20.28809
1186.839, 25.60254
1187.924, 179.4355
1189.008, 107.4746
1190.092, 190.6787
1191.177, 214.7158
1192.260, 29.96875
1193.344, 192.4971
1194.428, 101.0156
1195.512, 101.6523
1196.595, 157.2324
1197.678, 109.7715
1198.761, 242.2344
1199.844, 196.6445
1200.927, 140.4238
1202.009, 48.72070
1203.092, 82.10742
1204.174, 234.1104
1205.256, 91.22070
1206.338, 195.2686
1207.420, 105.3105
1208.502, 214.2432
1209.583, 243.1221
1210.665, 226.9473
1211.746, 247.9180
1212.827, 312.4570
1213.908, 215.0117
1214.988, 233.6465
1216.069, 240.4619
1217.149, 355.9619
1218.230, 349.4629
1219.310, 112.8594
1220.390, 284.1943
1221.470, 470.4990
1222.549, 216.7295
1223.629, 262.9014
1224.708, 356.0215
1225.787, 373.3994
1226.866, 365.4170
1227.945, 523.3838
1229.024, 401.6133
1230.103, 318.4893
1231.181, 411.3154
1232.259, 337.3994
1233.337, 317.1387
1234.415, 443.9854
1235.493, 418.6182
1236.571, 463.6709
1237.648, 275.7305
1238.726, 493.6172
1239.803, 339.7812
1240.880, 473.1709
1241.957, 553.6260
1243.034, 583.4404
1244.110, 413.8789
1245.187, 502.1309
1246.263, 486.3184
1247.339, 466.1953
1248.415, 590.9492
1249.491, 448.6992
1250.566, 444.1514
1251.642, 479.9951
1252.717, 507.7832
1253.793, 323.5195
1254.868, 432.1973
1255.943, 505.5635
1257.017, 322.1357
1258.092, 457.3105
1259.166, 550.6465
1260.241, 370.7773
1261.315, 453.6484
1262.389, 454.2773
1263.462, 302.1680
1264.536, 367.2832
1265.610, 370.7510
1266.683, 457.2607
1267.756, 599.4775
1268.829, 517.3809
1269.902, 320.4004
1270.975, 433.6572
1272.048, 388.5693
1273.120, 435.5859
1274.192, 437.6348
1275.264, 353.2559
1276.336, 504.5039
1277.408, 225.9434
1278.480, 412.5273
1279.551, 272.9023
1280.623, 408.9316
1281.694, 481.8770
1282.765, 377.4551
1283.836, 507.8555
1284.907, 197.4688
1285.977, 314.8496
1287.048, 372.6562
1288.118, 389.1953
1289.188, 196.4824
1290.258, 275.2383
1291.328, 247.7812
1292.398, 209.3086
1293.467, 317.4805
1294.537, 150.7559
1295.606, 259.2188
1296.675, 497.1641
1297.744, 207.9297
1298.813, 158.6484
1299.882, 445.6055
1300.950, 226.4375
1302.018, 510.4727
1303.086, 92.49414
1304.155, 220.2168
1305.222, 240.5020
1306.290, 380.3594
1307.358, 357.6973
1308.425, 422.9590
1309.492, 105.3789
1310.559, 242.7949
1311.626, 338.4844
1312.693, 136.6133
1313.760, 256.0977
1314.826, 335.8047
1315.893, 202.1191
1316.959, 380.4727
1318.025, 233.4141
1319.091, 303.7441
1320.157, 351.1387
1321.222, 165.8105
1322.288, 134.0371
1323.353, 210.7207
1324.418, 267.3652
1325.483, 165.3418
1326.548, 170.9785
1327.612, 196.2441
1328.677, 65.28711
1329.741, 170.0605
1330.806, 274.3516
1331.870, 201.3828
1332.934, 215.9570
1333.997, 296.0527
1335.061, 146.8770
1336.124, 264.2031
1337.188, 461.0469
1338.251, 304.8086
1339.314, 149.6445
1340.377, 252.5371
1341.439, 53.33008
1342.502, 144.3340
1343.564, 87.04883
1344.627, 156.7598
1345.689, 133.9258
1346.751, 280.0254
