##NAMES=Magnesio-hastingsite
##RRUFFID=R040010
##IDEAL CHEMISTRY=NaCa_2_(Mg_4_Fe^3+^)Si_6_Al_2_O_22_(OH)_2_
##LOCALITY=Amity, New York, USA
##OWNER=RRUFF
##SOURCE=University of Arizona Mineral Museum
##DESCRIPTION=Group of black prismatic crystals
##STATUS=The identification of this mineral has been confirmed by X-ray diffraction and chemical analysis
##URL=rruff.info/R040010
##MEASURED CHEMISTRY=(Na_0.50_K_0.43_[box]_0.07_)_Σ=1_(Ca_1.77_Na_0.23_)_Σ=2_(Mg_1.74_Fe_1.22_Fe^3+^_0.79_Mn_0.57_Al_0.30_Zn_0.25_Ti_0.13_)_Σ=5_(Si_5.95_Al_2.05_)_Σ=8_O_22_((OH)_1.75_F_0.22_Cl_0.03_)_Σ=2_; OH estimated by charge balance
##PIN_ID=L00361
##ORIENTATION=Laser parallel to -b* (0 -1 0). Fiducial mark perpendicular to laser is parallel to c [0 0 1]
173.2350, 0.0000000E+00
174.4650, 0.8066410
175.6950, 66.49023
176.9250, 43.13672
178.1550, 74.38672
179.3840, 2.273438
180.6130, 196.8242
181.8420, 208.7031
183.0710, 336.8945
184.3000, 225.2734
185.5280, 185.1992
186.7570, 155.6094
187.9850, 5.312500
189.2130, 2.304688
190.4400, 92.53125
191.6680, 68.86328
192.8960, 62.39844
194.1230, 64.03906
195.3500, 19.15625
196.5770, 442.6680
197.8030, 287.3164
199.0300, 1146.863
200.2560, 1737.094
201.4830, 2387.812
202.7090, 2274.840
203.9340, 2101.023
205.1600, 2677.215
206.3860, 3341.281
207.6110, 4347.109
208.8360, 5768.582
210.0610, 7330.609
211.2860, 9259.113
212.5100, 11495.06
213.7350, 13050.45
214.9590, 15125.28
216.1830, 16627.48
217.4070, 18592.95
218.6310, 20014.70
219.8540, 21539.32
221.0780, 22304.09
222.3010, 22465.83
223.5240, 22447.48
224.7470, 21603.98
225.9690, 20902.31
227.1920, 19846.41
228.4140, 17677.24
229.6360, 15931.78
230.8580, 14298.98
232.0800, 13006.83
233.3020, 11385.29
234.5230, 10182.33
235.7440, 8840.930
236.9650, 8400.066
238.1860, 7828.719
239.4070, 7002.863
240.6280, 6637.480
241.8480, 6173.555
243.0680, 5903.066
244.2880, 5785.012
245.5080, 5521.398
246.7280, 5156.250
247.9470, 5461.422
249.1660, 5026.227
250.3860, 5125.883
251.6040, 5075.625
252.8230, 4814.441
254.0420, 4658.398
255.2600, 4612.355
256.4790, 5179.801
257.6970, 6235.379
258.9150, 5704.020
260.1320, 5859.703
261.3500, 5255.473
262.5670, 4983.336
263.7840, 5022.293
265.0010, 5002.359
266.2180, 5200.535
267.4350, 5373.492
268.6510, 5594.422
269.8680, 5977.777
271.0840, 6196.438
272.3000, 6682.227
273.5160, 7059.145
274.7310, 7267.191
275.9470, 8094.367
277.1620, 8412.668
278.3770, 8655.102
279.5920, 9577.656
280.8070, 10016.33
282.0210, 10771.14
283.2360, 11104.07
284.4500, 11567.12
285.6640, 11866.29
286.8780, 12185.57
288.0920, 12461.97
289.3050, 12700.78
290.5180, 12964.11
291.7320, 13093.83
292.9450, 13296.67
294.1570, 13393.60
295.3700, 13151.63
296.5830, 12820.76
297.7950, 12720.98
299.0070, 12531.29
300.2190, 12186.69
301.4310, 11784.18
302.6420, 11419.75
303.8540, 11022.19
305.0650, 10588.14
306.2760, 10272.96
307.4870, 9985.844
308.6980, 9738.809
309.9080, 9140.840
311.1190, 8722.945
312.3290, 8069.133
313.5390, 7931.492
314.7490, 7290.312
315.9580, 6957.891
317.1680, 6489.270
318.3770, 6171.816
319.5860, 5695.801
320.7950, 5144.637
322.0040, 4755.801
323.2130, 4529.047
324.4210, 4099.215
325.6290, 4140.895
326.8380, 3678.914
328.0460, 3494.805
329.2530, 3035.613
330.4610, 2965.480
331.6680, 2816.070
332.8760, 2523.199
334.0830, 2447.566
335.2890, 2372.172
336.4960, 2523.594
337.7030, 2572.980
338.9090, 2459.148
340.1150, 2318.188
341.3210, 2384.133
342.5270, 2671.336
343.7330, 2479.816
344.9380, 2484.555
346.1440, 2229.539
347.3490, 2673.762
348.5540, 2656.207
349.7590, 2685.867
350.9630, 2757.734
352.1680, 2819.793
353.3720, 2959.039
354.5760, 3245.465
355.7800, 3399.059
356.9840, 3541.816
358.1870, 3790.730
359.3910, 3968.797
360.5940, 4007.002
361.7970, 4031.344
363.0000, 4435.816
364.2030, 4464.408
365.4050, 4363.123
366.6080, 4677.945
367.8100, 5033.881
369.0120, 4978.914
370.2140, 5098.049
371.4150, 5082.279
372.6170, 5125.600
373.8180, 5145.898
375.0190, 5308.500
376.2200, 5180.070
377.4210, 5123.717
378.6220, 5201.441
379.8220, 4833.230
381.0230, 4805.090
382.2230, 4392.016
383.4230, 4396.000
384.6220, 4579.045
385.8220, 4041.148
387.0220, 3973.303
388.2210, 3507.510
389.4200, 3609.766
390.6190, 3370.068
391.8180, 3067.416
393.0160, 2880.805
394.2150, 2496.236
395.4130, 2083.697
396.6110, 2244.191
397.8090, 2190.707
399.0060, 1841.244
400.2040, 1733.795
401.4010, 1658.359
402.5980, 1578.932
403.7950, 1533.514
404.9920, 1365.105
406.1890, 1426.709
407.3860, 1405.318
408.5820, 1216.934
409.7780, 1409.559
410.9740, 1461.189
412.1700, 1628.828
413.3650, 1892.473
414.5610, 1951.125
415.7560, 2172.781
416.9510, 2461.441
418.1460, 2586.107
419.3410, 3028.779
420.5360, 3241.451
421.7300, 3696.127
422.9240, 3666.809
424.1180, 3894.486
425.3120, 4181.168
426.5060, 4455.854
427.7000, 4230.537
428.8930, 4391.215
430.0860, 4460.896
431.2790, 3712.572
432.4720, 3511.246
433.6650, 3348.916
434.8580, 2938.578
436.0500, 2649.236
437.2420, 2522.887
438.4340, 2095.529
439.6260, 1771.164
440.8180, 1614.787
442.0090, 1588.402
443.2010, 1457.004
444.3920, 1236.594
445.5830, 804.1719
446.7740, 854.7383
447.9640, 518.5703
449.1550, 509.9980
450.3450, 212.0566
451.5350, 241.7871
452.7250, 197.2070
453.9150, 206.5273
455.1050, 191.9590
456.2940, 160.9785
457.4830, 87.50000
458.6720, 87.08594
459.8610, 34.30273
461.0500, 10.37695
462.2390, 109.1992
463.4270, 140.2910
464.6150, 128.4531
465.8040, 285.7031
466.9910, 219.5488
468.1790, 344.8203
469.3670, 380.2031
470.5540, 431.0938
471.7410, 483.2715
472.9280, 376.7715
474.1150, 488.5410
475.3020, 534.6426
476.4890, 324.1074
477.6750, 396.8262
478.8610, 509.8398
480.0470, 75.20312
481.2330, 86.30273
482.4190, 46.75977
483.6040, 188.1406
484.7900, 292.4863
485.9750, 536.7949
487.1600, 644.0664
488.3450, 871.3047
489.5290, 1028.504
490.7140, 1317.662
491.8980, 1394.779
493.0820, 1813.854
494.2660, 1715.883
495.4500, 2114.869
496.6340, 2414.809
497.8170, 2705.701
499.0010, 3272.543
500.1840, 3159.338
501.3670, 3571.084
502.5500, 3557.777
503.7320, 4021.418
504.9150, 4280.008
506.0970, 4621.543
507.2790, 4942.020
508.4610, 5214.443
509.6430, 5652.812
510.8250, 6015.123
512.0060, 6486.887
513.1870, 6844.570
514.3680, 7535.707
515.5490, 7975.783
516.7300, 8585.799
517.9110, 9428.758
519.0910, 10190.65
520.2710, 11146.48
521.4510, 12306.25
522.6310, 13283.96
523.8110, 14443.60
524.9910, 15482.17
526.1700, 16436.69
527.3490, 17475.13
528.5280, 18117.78
529.7070, 19016.83
530.8860, 19210.08
532.0650, 19677.26
533.2430, 19954.38
534.4210, 20068.42
535.5990, 19728.40
536.7770, 19129.31
537.9550, 18768.15
539.1320, 18065.92
540.3100, 17663.63
541.4870, 16527.28
542.6640, 15991.86
543.8410, 14859.36
545.0170, 14345.80
546.1940, 13243.17
547.3700, 12322.50
548.5470, 11941.80
549.7230, 11078.12
550.8980, 10877.43
552.0740, 9908.791
553.2500, 9221.184
554.4250, 8752.590
555.6000, 8371.055
556.7750, 7650.568
557.9500, 7429.152
559.1250, 6827.789
560.2990, 6576.438
561.4730, 6183.104
562.6480, 5836.773
563.8220, 5365.414
564.9950, 4945.061
566.1690, 4824.707
567.3430, 4620.340
568.5160, 4360.918
569.6890, 4237.465
570.8620, 4006.539
572.0350, 3733.357
573.2070, 3627.764
574.3800, 3195.055
575.5520, 3011.266
576.7240, 2825.402
577.8960, 2586.461
579.0680, 2368.441
580.2400, 2311.346
581.4110, 1792.172
582.5830, 1953.922
583.7540, 1608.594
584.9250, 1213.182
586.0950, 1091.693
587.2660, 732.1270
588.4370, 494.4824
589.6070, 531.7461
590.7770, 229.9160
591.9470, 208.9453
593.1170, 99.17188
594.2860, 239.9590
595.4560, 352.3516
596.6250, 504.5449
597.7940, 400.2441
598.9630, 353.3887
600.1320, 474.9629
601.3000, 218.0215
602.4690, 144.8613
603.6370, 300.5605
604.8050, 337.6465
605.9730, 126.4980
607.1410, 180.2832
608.3090, 608.7949
609.4760, 555.1465
610.6430, 927.9863
611.8100, 1066.354
612.9770, 1487.176
614.1440, 1873.422
615.3110, 2232.404
616.4770, 2686.254
617.6430, 3275.090
618.8090, 3869.141
619.9750, 4543.895
621.1410, 5342.723
622.3070, 6073.299
623.4720, 6874.178
624.6370, 7734.402
625.8020, 8396.605
626.9670, 9576.754
628.1320, 10444.85
629.2970, 11438.90
630.4610, 12263.89
631.6250, 12992.82
632.7890, 13919.71
633.9530, 14574.55
635.1170, 15495.33
636.2810, 16026.06
637.4440, 16872.74
638.6070, 17648.37
639.7700, 18117.95
640.9330, 18896.47
642.0960, 19390.95
643.2590, 19640.38
644.4210, 20573.75
645.5830, 20908.08
646.7450, 21247.36
647.9070, 21933.59
649.0690, 22579.77
650.2310, 22909.91
651.3920, 23762.99
652.5530, 23957.03
653.7140, 24859.01
654.8750, 25260.96
656.0360, 25826.86
657.1970, 26320.71
658.3570, 26287.51
659.5170, 25958.27
660.6770, 25844.99
661.8370, 25152.66
662.9970, 24221.29
664.1570, 23360.87
665.3160, 22699.41
666.4750, 21869.29
667.6340, 22049.35
668.7930, 20708.76
669.9520, 19004.13
671.1110, 18978.46
672.2690, 18527.74
673.4270, 18289.99
674.5850, 18162.20
675.7430, 18357.36
676.9010, 18467.48
678.0590, 18862.57
679.2160, 18422.62
680.3730, 18231.15
681.5300, 18174.12
682.6870, 17582.05
683.8440, 16345.95
685.0010, 15600.04
686.1570, 14455.30
687.3130, 12878.14
688.4690, 12053.40
689.6250, 10437.26
690.7810, 9045.541
691.9370, 7958.926
693.0920, 7220.596
694.2470, 6491.938
695.4020, 5806.145
696.5570, 5291.689
697.7120, 4688.168
698.8670, 4498.994
700.0210, 4076.592
701.1750, 4039.908
702.3290, 4080.109
703.4830, 3840.084
704.6370, 4027.562
705.7910, 3964.414
706.9440, 4293.115
708.0970, 4396.717
709.2510, 4694.900
710.4030, 4858.797
711.5560, 5154.693
712.7090, 5599.488
713.8610, 5717.234
715.0140, 5951.938
716.1660, 6267.590
717.3180, 6403.195
718.4690, 6745.754
719.6210, 6945.270
720.7730, 7091.738
721.9240, 7103.162
723.0750, 7449.545
724.2260, 7409.881
725.3770, 7730.176
726.5270, 7590.430
727.6780, 8013.357
728.8280, 7848.631
729.9780, 8206.221
731.1280, 8178.084
732.2780, 8144.199
733.4280, 8041.359
734.5770, 7933.152
735.7260, 7973.693
736.8760, 7632.498
738.0250, 7492.172
739.1730, 7299.158
740.3220, 6971.824
741.4700, 7116.871
742.6190, 6471.000
743.7670, 6133.154
744.9150, 6126.348
746.0630, 5713.033
747.2100, 5005.062
748.3580, 4916.080
749.5050, 4376.471
750.6520, 4088.998
751.7990, 3726.682
752.9460, 3150.496
754.0930, 3173.467
755.2390, 2478.609
756.3860, 2687.871
757.5320, 2185.273
758.6780, 2026.844
759.8240, 1935.471
760.9690, 1634.117
762.1150, 1614.791
763.2600, 1597.473
764.4060, 1523.158
765.5510, 1452.854
766.6950, 1442.557
767.8400, 1489.449
768.9850, 1543.992
770.1290, 1631.723
771.2730, 1660.463
772.4170, 1666.219
773.5610, 1574.984
774.7050, 1612.645
775.8480, 1760.557
776.9920, 1561.361
778.1350, 1718.182
779.2780, 1604.016
780.4210, 1818.865
781.5640, 1618.730
782.7060, 1351.613
783.8490, 1394.508
784.9910, 1619.426
786.1330, 1589.363
787.2750, 1470.316
788.4170, 1338.289
789.5580, 1427.283
790.7000, 1227.428
791.8410, 1484.330
792.9820, 1190.387
794.1230, 1095.465
795.2640, 1561.564
796.4040, 1070.689
797.5450, 1374.838
798.6850, 1231.010
799.8250, 894.2051
800.9650, 759.4258
802.1050, 716.6699
803.2450, 648.9414
804.3840, 552.2383
805.5230, 604.5625
806.6630, 719.9141
807.8020, 611.2910
808.9400, 444.6953
810.0790, 697.1309
811.2170, 461.5977
812.3560, 451.0898
813.4940, 304.6133
814.6320, 232.1641
815.7700, 222.7480
816.9070, 45.63672
818.0450, 77.97266
819.1820, 264.6152
820.3190, 150.2910
821.4560, 14.00000
822.5930, 88.27148
823.7300, 195.5605
824.8670, 308.6152
826.0030, 303.3906
827.1390, 455.9863
828.2750, 411.7793
829.4110, 338.7480
830.5470, 526.8477
831.6820, 479.1816
832.8180, 570.7188
833.9530, 500.5059
835.0880, 353.5059
836.2230, 368.6426
837.3580, 333.8125
838.4920, 192.3184
839.6270, 333.7695
840.7610, 328.3359
841.8950, 268.0176
843.0290, 91.78125
844.1630, 195.5430
845.2960, 150.3535
846.4300, 100.8105
847.5630, 57.97852
848.6960, 108.2480
849.8290, 61.51367
850.9620, 115.8281
852.0940, 368.1855
853.2270, 369.5898
854.3590, 463.0391
855.4910, 640.5352
856.6230, 701.0762
857.7550, 735.6680
858.8870, 796.3066
860.0180, 848.9922
861.1500, 1097.729
862.2810, 1063.514
863.4120, 1004.348
864.5430, 1251.240
865.6730, 1496.189
866.8040, 1501.221
867.9340, 1774.340
869.0640, 1675.619
870.1940, 2042.090
871.3240, 2203.789
872.4540, 2283.785
873.5830, 2331.023
874.7130, 2457.490
875.8420, 2611.217
876.9710, 2763.139
878.1000, 2744.268
879.2290, 2811.637
880.3570, 2913.303
881.4860, 2908.740
882.6140, 2957.041
883.7420, 2959.107
884.8700, 2949.281
885.9980, 2960.582
887.1250, 2986.973
888.2530, 3019.080
889.3800, 3064.979
890.5070, 3148.078
891.6340, 3256.443
892.7610, 3399.326
893.8880, 3559.285
895.0140, 3638.324
896.1400, 3798.990
897.2670, 4046.648
898.3930, 4098.965
899.5180, 4459.402
900.6440, 4685.977
901.7700, 5003.637
902.8950, 5163.410
904.0200, 5493.242
905.1450, 5977.217
906.2700, 6421.289
907.3950, 6656.461
908.5190, 7161.709
909.6440, 7396.014
910.7680, 7732.379
911.8920, 7854.807
913.0160, 8091.852
914.1400, 8188.912
915.2630, 8470.584
916.3870, 8540.371
917.5100, 8527.980
918.6330, 8393.156
919.7560, 8333.219
920.8790, 8113.346
922.0010, 7870.531
923.1240, 7455.777
924.2460, 7352.078
925.3680, 6748.438
926.4900, 6827.850
927.6120, 6583.332
928.7340, 6130.922
929.8550, 5949.566
930.9760, 5733.262
932.0980, 5671.023
933.2190, 5605.846
934.3390, 5695.721
935.4600, 5550.688
936.5810, 5468.633
937.7010, 5405.680
938.8210, 5251.781
939.9410, 5286.936
941.0610, 5182.145
942.1810, 5122.408
943.3010, 5084.729
944.4200, 5051.113
945.5390, 5063.547
946.6580, 5066.033
947.7770, 5268.566
948.8960, 5293.148
950.0150, 5219.781
951.1330, 5079.461
952.2510, 5140.670
953.3690, 5112.447
954.4870, 5057.275
955.6050, 4962.154
956.7230, 5134.836
957.8400, 5047.381
958.9580, 4680.348
960.0750, 4898.908
961.1920, 4738.881
962.3090, 4727.445
963.4250, 4661.918
964.5420, 4850.111
965.6580, 4799.652
966.7740, 4856.336
967.8900, 4684.439
969.0060, 4779.125
970.1220, 4842.219
971.2380, 4550.555
972.3530, 4605.180
973.4680, 4778.934
974.5830, 5141.932
975.6980, 4864.434
976.8130, 5054.574
977.9280, 5154.883
979.0420, 5231.730
980.1560, 5606.148
981.2710, 5688.303
982.3850, 5968.467
983.4980, 6390.746
984.6120, 6569.086
985.7260, 6465.492
986.8390, 6703.961
987.9520, 7009.492
989.0650, 7559.082
990.1780, 7850.734
991.2910, 8083.447
992.4030, 8330.217
993.5160, 8755.047
994.6280, 9419.934
995.7400, 9543.881
996.8520, 10307.88
997.9640, 10633.95
999.0750, 11359.07
1000.187, 11527.24
1001.298, 12231.47
1002.409, 12673.40
1003.520, 13301.74
1004.631, 13504.29
1005.741, 14261.03
1006.852, 14635.72
1007.962, 14842.75
1009.072, 15302.35
1010.182, 15953.53
1011.292, 16068.86
1012.402, 16125.31
1013.511, 16134.04
1014.621, 16237.31
1015.730, 16156.40
1016.839, 16150.78
1017.948, 16051.68
1019.056, 15894.39
1020.165, 15433.77
1021.273, 15567.02
1022.382, 15043.90
1023.490, 14908.97
1024.598, 14449.95
1025.706, 14234.48
1026.813, 13837.43
1027.921, 13103.84
1029.028, 12922.74
1030.135, 12769.38
1031.242, 12088.05
1032.349, 11803.68
1033.456, 11407.35
1034.562, 10770.51
1035.668, 10427.62
1036.775, 10087.23
1037.881, 10570.99
1038.987, 9585.582
1040.092, 9198.707
1041.198, 9561.141
1042.303, 8783.559
1043.408, 8600.152
1044.514, 8250.465
1045.618, 8106.576
1046.723, 7892.109
1047.828, 7765.410
1048.932, 7602.426
1050.037, 7593.066
1051.141, 7585.691
1052.245, 7572.494
1053.349, 7371.551
1054.452, 6992.754
1055.556, 6863.891
1056.659, 6740.117
1057.762, 6403.604
1058.865, 6278.951
1059.968, 6297.664
1061.071, 6261.121
1062.174, 6050.627
1063.276, 5910.254
1064.378, 5506.580
1065.480, 5531.289
1066.582, 5457.701
1067.684, 5525.801
1068.786, 5384.305
1069.887, 5235.084
1070.988, 5141.912
1072.090, 4917.781
1073.191, 4824.643
1074.291, 4698.324
1075.392, 4686.531
1076.493, 4625.328
1077.593, 4602.531
1078.693, 4583.824
1079.793, 4383.027
1080.893, 4359.023
1081.993, 4229.775
1083.092, 4207.980
1084.192, 4038.238
1085.291, 3892.184
1086.390, 3879.943
1087.489, 3770.377
1088.588, 3693.762
1089.686, 3521.654
1090.785, 3584.543
1091.883, 3356.303
1092.981, 3380.199
1094.079, 3370.236
1095.177, 3174.336
1096.275, 2920.668
1097.373, 2856.975
1098.470, 2744.518
1099.567, 2794.105
1100.664, 2639.102
1101.761, 2425.896
1102.858, 2279.777
1103.954, 2170.688
1105.051, 2199.965
1106.147, 1850.908
1107.243, 1971.977
1108.339, 2007.557
1109.435, 1962.668
1110.531, 1596.764
1111.626, 1646.143
1112.722, 1528.512
1113.817, 1404.533
1114.912, 1512.170
1116.007, 1192.900
1117.101, 1297.154
1118.196, 1232.105
1119.290, 1244.641
1120.385, 1088.953
1121.479, 985.7461
1122.573, 1049.498
1123.666, 1020.291
1124.760, 845.3008
1125.853, 861.9023
1126.947, 536.7090
1128.040, 511.4180
1129.133, 615.9355
1130.226, 449.1523
1131.318, 468.7148
1132.411, 417.1504
1133.503, 44.03516
1134.596, 230.6816
1135.688, 174.8789
1136.780, 114.7441
1137.871, 179.2637
1138.963, 118.8008
1140.054, 404.9258
1141.146, 120.0098
1142.237, 106.1191
1143.328, 72.45508
1144.419, 232.9062
1145.509, 78.55273
1146.600, 168.3203
1147.690, 217.2559
1148.780, 142.8945
1149.870, 232.1797
1150.960, 80.50195
1152.050, 48.87500
1153.139, 162.3457
1154.229, 210.2168
1155.318, 142.2910
1156.407, 116.5371
1157.496, 24.93945
1158.585, 61.45508
1159.674, 19.09961
1160.762, 107.8574
1161.850, 137.7441
1162.939, 198.4688
1164.027, 260.4258
1165.114, 42.94727
1166.202, 167.5996
1167.290, 43.55273
1168.377, 253.3887
1169.464, 105.2305
1170.551, 95.92188
1171.638, 3.439453
1172.725, 69.92383
1173.812, 65.20117
1174.898, 42.85156
1175.984, 51.75781
1177.071, 171.4980
1178.157, 95.28320
1179.242, 144.0254
1180.328, 46.46484
1181.414, 39.14453
1182.499, 183.9043
1183.584, 57.11523
1184.669, 87.03125
1185.754, 129.8555
1186.839, 125.5879
1187.924, 109.2324
1189.008, 247.7832
1190.092, 18.25586
1191.177, 88.39844
1192.260, 215.7656
1193.344, 202.8457
1194.428, 52.83984
1195.512, 110.7227
1196.595, 241.5117
1197.678, 156.2148
1198.761, 165.8281
1199.844, 92.34766
1200.927, 188.7832
1202.009, 185.1133
1203.092, 186.7637
1204.174, 124.9141
1205.256, 156.9648
1206.338, 100.9219
1207.420, 205.7734
1208.502, 262.7930
1209.583, 521.4707
1210.665, 330.4531
1211.746, 253.3203
1212.827, 414.7500
1213.908, 262.0957
1214.988, 336.3516
1216.069, 378.5234
1217.149, 241.6465
1218.230, 442.6426
1219.310, 357.8203
1220.390, 342.1270
1221.470, 380.8711
1222.549, 362.5312
1223.629, 344.1055
1224.708, 351.7637
1225.787, 639.2129
1226.866, 338.5293
1227.945, 547.7539
1229.024, 567.1445
1230.103, 492.2090
1231.181, 672.3047
1232.259, 560.1992
1233.337, 670.2676
1234.415, 494.0703
1235.493, 527.7070
1236.571, 455.7773
1237.648, 586.2305
1238.726, 644.0645
1239.803, 447.3457
1240.880, 454.5332
1241.957, 598.1934
1243.034, 478.3496
1244.110, 486.4375
1245.187, 482.2617
1246.263, 417.9961
1247.339, 474.2441
1248.415, 426.0918
1249.491, 585.6348
1250.566, 412.9980
1251.642, 528.4395
1252.717, 597.6211
1253.793, 573.7129
1254.868, 589.7168
1255.943, 425.6152
1257.017, 558.4375
1258.092, 505.1719
1259.166, 633.3066
1260.241, 581.8633
1261.315, 682.3301
1262.389, 415.3496
1263.462, 634.0273
1264.536, 676.2266
1265.610, 467.1797
1266.683, 600.9023
1267.756, 458.0527
1268.829, 542.4102
1269.902, 539.1641
1270.975, 581.3789
1272.048, 639.3008
1273.120, 742.0723
1274.192, 611.0020
1275.264, 625.1016
1276.336, 626.0879
1277.408, 431.6641
1278.480, 578.7461
1279.551, 483.1172
1280.623, 586.0918
1281.694, 403.6816
1282.765, 557.5977
1283.836, 491.6582
1284.907, 541.3809
1285.977, 773.7734
1287.048, 530.5488
1288.118, 506.9746
1289.188, 788.8828
1290.258, 477.9180
1291.328, 362.7148
1292.398, 353.4316
1293.467, 512.0625
1294.537, 529.5352
1295.606, 432.6152
1296.675, 690.1562
1297.744, 556.8379
1298.813, 427.8457
1299.882, 444.7090
1300.950, 608.6113
1302.018, 499.5215
1303.086, 536.7617
1304.155, 585.2246
1305.222, 333.8398
1306.290, 458.4453
1307.358, 365.6211
1308.425, 553.8379
1309.492, 313.9941
1310.559, 384.8223
1311.626, 401.4199
1312.693, 489.2695
1313.760, 493.7969
1314.826, 509.8945
1315.893, 354.8496
1316.959, 348.4863
1318.025, 350.2070
1319.091, 443.5098
1320.157, 422.0156
1321.222, 518.4121
1322.288, 380.6270
1323.353, 399.0898
1324.418, 429.1953
1325.483, 267.4551
1326.548, 316.9629
1327.612, 628.5078
1328.677, 237.7188
1329.741, 462.3203
1330.806, 139.8164
1331.870, 405.2598
