##NAMES=Magnesio-hastingsite
##RRUFFID=R040010
##IDEAL CHEMISTRY=NaCa_2_(Mg_4_Fe^3+^)Si_6_Al_2_O_22_(OH)_2_
##LOCALITY=Amity, New York, USA
##OWNER=RRUFF
##SOURCE=University of Arizona Mineral Museum
##DESCRIPTION=Group of black prismatic crystals
##STATUS=The identification of this mineral has been confirmed by X-ray diffraction and chemical analysis
##URL=rruff.info/R040010
##MEASURED CHEMISTRY=(Na_0.50_K_0.43_[box]_0.07_)_Σ=1_(Ca_1.77_Na_0.23_)_Σ=2_(Mg_1.74_Fe_1.22_Fe^3+^_0.79_Mn_0.57_Al_0.30_Zn_0.25_Ti_0.13_)_Σ=5_(Si_5.95_Al_2.05_)_Σ=8_O_22_((OH)_1.75_F_0.22_Cl_0.03_)_Σ=2_; OH estimated by charge balance
##PIN_ID=L00374
##ORIENTATION=Laser parallel to a [1 0 0]. Fiducial mark perpendicular to laser is parallel to -b* (0 -1 0)
168.3130, 0.0000000E+00
169.5440, 548.4297
170.7750, 277.6797
172.0050, 313.3984
173.2350, 3.273438
174.4650, 188.1719
175.6950, 395.1016
176.9250, 490.3281
178.1550, 744.0430
179.3840, 729.7422
180.6130, 955.8086
181.8420, 1031.555
183.0710, 927.0859
184.3000, 1410.848
185.5280, 1395.840
186.7570, 1960.117
187.9850, 1888.031
189.2130, 1846.324
190.4400, 1832.973
191.6680, 1931.035
192.8960, 1961.867
194.1230, 1915.230
195.3500, 2094.953
196.5770, 2143.883
197.8030, 2194.035
199.0300, 2329.410
200.2560, 3210.008
201.4830, 3093.836
202.7090, 2936.902
203.9340, 1733.207
205.1600, 270.7461
206.3860, 132.4727
207.6110, 142.4570
208.8360, 132.2070
210.0610, 245.5352
211.2860, 306.1914
212.5100, 877.9609
213.7350, 1373.922
214.9590, 1412.500
216.1830, 1726.598
217.4070, 2192.887
218.6310, 2412.836
219.8540, 2620.508
221.0780, 3153.203
222.3010, 3233.094
223.5240, 3322.172
224.7470, 3395.438
225.9690, 3292.891
227.1920, 3468.531
228.4140, 3182.355
229.6360, 3331.363
230.8580, 2907.547
232.0800, 2604.906
233.3020, 2367.445
234.5230, 2275.156
235.7440, 1923.043
236.9650, 1926.105
238.1860, 1934.340
239.4070, 1539.750
240.6280, 1300.340
241.8480, 1048.105
243.0680, 870.0508
244.2880, 680.1641
245.5080, 491.4375
246.7280, 289.8672
247.9470, 255.4570
249.1660, 137.8789
250.3860, 34.84766
251.6040, 147.3086
252.8230, 244.5039
254.0420, 266.5039
255.2600, 38.22656
256.4790, 73.78125
257.6970, 18.05078
258.9150, 43.18359
260.1320, 131.1211
261.3500, 126.7383
262.5670, 38.47656
263.7840, 34.81250
265.0010, 108.5977
266.2180, 15.07422
267.4350, 11.37500
268.6510, 9.625000
269.8680, 54.75781
271.0840, 12.77344
272.3000, 222.3359
273.5160, 74.55859
274.7310, 564.9062
275.9470, 640.3750
277.1620, 661.9609
278.3770, 1127.664
279.5920, 1161.488
280.8070, 1100.434
282.0210, 1407.492
283.2360, 1421.652
284.4500, 1851.930
285.6640, 1957.301
286.8780, 2047.781
288.0920, 2227.336
289.3050, 2446.977
290.5180, 2589.734
291.7320, 2558.602
292.9450, 2755.562
294.1570, 2807.637
295.3700, 2649.824
296.5830, 2505.133
297.7950, 2422.555
299.0070, 2558.090
300.2190, 2526.742
301.4310, 2389.500
302.6420, 2142.379
303.8540, 1871.371
305.0650, 1981.477
306.2760, 1800.699
307.4870, 1662.023
308.6980, 1608.469
309.9080, 1734.023
311.1190, 1432.688
312.3290, 1679.547
313.5390, 1896.766
314.7490, 1278.445
315.9580, 1287.004
317.1680, 934.4414
318.3770, 920.0078
319.5860, 659.9609
320.7950, 772.5664
322.0040, 620.2031
323.2130, 607.8672
324.4210, 483.5664
325.6290, 393.1719
326.8380, 457.7656
328.0460, 378.5977
329.2530, 98.05859
330.4610, 299.6641
331.6680, 362.2695
332.8760, 198.8828
334.0830, 421.5430
335.2890, 337.8594
336.4960, 149.2812
337.7030, 147.1914
338.9090, 206.4219
340.1150, 188.1328
341.3210, 74.94531
342.5270, 64.14844
343.7330, 161.8438
344.9380, 42.94141
346.1440, 361.1250
347.3490, 82.40625
348.5540, 60.21875
349.7590, 50.75781
350.9630, 136.2227
352.1680, 11.72266
353.3720, 210.4766
354.5760, 3.296875
355.7800, 247.1641
356.9840, 588.1211
358.1870, 393.1367
359.3910, 461.6445
360.5940, 334.3125
361.7970, 338.4922
363.0000, 625.7539
364.2030, 901.0898
365.4050, 805.4883
366.6080, 1207.969
367.8100, 1212.543
369.0120, 1575.195
370.2140, 1631.438
371.4150, 1827.758
372.6170, 1839.664
373.8180, 1836.648
375.0190, 2112.723
376.2200, 2287.871
377.4210, 2298.102
378.6220, 2285.410
379.8220, 2673.801
381.0230, 2807.273
382.2230, 2732.816
383.4230, 2772.441
384.6220, 2888.141
385.8220, 2875.918
387.0220, 3534.766
388.2210, 3406.695
389.4200, 2977.695
390.6190, 3931.773
391.8180, 2534.922
393.0160, 2401.145
394.2150, 2398.438
395.4130, 2403.289
396.6110, 1921.727
397.8090, 1897.234
399.0060, 2165.793
400.2040, 1941.957
401.4010, 2207.648
402.5980, 2013.406
403.7950, 1943.711
404.9920, 2231.578
406.1890, 2010.688
407.3860, 2064.992
408.5820, 1952.078
409.7780, 1920.234
410.9740, 2025.469
412.1700, 1838.492
413.3650, 1872.637
414.5610, 1955.555
415.7560, 1997.805
416.9510, 2320.398
418.1460, 2609.062
419.3410, 3154.797
420.5360, 3034.875
421.7300, 2664.484
422.9240, 2990.434
424.1180, 3334.457
425.3120, 3629.555
426.5060, 3833.723
427.7000, 4124.965
428.8930, 4341.277
430.0860, 4420.664
431.2790, 4364.121
432.4720, 4363.652
433.6650, 4413.254
434.8580, 4410.930
436.0500, 4516.676
437.2420, 4335.801
438.4340, 3775.383
439.6260, 3897.336
440.8180, 3800.363
442.0090, 3423.461
443.2010, 3781.633
444.3920, 3232.863
445.5830, 2720.168
446.7740, 2649.535
447.9640, 2357.969
449.1550, 2170.473
450.3450, 2198.043
451.5350, 1673.680
452.7250, 1991.379
453.9150, 1500.129
455.1050, 1658.375
456.2940, 1243.164
457.4830, 1263.957
458.6720, 875.7656
459.8610, 858.7695
461.0500, 786.5039
462.2390, 815.0234
463.4270, 580.6055
464.6150, 503.1484
465.8040, 603.2500
466.9910, 443.7891
468.1790, 551.1406
469.3670, 42.07422
470.5540, 4.968750
471.7410, 270.4609
472.9280, 575.3906
474.1150, 303.1367
475.3020, 585.9375
476.4890, 483.7891
477.6750, 310.7031
478.8610, 756.6680
480.0470, 679.6992
481.2330, 943.7227
482.4190, 945.8633
483.6040, 1103.062
484.7900, 1409.316
485.9750, 1358.785
487.1600, 1542.148
488.3450, 1445.574
489.5290, 1682.055
490.7140, 2036.590
491.8980, 2130.418
493.0820, 2424.465
494.2660, 2795.590
495.4500, 2932.410
496.6340, 3300.352
497.8170, 3473.371
499.0010, 3694.484
500.1840, 4124.645
501.3670, 3991.855
502.5500, 4354.117
503.7320, 4682.438
504.9150, 4912.805
506.0970, 5274.227
507.2790, 5568.695
508.4610, 5802.215
509.6430, 6341.781
510.8250, 6007.395
512.0060, 6306.070
513.1870, 6060.789
514.3680, 6356.555
515.5490, 6411.367
516.7300, 6826.227
517.9110, 6933.137
519.0910, 7500.094
520.2710, 7213.094
521.4510, 7791.141
522.6310, 7892.238
523.8110, 8180.383
524.9910, 8041.566
526.1700, 8408.797
527.3490, 8666.078
528.5280, 8908.395
529.7070, 9211.762
530.8860, 9064.168
532.0650, 9220.430
533.2430, 9608.109
534.4210, 9236.648
535.5990, 9107.223
536.7770, 9177.844
537.9550, 8784.508
539.1320, 8762.219
540.3100, 8408.969
541.4870, 8472.762
542.6640, 8171.430
543.8410, 8002.480
545.0170, 7561.395
546.1940, 7541.355
547.3700, 7023.355
548.5470, 6858.418
549.7230, 6603.523
550.8980, 6468.711
552.0740, 6523.953
553.2500, 6267.293
554.4250, 5936.801
555.6000, 5932.402
556.7750, 5562.086
557.9500, 5458.930
559.1250, 5482.879
560.2990, 4904.941
561.4730, 5048.133
562.6480, 4820.457
563.8220, 4461.941
564.9950, 4694.574
566.1690, 4217.352
567.3430, 4056.309
568.5160, 4074.395
569.6890, 3784.605
570.8620, 3626.910
572.0350, 3372.270
573.2070, 2998.336
574.3800, 2979.133
575.5520, 2337.613
576.7240, 2335.117
577.8960, 2306.652
579.0680, 1967.828
580.2400, 2161.809
581.4110, 1611.430
582.5830, 1253.078
583.7540, 1058.746
584.9250, 833.4453
586.0950, 469.1641
587.2660, 587.9141
588.4370, 430.6797
589.6070, 609.4727
590.7770, 75.29297
591.9470, 194.1289
593.1170, 41.98828
594.2860, 314.1328
595.4560, 234.3906
596.6250, 170.7539
597.7940, 255.1875
598.9630, 33.73438
600.1320, 236.2969
601.3000, 380.9688
602.4690, 134.8164
603.6370, 133.7305
604.8050, 269.7031
605.9730, 208.8086
607.1410, 445.0117
608.3090, 157.4336
609.4760, 301.9414
610.6430, 54.59375
611.8100, 323.3984
612.9770, 34.75391
614.1440, 182.4805
615.3110, 157.9102
616.4770, 553.2812
617.6430, 298.4805
618.8090, 118.6953
619.9750, 220.9180
621.1410, 167.4258
622.3070, 421.4219
623.4720, 452.6914
624.6370, 583.9766
625.8020, 947.2734
626.9670, 806.5781
628.1320, 1099.895
629.2970, 1353.227
630.4610, 1600.562
631.6250, 2025.906
632.7890, 1689.266
633.9530, 2119.633
635.1170, 2031.023
636.2810, 2223.422
637.4440, 2390.824
638.6070, 2730.234
639.7700, 3009.648
640.9330, 3045.062
642.0960, 3164.488
643.2590, 3104.918
644.4210, 3438.344
645.5830, 3291.777
646.7450, 3333.219
647.9070, 3655.660
649.0690, 3794.102
650.2310, 3825.547
651.3920, 3930.992
652.5530, 4356.438
653.7140, 4534.891
654.8750, 4779.828
656.0360, 5069.789
657.1970, 5198.238
658.3570, 5470.691
659.5170, 5562.215
660.6770, 5473.586
661.8370, 5414.031
662.9970, 5538.480
664.1570, 5252.922
665.3160, 5403.367
666.4750, 5015.965
667.6340, 4801.242
668.7930, 4311.676
669.9520, 4281.102
671.1110, 4058.531
672.2690, 3719.953
673.4270, 3575.371
674.5850, 3245.781
675.7430, 3126.191
676.9010, 2790.598
678.0590, 2618.445
679.2160, 2517.348
680.3730, 2169.777
681.5300, 2327.156
682.6870, 1979.535
683.8440, 1809.898
685.0010, 1842.258
686.1570, 1480.609
687.3130, 1771.953
688.4690, 1360.355
689.6250, 876.9219
690.7810, 1127.070
691.9370, 940.7539
693.0920, 788.5938
694.2470, 746.5195
695.4020, 413.2227
696.5570, 551.4219
697.7120, 614.6211
698.8670, 484.3242
700.0210, 816.9727
701.1750, 669.0078
702.3290, 855.6094
703.4830, 949.3242
704.6370, 948.3242
705.7910, 1077.184
706.9440, 987.1719
708.0970, 985.4062
709.2510, 1238.727
710.4030, 1705.180
711.5560, 1703.270
712.7090, 2039.578
713.8610, 2202.230
715.0140, 1970.211
716.1660, 2414.984
717.3180, 2706.723
718.4690, 2911.730
719.6210, 2655.504
720.7730, 3180.352
721.9240, 3032.945
723.0750, 3354.957
724.2260, 3162.477
725.3770, 3772.953
726.5270, 3475.395
727.6780, 3596.883
728.8280, 3914.250
729.9780, 3707.574
731.1280, 3808.867
732.2780, 4141.121
733.4280, 3575.355
734.5770, 4082.113
735.7260, 3868.355
736.8760, 3853.621
738.0250, 3850.895
739.1730, 3869.004
740.3220, 3775.414
741.4700, 3747.516
742.6190, 3622.633
743.7670, 3568.301
744.9150, 3490.426
746.0630, 3283.141
747.2100, 3316.078
748.3580, 3232.449
749.5050, 3132.828
750.6520, 2792.750
751.7990, 2574.203
752.9460, 2474.223
754.0930, 2128.508
755.2390, 2249.113
756.3860, 2172.695
757.5320, 2049.254
758.6780, 2220.781
759.8240, 2074.285
760.9690, 1912.762
762.1150, 2142.211
763.2600, 2071.637
764.4060, 2077.035
765.5510, 2163.410
766.6950, 2191.754
767.8400, 2328.070
768.9850, 2548.367
770.1290, 2292.633
771.2730, 2584.879
772.4170, 2298.090
773.5610, 2590.285
774.7050, 2431.445
775.8480, 2553.586
776.9920, 2194.695
778.1350, 2630.785
779.2780, 2571.840
780.4210, 2362.879
781.5640, 2459.887
782.7060, 2414.867
783.8490, 2292.852
784.9910, 2344.754
786.1330, 2072.660
787.2750, 2027.539
788.4170, 1880.090
789.5580, 1835.297
790.7000, 1842.027
791.8410, 1769.805
792.9820, 1881.555
794.1230, 1748.285
795.2640, 1609.988
796.4040, 1804.668
797.5450, 1599.316
798.6850, 1581.945
799.8250, 1266.547
800.9650, 1402.129
802.1050, 1393.684
803.2450, 1105.211
804.3840, 1034.715
805.5230, 1311.195
806.6630, 1009.652
807.8020, 984.0820
808.9400, 1072.492
810.0790, 947.8750
811.2170, 972.2305
812.3560, 966.5625
813.4940, 700.8711
814.6320, 508.1602
815.7700, 362.4180
816.9070, 291.6406
818.0450, 590.8672
819.1820, 304.0547
820.3190, 315.2188
821.4560, 408.3633
822.5930, 286.4805
823.7300, 238.5742
824.8670, 216.6680
826.0030, 63.30859
827.1390, 22.62109
828.2750, 114.5117
829.4110, 404.7812
830.5470, 88.34375
831.6820, 70.02734
832.8180, 349.8203
833.9530, 175.8750
835.0880, 217.0938
836.2230, 249.5000
837.3580, 289.1133
838.4920, 379.4102
839.6270, 351.0586
840.7610, 357.5312
841.8950, 453.0430
843.0290, 281.9688
844.1630, 256.3086
845.2960, 190.4531
846.4300, 16.03906
847.5630, 22.51953
848.6960, 124.8438
849.8290, 89.18359
850.9620, 160.4922
852.0940, 325.7812
853.2270, 353.0547
854.3590, 123.3008
855.4910, 161.5273
856.6230, 131.7383
857.7550, 247.9258
858.8870, 92.09766
860.0180, 284.2422
861.1500, 326.3750
862.2810, 418.4844
863.4120, 146.5820
864.5430, 448.6602
865.6730, 329.7266
866.8040, 676.7773
867.9340, 753.8047
869.0640, 678.8281
870.1940, 570.9102
871.3240, 1013.039
872.4540, 884.2070
873.5830, 1119.422
874.7130, 1005.641
875.8420, 996.9141
876.9710, 1074.266
878.1000, 1232.648
879.2290, 1145.062
880.3570, 1089.531
881.4860, 1009.055
882.6140, 1119.680
883.7420, 1431.340
884.8700, 1203.070
885.9980, 1314.816
887.1250, 1059.684
888.2530, 1455.531
889.3800, 1441.398
890.5070, 1217.254
891.6340, 1216.172
892.7610, 949.1172
893.8880, 1305.047
895.0140, 1114.027
896.1400, 1302.078
897.2670, 1289.117
898.3930, 1143.203
899.5180, 1263.309
900.6440, 1264.523
901.7700, 1211.734
902.8950, 1240.941
904.0200, 1435.160
905.1450, 1109.375
906.2700, 1546.586
907.3950, 1429.789
908.5190, 1566.992
909.6440, 1710.219
910.7680, 1513.438
911.8920, 1655.648
913.0160, 1797.859
914.1400, 2055.125
915.2630, 1825.422
916.3870, 1716.711
917.5100, 1981.020
918.6330, 1916.078
919.7560, 2155.633
920.8790, 2141.973
922.0010, 1897.305
923.1240, 1953.637
924.2460, 2210.996
925.3680, 2218.383
926.4900, 2300.766
927.6120, 2468.203
928.7340, 2601.641
929.8550, 2650.898
930.9760, 2388.504
932.0980, 2666.945
933.2190, 2799.484
934.3390, 2634.398
935.4600, 3408.555
936.5810, 2471.090
937.7010, 2638.621
938.8210, 3250.156
939.9410, 3107.688
941.0610, 3110.215
942.1810, 3051.746
943.3010, 3170.277
944.4200, 3401.812
945.5390, 3441.348
946.6580, 3734.879
947.7770, 3409.418
948.8960, 3571.953
950.0150, 3615.492
951.1330, 3370.031
952.2510, 3883.574
953.3690, 3807.137
954.4870, 3636.703
955.6050, 3780.273
956.7230, 3664.848
957.8400, 3984.426
958.9580, 3730.000
960.0750, 3899.508
961.1920, 3852.660
962.3090, 3963.977
963.4250, 3781.812
964.5420, 4014.855
965.6580, 4076.812
966.7740, 4054.551
967.8900, 4241.652
969.0060, 4064.312
970.1220, 4177.484
971.2380, 4193.707
972.3530, 4258.527
973.4680, 4293.781
974.5830, 4320.789
975.6980, 4514.750
976.8130, 4413.719
977.9280, 4599.547
979.0420, 4749.125
980.1560, 5134.980
981.2710, 4750.941
982.3850, 4482.633
983.4980, 4745.102
984.6120, 5028.211
985.7260, 4988.992
986.8390, 5137.965
987.9520, 5520.965
989.0650, 5668.688
990.1780, 5533.629
991.2910, 5553.484
992.4030, 5660.586
993.5160, 5935.258
994.6280, 5825.422
995.7400, 6189.602
996.8520, 6183.812
997.9640, 6306.973
999.0750, 6397.238
1000.187, 6879.527
1001.298, 6800.457
1002.409, 6941.199
1003.520, 6848.574
1004.631, 7180.988
1005.741, 7189.422
1006.852, 7175.891
1007.962, 7158.383
1009.072, 7253.641
1010.182, 7298.742
1011.292, 7377.027
1012.402, 7514.629
1013.511, 7414.258
1014.621, 7567.902
1015.730, 7550.656
1016.839, 7699.359
1017.948, 7590.078
1019.056, 7370.828
1020.165, 7308.621
1021.273, 7605.418
1022.382, 7379.523
1023.490, 6941.371
1024.598, 7275.082
1025.706, 7029.758
1026.813, 6324.770
1027.921, 6989.754
1029.028, 6738.707
1030.135, 6773.156
1031.242, 6272.375
1032.349, 6331.832
1033.456, 6215.277
1034.562, 5764.652
1035.668, 5866.727
1036.775, 6037.535
1037.881, 6067.969
1038.987, 6061.348
1040.092, 5874.043
1041.198, 5978.352
1042.303, 5293.723
1043.408, 5265.953
1044.514, 4909.203
1045.618, 5163.473
1046.723, 4748.305
1047.828, 4499.723
1048.932, 4734.199
1050.037, 4981.543
1051.141, 4658.461
1052.245, 4653.426
1053.349, 4479.914
1054.452, 4197.629
1055.556, 4330.457
1056.659, 4336.406
1057.762, 4444.098
1058.865, 4125.227
1059.968, 3978.250
1061.071, 3862.180
1062.174, 4182.645
1063.276, 4045.141
1064.378, 4005.871
1065.480, 3833.066
1066.582, 3873.695
1067.684, 3980.207
1068.786, 3889.730
1069.887, 3836.859
1070.988, 3612.742
1072.090, 3900.285
1073.191, 3825.840
1074.291, 3489.398
1075.392, 3659.000
1076.493, 3837.730
1077.593, 3382.133
1078.693, 3689.336
1079.793, 3705.938
1080.893, 3645.723
1081.993, 3603.605
1083.092, 3638.227
1084.192, 3340.699
1085.291, 3216.238
1086.390, 3248.953
1087.489, 3574.961
1088.588, 3222.934
1089.686, 3100.586
1090.785, 3137.246
1091.883, 2808.906
1092.981, 2909.578
1094.079, 2858.297
1095.177, 3047.344
1096.275, 2672.383
1097.373, 2502.332
1098.470, 2513.738
1099.567, 2596.383
1100.664, 2731.551
1101.761, 2229.395
1102.858, 1812.840
1103.954, 1937.270
1105.051, 1734.801
1106.147, 1553.457
1107.243, 1151.535
1108.339, 1298.199
1109.435, 1359.938
1110.531, 1341.309
1111.626, 1001.238
1112.722, 1077.395
1113.817, 986.2383
1114.912, 888.8242
1116.007, 1022.918
1117.101, 729.7734
1118.196, 859.8086
1119.290, 820.9375
1120.385, 859.3672
1121.479, 730.4023
1122.573, 653.1406
1123.666, 743.3906
1124.760, 741.1328
1125.853, 593.0312
1126.947, 636.4531
1128.040, 337.5508
1129.133, 339.0742
1130.226, 470.2500
1131.318, 330.5781
1132.411, 377.1250
1133.503, 294.3828
1134.596, 117.4102
1135.688, 269.1875
1136.780, 383.8164
1137.871, 176.2734
1138.963, 50.68359
1140.054, 347.1250
1141.146, 432.5625
1142.237, 295.0625
1143.328, 248.4922
1144.419, 189.9414
1145.509, 89.38281
1146.600, 42.82031
1147.690, 138.2500
1148.780, 305.6719
1149.870, 259.0859
1150.960, 152.3398
1152.050, 272.9844
1153.139, 89.22266
1154.229, 330.5703
1155.318, 285.7695
1156.407, 123.6680
1157.496, 74.69141
1158.585, 204.2969
1159.674, 297.4062
1160.762, 6.019531
1161.850, 186.2812
1162.939, 92.69922
1164.027, 457.1836
1165.114, 44.31641
1166.202, 242.4688
1167.290, 74.59766
1168.377, 59.77734
1169.464, 97.49219
1170.551, 114.8867
1171.638, 10.64844
1172.725, 89.32031
1173.812, 190.7891
1174.898, 281.0781
1175.984, 188.1797
1177.071, 201.7383
1178.157, 113.7812
1179.242, 129.3633
1180.328, 61.80469
1181.414, 35.96484
1182.499, 31.70312
1183.584, 91.58594
1184.669, 102.0898
1185.754, 81.68750
1186.839, 78.73438
1187.924, 73.24609
1189.008, 27.16797
1190.092, 171.4492
1191.177, 83.79297
1192.260, 310.0156
1193.344, 197.3945
1194.428, 2.285156
1195.512, 327.1602
1196.595, 182.0117
1197.678, 218.9805
1198.761, 217.8359
1199.844, 74.66797
1200.927, 137.4688
1202.009, 292.2383
1203.092, 295.9883
1204.174, 316.7109
1205.256, 221.4062
1206.338, 194.0742
1207.420, 48.71875
1208.502, 87.57031
1209.583, 283.1523
1210.665, 196.6992
1211.746, 177.2266
1212.827, 373.9219
1213.908, 57.41016
1214.988, 10.16016
1216.069, 44.20703
1217.149, 164.5352
1218.230, 177.8320
1219.310, 414.1055
1220.390, 489.3828
1221.470, 370.5898
1222.549, 434.0078
1223.629, 344.9141
1224.708, 197.0391
1225.787, 213.1289
1226.866, 442.1914
1227.945, 175.2188
1229.024, 134.7148
1230.103, 511.6758
1231.181, 23.52344
1232.259, 256.3203
1233.337, 450.5469
1234.415, 437.3164
1235.493, 420.0508
1236.571, 482.7461
1237.648, 321.4062
1238.726, 436.1445
1239.803, 459.9570
1240.880, 344.5039
1241.957, 92.00781
1243.034, 451.4609
1244.110, 175.8750
1245.187, 214.2461
1246.263, 310.8633
1247.339, 444.7852
1248.415, 505.6445
1249.491, 460.4688
1250.566, 627.1445
1251.642, 413.6602
1252.717, 325.7227
1253.793, 258.7539
1254.868, 291.7305
1255.943, 609.4492
1257.017, 438.7461
1258.092, 374.9688
1259.166, 572.5508
1260.241, 346.6523
1261.315, 384.0625
1262.389, 437.6992
1263.462, 98.67188
1264.536, 276.7969
1265.610, 318.3672
1266.683, 561.9219
1267.756, 154.6211
1268.829, 643.9414
1269.902, 558.0312
1270.975, 353.3008
1272.048, 489.4180
1273.120, 418.9531
1274.192, 432.3828
1275.264, 421.6406
1276.336, 569.2305
1277.408, 472.8867
1278.480, 628.6250
1279.551, 346.4492
1280.623, 401.2148
1281.694, 273.6133
1282.765, 258.8633
1283.836, 287.5547
1284.907, 372.2344
1285.977, 283.9180
1287.048, 514.4570
1288.118, 448.4805
1289.188, 171.9258
1290.258, 576.8438
1291.328, 563.9727
1292.398, 387.2969
1293.467, 244.6836
1294.537, 114.0781
1295.606, 11.22266
1296.675, 76.97656
1297.744, 189.9062
1298.813, 11.97656
1299.882, 185.6836
1300.950, 121.2617
1302.018, 495.5156
1303.086, 274.5898
1304.155, 382.4961
1305.222, 495.6680
1306.290, 96.16016
1307.358, 239.9375
1308.425, 637.3164
1309.492, 305.1797
1310.559, 325.0664
1311.626, 615.8828
1312.693, 291.1445
1313.760, 511.1562
1314.826, 473.4961
1315.893, 487.2383
1316.959, 558.2148
1318.025, 739.7305
1319.091, 384.3203
1320.157, 473.9766
1321.222, 241.0625
1322.288, 250.0938
1323.353, 468.8672
1324.418, 200.1602
1325.483, 244.4883
1326.548, 402.4180
1327.612, 300.3164
