##NAMES=Magnesite
##RRUFFID=R040114
##IDEAL CHEMISTRY=MgCO_3_
##LOCALITY=Snarum, Norway
##OWNER=RRUFF
##SOURCE=University of Arizona Mineral Museum
##DESCRIPTION=Tan colored cleavage fragment
##STATUS=The identification of this mineral has been confirmed by X-ray diffraction and chemical analysis
##URL=rruff.info/R040114
##MEASURED CHEMISTRY=(Mg_0.98_Fe_0.01_)C_1.00_O_3_
##PIN_ID=L00410
##ORIENTATION=Laser parallel to -c* (0 0 -1). Fiducial mark perpendicular to laser is parallel to -a [-1 0 0]
97.554, 0.000
98.947, 32.336
100.340, 1.077
101.732, 42.409
103.124, 15.255
104.516, 38.088
105.908, 180.688
107.300, 152.868
108.691, 158.516
110.082, 117.534
111.473, 159.865
112.864, 304.562
114.254, 353.460
115.644, 459.466
117.034, 458.681
118.424, 312.065
119.813, 271.556
121.203, 292.147
122.592, 185.732
123.981, 127.533
125.369, 120.492
126.758, 72.615
128.146, 87.423
129.534, 117.051
130.922, 136.100
132.309, 102.755
133.696, 56.151
135.083, 119.752
136.470, 77.395
137.857, 113.943
139.243, 76.398
140.630, 100.676
142.016, 73.803
143.401, 48.581
144.787, 59.438
146.172, 89.986
147.557, 54.234
148.942, 34.239
150.327, 99.053
151.711, 40.691
153.096, 36.165
154.480, 60.486
155.863, 17.665
157.247, 25.709
158.630, 1.372
160.013, 25.426
161.396, 57.413
162.779, 56.274
164.161, 64.895
165.544, 112.442
166.926, 160.018
168.308, 222.883
169.689, 289.019
171.070, 366.877
172.452, 458.314
173.833, 541.454
175.213, 662.304
176.594, 652.016
177.974, 592.660
179.354, 475.577
180.734, 349.541
182.114, 261.267
183.493, 218.572
184.872, 148.928
186.251, 152.170
187.630, 97.354
189.008, 98.089
190.387, 114.046
191.765, 140.000
193.143, 118.520
194.520, 128.841
195.898, 123.178
197.275, 152.523
198.652, 205.880
200.029, 204.246
201.405, 306.613
202.782, 361.978
204.158, 612.343
205.534, 908.701
206.909, 1315.054
208.285, 1792.403
209.660, 2317.745
211.035, 2852.075
212.410, 3688.392
213.784, 3669.700
215.159, 2734.994
216.533, 1683.272
217.907, 987.534
219.281, 554.779
220.654, 332.004
222.027, 248.209
223.400, 113.393
224.773, 109.554
226.146, 39.692
227.518, 36.806
228.891, 17.897
230.263, 7.973
231.634, 7.398
233.006, 19.740
234.377, 41.457
235.748, 26.809
237.119, 42.390
238.490, 13.995
239.860, 10.453
241.231, 23.002
242.601, 1.329
243.970, 8.369
245.340, 26.072
246.709, 6.935
248.079, 26.885
249.448, 10.675
250.816, 30.278
252.185, 29.148
253.553, 16.660
254.921, 51.464
256.289, 0.769
257.657, 23.998
259.024, 23.132
260.391, 16.296
261.758, 37.271
263.125, 40.331
264.492, 17.010
265.858, 25.088
267.224, 28.531
268.590, 2.682
269.956, 22.734
271.321, 30.696
272.687, 22.918
274.052, 4.038
275.416, 63.136
276.781, 72.262
278.146, 28.195
279.510, 64.115
280.874, 70.042
282.237, 95.790
283.601, 72.735
284.964, 94.552
286.327, 125.299
287.690, 105.206
289.053, 140.886
290.416, 194.511
291.778, 225.131
293.140, 332.448
294.502, 348.137
295.863, 421.695
297.225, 511.283
298.586, 569.529
299.947, 626.107
301.308, 532.395
302.668, 517.906
304.029, 479.304
305.389, 398.498
306.749, 339.996
308.108, 264.368
309.468, 275.510
310.827, 216.585
312.186, 219.721
313.545, 313.868
314.903, 307.181
316.262, 314.374
317.620, 385.311
318.978, 540.489
320.336, 795.533
321.693, 1183.389
323.051, 1875.148
324.408, 2775.860
325.765, 3994.938
327.121, 5264.827
328.478, 7014.695
329.834, 8265.387
331.190, 7924.025
332.546, 5979.589
333.902, 4203.078
335.257, 2764.667
336.612, 1857.421
337.967, 1216.008
339.322, 893.344
340.677, 650.658
342.031, 487.992
343.385, 412.376
344.739, 332.624
346.093, 248.828
347.446, 273.102
348.799, 177.261
350.153, 227.442
351.505, 204.441
352.858, 206.424
354.210, 165.460
355.563, 163.541
356.915, 145.569
358.267, 134.616
359.618, 139.641
360.969, 131.408
362.321, 138.260
363.672, 130.702
365.022, 133.688
366.373, 130.662
367.723, 85.623
369.073, 81.571
370.423, 76.570
371.773, 50.427
373.122, 84.333
374.471, 81.227
375.821, 96.108
377.169, 66.976
378.518, 65.830
379.866, 59.727
381.215, 58.560
382.563, 77.555
383.910, 78.446
385.258, 77.259
386.605, 102.062
387.952, 51.756
389.299, 111.167
390.646, 40.485
391.992, 123.527
393.339, 74.408
394.685, 74.386
396.031, 117.531
397.376, 54.298
398.722, 17.966
400.067, 97.633
401.412, 32.074
402.757, 59.728
404.101, 70.701
405.446, 3.092
406.790, 15.867
408.134, 57.510
409.478, 51.102
410.821, 58.078
412.165, 46.706
413.508, 44.735
414.851, 47.796
416.193, 10.624
417.536, 12.506
418.878, 42.165
420.220, 5.017
421.562, 4.868
422.904, 17.629
424.245, 33.598
425.586, 6.090
426.927, 30.635
428.268, 2.586
429.609, 26.363
430.949, 46.622
432.289, 64.316
433.629, 8.245
434.969, 17.975
436.309, 17.209
437.648, 11.143
438.987, 45.190
440.326, 41.943
441.665, 33.831
443.003, 70.946
444.342, 16.958
445.680, 40.971
447.018, 50.987
448.355, 16.891
449.693, 53.229
451.030, 8.257
452.367, 1.579
453.704, 18.125
455.041, 26.520
456.377, 51.583
457.713, 37.740
459.049, 9.166
460.385, 25.077
461.721, 91.009
463.056, 24.947
464.391, 43.873
465.726, 88.851
467.061, 9.773
468.395, 26.692
469.730, 74.487
471.064, 84.634
472.398, 62.539
473.731, 42.468
475.065, 10.275
476.398, 22.163
477.731, 73.242
479.064, 24.113
480.397, 15.022
481.729, 60.698
483.062, 16.394
484.394, 88.051
485.725, 18.843
487.057, 53.504
488.389, 53.127
489.720, 123.737
491.051, 71.577
492.382, 70.238
493.712, 110.905
495.043, 43.469
496.373, 1.021
497.703, 22.558
499.032, 78.082
500.362, 84.595
501.691, 60.098
503.020, 42.605
504.349, 70.114
505.678, 121.609
507.007, 52.088
508.335, 84.556
509.663, 63.013
510.991, 101.461
512.319, 83.902
513.646, 121.339
514.973, 70.772
516.300, 101.201
517.627, 75.622
518.954, 80.660
520.280, 64.441
521.607, 91.831
522.933, 94.215
524.259, 88.585
525.584, 76.951
526.910, 72.302
528.235, 72.458
529.560, 73.994
530.885, 73.455
532.209, 82.711
533.534, 84.843
534.858, 79.953
536.182, 74.492
537.506, 77.150
538.829, 53.169
540.152, 47.153
541.476, 40.820
542.799, 44.162
544.121, 59.196
545.444, 46.215
546.766, 79.330
548.088, 39.229
549.410, 52.370
550.732, 51.184
552.053, 29.365
553.375, 44.337
554.696, 56.312
556.017, 57.479
557.337, 59.242
558.658, 67.109
559.978, 63.250
561.298, 62.610
562.618, 62.067
563.938, 57.159
565.257, 56.765
566.576, 59.524
567.895, 59.228
569.214, 57.497
570.533, 49.493
571.851, 49.447
573.170, 36.388
574.488, 46.334
575.805, 39.420
577.123, 27.810
578.440, 36.721
579.758, 47.185
581.075, 48.883
582.391, 90.686
583.708, 2.440
585.024, 14.050
586.341, 81.786
587.657, 20.313
588.972, 58.122
590.288, 54.014
591.603, 16.977
592.918, 35.656
594.233, 72.412
595.548, 36.164
596.863, 78.859
598.177, 25.718
599.491, 81.557
600.805, 1.360
602.119, 47.311
603.432, 19.030
604.746, 35.843
606.059, 36.690
607.372, 8.344
608.685, 76.188
609.997, 14.810
611.309, 24.688
612.621, 20.029
613.933, 25.641
615.245, 0.410
616.557, 10.113
617.868, 2.881
619.179, 38.753
620.490, 33.636
621.801, 32.257
623.111, 15.950
624.421, 25.843
625.731, 22.361
627.041, 47.976
628.351, 3.227
629.660, 14.600
630.970, 5.183
632.279, 33.479
633.588, 9.968
634.896, 18.489
636.205, 7.776
637.513, 0.314
638.821, 93.674
640.129, 42.657
641.437, 54.821
642.744, 16.834
644.051, 44.527
645.358, 72.192
646.665, 65.845
647.972, 1.555
649.278, 31.225
650.584, 27.370
651.890, 94.321
653.196, 76.857
654.502, 107.233
655.807, 114.885
657.113, 81.386
658.418, 109.121
659.722, 70.651
661.027, 48.154
662.331, 51.055
663.636, 110.685
664.940, 115.212
666.244, 121.828
667.547, 136.079
668.851, 135.215
670.154, 118.922
671.457, 119.077
672.760, 120.316
674.062, 117.057
675.365, 124.448
676.667, 122.376
677.969, 117.933
679.271, 117.494
680.572, 131.495
681.874, 106.033
683.175, 134.565
684.476, 177.639
685.777, 114.530
687.077, 139.213
688.378, 190.722
689.678, 150.812
690.978, 164.309
692.278, 175.815
693.577, 240.304
694.877, 177.785
696.176, 219.204
697.475, 195.594
698.774, 184.525
700.072, 211.323
701.371, 189.751
702.669, 199.122
703.967, 245.501
705.265, 302.834
706.562, 259.218
707.860, 248.594
709.157, 389.874
710.454, 309.212
711.751, 440.597
713.047, 397.982
714.344, 515.371
715.640, 489.770
716.936, 501.250
718.232, 691.638
719.527, 718.032
720.823, 875.393
722.118, 1033.750
723.413, 1064.115
724.708, 1327.476
726.002, 1514.824
727.297, 1520.136
728.591, 1845.443
729.885, 2005.691
731.179, 2224.977
732.472, 2468.230
733.766, 2810.433
735.059, 3043.668
736.352, 3381.948
737.645, 3495.564
738.937, 3579.880
740.230, 3458.855
741.522, 3146.121
742.814, 2837.426
744.106, 2498.576
745.397, 2126.873
746.689, 1745.158
747.980, 1402.284
749.271, 1181.485
750.562, 1064.765
751.853, 796.962
753.143, 784.234
754.433, 626.380
755.723, 529.177
757.013, 478.322
758.303, 326.549
759.592, 363.654
760.881, 300.826
762.170, 213.998
763.459, 226.057
764.748, 160.949
766.036, 213.030
767.325, 146.549
768.613, 109.357
769.901, 148.592
771.188, 115.598
772.476, 156.646
773.763, 129.029
775.050, 72.690
776.337, 72.834
777.624, 72.969
778.910, 26.034
780.196, 66.137
781.482, 30.223
782.768, 34.415
784.054, 66.235
785.339, 43.281
786.625, 15.715
787.910, 79.386
789.195, 68.388
790.479, 0.819
791.764, 25.163
793.048, 6.912
794.332, 14.009
795.616, 4.042
796.900, 13.565
798.183, 4.393
799.467, 13.463
800.750, 14.555
802.033, 44.644
803.316, 64.486
804.598, 1.508
805.880, 2.474
807.163, 65.544
808.445, 8.611
809.726, 9.676
811.008, 70.738
812.289, 6.798
813.570, 58.145
814.851, 65.875
816.132, 16.119
817.413, 67.881
818.693, 48.883
819.973, 53.883
821.253, 2.118
822.533, 9.126
823.813, 14.367
825.092, 21.922
826.371, 19.219
827.650, 3.279
828.929, 10.250
830.208, 2.420
831.486, 7.500
832.764, 11.417
834.042, 4.667
835.320, 23.242
836.598, 21.150
837.875, 6.943
839.152, 37.043
840.429, 18.053
841.706, 18.701
842.983, 8.434
844.259, 42.424
845.536, 4.281
846.812, 24.137
848.088, 42.992
849.363, 13.846
850.639, 8.700
851.914, 53.552
853.189, 17.405
854.464, 17.257
855.739, 79.109
857.013, 17.040
858.288, 15.802
859.562, 46.645
860.836, 54.487
862.110, 26.329
863.383, 45.170
864.656, 6.013
865.930, 49.854
867.203, 78.697
868.475, 95.539
869.748, 2.619
871.020, 14.221
872.292, 0.062
873.564, 60.902
874.836, 44.743
876.108, 21.584
877.379, 57.425
878.650, 63.267
879.922, 78.109
881.192, 117.952
882.463, 38.794
883.733, 125.639
885.004, 57.484
886.274, 28.330
887.544, 20.177
888.813, 1.026
890.083, 11.125
891.352, 29.722
892.621, 24.570
893.890, 46.422
895.159, 50.280
896.427, 70.139
897.695, 62.999
898.964, 72.253
900.232, 27.724
901.499, 64.588
902.767, 56.456
904.034, 21.324
905.301, 53.193
906.568, 21.064
907.835, 18.062
909.102, 6.193
910.368, 32.678
911.634, 54.552
912.900, 56.427
914.166, 17.305
915.432, 70.185
916.697, 21.933
917.962, 30.946
919.227, 8.827
920.492, 28.718
921.757, 7.383
923.021, 48.517
924.285, 33.424
925.550, 131.339
926.813, 57.260
928.077, 22.184
929.341, 21.110
930.604, 81.039
931.867, 44.938
933.130, 79.874
934.393, 91.800
935.655, 59.741
936.918, 84.688
938.180, 62.637
939.442, 55.083
940.703, 100.039
941.965, 62.998
943.226, 24.436
944.488, 34.392
945.749, 65.486
947.009, 54.145
948.270, 22.438
949.530, 61.148
950.791, 45.917
952.051, 54.856
953.311, 48.806
954.570, 11.806
955.830, 95.815
957.089, 68.353
958.348, 75.120
959.607, 38.154
960.866, 48.131
962.124, 86.128
963.383, 55.183
964.641, 45.164
965.899, 24.296
967.156, 27.103
968.414, 71.182
969.671, 55.274
970.928, 53.380
972.185, 92.490
973.442, 21.191
974.699, 107.501
975.955, 108.519
977.211, 99.080
978.468, 134.833
979.723, 131.551
980.979, 111.165
982.234, 146.684
983.490, 69.823
984.745, 62.995
986.000, 69.725
987.254, 56.915
988.509, 113.110
989.763, 62.766
991.017, 113.604
992.271, 80.649
993.525, 152.880
994.779, 88.530
996.032, 183.773
997.285, 143.982
998.538, 219.260
999.791, 111.519
1001.044, 141.784
1002.296, 160.066
1003.548, 148.355
1004.800, 171.722
1006.052, 175.953
1007.304, 177.260
1008.555, 171.638
1009.807, 146.957
1011.058, 148.280
1012.309, 127.827
1013.559, 105.948
1014.810, 131.291
1016.060, 144.638
1017.310, 228.990
1018.560, 156.347
1019.810, 267.711
1021.060, 212.004
1022.309, 200.392
1023.558, 211.775
1024.807, 251.174
1026.056, 302.579
1027.305, 201.987
1028.553, 252.406
1029.801, 230.833
1031.049, 252.264
1032.297, 291.703
1033.545, 293.577
1034.793, 332.595
1036.040, 331.062
1037.287, 349.536
1038.534, 361.015
1039.781, 394.026
1041.027, 398.656
1042.274, 464.151
1043.520, 504.966
1044.766, 524.481
1046.012, 571.000
1047.257, 553.529
1048.503, 605.778
1049.748, 623.616
1050.993, 682.160
1052.238, 706.708
1053.483, 743.260
1054.727, 867.817
1055.971, 982.422
1057.216, 939.989
1058.459, 995.027
1059.703, 1022.496
1060.947, 1162.236
1062.190, 1237.819
1063.433, 1313.406
1064.676, 1460.088
1065.919, 1578.733
1067.162, 1776.798
1068.404, 1941.425
1069.646, 2253.056
1070.888, 2541.700
1072.130, 2827.286
1073.372, 3180.600
1074.613, 3661.456
1075.855, 4038.599
1077.096, 4569.262
1078.337, 5294.928
1079.578, 5997.598
1080.818, 7130.451
1082.059, 8366.131
1083.299, 10166.060
1084.539, 12213.812
1085.779, 15009.553
1087.018, 18550.320
1088.258, 22959.016
1089.497, 28628.754
1090.736, 34432.461
1091.975, 41066.164
1093.213, 46519.891
1094.452, 50284.617
1095.690, 50343.512
1096.928, 48441.445
1098.166, 44161.176
1099.404, 38474.906
1100.642, 32252.758
1101.879, 27072.658
1103.116, 22470.602
1104.353, 18889.146
1105.590, 15863.952
1106.827, 13813.836
1108.063, 11533.777
1109.299, 9897.868
1110.536, 8297.623
1111.771, 6939.554
1113.007, 5806.651
1114.243, 4898.624
1115.478, 4040.431
1116.713, 3396.215
1117.948, 2950.039
1119.183, 2446.794
1120.418, 2214.810
1121.652, 2224.671
1122.886, 2104.468
1124.120, 1724.454
1125.354, 1373.430
1126.588, 1197.766
1127.821, 939.939
1129.055, 879.335
1130.288, 791.367
1131.521, 740.554
1132.753, 670.927
1133.986, 615.927
1135.218, 553.390
1136.450, 514.214
1137.682, 484.109
1138.914, 435.934
1140.146, 403.013
1141.377, 338.506
1142.609, 287.559
1143.840, 378.979
1145.071, 384.819
1146.301, 280.910
1147.532, 331.814
1148.762, 301.819
1149.992, 264.796
1151.222, 223.879
1152.452, 261.297
1153.682, 197.301
1154.911, 210.124
1156.140, 416.458
1157.369, 276.814
1158.598, 378.350
1159.827, 177.835
1161.055, 138.646
1162.284, 142.635
1163.512, 79.577
1164.740, 91.534
1165.967, 118.385
1167.195, 107.454
1168.422, 126.021
1169.650, 108.398
1170.877, 126.830
1172.103, 112.607
1173.330, 90.522
1174.557, 49.370
1175.783, 102.280
1177.009, 34.707
1178.235, 109.493
1179.461, 55.941
1180.686, 31.789
1181.912, 104.602
1183.137, 128.900
1184.362, 126.770
1185.587, 142.677
1186.811, 88.811
1188.036, 96.914
1189.260, 66.721
1190.484, 10.294
1191.708, 82.666
1192.932, 27.503
1194.155, 47.274
1195.378, 84.016
1196.602, 26.076
1197.825, 53.944
1199.047, 68.613
1200.270, 54.264
1201.492, 64.230
1202.715, 22.868
1203.937, 105.996
1205.159, 68.771
1206.380, 48.389
1207.602, 0.001
1208.823, 66.604
1210.044, 121.243
1211.265, 17.081
1212.486, 27.662
1213.707, 11.317
1214.927, 87.435
1216.147, 87.046
1217.367, 104.990
1218.587, 36.534
1219.807, 9.930
1221.027, 18.192
1222.246, 6.501
1223.465, 62.054
1224.684, 64.536
1225.903, 106.208
1227.121, 11.679
1228.340, 54.143
1229.558, 1.599
1230.776, 40.036
1231.994, 43.464
1233.212, 40.884
1234.429, 55.294
1235.646, 50.695
1236.864, 103.106
1238.081, 78.494
1239.297, 54.903
1240.514, 104.280
1241.730, 18.662
1242.947, 15.067
1244.163, 68.433
1245.378, 67.769
1246.594, 41.097
1247.810, 29.415
1249.025, 20.767
1250.240, 4.955
1251.455, 40.695
1252.670, 37.543
1253.885, 25.770
1255.099, 6.980
1256.313, 22.787
1257.527, 31.393
1258.741, 8.553
1259.955, 57.295
1261.168, 68.198
1262.382, 84.297
1263.595, 66.384
1264.808, 20.538
1266.021, 23.523
1267.233, 59.662
1268.446, 84.683
1269.658, 7.307
1270.870, 36.797
1272.082, 12.222
1273.294, 12.744
1274.505, 3.730
1275.716, 29.653
1276.928, 13.603
1278.139, 19.502
1279.349, 18.368
1280.560, 105.222
1281.770, 107.062
1282.981, 3.131
1284.191, 118.659
1285.401, 28.434
1286.610, 27.805
1287.820, 33.817
1289.029, 7.521
1290.239, 113.208
1291.448, 29.882
1292.656, 69.543
1293.865, 45.188
1295.073, 34.180
1296.282, 31.428
1297.490, 9.020
1298.698, 44.557
1299.906, 107.062
1301.113, 12.554
1302.320, 61.027
1303.528, 54.488
1304.735, 7.933
1305.942, 132.362
1307.148, 45.777
1308.355, 56.178
1309.561, 70.565
1310.767, 57.938
1311.973, 32.296
1313.179, 33.363
1314.384, 53.951
1315.590, 10.249
1316.795, 113.531
1318.000, 56.797
1319.205, 72.049
1320.410, 0.286
1321.614, 10.499
1322.819, 83.694
1324.023, 9.875
1325.227, 67.038
1326.431, 74.184
1327.634, 37.685
1328.838, 58.415
1330.041, 27.500
1331.244, 38.567
1332.447, 24.620
1333.650, 68.656
1334.852, 34.665
1336.055, 16.656
1337.257, 56.313
1338.459, 2.267
1339.661, 76.202
1340.862, 25.123
1342.064, 44.014
1343.265, 88.907
1344.466, 109.786
1345.667, 30.652
1346.868, 109.504
1348.068, 19.299
1349.269, 55.124
1350.469, 118.934
1351.669, 98.732
1352.869, 124.359
1354.069, 81.133
1355.268, 38.895
1356.468, 118.553
1357.667, 71.242
1358.866, 68.151
1360.065, 78.542
1361.263, 17.773
1362.462, 95.892
1363.660, 126.492
1364.858, 42.679
1366.056, 45.209
1367.254, 73.357
1368.451, 89.981
1369.649, 43.602
1370.846, 87.216
1372.043, 86.647
1373.240, 86.233
1374.436, 109.561
1375.633, 123.177
1376.829, 124.760
1378.025, 114.170
1379.221, 102.673
1380.417, 83.114
1381.613, 89.120
1382.808, 82.369
1384.003, 94.415
1385.199, 86.955
1386.393, 80.212
1387.588, 86.943
1388.783, 111.780
1389.977, 102.667
1391.171, 84.746
1392.365, 66.171
1393.559, 102.464
1394.753, 92.546
1395.946, 219.482
1397.140, 120.379
1398.333, 144.655
1399.526, 70.757
1400.719, 115.243
1401.911, 136.590
1403.104, 122.673
1404.296, 19.454
1405.488, 125.974
1406.680, 78.981
1407.872, 108.615
1409.063, 122.246
1410.255, 45.857
1411.446, 135.720
1412.637, 108.875
1413.828, 44.339
1415.018, 130.230
1416.209, 191.556
1417.399, 62.000
1418.589, 160.939
1419.779, 55.473
1420.969, 147.884
1422.159, 144.744
1423.348, 149.296
1424.537, 133.662
1425.726, 184.824
1426.915, 76.504
1428.104, 91.929
1429.293, 93.703
1430.481, 4.690
1431.669, 180.768
1432.857, 118.045
1434.045, 141.210
1435.233, 165.848
1436.420, 227.911
1437.608, 227.010
1438.795, 279.020
1439.982, 343.648
1441.169, 416.853
1442.355, 544.390
1443.542, 783.163
1444.728, 1017.192
1445.914, 1228.811
1447.100, 1388.136
1448.286, 1811.777
1449.472, 1703.420
1450.657, 1568.029
1451.842, 783.569
1453.027, 536.031
1454.212, 543.457
1455.397, 332.734
1456.581, 357.115
1457.766, 324.355
1458.950, 180.744
1460.134, 236.100
1461.318, 216.363
1462.501, 298.686
1463.685, 280.078
1464.868, 187.374
1466.051, 296.618
1467.234, 207.626
1468.417, 189.570
1469.600, 267.751
1470.782, 224.834
1471.965, 154.899
1473.147, 283.069
1474.329, 198.280
1475.510, 195.524
1476.692, 155.997
1477.873, 105.240
1479.055, 177.448
1480.236, 279.639
1481.416, 179.782
1482.597, 268.241
1483.778, 103.753
1484.958, 154.269
1486.138, 92.778
1487.318, 217.275
1488.498, 108.770
1489.678, 139.272
1490.857, 167.783
1492.037, 122.301
1493.216, 137.852
1494.395, 67.437
1495.574, 79.064
1496.752, 117.732
1497.931, 111.448
1499.109, 25.206
1500.287, 84.166
1501.465, 34.200
1502.643, 19.318
1503.820, 125.500
1504.998, 39.756
1506.175, 4.895
1507.352, 2.436
1508.529, 35.153
1509.706, 50.891
1510.882, 66.802
1512.059, 59.891
1513.235, 98.172
1514.411, 20.950
1515.587, 101.077
1516.762, 0.290
1517.938, 40.819
1519.113, 107.626
1520.288, 59.698
1521.463, 0.000
##END=



