##NAMES=Magnesite
##RRUFFID=R040114
##IDEAL CHEMISTRY=MgCO_3_
##LOCALITY=Snarum, Norway
##OWNER=RRUFF
##SOURCE=University of Arizona Mineral Museum
##DESCRIPTION=Tan colored cleavage fragment
##STATUS=The identification of this mineral has been confirmed by X-ray diffraction and chemical analysis
##URL=rruff.info/R040114
##MEASURED CHEMISTRY=(Mg_0.98_Fe_0.01_)C_1.00_O_3_
##PIN_ID=L00266
##ORIENTATION=Laser parallel to -a* (-1 0 0). Fiducial mark perpendicular to laser is parallel to c [0 0 1]
104.516, 0.000
105.908, 96.238
107.300, 80.725
108.691, 89.795
110.082, 2.047
111.473, 41.569
112.864, 178.248
114.254, 238.740
115.644, 316.902
117.034, 361.612
118.424, 248.754
119.813, 178.228
121.203, 179.972
122.592, 111.614
123.981, 133.333
125.369, 72.918
126.758, 77.713
128.146, 94.670
129.534, 134.735
130.922, 140.862
132.309, 76.026
133.696, 27.202
135.083, 81.377
136.470, 101.552
137.857, 169.054
139.243, 135.835
140.630, 157.806
142.016, 61.044
143.401, 86.408
144.787, 71.722
146.172, 92.082
147.557, 91.176
148.942, 9.687
150.327, 67.897
151.711, 77.977
153.096, 14.915
154.480, 49.726
155.863, 33.420
157.247, 45.009
158.630, 47.062
160.013, 42.906
161.396, 30.229
162.779, 71.477
164.161, 40.656
165.544, 92.769
166.926, 101.032
168.308, 49.149
169.689, 67.799
171.070, 135.735
172.452, 108.923
173.833, 118.192
175.213, 90.664
176.594, 67.012
177.974, 99.995
179.354, 69.866
180.734, 79.475
182.114, 111.891
183.493, 76.845
184.872, 85.698
186.251, 63.748
187.630, 66.521
189.008, 142.237
190.387, 83.892
191.765, 63.260
193.143, 158.067
194.520, 113.859
195.898, 95.970
197.275, 176.579
198.652, 198.204
200.029, 216.844
201.405, 247.500
202.782, 356.171
204.158, 532.855
205.534, 837.553
206.909, 1021.262
208.285, 1470.981
209.660, 1802.716
211.035, 2058.464
212.410, 2307.219
213.784, 2136.980
215.159, 1762.750
216.533, 1143.525
217.907, 847.306
219.281, 515.089
220.654, 293.876
222.027, 181.665
223.400, 124.454
224.773, 119.243
226.146, 68.031
227.518, 54.816
228.891, 25.600
230.263, 40.382
231.634, 37.161
233.006, 18.063
234.377, 53.710
235.748, 57.480
237.119, 34.752
238.490, 48.012
239.860, 0.772
241.231, 3.471
242.601, 19.716
243.970, 16.036
245.340, 8.212
246.709, 2.463
248.079, 25.283
249.448, 51.973
250.816, 64.768
252.185, 38.490
253.553, 2.723
254.921, 6.965
256.289, 19.349
257.657, 8.577
259.024, 5.905
260.391, 20.831
261.758, 2.461
263.125, 53.259
264.492, 37.355
265.858, 19.059
267.224, 4.477
268.590, 7.831
269.956, 59.322
271.321, 52.372
272.687, 39.462
274.052, 0.411
275.416, 1.708
276.781, 3.099
278.146, 35.940
279.510, 30.242
280.874, 31.432
282.237, 92.626
283.601, 20.824
284.964, 3.977
286.327, 42.219
287.690, 81.414
289.053, 63.609
290.416, 150.799
291.778, 69.988
293.140, 178.173
294.502, 77.354
295.863, 119.531
297.225, 146.701
298.586, 182.959
299.947, 157.284
301.308, 87.436
302.668, 162.638
304.029, 175.772
305.389, 273.896
306.749, 218.009
308.108, 244.270
309.468, 247.358
310.827, 296.437
312.186, 372.503
313.545, 455.431
314.903, 566.478
316.262, 737.510
317.620, 1065.533
318.978, 1479.643
320.336, 2222.661
321.693, 3618.670
323.051, 5946.869
324.408, 8695.923
325.765, 12198.907
327.121, 15007.901
328.478, 17895.887
329.834, 19759.865
331.190, 18491.836
332.546, 14275.800
333.902, 10368.734
335.257, 7185.665
336.612, 4962.554
337.967, 3485.407
339.322, 2160.245
340.677, 1546.070
342.031, 1105.854
343.385, 871.702
344.739, 699.455
346.093, 583.186
347.446, 512.911
348.799, 455.634
350.153, 398.333
351.505, 353.022
352.858, 394.872
354.210, 380.550
355.563, 330.199
356.915, 247.845
358.267, 192.490
359.618, 284.272
360.969, 250.909
362.321, 259.617
363.672, 215.310
365.022, 244.945
366.373, 166.580
367.723, 205.213
369.073, 130.846
370.423, 183.477
371.773, 106.107
373.122, 163.736
374.471, 207.424
375.821, 151.050
377.169, 209.684
378.518, 109.315
379.866, 66.967
381.215, 160.722
382.563, 104.364
383.910, 93.171
385.258, 122.811
386.605, 127.450
387.952, 67.087
389.299, 80.724
390.646, 77.458
391.992, 121.011
393.339, 70.625
394.685, 58.224
396.031, 184.258
397.376, 95.884
398.722, 127.583
400.067, 36.333
401.412, 78.954
402.757, 137.918
404.101, 148.829
405.446, 68.529
406.790, 131.002
408.134, 34.613
409.478, 73.456
410.821, 62.986
412.165, 26.673
413.508, 149.278
414.851, 106.957
416.193, 68.773
417.536, 7.177
418.878, 85.448
420.220, 77.997
421.562, 6.355
422.904, 82.268
424.245, 98.405
425.586, 98.992
426.927, 165.547
428.268, 24.358
429.609, 53.091
430.949, 1.633
432.289, 175.349
433.629, 96.017
434.969, 80.565
436.309, 97.551
437.648, 86.661
438.987, 78.866
440.326, 71.211
441.665, 66.697
443.003, 84.182
444.342, 102.721
445.680, 76.151
447.018, 91.869
448.355, 100.514
449.693, 112.191
451.030, 132.711
452.367, 139.023
453.704, 162.643
455.041, 128.230
456.377, 133.433
457.713, 59.137
459.049, 18.647
460.385, 1.349
461.721, 92.887
463.056, 27.497
464.391, 53.989
465.726, 94.479
467.061, 56.964
468.395, 3.447
469.730, 92.922
471.064, 41.690
472.398, 93.296
473.731, 16.239
475.065, 41.469
476.398, 89.920
477.731, 52.592
479.064, 19.035
480.397, 102.725
481.729, 103.160
483.062, 0.298
484.394, 30.128
485.725, 178.821
487.057, 95.491
488.389, 119.271
489.720, 68.703
491.051, 74.132
492.382, 62.555
493.712, 50.455
495.043, 42.538
496.373, 70.970
497.703, 61.409
499.032, 123.945
500.362, 62.377
501.691, 126.809
503.020, 32.509
504.349, 113.078
505.678, 129.606
507.007, 74.042
508.335, 96.547
509.663, 141.982
510.991, 126.452
512.319, 11.878
513.646, 137.300
514.973, 74.786
516.300, 181.206
517.627, 52.622
518.954, 17.033
520.280, 106.440
521.607, 34.842
522.933, 38.239
524.259, 55.879
525.584, 145.266
526.910, 143.649
528.235, 136.368
529.560, 127.402
530.885, 73.805
532.209, 76.293
533.534, 38.654
534.858, 130.010
536.182, 70.361
537.506, 128.709
538.829, 50.323
540.152, 25.683
541.476, 95.444
542.799, 18.824
544.121, 91.293
545.444, 122.769
546.766, 62.375
548.088, 81.814
549.410, 36.167
550.732, 97.514
552.053, 115.855
553.375, 92.194
554.696, 0.474
556.017, 92.859
557.337, 43.186
558.658, 54.507
559.978, 81.050
561.298, 61.387
562.618, 11.720
563.938, 59.950
565.257, 101.348
566.576, 16.640
567.895, 48.852
569.214, 116.139
570.533, 88.420
571.851, 101.584
573.170, 39.903
574.488, 58.181
575.805, 38.457
577.123, 3.448
578.440, 38.818
579.758, 57.082
581.075, 33.855
582.391, 103.110
583.708, 183.359
585.024, 110.603
586.341, 79.839
587.657, 236.993
588.972, 63.240
590.288, 32.312
591.603, 43.549
592.918, 154.778
594.233, 86.000
595.548, 82.218
596.863, 85.432
598.177, 104.642
599.491, 118.856
600.805, 105.043
602.119, 115.680
603.432, 79.629
604.746, 83.816
606.059, 80.114
607.372, 3.291
608.685, 114.599
609.997, 5.914
611.309, 49.288
612.621, 5.165
613.933, 116.268
615.245, 25.530
616.557, 77.190
617.868, 27.199
619.179, 65.375
620.490, 47.461
621.801, 145.976
623.111, 84.146
624.421, 133.683
625.731, 79.736
627.041, 200.631
628.351, 7.668
629.660, 43.862
630.970, 183.170
632.279, 15.540
633.588, 109.800
634.896, 23.018
636.205, 156.103
637.513, 42.784
638.821, 86.269
640.129, 51.522
641.437, 132.580
642.744, 13.424
644.051, 46.864
645.358, 81.297
646.665, 143.831
647.972, 144.898
649.278, 97.731
650.584, 62.332
651.890, 123.464
653.196, 165.481
654.502, 122.023
655.807, 67.062
657.113, 124.991
658.418, 146.440
659.722, 26.208
661.027, 56.879
662.331, 66.152
663.636, 184.547
664.940, 81.774
666.244, 171.602
667.547, 88.330
668.851, 189.014
670.154, 127.713
671.457, 84.930
672.760, 127.583
674.062, 162.224
675.365, 157.855
676.667, 135.332
677.969, 189.942
679.271, 124.471
680.572, 41.018
681.874, 126.594
683.175, 190.160
684.476, 134.716
685.777, 152.260
687.077, 92.794
688.378, 71.317
689.678, 116.964
690.978, 129.490
692.278, 12.858
693.577, 184.832
694.877, 38.434
696.176, 119.845
697.475, 31.364
698.774, 115.822
700.072, 89.354
701.371, 86.716
702.669, 54.066
703.967, 92.733
705.265, 175.728
706.562, 164.942
707.860, 192.450
709.157, 208.108
710.454, 148.386
711.751, 175.414
713.047, 127.669
714.344, 228.105
715.640, 43.512
716.936, 218.916
718.232, 286.120
719.527, 189.104
720.823, 223.328
722.118, 239.507
723.413, 165.648
724.708, 274.737
726.002, 316.872
727.297, 273.996
728.591, 438.107
729.885, 526.108
731.179, 469.172
732.472, 503.142
733.766, 602.822
735.059, 659.767
736.352, 674.777
737.645, 707.680
738.937, 734.728
740.230, 720.735
741.522, 693.730
742.814, 645.888
744.106, 571.735
745.397, 482.684
746.689, 368.490
747.980, 350.332
749.271, 299.330
750.562, 284.244
751.853, 208.235
753.143, 178.126
754.433, 156.022
755.723, 113.889
757.013, 212.744
758.303, 70.710
759.592, 173.540
760.881, 83.357
762.170, 193.164
763.459, 76.667
764.748, 35.224
766.036, 99.193
767.325, 0.857
768.613, 37.807
769.901, 76.521
771.188, 1.974
772.476, 112.703
773.763, 50.172
775.050, 123.787
776.337, 19.336
777.624, 84.961
778.910, 19.574
780.196, 116.190
781.482, 105.775
782.768, 114.351
784.054, 67.618
785.339, 38.031
786.625, 51.318
787.910, 43.841
789.195, 52.355
790.479, 81.631
791.764, 49.120
793.048, 75.359
794.332, 24.823
795.616, 21.918
796.900, 114.603
798.183, 26.241
799.467, 26.651
800.750, 25.970
802.033, 44.534
803.316, 132.867
804.598, 59.811
805.880, 21.354
807.163, 39.755
808.445, 27.999
809.726, 36.213
811.008, 59.328
812.289, 4.516
813.570, 92.688
814.851, 96.575
816.132, 6.581
817.413, 59.761
818.693, 9.674
819.973, 64.323
821.253, 85.375
822.533, 110.378
823.813, 47.410
825.092, 11.567
826.371, 178.370
827.650, 104.359
828.929, 189.339
830.208, 153.310
831.486, 131.271
832.764, 149.224
834.042, 85.167
835.320, 118.854
836.598, 180.780
837.875, 99.696
839.152, 110.604
840.429, 141.503
841.706, 105.359
842.983, 53.117
844.259, 64.187
845.536, 45.852
846.812, 27.704
848.088, 10.455
849.363, 56.019
850.639, 48.265
851.914, 54.768
853.189, 2.935
854.464, 109.530
855.739, 92.670
857.013, 122.734
858.288, 95.133
859.562, 91.795
860.836, 45.450
862.110, 1.902
863.383, 138.733
864.656, 61.361
865.930, 106.985
867.203, 6.602
868.475, 21.209
869.748, 49.479
871.020, 107.086
872.292, 118.645
873.564, 54.198
874.836, 64.762
876.108, 24.319
877.379, 184.869
878.650, 83.414
879.922, 104.474
881.192, 179.490
882.463, 69.026
883.733, 130.559
885.004, 158.087
886.274, 31.610
887.544, 163.130
888.813, 92.645
890.083, 115.155
891.352, 52.663
892.621, 138.163
893.890, 29.659
895.159, 45.149
896.427, 51.365
897.695, 116.090
898.964, 91.542
900.232, 90.991
901.499, 37.436
902.767, 102.876
904.034, 32.312
905.301, 102.744
906.568, 48.187
907.835, 137.623
909.102, 92.059
910.368, 21.487
911.634, 121.744
912.900, 50.167
914.166, 222.471
915.432, 56.885
916.697, 38.844
917.962, 131.239
919.227, 135.592
920.492, 89.589
921.757, 111.688
923.021, 154.943
924.285, 149.790
925.550, 124.183
926.813, 110.326
928.077, 35.716
929.341, 117.607
930.604, 87.892
931.867, 34.798
933.130, 102.178
934.393, 112.546
935.655, 60.922
936.918, 190.130
938.180, 78.213
939.442, 117.350
940.703, 142.455
941.965, 50.595
943.226, 52.857
944.488, 30.981
945.749, 120.240
947.009, 82.287
948.270, 85.322
949.530, 86.694
950.791, 7.251
952.051, 78.330
953.311, 2.971
954.570, 40.185
955.830, 106.567
957.089, 119.180
958.348, 3.747
959.607, 102.401
960.866, 89.045
962.124, 14.182
963.383, 134.415
964.641, 62.120
965.899, 58.497
967.156, 177.888
968.414, 25.264
969.671, 127.452
970.928, 13.331
972.185, 78.614
973.442, 62.991
974.699, 115.401
975.955, 161.626
977.211, 57.485
978.468, 118.899
979.723, 79.315
980.979, 71.732
982.234, 95.764
983.490, 55.585
984.745, 95.017
986.000, 121.436
987.254, 76.868
988.509, 204.303
989.763, 150.737
991.017, 161.172
992.271, 168.608
993.525, 106.059
994.779, 182.373
996.032, 126.738
997.285, 186.030
998.538, 153.262
999.791, 239.574
1001.044, 55.049
1002.296, 199.045
1003.548, 57.769
1004.800, 109.970
1006.052, 236.562
1007.304, 122.092
1008.555, 166.852
1009.807, 184.408
1011.058, 108.979
1012.309, 269.453
1013.559, 165.588
1014.810, 163.183
1016.060, 268.738
1017.310, 122.338
1018.560, 177.682
1019.810, 203.092
1021.060, 230.531
1022.309, 229.201
1023.558, 249.832
1024.807, 251.647
1026.056, 274.087
1027.305, 269.599
1028.553, 279.288
1029.801, 329.329
1031.049, 298.108
1032.297, 273.376
1033.545, 363.319
1034.793, 307.295
1036.040, 304.180
1037.287, 348.752
1038.534, 291.697
1039.781, 400.604
1041.027, 387.457
1042.274, 509.133
1043.520, 613.838
1044.766, 501.432
1046.012, 497.457
1047.257, 518.345
1048.503, 620.466
1049.748, 519.378
1050.993, 735.331
1052.238, 724.055
1053.483, 722.117
1054.727, 824.773
1055.971, 974.983
1057.216, 881.709
1058.459, 952.631
1059.703, 1111.372
1060.947, 1137.475
1062.190, 1185.348
1063.433, 1335.087
1064.676, 1381.869
1065.919, 1441.922
1067.162, 1719.169
1068.404, 1765.904
1069.646, 2041.072
1070.888, 2400.944
1072.130, 2600.775
1073.372, 2908.654
1074.613, 3330.399
1075.855, 3556.820
1077.096, 4132.762
1078.337, 4890.472
1079.578, 5506.424
1080.818, 6593.682
1082.059, 7712.457
1083.299, 9363.319
1084.539, 11255.568
1085.779, 13909.584
1087.018, 17184.363
1088.258, 21307.174
1089.497, 26202.359
1090.736, 31800.070
1091.975, 37688.023
1093.213, 42162.914
1094.452, 45550.684
1095.690, 44550.582
1096.928, 41714.766
1098.166, 37184.512
1099.404, 32327.213
1100.642, 26935.818
1101.879, 23103.154
1103.116, 19574.197
1104.353, 16643.770
1105.590, 14157.147
1106.827, 12241.980
1108.063, 10220.601
1109.299, 8755.733
1110.536, 7415.719
1111.771, 6060.404
1113.007, 5109.512
1114.243, 4269.658
1115.478, 3578.790
1116.713, 3007.656
1117.948, 2571.068
1119.183, 2108.405
1120.418, 1915.729
1121.652, 2020.498
1122.886, 1885.464
1124.120, 1513.812
1125.354, 1113.901
1126.588, 924.042
1127.821, 810.280
1129.055, 730.273
1130.288, 665.701
1131.521, 655.311
1132.753, 507.001
1133.986, 458.124
1135.218, 531.782
1136.450, 343.798
1137.682, 422.487
1138.914, 342.523
1140.146, 200.731
1141.377, 381.245
1142.609, 136.886
1143.840, 251.180
1145.071, 258.931
1146.301, 154.620
1147.532, 85.968
1148.762, 216.223
1149.992, 85.956
1151.222, 169.174
1152.452, 212.061
1153.682, 48.050
1154.911, 193.842
1156.140, 17.133
1157.369, 67.031
1158.598, 129.914
1159.827, 120.644
1161.055, 150.356
1162.284, 123.688
1163.512, 123.999
1164.740, 132.070
1165.967, 133.021
1167.195, 130.915
1168.422, 108.593
1169.650, 79.615
1170.877, 95.518
1172.103, 120.728
1173.330, 161.154
1174.557, 104.771
1175.783, 201.874
1177.009, 23.043
1178.235, 86.778
1179.461, 31.469
1180.686, 49.986
1181.912, 43.292
1183.137, 65.610
1184.362, 125.600
1185.587, 54.201
1186.811, 64.669
1188.036, 78.425
1189.260, 154.785
1190.484, 196.722
1191.708, 116.482
1192.932, 29.613
1194.155, 107.190
1195.378, 21.493
1196.602, 72.457
1197.825, 74.786
1199.047, 119.150
1200.270, 56.055
1201.492, 239.548
1202.715, 51.589
1203.937, 210.429
1205.159, 92.622
1206.380, 165.396
1207.602, 21.844
1208.823, 106.937
1210.044, 162.647
1211.265, 129.959
1212.486, 65.631
1213.707, 29.632
1214.927, 143.227
1216.147, 39.972
1217.367, 112.661
1218.587, 122.557
1219.807, 112.089
1221.027, 145.805
1222.246, 2.301
1223.465, 99.867
1224.684, 212.317
1225.903, 98.028
1227.121, 24.759
1228.340, 137.142
1229.558, 120.903
1230.776, 28.346
1231.994, 84.706
1233.212, 140.994
1234.429, 133.518
1235.646, 44.757
1236.864, 207.134
1238.081, 100.356
1239.297, 115.818
1240.514, 140.992
1241.730, 112.151
1242.947, 46.343
1244.163, 146.453
1245.378, 175.635
1246.594, 206.708
1247.810, 23.766
1249.025, 46.801
1250.240, 3.816
1251.455, 9.168
1252.670, 0.183
1253.885, 153.686
1255.099, 65.578
1256.313, 103.448
1257.527, 257.283
1258.741, 73.100
1259.955, 63.927
1261.168, 66.934
1262.382, 129.716
1263.595, 87.580
1264.808, 4.729
1266.021, 36.092
1267.233, 5.523
1268.446, 109.064
1269.658, 33.772
1270.870, 77.193
1272.082, 65.586
1273.294, 46.949
1274.505, 98.272
1275.716, 24.552
1276.928, 23.046
1278.139, 166.092
1279.349, 61.193
1280.560, 170.267
1281.770, 83.313
1282.981, 159.329
1284.191, 74.316
1285.401, 45.272
1286.610, 20.810
1287.820, 163.068
1289.029, 32.920
1290.239, 132.677
1291.448, 145.403
1292.656, 27.104
1293.865, 34.772
1295.073, 39.596
1296.282, 63.011
1297.490, 99.522
1298.698, 73.024
1299.906, 117.431
1301.113, 32.128
1302.320, 86.058
1303.528, 57.584
1304.735, 39.269
1305.942, 35.994
1307.148, 88.228
1308.355, 26.430
1309.561, 146.598
1310.767, 15.266
1311.973, 36.828
1313.179, 7.110
1314.384, 48.912
1315.590, 43.858
1316.795, 45.187
1318.000, 35.282
1319.205, 38.427
1320.410, 34.380
1321.614, 28.518
1322.819, 71.881
1324.023, 67.145
1325.227, 126.235
1326.431, 157.619
1327.634, 149.673
1328.838, 32.321
1330.041, 73.857
1331.244, 101.120
1332.447, 49.393
1333.650, 117.688
1334.852, 30.104
1336.055, 42.491
1337.257, 159.844
1338.459, 59.803
1339.661, 112.344
1340.862, 210.205
1342.064, 70.750
1343.265, 23.773
1344.466, 214.333
1345.667, 57.146
1346.868, 192.250
1348.068, 135.861
1349.269, 88.916
1350.469, 283.764
1351.669, 44.768
1352.869, 97.263
1354.069, 218.086
1355.268, 53.045
1356.468, 202.914
1357.667, 161.489
1358.866, 123.073
1360.065, 144.915
1361.263, 152.462
1362.462, 98.134
1363.660, 180.825
1364.858, 130.644
1366.056, 242.792
1367.254, 156.979
1368.451, 180.938
1369.649, 112.648
1370.846, 102.062
1372.043, 191.272
1373.240, 84.279
1374.436, 154.565
1375.633, 167.389
1376.829, 236.236
1378.025, 116.161
1379.221, 185.911
1380.417, 140.879
1381.613, 174.850
1382.808, 113.924
1384.003, 224.685
1385.199, 185.976
1386.393, 168.029
1387.588, 273.520
1388.783, 157.408
1389.977, 352.748
1391.171, 208.368
1392.365, 226.409
1393.559, 190.785
1394.753, 165.812
1395.946, 223.119
1397.140, 234.669
1398.333, 285.211
1399.526, 290.750
1400.719, 282.698
1401.911, 280.639
1403.104, 167.581
1404.296, 118.778
1405.488, 161.527
1406.680, 136.732
1407.872, 211.842
1409.063, 298.880
1410.255, 152.350
1411.446, 229.465
1412.637, 109.007
1413.828, 253.167
1415.018, 182.382
1416.209, 230.678
1417.399, 144.468
1418.589, 164.685
1419.779, 93.859
1420.969, 167.326
1422.159, 154.071
1423.348, 156.757
1424.537, 307.314
1425.726, 179.900
1426.915, 267.667
1428.104, 227.181
1429.293, 285.613
1430.481, 169.372
1431.669, 252.685
1432.857, 176.693
1434.045, 247.223
1435.233, 353.379
1436.420, 388.180
1437.608, 201.811
1438.795, 211.090
1439.982, 344.221
1441.169, 354.800
1442.355, 400.189
1443.542, 395.970
1444.728, 411.865
1445.914, 469.354
1447.100, 650.691
1448.286, 595.606
1449.472, 327.347
1450.657, 583.621
1451.842, 399.964
1453.027, 392.966
1454.212, 446.296
1455.397, 348.472
1456.581, 329.729
1457.766, 356.728
1458.950, 342.893
1460.134, 357.927
1461.318, 382.884
1462.501, 293.670
1463.685, 405.748
1464.868, 281.052
1466.051, 363.692
1467.234, 293.910
1468.417, 340.897
1469.600, 382.856
1470.782, 317.437
1471.965, 236.813
1473.147, 267.294
1474.329, 256.990
1475.510, 257.826
1476.692, 284.135
1477.873, 257.821
1479.055, 177.488
1480.236, 429.185
1481.416, 3.867
1482.597, 335.554
1483.778, 289.229
1484.958, 147.924
1486.138, 236.633
1487.318, 151.847
1488.498, 129.132
1489.678, 139.931
1490.857, 220.781
1492.037, 301.698
1493.216, 250.743
1494.395, 127.921
1495.574, 261.215
1496.752, 54.635
1497.931, 323.149
1499.109, 71.774
1500.287, 71.499
1501.465, 132.228
1502.643, 25.044
1503.820, 110.986
1504.998, 89.077
1506.175, 23.335
1507.352, 14.222
1508.529, 37.413
1509.706, 6.939
1510.882, 160.934
1512.059, 292.934
1513.235, 199.389
1514.411, 0.449
1515.587, 205.762
1516.762, 54.922
1517.938, 52.705
1519.113, 64.236
1520.288, 0.000
##END=



