##NAMES=Magnesio-hastingsite
##RRUFFID=R040010
##IDEAL CHEMISTRY=NaCa_2_(Mg_4_Fe^3+^)Si_6_Al_2_O_22_(OH)_2_
##LOCALITY=Amity, New York, USA
##OWNER=RRUFF
##SOURCE=University of Arizona Mineral Museum
##DESCRIPTION=Group of black prismatic crystals
##STATUS=The identification of this mineral has been confirmed by X-ray diffraction and chemical analysis
##URL=rruff.info/R040010
##MEASURED CHEMISTRY=(Na_0.50_K_0.43_[box]_0.07_)_Σ=1_(Ca_1.77_Na_0.23_)_Σ=2_(Mg_1.74_Fe_1.22_Fe^3+^_0.79_Mn_0.57_Al_0.30_Zn_0.25_Ti_0.13_)_Σ=5_(Si_5.95_Al_2.05_)_Σ=8_O_22_((OH)_1.75_F_0.22_Cl_0.03_)_Σ=2_; OH estimated by charge balance
##PIN_ID=L00491
##ORIENTATION=Laser parallel to [1 0 1]. Fiducial mark perpendicular to laser is parallel to b* (0 1 0)
164.6200, 0.0000000E+00
165.8510, 3.498047
167.0820, 204.8184
168.3130, 259.0352
169.5440, 257.3828
170.7750, 513.0391
172.0050, 267.2031
173.2350, 125.1543
174.4650, 427.6406
175.6950, 277.6680
176.9250, 345.9043
178.1550, 490.1406
179.3840, 524.7246
180.6130, 247.0762
181.8420, 169.8965
183.0710, 379.0371
184.3000, 428.4414
185.5280, 474.6914
186.7570, 643.3809
187.9850, 627.0176
189.2130, 782.1055
190.4400, 1033.363
191.6680, 983.7969
192.8960, 779.2598
194.1230, 704.0254
195.3500, 970.3242
196.5770, 885.3477
197.8030, 1259.258
199.0300, 1306.195
200.2560, 1897.281
201.4830, 1759.615
202.7090, 1719.295
203.9340, 778.4023
205.1600, 276.0117
206.3860, 49.78320
207.6110, 24.67383
208.8360, 206.3770
210.0610, 587.4805
211.2860, 927.5020
212.5100, 1166.334
213.7350, 1504.115
214.9590, 2033.770
216.1830, 2040.018
217.4070, 2388.006
218.6310, 2453.203
219.8540, 2817.607
221.0780, 2998.209
222.3010, 2870.008
223.5240, 3108.996
224.7470, 2933.160
225.9690, 2827.482
227.1920, 3000.943
228.4140, 2800.543
229.6360, 2428.277
230.8580, 2330.150
232.0800, 2203.160
233.3020, 2020.309
234.5230, 1688.594
235.7440, 1704.020
236.9650, 1439.586
238.1860, 1189.314
239.4070, 1076.186
240.6280, 869.2305
241.8480, 725.4492
243.0680, 715.8516
244.2880, 582.4355
245.5080, 325.2051
246.7280, 47.14648
247.9470, 99.26562
249.1660, 178.5508
250.3860, 97.99414
251.6040, 33.40625
252.8230, 277.3320
254.0420, 85.64648
255.2600, 21.08984
256.4790, 47.49023
257.6970, 247.5508
258.9150, 127.2734
260.1320, 173.3730
261.3500, 226.1719
262.5670, 47.21680
263.7840, 295.0742
265.0010, 119.6250
266.2180, 113.0430
267.4350, 5.029297
268.6510, 168.0586
269.8680, 309.1641
271.0840, 469.6465
272.3000, 605.2305
273.5160, 778.9902
274.7310, 884.4336
275.9470, 1022.959
277.1620, 1183.570
278.3770, 1485.266
279.5920, 1228.039
280.8070, 1575.893
282.0210, 1597.689
283.2360, 1633.406
284.4500, 1873.121
285.6640, 1833.699
286.8780, 2307.156
288.0920, 2372.480
289.3050, 2755.803
290.5180, 2429.227
291.7320, 2553.756
292.9450, 2544.383
294.1570, 2276.107
295.3700, 2479.934
296.5830, 2015.855
297.7950, 2293.875
299.0070, 2222.994
300.2190, 2122.203
301.4310, 1768.512
302.6420, 1896.912
303.8540, 1980.406
305.0650, 1334.992
306.2760, 1444.670
307.4870, 1611.447
308.6980, 1220.322
309.9080, 1303.330
311.1190, 1330.230
312.3290, 1350.148
313.5390, 1010.465
314.7490, 1152.992
315.9580, 777.7148
317.1680, 1035.650
318.3770, 986.7754
319.5860, 721.0293
320.7950, 797.4355
322.0040, 588.9355
323.2130, 642.5703
324.4210, 526.3418
325.6290, 486.1680
326.8380, 408.9941
328.0460, 486.8789
329.2530, 525.8496
330.4610, 418.9121
331.6680, 313.9082
332.8760, 386.8652
334.0830, 513.8711
335.2890, 201.8574
336.4960, 12.81055
337.7030, 183.7656
338.9090, 274.7031
340.1150, 7.371094
341.3210, 114.5488
342.5270, 321.4707
343.7330, 49.40039
344.9380, 27.33594
346.1440, 101.2910
347.3490, 161.2617
348.5540, 175.2520
349.7590, 240.8164
350.9630, 562.3047
352.1680, 236.6875
353.3720, 547.7637
354.5760, 380.5449
355.7800, 632.2891
356.9840, 501.8613
358.1870, 770.2285
359.3910, 654.4336
360.5940, 969.3926
361.7970, 972.3379
363.0000, 1131.350
364.2030, 1277.432
365.4050, 1394.580
366.6080, 1571.793
367.8100, 1712.740
369.0120, 1719.414
370.2140, 1950.820
371.4150, 2145.289
372.6170, 2106.820
373.8180, 2396.412
375.0190, 2272.064
376.2200, 2588.777
377.4210, 2557.549
378.6220, 2784.383
379.8220, 2643.273
381.0230, 2648.221
382.2230, 2546.223
383.4230, 2686.285
384.6220, 2578.398
385.8220, 2616.572
387.0220, 2560.008
388.2210, 2636.076
389.4200, 2415.408
390.6190, 2366.791
391.8180, 2323.807
393.0160, 2172.125
394.2150, 2306.660
395.4130, 2186.133
396.6110, 2335.371
397.8090, 2016.562
399.0060, 1927.045
400.2040, 2109.506
401.4010, 2101.150
402.5980, 1970.246
403.7950, 2127.137
404.9920, 2009.387
406.1890, 2040.564
407.3860, 1946.162
408.5820, 1827.498
409.7780, 2028.084
410.9740, 2051.318
412.1700, 2184.406
413.3650, 2325.668
414.5610, 2640.973
415.7560, 2436.320
416.9510, 2744.715
418.1460, 2778.146
419.3410, 2856.625
420.5360, 3335.146
421.7300, 3500.711
422.9240, 3673.314
424.1180, 4001.965
425.3120, 4118.725
426.5060, 4439.387
427.7000, 4303.164
428.8930, 4684.984
430.0860, 4462.848
431.2790, 4458.377
432.4720, 4570.713
433.6650, 4236.711
434.8580, 4458.758
436.0500, 4346.848
437.2420, 3959.982
438.4340, 3966.158
439.6260, 3757.379
440.8180, 3807.645
442.0090, 3643.182
443.2010, 3289.299
444.3920, 3318.689
445.5830, 3041.119
446.7740, 2748.678
447.9640, 2537.176
449.1550, 2381.840
450.3450, 2197.465
451.5350, 2003.721
452.7250, 1864.410
453.9150, 1762.865
455.1050, 1708.463
456.2940, 1522.055
457.4830, 1441.805
458.6720, 1233.035
459.8610, 1224.166
461.0500, 1172.967
462.2390, 1063.836
463.4270, 1051.855
464.6150, 933.1582
465.8040, 976.2109
466.9910, 1232.219
468.1790, 843.4277
469.3670, 1117.672
470.5540, 845.0137
471.7410, 1086.918
472.9280, 1228.000
474.1150, 971.1113
475.3020, 1227.637
476.4890, 1213.787
477.6750, 1175.967
478.8610, 1400.320
480.0470, 1418.787
481.2330, 1496.877
482.4190, 1679.977
483.6040, 1809.984
484.7900, 1774.098
485.9750, 2402.215
487.1600, 2595.340
488.3450, 2558.473
489.5290, 2899.613
490.7140, 3063.756
491.8980, 3210.904
493.0820, 3206.061
494.2660, 3638.223
495.4500, 3806.410
496.6340, 4249.617
497.8170, 4316.830
499.0010, 4489.047
500.1840, 4695.273
501.3670, 5062.506
502.5500, 5199.748
503.7320, 5302.996
504.9150, 5457.256
506.0970, 5909.523
507.2790, 6039.801
508.4610, 6084.084
509.6430, 6428.373
510.8250, 6340.672
512.0060, 6488.977
513.1870, 6699.287
514.3680, 6986.605
515.5490, 7368.926
516.7300, 7221.254
517.9110, 7560.582
519.0910, 7330.920
520.2710, 7889.258
521.4510, 8092.598
522.6310, 8283.941
523.8110, 8645.289
524.9910, 8534.637
526.1700, 8762.988
527.3490, 8934.336
528.5280, 8994.691
529.7070, 9189.045
530.8860, 9184.395
532.0650, 9224.750
533.2430, 9226.102
534.4210, 9317.453
535.5990, 9120.008
536.7770, 8598.158
537.9550, 8708.506
539.1320, 8161.869
540.3100, 7912.305
541.4870, 7778.773
542.6640, 7746.236
543.8410, 7527.695
545.0170, 7268.221
546.1940, 6857.777
547.3700, 6635.375
548.5470, 6425.027
549.7230, 6119.689
550.8980, 6189.428
552.0740, 5991.188
553.2500, 5854.004
554.4250, 5582.859
555.6000, 5372.727
556.7750, 5093.656
557.9500, 4881.846
559.1250, 4733.102
560.2990, 4513.793
561.4730, 4453.934
562.6480, 4425.096
563.8220, 4254.316
564.9950, 4008.561
566.1690, 3735.875
567.3430, 3715.266
568.5160, 3478.688
569.6890, 3283.221
570.8620, 2928.740
572.0350, 2944.266
573.2070, 2624.812
574.3800, 2341.348
575.5520, 2307.867
576.7240, 1817.400
577.8960, 1784.941
579.0680, 1699.465
580.2400, 1298.025
581.4110, 1396.566
582.5830, 834.0938
583.7540, 1012.605
584.9250, 719.0996
586.0950, 779.5742
587.2660, 210.0312
588.4370, 78.46875
589.6070, 210.8770
590.7770, 233.2637
591.9470, 121.6289
593.1170, 46.03125
594.2860, 23.78125
595.4560, 109.3926
596.6250, 132.4688
597.7940, 147.4688
598.9630, 250.6172
600.1320, 420.9707
601.3000, 413.6152
602.4690, 237.5547
603.6370, 349.6953
604.8050, 225.0938
605.9730, 410.6895
607.1410, 424.5820
608.3090, 107.7734
609.4760, 114.8984
610.6430, 123.4688
611.8100, 210.9844
612.9770, 228.6914
614.1440, 148.6016
615.3110, 58.67188
616.4770, 83.85938
617.6430, 265.8242
618.8090, 226.4824
619.9750, 6.888672
621.1410, 583.6543
622.3070, 608.1699
623.4720, 957.6582
624.6370, 621.1230
625.8020, 986.5605
626.9670, 1037.977
628.1320, 1270.361
629.2970, 1372.719
630.4610, 1528.055
631.6250, 1857.361
632.7890, 1716.645
633.9530, 1858.900
635.1170, 2193.125
636.2810, 2439.326
637.4440, 2547.500
638.6070, 2949.646
639.7700, 2759.766
640.9330, 2917.859
642.0960, 3024.924
643.2590, 3176.961
644.4210, 3488.973
645.5830, 3435.955
646.7450, 3666.910
647.9070, 3587.836
649.0690, 3838.732
650.2310, 4149.602
651.3920, 4296.445
652.5530, 4384.260
653.7140, 4571.045
654.8750, 4627.801
656.0360, 4953.531
657.1970, 4969.232
658.3570, 5233.902
659.5170, 5167.547
660.6770, 5349.160
661.8370, 5242.746
662.9970, 5507.303
664.1570, 4671.832
665.3160, 4555.332
666.4750, 4414.801
667.6340, 4229.242
668.7930, 3974.652
669.9520, 3643.039
671.1110, 3537.393
672.2690, 3221.719
673.4270, 3077.016
674.5850, 2913.279
675.7430, 2681.520
676.9010, 2597.729
678.0590, 2317.908
679.2160, 2192.910
680.3730, 2067.301
681.5300, 1919.273
682.6870, 1905.336
683.8440, 1851.367
685.0010, 1917.371
686.1570, 1536.342
687.3130, 1463.285
688.4690, 1224.195
689.6250, 1241.402
690.7810, 1064.254
691.9370, 929.6797
693.0920, 1134.475
694.2470, 1058.365
695.4020, 925.0234
696.5570, 1070.438
697.7120, 878.9570
698.8670, 1225.467
700.0210, 1262.955
701.1750, 1358.365
702.3290, 1215.762
703.4830, 1443.258
704.6370, 1495.387
705.7910, 1849.352
706.9440, 2048.748
708.0970, 1958.734
709.2510, 2291.002
710.4030, 2446.855
711.5560, 2352.416
712.7090, 2617.693
713.8610, 2782.791
715.0140, 2720.117
716.1660, 3129.191
717.3180, 3423.164
718.4690, 3361.045
719.6210, 3501.928
720.7730, 3601.768
721.9240, 3820.559
723.0750, 3797.311
724.2260, 3904.018
725.3770, 4111.682
726.5270, 4246.215
727.6780, 4362.805
728.8280, 4434.445
729.9780, 4447.660
731.1280, 4388.504
732.2780, 4402.883
733.4280, 4134.496
734.5770, 4111.953
735.7260, 4241.412
736.8760, 4207.775
738.0250, 4358.508
739.1730, 3989.400
740.3220, 4075.613
741.4700, 3915.746
742.6190, 3953.715
743.7670, 3792.391
744.9150, 3512.311
746.0630, 3532.256
747.2100, 3240.996
748.3580, 3030.688
749.5050, 2978.693
750.6520, 3232.281
751.7990, 2692.104
752.9460, 2691.887
754.0930, 2434.250
755.2390, 2246.973
756.3860, 2425.658
757.5320, 2086.164
758.6780, 2285.551
759.8240, 2131.301
760.9690, 2292.037
762.1150, 2016.758
763.2600, 1918.465
764.4060, 2236.160
765.5510, 1970.840
766.6950, 2179.508
767.8400, 2277.162
768.9850, 2116.803
770.1290, 2220.434
771.2730, 2157.053
772.4170, 2278.660
773.5610, 2289.256
774.7050, 2369.840
775.8480, 2542.414
776.9920, 2206.979
778.1350, 2212.533
779.2780, 2298.076
780.4210, 2186.613
781.5640, 2234.143
782.7060, 2319.658
783.8490, 2004.170
784.9910, 2225.674
786.1330, 2066.986
787.2750, 2080.654
788.4170, 1988.137
789.5580, 1710.611
790.7000, 1801.080
791.8410, 1393.543
792.9820, 1801.998
794.1230, 1425.449
795.2640, 1563.895
796.4040, 1195.334
797.5450, 1148.771
798.6850, 1210.203
799.8250, 1522.631
800.9650, 1196.053
802.1050, 1336.475
803.2450, 1022.895
804.3840, 1029.311
805.5230, 1117.723
806.6630, 920.1328
807.8020, 943.5410
808.9400, 988.9473
810.0790, 918.3555
811.2170, 860.6191
812.3560, 839.1660
813.4940, 669.5703
814.6320, 580.9766
815.7700, 533.3828
816.9070, 621.7910
818.0450, 546.1992
819.1820, 474.6094
820.3190, 478.9297
821.4560, 321.4355
822.5930, 372.8535
823.7300, 295.2734
824.8670, 177.6992
826.0030, 21.12695
827.1390, 47.54883
828.2750, 98.02734
829.4110, 155.1250
830.5470, 56.38867
831.6820, 236.1504
832.8180, 250.0430
833.9530, 158.0703
835.0880, 335.1875
836.2230, 128.4824
837.3580, 94.84180
838.4920, 244.2539
839.6270, 117.7949
840.7610, 308.3945
841.8950, 324.1523
843.0290, 157.0762
844.1630, 457.0781
845.2960, 125.6934
846.4300, 65.52734
847.5630, 117.7754
848.6960, 8.923828
849.8290, 29.62891
850.9620, 102.6543
852.0940, 81.97852
853.2270, 100.6699
854.3590, 208.6699
855.4910, 60.90234
856.6230, 258.4902
857.7550, 184.0918
858.8870, 384.7090
860.0180, 179.3418
861.1500, 200.9922
862.2810, 236.6562
863.4120, 400.3398
864.5430, 524.0449
865.6730, 335.8711
866.8040, 547.8848
867.9340, 674.8379
869.0640, 721.3691
870.1940, 446.3770
871.3240, 586.6426
872.4540, 560.5859
873.5830, 527.7656
874.7130, 726.7422
875.8420, 498.9609
876.9710, 694.5566
878.1000, 721.3145
879.2290, 825.5410
880.3570, 762.4199
881.4860, 704.0703
882.6140, 1081.242
883.7420, 985.4922
884.8700, 1026.783
885.9980, 768.1602
887.1250, 788.6484
888.2530, 837.2500
889.3800, 684.9512
890.5070, 671.7246
891.6340, 763.5762
892.7610, 829.4531
893.8880, 1019.410
895.0140, 828.2949
896.1400, 777.5078
897.2670, 488.6035
898.3930, 812.7383
899.5180, 756.9023
900.6440, 788.1836
901.7700, 567.5352
902.8950, 923.9102
904.0200, 760.3477
905.1450, 700.8125
906.2700, 811.3438
907.3950, 805.9023
908.5190, 936.4922
909.6440, 817.1406
910.7680, 937.8398
911.8920, 1186.625
913.0160, 939.4453
914.1400, 1024.293
915.2630, 964.1758
916.3870, 1254.129
917.5100, 1358.113
918.6330, 1228.145
919.7560, 1262.230
920.8790, 1282.352
922.0010, 1291.867
923.1240, 1272.773
924.2460, 1431.035
925.3680, 1395.324
926.4900, 1515.656
927.6120, 1488.016
928.7340, 1580.414
929.8550, 1627.844
930.9760, 1615.312
932.0980, 1740.812
933.2190, 1742.203
934.3390, 1832.242
935.4600, 1818.531
936.5810, 2015.203
937.7010, 2083.871
938.8210, 2198.824
939.9410, 2176.426
941.0610, 2355.242
942.1810, 2248.090
943.3010, 2389.023
944.4200, 2378.008
945.5390, 2581.059
946.6580, 2596.184
947.7770, 2579.348
948.8960, 2565.555
950.0150, 2700.816
951.1330, 2772.113
952.2510, 2835.445
953.3690, 3031.820
954.4870, 2948.234
955.6050, 2750.691
956.7230, 2797.184
957.8400, 2861.711
958.9580, 3119.281
960.0750, 2724.887
961.1920, 2881.207
962.3090, 3240.891
963.4250, 3420.004
964.5420, 3175.754
965.6580, 3371.418
966.7740, 3224.352
967.8900, 3336.535
969.0060, 3196.625
970.1220, 3343.727
971.2380, 3563.898
972.3530, 3424.160
973.4680, 3793.438
974.5830, 3735.633
975.6980, 3850.203
976.8130, 3766.945
977.9280, 3871.266
979.0420, 4242.012
980.1560, 4171.477
981.2710, 4174.375
982.3850, 4543.582
983.4980, 4580.070
984.6120, 4737.750
985.7260, 4608.223
986.8390, 4984.973
987.9520, 4964.844
989.0650, 5080.812
990.1780, 5581.785
991.2910, 5389.812
992.4030, 5616.895
993.5160, 5728.031
994.6280, 5819.227
995.7400, 5857.469
996.8520, 6119.766
997.9640, 6121.125
999.0750, 6441.535
1000.187, 6452.008
1001.298, 6596.539
1002.409, 6629.121
1003.520, 6652.766
1004.631, 6596.469
1005.741, 6979.223
1006.852, 6930.027
1007.962, 7220.887
1009.072, 7189.801
1010.182, 6977.770
1011.292, 7167.793
1012.402, 7223.879
1013.511, 7375.020
1014.621, 6975.207
1015.730, 6692.480
1016.839, 7088.773
1017.948, 7269.059
1019.056, 7202.527
1020.165, 7252.703
1021.273, 6996.664
1022.382, 6940.590
1023.490, 6788.246
1024.598, 6514.953
1025.706, 6367.695
1026.813, 6195.625
1027.921, 6023.750
1029.028, 6276.629
1030.135, 6133.488
1031.242, 5688.238
1032.349, 5887.270
1033.456, 5622.762
1034.562, 5750.055
1035.668, 5609.207
1036.775, 5344.188
1037.881, 5299.430
1038.987, 5034.230
1040.092, 5191.551
1041.198, 4899.922
1042.303, 4760.035
1043.408, 4947.988
1044.514, 4910.363
1045.618, 4625.922
1046.723, 4694.473
1047.828, 4492.059
1048.932, 4216.633
1050.037, 4293.520
1051.141, 4408.516
1052.245, 4376.375
1053.349, 4193.129
1054.452, 4241.438
1055.556, 4265.254
1056.659, 3884.094
1057.762, 4027.961
1058.865, 4343.879
1059.968, 4154.816
1061.071, 3822.789
1062.174, 4112.785
1063.276, 4088.809
1064.378, 3822.863
1065.480, 3884.242
1066.582, 3634.371
1067.684, 3702.512
1068.786, 3623.141
1069.887, 3643.340
1070.988, 3689.566
1072.090, 3638.508
1073.191, 3595.098
1074.291, 3688.402
1075.392, 3393.430
1076.493, 3569.949
1077.593, 3396.496
1078.693, 3944.852
1079.793, 3420.781
1080.893, 3538.051
1081.993, 3985.754
1083.092, 3520.305
1084.192, 3381.871
1085.291, 3376.336
1086.390, 3126.953
1087.489, 3339.316
1088.588, 3145.969
1089.686, 3057.641
1090.785, 2884.328
1091.883, 2753.039
1092.981, 2728.770
1094.079, 2633.516
1095.177, 2352.289
1096.275, 2502.109
1097.373, 2134.000
1098.470, 2249.469
1099.567, 2246.500
1100.664, 2390.625
1101.761, 1847.805
1102.858, 1857.785
1103.954, 1586.371
1105.051, 1865.758
1106.147, 1559.309
1107.243, 1643.059
1108.339, 1113.000
1109.435, 1264.508
1110.531, 1330.840
1111.626, 1316.656
1112.722, 982.0781
1113.817, 1061.605
1114.912, 974.7656
1116.007, 881.1250
1117.101, 1021.422
1118.196, 737.6797
1119.290, 872.1406
1120.385, 837.6328
1121.479, 880.5430
1122.573, 756.0430
1123.666, 683.2930
1124.760, 778.3867
1125.853, 780.4648
1126.947, 636.7695
1128.040, 684.9492
1129.133, 391.8594
1130.226, 397.9492
1131.318, 535.1680
1132.411, 401.2305
1133.503, 452.3047
1134.596, 279.8984
1135.688, 239.3984
1136.780, 381.7188
1137.871, 101.9922
1138.963, 48.50391
1140.054, 263.2812
1141.146, 465.4453
1142.237, 472.3125
1143.328, 198.3477
1144.419, 73.99219
1145.509, 197.8750
1146.600, 2.609375
1147.690, 80.89062
1148.780, 43.83594
1149.870, 0.9257810
1150.960, 73.38672
1152.050, 8.882813
1153.139, 15.68750
1154.229, 727.6836
1155.318, 204.8945
1156.407, 480.0938
1157.496, 214.4141
1158.585, 86.32812
1159.674, 84.73828
1160.762, 32.35156
1161.850, 51.69141
1162.939, 151.5078
1164.027, 366.1797
1165.114, 137.3633
1166.202, 172.7148
1167.290, 127.5664
1168.377, 18.41406
1169.464, 119.4180
1170.551, 145.1914
1171.638, 38.83203
1172.725, 101.1992
1173.812, 80.34766
1174.898, 196.3594
1175.984, 5.406250
1177.071, 122.0898
1178.157, 158.2617
1179.242, 127.1484
1180.328, 2.722656
1181.414, 33.97266
1182.499, 77.55078
1183.584, 110.4844
1184.669, 128.3984
1185.754, 55.82812
1186.839, 71.21875
1187.924, 163.7969
1189.008, 88.91016
1190.092, 65.71875
1191.177, 209.9844
1192.260, 261.4844
1193.344, 167.2383
1194.428, 264.5859
1195.512, 19.82031
1196.595, 75.46484
1197.678, 260.5312
1198.761, 60.39453
1199.844, 137.1602
1200.927, 338.6836
1202.009, 201.0977
1203.092, 261.6641
1204.174, 167.1133
1205.256, 135.4609
1206.338, 14.11328
1207.420, 60.60547
1208.502, 103.7109
1209.583, 43.34766
1210.665, 43.86719
1211.746, 3.078125
1212.827, 146.8477
1213.908, 286.7422
1214.988, 48.60547
1216.069, 246.4297
1217.149, 58.22656
1218.230, 378.9805
1219.310, 244.7070
1220.390, 459.4258
1221.470, 249.1094
1222.549, 322.7383
1223.629, 371.3359
1224.708, 431.9023
1225.787, 358.4375
1226.866, 245.5625
1227.945, 38.96875
1229.024, 419.9688
1230.103, 259.3086
1231.181, 275.7812
1232.259, 66.95312
1233.337, 153.2070
1234.415, 230.3242
1235.493, 82.40234
1236.571, 163.7969
1237.648, 155.7852
1238.726, 140.2344
1239.803, 177.9219
1240.880, 274.7891
1241.957, 88.60938
1243.034, 359.8711
1244.110, 269.6641
1245.187, 308.7852
1246.263, 61.42969
1247.339, 4.140625
1248.415, 284.6367
1249.491, 628.0898
1250.566, 706.4375
1251.642, 509.8008
1252.717, 257.3242
1253.793, 193.4258
1254.868, 366.6523
1255.943, 278.9062
1257.017, 228.2969
1258.092, 120.5352
1259.166, 275.9883
1260.241, 112.9688
1261.315, 126.1641
1262.389, 464.0312
1263.462, 112.8477
1264.536, 133.0703
1265.610, 286.7695
1266.683, 454.5781
1267.756, 251.2109
1268.829, 203.7617
1269.902, 113.4414
1270.975, 195.8789
1272.048, 86.48438
1273.120, 139.5586
1274.192, 197.9531
1275.264, 216.3516
1276.336, 386.7422
1277.408, 445.8398
1278.480, 43.92969
1279.551, 162.8242
1280.623, 10.72266
1281.694, 60.64844
1282.765, 289.6914
1283.836, 377.2930
1284.907, 456.0781
1285.977, 153.9609
1287.048, 409.2734
1288.118, 378.3242
1289.188, 121.6680
1290.258, 134.6680
1291.328, 78.79688
1292.398, 256.9375
1293.467, 415.6055
1294.537, 221.4727
1295.606, 335.4648
1296.675, 79.62500
1297.744, 111.1055
1298.813, 280.8047
1299.882, 83.57812
1300.950, 200.7344
1302.018, 205.6836
1303.086, 458.2031
1304.155, 398.8789
1305.222, 472.3633
1306.290, 459.8359
1307.358, 432.9688
1308.425, 245.7031
1309.492, 333.8164
1310.559, 423.8086
1311.626, 321.9297
1312.693, 408.1484
1313.760, 373.8008
1314.826, 237.9336
1315.893, 370.0273
1316.959, 575.0820
1318.025, 527.1016
1319.091, 615.9336
1320.157, 551.0156
1321.222, 558.9180
1322.288, 386.7852
1323.353, 200.6055
1324.418, 196.0938
