##NAMES=Magnesio-hastingsite
##RRUFFID=R040010
##IDEAL CHEMISTRY=NaCa_2_(Mg_4_Fe^3+^)Si_6_Al_2_O_22_(OH)_2_
##LOCALITY=Amity, New York, USA
##OWNER=RRUFF
##SOURCE=University of Arizona Mineral Museum
##DESCRIPTION=Group of black prismatic crystals
##STATUS=The identification of this mineral has been confirmed by X-ray diffraction and chemical analysis
##URL=rruff.info/R040010
##MEASURED CHEMISTRY=(Na_0.50_K_0.43_[box]_0.07_)_Σ=1_(Ca_1.77_Na_0.23_)_Σ=2_(Mg_1.74_Fe_1.22_Fe^3+^_0.79_Mn_0.57_Al_0.30_Zn_0.25_Ti_0.13_)_Σ=5_(Si_5.95_Al_2.05_)_Σ=8_O_22_((OH)_1.75_F_0.22_Cl_0.03_)_Σ=2_; OH estimated by charge balance
##PIN_ID=L00198
##ORIENTATION=Laser parallel to c [0 0 1]. Fiducial mark perpendicular to laser is parallel to -b* (0 -1 0)
131.3060, 0.0000000E+00
132.5420, 384.2617
133.7780, 12.25391
135.0140, 305.6289
136.2500, 264.0684
137.4850, 836.9570
138.7200, 1757.422
139.9550, 2671.691
141.1900, 2651.566
142.4250, 2513.047
143.6600, 3241.361
144.8940, 3603.291
146.1280, 4292.988
147.3620, 5177.168
148.5960, 5726.957
149.8300, 6520.422
151.0630, 6842.727
152.2960, 6705.047
153.5300, 5980.273
154.7620, 5762.320
155.9950, 4639.125
157.2280, 3341.637
158.4600, 2284.844
159.6920, 1627.727
160.9250, 2272.254
162.1560, 437.8594
163.3880, 787.8594
164.6200, 690.1016
165.8510, 185.6133
167.0820, 7.000000
168.3130, 318.3359
169.5440, 280.7500
170.7750, 593.0781
172.0050, 434.6172
173.2350, 357.3711
174.4650, 270.3594
175.6950, 658.5820
176.9250, 647.0547
178.1550, 697.7852
179.3840, 764.7812
180.6130, 480.0625
181.8420, 704.6289
183.0710, 512.5078
184.3000, 708.8359
185.5280, 630.5742
186.7570, 800.6445
187.9850, 730.0352
189.2130, 870.6875
190.4400, 666.6641
191.6680, 636.9688
192.8960, 806.9766
194.1230, 809.2812
195.3500, 911.5273
196.5770, 1037.523
197.8030, 1294.738
199.0300, 1651.527
200.2560, 2317.742
201.4830, 2724.375
202.7090, 2458.406
203.9340, 1100.840
205.1600, 363.6172
206.3860, 337.5273
207.6110, 220.5664
208.8360, 355.5586
210.0610, 666.8828
211.2860, 1328.418
212.5100, 1556.176
213.7350, 2243.168
214.9590, 2674.398
216.1830, 2805.875
217.4070, 3137.594
218.6310, 3834.562
219.8540, 3906.781
221.0780, 4341.254
222.3010, 4448.980
223.5240, 4282.965
224.7470, 4485.207
225.9690, 4258.719
227.1920, 3969.504
228.4140, 3905.574
229.6360, 3342.941
230.8580, 3188.602
232.0800, 2956.574
233.3020, 2526.949
234.5230, 2372.582
235.7440, 1842.828
236.9650, 1745.211
238.1860, 1380.633
239.4070, 1514.078
240.6280, 1029.957
241.8480, 871.1016
243.0680, 678.2734
244.2880, 434.6562
245.5080, 324.3086
246.7280, 214.2305
247.9470, 228.4102
249.1660, 60.25391
250.3860, 8.882813
251.6040, 179.4805
252.8230, 221.2695
254.0420, 292.8008
255.2600, 528.2422
256.4790, 324.9180
257.6970, 192.2773
258.9150, 126.4961
260.1320, 328.5195
261.3500, 184.1836
262.5670, 178.3555
263.7840, 177.9648
265.0010, 15.70312
266.2180, 93.05469
267.4350, 105.6992
268.6510, 41.45312
269.8680, 314.2891
271.0840, 462.2656
272.3000, 501.4531
273.5160, 832.5273
274.7310, 1002.512
275.9470, 1373.375
277.1620, 1639.461
278.3770, 1895.020
279.5920, 2240.746
280.8070, 2614.891
282.0210, 2560.297
283.2360, 2939.340
284.4500, 3186.922
285.6640, 3015.996
286.8780, 3529.512
288.0920, 3494.426
289.3050, 3760.711
290.5180, 4011.332
291.7320, 3976.266
292.9450, 3967.504
294.1570, 3859.027
295.3700, 3804.984
296.5830, 3567.848
297.7950, 3568.094
299.0070, 3347.555
300.2190, 3087.223
301.4310, 3007.094
302.6420, 2927.160
303.8540, 2727.887
305.0650, 2487.887
306.2760, 2395.543
307.4870, 2271.414
308.6980, 2056.477
309.9080, 1738.773
311.1190, 1463.285
312.3290, 1539.062
313.5390, 1691.047
314.7490, 936.4219
315.9580, 1200.688
317.1680, 1131.301
318.3770, 905.2734
319.5860, 1069.621
320.7950, 747.3359
322.0040, 713.4102
323.2130, 610.8555
324.4210, 670.6484
325.6290, 781.8086
326.8380, 370.3242
328.0460, 530.1914
329.2530, 524.2969
330.4610, 211.2773
331.6680, 252.3398
332.8760, 2.164063
334.0830, 131.1914
335.2890, 9.664063
336.4960, 49.71875
337.7030, 12.86719
338.9090, 152.4844
340.1150, 46.71875
341.3210, 13.02344
342.5270, 28.77734
343.7330, 75.48828
344.9380, 62.94531
346.1440, 87.46875
347.3490, 240.2539
348.5540, 60.88672
349.7590, 368.1250
350.9630, 51.27734
352.1680, 330.0703
353.3720, 766.4102
354.5760, 553.9883
355.7800, 525.7031
356.9840, 536.5586
358.1870, 733.5469
359.3910, 1129.684
360.5940, 1073.949
361.7970, 1453.348
363.0000, 1280.887
364.2030, 1788.559
365.4050, 1761.355
366.6080, 2088.289
367.8100, 2125.355
369.0120, 2224.539
370.2140, 2487.859
371.4150, 2820.305
372.6170, 3178.871
373.8180, 3246.562
375.0190, 3436.379
376.2200, 3552.312
377.4210, 3545.367
378.6220, 3570.539
379.8220, 3803.828
381.0230, 3889.207
382.2230, 3996.699
383.4230, 3811.289
384.6220, 3857.980
385.8220, 3786.781
387.0220, 3604.695
388.2210, 3530.719
389.4200, 3381.852
390.6190, 3338.090
391.8180, 3444.434
393.0160, 3253.883
394.2150, 3324.434
395.4130, 3307.688
396.6110, 3228.035
397.8090, 3045.031
399.0060, 2783.496
400.2040, 2699.211
401.4010, 2593.789
402.5980, 2697.453
403.7950, 2446.453
404.9920, 2897.367
406.1890, 2742.727
407.3860, 2641.422
408.5820, 2628.266
409.7780, 2964.062
410.9740, 2820.953
412.1700, 3135.930
413.3650, 3378.996
414.5610, 3401.156
415.7560, 3792.402
416.9510, 4018.738
418.1460, 4089.156
419.3410, 4574.664
420.5360, 4673.258
421.7300, 5113.938
422.9240, 5420.727
424.1180, 5554.637
425.3120, 6009.688
426.5060, 6384.855
427.7000, 6245.137
428.8930, 6911.527
430.0860, 6950.023
431.2790, 6489.633
432.4720, 6511.348
433.6650, 6592.168
434.8580, 6491.090
436.0500, 6295.109
437.2420, 5936.230
438.4340, 5946.445
439.6260, 5487.762
440.8180, 5386.172
442.0090, 5193.676
443.2010, 4858.266
444.3920, 4731.957
445.5830, 4245.734
446.7740, 3850.602
447.9640, 3671.555
449.1550, 3411.840
450.3450, 2964.977
451.5350, 2882.574
452.7250, 2483.535
453.9150, 2444.719
455.1050, 2260.305
456.2940, 2024.113
457.4830, 1844.914
458.6720, 1761.066
459.8610, 1557.820
461.0500, 1466.191
462.2390, 1417.637
463.4270, 1275.578
464.6150, 1302.691
465.8040, 1180.641
466.9910, 1235.547
468.1790, 1134.039
469.3670, 1238.297
470.5540, 1531.355
471.7410, 1395.188
472.9280, 1351.195
474.1150, 1456.969
475.3020, 1361.086
476.4890, 1935.035
477.6750, 1720.543
478.8610, 2693.016
480.0470, 1910.430
481.2330, 2506.660
482.4190, 2625.188
483.6040, 2649.664
484.7900, 2920.957
485.9750, 3261.090
487.1600, 3328.508
488.3450, 3591.062
489.5290, 4029.281
490.7140, 4318.867
491.8980, 4671.465
493.0820, 5155.074
494.2660, 5236.703
495.4500, 5672.414
496.6340, 6148.172
497.8170, 6426.672
499.0010, 6865.977
500.1840, 7203.531
501.3670, 7585.332
502.5500, 7960.145
503.7320, 8253.961
504.9150, 8616.777
506.0970, 9037.602
507.2790, 9154.430
508.4610, 9569.262
509.6430, 9591.098
510.8250, 10027.93
512.0060, 10605.76
513.1870, 10653.59
514.3680, 10730.43
515.5490, 11064.25
516.7300, 11317.08
517.9110, 11723.89
519.0910, 12167.71
520.2710, 12227.52
521.4510, 12600.32
522.6310, 12928.12
523.8110, 13406.90
524.9910, 13391.68
526.1700, 13594.45
527.3490, 14195.20
528.5280, 14156.95
529.7070, 14539.68
530.8860, 14386.39
532.0650, 14254.10
533.2430, 14339.79
534.4210, 14156.46
535.5990, 13761.12
536.7770, 13707.76
537.9550, 13047.39
539.1320, 12949.02
540.3100, 13099.67
541.4870, 12231.34
542.6640, 11858.06
543.8410, 11450.82
545.0170, 10980.59
546.1940, 10722.34
547.3700, 10256.12
548.5470, 9799.902
549.7230, 9402.703
550.8980, 9301.500
552.0740, 8995.297
553.2500, 8663.113
554.4250, 8301.914
555.6000, 8299.727
556.7750, 7944.570
557.9500, 7877.445
559.1250, 7257.367
560.2990, 7061.320
561.4730, 6795.293
562.6480, 6712.340
563.8220, 6198.445
564.9950, 6249.625
566.1690, 6051.855
567.3430, 5516.133
568.5160, 5486.445
569.6890, 4786.801
570.8620, 4464.156
572.0350, 4781.535
573.2070, 4017.465
574.3800, 3856.195
575.5520, 3097.469
576.7240, 3044.736
577.8960, 2607.986
579.0680, 2293.209
580.2400, 2086.391
581.4110, 2014.529
582.5830, 1578.621
583.7540, 1175.666
584.9250, 1168.658
586.0950, 991.6016
587.2660, 901.4961
588.4370, 489.3418
589.6070, 330.1309
590.7770, 182.8535
591.9470, 289.4688
593.1170, 15.99805
594.2860, 14.66406
595.4560, 175.5234
596.6250, 317.6660
597.7940, 297.1738
598.9630, 394.0332
600.1320, 415.3008
601.3000, 484.9844
602.4690, 530.1309
603.6370, 502.7559
604.8050, 502.2695
605.9730, 512.5332
607.1410, 429.4824
608.3090, 499.9746
609.4760, 493.9414
610.6430, 456.9238
611.8100, 21.27930
612.9770, 261.4082
614.1440, 48.88867
615.3110, 183.3867
616.4770, 109.5215
617.6430, 355.4941
618.8090, 406.3672
619.9750, 651.1504
621.1410, 807.8711
622.3070, 1067.523
623.4720, 1111.133
624.6370, 1778.674
625.8020, 1433.156
626.9670, 1844.570
628.1320, 2624.928
629.2970, 3153.223
630.4610, 2589.455
631.6250, 2841.623
632.7890, 3146.725
633.9530, 3263.764
635.1170, 3608.730
636.2810, 4327.637
637.4440, 4318.273
638.6070, 4928.242
639.7700, 4596.943
640.9330, 5223.578
642.0960, 5313.141
643.2590, 5156.645
644.4210, 5809.074
645.5830, 5915.441
646.7450, 5929.740
647.9070, 6271.969
649.0690, 6672.129
650.2310, 7001.223
651.3920, 7081.250
652.5530, 7574.211
653.7140, 7657.102
654.8750, 8073.928
656.0360, 7940.680
657.1970, 8184.369
658.3570, 8120.988
659.5170, 7995.539
660.6770, 8166.027
661.8370, 8304.445
662.9970, 8491.797
664.1570, 7829.078
665.3160, 7484.295
666.4750, 7065.445
667.6340, 6791.527
668.7930, 6277.541
669.9520, 6072.488
671.1110, 5444.371
672.2690, 5446.188
673.4270, 5296.934
674.5850, 4910.613
675.7430, 4506.230
676.9010, 4374.777
678.0590, 3972.260
679.2160, 3804.676
680.3730, 3824.029
681.5300, 3617.309
682.6870, 3466.529
683.8440, 3001.678
685.0010, 3064.762
686.1570, 2807.781
687.3130, 2368.738
688.4690, 2591.861
689.6250, 2521.684
690.7810, 2005.979
691.9370, 1924.775
693.0920, 1930.586
694.2470, 1855.047
695.4020, 1978.258
696.5570, 1880.785
697.7120, 2134.385
698.8670, 2043.480
700.0210, 2155.268
701.1750, 2517.088
702.3290, 2707.076
703.4830, 2667.201
704.6370, 3150.322
705.7910, 3428.078
706.9440, 3517.830
708.0970, 3878.494
709.2510, 4251.092
710.4030, 4362.203
711.5560, 4966.898
712.7090, 4870.441
713.8610, 5001.764
715.0140, 5178.758
716.1660, 5564.332
717.3180, 5720.535
718.4690, 6031.484
719.6210, 6364.365
720.7730, 6563.207
721.9240, 6759.967
723.0750, 6928.650
724.2260, 7125.262
725.3770, 7160.795
726.5270, 7299.254
727.6780, 7538.639
728.8280, 7628.705
729.9780, 7608.926
731.1280, 7816.703
732.2780, 7926.129
733.4280, 7840.340
734.5770, 7654.158
735.7260, 7499.771
736.8760, 7650.395
738.0250, 7329.674
739.1730, 7298.367
740.3220, 7118.445
741.4700, 6932.465
742.6190, 6725.027
743.7670, 6478.926
744.9150, 6209.898
746.0630, 5911.486
747.2100, 5662.500
748.3580, 5283.754
749.5050, 5058.031
750.6520, 4770.898
751.7990, 4534.414
752.9460, 4176.176
754.0930, 3799.598
755.2390, 4154.113
756.3860, 3916.148
757.5320, 3669.191
758.6780, 3682.328
759.8240, 3402.453
760.9690, 3461.559
762.1150, 3498.652
763.2600, 3475.734
764.4060, 3497.797
765.5510, 3534.855
766.6950, 3394.895
767.8400, 3576.926
768.9850, 3360.945
770.1290, 3593.957
771.2730, 3615.953
772.4170, 3628.949
773.5610, 3613.938
774.7050, 3725.914
775.8480, 3567.895
776.9920, 3817.859
778.1350, 3813.828
779.2780, 3477.793
780.4210, 3525.750
781.5640, 3552.711
782.7060, 3554.668
783.8490, 3389.625
784.9910, 3244.582
786.1330, 3241.539
787.2750, 3076.500
788.4170, 3062.469
789.5580, 2729.434
790.7000, 2754.406
791.8410, 2672.383
792.9820, 2563.363
794.1230, 2512.348
795.2640, 2202.340
796.4040, 2119.340
797.5450, 2146.348
798.6850, 2189.363
799.8250, 1863.391
800.9650, 2076.426
802.1050, 2103.473
803.2450, 1746.531
804.3840, 1825.598
805.5230, 1528.680
806.6630, 1611.773
807.8020, 1720.883
808.9400, 1214.008
810.0790, 1229.148
811.2170, 1070.305
812.3560, 1082.477
813.4940, 925.6680
814.6320, 1184.879
815.7700, 1034.109
816.9070, 1073.359
818.0450, 937.5156
819.1820, 1029.918
820.3190, 626.2305
821.4560, 483.5625
822.5930, 523.9180
823.7300, 307.3008
824.8670, 74.29688
826.0030, 106.0859
827.1390, 63.50781
828.2750, 205.1250
829.4110, 14.18750
830.5470, 169.4922
831.6820, 239.2266
832.8180, 248.0547
833.9530, 286.9766
835.0880, 282.0156
836.2230, 192.1602
837.3580, 455.3672
838.4920, 376.7656
839.6270, 451.3125
840.7610, 370.0469
841.8950, 350.9180
843.0290, 303.9219
844.1630, 358.0312
845.2960, 183.2656
846.4300, 270.5469
847.5630, 3.085938
848.6960, 91.03125
849.8290, 20.42188
850.9620, 152.8711
852.0940, 148.1836
853.2270, 98.51562
854.3590, 33.84375
855.4910, 114.8633
856.6230, 251.6055
857.7550, 222.3945
858.8870, 149.2344
860.0180, 530.1172
861.1500, 534.0430
862.2810, 525.0195
863.4120, 675.0469
864.5430, 822.1172
865.6730, 841.2500
866.8040, 762.4570
867.9340, 1107.734
869.0640, 846.1289
870.1940, 984.6445
871.3240, 1237.332
872.4540, 1390.227
873.5830, 1269.324
874.7130, 1624.645
875.8420, 1506.207
876.9710, 1530.047
878.1000, 1632.160
879.2290, 1504.574
880.3570, 1653.258
881.4860, 1685.207
882.6140, 2015.402
883.7420, 1804.867
884.8700, 1963.598
885.9980, 1864.590
887.1250, 1801.727
888.2530, 1654.074
889.3800, 1924.598
890.5070, 1896.238
891.6340, 2031.016
892.7610, 2119.930
893.8880, 2132.922
895.0140, 2077.004
896.1400, 2169.242
897.2670, 2328.531
898.3930, 2265.949
899.5180, 2371.449
900.6440, 2411.031
901.7700, 2519.711
902.8950, 2807.461
904.0200, 2783.359
905.1450, 3024.367
906.2700, 3144.441
907.3950, 3173.668
908.5190, 3167.008
909.6440, 3169.488
910.7680, 3307.473
911.8920, 3409.094
913.0160, 3553.605
914.1400, 3732.492
915.2630, 3752.492
916.3870, 3877.570
917.5100, 3971.730
918.6330, 4208.965
919.7560, 4135.305
920.8790, 4303.742
922.0010, 4319.328
923.1240, 4460.984
924.2460, 4456.418
925.3680, 4181.527
926.4900, 4409.418
927.6120, 4413.395
928.7340, 4339.457
929.8550, 4697.586
930.9760, 4746.793
932.0980, 4851.324
933.2190, 5204.469
934.3390, 5040.938
935.4600, 5373.500
936.5810, 5456.188
937.7010, 5209.941
938.8210, 5616.801
939.9410, 5611.734
941.0610, 5779.734
942.1810, 5815.812
943.3010, 6009.000
944.4200, 5923.297
945.5390, 5917.730
946.6580, 5978.113
947.7770, 6269.883
948.8960, 6047.566
950.0150, 6310.324
951.1330, 6448.156
952.2510, 6157.070
953.3690, 6300.055
954.4870, 6370.117
955.6050, 6290.250
956.7230, 6513.453
957.8400, 6379.730
958.9580, 6225.082
960.0750, 6227.277
961.1920, 6175.840
962.3090, 6356.133
963.4250, 6458.016
964.5420, 6503.836
965.6580, 6272.973
966.7740, 6384.465
967.8900, 6356.949
969.0060, 6321.676
970.1220, 6480.008
971.2380, 6459.559
972.3530, 6487.156
973.4680, 6665.594
974.5830, 6682.797
975.6980, 6604.234
976.8130, 6838.938
977.9280, 6864.652
979.0420, 6878.461
980.1560, 7118.344
981.2710, 7097.723
982.3850, 7191.531
983.4980, 7439.496
984.6120, 7526.699
985.7260, 7713.996
986.8390, 7895.219
987.9520, 8023.574
989.0650, 8176.059
990.1780, 8386.883
991.2910, 8452.629
992.4030, 8590.461
993.5160, 8779.383
994.6280, 8716.406
995.7400, 9185.508
996.8520, 9436.703
997.9640, 9585.984
999.0750, 9663.363
1000.187, 9914.828
1001.298, 9886.375
1002.409, 10229.02
1003.520, 10359.74
1004.631, 10288.55
1005.741, 10353.45
1006.852, 10529.43
1007.962, 10577.33
1009.072, 10800.62
1010.182, 10867.16
1011.292, 10757.45
1012.402, 10934.12
1013.511, 11181.56
1014.621, 11087.07
1015.730, 10954.66
1016.839, 10949.42
1017.948, 10813.05
1019.056, 10677.64
1020.165, 10410.52
1021.273, 10200.45
1022.382, 10124.98
1023.490, 10049.97
1024.598, 9837.254
1025.706, 9641.395
1026.813, 9498.637
1027.921, 9467.840
1029.028, 9381.789
1030.135, 8626.293
1031.242, 8934.539
1032.349, 8809.719
1033.456, 8236.621
1034.562, 9098.137
1035.668, 9253.031
1036.775, 8080.941
1037.881, 8525.496
1038.987, 8468.344
1040.092, 7894.398
1041.198, 8530.094
1042.303, 7663.191
1043.408, 7969.566
1044.514, 6825.223
1045.618, 6571.406
1046.723, 6410.219
1047.828, 6390.016
1048.932, 5985.742
1050.037, 6148.680
1051.141, 6103.418
1052.245, 5911.152
1053.349, 5905.969
1054.452, 5649.742
1055.556, 5701.656
1056.659, 5537.414
1057.762, 5514.535
1058.865, 5053.641
1059.968, 5224.484
1061.071, 5438.883
1062.174, 5039.746
1063.276, 5303.059
1064.378, 4902.227
1065.480, 5137.789
1066.582, 5028.328
1067.684, 5170.809
1068.786, 5113.070
1069.887, 4860.914
1070.988, 4643.043
1072.090, 4887.242
1073.191, 4646.156
1074.291, 4590.357
1075.392, 4487.682
1076.493, 4578.418
1077.593, 4753.912
1078.693, 4759.764
1079.793, 4678.791
1080.893, 4789.111
1081.993, 4567.504
1083.092, 4454.166
1084.192, 4413.906
1085.291, 4108.078
1086.390, 4156.240
1087.489, 4128.361
1088.588, 4114.766
1089.686, 3925.260
1090.785, 4073.514
1091.883, 3520.809
1092.981, 3321.002
1094.079, 3233.506
1095.177, 3377.074
1096.275, 3243.834
1097.373, 3186.295
1098.470, 2768.055
1099.567, 2659.473
1100.664, 2775.207
1101.761, 2430.957
1102.858, 2404.326
1103.954, 1915.262
1105.051, 2019.539
1106.147, 1823.904
1107.243, 1814.256
1108.339, 1281.059
1109.435, 1394.135
1110.531, 1436.877
1111.626, 1412.184
1112.722, 1119.439
1113.817, 1172.904
1114.912, 1088.578
1116.007, 999.5996
1117.101, 1101.855
1118.196, 848.2500
1119.290, 947.7910
1120.385, 906.1992
1121.479, 929.1133
1122.573, 812.5840
1123.666, 739.0918
1124.760, 805.3398
1125.853, 796.9746
1126.947, 664.6387
1128.040, 691.7148
1129.133, 433.7500
1130.226, 428.5547
1131.318, 529.6504
1132.411, 404.3164
1133.503, 434.7227
1134.596, 405.5430
1135.688, 107.5957
1136.780, 227.6055
1137.871, 182.9707
1138.963, 250.5898
1140.054, 249.9922
1141.146, 115.6641
1142.237, 82.71680
1143.328, 188.8457
1144.419, 123.5527
1145.509, 186.1621
1146.600, 92.39844
1147.690, 744.6445
1148.780, 111.0703
1149.870, 27.90430
1150.960, 703.5195
1152.050, 295.4707
1153.139, 101.6055
1154.229, 57.16992
1155.318, 71.39844
1156.407, 213.7031
1157.496, 93.84570
1158.585, 93.08398
1159.674, 276.5410
1160.762, 26.80664
1161.850, 178.5039
1162.939, 30.47461
1164.027, 38.41992
1165.114, 76.73633
1166.202, 0.3515630
1167.290, 267.3164
1168.377, 130.8652
1169.464, 137.8281
1170.551, 275.7988
1171.638, 123.6367
1172.725, 238.6035
1173.812, 96.64844
1174.898, 177.9277
1175.984, 56.09766
1177.071, 44.35742
1178.157, 108.2383
1179.242, 7.230469
1180.328, 24.19141
1181.414, 56.55469
1182.499, 79.36719
1183.584, 31.41211
1184.669, 232.5527
1185.754, 95.09961
1186.839, 128.0918
1187.924, 44.64258
1189.008, 25.12695
1190.092, 33.53125
1191.177, 24.86719
1192.260, 164.1230
1193.344, 106.3262
1194.428, 129.4766
1195.512, 82.05273
1196.595, 106.6660
1197.678, 19.99219
1198.761, 118.6270
1199.844, 284.3086
1200.927, 16.95703
1202.009, 183.5215
1203.092, 572.9453
1204.174, 202.3184
1205.256, 44.36914
1206.338, 49.18359
1207.420, 155.0488
1208.502, 15.65820
1209.583, 287.3027
1210.665, 224.1230
1211.746, 213.9609
1212.827, 177.6543
1213.908, 106.1641
1214.988, 287.5996
1216.069, 142.9785
1217.149, 335.2910
1218.230, 251.5449
1219.310, 212.7773
1220.390, 473.8691
1221.470, 72.93945
1222.549, 353.9238
1223.629, 260.8477
1224.708, 255.7246
1225.787, 99.63477
1226.866, 304.4492
1227.945, 248.1035
1229.024, 398.7344
1230.103, 292.9238
1231.181, 168.5117
1232.259, 213.0781
1233.337, 300.6680
1234.415, 248.9199
1235.493, 253.1016
1236.571, 168.7285
1237.648, 266.9629
1238.726, 463.3496
1239.803, 274.3223
1240.880, 410.1426
1241.957, 480.8965
1243.034, 489.5801
1244.110, 230.1934
1245.187, 165.6191
1246.263, 430.8672
1247.339, 604.7598
1248.415, 359.3984
1249.491, 492.7109
1250.566, 491.8750
1251.642, 398.9629
1252.717, 492.0879
1253.793, 380.0312
1254.868, 146.0059
1255.943, 335.7793
1257.017, 420.7441
1258.092, 345.2207
1259.166, 162.0410
1260.241, 270.4922
1261.315, 363.8633
1262.389, 288.3359
1263.462, 351.5488
1264.536, 375.7070
1265.610, 291.9766
1266.683, 416.0996
1267.756, 487.0020
1268.829, 456.8320
1269.902, 467.0996
1270.975, 437.9414
1272.048, 420.5625
1273.120, 242.7988
1274.192, 353.1484
1275.264, 436.8496
1276.336, 431.7324
1277.408, 185.9590
1278.480, 617.3184
1279.551, 239.5859
1280.623, 486.5605
1281.694, 574.8848
1282.765, 327.3691
1283.836, 504.1992
1284.907, 505.8828
1285.977, 730.1797
1287.048, 322.7207
1288.118, 422.2930
1289.188, 315.1035
1290.258, 402.3457
1291.328, 510.8262
1292.398, 272.3672
1293.467, 357.1738
1294.537, 344.3438
1295.606, 271.1797
