##NAMES=Magnesio-hastingsite
##RRUFFID=R040010
##IDEAL CHEMISTRY=NaCa_2_(Mg_4_Fe^3+^)Si_6_Al_2_O_22_(OH)_2_
##LOCALITY=Amity, New York, USA
##OWNER=RRUFF
##SOURCE=University of Arizona Mineral Museum
##DESCRIPTION=Group of black prismatic crystals
##STATUS=The identification of this mineral has been confirmed by X-ray diffraction and chemical analysis
##URL=rruff.info/R040010
##MEASURED CHEMISTRY=(Na_0.50_K_0.43_[box]_0.07_)_Σ=1_(Ca_1.77_Na_0.23_)_Σ=2_(Mg_1.74_Fe_1.22_Fe^3+^_0.79_Mn_0.57_Al_0.30_Zn_0.25_Ti_0.13_)_Σ=5_(Si_5.95_Al_2.05_)_Σ=8_O_22_((OH)_1.75_F_0.22_Cl_0.03_)_Σ=2_; OH estimated by charge balance
##PIN_ID=L00374
##ORIENTATION=Laser parallel to a [1 0 0]. Fiducial mark perpendicular to laser is parallel to -b* (0 -1 0)
164.6200, 0.0000000E+00
165.8510, 127.3398
167.0820, 106.7656
168.3130, 145.4805
169.5440, 1.437500
170.7750, 58.86719
172.0050, 155.0742
173.2350, 149.0039
174.4650, 400.6289
175.6950, 641.2109
176.9250, 770.7031
178.1550, 1299.113
179.3840, 1373.887
180.6130, 1726.414
181.8420, 1992.406
183.0710, 1894.117
184.3000, 2407.480
185.5280, 2451.004
186.7570, 3064.328
187.9850, 3054.074
189.2130, 3134.297
190.4400, 2970.438
191.6680, 2873.449
192.8960, 2845.281
194.1230, 2765.887
195.3500, 2908.230
196.5770, 2939.090
197.8030, 3081.551
199.0300, 3204.391
200.2560, 3384.395
201.4830, 3621.000
202.7090, 3676.180
203.9340, 2584.914
205.1600, 675.1797
206.3860, 72.05078
207.6110, 458.7930
208.8360, 341.0664
210.0610, 49.10156
211.2860, 190.6992
212.5100, 625.7070
213.7350, 1100.074
214.9590, 1095.785
216.1830, 1175.840
217.4070, 1565.234
218.6310, 2107.961
219.8540, 2108.012
221.0780, 2490.391
222.3010, 2614.086
223.5240, 3019.098
224.7470, 3294.414
225.9690, 3071.039
227.1920, 3169.957
228.4140, 3052.180
229.6360, 3105.688
230.8580, 3146.488
232.0800, 2582.570
233.3020, 2910.930
234.5230, 2542.566
235.7440, 2557.477
236.9650, 2346.652
238.1860, 1883.082
239.4070, 1772.711
240.6280, 1799.559
241.8480, 1497.613
243.0680, 1172.891
244.2880, 1221.375
245.5080, 871.0625
246.7280, 886.9453
247.9470, 531.0352
249.1660, 477.1055
250.3860, 363.8359
251.6040, 123.1680
252.8230, 305.5742
254.0420, 403.0664
255.2600, 420.2227
256.4790, 115.9883
257.6970, 227.1289
258.9150, 171.9570
260.1320, 109.4414
261.3500, 278.5820
262.5670, 21.00000
263.7840, 186.8281
265.0010, 183.9062
266.2180, 258.4766
267.4350, 165.7891
268.6510, 124.9961
269.8680, 164.8711
271.0840, 202.2070
272.3000, 429.7188
273.5160, 318.4023
274.7310, 702.2539
275.9470, 1053.281
277.1620, 1112.480
278.3770, 1590.844
279.5920, 1422.375
280.8070, 1322.070
282.0210, 1570.930
283.2360, 1343.949
284.4500, 2113.129
285.6640, 2066.465
286.8780, 2110.957
288.0920, 2150.602
289.3050, 2084.402
290.5180, 2405.359
291.7320, 2605.465
292.9450, 2421.715
294.1570, 2673.121
295.3700, 2599.664
296.5830, 2567.359
297.7950, 2154.191
299.0070, 2007.168
300.2190, 2006.285
301.4310, 1950.547
302.6420, 2149.941
303.8540, 1989.469
305.0650, 1568.129
306.2760, 1687.926
307.4870, 1426.855
308.6980, 1543.914
309.9080, 1296.250
311.1190, 1374.262
312.3290, 1134.645
313.5390, 1365.273
314.7490, 1185.066
315.9580, 1213.027
317.1680, 1098.145
318.3770, 1014.344
319.5860, 892.6836
320.7950, 957.9375
322.0040, 1159.598
323.2130, 1108.027
324.4210, 1072.539
325.6290, 1115.066
326.8380, 908.7031
328.0460, 1049.395
329.2530, 1233.219
330.4610, 1387.391
331.6680, 1243.164
332.8760, 1148.422
334.0830, 1133.852
335.2890, 1284.441
336.4960, 1114.199
337.7030, 1489.109
338.9090, 1338.180
340.1150, 1466.410
341.3210, 1351.793
342.5270, 1377.316
343.7330, 1422.980
344.9380, 1487.785
346.1440, 1265.715
347.3490, 1731.785
348.5540, 1447.984
349.7590, 1837.305
350.9630, 1885.754
352.1680, 1838.102
353.3720, 2037.844
354.5760, 1803.621
355.7800, 1940.070
356.9840, 1990.113
358.1870, 2318.266
359.3910, 1969.539
360.5940, 2013.914
361.7970, 2217.402
363.0000, 2070.996
364.2030, 2237.699
365.4050, 2047.504
366.6080, 1934.410
367.8100, 2022.422
369.0120, 1987.527
370.2140, 1967.508
371.4150, 2057.332
372.6170, 2002.445
373.8180, 2089.941
375.0190, 2242.531
376.2200, 2035.215
377.4210, 1903.984
378.6220, 1933.848
379.8220, 2033.797
381.0230, 1869.836
382.2230, 1821.391
383.4230, 1822.172
384.6220, 1571.461
385.8220, 1507.836
387.0220, 1460.297
388.2210, 1294.836
389.4200, 1528.453
390.6190, 1269.148
391.8180, 1049.926
393.0160, 1343.777
394.2150, 925.7070
395.4130, 984.7148
396.6110, 1149.793
397.8090, 736.9453
399.0060, 806.1758
400.2040, 858.4766
401.4010, 649.8477
402.5980, 819.2930
403.7950, 651.8125
404.9920, 704.3984
406.1890, 385.0625
407.3860, 530.7969
408.5820, 344.6016
409.7780, 634.4727
410.9740, 812.4219
412.1700, 828.4297
413.3650, 857.5078
414.5610, 923.6602
415.7560, 974.8711
416.9510, 1218.152
418.1460, 1228.492
419.3410, 1164.902
420.5360, 1586.367
421.7300, 1312.902
422.9240, 1821.500
424.1180, 1909.156
425.3120, 2010.875
426.5060, 2289.656
427.7000, 2278.496
428.8930, 2554.398
430.0860, 2434.355
431.2790, 2230.375
432.4720, 2640.449
433.6650, 2508.590
434.8580, 2079.777
436.0500, 2010.023
437.2420, 1885.328
438.4340, 1872.688
439.6260, 1783.102
440.8180, 1595.570
442.0090, 1434.090
443.2010, 1289.664
444.3920, 1160.289
445.5830, 1056.965
446.7740, 963.6875
447.9640, 796.4648
449.1550, 891.2891
450.3450, 668.2500
451.5350, 547.6328
452.7250, 225.5078
453.9150, 313.3945
455.1050, 504.2656
456.2940, 213.7734
457.4830, 181.6523
458.6720, 180.6914
459.8610, 123.7539
461.0500, 160.5859
462.2390, 134.9609
463.4270, 129.6602
464.6150, 102.0781
465.8040, 85.89844
466.9910, 69.62109
468.1790, 51.42578
469.3670, 53.96484
470.5540, 19.60938
471.7410, 117.4766
472.9280, 20.67188
474.1150, 34.93750
475.3020, 74.47266
476.4890, 267.7812
477.6750, 476.9766
478.8610, 500.9336
480.0470, 500.4961
481.2330, 609.8633
482.4190, 645.6953
483.6040, 648.5430
484.7900, 1072.418
485.9750, 1331.312
487.1600, 1432.230
488.3450, 1620.164
489.5290, 1923.121
490.7140, 1836.098
491.8980, 2613.094
493.0820, 2935.105
494.2660, 3101.137
495.4500, 3316.227
496.6340, 3664.477
497.8170, 3810.852
499.0010, 4248.250
500.1840, 4387.660
501.3670, 4702.086
502.5500, 5292.520
503.7320, 5236.961
504.9150, 5575.418
506.0970, 6014.887
507.2790, 6063.094
508.4610, 6353.059
509.6430, 6524.324
510.8250, 6621.828
512.0060, 7061.332
513.1870, 7109.840
514.3680, 7486.352
515.5490, 7603.879
516.7300, 7696.402
517.9110, 8230.930
519.0910, 8588.449
520.2710, 8975.977
521.4510, 9024.508
522.6310, 9412.039
523.8110, 9931.566
524.9910, 9786.098
526.1700, 10072.63
527.3490, 10898.16
528.5280, 11159.68
529.7070, 11215.20
530.8860, 11669.72
532.0650, 11418.23
533.2430, 11828.74
534.4210, 11807.25
535.5990, 11475.74
536.7770, 11382.23
537.9550, 11264.72
539.1320, 11144.20
540.3100, 10922.66
541.4870, 10630.13
542.6640, 10287.58
543.8410, 10117.02
545.0170, 9752.453
546.1940, 9546.875
547.3700, 9262.477
548.5470, 9013.684
549.7230, 8651.070
550.8980, 8511.445
552.0740, 8107.805
553.2500, 7990.148
554.4250, 7734.484
555.6000, 7483.801
556.7750, 7325.887
557.9500, 6986.484
559.1250, 6887.824
560.2990, 6829.234
561.4730, 6495.691
562.6480, 6096.180
563.8220, 6178.719
564.9950, 6109.344
566.1690, 5343.004
567.3430, 5485.730
568.5160, 5381.535
569.6890, 4729.320
570.8620, 4582.141
572.0350, 4239.938
573.2070, 4282.816
574.3800, 3749.703
575.5520, 3421.605
576.7240, 3042.570
577.8960, 2798.539
579.0680, 2467.582
580.2400, 2200.504
581.4110, 1938.457
582.5830, 1615.402
583.7540, 1465.324
584.9250, 1395.219
586.0950, 816.0938
587.2660, 900.9375
588.4370, 713.7539
589.6070, 369.5430
590.7770, 256.3008
591.9470, 38.97656
593.1170, 122.9727
594.2860, 67.08594
595.4560, 211.5273
596.6250, 186.3516
597.7940, 109.3750
598.9630, 363.5586
600.1320, 329.0312
601.3000, 226.7891
602.4690, 439.7695
603.6370, 272.0898
604.8050, 318.6719
605.9730, 277.5234
607.1410, 503.6367
608.3090, 66.12891
609.4760, 316.7695
610.6430, 61.69922
611.8100, 222.7734
612.9770, 173.0859
614.1440, 167.8398
615.3110, 69.57031
616.4770, 32.46094
617.6430, 267.5117
618.8090, 390.4414
619.9750, 380.3320
621.1410, 262.1758
622.3070, 125.9805
623.4720, 661.7148
624.6370, 440.4062
625.8020, 1094.051
626.9670, 991.6641
628.1320, 835.2344
629.2970, 1299.762
630.4610, 1461.250
631.6250, 1739.699
632.7890, 1866.105
633.9530, 2117.469
635.1170, 2441.793
636.2810, 2523.070
637.4440, 2675.305
638.6070, 3136.500
639.7700, 3136.656
640.9330, 3317.762
642.0960, 3579.828
643.2590, 3874.844
644.4210, 4077.820
645.5830, 4245.750
646.7450, 4380.637
647.9070, 4561.660
649.0690, 4731.277
650.2310, 4871.031
651.3920, 5059.738
652.5530, 5199.402
653.7140, 5525.023
654.8750, 5834.594
656.0360, 5950.129
657.1970, 6036.613
658.3570, 6639.051
659.5170, 6545.441
660.6770, 6883.789
661.8370, 6795.090
662.9970, 6913.352
664.1570, 6970.562
665.3160, 6731.727
666.4750, 6253.848
667.6340, 6314.926
668.7930, 5999.957
669.9520, 5982.941
671.1110, 5570.879
672.2690, 5386.773
673.4270, 5273.625
674.5850, 5228.340
675.7430, 5159.004
676.9010, 5146.320
678.0590, 5149.566
679.2160, 5197.188
680.3730, 5241.758
681.5300, 5357.293
682.6870, 5269.773
683.8440, 5119.219
685.0010, 4894.609
686.1570, 4840.832
687.3130, 4616.766
688.4690, 4563.527
689.6250, 4230.742
690.7810, 3862.906
691.9370, 3622.035
693.0920, 3430.113
694.2470, 3179.184
695.4020, 3099.934
696.5570, 2880.254
697.7120, 2887.441
698.8670, 2930.695
700.0210, 2724.430
701.1750, 2730.980
702.3290, 3047.668
703.4830, 2972.230
704.6370, 3103.305
705.7910, 3183.949
706.9440, 3589.867
708.0970, 3835.125
709.2510, 4173.562
710.4030, 4212.914
711.5560, 4741.391
712.7090, 4680.465
713.8610, 5477.266
715.0140, 5372.500
716.1660, 5741.648
717.3180, 5947.910
718.4690, 6282.750
719.6210, 6318.656
720.7730, 6598.648
721.9240, 6480.441
723.0750, 7133.168
724.2260, 7052.961
725.3770, 7612.574
726.5270, 7417.137
727.6780, 7819.637
728.8280, 8080.086
729.9780, 8029.383
731.1280, 7861.258
732.2780, 7995.625
733.4280, 8161.973
734.5770, 8018.332
735.7260, 8090.059
736.8760, 8221.402
738.0250, 8037.590
739.1730, 7572.738
740.3220, 8009.121
741.4700, 8212.953
742.6190, 8216.141
743.7670, 7656.234
744.9150, 7061.766
746.0630, 7143.953
747.2100, 6945.465
748.3580, 6559.117
749.5050, 5934.660
750.6520, 5626.977
751.7990, 5597.301
752.9460, 5514.871
754.0930, 5009.504
755.2390, 4897.379
756.3860, 4745.371
757.5320, 4623.812
758.6780, 4467.234
759.8240, 4265.070
760.9690, 4265.441
762.1150, 3984.797
763.2600, 4140.133
764.4060, 4493.453
765.5510, 4260.750
766.6950, 4170.023
767.8400, 4512.285
768.9850, 4418.527
770.1290, 4383.750
771.2730, 4785.961
772.4170, 4516.148
773.5610, 4739.324
774.7050, 4597.484
775.8480, 4643.629
776.9920, 4740.762
778.1350, 5026.879
779.2780, 4869.977
780.4210, 4749.066
781.5640, 4810.145
782.7060, 4633.207
783.8490, 4331.258
784.9910, 4132.297
786.1330, 4476.324
787.2750, 3834.344
788.4170, 3960.344
789.5580, 4108.340
790.7000, 3693.324
791.8410, 3537.301
792.9820, 3202.266
794.1230, 3190.227
795.2640, 3465.176
796.4040, 2952.121
797.5450, 2840.062
798.6850, 2953.996
799.8250, 2662.465
800.9650, 2432.844
802.1050, 2444.762
803.2450, 2297.672
804.3840, 2133.578
805.5230, 2047.480
806.6630, 2022.383
807.8020, 1845.277
808.9400, 1833.172
810.0790, 1711.062
811.2170, 1661.270
812.3560, 1706.840
813.4940, 1538.727
814.6320, 1453.613
815.7700, 1298.500
816.9070, 985.3828
818.0450, 1106.270
819.1820, 844.1562
820.3190, 1191.047
821.4560, 979.9336
822.5930, 966.8281
823.7300, 641.7227
824.8670, 480.6133
826.0030, 427.5156
827.1390, 449.4141
828.2750, 199.3242
829.4110, 178.2305
830.5470, 43.14453
831.6820, 125.9375
832.8180, 13.90234
833.9530, 40.26953
835.0880, 302.4727
836.2230, 200.8398
837.3580, 200.3242
838.4920, 204.9180
839.6270, 412.6211
840.7610, 152.5469
841.8950, 339.5586
843.0290, 330.7461
844.1630, 2.109375
845.2960, 201.4727
846.4300, 52.05078
847.5630, 367.4062
848.6960, 141.0508
849.8290, 114.7617
850.9620, 348.5234
852.0940, 100.4570
853.2270, 171.4258
854.3590, 60.47656
855.4910, 84.45703
856.6230, 89.60156
857.7550, 28.32031
858.8870, 82.25000
860.0180, 28.80078
861.1500, 37.14062
862.2810, 38.57422
863.4120, 208.0859
864.5430, 147.0859
865.6730, 335.1016
866.8040, 523.1406
867.9340, 471.2383
869.0640, 465.4180
870.1940, 368.6367
871.3240, 563.9570
872.4540, 412.3828
873.5830, 321.9023
874.7130, 823.5664
875.8420, 339.3867
876.9710, 874.3242
878.1000, 561.4375
879.2290, 846.6836
880.3570, 935.0703
881.4860, 1298.598
882.6140, 1190.320
883.7420, 955.1250
884.8700, 1401.078
885.9980, 1080.117
887.1250, 1176.328
888.2530, 1294.656
889.3800, 1421.129
890.5070, 1310.684
891.6340, 1374.320
892.7610, 1368.008
893.8880, 1640.727
895.0140, 1365.500
896.1400, 1815.387
897.2670, 1506.344
898.3930, 1383.332
899.5180, 1718.500
900.6440, 1633.961
901.7700, 2150.656
902.8950, 1934.914
904.0200, 2042.262
905.1450, 2182.656
906.2700, 2204.160
907.3950, 2288.723
908.5190, 2318.348
909.6440, 2688.004
910.7680, 2619.723
911.8920, 2737.668
913.0160, 2834.328
914.1400, 2810.180
915.2630, 3173.078
916.3870, 3232.012
917.5100, 3084.031
918.6330, 3638.117
919.7560, 3219.234
920.8790, 3136.406
922.0010, 3100.613
923.1240, 3707.859
924.2460, 3552.188
925.3680, 3438.551
926.4900, 3170.949
927.6120, 3209.383
928.7340, 3710.914
929.8550, 3454.484
930.9760, 3688.215
932.0980, 3515.984
933.2190, 3623.785
934.3390, 3563.645
935.4600, 3661.539
936.5810, 3941.484
937.7010, 3678.473
938.8210, 4076.492
939.9410, 3945.551
941.0610, 3747.668
942.1810, 4010.820
943.3010, 3960.023
944.4200, 4330.262
945.5390, 4304.535
946.6580, 4071.855
947.7770, 4118.215
948.8960, 4074.609
950.0150, 4174.039
951.1330, 4050.508
952.2510, 4239.008
953.3690, 4324.551
954.4870, 4215.125
955.6050, 4378.742
956.7230, 4154.395
957.8400, 4286.086
958.9580, 4376.812
960.0750, 4503.578
961.1920, 4524.375
962.3090, 4924.211
963.4250, 4493.086
964.5420, 4799.992
965.6580, 4453.938
966.7740, 4348.324
967.8900, 4332.773
969.0060, 4200.551
970.1220, 4515.246
971.2380, 4197.457
972.3530, 4532.848
973.4680, 4572.094
974.5830, 4230.453
975.6980, 4415.293
976.8130, 4251.555
977.9280, 4331.543
979.0420, 4450.184
980.1560, 4870.641
981.2710, 4954.172
982.3850, 4881.566
983.4980, 5022.359
984.6120, 4824.879
985.7260, 4958.031
986.8390, 4943.641
987.9520, 5006.305
989.0650, 5111.293
990.1780, 5087.211
991.2910, 5133.023
992.4030, 5255.043
993.5160, 5287.332
994.6280, 5626.109
995.7400, 5455.285
996.8520, 5634.625
997.9640, 5740.773
999.0750, 5611.090
1000.187, 6116.461
1001.298, 5897.875
1002.409, 6086.344
1003.520, 6073.859
1004.631, 6223.426
1005.741, 6035.035
1006.852, 6343.695
1007.962, 6380.406
1009.072, 6198.164
1010.182, 6277.969
1011.292, 6691.816
1012.402, 6455.711
1013.511, 6680.648
1014.621, 6491.617
1015.730, 6171.633
1016.839, 6408.695
1017.948, 5922.789
1019.056, 6186.930
1020.165, 6060.445
1021.273, 5877.656
1022.382, 5810.793
1023.490, 5920.176
1024.598, 5745.727
1025.706, 5987.633
1026.813, 5615.031
1027.921, 5631.957
1029.028, 5657.449
1030.135, 5498.766
1031.242, 5558.703
1032.349, 5485.559
1033.456, 5392.676
1034.562, 5182.148
1035.668, 5152.383
1036.775, 5086.852
1037.881, 5186.953
1038.987, 5001.500
1040.092, 5142.980
1041.198, 4929.000
1042.303, 4942.684
1043.408, 4945.375
1044.514, 4420.855
1045.618, 4550.355
1046.723, 4553.691
1047.828, 4493.328
1048.932, 4542.781
1050.037, 4660.695
1051.141, 4491.102
1052.245, 4327.145
1053.349, 4516.695
1054.452, 4392.445
1055.556, 4288.211
1056.659, 4351.473
1057.762, 4298.887
1058.865, 4030.059
1059.968, 4266.922
1061.071, 4400.719
1062.174, 4244.477
1063.276, 4148.797
1064.378, 3901.094
1065.480, 3832.809
1066.582, 3740.996
1067.684, 3947.332
1068.786, 3692.016
1069.887, 3605.281
1070.988, 3366.773
1072.090, 3711.309
1073.191, 3661.539
1074.291, 3583.348
1075.392, 3515.637
1076.493, 3435.949
1077.593, 3354.867
1078.693, 3247.387
1079.793, 3399.719
1080.893, 3423.227
1081.993, 3375.570
1083.092, 3321.918
1084.192, 3197.695
1085.291, 3030.176
1086.390, 2910.418
1087.489, 3029.473
1088.588, 2785.211
1089.686, 2960.477
1090.785, 2756.164
1091.883, 2989.016
1092.981, 2629.438
1094.079, 2621.027
1095.177, 2683.359
1096.275, 2187.781
1097.373, 2257.207
1098.470, 2307.633
1099.567, 2036.074
1100.664, 1855.766
1101.761, 1666.262
1102.858, 1878.848
1103.954, 1564.504
1105.051, 1658.516
1106.147, 1515.758
1107.243, 1744.344
1108.339, 1577.277
1109.435, 1210.699
1110.531, 1358.566
1111.626, 1421.348
1112.722, 1403.500
1113.817, 1064.270
1114.912, 1140.469
1116.007, 1050.047
1117.101, 952.8516
1118.196, 1087.367
1119.290, 795.0547
1120.385, 926.5078
1121.479, 888.8633
1122.573, 928.1836
1123.666, 800.1172
1124.760, 723.7109
1125.853, 814.8242
1126.947, 813.9141
1128.040, 666.5391
1129.133, 710.7656
1130.226, 413.1367
1131.318, 415.4453
1132.411, 547.6289
1133.503, 409.1133
1134.596, 456.4805
1135.688, 445.9141
1136.780, 270.2109
1137.871, 504.4883
1138.963, 170.6992
1140.054, 31.41016
1141.146, 586.1016
1142.237, 527.2969
1143.328, 195.4727
1144.419, 364.6367
1145.509, 92.77734
1146.600, 254.8945
1147.690, 197.4648
1148.780, 240.6055
1149.870, 293.8047
1150.960, 201.8555
1152.050, 225.0977
1153.139, 110.9570
1154.229, 72.91016
1155.318, 52.21484
1156.407, 68.19922
1157.496, 188.1094
1158.585, 95.15625
1159.674, 276.7969
1160.762, 80.59375
1161.850, 30.68750
1162.939, 61.23828
1164.027, 229.7461
1165.114, 105.6875
1166.202, 147.5898
1167.290, 196.8555
1168.377, 13.69141
1169.464, 257.5859
1170.551, 79.37500
1171.638, 70.21484
1172.725, 21.88672
1173.812, 59.18750
1174.898, 84.80469
1175.984, 53.12109
1177.071, 98.28125
1178.157, 2.343750
1179.242, 88.63672
1180.328, 162.7109
1181.414, 57.39844
1182.499, 247.5586
1183.584, 24.55078
1184.669, 67.08203
1185.754, 70.67578
1186.839, 142.7734
1187.924, 196.6367
1189.008, 184.0078
1190.092, 78.34375
1191.177, 177.3672
1192.260, 106.7617
1193.344, 422.1562
1194.428, 224.6602
1195.512, 130.4102
1196.595, 17.87500
1197.678, 64.75000
1198.761, 8.328125
1199.844, 268.8320
1200.927, 208.3008
1202.009, 200.7305
1203.092, 27.88672
1204.174, 146.4023
1205.256, 22.47266
1206.338, 501.8320
1207.420, 131.3359
1208.502, 43.42969
1209.583, 476.6367
1210.665, 81.62500
1211.746, 289.1523
1212.827, 291.2773
1213.908, 187.1367
1214.988, 260.9492
1216.069, 111.3672
1217.149, 150.1758
1218.230, 231.1406
1219.310, 129.9570
1220.390, 248.2852
1221.470, 209.9609
1222.549, 315.2539
1223.629, 277.8984
1224.708, 132.5078
1225.787, 341.8555
1226.866, 378.1562
1227.945, 418.4102
1229.024, 82.42188
1230.103, 280.4414
1231.181, 393.3516
1232.259, 425.9062
1233.337, 136.6797
1234.415, 262.6211
1235.493, 222.4883
1236.571, 175.0977
1237.648, 366.3008
1238.726, 123.5898
1239.803, 304.5352
1240.880, 315.9766
1241.957, 404.6797
1243.034, 326.1406
1244.110, 299.0234
1245.187, 439.8320
1246.263, 487.6758
1247.339, 389.3984
1248.415, 482.6992
1249.491, 233.7969
1250.566, 285.3789
1251.642, 466.5273
1252.717, 376.7930
1253.793, 473.3516
1254.868, 498.4297
1255.943, 201.0703
1257.017, 464.3047
1258.092, 485.4375
1259.166, 257.8086
1260.241, 502.2031
1261.315, 308.4414
1262.389, 270.5859
1263.462, 350.9961
1264.536, 308.2461
1265.610, 618.0039
1266.683, 557.8555
1267.756, 189.1484
1268.829, 235.7695
1269.902, 316.9336
1270.975, 508.0469
1272.048, 627.7500
1273.120, 446.7578
1274.192, 599.7812
1275.264, 459.9688
1276.336, 281.0117
1277.408, 433.4414
1278.480, 386.1719
1279.551, 350.6484
1280.623, 592.9336
1281.694, 538.8633
1282.765, 484.1406
1283.836, 289.9062
1284.907, 521.2695
1285.977, 320.0508
1287.048, 710.6641
1288.118, 552.5234
1289.188, 623.8242
1290.258, 322.2773
1291.328, 573.9492
1292.398, 366.7422
1293.467, 354.1914
1294.537, 232.9492
1295.606, 324.2305
1296.675, 128.2734
1297.744, 140.6445
1298.813, 383.5508
1299.882, 613.5078
1300.950, 17.10547
1302.018, 456.9102
1303.086, 10.56641
1304.155, 409.4219
1305.222, 524.2070
1306.290, 436.1367
1307.358, 285.7422
1308.425, 269.5156
1309.492, 396.8008
1310.559, 283.5664
1311.626, 238.6797
1312.693, 395.2656
1313.760, 360.6289
1314.826, 419.9609
1315.893, 442.7734
1316.959, 474.5781
1318.025, 446.5000
1319.091, 443.6758
1320.157, 632.2969
1321.222, 594.5352
1322.288, 220.1562
1323.353, 437.7891
1324.418, 226.9883
