##NAMES=Magnesite
##RRUFFID=R040114
##IDEAL CHEMISTRY=MgCO_3_
##LOCALITY=Snarum, Norway
##OWNER=RRUFF
##SOURCE=University of Arizona Mineral Museum
##DESCRIPTION=Tan colored cleavage fragment
##STATUS=The identification of this mineral has been confirmed by X-ray diffraction and chemical analysis
##URL=rruff.info/R040114
##MEASURED CHEMISTRY=(Mg_0.98_Fe_0.01_)C_1.00_O_3_
##PIN_ID=L00410
##ORIENTATION=Laser parallel to -c* (0 0 -1). Fiducial mark perpendicular to laser is parallel to -a [-1 0 0]
104.516, 0.000
105.908, 21.554
107.300, 108.461
108.691, 78.178
110.082, 63.519
111.473, 68.667
112.864, 161.836
114.254, 327.915
115.644, 421.598
117.034, 439.393
118.424, 300.177
119.813, 289.772
121.203, 246.164
122.592, 181.602
123.981, 98.688
125.369, 23.981
126.758, 37.872
128.146, 66.305
129.534, 89.973
130.922, 11.647
132.309, 72.859
133.696, 0.092
135.083, 41.454
136.470, 57.933
137.857, 132.184
139.243, 116.024
140.630, 57.021
142.016, 10.738
143.401, 1.616
144.787, 30.314
146.172, 56.988
147.557, 15.879
148.942, 33.585
150.327, 9.525
151.711, 15.805
153.096, 2.001
154.480, 21.496
155.863, 18.324
157.247, 33.959
158.630, 39.416
160.013, 30.706
161.396, 61.841
162.779, 73.832
164.161, 48.685
165.544, 74.457
166.926, 147.929
168.308, 240.147
169.689, 328.944
171.070, 416.212
172.452, 514.852
173.833, 663.578
175.213, 799.459
176.594, 734.106
177.974, 732.513
179.354, 589.975
180.734, 357.301
182.114, 246.237
183.493, 251.448
184.872, 222.160
186.251, 206.196
187.630, 147.648
189.008, 133.306
190.387, 107.170
191.765, 121.827
193.143, 109.383
194.520, 125.475
195.898, 150.613
197.275, 124.688
198.652, 216.795
200.029, 268.913
201.405, 323.042
202.782, 334.179
204.158, 572.319
205.534, 978.464
206.909, 1331.599
208.285, 1887.745
209.660, 2417.896
211.035, 3149.033
212.410, 3786.156
213.784, 3604.281
215.159, 2690.395
216.533, 1712.498
217.907, 995.586
219.281, 587.659
220.654, 368.715
222.027, 244.753
223.400, 176.768
224.773, 112.760
226.146, 30.725
227.518, 51.662
228.891, 21.430
230.263, 46.450
231.634, 67.459
233.006, 16.289
234.377, 19.026
235.748, 2.039
237.119, 64.180
238.490, 12.000
239.860, 1.379
241.231, 14.595
242.601, 17.515
243.970, 8.739
245.340, 12.981
246.709, 15.854
248.079, 4.091
249.448, 25.080
250.816, 19.954
252.185, 15.000
253.553, 8.117
254.921, 47.178
256.289, 45.408
257.657, 18.651
259.024, 3.395
260.391, 25.882
261.758, 22.478
263.125, 46.152
264.492, 60.644
265.858, 36.024
267.224, 47.232
268.590, 40.878
269.956, 21.457
271.321, 48.513
272.687, 49.921
274.052, 78.874
275.416, 91.990
276.781, 96.890
278.146, 104.959
279.510, 121.821
280.874, 99.023
282.237, 138.704
283.601, 161.588
284.964, 136.392
286.327, 184.001
287.690, 185.923
289.053, 219.413
290.416, 289.171
291.778, 350.650
293.140, 446.208
294.502, 442.683
295.863, 648.265
297.225, 716.683
298.586, 787.188
299.947, 818.500
301.308, 737.625
302.668, 648.982
304.029, 644.393
305.389, 464.467
306.749, 441.105
308.108, 377.105
309.468, 327.249
310.827, 288.001
312.186, 294.810
313.545, 325.843
314.903, 313.570
316.262, 332.504
317.620, 484.327
318.978, 594.228
320.336, 827.854
321.693, 1332.558
323.051, 2128.144
324.408, 3068.787
325.765, 4471.591
327.121, 6053.118
328.478, 7921.596
329.834, 9239.134
331.190, 8896.490
332.546, 6728.994
333.902, 4792.255
335.257, 3138.664
336.612, 2082.015
337.967, 1431.166
339.322, 1027.126
340.677, 755.357
342.031, 579.220
343.385, 430.125
344.739, 320.934
346.093, 252.745
347.446, 235.458
348.799, 234.152
350.153, 202.822
351.505, 210.468
352.858, 218.084
354.210, 170.572
355.563, 170.706
356.915, 129.567
358.267, 141.081
359.618, 95.629
360.969, 106.181
362.321, 120.725
363.672, 152.256
365.022, 104.728
366.373, 170.183
367.723, 146.623
369.073, 101.046
370.423, 119.451
371.773, 72.840
373.122, 100.211
374.471, 105.565
375.821, 90.902
377.169, 163.221
378.518, 97.532
379.866, 110.817
381.215, 62.085
382.563, 72.335
383.910, 93.647
385.258, 96.862
386.605, 76.174
387.952, 77.355
389.299, 131.910
390.646, 125.761
391.992, 92.948
393.339, 57.612
394.685, 103.439
396.031, 118.030
397.376, 35.513
398.722, 79.198
400.067, 19.281
401.412, 17.627
402.757, 88.234
404.101, 61.724
405.446, 8.070
406.790, 51.840
408.134, 5.064
409.478, 50.459
410.821, 34.983
412.165, 29.739
413.508, 93.895
414.851, 52.233
416.193, 26.866
417.536, 22.314
418.878, 32.890
420.220, 44.989
421.562, 29.461
422.904, 69.458
424.245, 23.385
425.586, 49.727
426.927, 65.628
428.268, 43.731
429.609, 47.885
430.949, 32.972
432.289, 28.667
433.629, 0.350
434.969, 27.494
436.309, 49.725
437.648, 64.033
438.987, 11.524
440.326, 47.945
441.665, 9.052
443.003, 89.375
444.342, 33.366
445.680, 43.844
447.018, 82.147
448.355, 13.587
449.693, 88.884
451.030, 11.868
452.367, 74.467
453.704, 38.651
455.041, 49.262
456.377, 20.601
457.713, 45.947
459.049, 21.186
460.385, 56.359
461.721, 93.664
463.056, 29.937
464.391, 15.952
465.726, 79.170
467.061, 71.222
468.395, 48.646
469.730, 34.582
471.064, 21.584
472.398, 81.540
473.731, 33.409
475.065, 71.280
476.398, 24.264
477.731, 17.143
479.064, 15.950
480.397, 9.866
481.729, 52.062
483.062, 76.873
484.394, 45.664
485.725, 22.404
487.057, 82.250
488.389, 78.016
489.720, 64.796
491.051, 93.040
492.382, 50.671
493.712, 88.303
495.043, 29.899
496.373, 28.478
497.703, 63.054
499.032, 152.685
500.362, 20.377
501.691, 94.906
503.020, 72.420
504.349, 88.991
505.678, 79.475
507.007, 114.005
508.335, 127.105
509.663, 100.553
510.991, 103.989
512.319, 111.214
513.646, 98.839
514.973, 125.235
516.300, 126.617
517.627, 121.868
518.954, 90.153
520.280, 74.235
521.607, 82.349
522.933, 81.131
524.259, 94.635
525.584, 119.857
526.910, 129.134
528.235, 128.193
529.560, 126.829
530.885, 109.445
532.209, 114.316
533.534, 93.289
534.858, 110.273
536.182, 112.194
537.506, 84.376
538.829, 109.300
540.152, 92.140
541.476, 93.016
542.799, 65.800
544.121, 95.660
545.444, 56.522
546.766, 58.284
548.088, 71.038
549.410, 51.012
550.732, 75.951
552.053, 76.763
553.375, 74.415
554.696, 45.250
556.017, 26.154
557.337, 49.642
558.658, 49.388
559.978, 15.066
561.298, 43.435
562.618, 4.748
563.938, 54.948
565.257, 89.192
566.576, 0.149
567.895, 55.031
569.214, 108.684
570.533, 62.249
571.851, 36.794
573.170, 67.632
574.488, 64.305
575.805, 34.838
577.123, 0.677
578.440, 14.888
579.758, 39.501
581.075, 65.033
582.391, 64.743
583.708, 33.218
585.024, 7.169
586.341, 59.494
587.657, 71.061
588.972, 92.638
590.288, 11.145
591.603, 14.618
592.918, 53.756
594.233, 124.208
595.548, 56.754
596.863, 23.351
598.177, 14.744
599.491, 10.960
600.805, 30.487
602.119, 8.857
603.432, 28.548
604.746, 53.987
606.059, 26.589
607.372, 54.834
608.685, 61.448
609.997, 31.751
611.309, 66.288
612.621, 5.333
613.933, 15.076
615.245, 7.334
616.557, 27.711
617.868, 37.958
619.179, 1.361
620.490, 3.911
621.801, 103.185
623.111, 6.358
624.421, 40.827
625.731, 5.729
627.041, 122.692
628.351, 12.695
629.660, 1.907
630.970, 87.326
632.279, 52.606
633.588, 20.969
634.896, 42.196
636.205, 54.298
637.513, 4.614
638.821, 14.694
640.129, 37.936
641.437, 38.349
642.744, 45.502
644.051, 15.793
645.358, 30.134
646.665, 24.419
647.972, 8.099
649.278, 51.260
650.584, 52.534
651.890, 103.495
653.196, 61.606
654.502, 53.793
655.807, 37.897
657.113, 23.212
658.418, 71.220
659.722, 108.537
661.027, 41.754
662.331, 106.124
663.636, 46.841
664.940, 4.863
666.244, 67.603
667.547, 81.111
668.851, 53.396
670.154, 115.656
671.457, 62.500
672.760, 141.746
674.062, 79.122
675.365, 130.371
676.667, 142.585
677.969, 116.839
679.271, 103.011
680.572, 137.280
681.874, 101.478
683.175, 172.669
684.476, 160.854
685.777, 156.031
687.077, 70.202
688.378, 147.375
689.678, 113.602
690.978, 147.988
692.278, 115.629
693.577, 193.771
694.877, 122.897
696.176, 239.066
697.475, 192.189
698.774, 189.686
700.072, 147.719
701.371, 222.826
702.669, 226.813
703.967, 250.804
705.265, 272.845
706.562, 298.025
707.860, 306.743
709.157, 342.209
710.454, 318.248
711.751, 359.162
713.047, 359.991
714.344, 477.917
715.640, 446.838
716.936, 524.630
718.232, 757.537
719.527, 766.081
720.823, 912.028
722.118, 1069.063
723.413, 1215.764
724.708, 1365.602
726.002, 1523.805
727.297, 1667.950
728.591, 1820.556
729.885, 1982.078
731.179, 2146.043
732.472, 2381.883
733.766, 2810.555
735.059, 3038.330
736.352, 3268.200
737.645, 3468.804
738.937, 3512.753
740.230, 3290.566
741.522, 3020.924
742.814, 2737.354
744.106, 2349.312
745.397, 2010.265
746.689, 1622.027
747.980, 1443.743
749.271, 1125.125
750.562, 1012.064
751.853, 797.951
753.143, 674.694
754.433, 549.407
755.723, 526.521
757.013, 527.296
758.303, 314.611
759.592, 349.371
760.881, 248.722
762.170, 205.467
763.459, 179.027
764.748, 131.944
766.036, 181.716
767.325, 129.610
768.613, 160.052
769.901, 120.743
771.188, 75.398
772.476, 125.137
773.763, 77.965
775.050, 59.590
776.337, 94.221
777.624, 93.086
778.910, 42.725
780.196, 38.505
781.482, 17.893
782.768, 15.256
784.054, 39.668
785.339, 94.272
786.625, 25.109
787.910, 49.920
789.195, 24.597
790.479, 48.361
791.764, 43.175
793.048, 10.411
794.332, 62.229
795.616, 21.965
796.900, 53.700
798.183, 6.477
799.467, 74.113
800.750, 12.193
802.033, 13.578
803.316, 64.749
804.598, 44.488
805.880, 4.759
807.163, 28.982
808.445, 7.721
809.726, 9.557
811.008, 26.913
812.289, 11.357
813.570, 48.339
814.851, 73.032
816.132, 13.709
817.413, 19.604
818.693, 81.014
819.973, 3.044
821.253, 1.709
822.533, 29.369
823.813, 82.004
825.092, 5.341
826.371, 84.307
827.650, 15.049
828.929, 27.583
830.208, 53.213
831.486, 4.841
832.764, 38.852
834.042, 5.089
835.320, 41.708
836.598, 40.326
837.875, 38.942
839.152, 77.556
840.429, 54.167
841.706, 26.776
842.983, 12.384
844.259, 0.011
845.536, 38.409
846.812, 29.168
848.088, 28.745
849.363, 17.319
850.639, 71.892
851.914, 3.538
853.189, 47.027
854.464, 96.591
855.739, 124.153
857.013, 79.714
858.288, 53.275
859.562, 1.166
860.836, 83.390
862.110, 4.944
863.383, 58.498
864.656, 103.049
865.930, 46.600
867.203, 46.150
868.475, 117.700
869.748, 21.249
871.020, 56.798
872.292, 32.348
873.564, 33.897
874.836, 52.446
876.108, 32.994
877.379, 102.542
878.650, 32.090
879.922, 112.638
881.192, 96.185
882.463, 9.268
883.733, 81.272
885.004, 41.813
886.274, 33.354
887.544, 11.896
888.813, 12.438
890.083, 12.021
891.352, 35.515
892.621, 43.051
893.890, 80.587
895.159, 9.874
896.427, 34.659
897.695, 42.192
898.964, 1.726
900.232, 32.260
901.499, 10.205
902.767, 58.326
904.034, 22.857
905.301, 116.389
906.568, 48.921
907.835, 38.462
909.102, 49.007
910.368, 0.448
911.634, 58.099
912.900, 45.347
914.166, 87.186
915.432, 15.279
916.697, 4.251
917.962, 10.780
919.227, 24.312
920.492, 43.233
921.757, 24.383
923.021, 62.926
924.285, 32.471
925.550, 0.017
926.813, 89.564
928.077, 50.111
929.341, 69.661
930.604, 60.210
931.867, 34.767
933.130, 17.307
934.393, 85.767
935.655, 22.969
936.918, 101.545
938.180, 45.139
939.442, 19.664
940.703, 42.258
941.965, 15.784
943.226, 37.380
944.488, 68.977
945.749, 55.571
947.009, 29.172
948.270, 81.702
949.530, 1.307
950.791, 52.767
952.051, 50.378
953.311, 5.100
954.570, 19.410
955.830, 30.041
957.089, 39.588
958.348, 30.949
959.607, 39.230
960.866, 9.771
962.124, 18.544
963.383, 24.250
964.641, 49.931
965.899, 73.609
967.156, 4.711
968.414, 44.879
969.671, 138.078
970.928, 44.761
972.185, 87.267
973.442, 2.726
974.699, 82.401
975.955, 47.096
977.211, 13.201
978.468, 28.898
979.723, 51.460
980.979, 32.146
982.234, 148.850
983.490, 19.446
984.745, 145.152
986.000, 134.753
987.254, 43.461
988.509, 172.171
989.763, 76.881
991.017, 84.593
992.271, 127.307
993.525, 75.014
994.779, 153.664
996.032, 192.151
997.285, 138.378
998.538, 83.100
999.791, 178.824
1001.044, 131.509
1002.296, 237.236
1003.548, 169.586
1004.800, 220.318
1006.052, 189.053
1007.304, 108.790
1008.555, 211.528
1009.807, 129.269
1011.058, 103.783
1012.309, 185.526
1013.559, 131.193
1014.810, 177.940
1016.060, 172.688
1017.310, 205.437
1018.560, 160.249
1019.810, 239.999
1021.060, 119.752
1022.309, 136.508
1023.558, 207.265
1024.807, 264.022
1026.056, 255.782
1027.305, 240.543
1028.553, 322.306
1029.801, 300.333
1031.049, 256.102
1032.297, 325.870
1033.545, 321.101
1034.793, 289.017
1036.040, 370.803
1037.287, 364.593
1038.534, 409.505
1039.781, 405.303
1041.027, 454.653
1042.274, 479.644
1043.520, 529.485
1044.766, 444.323
1046.012, 485.648
1047.257, 475.488
1048.503, 614.330
1049.748, 554.373
1050.993, 724.217
1052.238, 699.764
1053.483, 757.863
1054.727, 751.709
1055.971, 889.688
1057.216, 925.185
1058.459, 988.979
1059.703, 1025.975
1060.947, 1124.748
1062.190, 1159.010
1063.433, 1239.572
1064.676, 1384.722
1065.919, 1519.108
1067.162, 1682.381
1068.404, 1843.025
1069.646, 2088.084
1070.888, 2429.323
1072.130, 2731.615
1073.372, 3021.720
1074.613, 3558.557
1075.855, 3997.562
1077.096, 4408.397
1078.337, 5214.251
1079.578, 5935.334
1080.818, 6984.805
1082.059, 8175.635
1083.299, 9943.726
1084.539, 12127.554
1085.779, 14845.365
1087.018, 18202.291
1088.258, 22495.242
1089.497, 27646.080
1090.736, 33437.895
1091.975, 39609.734
1093.213, 44779.836
1094.452, 48087.758
1095.690, 48000.824
1096.928, 46166.102
1098.166, 42221.012
1099.404, 36941.852
1100.642, 30832.924
1101.879, 25864.129
1103.116, 21397.957
1104.353, 18013.621
1105.590, 15097.990
1106.827, 13049.260
1108.063, 10862.808
1109.299, 9327.028
1110.536, 7815.302
1111.771, 6509.117
1113.007, 5525.933
1114.243, 4575.941
1115.478, 3900.793
1116.713, 3309.678
1117.948, 2841.484
1119.183, 2313.676
1120.418, 2234.555
1121.652, 2257.767
1122.886, 2184.615
1124.120, 1758.855
1125.354, 1303.648
1126.588, 1215.669
1127.821, 985.855
1129.055, 815.026
1130.288, 819.802
1131.521, 692.796
1132.753, 586.563
1133.986, 504.326
1135.218, 457.062
1136.450, 422.853
1137.682, 422.601
1138.914, 355.575
1140.146, 363.397
1141.377, 327.452
1142.609, 359.186
1143.840, 311.311
1145.071, 296.184
1146.301, 226.904
1147.532, 226.804
1148.762, 262.692
1149.992, 203.532
1151.222, 229.700
1152.452, 216.802
1153.682, 100.853
1154.911, 204.830
1156.140, 124.643
1157.369, 111.590
1158.598, 161.485
1159.827, 87.399
1161.055, 155.160
1162.284, 114.886
1163.512, 143.742
1164.740, 99.365
1165.967, 32.982
1167.195, 157.700
1168.422, 109.204
1169.650, 80.798
1170.877, 87.478
1172.103, 114.154
1173.330, 59.043
1174.557, 93.839
1175.783, 141.687
1177.009, 1.914
1178.235, 73.879
1179.461, 89.424
1180.686, 83.945
1181.912, 20.661
1183.137, 97.747
1184.362, 80.206
1185.587, 32.602
1186.811, 101.941
1188.036, 27.324
1189.260, 31.978
1190.484, 68.997
1191.708, 113.847
1192.932, 104.559
1194.155, 73.359
1195.378, 90.042
1196.602, 12.087
1197.825, 91.543
1199.047, 25.033
1200.270, 13.453
1201.492, 97.057
1202.715, 43.485
1203.937, 19.375
1205.159, 53.135
1206.380, 92.552
1207.602, 100.825
1208.823, 14.980
1210.044, 29.378
1211.265, 9.541
1212.486, 21.475
1213.707, 70.720
1214.927, 24.955
1216.147, 28.190
1217.367, 13.542
1218.587, 1.798
1219.807, 17.972
1221.027, 116.200
1222.246, 30.409
1223.465, 86.551
1224.684, 78.682
1225.903, 23.879
1227.121, 32.013
1228.340, 150.063
1229.558, 22.128
1230.776, 85.182
1231.994, 52.777
1233.212, 6.687
1234.429, 56.684
1235.646, 85.774
1236.864, 88.729
1238.081, 119.673
1239.297, 20.605
1240.514, 63.527
1241.730, 30.439
1242.947, 6.440
1244.163, 67.324
1245.378, 78.523
1246.594, 7.641
1247.810, 11.247
1249.025, 58.198
1250.240, 32.840
1251.455, 44.075
1252.670, 8.655
1253.885, 30.628
1255.099, 12.065
1256.313, 26.223
1257.527, 91.435
1258.741, 115.082
1259.955, 46.720
1261.168, 83.488
1262.382, 61.104
1263.595, 92.710
1264.808, 15.303
1266.021, 75.884
1267.233, 13.453
1268.446, 82.006
1269.658, 11.575
1270.870, 93.100
1272.082, 38.612
1273.294, 15.110
1274.505, 16.609
1275.716, 103.082
1276.928, 42.538
1278.139, 123.982
1279.349, 104.413
1280.560, 109.830
1281.770, 92.229
1282.981, 154.617
1284.191, 41.106
1285.401, 76.417
1286.610, 25.686
1287.820, 94.928
1289.029, 17.154
1290.239, 59.362
1291.448, 116.551
1292.656, 52.727
1293.865, 53.887
1295.073, 64.030
1296.282, 13.159
1297.490, 17.272
1298.698, 21.371
1299.906, 29.455
1301.113, 63.523
1302.320, 31.577
1303.528, 40.616
1304.735, 34.641
1305.942, 69.650
1307.148, 76.646
1308.355, 43.627
1309.561, 125.590
1310.767, 107.540
1311.973, 71.412
1313.179, 1.334
1314.384, 130.237
1315.590, 75.124
1316.795, 73.995
1318.000, 27.851
1319.205, 41.692
1320.410, 31.045
1321.614, 2.331
1322.819, 35.863
1324.023, 93.641
1325.227, 107.405
1326.431, 49.155
1327.634, 41.256
1328.838, 0.449
1330.041, 46.475
1331.244, 29.815
1332.447, 14.709
1333.650, 3.275
1334.852, 9.414
1336.055, 18.309
1337.257, 32.273
1338.459, 20.816
1339.661, 33.471
1340.862, 6.863
1342.064, 81.109
1343.265, 70.600
1344.466, 84.873
1345.667, 38.084
1346.868, 77.539
1348.068, 57.848
1349.269, 19.628
1350.469, 68.950
1351.669, 89.358
1352.869, 130.756
1354.069, 154.727
1355.268, 139.279
1356.468, 105.964
1357.667, 93.083
1358.866, 113.399
1360.065, 87.512
1361.263, 76.630
1362.462, 52.560
1363.660, 103.593
1364.858, 72.643
1366.056, 75.458
1367.254, 159.658
1368.451, 103.958
1369.649, 70.235
1370.846, 143.278
1372.043, 145.934
1373.240, 106.226
1374.436, 85.244
1375.633, 107.474
1376.829, 59.717
1378.025, 8.833
1379.221, 50.903
1380.417, 88.086
1381.613, 87.648
1382.808, 120.458
1384.003, 125.061
1385.199, 140.319
1386.393, 57.129
1387.588, 159.361
1388.783, 11.145
1389.977, 102.773
1391.171, 53.244
1392.365, 30.353
1393.559, 25.857
1394.753, 67.361
1395.946, 98.605
1397.140, 80.713
1398.333, 130.780
1399.526, 62.111
1400.719, 126.786
1401.911, 113.086
1403.104, 129.621
1404.296, 35.118
1405.488, 106.339
1406.680, 89.326
1407.872, 77.279
1409.063, 161.520
1410.255, 135.481
1411.446, 68.111
1412.637, 60.495
1413.828, 116.273
1415.018, 171.920
1416.209, 115.721
1417.399, 63.583
1418.589, 165.835
1419.779, 94.705
1420.969, 99.782
1422.159, 105.394
1423.348, 73.824
1424.537, 71.564
1425.726, 88.861
1426.915, 27.098
1428.104, 122.965
1429.293, 86.784
1430.481, 107.939
1431.669, 179.642
1432.857, 72.364
1434.045, 136.952
1435.233, 296.364
1436.420, 201.487
1437.608, 260.245
1438.795, 336.637
1439.982, 370.201
1441.169, 467.755
1442.355, 636.291
1443.542, 790.685
1444.728, 1000.929
1445.914, 1213.195
1447.100, 1197.855
1448.286, 1204.372
1449.472, 1071.378
1450.657, 952.792
1451.842, 715.309
1453.027, 480.493
1454.212, 547.891
1455.397, 357.254
1456.581, 324.379
1457.766, 398.050
1458.950, 229.966
1460.134, 286.954
1461.318, 264.323
1462.501, 238.594
1463.685, 383.903
1464.868, 275.832
1466.051, 265.044
1467.234, 191.222
1468.417, 132.364
1469.600, 221.412
1470.782, 192.504
1471.965, 165.520
1473.147, 225.548
1474.329, 218.543
1475.510, 190.529
1476.692, 158.286
1477.873, 138.706
1479.055, 118.183
1480.236, 194.693
1481.416, 250.223
1482.597, 177.764
1483.778, 197.301
1484.958, 135.843
1486.138, 95.397
1487.318, 231.958
1488.498, 149.541
1489.678, 154.154
1490.857, 122.786
1492.037, 135.470
1493.216, 138.194
1494.395, 85.948
1495.574, 113.750
1496.752, 98.599
1497.931, 79.510
1499.109, 70.119
1500.287, 66.570
1501.465, 27.748
1502.643, 35.991
1503.820, 31.304
1504.998, 2.303
1506.175, 49.183
1507.352, 9.225
1508.529, 2.488
1509.706, 46.335
1510.882, 78.336
1512.059, 34.509
1513.235, 33.871
1514.411, 58.440
1515.587, 95.653
1516.762, 46.953
1517.938, 53.775
1519.113, 116.739
1520.288, 38.465
1521.463, 56.306
1522.638, 0.179
1523.813, 0.000
##END=



