##NAMES=Magnesite
##RRUFFID=R040114
##IDEAL CHEMISTRY=MgCO_3_
##LOCALITY=Snarum, Norway
##OWNER=RRUFF
##SOURCE=University of Arizona Mineral Museum
##DESCRIPTION=Tan colored cleavage fragment
##STATUS=The identification of this mineral has been confirmed by X-ray diffraction and chemical analysis
##URL=rruff.info/R040114
##MEASURED CHEMISTRY=(Mg_0.98_Fe_0.01_)C_1.00_O_3_
##PIN_ID=L00266
##ORIENTATION=Laser parallel to -a* (-1 0 0). Fiducial mark perpendicular to laser is parallel to c [0 0 1]
91.981, 0.000
93.375, 11.603
94.768, 11.950
96.161, 5.562
97.554, 12.091
98.947, 5.790
100.340, 15.955
101.732, 5.448
103.124, 15.234
104.516, 40.051
105.908, 78.816
107.300, 57.661
108.691, 46.958
110.082, 38.514
111.473, 64.858
112.864, 72.207
114.254, 109.242
115.644, 124.957
117.034, 161.320
118.424, 109.662
119.813, 118.870
121.203, 43.577
122.592, 43.892
123.981, 37.374
125.369, 62.655
126.758, 43.916
128.146, 45.180
129.534, 55.938
130.922, 36.251
132.309, 11.501
133.696, 18.213
135.083, 44.145
136.470, 28.369
137.857, 42.955
139.243, 60.812
140.630, 47.674
142.016, 10.199
143.401, 49.769
144.787, 33.189
146.172, 32.557
147.557, 35.873
148.942, 14.137
150.327, 5.351
151.711, 3.519
153.096, 24.641
154.480, 10.722
155.863, 25.762
157.247, 7.237
158.630, 22.272
160.013, 15.891
161.396, 5.391
162.779, 27.242
164.161, 18.120
165.544, 4.665
166.926, 34.136
168.308, 2.486
169.689, 38.868
171.070, 25.996
172.452, 26.594
173.833, 21.452
175.213, 11.652
176.594, 28.632
177.974, 45.451
179.354, 35.945
180.734, 4.035
182.114, 12.926
183.493, 31.351
184.872, 30.932
186.251, 73.927
187.630, 42.199
189.008, 49.151
190.387, 74.964
191.765, 66.482
193.143, 54.171
194.520, 51.717
195.898, 72.200
197.275, 84.385
198.652, 162.066
200.029, 151.457
201.405, 190.781
202.782, 258.042
204.158, 456.303
205.534, 686.557
206.909, 965.804
208.285, 1253.027
209.660, 1576.234
211.035, 2008.435
212.410, 2688.629
213.784, 2950.812
215.159, 2474.991
216.533, 1658.163
217.907, 994.329
219.281, 604.487
220.654, 357.635
222.027, 208.776
223.400, 152.911
224.773, 116.045
226.146, 88.173
227.518, 30.296
228.891, 24.412
230.263, 22.539
231.634, 53.644
233.006, 58.773
234.377, 16.972
235.748, 8.170
237.119, 15.342
238.490, 19.416
239.860, 32.492
241.231, 9.555
242.601, 9.612
243.970, 7.191
245.340, 4.052
246.709, 6.900
248.079, 31.275
249.448, 13.307
250.816, 29.743
252.185, 1.363
253.553, 35.352
254.921, 21.321
256.289, 6.448
257.657, 28.336
259.024, 1.825
260.391, 10.942
261.758, 20.845
263.125, 33.148
264.492, 3.991
265.858, 4.785
267.224, 19.647
268.590, 11.429
269.956, 15.208
271.321, 33.920
272.687, 28.684
274.052, 16.676
275.416, 2.040
276.781, 8.618
278.146, 20.805
279.510, 9.907
280.874, 3.417
282.237, 15.981
283.601, 24.534
284.964, 5.009
286.327, 13.423
287.690, 27.849
289.053, 21.288
290.416, 68.625
291.778, 10.002
293.140, 52.351
294.502, 22.680
295.863, 45.003
297.225, 24.235
298.586, 51.469
299.947, 33.701
301.308, 49.899
302.668, 36.107
304.029, 43.304
305.389, 66.557
306.749, 33.605
308.108, 67.782
309.468, 43.018
310.827, 64.206
312.186, 86.370
313.545, 101.742
314.903, 123.745
316.262, 141.707
317.620, 190.772
318.978, 249.763
320.336, 384.820
321.693, 604.063
323.051, 975.356
324.408, 1332.342
325.765, 1720.260
327.121, 2060.314
328.478, 2459.291
329.834, 2791.110
331.190, 2738.136
332.546, 2214.640
333.902, 1667.629
335.257, 1241.609
336.612, 867.529
337.967, 593.453
339.322, 383.247
340.677, 285.194
342.031, 209.144
343.385, 158.037
344.739, 139.588
346.093, 121.323
347.446, 127.158
348.799, 93.981
350.153, 79.877
351.505, 95.709
352.858, 90.556
354.210, 91.896
355.563, 61.765
356.915, 64.619
358.267, 59.458
359.618, 51.314
360.969, 84.165
362.321, 74.012
363.672, 68.856
365.022, 66.696
366.373, 41.544
367.723, 61.378
369.073, 63.208
370.423, 38.035
371.773, 61.859
373.122, 43.679
374.471, 22.497
375.821, 20.311
377.169, 51.122
378.518, 23.930
379.866, 49.734
381.215, 46.615
382.563, 53.414
383.910, 41.210
385.258, 50.004
386.605, 70.795
387.952, 42.600
389.299, 59.385
390.646, 52.072
391.992, 20.731
393.339, 30.443
394.685, 20.101
396.031, 55.005
397.376, 21.594
398.722, 34.107
400.067, 41.732
401.412, 8.362
402.757, 37.085
404.101, 44.640
405.446, 29.186
406.790, 34.995
408.134, 58.031
409.478, 73.836
410.821, 34.554
412.165, 49.097
413.508, 46.744
414.851, 56.056
416.193, 5.780
417.536, 28.395
418.878, 7.896
420.220, 22.575
421.562, 10.676
422.904, 30.266
424.245, 7.090
425.586, 6.558
426.927, 22.822
428.268, 1.312
429.609, 12.877
430.949, 9.327
432.289, 20.826
433.629, 4.648
434.969, 29.201
436.309, 3.275
437.648, 38.498
438.987, 24.877
440.326, 2.314
441.665, 29.349
443.003, 10.601
444.342, 9.037
445.680, 35.530
447.018, 35.293
448.355, 23.694
449.693, 16.188
451.030, 24.647
452.367, 11.239
453.704, 14.586
455.041, 16.188
456.377, 12.641
457.713, 8.226
459.049, 13.678
460.385, 30.242
461.721, 35.634
463.056, 36.185
464.391, 35.675
465.726, 10.192
467.061, 38.238
468.395, 24.709
469.730, 5.256
471.064, 13.761
472.398, 20.301
473.731, 6.162
475.065, 5.374
476.398, 3.757
477.731, 24.437
479.064, 18.964
480.397, 23.490
481.729, 44.015
483.062, 57.542
484.394, 35.061
485.725, 10.593
487.057, 18.122
488.389, 33.649
489.720, 48.173
491.051, 25.745
492.382, 6.266
493.712, 54.785
495.043, 11.303
496.373, 70.817
497.703, 15.331
499.032, 33.843
500.362, 8.353
501.691, 42.860
503.020, 25.365
504.349, 28.868
505.678, 20.373
507.007, 26.877
508.335, 35.452
509.663, 34.956
510.991, 22.458
512.319, 51.958
513.646, 8.544
514.973, 60.948
516.300, 32.437
517.627, 62.925
518.954, 22.410
520.280, 34.893
521.607, 48.374
522.933, 59.852
524.259, 33.329
525.584, 17.804
526.910, 46.262
528.235, 29.732
529.560, 50.200
530.885, 21.639
532.209, 54.103
533.534, 26.567
534.858, 44.942
536.182, 20.317
537.506, 59.795
538.829, 22.190
540.152, 0.670
541.476, 39.153
542.799, 19.634
544.121, 22.106
545.444, 34.582
546.766, 15.058
548.088, 34.532
549.410, 21.005
550.732, 51.484
552.053, 1.872
553.375, 22.300
554.696, 14.683
556.017, 26.157
557.337, 10.558
558.658, 6.012
559.978, 12.495
561.298, 6.662
562.618, 5.543
563.938, 7.782
565.257, 5.222
566.576, 0.287
567.895, 11.195
569.214, 3.697
570.533, 26.186
571.851, 39.684
573.170, 14.180
574.488, 4.676
575.805, 16.041
577.123, 5.502
578.440, 5.878
579.758, 17.313
581.075, 0.704
582.391, 1.650
583.708, 10.136
585.024, 6.484
586.341, 2.037
587.657, 9.306
588.972, 35.710
590.288, 13.098
591.603, 4.467
592.918, 19.897
594.233, 33.363
595.548, 52.730
596.863, 37.213
598.177, 14.672
599.491, 5.025
600.805, 34.459
602.119, 31.868
603.432, 37.271
604.746, 20.751
606.059, 27.312
607.372, 21.700
608.685, 37.135
609.997, 33.604
611.309, 54.016
612.621, 12.442
613.933, 45.873
615.245, 7.288
616.557, 41.683
617.868, 21.100
619.179, 14.435
620.490, 34.021
621.801, 52.474
623.111, 32.926
624.421, 7.689
625.731, 32.754
627.041, 42.191
628.351, 20.546
629.660, 27.934
630.970, 31.350
632.279, 38.279
633.588, 85.628
634.896, 21.971
636.205, 58.407
637.513, 23.876
638.821, 54.969
640.129, 53.395
641.437, 14.527
642.744, 29.880
644.051, 28.281
645.358, 65.656
646.665, 32.056
647.972, 7.593
649.278, 62.987
650.584, 30.307
651.890, 67.697
653.196, 25.060
654.502, 78.727
655.807, 20.127
657.113, 53.507
658.418, 79.873
659.722, 38.254
661.027, 59.687
662.331, 35.607
663.636, 96.168
664.940, 2.741
666.244, 100.772
667.547, 41.146
668.851, 76.508
670.154, 79.863
671.457, 63.755
672.760, 85.105
674.062, 99.452
675.365, 63.797
676.667, 87.140
677.969, 90.479
679.271, 81.817
680.572, 90.214
681.874, 130.546
683.175, 133.864
684.476, 75.191
685.777, 121.515
687.077, 103.851
688.378, 139.201
689.678, 119.398
690.978, 145.853
692.278, 146.613
693.577, 130.794
694.877, 161.140
696.176, 192.701
697.475, 165.182
698.774, 168.543
700.072, 166.838
701.371, 172.130
702.669, 175.682
703.967, 200.170
705.265, 230.723
706.562, 251.528
707.860, 242.812
709.157, 248.016
710.454, 233.297
711.751, 319.396
713.047, 330.082
714.344, 359.319
715.640, 370.135
716.936, 431.366
718.232, 484.585
719.527, 550.970
720.823, 611.928
722.118, 692.911
723.413, 798.465
724.708, 882.672
726.002, 1066.854
727.297, 1164.082
728.591, 1369.307
729.885, 1549.511
731.179, 1768.292
732.472, 2031.498
733.766, 2260.656
735.059, 2580.812
736.352, 2828.599
737.645, 2950.727
738.937, 3053.279
740.230, 2924.444
741.522, 2756.289
742.814, 2466.346
744.106, 2252.497
745.397, 1817.678
746.689, 1518.838
747.980, 1287.772
749.271, 1060.943
750.562, 968.112
751.853, 742.276
753.143, 674.437
754.433, 554.583
755.723, 467.457
757.013, 368.618
758.303, 369.765
759.592, 307.909
760.881, 276.049
762.170, 233.186
763.459, 204.319
764.748, 150.448
766.036, 152.574
767.325, 110.769
768.613, 126.866
769.901, 84.981
771.188, 117.050
772.476, 104.159
773.763, 90.264
775.050, 75.459
776.337, 68.888
777.624, 55.651
778.910, 58.742
780.196, 49.204
781.482, 67.421
782.768, 38.502
784.054, 36.580
785.339, 28.654
786.625, 4.275
787.910, 52.787
789.195, 27.845
790.479, 25.901
791.764, 11.953
793.048, 1.999
794.332, 26.040
795.616, 1.925
796.900, 48.116
798.183, 13.139
799.467, 28.159
800.750, 26.175
802.033, 7.188
803.316, 47.148
804.598, 24.940
805.880, 31.157
807.163, 18.156
808.445, 3.153
809.726, 12.143
811.008, 49.131
812.289, 12.115
813.570, 22.097
814.851, 9.075
816.132, 1.950
817.413, 4.017
818.693, 3.758
819.973, 4.135
821.253, 18.813
822.533, 20.758
823.813, 25.700
825.092, 19.640
826.371, 26.579
827.650, 28.938
828.929, 22.450
830.208, 37.381
831.486, 20.310
832.764, 21.236
834.042, 6.160
835.320, 40.081
836.598, 31.999
837.875, 51.915
839.152, 19.829
840.429, 14.740
841.706, 10.649
842.983, 9.445
844.259, 2.452
845.536, 34.656
846.812, 25.605
848.088, 7.064
849.363, 16.088
850.639, 16.253
851.914, 3.570
853.189, 22.389
854.464, 47.207
855.739, 0.977
857.013, 5.834
858.288, 4.357
859.562, 21.555
860.836, 11.233
862.110, 17.019
863.383, 9.803
864.656, 11.414
865.930, 36.641
867.203, 9.110
868.475, 8.141
869.748, 12.601
871.020, 6.342
872.292, 17.918
873.564, 11.190
874.836, 12.004
876.108, 37.759
877.379, 8.931
878.650, 4.620
879.922, 26.307
881.192, 21.994
882.463, 11.680
883.733, 10.635
885.004, 23.043
886.274, 9.720
887.544, 20.397
888.813, 10.927
890.083, 19.742
891.352, 8.589
892.621, 2.076
893.890, 15.740
895.159, 24.404
896.427, 17.069
897.695, 26.733
898.964, 11.397
900.232, 12.060
901.499, 19.724
902.767, 21.387
904.034, 54.050
905.301, 37.713
906.568, 4.375
907.835, 63.037
909.102, 0.299
910.368, 26.364
911.634, 8.026
912.900, 3.689
914.166, 46.351
915.432, 24.014
916.697, 24.676
917.962, 32.339
919.227, 3.999
920.492, 31.663
921.757, 3.325
923.021, 37.987
924.285, 46.650
925.550, 25.312
926.813, 24.975
928.077, 7.643
929.341, 54.311
930.604, 4.979
931.867, 32.647
933.130, 15.319
934.393, 39.990
935.655, 46.077
936.918, 25.336
938.180, 62.008
939.442, 66.845
940.703, 67.520
941.965, 37.193
943.226, 20.860
944.488, 17.470
945.749, 22.475
947.009, 80.151
948.270, 31.174
949.530, 42.863
950.791, 42.499
952.051, 18.190
953.311, 8.883
954.570, 42.438
955.830, 37.134
957.089, 34.830
958.348, 87.528
959.607, 52.201
960.866, 38.633
962.124, 56.299
963.383, 108.016
964.641, 46.686
965.899, 88.403
967.156, 79.069
968.414, 23.246
969.671, 48.773
970.928, 73.295
972.185, 74.359
973.442, 78.085
974.699, 65.821
975.955, 60.565
977.211, 76.311
978.468, 72.429
979.723, 106.830
980.979, 76.597
982.234, 73.366
983.490, 56.147
984.745, 82.929
986.000, 107.652
987.254, 63.439
988.509, 122.229
989.763, 121.021
991.017, 121.815
992.271, 104.597
993.525, 126.370
994.779, 147.296
996.032, 126.964
997.285, 149.328
998.538, 76.276
999.791, 148.062
1001.044, 164.633
1002.296, 87.208
1003.548, 154.982
1004.800, 103.826
1006.052, 126.674
1007.304, 87.263
1008.555, 118.084
1009.807, 146.487
1011.058, 127.825
1012.309, 140.685
1013.559, 147.557
1014.810, 159.422
1016.060, 135.452
1017.310, 178.914
1018.560, 162.798
1019.810, 215.084
1021.060, 226.989
1022.309, 181.884
1023.558, 166.616
1024.807, 237.792
1026.056, 246.933
1027.305, 217.474
1028.553, 255.418
1029.801, 230.360
1031.049, 275.318
1032.297, 263.280
1033.545, 329.247
1034.793, 307.599
1036.040, 283.574
1037.287, 308.553
1038.534, 334.537
1039.781, 400.938
1041.027, 404.929
1042.274, 393.500
1043.520, 501.498
1044.766, 503.501
1046.012, 570.509
1047.257, 547.527
1048.503, 673.550
1049.748, 590.576
1050.993, 756.607
1052.238, 782.649
1053.483, 791.695
1054.727, 837.745
1055.971, 922.799
1057.216, 996.858
1058.459, 1041.922
1059.703, 1165.980
1060.947, 1241.052
1062.190, 1282.127
1063.433, 1448.207
1064.676, 1599.292
1065.919, 1686.381
1067.162, 1984.476
1068.404, 2093.573
1069.646, 2341.603
1070.888, 2756.710
1072.130, 3079.819
1073.372, 3465.934
1074.613, 3987.052
1075.855, 4488.174
1077.096, 5037.300
1078.337, 5919.429
1079.578, 6796.565
1080.818, 7975.709
1082.059, 9412.858
1083.299, 11432.011
1084.539, 13877.167
1085.779, 16969.326
1087.018, 20996.490
1088.258, 26128.658
1089.497, 32268.834
1090.736, 39303.000
1091.975, 46922.199
1093.213, 52983.383
1094.452, 57412.574
1095.690, 56986.465
1096.928, 53817.664
1098.166, 47950.902
1099.404, 41558.117
1100.642, 35415.332
1101.879, 30299.613
1103.116, 25669.836
1104.353, 21987.068
1105.590, 18674.301
1106.827, 16243.543
1108.063, 13610.834
1109.299, 11756.070
1110.536, 9803.377
1111.771, 8215.629
1113.007, 6950.887
1114.243, 5788.785
1115.478, 4802.060
1116.713, 4093.328
1117.948, 3516.651
1119.183, 2887.929
1120.418, 2516.211
1121.652, 2229.655
1122.886, 2008.945
1124.120, 1751.355
1125.354, 1453.355
1126.588, 1316.654
1127.821, 1133.716
1129.055, 1027.069
1130.288, 949.511
1131.521, 878.891
1132.753, 789.203
1133.986, 705.589
1135.218, 660.970
1136.450, 566.292
1137.682, 592.694
1138.914, 524.032
1140.146, 500.370
1141.377, 427.681
1142.609, 428.062
1143.840, 417.592
1145.071, 406.946
1146.301, 371.671
1147.532, 355.407
1148.762, 313.954
1149.992, 291.835
1151.222, 292.358
1152.452, 284.700
1153.682, 244.368
1154.911, 237.785
1156.140, 246.293
1157.369, 187.805
1158.598, 185.313
1159.827, 219.345
1161.055, 150.806
1162.284, 198.248
1163.512, 180.813
1164.740, 153.374
1165.967, 132.167
1167.195, 152.584
1168.422, 169.530
1169.650, 159.165
1170.877, 124.452
1172.103, 156.383
1173.330, 99.949
1174.557, 145.449
1175.783, 117.966
1177.009, 120.851
1178.235, 76.333
1179.461, 114.984
1180.686, 130.667
1181.912, 121.137
1183.137, 126.644
1184.362, 108.095
1185.587, 108.542
1186.811, 119.990
1188.036, 64.440
1189.260, 67.889
1190.484, 82.363
1191.708, 94.863
1192.932, 66.385
1194.155, 65.545
1195.378, 53.993
1196.602, 37.440
1197.825, 75.949
1199.047, 42.012
1200.270, 57.539
1201.492, 69.982
1202.715, 30.452
1203.937, 83.105
1205.159, 39.701
1206.380, 27.144
1207.602, 15.654
1208.823, 3.089
1210.044, 10.117
1211.265, 33.299
1212.486, 25.830
1213.707, 60.389
1214.927, 62.822
1216.147, 26.344
1217.367, 64.869
1218.587, 19.292
1219.807, 76.711
1221.027, 49.129
1222.246, 25.546
1223.465, 41.981
1224.684, 62.530
1225.903, 22.995
1227.121, 22.859
1228.340, 17.342
1229.558, 39.746
1230.776, 51.148
1231.994, 43.858
1233.212, 40.945
1234.429, 29.341
1235.646, 34.733
1236.864, 22.140
1238.081, 37.098
1239.297, 36.500
1240.514, 29.997
1241.730, 13.573
1242.947, 41.811
1244.163, 10.220
1245.378, 39.622
1246.594, 40.008
1247.810, 3.531
1249.025, 42.975
1250.240, 43.386
1251.455, 28.060
1252.670, 44.485
1253.885, 7.839
1255.099, 47.772
1256.313, 7.589
1257.527, 38.907
1258.741, 40.221
1259.955, 9.454
1261.168, 19.899
1262.382, 40.253
1263.595, 11.573
1264.808, 25.903
1266.021, 47.187
1267.233, 16.542
1268.446, 58.714
1269.658, 1.007
1270.870, 24.675
1272.082, 42.560
1273.294, 25.208
1274.505, 16.004
1275.716, 1.205
1276.928, 29.611
1278.139, 51.552
1279.349, 11.711
1280.560, 13.867
1281.770, 35.668
1282.981, 11.804
1284.191, 27.936
1285.401, 29.065
1286.610, 10.758
1287.820, 20.358
1289.029, 2.458
1290.239, 29.554
1291.448, 16.367
1292.656, 0.298
1293.865, 3.762
1295.073, 2.184
1296.282, 6.529
1297.490, 9.098
1298.698, 1.931
1299.906, 26.952
1301.113, 9.968
1302.320, 9.978
1303.528, 10.981
1304.735, 3.034
1305.942, 21.943
1307.148, 26.914
1308.355, 7.878
1309.561, 8.836
1310.767, 14.217
1311.973, 40.716
1313.179, 16.358
1314.384, 6.554
1315.590, 21.543
1316.795, 15.658
1318.000, 12.213
1319.205, 24.075
1320.410, 22.930
1321.614, 14.223
1322.819, 31.610
1324.023, 8.434
1325.227, 7.251
1326.431, 35.058
1327.634, 26.939
1328.838, 40.583
1330.041, 44.436
1331.244, 49.215
1332.447, 56.253
1333.650, 43.734
1334.852, 36.482
1336.055, 30.223
1337.257, 24.957
1338.459, 17.316
1339.661, 43.396
1340.862, 48.101
1342.064, 27.799
1343.265, 15.510
1344.466, 23.167
1345.667, 46.836
1346.868, 36.499
1348.068, 11.154
1349.269, 14.802
1350.469, 42.442
1351.669, 26.076
1352.869, 57.703
1354.069, 46.324
1355.268, 6.938
1356.468, 21.545
1357.667, 18.145
1358.866, 42.741
1360.065, 22.330
1361.263, 21.913
1362.462, 65.491
1363.660, 46.063
1364.858, 50.009
1366.056, 62.226
1367.254, 39.790
1368.451, 18.344
1369.649, 31.895
1370.846, 11.428
1372.043, 27.110
1373.240, 50.646
1374.436, 76.176
1375.633, 52.704
1376.829, 72.846
1378.025, 46.776
1379.221, 62.265
1380.417, 41.676
1381.613, 3.802
1382.808, 43.918
1384.003, 23.320
1385.199, 36.393
1386.393, 60.423
1387.588, 41.503
1388.783, 43.573
1389.977, 41.378
1391.171, 18.345
1392.365, 26.670
1393.559, 34.662
1394.753, 10.603
1395.946, 29.295
1397.140, 49.132
1398.333, 34.145
1399.526, 33.992
1400.719, 39.328
1401.911, 40.117
1403.104, 37.605
1404.296, 29.645
1405.488, 27.285
1406.680, 34.812
1407.872, 28.907
1409.063, 38.381
1410.255, 47.942
1411.446, 49.102
1412.637, 29.629
1413.828, 23.031
1415.018, 41.821
1416.209, 54.235
1417.399, 48.080
1418.589, 53.413
1419.779, 37.158
1420.969, 43.442
1422.159, 32.789
1423.348, 28.204
1424.537, 4.946
1425.726, 33.406
1426.915, 33.864
1428.104, 60.315
1429.293, 17.722
1430.481, 46.965
1431.669, 58.709
1432.857, 39.983
1434.045, 78.616
1435.233, 96.883
1436.420, 139.575
1437.608, 71.724
1438.795, 165.991
1439.982, 200.480
1441.169, 181.472
1442.355, 283.334
1443.542, 365.530
1444.728, 531.711
1445.914, 705.585
1447.100, 855.889
1448.286, 864.828
1449.472, 721.892
1450.657, 616.938
1451.842, 443.932
1453.027, 305.741
1454.212, 272.365
1455.397, 191.206
1456.581, 217.005
1457.766, 205.359
1458.950, 180.377
1460.134, 189.007
1461.318, 155.610
1462.501, 150.394
1463.685, 121.000
1464.868, 111.540
1466.051, 113.029
1467.234, 156.904
1468.417, 110.350
1469.600, 129.058
1470.782, 102.795
1471.965, 126.611
1473.147, 134.420
1474.329, 129.315
1475.510, 110.077
1476.692, 122.641
1477.873, 132.399
1479.055, 132.200
1480.236, 85.990
1481.416, 76.761
1482.597, 56.525
1483.778, 107.265
1484.958, 84.029
1486.138, 41.819
1487.318, 168.589
1488.498, 76.389
1489.678, 51.187
1490.857, 86.013
1492.037, 98.864
1493.216, 80.724
1494.395, 103.603
1495.574, 45.498
1496.752, 43.411
1497.931, 18.329
1499.109, 79.355
1500.287, 4.413
1501.465, 23.495
1502.643, 26.605
1503.820, 4.752
1504.998, 9.940
1506.175, 6.194
1507.352, 0.537
1508.529, 4.810
1509.706, 11.225
1510.882, 7.084
1512.059, 1.741
1513.235, 21.892
1514.411, 23.651
1515.587, 19.715
1516.762, 10.544
1517.938, 37.003
1519.113, 0.221
1520.288, 29.761
1521.463, 0.000
##END=



