##NAMES=Magnesio-hastingsite
##RRUFFID=R040010
##IDEAL CHEMISTRY=NaCa_2_(Mg_4_Fe^3+^)Si_6_Al_2_O_22_(OH)_2_
##LOCALITY=Amity, New York, USA
##OWNER=RRUFF
##SOURCE=University of Arizona Mineral Museum
##DESCRIPTION=Group of black prismatic crystals
##STATUS=The identification of this mineral has been confirmed by X-ray diffraction and chemical analysis
##URL=rruff.info/R040010
##MEASURED CHEMISTRY=(Na_0.50_K_0.43_[box]_0.07_)_Σ=1_(Ca_1.77_Na_0.23_)_Σ=2_(Mg_1.74_Fe_1.22_Fe^3+^_0.79_Mn_0.57_Al_0.30_Zn_0.25_Ti_0.13_)_Σ=5_(Si_5.95_Al_2.05_)_Σ=8_O_22_((OH)_1.75_F_0.22_Cl_0.03_)_Σ=2_; OH estimated by charge balance
##PIN_ID=L00374
##ORIENTATION=Laser parallel to a [1 0 0]. Fiducial mark perpendicular to laser is parallel to -b* (0 -1 0)
162.1560, 0.0000000E+00
163.3880, 7.578125
164.6200, 59.58984
165.8510, 175.1328
167.0820, 375.3047
168.3130, 480.9648
169.5440, 494.0703
170.7750, 638.2734
172.0050, 946.8867
173.2350, 997.2266
174.4650, 1266.695
175.6950, 1669.719
176.9250, 2005.000
178.1550, 2785.109
179.3840, 2574.844
180.6130, 3230.520
181.8420, 3388.102
183.0710, 3499.312
184.3000, 3890.707
185.5280, 4769.754
186.7570, 4974.539
187.9850, 5017.145
189.2130, 4796.156
190.4400, 4647.469
191.6680, 4345.000
192.8960, 4364.672
194.1230, 4002.414
195.3500, 4130.172
196.5770, 3475.359
197.8030, 3213.453
199.0300, 2866.988
200.2560, 2441.195
201.4830, 1694.266
202.7090, 1363.625
203.9340, 867.6523
205.1600, 365.2188
206.3860, 128.4297
207.6110, 433.9219
208.8360, 570.8125
210.0610, 124.1289
211.2860, 73.07031
212.5100, 696.7500
213.7350, 942.8789
214.9590, 730.4570
216.1830, 1015.465
217.4070, 1238.887
218.6310, 1276.719
219.8540, 2186.941
221.0780, 2547.551
222.3010, 2792.535
223.5240, 2912.887
224.7470, 3001.586
225.9690, 3346.629
227.1920, 3520.016
228.4140, 3443.727
229.6360, 3566.117
230.8580, 3764.105
232.0800, 3560.754
233.3020, 3245.699
234.5230, 3351.941
235.7440, 3099.434
236.9650, 3153.078
238.1860, 2739.934
239.4070, 2597.016
240.6280, 2086.398
241.8480, 2055.008
243.0680, 1902.996
244.2880, 1895.520
245.5080, 1702.469
246.7280, 1641.574
247.9470, 1513.496
249.1660, 1415.832
250.3860, 1253.621
251.6040, 1029.551
252.8230, 904.6250
254.0420, 754.0586
255.2600, 945.2383
256.4790, 1051.508
257.6970, 1077.367
258.9150, 781.1602
260.1320, 899.9805
261.3500, 852.5898
262.5670, 798.5312
263.7840, 976.3281
265.0010, 1044.578
266.2180, 692.3398
267.4350, 964.2695
268.6510, 827.3672
269.8680, 915.6289
271.0840, 643.0625
272.3000, 889.6523
273.5160, 844.4023
274.7310, 1263.312
275.9470, 1558.387
277.1620, 1538.699
278.3770, 1426.984
279.5920, 1493.512
280.8070, 1770.188
282.0210, 1527.008
283.2360, 1878.969
284.4500, 2027.078
285.6640, 1982.320
286.8780, 1838.703
288.0920, 1844.223
289.3050, 2167.883
290.5180, 1932.664
291.7320, 2099.117
292.9450, 2075.484
294.1570, 2159.801
295.3700, 2007.094
296.5830, 1954.508
297.7950, 1920.047
299.0070, 1710.711
300.2190, 1706.484
301.4310, 1631.375
302.6420, 1426.383
303.8540, 1294.500
305.0650, 1453.730
306.2760, 1118.066
307.4870, 1206.516
308.6980, 1186.371
309.9080, 893.8125
311.1190, 1000.793
312.3290, 828.7227
313.5390, 731.2383
314.7490, 640.6133
315.9580, 552.0352
317.1680, 504.9961
318.3770, 592.1133
319.5860, 339.4180
320.7950, 102.8594
322.0040, 203.7422
323.2130, 178.7422
324.4210, 302.3984
325.6290, 356.5469
326.8380, 428.7500
328.0460, 335.2109
329.2530, 753.9805
330.4610, 44.97266
331.6680, 603.6211
332.8760, 308.0352
334.0830, 479.6992
335.2890, 282.7383
336.4960, 267.9453
337.7030, 191.3203
338.9090, 220.8516
340.1150, 312.5391
341.3210, 685.3672
342.5270, 586.3438
343.7330, 702.1680
344.9380, 705.7227
346.1440, 674.1094
347.3490, 866.6250
348.5540, 798.2656
349.7590, 1129.027
350.9630, 1148.906
352.1680, 1487.996
353.3720, 1595.750
354.5760, 2074.492
355.7800, 2022.383
356.9840, 2198.816
358.1870, 2235.352
359.3910, 2685.996
360.5940, 2979.734
361.7970, 3020.570
363.0000, 3558.496
364.2030, 3064.523
365.4050, 3885.641
366.6080, 3478.848
367.8100, 3737.141
369.0120, 3732.520
370.2140, 3677.984
371.4150, 3570.535
372.6170, 3803.164
373.8180, 3759.875
375.0190, 3658.664
376.2200, 3788.527
377.4210, 3707.469
378.6220, 3269.484
379.8220, 3463.566
381.0230, 3230.723
382.2230, 2935.957
383.4230, 3144.254
384.6220, 2869.625
385.8220, 2483.059
387.0220, 2448.562
388.2210, 2327.125
389.4200, 2470.754
390.6190, 2218.441
391.8180, 1949.188
393.0160, 1724.617
394.2150, 1913.398
395.4130, 2017.184
396.6110, 2040.527
397.8090, 1742.375
399.0060, 1859.500
400.2040, 1810.273
401.4010, 1754.270
402.5980, 1930.000
403.7950, 1678.883
404.9920, 1851.039
406.1890, 1854.305
407.3860, 1934.938
408.5820, 1848.199
409.7780, 1813.230
410.9740, 1840.801
412.1700, 1897.062
413.3650, 2037.746
414.5610, 2157.480
415.7560, 2285.266
416.9510, 2472.094
418.1460, 2592.691
419.3410, 2820.879
420.5360, 2922.836
421.7300, 3040.836
422.9240, 3292.875
424.1180, 3145.961
425.3120, 3329.082
426.5060, 3352.246
427.7000, 3659.449
428.8930, 3406.695
430.0860, 3645.977
431.2790, 3300.293
432.4720, 2910.652
433.6650, 3054.043
434.8580, 2634.477
436.0500, 2430.945
437.2420, 2231.453
438.4340, 2030.992
439.6260, 1820.566
440.8180, 1551.172
442.0090, 1501.816
443.2010, 1268.496
444.3920, 925.2070
445.5830, 780.9570
446.7740, 895.7344
447.9640, 734.5430
449.1550, 505.3828
450.3450, 333.2539
451.5350, 260.1562
452.7250, 111.9570
453.9150, 51.89844
455.1050, 14.87109
456.2940, 32.65234
457.4830, 33.10156
458.6720, 102.5742
459.8610, 142.1445
461.0500, 60.89844
462.2390, 82.82812
463.4270, 8.023438
464.6150, 137.0156
465.8040, 228.7031
466.9910, 207.5820
468.1790, 213.9102
469.3670, 131.2773
470.5540, 74.03125
471.7410, 80.43359
472.9280, 5.390625
474.1150, 43.51172
475.3020, 1.9531000E-02
476.4890, 52.14453
477.6750, 66.36328
478.8610, 272.3047
480.0470, 467.1211
481.2330, 328.9492
482.4190, 484.7891
483.6040, 954.6367
484.7900, 975.4883
485.9750, 886.3516
487.1600, 1368.215
488.3450, 1453.000
489.5290, 1493.965
490.7140, 2021.848
491.8980, 2003.730
493.0820, 2275.613
494.2660, 2479.500
495.4500, 2582.434
496.6340, 2869.492
497.8170, 2982.699
499.0010, 3559.949
500.1840, 3761.199
501.3670, 4223.445
502.5500, 4488.742
503.7320, 4456.930
504.9150, 4971.160
506.0970, 5060.395
507.2790, 5273.617
508.4610, 5903.836
509.6430, 6062.047
510.8250, 6432.258
512.0060, 6812.453
513.1870, 7269.648
514.3680, 7294.828
515.5490, 7622.000
516.7300, 8264.164
517.9110, 8360.312
519.0910, 8862.457
520.2710, 9432.586
521.4510, 9822.703
522.6310, 10687.81
523.8110, 11200.91
524.9910, 11508.99
526.1700, 12010.06
527.3490, 12241.11
528.5280, 12497.16
529.7070, 13080.18
530.8860, 13353.20
532.0650, 13732.19
533.2430, 13847.17
534.4210, 13896.13
535.5990, 13716.08
536.7770, 13653.98
537.9550, 13357.93
539.1320, 13245.83
540.3100, 12834.71
541.4870, 12520.57
542.6640, 12172.41
543.8410, 11924.23
545.0170, 11497.03
546.1940, 10973.82
547.3700, 10797.58
548.5470, 10581.32
549.7230, 10653.05
550.8980, 9673.742
552.0740, 10679.42
553.2500, 9464.082
554.4250, 9223.711
555.6000, 8936.328
556.7750, 8479.914
557.9500, 8273.477
559.1250, 7969.023
560.2990, 7655.551
561.4730, 7694.055
562.6480, 7299.555
563.8220, 7185.070
564.9950, 6787.652
566.1690, 6296.250
567.3430, 6446.879
568.5160, 5852.520
569.6890, 5623.203
570.8620, 5352.934
572.0350, 5171.680
573.2070, 4496.523
574.3800, 4521.336
575.5520, 3994.168
576.7240, 3544.020
577.8960, 3373.906
579.0680, 3006.844
580.2400, 2991.836
581.4110, 2411.871
582.5830, 2297.930
583.7540, 1893.027
584.9250, 1899.090
586.0950, 1644.121
587.2660, 1531.125
588.4370, 877.0977
589.6070, 991.0664
590.7770, 627.0117
591.9470, 709.9219
593.1170, 472.8125
594.2860, 426.6680
595.4560, 556.8008
596.6250, 50.61328
597.7940, 25.39844
598.9630, 95.92969
600.1320, 256.4844
601.3000, 477.6211
602.4690, 341.0352
603.6370, 585.7461
604.8050, 293.9453
605.9730, 333.8047
607.1410, 189.6328
608.3090, 243.9883
609.4760, 325.5781
610.6430, 127.3555
611.8100, 370.4414
612.9770, 209.9609
614.1440, 11.95312
615.3110, 44.50391
616.4770, 346.1484
617.6430, 170.6914
618.8090, 333.9844
619.9750, 511.2500
621.1410, 592.4766
622.3070, 772.9141
623.4720, 960.8398
624.6370, 1084.969
625.8020, 1262.582
626.9670, 1264.137
628.1320, 1612.168
629.2970, 1841.168
630.4610, 2106.141
631.6250, 2382.391
632.7890, 2658.578
633.9530, 2905.848
635.1170, 3225.684
636.2810, 3517.750
637.4440, 3757.258
638.6070, 4032.996
639.7700, 4076.695
640.9330, 4295.363
642.0960, 4685.996
643.2590, 4983.594
644.4210, 5355.160
645.5830, 5568.688
646.7450, 5895.180
647.9070, 6143.645
649.0690, 6347.074
650.2310, 6533.469
651.3920, 6901.828
652.5530, 7120.152
653.7140, 7240.445
654.8750, 7538.703
656.0360, 7888.926
657.1970, 8004.117
658.3570, 8476.270
659.5170, 8725.395
660.6770, 8897.617
661.8370, 8938.445
662.9970, 8966.250
664.1570, 8924.168
665.3160, 8761.516
666.4750, 8608.441
667.6340, 8337.336
668.7930, 7922.195
669.9520, 8405.020
671.1110, 7906.816
672.2690, 8063.578
673.4270, 8143.305
674.5850, 8287.008
675.7430, 8438.672
676.9010, 8824.305
678.0590, 8960.910
679.2160, 9098.480
680.3730, 9537.023
681.5300, 9411.535
682.6870, 9821.012
683.8440, 9682.457
685.0010, 9576.875
686.1570, 9489.254
687.3130, 9091.617
688.4690, 8860.945
689.6250, 8188.238
690.7810, 7731.508
691.9370, 7260.738
693.0920, 6936.945
694.2470, 6537.125
695.4020, 6303.270
696.5570, 6206.387
697.7120, 6165.477
698.8670, 6398.332
700.0210, 6062.363
701.1750, 6100.559
702.3290, 6491.203
703.4830, 6749.984
704.6370, 7054.578
705.7910, 7319.102
706.9440, 7787.250
708.0970, 7990.590
709.2510, 8585.504
710.4030, 8867.688
711.5560, 9714.852
712.7090, 10223.55
713.8610, 10509.87
715.0140, 11009.91
716.1660, 11277.36
717.3180, 11699.62
718.4690, 12521.74
719.6210, 12987.32
720.7730, 13622.24
721.9240, 13644.89
723.0750, 14124.25
724.2260, 13963.57
725.3770, 14527.86
726.5270, 14663.10
727.6780, 15157.97
728.8280, 15200.14
729.9780, 15071.27
731.1280, 15432.47
732.2780, 15423.52
733.4280, 16037.54
734.5770, 15838.52
735.7260, 15834.31
736.8760, 15682.56
738.0250, 15497.24
739.1730, 15207.81
740.3220, 14973.54
741.4700, 14668.11
742.6190, 14399.55
743.7670, 13937.55
744.9150, 13504.18
746.0630, 12946.20
747.2100, 12225.12
748.3580, 11581.28
749.5050, 10897.04
750.6520, 10615.74
751.7990, 9692.613
752.9460, 8986.426
754.0930, 8875.668
755.2390, 8277.500
756.3860, 7582.695
757.5320, 7375.465
758.6780, 7004.355
759.8240, 6615.238
760.9690, 6302.125
762.1150, 5875.000
763.2600, 5750.875
764.4060, 5484.746
765.5510, 5657.613
766.6950, 5595.676
767.8400, 5708.344
768.9850, 5428.203
770.1290, 5401.855
771.2730, 5056.926
772.4170, 5174.785
773.5610, 5011.645
774.7050, 4970.508
775.8480, 4864.371
776.9920, 4735.234
778.1350, 4961.102
779.2780, 4946.977
780.4210, 4776.848
781.5640, 4889.719
782.7060, 4823.605
783.8490, 4394.488
784.9910, 4482.383
786.1330, 4596.273
787.2750, 4001.180
788.4170, 4285.086
789.5580, 3772.000
790.7000, 4209.922
791.8410, 3909.867
792.9820, 4151.785
794.1230, 3555.727
795.2640, 3372.672
796.4040, 3237.633
797.5450, 3371.598
798.6850, 3150.574
799.8250, 3316.562
800.9650, 3034.555
802.1050, 2852.562
803.2450, 2917.578
804.3840, 2967.605
805.5230, 2574.645
806.6630, 2833.699
807.8020, 2404.762
808.9400, 2204.832
810.0790, 2082.922
811.2170, 2214.023
812.3560, 2027.137
813.4940, 2116.266
814.6320, 2017.414
815.7700, 1705.566
816.9070, 1733.738
818.0450, 1526.930
819.1820, 1335.133
820.3190, 1290.352
821.4560, 1110.590
822.5930, 964.8398
823.7300, 1000.105
824.8670, 1050.391
826.0030, 747.6953
827.1390, 563.0195
828.2750, 614.3594
829.4110, 433.7188
830.5470, 416.0938
831.6820, 479.4883
832.8180, 94.90234
833.9530, 323.3320
835.0880, 22.21484
836.2230, 102.2344
837.3580, 51.41406
838.4920, 149.8398
839.6270, 318.4531
840.7610, 169.2109
841.8950, 221.0391
843.0290, 130.9688
844.1630, 254.9453
845.2960, 282.0352
846.4300, 171.2461
847.5630, 465.5273
848.6960, 110.9688
849.8290, 194.3438
850.9620, 180.0586
852.0940, 237.6758
853.2270, 319.3906
854.3590, 319.5078
855.4910, 313.5938
856.6230, 221.3359
857.7550, 270.5273
858.8870, 97.17188
860.0180, 70.90234
861.1500, 66.66016
862.2810, 25.44531
863.4120, 147.7383
864.5430, 138.0391
865.6730, 168.8477
866.8040, 59.32031
867.9340, 357.5195
869.0640, 210.3906
870.1940, 58.29297
871.3240, 92.23047
872.4540, 88.26562
873.5830, 272.3867
874.7130, 604.6211
875.8420, 536.0117
876.9710, 219.6133
878.1000, 759.3945
879.2290, 721.6836
880.3570, 765.5469
881.4860, 1070.969
882.6140, 932.4766
883.7420, 831.1289
884.8700, 1032.965
885.9980, 927.9180
887.1250, 1150.047
888.2530, 1090.316
889.3800, 990.6641
890.5070, 1494.109
891.6340, 1342.617
892.7610, 1011.172
893.8880, 1512.797
895.0140, 1511.488
896.1400, 1516.227
897.2670, 1619.027
898.3930, 1504.871
899.5180, 1543.500
900.6440, 1602.781
901.7700, 1549.832
902.8950, 1680.918
904.0200, 1783.043
905.1450, 1715.250
906.2700, 1937.527
907.3950, 2025.914
908.5190, 2207.387
909.6440, 2301.988
910.7680, 2272.664
911.8920, 2305.402
913.0160, 2350.176
914.1400, 2599.062
915.2630, 2751.996
916.3870, 2577.988
917.5100, 2785.047
918.6330, 2434.141
919.7560, 2544.289
920.8790, 2679.484
922.0010, 2758.711
923.1240, 2551.984
924.2460, 2408.305
925.3680, 2562.676
926.4900, 2541.078
927.6120, 2456.527
928.7340, 2623.016
929.8550, 2417.574
930.9760, 2517.180
932.0980, 2343.852
933.2190, 2503.570
934.3390, 2502.355
935.4600, 2623.180
936.5810, 2395.094
937.7010, 2572.055
938.8210, 2576.047
939.9410, 2518.086
941.0610, 2680.195
942.1810, 2720.348
943.3010, 2713.551
944.4200, 2824.809
945.5390, 2642.109
946.6580, 2786.484
947.7770, 2937.902
948.8960, 2610.359
950.0150, 2874.855
951.1330, 2962.395
952.2510, 3218.980
953.3690, 2824.602
954.4870, 3378.270
955.6050, 3094.977
956.7230, 3197.723
957.8400, 3239.508
958.9580, 3144.340
960.0750, 3505.211
961.1920, 3015.125
962.3090, 3343.074
963.4250, 3035.066
964.5420, 3338.105
965.6580, 3387.188
966.7740, 3016.305
967.8900, 3199.469
969.0060, 3506.668
970.1220, 3386.117
971.2380, 3314.402
972.3530, 3401.535
973.4680, 3543.238
974.5830, 3542.125
975.6980, 3764.582
976.8130, 3592.434
977.9280, 3680.676
979.0420, 3495.734
980.1560, 3496.238
981.2710, 3576.312
982.3850, 3839.762
983.4980, 3724.527
984.6120, 3981.828
985.7260, 4009.102
986.8390, 4089.148
987.9520, 4094.395
989.0650, 4131.922
990.1780, 4504.758
991.2910, 4327.383
992.4030, 4253.305
993.5160, 4651.531
994.6280, 4323.816
995.7400, 4550.188
996.8520, 4718.605
997.9640, 4629.422
999.0750, 4577.945
1000.187, 4739.543
1001.298, 5015.078
1002.409, 5006.793
1003.520, 4856.562
1004.631, 5164.387
1005.741, 4808.266
1006.852, 5145.195
1007.962, 4924.172
1009.072, 4835.207
1010.182, 5086.289
1011.292, 5248.426
1012.402, 5030.645
1013.511, 4969.938
1014.621, 5003.770
1015.730, 5026.172
1016.839, 4895.617
1017.948, 5066.078
1019.056, 4848.621
1020.165, 5088.215
1021.273, 4993.855
1022.382, 4639.539
1023.490, 4972.258
1024.598, 4535.172
1025.706, 4531.973
1026.813, 4685.312
1027.921, 4370.359
1029.028, 4503.547
1030.135, 4429.844
1031.242, 4400.105
1032.349, 4369.297
1033.456, 4386.320
1034.562, 4317.922
1035.668, 4246.062
1036.775, 4263.234
1037.881, 4040.586
1038.987, 3951.305
1040.092, 4048.078
1041.198, 4077.906
1042.303, 3829.250
1043.408, 3739.145
1044.514, 3904.809
1045.618, 3980.191
1046.723, 3990.211
1047.828, 3665.473
1048.932, 3757.434
1050.037, 3684.691
1051.141, 3600.062
1052.245, 3750.242
1053.349, 3470.586
1054.452, 3614.039
1055.556, 3588.582
1056.659, 3643.316
1057.762, 3527.793
1058.865, 3464.199
1059.968, 3568.250
1061.071, 3579.242
1062.174, 3450.859
1063.276, 3509.262
1064.378, 3230.508
1065.480, 3245.684
1066.582, 3396.574
1067.684, 3270.406
1068.786, 3341.223
1069.887, 3330.902
1070.988, 3121.176
1072.090, 3306.105
1073.191, 3390.848
1074.291, 3165.449
1075.392, 2898.020
1076.493, 2828.004
1077.593, 2991.051
1078.693, 3090.461
1079.793, 2890.793
1080.893, 2954.082
1081.993, 2764.133
1083.092, 2777.398
1084.192, 2754.789
1085.291, 2659.867
1086.390, 2589.957
1087.489, 2680.055
1088.588, 2394.141
1089.686, 2536.379
1090.785, 2592.922
1091.883, 2568.664
1092.981, 2222.852
1094.079, 2292.273
1095.177, 2195.348
1096.275, 2093.043
1097.373, 2220.977
1098.470, 1922.070
1099.567, 2046.926
1100.664, 2002.312
1101.761, 2035.250
1102.858, 1900.941
1103.954, 1818.066
1105.051, 1902.816
1106.147, 1894.719
1107.243, 1740.977
1108.339, 1778.891
1109.435, 1474.516
1110.531, 1470.605
1111.626, 1596.434
1112.722, 1451.395
1113.817, 1492.715
1114.912, 1463.375
1116.007, 1111.492
1117.101, 1320.371
1118.196, 1286.777
1119.290, 1004.336
1120.385, 1194.137
1121.479, 946.1836
1122.573, 854.6250
1123.666, 882.8047
1124.760, 787.7852
1125.853, 884.7188
1126.947, 802.1758
1128.040, 696.2148
1129.133, 662.8633
1130.226, 423.7695
1131.318, 569.4453
1132.411, 454.1289
1133.503, 465.7383
1134.596, 507.8945
1135.688, 323.8945
1136.780, 395.5898
1137.871, 314.0352
1138.963, 45.47266
1140.054, 212.8984
1141.146, 100.4766
1142.237, 79.68359
1143.328, 245.5430
1144.419, 233.9102
1145.509, 49.57812
1146.600, 246.6719
1147.690, 85.17188
1148.780, 33.17578
1149.870, 26.40234
1150.960, 35.93750
1152.050, 182.6133
1153.139, 95.83203
1154.229, 86.12500
1155.318, 76.69141
1156.407, 25.81641
1157.496, 126.0781
1158.585, 86.97266
1159.674, 54.78516
1160.762, 69.89453
1161.850, 19.06641
1162.939, 79.27344
1164.027, 201.5586
1165.114, 17.03906
1166.202, 191.4961
1167.290, 75.00781
1168.377, 133.5039
1169.464, 121.1133
1170.551, 231.3281
1171.638, 166.2734
1172.725, 299.9062
1173.812, 102.0977
1174.898, 64.38672
1175.984, 72.33594
1177.071, 218.0586
1178.157, 5.609375
1179.242, 27.12891
1180.328, 52.79688
1181.414, 125.4648
1182.499, 18.30469
1183.584, 84.87109
1184.669, 241.0156
1185.754, 122.1289
1186.839, 8.789063
1187.924, 199.2383
1189.008, 94.09766
1190.092, 69.97266
1191.177, 164.2734
1192.260, 57.82422
1193.344, 23.98828
1194.428, 60.24609
1195.512, 133.4258
1196.595, 50.92969
1197.678, 200.6211
1198.761, 120.5078
1199.844, 80.67969
1200.927, 196.7695
1202.009, 232.3281
1203.092, 53.68750
1204.174, 75.41016
1205.256, 38.07422
1206.338, 5.960938
1207.420, 181.4219
1208.502, 58.12500
1209.583, 125.4414
1210.665, 140.0391
1211.746, 231.9102
1212.827, 156.3203
1213.908, 132.4102
1214.988, 276.1055
1216.069, 326.8633
1217.149, 231.8555
1218.230, 328.4297
1219.310, 82.59766
1220.390, 137.1484
1221.470, 321.2656
1222.549, 234.4727
1223.629, 334.1484
1224.708, 374.9141
1225.787, 80.97656
1226.866, 348.3594
1227.945, 372.4805
1229.024, 147.6172
1230.103, 394.9141
1231.181, 204.2773
1232.259, 169.8945
1233.337, 258.6016
1234.415, 219.1445
1235.493, 372.9688
1236.571, 340.5195
1237.648, 291.4492
1238.726, 314.8984
1239.803, 373.0938
1240.880, 336.8516
1241.957, 526.5703
1243.034, 293.2422
1244.110, 253.8672
1245.187, 381.4531
1246.263, 479.1602
1247.339, 431.1016
1248.415, 341.8281
1249.491, 436.8984
1250.566, 338.3047
1251.642, 462.9609
1252.717, 99.75000
1253.793, 125.9570
1254.868, 415.0977
1255.943, 3.808594
1257.017, 313.1758
1258.092, 387.1133
1259.166, 532.0078
1260.241, 80.74609
1261.315, 89.64844
1262.389, 431.3398
1263.462, 157.1523
1264.536, 490.7930
1265.610, 361.3320
1266.683, 357.8164
1267.756, 419.2578
1268.829, 445.6445
1269.902, 305.4102
1270.975, 197.6992
1272.048, 6.6405997E-02
1273.120, 8.046875
1274.192, 171.0586
1275.264, 129.7695
1276.336, 168.3984
1277.408, 266.2227
1278.480, 161.0273
1279.551, 162.7383
1280.623, 245.9336
1281.694, 420.9766
1282.765, 328.5234
1283.836, 381.0195
1284.907, 255.3242
1285.977, 515.7891
1287.048, 266.7422
1288.118, 331.8750
1289.188, 520.9180
1290.258, 342.7812
1291.328, 426.6875
1292.398, 370.6328
1293.467, 154.7383
1294.537, 463.2539
1295.606, 216.2227
1296.675, 191.1406
1297.744, 309.8672
1298.813, 263.2188
1299.882, 213.4961
1300.950, 187.9688
1302.018, 309.9922
1303.086, 449.9531
1304.155, 222.1523
1305.222, 413.6172
1306.290, 401.9102
1307.358, 209.8906
1308.425, 399.0156
1309.492, 501.3477
1310.559, 528.2891
1311.626, 230.5078
1312.693, 350.8828
1313.760, 304.9766
1314.826, 252.1914
1315.893, 428.1953
1316.959, 180.1445
1318.025, 355.0859
1319.091, 360.8984
1320.157, 444.3516
1321.222, 353.9922
