##NAMES=Magnesite
##RRUFFID=R040114
##IDEAL CHEMISTRY=MgCO_3_
##LOCALITY=Snarum, Norway
##OWNER=RRUFF
##SOURCE=University of Arizona Mineral Museum
##DESCRIPTION=Tan colored cleavage fragment
##STATUS=The identification of this mineral has been confirmed by X-ray diffraction and chemical analysis
##URL=rruff.info/R040114
##MEASURED CHEMISTRY=(Mg_0.98_Fe_0.01_)C_1.00_O_3_
##PIN_ID=L00266
##ORIENTATION=Laser parallel to -a* (-1 0 0). Fiducial mark perpendicular to laser is parallel to c [0 0 1]
90.587, 0.000
91.981, 6.656
93.375, 40.723
94.768, 35.030
96.161, 33.931
97.554, 38.591
98.947, 2.507
100.340, 3.323
101.732, 18.009
103.124, 78.452
104.516, 106.971
105.908, 119.682
107.300, 100.403
108.691, 154.518
110.082, 114.621
111.473, 135.584
112.864, 168.444
114.254, 227.718
115.644, 263.178
117.034, 237.740
118.424, 226.898
119.813, 229.505
121.203, 200.936
122.592, 173.105
123.981, 154.795
125.369, 129.127
126.758, 104.214
128.146, 126.999
129.534, 96.784
130.922, 102.267
132.309, 84.734
133.696, 77.413
135.083, 88.298
136.470, 38.000
137.857, 96.875
139.243, 99.827
140.630, 88.233
142.016, 47.589
143.401, 66.809
144.787, 23.955
146.172, 20.108
147.557, 40.045
148.942, 14.999
150.327, 11.896
151.711, 40.740
153.096, 50.533
154.480, 34.279
155.863, 41.979
157.247, 2.635
158.630, 19.252
160.013, 2.927
161.396, 12.235
162.779, 36.434
164.161, 25.386
165.544, 51.193
166.926, 56.031
168.308, 35.267
169.689, 53.738
171.070, 62.141
172.452, 18.522
173.833, 31.741
175.213, 63.950
176.594, 42.822
177.974, 63.250
179.354, 36.174
180.734, 56.193
182.114, 52.338
183.493, 84.738
184.872, 69.848
186.251, 53.616
187.630, 91.638
189.008, 92.754
190.387, 84.547
191.765, 81.345
193.143, 96.149
194.520, 105.954
195.898, 139.770
197.275, 143.588
198.652, 196.407
200.029, 252.227
201.405, 294.045
202.782, 443.859
204.158, 710.667
205.534, 1210.474
206.909, 1788.274
208.285, 2459.065
209.660, 3135.833
211.035, 3937.597
212.410, 5076.355
213.784, 5424.109
215.159, 4322.853
216.533, 2909.590
217.907, 1788.319
219.281, 1126.040
220.654, 714.756
222.027, 418.466
223.400, 276.172
224.773, 167.873
226.146, 102.571
227.518, 68.264
228.891, 64.954
230.263, 64.640
231.634, 76.323
233.006, 35.010
234.377, 15.702
235.748, 11.392
237.119, 14.923
238.490, 6.363
239.860, 11.557
241.231, 2.879
242.601, 11.794
243.970, 8.536
245.340, 21.126
246.709, 34.227
248.079, 18.394
249.448, 6.992
250.816, 43.619
252.185, 4.794
253.553, 11.214
254.921, 26.355
256.289, 76.102
257.657, 48.780
259.024, 54.380
260.391, 2.054
261.758, 12.379
263.125, 27.857
264.492, 0.934
265.858, 13.008
267.224, 17.345
268.590, 40.866
269.956, 16.801
271.321, 68.507
272.687, 28.880
274.052, 9.150
275.416, 82.468
276.781, 54.703
278.146, 47.919
279.510, 81.126
280.874, 80.305
282.237, 64.466
283.601, 51.603
284.964, 27.794
286.327, 78.886
287.690, 100.423
289.053, 81.480
290.416, 147.506
291.778, 112.500
293.140, 129.535
294.502, 121.500
295.863, 155.458
297.225, 128.388
298.586, 179.818
299.947, 162.800
301.308, 188.657
302.668, 238.645
304.029, 262.523
305.389, 302.725
306.749, 374.246
308.108, 388.249
309.468, 390.925
310.827, 453.628
312.186, 518.351
313.545, 668.011
314.903, 818.525
316.262, 1054.348
317.620, 1395.091
318.978, 1997.758
320.336, 3023.450
321.693, 4879.780
323.051, 8101.412
324.408, 11939.475
325.765, 16587.914
327.121, 20812.594
328.478, 26661.123
329.834, 31507.732
331.190, 31041.346
332.546, 23328.846
333.902, 15910.367
335.257, 10220.908
336.612, 6888.252
337.967, 4636.588
339.322, 3164.095
340.677, 2208.499
342.031, 1647.977
343.385, 1281.331
344.739, 1039.732
346.093, 883.114
347.446, 741.627
348.799, 640.215
350.153, 566.611
351.505, 506.124
352.858, 445.736
354.210, 406.864
355.563, 339.726
356.915, 342.274
358.267, 345.789
359.618, 314.376
360.969, 330.869
362.321, 292.359
363.672, 300.882
365.022, 278.463
366.373, 271.088
367.723, 242.566
369.073, 202.096
370.423, 210.569
371.773, 227.038
373.122, 200.350
374.471, 176.822
375.821, 168.466
377.169, 198.077
378.518, 173.531
379.866, 174.983
381.215, 169.569
382.563, 157.243
383.910, 147.890
385.258, 145.154
386.605, 133.906
387.952, 154.435
389.299, 137.894
390.646, 172.284
391.992, 107.839
393.339, 101.264
394.685, 116.821
396.031, 155.115
397.376, 90.196
398.722, 131.301
400.067, 123.213
401.412, 126.633
402.757, 151.782
404.101, 167.236
405.446, 157.844
406.790, 86.834
408.134, 128.140
409.478, 91.887
410.821, 59.026
412.165, 62.483
413.508, 108.192
414.851, 116.792
416.193, 67.894
417.536, 129.059
418.878, 56.539
420.220, 72.886
421.562, 45.151
422.904, 82.866
424.245, 40.876
425.586, 80.173
426.927, 103.155
428.268, 44.187
429.609, 12.287
430.949, 80.452
432.289, 68.235
433.629, 31.600
434.969, 119.790
436.309, 36.794
437.648, 59.217
438.987, 53.428
440.326, 48.635
441.665, 70.969
443.003, 106.326
444.342, 68.693
445.680, 32.909
447.018, 67.949
448.355, 6.736
449.693, 71.042
451.030, 59.261
452.367, 57.372
453.704, 37.663
455.041, 92.941
456.377, 49.252
457.713, 55.469
459.049, 7.363
460.385, 30.818
461.721, 36.993
463.056, 23.266
464.391, 46.431
465.726, 40.717
467.061, 40.541
468.395, 10.199
469.730, 46.365
471.064, 29.521
472.398, 49.753
473.731, 24.966
475.065, 56.260
476.398, 23.218
477.731, 69.352
479.064, 55.500
480.397, 76.741
481.729, 49.854
483.062, 29.973
484.394, 41.123
485.725, 65.394
487.057, 37.538
488.389, 69.669
489.720, 48.784
491.051, 47.986
492.382, 101.148
493.712, 72.355
495.043, 51.460
496.373, 12.563
497.703, 76.665
499.032, 65.847
500.362, 85.943
501.691, 73.040
503.020, 39.135
504.349, 100.243
505.678, 63.347
507.007, 77.450
508.335, 14.549
509.663, 43.644
510.991, 84.735
512.319, 22.822
513.646, 52.044
514.973, 48.124
516.300, 36.201
517.627, 43.273
518.954, 25.341
520.280, 61.404
521.607, 76.473
522.933, 38.541
524.259, 23.605
525.584, 12.663
526.910, 58.716
528.235, 33.765
529.560, 46.809
530.885, 50.849
532.209, 28.116
533.534, 44.900
534.858, 2.912
536.182, 9.918
537.506, 67.918
538.829, 65.927
540.152, 13.933
541.476, 1.068
542.799, 0.074
544.121, 44.914
545.444, 14.897
546.766, 23.875
548.088, 39.847
549.410, 44.819
550.732, 1.794
552.053, 31.764
553.375, 11.729
554.696, 32.687
556.017, 55.642
557.337, 27.593
558.658, 13.540
559.978, 21.489
561.298, 9.440
562.618, 12.609
563.938, 12.366
565.257, 5.553
566.576, 16.808
567.895, 9.106
569.214, 37.026
570.533, 10.942
571.851, 21.143
573.170, 11.757
574.488, 35.657
575.805, 49.558
577.123, 18.457
578.440, 22.357
579.758, 63.252
581.075, 22.104
582.391, 44.998
583.708, 6.829
585.024, 2.285
586.341, 19.595
587.657, 30.438
588.972, 56.154
590.288, 19.037
591.603, 22.922
592.918, 23.722
594.233, 14.399
595.548, 11.403
596.863, 40.263
598.177, 33.118
599.491, 28.956
600.805, 21.801
602.119, 7.640
603.432, 29.472
604.746, 76.225
606.059, 27.048
607.372, 5.594
608.685, 63.214
609.997, 10.960
611.309, 26.835
612.621, 28.568
613.933, 19.352
615.245, 58.151
616.557, 49.924
617.868, 55.177
619.179, 53.894
620.490, 21.595
621.801, 51.234
623.111, 15.965
624.421, 67.683
625.731, 4.382
627.041, 40.962
628.351, 42.807
629.660, 23.444
630.970, 27.158
632.279, 6.967
633.588, 25.162
634.896, 43.483
636.205, 39.158
637.513, 15.984
638.821, 51.218
640.129, 45.341
641.437, 36.946
642.744, 7.654
644.051, 38.392
645.358, 43.892
646.665, 98.689
647.972, 27.467
649.278, 36.167
650.584, 27.162
651.890, 86.775
653.196, 76.496
654.502, 52.723
655.807, 31.310
657.113, 102.905
658.418, 96.607
659.722, 77.444
661.027, 75.690
662.331, 59.373
663.636, 124.351
664.940, 63.896
666.244, 117.367
667.547, 63.886
668.851, 101.513
670.154, 22.132
671.457, 63.829
672.760, 130.335
674.062, 57.919
675.365, 81.395
676.667, 110.790
677.969, 154.670
679.271, 156.344
680.572, 130.246
681.874, 146.609
683.175, 153.920
684.476, 112.368
685.777, 120.755
687.077, 115.189
688.378, 110.618
689.678, 148.350
690.978, 102.758
692.278, 102.081
693.577, 173.344
694.877, 74.878
696.176, 129.268
697.475, 153.515
698.774, 208.881
700.072, 115.084
701.371, 160.442
702.669, 153.667
703.967, 191.046
705.265, 239.160
706.562, 199.315
707.860, 243.543
709.157, 245.743
710.454, 258.915
711.751, 260.169
713.047, 238.503
714.344, 306.733
715.640, 304.915
716.936, 351.670
718.232, 407.865
719.527, 427.225
720.823, 444.591
722.118, 517.658
723.413, 589.728
724.708, 695.817
726.002, 860.062
727.297, 944.146
728.591, 1134.416
729.885, 1305.021
731.179, 1429.188
732.472, 1698.809
733.766, 1833.490
735.059, 2046.582
736.352, 2227.231
737.645, 2351.328
738.937, 2409.528
740.230, 2342.528
741.522, 2191.445
742.814, 2001.484
744.106, 1697.143
745.397, 1468.301
746.689, 1177.370
747.980, 1064.434
749.271, 834.486
750.562, 732.551
751.853, 642.508
753.143, 546.649
754.433, 474.344
755.723, 410.072
757.013, 346.811
758.303, 288.687
759.592, 246.687
760.881, 213.742
762.170, 210.710
763.459, 89.200
764.748, 54.025
766.036, 92.173
767.325, 112.869
768.613, 116.195
769.901, 50.264
771.188, 73.811
772.476, 61.535
773.763, 47.785
775.050, 83.893
776.337, 61.249
777.624, 65.222
778.910, 52.063
780.196, 74.538
781.482, 52.322
782.768, 24.249
784.054, 82.176
785.339, 81.016
786.625, 12.865
787.910, 14.621
789.195, 34.703
790.479, 78.598
791.764, 15.468
793.048, 2.234
794.332, 4.115
795.616, 43.979
796.900, 28.802
798.183, 28.496
799.467, 19.689
800.750, 7.880
802.033, 13.932
803.316, 29.645
804.598, 11.612
805.880, 48.070
807.163, 20.844
808.445, 2.390
809.726, 54.528
811.008, 46.194
812.289, 8.062
813.570, 6.665
814.851, 49.617
816.132, 18.065
817.413, 2.740
818.693, 75.406
819.973, 30.066
821.253, 45.721
822.533, 22.370
823.813, 7.013
825.092, 7.510
826.371, 46.139
827.650, 13.763
828.929, 64.381
830.208, 53.993
831.486, 30.399
832.764, 2.816
834.042, 40.755
835.320, 76.321
836.598, 115.883
837.875, 62.441
839.152, 42.994
840.429, 68.542
841.706, 70.086
842.983, 5.625
844.259, 42.166
845.536, 16.702
846.812, 36.234
848.088, 44.238
849.363, 51.258
850.639, 77.750
851.914, 2.239
853.189, 28.722
854.464, 46.202
855.739, 66.677
857.013, 7.149
858.288, 8.383
859.562, 24.927
860.836, 30.510
862.110, 64.943
863.383, 72.372
864.656, 74.386
865.930, 26.222
867.203, 30.641
868.475, 26.056
869.748, 6.531
871.020, 14.873
872.292, 37.274
873.564, 36.675
874.836, 1.924
876.108, 59.474
877.379, 63.874
878.650, 18.271
879.922, 55.665
881.192, 6.944
882.463, 7.554
883.733, 57.828
885.004, 5.793
886.274, 25.421
887.544, 59.935
888.813, 23.712
890.083, 20.625
891.352, 16.960
892.621, 35.292
893.890, 7.622
895.159, 35.951
896.427, 42.723
897.695, 17.579
898.964, 9.878
900.232, 18.824
901.499, 14.461
902.767, 11.745
904.034, 49.030
905.301, 3.315
906.568, 46.597
907.835, 13.878
909.102, 13.156
910.368, 1.434
911.634, 15.709
912.900, 51.983
914.166, 39.256
915.432, 53.527
916.697, 24.202
917.962, 107.039
919.227, 4.301
920.492, 75.561
921.757, 40.820
923.021, 67.049
924.285, 63.306
925.550, 35.561
926.813, 59.132
928.077, 70.032
929.341, 55.285
930.604, 33.536
931.867, 14.229
933.130, 9.015
934.393, 29.244
935.655, 44.356
936.918, 96.598
938.180, 84.034
939.442, 79.880
940.703, 76.952
941.965, 44.123
943.226, 41.371
944.488, 85.462
945.749, 58.139
947.009, 63.921
948.270, 43.133
949.530, 58.283
950.791, 70.440
952.051, 79.780
953.311, 41.866
954.570, 81.965
955.830, 64.131
957.089, 92.010
958.348, 28.263
959.607, 43.405
960.866, 9.115
962.124, 31.149
963.383, 54.406
964.641, 49.550
965.899, 43.560
967.156, 32.120
968.414, 71.276
969.671, 66.131
970.928, 48.414
972.185, 83.627
973.442, 74.909
974.699, 115.102
975.955, 123.202
977.211, 38.322
978.468, 87.627
979.723, 140.802
980.979, 59.112
982.234, 192.423
983.490, 44.352
984.745, 85.027
986.000, 145.353
987.254, 84.690
988.509, 80.029
989.763, 136.370
991.017, 109.711
992.271, 93.055
993.525, 150.400
994.779, 166.592
996.032, 108.958
997.285, 140.227
998.538, 80.582
999.791, 134.818
1001.044, 79.193
1002.296, 110.580
1003.548, 144.765
1004.800, 150.134
1006.052, 182.542
1007.304, 129.956
1008.555, 93.249
1009.807, 140.872
1011.058, 176.473
1012.309, 196.882
1013.559, 191.314
1014.810, 185.748
1016.060, 169.185
1017.310, 190.594
1018.560, 146.032
1019.810, 85.461
1021.060, 229.346
1022.309, 173.738
1023.558, 255.203
1024.807, 170.671
1026.056, 260.861
1027.305, 199.333
1028.553, 227.809
1029.801, 312.240
1031.049, 213.720
1032.297, 346.695
1033.545, 372.648
1034.793, 335.136
1036.040, 303.224
1037.287, 337.131
1038.534, 362.642
1039.781, 407.688
1041.027, 425.588
1042.274, 472.679
1043.520, 471.209
1044.766, 487.672
1046.012, 516.208
1047.257, 541.173
1048.503, 584.091
1049.748, 616.222
1050.993, 689.742
1052.238, 735.274
1053.483, 809.799
1054.727, 855.365
1055.971, 912.041
1057.216, 973.612
1058.459, 1036.263
1059.703, 1105.722
1060.947, 1189.344
1062.190, 1265.953
1063.433, 1375.541
1064.676, 1487.136
1065.919, 1670.733
1067.162, 1805.182
1068.404, 1969.783
1069.646, 2217.343
1070.888, 2519.848
1072.130, 2890.625
1073.372, 3288.235
1074.613, 3724.885
1075.855, 4217.533
1077.096, 4805.330
1078.337, 5621.955
1079.578, 6316.580
1080.818, 7489.209
1082.059, 8738.325
1083.299, 10778.955
1084.539, 12995.605
1085.779, 16050.273
1087.018, 19837.914
1088.258, 24516.689
1089.497, 30571.334
1090.736, 37119.984
1091.975, 43723.633
1093.213, 49761.301
1094.452, 53678.980
1095.690, 53234.734
1096.928, 50068.457
1098.166, 44870.293
1099.404, 38967.566
1100.642, 32939.402
1101.879, 28376.080
1103.116, 24002.760
1104.353, 20540.525
1105.590, 17517.959
1106.827, 15161.651
1108.063, 12669.543
1109.299, 10975.458
1110.536, 9193.235
1111.771, 7608.206
1113.007, 6502.063
1114.243, 5372.337
1115.478, 4459.370
1116.713, 3795.271
1117.948, 3213.026
1119.183, 2667.756
1120.418, 2380.682
1121.652, 2140.674
1122.886, 1953.944
1124.120, 1612.532
1125.354, 1334.288
1126.588, 1208.055
1127.821, 1079.930
1129.055, 1016.042
1130.288, 837.937
1131.521, 814.620
1132.753, 657.282
1133.986, 594.232
1135.218, 605.979
1136.450, 500.805
1137.682, 533.636
1138.914, 448.407
1140.146, 425.260
1141.377, 397.002
1142.609, 378.022
1143.840, 383.735
1145.071, 343.964
1146.301, 369.292
1147.532, 292.604
1148.762, 270.572
1149.992, 271.438
1151.222, 216.768
1152.452, 248.777
1153.682, 190.604
1154.911, 206.361
1156.140, 176.129
1157.369, 201.557
1158.598, 177.950
1159.827, 195.861
1161.055, 177.042
1162.284, 159.952
1163.512, 106.803
1164.740, 187.600
1165.967, 94.165
1167.195, 184.256
1168.422, 150.280
1169.650, 110.176
1170.877, 60.004
1172.103, 43.192
1173.330, 97.985
1174.557, 101.708
1175.783, 164.567
1177.009, 119.273
1178.235, 44.196
1179.461, 106.889
1180.686, 92.695
1181.912, 76.760
1183.137, 83.995
1184.362, 137.679
1185.587, 79.801
1186.811, 171.483
1188.036, 41.635
1189.260, 108.314
1190.484, 91.985
1191.708, 58.741
1192.932, 30.797
1194.155, 91.228
1195.378, 25.952
1196.602, 61.796
1197.825, 81.688
1199.047, 82.369
1200.270, 93.020
1201.492, 127.726
1202.715, 1.635
1203.937, 66.388
1205.159, 39.270
1206.380, 89.592
1207.602, 12.496
1208.823, 31.130
1210.044, 104.733
1211.265, 55.699
1212.486, 41.290
1213.707, 31.910
1214.927, 74.633
1216.147, 78.210
1217.367, 72.982
1218.587, 28.547
1219.807, 80.105
1221.027, 36.719
1222.246, 39.261
1223.465, 4.840
1224.684, 83.395
1225.903, 104.200
1227.121, 89.842
1228.340, 102.353
1229.558, 80.038
1230.776, 46.595
1231.994, 43.091
1233.212, 67.580
1234.429, 19.063
1235.646, 75.538
1236.864, 66.006
1238.081, 51.467
1239.297, 49.920
1240.514, 47.676
1241.730, 34.021
1242.947, 38.455
1244.163, 14.925
1245.378, 22.581
1246.594, 15.825
1247.810, 80.254
1249.025, 69.644
1250.240, 39.021
1251.455, 23.610
1252.670, 69.748
1253.885, 13.102
1255.099, 9.503
1256.313, 7.952
1257.527, 14.858
1258.741, 24.553
1259.955, 19.173
1261.168, 1.204
1262.382, 21.457
1263.595, 57.704
1264.808, 74.923
1266.021, 18.135
1267.233, 9.498
1268.446, 17.331
1269.658, 22.183
1270.870, 61.030
1272.082, 59.144
1273.294, 33.246
1274.505, 2.384
1275.716, 29.458
1276.928, 54.484
1278.139, 5.853
1279.349, 21.175
1280.560, 90.181
1281.770, 51.204
1282.981, 50.192
1284.191, 64.149
1285.401, 45.094
1286.610, 73.021
1287.820, 13.933
1289.029, 53.167
1290.239, 112.694
1291.448, 53.536
1292.656, 1.369
1293.865, 22.190
1295.073, 23.004
1296.282, 46.224
1297.490, 17.531
1298.698, 53.265
1299.906, 5.013
1301.113, 66.693
1302.320, 0.390
1303.528, 1.064
1304.735, 33.724
1305.942, 6.370
1307.148, 33.002
1308.355, 46.622
1309.561, 59.229
1310.767, 17.174
1311.973, 9.597
1313.179, 15.961
1314.384, 33.506
1315.590, 49.038
1316.795, 6.556
1318.000, 56.061
1319.205, 72.553
1320.410, 39.031
1321.614, 74.863
1322.819, 25.948
1324.023, 76.386
1325.227, 48.812
1326.431, 12.224
1327.634, 43.379
1328.838, 97.990
1330.041, 9.348
1331.244, 76.684
1332.447, 9.992
1333.650, 121.313
1334.852, 2.394
1336.055, 55.882
1337.257, 12.148
1338.459, 14.601
1339.661, 62.632
1340.862, 32.831
1342.064, 5.959
1343.265, 70.234
1344.466, 91.417
1345.667, 61.589
1346.868, 113.750
1348.068, 12.722
1349.269, 23.860
1350.469, 2.988
1351.669, 20.102
1352.869, 70.097
1354.069, 128.158
1355.268, 7.760
1356.468, 96.309
1357.667, 67.367
1358.866, 42.375
1360.065, 109.418
1361.263, 30.452
1362.462, 116.479
1363.660, 143.433
1364.858, 60.446
1366.056, 1.584
1367.254, 65.383
1368.451, 69.198
1369.649, 21.185
1370.846, 45.168
1372.043, 91.148
1373.240, 33.126
1374.436, 61.104
1375.633, 102.548
1376.829, 76.498
1378.025, 98.484
1379.221, 112.342
1380.417, 191.247
1381.613, 92.101
1382.808, 102.906
1384.003, 136.670
1385.199, 31.304
1386.393, 127.257
1387.588, 64.831
1388.783, 58.482
1389.977, 87.833
1391.171, 67.150
1392.365, 101.680
1393.559, 87.466
1394.753, 82.541
1395.946, 99.111
1397.140, 72.191
1398.333, 52.950
1399.526, 40.407
1400.719, 104.318
1401.911, 73.059
1403.104, 91.177
1404.296, 38.479
1405.488, 77.727
1406.680, 75.963
1407.872, 79.159
1409.063, 91.349
1410.255, 25.637
1411.446, 54.749
1412.637, 57.466
1413.828, 35.268
1415.018, 70.639
1416.209, 113.921
1417.399, 43.594
1418.589, 138.091
1419.779, 88.833
1420.969, 3.601
1422.159, 47.567
1423.348, 101.246
1424.537, 43.815
1425.726, 73.528
1426.915, 77.706
1428.104, 79.843
1429.293, 80.253
1430.481, 41.631
1431.669, 63.578
1432.857, 90.407
1434.045, 85.787
1435.233, 179.293
1436.420, 105.722
1437.608, 144.185
1438.795, 145.030
1439.982, 223.425
1441.169, 277.522
1442.355, 351.849
1443.542, 517.572
1444.728, 579.880
1445.914, 694.265
1447.100, 908.381
1448.286, 899.840
1449.472, 766.676
1450.657, 713.698
1451.842, 495.794
1453.027, 369.859
1454.212, 392.895
1455.397, 265.461
1456.581, 326.322
1457.766, 214.074
1458.950, 232.879
1460.134, 223.734
1461.318, 140.523
1462.501, 222.881
1463.685, 208.671
1464.868, 161.193
1466.051, 240.924
1467.234, 164.694
1468.417, 147.077
1469.600, 221.697
1470.782, 215.537
1471.965, 186.247
1473.147, 149.454
1474.329, 190.214
1475.510, 136.886
1476.692, 140.728
1477.873, 136.605
1479.055, 165.516
1480.236, 143.566
1481.416, 111.443
1482.597, 127.430
1483.778, 133.464
1484.958, 155.491
1486.138, 173.562
1487.318, 220.653
1488.498, 72.747
1489.678, 123.838
1490.857, 114.950
1492.037, 147.081
1493.216, 183.232
1494.395, 72.424
1495.574, 103.656
1496.752, 13.933
1497.931, 175.262
1499.109, 7.679
1500.287, 95.197
1501.465, 27.780
1502.643, 23.428
1503.820, 17.144
1504.998, 81.933
1506.175, 8.803
1507.352, 42.766
1508.529, 75.841
1509.706, 30.044
1510.882, 127.394
1512.059, 13.910
1513.235, 28.605
1514.411, 15.504
1515.587, 84.646
1516.762, 3.922
1517.938, 35.861
1519.113, 46.071
1520.288, 52.814
1521.463, 16.233
1522.638, 53.142
1523.813, 0.000
##END=



