##NAMES=Magnesio-hastingsite
##RRUFFID=R040010
##IDEAL CHEMISTRY=NaCa_2_(Mg_4_Fe^3+^)Si_6_Al_2_O_22_(OH)_2_
##LOCALITY=Amity, New York, USA
##OWNER=RRUFF
##SOURCE=University of Arizona Mineral Museum
##DESCRIPTION=Group of black prismatic crystals
##STATUS=The identification of this mineral has been confirmed by X-ray diffraction and chemical analysis
##URL=rruff.info/R040010
##MEASURED CHEMISTRY=(Na_0.50_K_0.43_[box]_0.07_)_Σ=1_(Ca_1.77_Na_0.23_)_Σ=2_(Mg_1.74_Fe_1.22_Fe^3+^_0.79_Mn_0.57_Al_0.30_Zn_0.25_Ti_0.13_)_Σ=5_(Si_5.95_Al_2.05_)_Σ=8_O_22_((OH)_1.75_F_0.22_Cl_0.03_)_Σ=2_; OH estimated by charge balance
##PIN_ID=L00491
##ORIENTATION=Laser parallel to [1 0 1]. Fiducial mark perpendicular to laser is parallel to b* (0 1 0)
159.6920, 0.0000000E+00
160.9250, 212.7422
162.1560, 15.10547
163.3880, 749.5156
164.6200, 897.8398
165.8510, 474.4297
167.0820, 652.4180
168.3130, 506.6680
169.5440, 852.6055
170.7750, 1062.301
172.0050, 1354.648
173.2350, 1207.621
174.4650, 1561.461
175.6950, 1722.977
176.9250, 1732.332
178.1550, 2323.906
179.3840, 3438.262
180.6130, 2728.094
181.8420, 3327.191
183.0710, 2802.566
184.3000, 3132.906
185.5280, 3350.559
186.7570, 3391.852
187.9850, 2961.289
189.2130, 3039.238
190.4400, 2800.781
191.6680, 2640.992
192.8960, 2433.918
194.1230, 2662.602
195.3500, 2633.078
196.5770, 2519.371
197.8030, 2455.543
199.0300, 2652.652
200.2560, 3125.758
201.4830, 3178.949
202.7090, 2877.301
203.9340, 1956.844
205.1600, 943.5586
206.3860, 678.3867
207.6110, 888.5547
208.8360, 1273.594
210.0610, 1861.824
211.2860, 2473.129
212.5100, 3154.973
213.7350, 3449.098
214.9590, 4006.070
216.1830, 4337.289
217.4070, 4948.723
218.6310, 5241.348
219.8540, 5504.148
221.0780, 6140.098
222.3010, 6081.164
223.5240, 5849.324
224.7470, 6159.562
225.9690, 5845.871
227.1920, 5206.227
228.4140, 5135.637
229.6360, 4596.078
230.8580, 3825.547
232.0800, 3599.070
233.3020, 3154.801
234.5230, 2708.988
235.7440, 2305.406
236.9650, 2024.070
238.1860, 1727.441
239.4070, 1479.156
240.6280, 1396.598
241.8480, 1008.566
243.0680, 615.2930
244.2880, 413.7891
245.5080, 534.7500
246.7280, 100.0938
247.9470, 158.8672
249.1660, 81.86328
250.3860, 5.203125
251.6040, 221.5195
252.8230, 34.86328
254.0420, 66.63281
255.2600, 87.52734
256.4790, 213.2500
257.6970, 98.90234
258.9150, 151.0938
260.1320, 210.2188
261.3500, 37.82031
262.5670, 292.4258
263.7840, 123.9375
265.0010, 19.17188
266.2180, 73.21094
267.4350, 211.5234
268.6510, 88.63281
269.8680, 113.6719
271.0840, 401.6055
272.3000, 179.4219
273.5160, 394.1367
274.7310, 300.7422
275.9470, 463.2461
277.1620, 476.6445
278.3770, 567.9336
279.5920, 788.9922
280.8070, 536.9375
282.0210, 940.6445
283.2360, 777.0938
284.4500, 984.2891
285.6640, 870.2422
286.8780, 1033.043
288.0920, 875.6953
289.3050, 939.2656
290.5180, 1023.746
291.7320, 849.1445
292.9450, 1066.453
294.1570, 1216.676
295.3700, 778.8125
296.5830, 817.8672
297.7950, 895.8359
299.0070, 755.7227
300.2190, 842.4883
301.4310, 808.5664
302.6420, 876.4844
303.8540, 739.3438
305.0650, 729.6953
306.2760, 597.6836
307.4870, 856.9492
308.6980, 696.7500
309.9080, 788.1016
311.1190, 785.6914
312.3290, 765.6289
313.5390, 661.5859
314.7490, 810.8125
315.9580, 613.0703
317.1680, 553.5781
318.3770, 450.6602
319.5860, 857.9023
320.7950, 557.8516
322.0040, 641.0469
323.2130, 751.7734
324.4210, 484.7344
325.6290, 762.8398
326.8380, 647.7461
328.0460, 954.1211
329.2530, 945.4336
330.4610, 980.5508
331.6680, 1357.570
332.8760, 1079.859
334.0830, 978.1406
335.2890, 1292.879
336.4960, 1238.832
337.7030, 1200.211
338.9090, 1288.965
340.1150, 1625.152
341.3210, 1601.961
342.5270, 1911.727
343.7330, 1822.449
344.9380, 2057.125
346.1440, 2261.762
347.3490, 2587.352
348.5540, 2866.895
349.7590, 3210.395
350.9630, 3608.840
352.1680, 3662.062
353.3720, 4100.246
354.5760, 4228.180
355.7800, 4856.836
356.9840, 4828.238
358.1870, 5076.508
359.3910, 5312.613
360.5940, 5542.684
361.7970, 5789.727
363.0000, 5795.734
364.2030, 5882.707
365.4050, 5817.551
366.6080, 5642.539
367.8100, 5534.406
369.0120, 5385.035
370.2140, 4956.012
371.4150, 5027.758
372.6170, 4725.465
373.8180, 4446.133
375.0190, 4341.758
376.2200, 4064.348
377.4210, 3926.887
378.6220, 3496.391
379.8220, 3634.852
381.0230, 3237.266
382.2230, 3070.633
383.4230, 2621.949
384.6220, 2503.965
385.8220, 2242.086
387.0220, 2229.578
388.2210, 1967.672
389.4200, 1828.699
390.6190, 1735.359
391.8180, 1608.855
393.0160, 1500.379
394.2150, 1483.129
395.4130, 1339.512
396.6110, 1277.617
397.8090, 893.7734
399.0060, 1169.238
400.2040, 1047.637
401.4010, 1367.594
402.5980, 1888.426
403.7950, 718.4727
404.9920, 778.1172
406.1890, 932.4297
407.3860, 864.8047
408.5820, 596.7734
409.7780, 963.5742
410.9740, 532.3750
412.1700, 855.0312
413.3650, 698.7031
414.5610, 838.3125
415.7560, 661.8633
416.9510, 1099.352
418.1460, 987.3867
419.3410, 1040.148
420.5360, 1028.465
421.7300, 1378.723
422.9240, 1437.926
424.1180, 1622.078
425.3120, 1397.180
426.5060, 1431.227
427.7000, 1334.227
428.8930, 1388.172
430.0860, 1293.074
431.2790, 1343.926
432.4720, 1222.734
433.6650, 1105.496
434.8580, 679.2109
436.0500, 859.8867
437.2420, 695.2461
438.4340, 826.1016
439.6260, 645.6445
440.8180, 695.1445
442.0090, 611.6055
443.2010, 321.0195
444.3920, 459.3867
445.5830, 246.7070
446.7740, 248.9883
447.9640, 314.2070
449.1550, 166.6289
450.3450, 51.65625
451.5350, 151.8242
452.7250, 226.8164
453.9150, 31.59375
455.1050, 77.86328
456.2940, 33.76953
457.4830, 409.5430
458.6720, 6.343750
459.8610, 4.117188
461.0500, 163.2305
462.2390, 244.7891
463.4270, 303.6016
464.6150, 116.3047
465.8040, 491.8633
466.9910, 257.4141
468.1790, 149.2266
469.3670, 418.2344
470.5540, 299.5820
471.7410, 109.2109
472.9280, 156.0078
474.1150, 125.0117
475.3020, 148.1914
476.4890, 214.5664
477.6750, 145.1641
478.8610, 87.95312
480.0470, 34.10156
481.2330, 217.0664
482.4190, 282.9766
483.6040, 450.8320
484.7900, 496.6562
485.9750, 749.4258
487.1600, 874.1562
488.3450, 1047.840
489.5290, 1101.480
490.7140, 1272.078
491.8980, 1321.629
493.0820, 1566.141
494.2660, 1857.613
495.4500, 1851.043
496.6340, 2028.434
497.8170, 2278.480
499.0010, 2425.090
500.1840, 2687.363
501.3670, 3037.605
502.5500, 3049.812
503.7320, 3460.984
504.9150, 3701.117
506.0970, 3665.219
507.2790, 3998.289
508.4610, 4273.320
509.6430, 4475.328
510.8250, 4582.297
512.0060, 4433.234
513.1870, 4813.141
514.3680, 5223.016
515.5490, 5206.859
516.7300, 5615.672
517.9110, 5905.453
519.0910, 6377.203
520.2710, 6634.922
521.4510, 6952.613
522.6310, 7346.281
523.8110, 7371.914
524.9910, 7518.520
526.1700, 7736.098
527.3490, 7956.656
528.5280, 8100.027
529.7070, 8558.676
530.8860, 8389.148
532.0650, 8425.594
533.2430, 8499.016
534.4210, 8206.414
535.5990, 8518.785
536.7770, 8367.137
537.9550, 8298.465
539.1320, 8110.820
540.3100, 8107.160
541.4870, 7702.480
542.6640, 7473.777
543.8410, 7114.098
545.0170, 7165.426
546.1940, 6776.766
547.3700, 6901.133
548.5470, 6784.488
549.7230, 6493.898
550.8980, 6462.344
552.0740, 6052.809
553.2500, 6187.301
554.4250, 5923.836
555.6000, 5860.410
556.7750, 5723.113
557.9500, 5676.922
559.1250, 5609.879
560.2990, 5442.223
561.4730, 5301.199
562.6480, 5076.527
563.8220, 4840.988
564.9950, 4555.535
566.1690, 4481.203
567.3430, 4199.945
568.5160, 4242.773
569.6890, 3876.621
570.8620, 3705.461
572.0350, 3403.289
573.2070, 3011.113
574.3800, 2974.922
575.5520, 3008.766
576.7240, 2474.605
577.8960, 2270.438
579.0680, 2048.262
580.2400, 1784.746
581.4110, 1684.375
582.5830, 1442.691
583.7540, 1490.492
584.9250, 1322.695
586.0950, 1260.480
587.2660, 1179.965
588.4370, 759.4805
589.6070, 732.6172
590.7770, 686.3125
591.9470, 389.2617
593.1170, 345.9648
594.2860, 659.2383
595.4560, 365.5859
596.6250, 384.7461
597.7940, 152.0625
598.9630, 71.85156
600.1320, 170.8125
601.3000, 182.6953
602.4690, 21.15234
603.6370, 275.5703
604.8050, 300.3789
605.9730, 159.0234
607.1410, 169.2109
608.3090, 419.2148
609.4760, 491.1250
610.6430, 543.3242
611.8100, 252.9961
612.9770, 594.8086
614.1440, 502.8242
615.3110, 423.9375
616.4770, 661.7500
617.6430, 822.5508
618.8090, 526.8711
619.9750, 502.9609
621.1410, 747.6133
622.3070, 932.8711
623.4720, 1037.137
624.6370, 1084.859
625.8020, 1340.066
626.9670, 1593.309
628.1320, 1759.582
629.2970, 1674.891
630.4610, 1896.227
631.6250, 1987.602
632.7890, 2491.008
633.9530, 2605.453
635.1170, 2717.922
636.2810, 2664.438
637.4440, 3024.980
638.6070, 3098.559
639.7700, 3372.176
640.9330, 3584.828
642.0960, 3788.520
643.2590, 4017.246
644.4210, 4135.008
645.5830, 4101.809
646.7450, 4374.645
647.9070, 4526.359
649.0690, 4803.434
650.2310, 5003.383
651.3920, 5391.375
652.5530, 5644.402
653.7140, 5601.473
654.8750, 5572.578
656.0360, 6119.727
657.1970, 6531.910
658.3570, 6558.309
659.5170, 6709.824
660.6770, 6667.715
661.8370, 6660.062
662.9970, 6500.449
664.1570, 6657.879
665.3160, 6510.352
666.4750, 6153.867
667.6340, 5898.422
668.7930, 5923.023
669.9520, 6097.668
671.1110, 5799.352
672.2690, 6000.082
673.4270, 5739.852
674.5850, 5819.668
675.7430, 5930.527
676.9010, 5946.508
678.0590, 6223.375
679.2160, 6177.367
680.3730, 6308.402
681.5300, 6349.477
682.6870, 6116.602
683.8440, 5934.773
685.0010, 5728.984
686.1570, 5609.242
687.3130, 5094.547
688.4690, 4662.891
689.6250, 3994.832
690.7810, 3934.090
691.9370, 3674.883
693.0920, 3304.855
694.2470, 3336.656
695.4020, 3139.234
696.5570, 2683.691
697.7120, 2701.520
698.8670, 2803.496
700.0210, 2800.223
701.1750, 2906.688
702.3290, 2979.582
703.4830, 3246.871
704.6370, 3551.992
705.7910, 3618.590
706.9440, 3922.430
708.0970, 4084.734
709.2510, 4207.738
710.4030, 4753.766
711.5560, 4781.820
712.7090, 5638.902
713.8610, 5335.363
715.0140, 5576.113
716.1660, 6124.270
717.3180, 6450.457
718.4690, 6804.664
719.6210, 6578.902
720.7730, 7049.570
721.9240, 7009.867
723.0750, 7432.184
724.2260, 7096.531
725.3770, 7713.902
726.5270, 7598.309
727.6780, 7975.754
728.8280, 7923.227
729.9780, 7898.809
731.1280, 8338.477
732.2780, 7927.246
733.4280, 7893.059
734.5770, 7717.941
735.7260, 8187.875
736.8760, 7780.887
738.0250, 7738.066
739.1730, 7783.320
740.3220, 7291.641
741.4700, 7088.070
742.6190, 6998.629
743.7670, 6675.332
744.9150, 6315.086
746.0630, 6151.031
747.2100, 5522.113
748.3580, 4936.297
749.5050, 4726.656
750.6520, 4418.160
751.7990, 4223.754
752.9460, 3938.461
754.0930, 3445.254
755.2390, 3335.156
756.3860, 2895.176
757.5320, 2736.301
758.6780, 2566.504
759.8240, 2102.766
760.9690, 2473.059
762.1150, 1930.387
763.2600, 2241.746
764.4060, 1991.129
765.5510, 1899.547
766.6950, 1948.996
767.8400, 1900.477
768.9850, 1962.980
770.1290, 1755.520
771.2730, 1648.090
772.4170, 1769.684
773.5610, 1618.316
774.7050, 1884.977
775.8480, 1731.664
776.9920, 1734.387
778.1350, 1601.137
779.2780, 1528.922
780.4210, 1540.730
781.5640, 1772.570
782.7060, 1440.441
783.8490, 1783.340
784.9910, 1430.273
786.1330, 1545.234
787.2750, 1529.223
788.4170, 1552.246
789.5580, 1571.293
790.7000, 1509.371
791.8410, 1540.059
792.9820, 1470.926
794.1230, 1489.785
795.2640, 1334.980
796.4040, 1185.203
797.5450, 1087.457
798.6850, 1126.734
799.8250, 982.0430
800.9650, 1239.383
802.1050, 1211.746
803.2450, 1205.145
804.3840, 856.5625
805.5230, 1181.016
806.6630, 916.9844
807.8020, 954.0000
808.9400, 712.5391
810.0790, 774.0977
811.2170, 755.6875
812.3560, 530.3008
813.4940, 566.9414
814.6320, 395.6133
815.7700, 267.3047
816.9070, 347.5703
818.0450, 558.7773
819.1820, 386.5508
820.3190, 378.3555
821.4560, 224.1797
822.5930, 389.0352
823.7300, 63.90625
824.8670, 260.8125
826.0030, 74.25781
827.1390, 115.3516
828.2750, 141.6523
829.4110, 7.683594
830.5470, 190.8750
831.6820, 544.1445
832.8180, 460.6797
833.9530, 608.4375
835.0880, 593.4961
836.2230, 460.8438
837.3580, 487.4141
838.4920, 509.2227
839.6270, 387.2773
840.7610, 479.5234
841.8950, 327.3359
843.0290, 362.6250
844.1630, 97.42578
845.2960, 54.21094
846.4300, 129.8086
847.5630, 427.1133
848.6960, 166.3438
849.8290, 135.4062
850.9620, 15.78906
852.0940, 83.99609
853.2270, 135.2227
854.3590, 105.4766
855.4910, 88.75391
856.6230, 20.05469
857.7550, 404.3672
858.8870, 447.7031
860.0180, 456.0625
861.1500, 448.4453
862.2810, 548.8555
863.4120, 558.2852
864.5430, 452.7383
865.6730, 718.2227
866.8040, 847.7227
867.9340, 773.4219
869.0640, 818.7969
870.1940, 719.3672
871.3240, 855.9609
872.4540, 916.5820
873.5830, 1024.219
874.7130, 862.9688
875.8420, 1031.746
876.9710, 1139.539
878.1000, 1292.367
879.2290, 1126.215
880.3570, 1321.082
881.4860, 1249.973
882.6140, 1417.891
883.7420, 1247.828
884.8700, 1287.832
885.9980, 1141.887
887.1250, 1338.965
888.2530, 1159.133
889.3800, 1037.398
890.5070, 1356.691
891.6340, 1256.027
892.7610, 1351.422
893.8880, 1266.906
895.0140, 1522.402
896.1400, 1290.914
897.2670, 1372.500
898.3930, 1902.102
899.5180, 1960.715
900.6440, 1419.402
901.7700, 1266.098
902.8950, 1583.812
904.0200, 1462.547
905.1450, 1572.301
906.2700, 1551.109
907.3950, 1386.996
908.5190, 1527.898
909.6440, 1480.816
910.7680, 1539.816
911.8920, 1482.828
913.0160, 1506.875
914.1400, 1696.941
915.2630, 1724.027
916.3870, 1780.125
917.5100, 1651.238
918.6330, 1757.363
919.7560, 1692.500
920.8790, 1617.652
922.0010, 1640.820
923.1240, 1563.027
924.2460, 1795.250
925.3680, 1652.484
926.4900, 1655.738
927.6120, 1883.004
928.7340, 1548.301
929.8550, 1500.633
930.9760, 1788.980
932.0980, 1839.355
933.2190, 1683.738
934.3390, 1774.145
935.4600, 1638.574
936.5810, 1524.020
937.7010, 2005.473
938.8210, 1753.945
939.9410, 1848.422
941.0610, 1951.914
942.1810, 1970.422
943.3010, 1926.938
944.4200, 2134.465
945.5390, 2279.004
946.6580, 1964.559
947.7770, 2080.125
948.8960, 2157.699
950.0150, 2115.293
951.1330, 1991.887
952.2510, 2227.500
953.3690, 2177.125
954.4870, 2107.754
955.6050, 2244.398
956.7230, 2251.051
957.8400, 2267.293
958.9580, 2384.398
960.0750, 2291.086
961.1920, 2311.230
962.3090, 2275.117
963.4250, 2531.523
964.5420, 2514.801
965.6580, 2580.312
966.7740, 2161.098
967.8900, 2368.062
969.0060, 2568.703
970.1220, 2551.250
971.2380, 2834.102
972.3530, 2585.270
973.4680, 2560.066
974.5830, 2762.523
975.6980, 2740.203
976.8130, 2824.461
977.9280, 2793.539
979.0420, 3024.195
980.1560, 2854.215
981.2710, 3252.266
982.3850, 3162.340
983.4980, 3380.449
984.6120, 3160.234
985.7260, 3209.781
986.8390, 3540.973
987.9520, 3312.199
989.0650, 3372.453
990.1780, 3619.738
991.2910, 3459.645
992.4030, 3917.984
993.5160, 3973.348
994.6280, 3812.746
995.7400, 3980.168
996.8520, 3885.621
997.9640, 3947.176
999.0750, 4399.617
1000.187, 4123.152
1001.298, 4244.727
1002.409, 4455.328
1003.520, 4313.957
1004.631, 4502.617
1005.741, 4202.305
1006.852, 4286.023
1007.962, 4461.035
1009.072, 4450.812
1010.182, 4644.617
1011.292, 4208.141
1012.402, 4471.996
1013.511, 4389.875
1014.621, 4531.781
1015.730, 4598.141
1016.839, 4435.094
1017.948, 4189.652
1019.056, 4391.645
1020.165, 4316.672
1021.273, 4317.988
1022.382, 4429.496
1023.490, 4301.133
1024.598, 4464.898
1025.706, 4359.965
1026.813, 4273.996
1027.921, 4286.387
1029.028, 4078.207
1030.135, 4047.785
1031.242, 3980.816
1032.349, 3900.723
1033.456, 3895.801
1034.562, 3856.434
1035.668, 3864.816
1036.775, 3886.859
1037.881, 3744.273
1038.987, 3709.441
1040.092, 3757.461
1041.198, 3643.438
1042.303, 3812.969
1043.408, 3722.805
1044.514, 3690.375
1045.618, 3711.859
1046.723, 3672.203
1047.828, 3803.332
1048.932, 3433.992
1050.037, 3716.660
1051.141, 3165.797
1052.245, 3427.484
1053.349, 3370.254
1054.452, 3054.398
1055.556, 3213.398
1056.659, 3283.453
1057.762, 3272.566
1058.865, 2940.168
1059.968, 3022.918
1061.071, 2942.633
1062.174, 2856.543
1063.276, 2997.812
1064.378, 2714.848
1065.480, 2852.168
1066.582, 2822.035
1067.684, 2870.844
1068.786, 2783.562
1069.887, 2837.375
1070.988, 2848.199
1072.090, 2699.023
1073.191, 2778.926
1074.291, 2664.898
1075.392, 2758.738
1076.493, 2630.586
1077.593, 2589.836
1078.693, 2832.691
1079.793, 2598.945
1080.893, 2532.195
1081.993, 2420.082
1083.092, 2215.949
1084.192, 2267.207
1085.291, 2257.078
1086.390, 2224.953
1087.489, 1941.281
1088.588, 2314.160
1089.686, 1740.043
1090.785, 1689.926
1091.883, 1939.809
1092.981, 1985.691
1094.079, 2063.605
1095.177, 1742.547
1096.275, 1276.539
1097.373, 1618.539
1098.470, 1323.590
1099.567, 1244.543
1100.664, 1405.320
1101.761, 1481.203
1102.858, 1476.754
1103.954, 1150.906
1105.051, 1240.371
1106.147, 1163.605
1107.243, 1080.160
1108.339, 1228.457
1109.435, 949.9570
1110.531, 1094.766
1111.626, 1070.695
1112.722, 1123.910
1113.817, 1009.723
1114.912, 947.2422
1116.007, 1052.234
1117.101, 1064.566
1118.196, 931.1328
1119.290, 989.4531
1120.385, 705.2656
1121.479, 721.5273
1122.573, 867.4141
1123.666, 742.4414
1124.760, 803.6914
1125.853, 794.0273
1126.947, 461.9375
1128.040, 690.5430
1129.133, 676.8438
1130.226, 414.1445
1131.318, 623.5469
1132.411, 395.9336
1133.503, 323.7188
1134.596, 369.8828
1135.688, 356.8594
1136.780, 346.5000
1137.871, 374.8828
1138.963, 353.2812
1140.054, 36.05859
1141.146, 76.31250
1142.237, 36.51172
1143.328, 545.6367
1144.419, 255.3711
1145.509, 461.0000
1146.600, 41.89062
1147.690, 151.1758
1148.780, 152.7695
1149.870, 141.8047
1150.960, 183.3594
1152.050, 286.7461
1153.139, 271.9883
1154.229, 17.39453
1155.318, 113.3398
1156.407, 116.4414
1157.496, 255.4961
1158.585, 61.97656
1159.674, 12.60938
1160.762, 174.9023
1161.850, 86.41016
1162.939, 82.99219
1164.027, 163.9492
1165.114, 56.37891
1166.202, 329.4844
1167.290, 1.582031
1168.377, 388.4883
1169.464, 140.9688
1170.551, 183.4492
1171.638, 36.44922
1172.725, 184.9375
1173.812, 204.8047
1174.898, 175.0898
1175.984, 37.37109
1177.071, 58.26953
1178.157, 81.80078
1179.242, 193.4883
1180.328, 237.4492
1181.414, 92.80859
1182.499, 338.9414
1183.584, 178.0352
1184.669, 177.1016
1185.754, 21.83594
1186.839, 73.15234
1187.924, 131.1055
1189.008, 124.0352
1190.092, 147.9219
1191.177, 0.2109380
1192.260, 15.41016
1193.344, 150.2891
1194.428, 13.53906
1195.512, 475.0312
1196.595, 53.64062
1197.678, 13.75000
1198.761, 294.2617
1199.844, 250.7422
1200.927, 329.1914
1202.009, 309.0078
1203.092, 228.5195
1204.174, 214.8867
1205.256, 288.2227
1206.338, 395.5273
1207.420, 159.8008
1208.502, 515.0391
1209.583, 226.2500
1210.665, 164.4258
1211.746, 205.5703
1212.827, 482.7422
1213.908, 177.8164
1214.988, 493.8633
1216.069, 390.8789
1217.149, 171.8633
1218.230, 300.8047
1219.310, 308.1680
1220.390, 306.0469
1221.470, 363.8984
1222.549, 512.7148
1223.629, 373.8398
1224.708, 531.5898
1225.787, 446.3555
1226.866, 406.9180
1227.945, 321.9648
1229.024, 318.1914
1230.103, 373.5117
1231.181, 615.3203
1232.259, 533.8320
1233.337, 551.3047
1234.415, 592.7383
1235.493, 439.1406
1236.571, 309.4961
1237.648, 413.8086
1238.726, 417.0859
1239.803, 602.1641
1240.880, 572.5195
1241.957, 610.8164
1243.034, 519.3828
1244.110, 588.4414
1245.187, 456.4570
1246.263, 383.3359
1247.339, 373.2656
1248.415, 318.1523
1249.491, 451.5977
1250.566, 428.3906
1251.642, 482.5508
1252.717, 441.9219
1253.793, 412.8672
1254.868, 579.9688
1255.943, 376.5430
1257.017, 458.1289
1258.092, 315.9180
1259.166, 324.6016
1260.241, 401.3398
1261.315, 193.0586
1262.389, 532.9844
1263.462, 213.2266
1264.536, 180.8359
1265.610, 312.9727
1266.683, 552.0586
1267.756, 275.6953
1268.829, 102.8242
1269.902, 347.9375
1270.975, 438.8047
1272.048, 412.0742
1273.120, 408.8633
1274.192, 341.6055
1275.264, 398.7344
1276.336, 426.1094
1277.408, 381.9180
1278.480, 416.2070
1279.551, 289.2930
1280.623, 352.9062
1281.694, 364.7773
1282.765, 499.1211
1283.836, 223.0859
1284.907, 234.3516
1285.977, 24.87109
1287.048, 106.9297
1288.118, 96.20312
1289.188, 105.8125
1290.258, 244.4336
1291.328, 178.6797
1292.398, 120.3750
1293.467, 196.0898
1294.537, 244.5508
1295.606, 244.3555
1296.675, 279.5938
1297.744, 147.1836
1298.813, 126.0859
1299.882, 68.46094
1300.950, 136.7031
1302.018, 132.9062
1303.086, 50.88281
1304.155, 225.1602
1305.222, 116.5781
1306.290, 199.7539
1307.358, 155.4844
1308.425, 340.4492
1309.492, 671.3750
1310.559, 270.0039
1311.626, 347.8633
1312.693, 479.7461
1313.760, 384.3359
1314.826, 325.3750
1315.893, 352.2891
1316.959, 325.6445
1318.025, 341.9180
1319.091, 383.2422
1320.157, 429.1641
