##NAMES=Marialite
##RRUFFID=R040043
##IDEAL CHEMISTRY=Na_4_Al_3_Si_9_O_24_Cl
##LOCALITY=Gouverneur, New York, USA
##OWNER=RRUFF
##SOURCE=University of Arizona Mineral Museum
##DESCRIPTION=White prismatic crystals
##STATUS=The identification of this mineral has been confirmed by X-ray diffraction and chemical analysis
##URL=rruff.info/R040043
##MEASURED CHEMISTRY=(Na_.493_Ca_.446_K_.061_)_4_(Si_.634_Al_.366_)_12_O_24_((CO_3_)_.581_Cl_.419_)
##PIN_ID=S00036
##ORIENTATION=Laser parallel to c* (0 0 1). Fiducial mark perpendicular to laser is parallel to -a [-1 0 0]
97.554, 0.000
98.947, 81.254
100.340, 664.793
101.732, 1595.143
103.124, 2926.476
104.516, 4544.330
105.908, 6207.981
107.300, 7498.133
108.691, 7789.037
110.082, 8188.080
111.473, 7308.201
112.864, 5864.689
114.254, 4564.229
115.644, 2965.621
117.034, 1731.930
118.424, 891.482
119.813, 555.852
121.203, 142.121
122.592, 45.662
123.981, 367.648
125.369, 293.682
126.758, 510.361
128.146, 675.808
129.534, 894.922
130.922, 853.840
132.309, 804.801
133.696, 617.204
135.083, 902.617
136.470, 651.633
137.857, 1087.902
139.243, 1324.129
140.630, 1732.641
142.016, 2202.562
143.401, 2978.063
144.787, 4004.551
146.172, 4937.594
147.557, 6206.623
148.942, 7541.454
150.327, 9378.780
151.711, 11140.700
153.096, 13432.642
154.480, 15371.765
155.863, 17547.643
157.247, 19225.301
158.630, 20752.529
160.013, 21941.809
161.396, 22581.586
162.779, 22828.402
164.161, 22494.166
165.544, 21521.980
166.926, 19394.043
168.308, 17556.510
169.689, 15154.384
171.070, 13379.053
172.452, 11298.369
173.833, 9699.287
175.213, 8382.180
176.594, 7222.943
177.974, 6831.402
179.354, 6342.511
180.734, 6064.326
182.114, 5992.068
183.493, 6304.977
184.872, 6349.199
186.251, 6709.930
187.630, 6836.824
189.008, 7142.031
190.387, 7526.418
191.765, 7571.884
193.143, 7732.201
194.520, 7405.717
195.898, 7332.065
197.275, 6844.659
198.652, 6926.127
200.029, 6656.555
201.405, 6702.588
202.782, 6737.309
204.158, 7226.589
205.534, 7773.479
206.909, 7367.893
208.285, 7459.449
209.660, 7236.506
211.035, 6427.177
212.410, 6033.641
213.784, 5472.977
215.159, 5087.469
216.533, 4996.795
217.907, 4896.393
219.281, 4914.076
220.654, 4692.791
222.027, 4921.340
223.400, 4912.824
224.773, 4786.794
226.146, 4675.861
227.518, 4371.778
228.891, 4021.569
230.263, 3754.226
231.634, 3329.738
233.006, 2688.092
234.377, 2325.710
235.748, 2057.077
237.119, 1533.993
238.490, 1384.604
239.860, 968.002
241.231, 883.212
242.601, 702.133
243.970, 512.804
245.340, 495.101
246.709, 488.903
248.079, 608.818
249.448, 724.914
250.816, 1080.303
252.185, 1372.903
253.553, 1913.927
254.921, 2692.438
256.289, 3361.547
257.657, 4478.000
259.024, 5554.196
260.391, 6537.143
261.758, 7561.831
263.125, 8035.926
264.492, 7797.680
265.858, 6848.342
267.224, 5808.073
268.590, 4299.371
269.956, 3418.893
271.321, 2239.393
272.687, 1480.684
274.052, 835.618
275.416, 562.077
276.781, 184.956
278.146, 81.847
279.510, 59.473
280.874, 114.974
282.237, 8.422
283.601, 80.164
284.964, 346.765
286.327, 640.384
287.690, 595.998
289.053, 609.584
290.416, 766.108
291.778, 679.542
293.140, 917.857
294.502, 1193.034
295.863, 1772.060
297.225, 2055.920
298.586, 2020.603
299.947, 1432.098
301.308, 645.397
302.668, 113.480
304.029, 148.729
305.389, 447.301
306.749, 607.324
308.108, 659.854
309.468, 812.927
310.827, 829.586
312.186, 806.838
313.545, 767.679
314.903, 752.108
316.262, 732.179
317.620, 662.921
318.978, 480.352
320.336, 431.412
321.693, 265.099
323.051, 59.373
324.408, 15.825
325.765, 305.519
327.121, 516.774
328.478, 729.630
329.834, 1082.110
331.190, 1304.237
332.546, 1395.021
333.902, 1571.441
335.257, 1642.590
336.612, 1666.375
337.967, 1542.842
339.322, 1439.990
340.677, 1257.823
342.031, 1018.341
343.385, 885.211
344.739, 851.936
346.093, 749.212
347.446, 810.422
348.799, 973.496
350.153, 1114.288
351.505, 1380.479
352.858, 1762.134
354.210, 2241.666
355.563, 2798.973
356.915, 3431.324
358.267, 4176.383
359.618, 4644.156
360.969, 5055.664
362.321, 4757.911
363.672, 4185.872
365.022, 3411.207
366.373, 2746.496
367.723, 2141.579
369.073, 1781.402
370.423, 1579.023
371.773, 1484.504
373.122, 1522.039
374.471, 1775.859
375.821, 1704.198
377.169, 2003.269
378.518, 1833.132
379.866, 1861.805
381.215, 1867.288
382.563, 1808.581
383.910, 1743.652
385.258, 1722.468
386.605, 1671.904
387.952, 1568.321
389.299, 1571.427
390.646, 1463.346
391.992, 1340.077
393.339, 1259.617
394.685, 1187.962
396.031, 1138.546
397.376, 1078.055
398.722, 1110.776
400.067, 1045.281
401.412, 1088.574
402.757, 1229.659
404.101, 1208.560
405.446, 1140.944
406.790, 1316.844
408.134, 1477.083
409.478, 1574.175
410.821, 1775.155
412.165, 1985.323
413.508, 2331.588
414.851, 2668.964
416.193, 2903.291
417.536, 3366.573
418.878, 3538.729
420.220, 3702.358
421.562, 3734.244
422.904, 3807.873
424.245, 3725.040
425.586, 3587.266
426.927, 3724.387
428.268, 3802.194
429.609, 4092.850
430.949, 4276.371
432.289, 4560.486
433.629, 4749.677
434.969, 5292.685
436.309, 5707.261
437.648, 6606.095
438.987, 7348.883
440.326, 8131.279
441.665, 9166.800
443.003, 10339.163
444.342, 11931.427
445.680, 13999.639
447.018, 17030.045
448.355, 20718.467
449.693, 25766.410
451.030, 31999.869
452.367, 38307.637
453.704, 42366.703
455.041, 46373.758
456.377, 48325.590
457.713, 49412.457
459.049, 50029.461
460.385, 49015.227
461.721, 47278.895
463.056, 44551.480
464.391, 40724.359
465.726, 36195.316
467.061, 30708.928
468.395, 26091.168
469.730, 22018.932
471.064, 18184.943
472.398, 15345.689
473.731, 12583.926
475.065, 10691.853
476.398, 9020.881
477.731, 7612.181
479.064, 6371.995
480.397, 5507.671
481.729, 4734.479
483.062, 4066.188
484.394, 3628.960
485.725, 3205.814
487.057, 2809.272
488.389, 2505.053
489.720, 2178.710
491.051, 2002.434
492.382, 1905.066
493.712, 1747.774
495.043, 1536.459
496.373, 1450.210
497.703, 1260.829
499.032, 1297.810
500.362, 1103.024
501.691, 1094.254
503.020, 878.574
504.349, 829.191
505.678, 852.084
507.007, 780.995
508.335, 728.599
509.663, 715.142
510.991, 765.839
512.319, 740.838
513.646, 859.265
514.973, 810.563
516.300, 1066.648
517.627, 1068.407
518.954, 1122.023
520.280, 1343.501
521.607, 1537.852
522.933, 1865.085
524.259, 2284.246
525.584, 2703.273
526.910, 3684.145
528.235, 4819.116
529.560, 6430.881
530.885, 8404.150
532.209, 10751.422
533.534, 13442.852
534.858, 16030.330
536.182, 17334.229
537.506, 17613.846
538.829, 16247.878
540.152, 14083.771
541.476, 11729.879
542.799, 9537.331
544.121, 7865.386
545.444, 6298.172
546.766, 4883.889
548.088, 4086.811
549.410, 3331.641
550.732, 2780.912
552.053, 2176.348
553.375, 1798.002
554.696, 1525.949
556.017, 1335.380
557.337, 1107.965
558.658, 918.854
559.978, 765.818
561.298, 789.226
562.618, 452.916
563.938, 518.326
565.257, 545.071
566.576, 376.192
567.895, 333.251
569.214, 376.622
570.533, 269.738
571.851, 185.636
573.170, 341.161
574.488, 296.600
575.805, 255.949
577.123, 237.210
578.440, 193.384
579.758, 334.468
581.075, 226.485
582.391, 291.425
583.708, 232.281
585.024, 206.053
586.341, 226.768
587.657, 206.815
588.972, 180.089
590.288, 217.446
591.603, 137.847
592.918, 119.166
594.233, 146.406
595.548, 203.570
596.863, 178.665
598.177, 283.714
599.491, 162.785
600.805, 134.873
602.119, 132.993
603.432, 236.122
604.746, 473.244
606.059, 393.327
607.372, 373.362
608.685, 638.350
609.997, 417.296
611.309, 516.196
612.621, 312.055
613.933, 314.864
615.245, 247.623
616.557, 146.341
617.868, 155.004
619.179, 98.612
620.490, 2.830
621.801, 203.683
623.111, 45.229
624.421, 244.879
625.731, 139.729
627.041, 238.823
628.351, 97.166
629.660, 3.202
630.970, 30.719
632.279, 93.054
633.588, 29.567
634.896, 104.807
636.205, 76.800
637.513, 161.552
638.821, 69.143
640.129, 37.456
641.437, 102.222
642.744, 119.272
644.051, 148.250
645.358, 122.119
646.665, 114.162
647.972, 143.202
649.278, 87.227
650.584, 99.228
651.890, 256.209
653.196, 258.170
654.502, 233.111
655.807, 185.034
657.113, 389.940
658.418, 421.832
659.722, 342.715
661.027, 315.928
662.331, 336.974
663.636, 471.288
664.940, 276.238
666.244, 484.236
667.547, 153.461
668.851, 293.471
670.154, 171.629
671.457, 116.826
672.760, 130.272
674.062, 215.591
675.365, 291.814
676.667, 313.800
677.969, 375.809
679.271, 274.389
680.572, 171.044
681.874, 167.288
683.175, 194.634
684.476, 120.628
685.777, 94.089
687.077, 3.884
688.378, 82.066
689.678, 49.334
690.978, 20.121
692.278, 104.761
693.577, 159.949
694.877, 22.940
696.176, 139.897
697.475, 29.382
698.774, 137.333
700.072, 138.114
701.371, 178.821
702.669, 89.530
703.967, 152.242
705.265, 311.960
706.562, 250.686
707.860, 187.419
709.157, 477.166
710.454, 310.930
711.751, 465.713
713.047, 304.518
714.344, 433.388
715.640, 288.243
716.936, 291.126
718.232, 395.036
719.527, 376.043
720.823, 327.287
722.118, 356.877
723.413, 302.231
724.708, 258.070
726.002, 377.974
727.297, 401.531
728.591, 465.914
729.885, 556.857
731.179, 434.615
732.472, 394.342
733.766, 407.854
735.059, 355.222
736.352, 502.981
737.645, 353.987
738.937, 448.885
740.230, 375.575
741.522, 384.103
742.814, 377.422
744.106, 450.362
745.397, 428.998
746.689, 573.832
747.980, 652.374
749.271, 835.882
750.562, 966.545
751.853, 975.491
753.143, 1128.376
754.433, 1470.744
755.723, 1501.649
757.013, 1820.480
758.303, 2028.346
759.592, 2505.686
760.881, 2941.914
762.170, 3537.995
763.459, 4069.033
764.748, 4602.731
766.036, 5439.999
767.325, 5930.277
768.613, 6795.230
769.901, 7497.238
771.188, 7997.537
772.476, 8614.924
773.763, 8626.396
775.050, 8640.806
776.337, 8351.605
777.624, 7645.426
778.910, 6473.516
780.196, 5461.371
781.482, 4120.439
782.768, 2971.555
784.054, 2221.113
785.339, 1740.193
786.625, 1213.570
787.910, 966.429
789.195, 659.096
790.479, 589.106
791.764, 581.332
793.048, 386.548
794.332, 410.115
795.616, 429.644
796.900, 407.456
798.183, 302.355
799.467, 470.388
800.750, 605.325
802.033, 678.239
803.316, 1034.290
804.598, 855.117
805.880, 1284.008
807.163, 1377.420
808.445, 1245.830
809.726, 1162.238
811.008, 880.537
812.289, 561.939
813.570, 387.342
814.851, 257.740
816.132, 163.140
817.413, 26.540
818.693, 89.940
819.973, 96.657
821.253, 24.298
822.533, 127.914
823.813, 18.736
825.092, 29.434
826.371, 17.370
827.650, 61.252
828.929, 3.024
830.208, 14.706
831.486, 73.449
832.764, 102.231
834.042, 155.066
835.320, 1.989
836.598, 41.965
837.875, 34.910
839.152, 81.100
840.429, 7.553
841.706, 15.707
842.983, 1.186
844.259, 123.808
845.536, 36.821
846.812, 31.301
848.088, 76.380
849.363, 21.280
850.639, 83.084
851.914, 51.423
853.189, 29.385
854.464, 131.207
855.739, 110.099
857.013, 83.739
858.288, 84.632
859.562, 184.526
860.836, 173.443
862.110, 172.360
863.383, 234.282
864.656, 48.202
865.930, 135.124
867.203, 37.045
868.475, 118.986
869.748, 83.755
871.020, 91.865
872.292, 23.804
873.564, 67.744
874.836, 10.687
876.108, 20.374
877.379, 9.555
878.650, 36.483
879.922, 22.417
881.192, 12.646
882.463, 20.283
883.733, 29.216
885.004, 12.149
886.274, 71.086
887.544, 68.025
888.813, 59.031
890.083, 15.118
891.352, 61.784
892.621, 121.689
893.890, 96.402
895.159, 17.543
896.427, 11.305
897.695, 185.152
898.964, 113.002
900.232, 194.855
901.499, 99.713
902.767, 246.573
904.034, 126.438
905.301, 232.304
906.568, 209.172
907.835, 223.041
909.102, 162.911
910.368, 68.783
911.634, 223.658
912.900, 164.532
914.166, 186.404
915.432, 109.272
916.697, 7.138
917.962, 117.994
919.227, 107.848
920.492, 67.696
921.757, 126.503
923.021, 32.614
924.285, 122.206
925.550, 103.023
926.813, 19.845
928.077, 70.665
929.341, 46.491
930.604, 1.687
931.867, 36.846
933.130, 48.032
934.393, 136.751
935.655, 59.552
936.918, 114.355
938.180, 40.839
939.442, 11.021
940.703, 141.798
941.965, 152.625
943.226, 106.468
944.488, 115.320
945.749, 204.203
947.009, 263.098
948.270, 243.993
949.530, 325.889
950.791, 289.781
952.051, 254.672
953.311, 398.576
954.570, 551.479
955.830, 689.388
957.089, 580.299
958.348, 607.210
959.607, 593.127
960.866, 528.041
962.124, 527.982
963.383, 700.919
964.641, 576.858
965.899, 631.815
967.156, 575.769
968.414, 601.734
969.671, 728.568
970.928, 552.528
972.185, 745.273
973.442, 759.771
974.699, 916.722
975.955, 995.460
977.211, 901.668
978.468, 1202.436
979.723, 1357.975
980.979, 1280.594
982.234, 1661.435
983.490, 1407.239
984.745, 1534.456
986.000, 1575.585
987.254, 1403.110
988.509, 1459.522
989.763, 1258.275
991.017, 1270.549
992.271, 1198.252
993.525, 1113.033
994.779, 1057.497
996.032, 1114.480
997.285, 1053.127
998.538, 956.192
999.791, 1355.818
1001.044, 1221.066
1002.296, 1451.493
1003.548, 1310.497
1004.800, 1135.922
1006.052, 1158.400
1007.304, 1018.482
1008.555, 1029.987
1009.807, 1190.572
1011.058, 992.089
1012.309, 1319.491
1013.559, 1199.428
1014.810, 1166.438
1016.060, 1387.103
1017.310, 1372.112
1018.560, 1429.283
1019.810, 1474.228
1021.060, 1484.749
1022.309, 1424.746
1023.558, 1441.700
1024.807, 1436.977
1026.056, 1495.791
1027.305, 1378.182
1028.553, 1558.951
1029.801, 1544.498
1031.049, 1358.364
1032.297, 1406.088
1033.545, 1707.007
1034.793, 1602.884
1036.040, 1523.656
1037.287, 1758.599
1038.534, 1667.537
1039.781, 1989.706
1041.027, 1792.213
1042.274, 1906.137
1043.520, 2119.055
1044.766, 1996.065
1046.012, 2045.408
1047.257, 1988.083
1048.503, 2200.987
1049.748, 2140.885
1050.993, 2502.776
1052.238, 2505.663
1053.483, 2630.543
1054.727, 2785.415
1055.971, 2978.281
1057.216, 3016.138
1058.459, 3228.988
1059.703, 3295.829
1060.947, 3536.662
1062.190, 3648.486
1063.433, 3880.303
1064.676, 4075.117
1065.919, 4166.922
1067.162, 4674.279
1068.404, 4571.062
1069.646, 4779.836
1070.888, 5193.602
1072.130, 5247.354
1073.372, 5298.569
1074.613, 5392.316
1075.855, 5392.399
1077.096, 5211.586
1078.337, 5436.725
1079.578, 4989.693
1080.818, 5040.137
1082.059, 4842.586
1083.299, 5007.257
1084.539, 5096.893
1085.779, 5370.275
1087.018, 5686.017
1088.258, 6061.822
1089.497, 6706.789
1090.736, 7450.920
1091.975, 8388.736
1093.213, 9334.387
1094.452, 10414.255
1095.690, 11234.471
1096.928, 12122.607
1098.166, 12638.622
1099.404, 12795.426
1100.642, 12344.427
1101.879, 11752.807
1103.116, 10495.357
1104.353, 9659.635
1105.590, 8753.962
1106.827, 8897.052
1108.063, 9363.961
1109.299, 10700.127
1110.536, 12110.000
1111.771, 13386.938
1113.007, 14189.832
1114.243, 13487.825
1115.478, 10781.471
1116.713, 7445.849
1117.948, 4582.928
1119.183, 2744.274
1120.418, 2394.621
1121.652, 1951.384
1122.886, 1815.989
1124.120, 1526.282
1125.354, 1325.169
1126.588, 1219.767
1127.821, 1013.065
1129.055, 805.029
1130.288, 686.611
1131.521, 696.084
1132.753, 485.536
1133.986, 513.387
1135.218, 601.797
1136.450, 298.404
1137.682, 588.314
1138.914, 347.123
1140.146, 266.034
1141.377, 282.511
1142.609, 211.260
1143.840, 180.648
1145.071, 235.125
1146.301, 156.094
1147.532, 192.785
1148.762, 83.111
1149.992, 68.450
1151.222, 94.313
1152.452, 56.191
1153.682, 62.999
1154.911, 158.707
1156.140, 58.552
1157.369, 40.063
1158.598, 68.819
1159.827, 85.287
1161.055, 7.328
1162.284, 186.277
1163.512, 27.288
1164.740, 188.263
1165.967, 61.104
1167.195, 236.955
1168.422, 62.359
1169.650, 317.263
1170.877, 175.548
1172.103, 121.604
1173.330, 232.660
1174.557, 241.417
1175.783, 277.362
1177.009, 46.826
1178.235, 279.438
1179.461, 236.137
1180.686, 179.727
1181.912, 290.473
1183.137, 268.365
1184.362, 373.332
1185.587, 336.339
1186.811, 339.916
1188.036, 276.851
1189.260, 431.754
1190.484, 494.254
1191.708, 591.179
1192.932, 579.641
1194.155, 574.158
1195.378, 713.443
1196.602, 736.750
1197.825, 791.161
1199.047, 820.941
1200.270, 837.043
1201.492, 1030.471
1202.715, 820.386
1203.937, 1096.627
1205.159, 780.424
1206.380, 826.317
1207.602, 630.277
1208.823, 546.135
1210.044, 709.670
1211.265, 582.415
1212.486, 447.864
1213.707, 375.253
1214.927, 348.967
1216.147, 285.252
1217.367, 369.488
1218.587, 269.881
1219.807, 240.023
1221.027, 220.134
1222.246, 66.251
1223.465, 150.426
1224.684, 120.641
1225.903, 154.920
1227.121, 58.245
1228.340, 87.512
1229.558, 125.198
1230.776, 47.176
1231.994, 55.370
1233.212, 197.040
1234.429, 114.507
1235.646, 51.819
1236.864, 95.089
1238.081, 166.300
1239.297, 203.402
1240.514, 147.442
1241.730, 64.425
1242.947, 75.344
1244.163, 101.201
1245.378, 147.984
1246.594, 95.694
1247.810, 29.620
1249.025, 195.959
1250.240, 12.537
1251.455, 41.907
1252.670, 63.278
1253.885, 7.406
1255.099, 50.844
1256.313, 86.937
1257.527, 73.181
1258.741, 10.255
1259.955, 57.715
1261.168, 128.684
1262.382, 32.358
1263.595, 49.479
1264.808, 30.118
1266.021, 30.854
1267.233, 92.570
1268.446, 132.226
1269.658, 45.139
1270.870, 126.475
1272.082, 82.069
1273.294, 210.646
1274.505, 72.198
1275.716, 147.724
1276.928, 175.207
1278.139, 184.575
1279.349, 94.880
1280.560, 208.315
1281.770, 146.099
1282.981, 83.637
1284.191, 100.514
1285.401, 78.696
1286.610, 0.556
1287.820, 103.671
1289.029, 127.656
1290.239, 155.466
1291.448, 64.764
1292.656, 106.443
1293.865, 2.321
1295.073, 191.934
1296.282, 4.427
1297.490, 144.979
1298.698, 84.499
1299.906, 95.985
1301.113, 79.434
1302.320, 136.840
1303.528, 229.216
1304.735, 52.561
1305.942, 57.876
1307.148, 274.168
1308.355, 11.440
1309.561, 247.693
1310.767, 98.918
1311.973, 219.117
1313.179, 135.305
1314.384, 252.481
1315.590, 159.630
1316.795, 211.273
1318.000, 208.248
1319.205, 321.340
1320.410, 200.517
1321.614, 90.929
1322.819, 381.012
1324.023, 220.250
1325.227, 244.095
1326.431, 202.352
1327.634, 163.391
1328.838, 129.870
1330.041, 108.834
1331.244, 205.133
1332.447, 111.096
1333.650, 89.680
1334.852, 157.428
1336.055, 4.779
1337.257, 144.791
1338.459, 4.758
1339.661, 156.650
1340.862, 144.350
1342.064, 112.334
1343.265, 42.572
1344.466, 172.152
1345.667, 87.336
1346.868, 213.709
1348.068, 106.910
1349.269, 159.902
1350.469, 126.482
1351.669, 92.830
1352.869, 100.766
1354.069, 253.334
1355.268, 30.230
1356.468, 164.189
1357.667, 299.734
1358.866, 64.086
1360.065, 225.678
1361.263, 173.998
1362.462, 100.537
1363.660, 242.697
1364.858, 219.576
1366.056, 126.600
1367.254, 99.605
1368.451, 74.730
1369.649, 41.834
1370.846, 192.805
1372.043, 153.393
1373.240, 141.133
1374.436, 242.135
1375.633, 217.559
1376.829, 68.137
1378.025, 102.951
1379.221, 118.023
1380.417, 201.762
1381.613, 203.602
1382.808, 162.119
1384.003, 280.359
1385.199, 123.568
1386.393, 223.213
1387.588, 188.381
1388.783, 146.555
1389.977, 173.527
1391.171, 75.320
1392.365, 81.436
1393.559, 123.402
1394.753, 78.412
1395.946, 255.826
1397.140, 182.859
1398.333, 219.021
1399.526, 78.973
1400.719, 161.801
1401.911, 195.201
1403.104, 202.002
1404.296, 15.625
1405.488, 204.234
1406.680, 1.275
1407.872, 0.000
##END=



