##NAMES=Marialite
##RRUFFID=R050123
##IDEAL CHEMISTRY=Na_4_Al_3_Si_9_O_24_Cl
##LOCALITY=Pakistan
##OWNER=RRUFF
##SOURCE=Syed Shah
##DESCRIPTION=Purple fragment
##STATUS=The identification of this mineral has been confirmed by X-ray diffraction and chemical analysis
##URL=rruff.info/R050123
##MEASURED CHEMISTRY=(Na_0.88_Ca_0.07_K_0.05_)_4_Al_3.00_Si_9.00_O_24_Cl_0.97
##PIN_ID=L00549
##ORIENTATION=Laser parallel to -a* (-1 0 0). Fiducial mark perpendicular to laser is parallel to -c [0 0 -1]
49.365, 0.000
50.765, 37.386
52.166, 127.171
53.566, 287.271
54.966, 463.206
56.365, 575.824
57.765, 749.522
59.164, 967.893
60.563, 1098.634
61.962, 1175.262
63.360, 1174.130
64.758, 1234.004
66.157, 1157.440
67.554, 1123.877
68.952, 1032.552
70.349, 826.446
71.747, 582.645
73.144, 424.301
74.540, 272.774
75.937, 193.019
77.333, 105.987
78.729, 3.369
80.125, 29.090
81.521, 42.212
82.916, 54.770
84.311, 46.779
85.706, 82.266
87.101, 83.257
88.496, 22.222
89.890, 168.150
91.284, 360.507
92.678, 644.287
94.071, 867.490
95.465, 1170.099
96.858, 1547.104
98.251, 2035.598
99.644, 2587.245
101.036, 3289.302
102.428, 4022.632
103.820, 4924.222
105.212, 5946.061
106.604, 6482.141
107.995, 7120.454
109.387, 6788.991
110.777, 6887.747
112.168, 6436.713
113.559, 6090.888
114.949, 5651.264
116.339, 5458.845
117.729, 5359.761
119.119, 5209.286
120.508, 5175.172
121.897, 5195.634
123.286, 5304.263
124.675, 5401.058
126.063, 5372.016
127.452, 5750.131
128.840, 5820.406
130.228, 6146.835
131.615, 6543.417
133.003, 6695.206
134.390, 7137.353
135.777, 7439.804
137.164, 7922.504
138.550, 8425.398
139.937, 9158.467
141.323, 9791.716
142.709, 10395.130
144.094, 11138.741
145.480, 11882.574
146.865, 13056.488
148.250, 13790.320
149.635, 15253.929
151.019, 16377.302
152.403, 17460.479
153.788, 19023.648
155.171, 19846.873
156.555, 21340.168
157.939, 21703.547
159.322, 22326.988
160.705, 21780.516
162.088, 21064.115
163.470, 20227.793
164.853, 18341.557
166.235, 17525.391
167.617, 15779.301
168.998, 14983.295
170.380, 13627.370
171.761, 12601.525
173.142, 12075.756
174.523, 11190.069
175.904, 11144.457
177.284, 10468.928
178.664, 10243.475
180.044, 9868.098
181.424, 9452.796
182.803, 9128.305
184.183, 8647.699
185.562, 8354.004
186.940, 7728.951
188.319, 7393.960
189.698, 6919.044
191.076, 6294.205
192.454, 6099.439
193.831, 5610.750
195.209, 5328.136
196.586, 4851.595
197.963, 4699.130
199.340, 4570.739
200.717, 4352.420
202.093, 4282.176
203.470, 4212.005
204.846, 4070.021
206.221, 4011.879
207.597, 3854.923
208.972, 3716.038
210.347, 3580.223
211.722, 3466.902
213.097, 3361.869
214.472, 3283.191
215.846, 3199.129
217.220, 3162.695
218.594, 3116.713
219.967, 3056.107
221.341, 3052.833
222.714, 3022.884
224.087, 2970.191
225.460, 3039.764
226.832, 2983.656
228.204, 2987.841
229.577, 2803.080
230.948, 2796.334
232.320, 2685.101
233.692, 2597.806
235.063, 2558.230
236.434, 2437.858
237.805, 2392.254
239.175, 2294.527
240.545, 2408.967
241.916, 2433.705
243.286, 2474.938
244.655, 2606.526
246.025, 2763.738
247.394, 3143.385
248.763, 3410.784
250.132, 4078.229
251.501, 4585.943
252.869, 5293.101
254.237, 6074.461
255.605, 6707.817
256.973, 7762.574
258.340, 8028.659
259.708, 8454.890
261.075, 7901.205
262.442, 7557.597
263.808, 6834.061
265.175, 5720.592
266.541, 4987.193
267.907, 4176.859
269.273, 3660.590
270.639, 3140.385
272.004, 2845.241
273.369, 2761.160
274.734, 2572.140
276.099, 2703.178
277.463, 2677.274
278.828, 2895.428
280.192, 2989.638
281.556, 3027.904
282.919, 3000.224
284.283, 2920.596
285.646, 2940.020
287.009, 2742.496
288.372, 2584.022
289.734, 2666.599
291.097, 2753.223
292.459, 3016.895
293.821, 3329.616
295.183, 3675.383
296.544, 3776.198
297.905, 3563.056
299.266, 3350.958
300.627, 2571.903
301.988, 2057.890
303.348, 1487.916
304.709, 1037.982
306.069, 761.087
307.428, 512.231
308.788, 380.413
310.147, 190.629
311.507, 154.882
312.865, 21.171
314.224, 33.503
315.583, 15.142
316.941, 121.745
318.299, 46.324
319.657, 15.868
321.015, 51.633
322.372, 7.178
323.729, 121.764
325.086, 177.404
326.443, 192.086
327.800, 307.832
329.156, 284.619
330.512, 381.453
331.868, 503.331
333.224, 481.247
334.579, 540.218
335.935, 515.231
337.290, 565.288
338.645, 596.396
339.999, 604.541
341.354, 614.735
342.708, 726.969
344.062, 746.250
345.416, 802.566
346.769, 920.923
348.123, 1114.312
349.476, 1227.731
350.829, 1691.196
352.182, 1974.704
353.534, 2561.253
354.887, 2963.840
356.239, 3378.463
357.591, 3733.120
358.942, 3716.806
360.294, 3831.521
361.645, 3444.275
362.996, 3232.056
364.347, 3027.866
365.698, 2669.708
367.048, 2508.578
368.398, 2099.477
369.748, 1927.401
371.098, 1626.351
372.448, 1308.328
373.797, 1191.330
375.146, 963.365
376.495, 836.425
377.844, 688.509
379.192, 545.589
380.540, 479.666
381.889, 227.740
383.236, 286.815
384.584, 210.891
385.932, 42.974
387.279, 95.065
388.626, 7.168
389.973, 10.284
391.319, 80.585
392.666, 79.461
394.012, 88.341
395.358, 104.224
396.704, 128.113
398.049, 161.016
399.394, 170.945
400.740, 214.904
402.084, 180.910
403.429, 120.943
404.774, 148.787
406.118, 72.390
407.462, 88.063
408.806, 40.509
410.150, 124.627
411.493, 207.585
412.836, 282.900
414.179, 311.305
415.522, 460.529
416.865, 531.477
418.207, 565.996
419.549, 744.124
420.891, 869.447
422.233, 1018.677
423.575, 1132.556
424.916, 1248.504
426.257, 1504.084
427.598, 1498.747
428.939, 1771.363
430.279, 1720.997
431.619, 2060.657
432.959, 2122.324
434.299, 2273.008
435.639, 2788.708
436.978, 3119.423
438.318, 3670.153
439.657, 4389.899
440.996, 5158.659
442.334, 6001.433
443.673, 6972.221
445.011, 8413.022
446.349, 9813.836
447.687, 12244.661
449.024, 15115.502
450.361, 18766.354
451.699, 23777.215
453.036, 28418.090
454.372, 34309.059
455.709, 37879.957
457.045, 39800.867
458.381, 39211.781
459.717, 34582.699
461.053, 30773.639
462.388, 25154.582
463.724, 20915.537
465.059, 17006.496
466.394, 13787.472
467.728, 11678.448
469.063, 9459.434
470.397, 8070.427
471.731, 6681.429
473.065, 5439.438
474.398, 4808.450
475.732, 3994.881
477.065, 3547.693
478.398, 2986.542
479.731, 2539.655
481.063, 2285.484
482.396, 1905.766
483.728, 1659.678
485.060, 1556.597
486.391, 1382.728
487.723, 1278.862
489.054, 1124.911
490.385, 1149.307
491.716, 991.443
493.047, 892.995
494.377, 875.893
495.708, 731.379
497.038, 731.728
498.368, 766.738
499.697, 675.567
501.027, 747.463
502.356, 679.022
503.685, 708.607
505.014, 606.209
506.342, 584.552
507.671, 500.131
508.999, 410.175
510.327, 414.456
511.655, 255.719
512.982, 315.010
514.310, 270.124
515.637, 299.889
516.964, 383.790
518.291, 320.274
519.617, 525.645
520.944, 527.041
522.270, 648.288
523.596, 819.875
524.921, 1037.239
526.247, 1347.690
527.572, 1703.210
528.897, 2422.561
530.222, 3408.880
531.547, 4640.464
532.871, 6719.648
534.196, 8702.739
535.520, 11434.000
536.844, 12565.472
538.167, 12386.972
539.491, 10808.166
540.814, 8309.401
542.137, 6430.460
543.460, 4703.484
544.783, 3671.686
546.105, 2709.697
547.427, 2103.944
548.749, 1606.861
550.071, 1281.774
551.393, 1019.027
552.714, 840.092
554.035, 600.870
555.356, 549.849
556.677, 359.746
557.998, 412.062
559.318, 255.555
560.638, 176.864
561.958, 160.733
563.278, 55.701
564.597, 20.299
565.917, 23.484
567.236, 23.950
568.555, 31.281
569.874, 106.653
571.192, 2.972
572.511, 94.495
573.829, 74.036
575.147, 3.635
576.464, 124.265
577.782, 15.011
579.099, 39.736
580.416, 21.532
581.733, 31.630
583.050, 27.773
584.366, 129.906
585.683, 101.022
586.999, 139.123
588.315, 246.207
589.630, 118.272
590.946, 166.341
592.261, 144.392
593.576, 167.424
594.891, 173.814
596.206, 151.454
597.520, 204.441
598.834, 173.409
600.148, 237.358
601.462, 222.288
602.776, 179.197
604.089, 298.087
605.402, 203.957
606.715, 206.807
608.028, 475.637
609.341, 221.446
610.653, 257.235
611.965, 124.008
613.277, 250.758
614.589, 242.492
615.901, 167.205
617.212, 238.895
618.523, 242.586
619.834, 356.255
621.145, 388.902
622.456, 429.528
623.766, 473.131
625.076, 459.711
626.386, 476.270
627.696, 450.814
629.006, 287.337
630.315, 349.836
631.624, 222.320
632.933, 190.400
634.242, 158.667
635.551, 98.642
636.859, 87.051
638.167, 13.453
639.475, 25.817
640.783, 38.146
642.090, 21.554
643.398, 32.687
644.705, 56.107
646.012, 37.020
647.318, 4.112
648.625, 9.158
649.931, 65.158
651.237, 34.872
652.543, 26.029
653.849, 7.891
655.155, 21.290
656.460, 50.467
657.765, 17.809
659.070, 25.855
660.375, 12.522
661.679, 65.043
662.984, 8.425
664.288, 43.949
665.592, 14.452
666.895, 7.193
668.199, 6.894
669.502, 9.348
670.805, 13.129
672.108, 21.690
673.411, 50.794
674.713, 82.862
676.016, 108.913
677.318, 7.119
678.620, 136.076
679.921, 66.332
681.223, 33.224
682.524, 83.076
683.825, 70.147
685.126, 103.934
686.427, 110.121
687.727, 65.092
689.028, 139.205
690.328, 12.204
691.628, 116.813
692.927, 70.621
694.227, 68.249
695.526, 126.133
696.825, 115.315
698.124, 154.915
699.423, 161.906
700.721, 116.694
702.020, 159.886
703.318, 109.037
704.616, 182.464
705.913, 184.437
707.211, 156.851
708.508, 219.418
709.805, 185.350
711.102, 222.772
712.399, 184.324
713.695, 152.887
714.992, 299.155
716.288, 144.762
717.584, 305.331
718.879, 213.955
720.175, 198.917
721.470, 186.918
722.765, 172.680
724.060, 274.560
725.355, 234.930
726.649, 189.079
727.944, 378.290
729.238, 209.934
730.532, 339.229
731.825, 281.717
733.119, 299.930
734.412, 357.187
735.705, 293.635
736.998, 417.174
738.291, 399.822
739.584, 386.646
740.876, 555.652
742.168, 493.641
743.460, 585.702
744.752, 561.381
746.043, 561.668
747.334, 722.452
748.626, 703.111
749.916, 764.958
751.207, 867.497
752.498, 872.218
753.788, 1001.700
755.078, 952.154
756.368, 1108.649
757.658, 1153.047
758.947, 1092.572
760.237, 1285.914
761.526, 1236.228
762.815, 1357.759
764.104, 1573.017
765.392, 1440.402
766.680, 1625.698
767.969, 1591.788
769.257, 1709.884
770.544, 1816.076
771.832, 1650.166
773.119, 1984.418
774.406, 1853.453
775.693, 1903.751
776.980, 2113.873
778.267, 2126.878
779.553, 2205.975
780.839, 2194.871
782.125, 2346.020
783.411, 2572.108
784.697, 2377.088
785.982, 2497.834
787.267, 2312.697
788.552, 2120.428
789.837, 1978.354
791.122, 1606.774
792.406, 1439.572
793.690, 1219.721
794.974, 955.103
796.258, 1064.084
797.542, 752.761
798.825, 807.235
800.108, 787.650
801.391, 697.128
802.674, 825.435
803.957, 786.781
805.239, 970.684
806.522, 1045.215
807.804, 1181.135
809.085, 1579.132
810.367, 1748.397
811.649, 2121.044
812.930, 2196.640
814.211, 1854.362
815.492, 1795.031
816.772, 1216.658
818.053, 950.517
819.333, 765.143
820.613, 542.249
821.893, 504.093
823.173, 297.926
824.452, 278.706
825.732, 316.636
827.011, 140.887
828.290, 288.976
829.568, 133.454
830.847, 88.019
832.125, 187.529
833.403, 54.160
834.681, 156.423
835.959, 131.880
837.236, 70.222
838.514, 145.467
839.791, 25.851
841.068, 69.237
842.345, 26.327
843.621, 45.788
844.898, 128.312
846.174, 69.635
847.450, 103.721
848.726, 33.745
850.001, 3.044
851.277, 85.271
852.552, 5.644
853.827, 24.021
855.102, 58.187
856.376, 57.486
857.651, 85.556
858.925, 0.887
860.199, 73.200
861.473, 31.378
862.746, 64.261
864.020, 56.941
865.293, 22.227
866.566, 17.387
867.839, 86.396
869.112, 5.630
870.384, 16.571
871.656, 3.767
872.928, 23.059
874.200, 44.029
875.472, 6.950
876.744, 13.015
878.015, 39.074
879.286, 38.841
880.557, 46.170
881.828, 4.762
883.098, 28.685
884.369, 88.383
885.639, 17.444
886.909, 100.527
888.178, 4.600
889.448, 2.672
890.717, 57.739
891.987, 35.208
893.256, 37.812
894.524, 18.817
895.793, 9.805
897.061, 113.776
898.330, 72.265
899.598, 53.639
900.865, 75.530
902.133, 35.594
903.401, 105.250
904.668, 38.081
905.935, 141.898
907.202, 124.702
908.468, 69.495
909.735, 155.275
911.001, 47.043
912.267, 95.798
913.533, 128.542
914.799, 23.275
916.064, 129.994
917.330, 42.703
918.595, 19.601
919.860, 127.074
921.124, 17.261
922.389, 59.385
923.653, 121.020
924.918, 88.356
926.182, 99.214
927.445, 3.774
928.709, 38.322
929.972, 58.859
931.236, 29.386
932.499, 91.903
933.761, 44.589
935.024, 8.889
936.286, 27.356
937.549, 40.186
938.811, 40.245
940.073, 76.667
941.334, 3.081
942.596, 55.487
943.857, 67.114
945.118, 6.248
946.379, 54.608
947.640, 30.032
948.900, 162.313
950.161, 49.670
951.421, 82.025
952.681, 111.400
953.940, 6.774
955.200, 53.149
956.459, 91.530
957.719, 60.906
958.978, 121.297
960.236, 23.310
961.495, 53.079
962.753, 14.481
964.012, 3.880
965.270, 53.291
966.527, 79.702
967.785, 73.125
969.043, 90.546
970.300, 37.978
971.557, 181.428
972.814, 152.885
974.071, 77.354
975.327, 148.832
976.583, 111.323
977.840, 306.819
979.095, 249.319
980.351, 192.820
981.607, 409.307
982.862, 335.604
984.117, 609.110
985.372, 660.284
986.627, 703.789
987.882, 929.296
989.136, 885.549
990.390, 998.055
991.644, 1281.127
992.898, 1210.381
994.152, 1317.461
995.405, 1166.625
996.659, 900.138
997.912, 871.421
999.165, 524.848
1000.417, 575.002
1001.670, 499.826
1002.922, 337.200
1004.174, 494.153
1005.426, 333.277
1006.678, 323.565
1007.930, 411.702
1009.181, 368.111
1010.432, 458.964
1011.683, 365.347
1012.934, 315.559
1014.185, 536.397
1015.435, 381.862
1016.685, 403.074
1017.935, 429.306
1019.185, 379.970
1020.435, 445.155
1021.684, 429.609
1022.934, 448.792
1024.183, 597.602
1025.432, 364.036
1026.680, 512.769
1027.929, 548.273
1029.177, 423.665
1030.425, 559.510
1031.673, 545.068
1032.921, 537.048
1034.169, 634.608
1035.416, 544.267
1036.663, 653.633
1037.911, 719.351
1039.157, 564.674
1040.404, 863.997
1041.650, 640.553
1042.897, 807.854
1044.143, 829.348
1045.389, 617.765
1046.634, 987.147
1047.880, 810.896
1049.125, 845.000
1050.371, 1031.597
1051.615, 848.290
1052.860, 839.767
1054.105, 919.544
1055.349, 857.112
1056.593, 1061.889
1057.837, 829.694
1059.081, 966.431
1060.325, 1039.238
1061.568, 881.915
1062.812, 1078.746
1064.055, 1011.580
1065.298, 1098.172
1066.540, 1199.007
1067.783, 1059.710
1069.025, 1310.478
1070.267, 1403.337
1071.509, 1305.254
1072.751, 1535.046
1073.993, 1453.913
1075.234, 1536.594
1076.475, 1600.465
1077.716, 1556.046
1078.957, 1755.776
1080.198, 1775.598
1081.438, 1683.325
1082.679, 1893.226
1083.919, 1863.847
1085.159, 2068.515
1086.398, 2200.254
1087.638, 2120.202
1088.877, 2495.006
1090.116, 2461.917
1091.355, 2599.075
1092.594, 2889.000
1093.833, 2565.422
1095.071, 2859.245
1096.309, 2853.136
1097.547, 2737.187
1098.785, 2921.407
1100.023, 2624.290
1101.260, 2622.492
1102.498, 2500.411
1103.735, 2255.140
1104.972, 2200.395
1106.208, 2156.331
1107.445, 1819.305
1108.681, 1989.617
1109.918, 1755.650
1111.154, 1715.948
1112.389, 1797.845
1113.625, 1473.825
1114.860, 1572.990
1116.096, 1503.905
1117.331, 1239.405
1118.566, 1368.447
1119.800, 1048.331
1121.035, 1147.824
1122.269, 1274.299
1123.503, 1058.206
1124.737, 1083.796
1125.971, 877.698
1127.205, 851.792
1128.438, 898.151
1129.671, 631.200
1130.904, 633.468
1132.137, 678.698
1133.370, 536.889
1134.602, 654.267
1135.834, 462.148
1137.066, 513.184
1138.298, 558.464
1139.530, 411.336
1140.762, 513.572
1141.993, 377.046
1143.224, 319.079
1144.455, 406.755
1145.686, 336.798
1146.917, 325.650
1148.147, 323.473
1149.377, 249.316
1150.607, 278.689
1151.837, 213.130
1153.067, 147.245
1154.296, 251.546
1155.526, 130.874
1156.755, 149.917
1157.984, 230.688
1159.213, 49.781
1160.441, 210.410
1161.670, 104.890
1162.898, 10.713
1164.126, 162.544
1165.354, 40.797
1166.581, 39.403
1167.809, 181.278
1169.036, 6.050
1170.263, 167.139
1171.490, 28.855
1172.717, 49.608
1173.943, 170.908
1175.170, 44.321
1176.396, 124.163
1177.622, 276.102
1178.848, 56.004
1180.073, 284.965
1181.299, 270.997
1182.524, 203.697
1183.749, 355.993
1184.974, 159.027
1186.199, 215.890
1187.423, 387.773
1188.648, 214.766
1189.872, 439.982
1191.096, 299.816
1192.320, 388.768
1193.543, 525.653
1194.767, 373.560
1195.990, 497.559
1197.213, 643.814
1198.436, 462.833
1199.659, 704.562
1200.881, 642.013
1202.104, 780.750
1203.326, 952.444
1204.548, 790.736
1205.770, 958.228
1206.991, 963.256
1208.213, 819.961
1209.434, 1065.405
1210.655, 852.454
1211.876, 761.581
1213.096, 1014.976
1214.317, 677.119
1215.537, 724.858
1216.757, 795.437
1217.977, 461.075
1219.197, 612.394
1220.417, 456.188
1221.636, 362.678
1222.855, 541.966
1224.074, 305.819
1225.293, 293.670
1226.512, 441.143
1227.731, 178.401
1228.949, 351.073
1230.167, 283.588
1231.385, 151.790
1232.603, 423.182
1233.820, 161.915
1235.038, 212.722
1236.255, 197.847
1237.472, 39.843
1238.689, 149.947
1239.906, 262.040
1241.122, 129.999
1242.338, 191.088
1243.555, 63.174
1244.771, 92.586
1245.986, 215.647
1247.202, 99.465
1248.417, 188.939
1249.633, 166.962
1250.848, 89.324
1252.063, 167.320
1253.277, 159.298
1254.492, 79.745
1255.706, 241.696
1256.920, 84.790
1258.134, 147.170
1259.348, 118.083
1260.562, 119.283
1261.775, 280.164
1262.988, 41.029
1264.201, 151.459
1265.414, 259.274
1266.627, 45.072
1267.839, 50.036
1269.052, 227.772
1270.264, 5.466
1271.476, 282.273
1272.688, 142.882
1273.899, 79.992
1275.111, 154.521
1276.322, 102.010
1277.533, 112.090
1278.744, 121.501
1279.955, 76.849
1281.165, 233.359
1282.376, 158.645
1283.586, 100.046
1284.796, 237.606
1286.006, 110.792
1287.215, 54.616
1288.425, 159.732
1289.634, 27.814
1290.843, 157.223
1292.052, 209.225
1293.261, 35.842
1294.469, 204.280
1295.678, 77.102
1296.886, 59.896
1298.094, 137.627
1299.302, 42.685
1300.509, 85.249
1301.717, 156.857
1302.924, 49.568
1304.131, 143.297
1305.338, 35.743
1306.545, 3.151
1307.752, 209.989
1308.958, 65.813
1310.164, 103.555
1311.370, 218.964
1312.576, 95.999
1313.782, 221.144
1314.987, 133.034
1316.193, 32.891
1317.398, 343.032
1318.603, 74.038
1319.807, 55.888
1321.012, 185.855
1322.216, 84.298
1323.421, 169.483
1324.625, 153.146
1325.829, 22.147
1327.032, 248.506
1328.236, 68.124
1329.439, 10.697
1330.642, 166.301
1331.845, 13.796
1333.048, 130.248
1334.251, 73.668
1335.453, 19.966
1336.656, 133.352
1337.858, 147.352
1339.060, 21.401
1340.261, 113.794
1341.463, 4.957
1342.664, 107.075
1343.866, 173.245
1345.067, 46.709
1346.267, 166.279
1347.468, 173.249
1348.669, 76.826
1349.869, 246.040
1351.069, 81.873
1352.269, 68.327
1353.469, 226.418
1354.668, 66.135
1355.868, 54.821
1357.067, 264.486
1358.266, 60.883
1359.465, 122.677
1360.664, 158.212
1361.862, 11.720
1363.061, 283.200
1364.259, 94.694
1365.457, 14.135
1366.655, 318.554
1367.852, 73.306
1369.050, 69.697
1370.247, 156.082
1371.444, 65.536
1372.641, 99.822
1373.838, 133.381
1375.035, 23.722
1376.231, 157.068
1377.427, 73.978
1378.623, 61.625
1379.819, 283.484
1381.015, 38.687
1382.211, 221.268
1383.406, 291.519
1384.601, 43.858
1385.796, 413.178
1386.991, 217.392
1388.185, 138.867
1389.380, 304.963
1390.574, 58.898
1391.768, 117.797
1392.962, 333.560
1394.156, 140.790
1395.350, 298.833
1396.543, 307.205
1397.736, 110.233
1398.929, 240.735
1400.122, 190.073
1401.315, 118.270
1402.507, 390.184
1403.700, 156.765
1404.892, 270.610
1406.084, 427.389
1407.276, 92.112
1408.467, 383.015
1409.659, 344.412
1410.850, 175.078
1412.041, 304.866
1413.232, 204.669
1414.423, 200.945
1415.614, 410.351
1416.804, 91.158
1417.994, 302.647
1419.184, 280.915
1420.374, 50.810
1421.564, 359.721
1422.753, 263.008
1423.943, 134.612
1425.132, 399.473
1426.321, 148.864
1427.510, 103.136
1428.698, 367.910
1429.887, 35.468
1431.075, 244.041
1432.263, 365.021
1433.451, 76.089
1434.639, 298.652
1435.827, 236.454
1437.014, 83.891
1438.201, 280.588
1439.388, 228.060
1440.575, 137.854
1441.762, 360.573
1442.949, 68.074
1444.135, 172.190
1445.321, 320.245
1446.507, 33.446
1447.693, 215.847
1448.879, 273.241
1450.064, 9.477
1451.250, 326.296
1452.435, 98.749
1453.620, 70.240
1454.805, 384.623
1455.989, 142.898
1457.174, 199.699
1458.358, 276.509
1459.542, 100.845
1460.726, 300.742
1461.910, 235.719
1463.093, 59.844
1464.277, 385.053
1465.460, 248.591
1466.643, 95.511
1467.826, 365.534
1469.009, 133.525
1470.191, 188.006
1471.373, 420.704
1472.556, 72.745
1473.738, 319.852
1474.919, 305.305
1476.101, 81.620
1477.283, 290.801
1478.464, 321.287
1479.645, 21.861
1480.826, 389.920
1482.007, 106.759
1483.187, 174.603
1484.368, 404.235
1485.548, 54.447
1486.728, 147.130
