##NAMES=Marialite
##RRUFFID=R050123
##IDEAL CHEMISTRY=Na_4_Al_3_Si_9_O_24_Cl
##LOCALITY=Pakistan
##OWNER=RRUFF
##SOURCE=Syed Shah
##DESCRIPTION=Purple fragment
##STATUS=The identification of this mineral has been confirmed by X-ray diffraction and chemical analysis
##URL=rruff.info/R050123
##MEASURED CHEMISTRY=(Na_0.88_Ca_0.07_K_0.05_)_4_Al_3.00_Si_9.00_O_24_Cl_0.97
##PIN_ID=L00549
##ORIENTATION=Laser parallel to -a* (-1 0 0). Fiducial mark perpendicular to laser is parallel to -c [0 0 -1]
49.365, 0.000
50.765, 79.510
52.166, 298.557
53.566, 488.216
54.966, 603.575
56.365, 832.181
57.765, 1121.194
59.164, 1444.406
60.563, 1775.483
61.962, 1697.775
63.360, 1685.005
64.758, 1580.119
66.157, 1579.616
67.554, 1743.157
68.952, 1779.395
70.349, 1567.678
71.747, 1274.888
73.144, 993.887
74.540, 823.735
75.937, 625.355
77.333, 414.674
78.729, 179.627
80.125, 49.158
81.521, 2.779
82.916, 43.205
84.311, 112.038
85.706, 111.284
87.101, 109.005
88.496, 35.258
89.890, 59.910
91.284, 290.460
92.678, 558.372
94.071, 965.632
95.465, 1346.221
96.858, 1832.112
98.251, 2583.279
99.644, 3145.692
101.036, 3767.303
102.428, 4279.079
103.820, 4970.009
105.212, 5337.088
106.604, 5430.311
107.995, 5713.669
109.387, 5502.162
110.777, 5523.780
112.168, 5385.523
113.559, 5198.387
114.949, 4943.458
116.339, 4929.331
117.729, 4720.321
119.119, 4382.827
120.508, 4323.415
121.897, 4185.978
123.286, 4118.521
124.675, 3995.047
126.063, 3795.561
127.452, 3750.067
128.840, 3647.567
130.228, 3606.067
131.615, 3628.567
133.003, 3392.117
134.390, 3418.863
135.777, 3457.787
137.164, 3543.857
138.550, 3543.038
139.937, 3633.299
141.323, 3732.608
142.709, 3833.358
144.094, 3946.185
145.480, 4135.437
146.865, 4383.658
148.250, 4609.781
149.635, 4912.701
151.019, 5268.291
152.403, 5621.588
153.788, 5973.808
155.171, 6278.054
156.555, 6695.340
157.939, 6682.662
159.322, 7000.023
160.705, 6797.424
162.088, 6664.865
163.470, 6262.347
164.853, 5754.870
166.235, 5508.430
167.617, 4903.034
168.998, 4734.673
170.380, 4248.354
171.761, 4083.075
173.142, 3706.833
174.523, 3444.631
175.904, 3594.465
177.284, 3286.337
178.664, 3150.745
180.044, 3115.263
181.424, 3034.124
182.803, 2935.110
184.183, 2808.623
185.562, 2732.983
186.940, 2602.409
188.319, 2477.914
189.698, 2319.684
191.076, 2137.077
192.454, 2127.245
193.831, 1921.457
195.209, 1906.715
196.586, 1696.017
197.963, 1667.362
199.340, 1628.748
200.717, 1471.170
202.093, 1512.630
203.470, 1467.130
204.846, 1425.665
206.221, 1374.233
207.597, 1403.833
208.972, 1448.463
210.347, 1421.123
211.722, 1387.813
213.097, 1437.532
214.472, 1539.281
215.846, 1533.218
217.220, 1651.324
218.594, 1673.277
219.967, 1639.949
221.341, 1635.237
222.714, 1584.146
224.087, 1562.616
225.460, 1428.523
226.832, 1383.956
228.204, 1367.033
229.577, 1201.770
230.948, 1195.950
232.320, 1052.332
233.692, 1010.675
235.063, 920.339
236.434, 942.926
237.805, 957.593
239.175, 876.337
240.545, 918.156
241.916, 936.733
243.286, 993.557
244.655, 1167.662
246.025, 1296.805
247.394, 1483.112
248.763, 1682.273
250.132, 2086.500
251.501, 2405.121
252.869, 3273.221
254.237, 3692.289
255.605, 3966.366
256.973, 4562.803
258.340, 4865.458
259.708, 5069.187
261.075, 4818.968
262.442, 4617.785
263.808, 4169.643
265.175, 3523.533
266.541, 3036.457
267.907, 2473.414
269.273, 2123.401
270.639, 1791.419
272.004, 1490.467
273.369, 1335.544
274.734, 1186.647
276.099, 1185.776
277.463, 1092.933
278.828, 1067.116
280.192, 1013.325
281.556, 999.038
282.919, 986.718
284.283, 982.055
285.646, 969.326
287.009, 927.087
288.372, 885.394
289.734, 870.239
291.097, 873.583
292.459, 918.947
293.821, 891.325
295.183, 1011.715
296.544, 1021.120
297.905, 844.537
299.266, 839.966
300.627, 549.407
301.988, 408.859
303.348, 265.321
304.709, 163.799
306.069, 79.286
307.428, 12.220
308.788, 82.723
310.147, 126.237
311.507, 112.772
312.865, 153.326
314.224, 180.908
315.583, 215.510
316.941, 196.154
318.299, 146.822
319.657, 125.507
321.015, 109.197
322.372, 56.896
323.729, 93.592
325.086, 45.291
326.443, 59.012
327.800, 110.326
329.156, 97.651
330.512, 187.987
331.868, 178.333
333.224, 182.690
334.579, 258.065
335.935, 277.450
337.290, 316.180
338.645, 299.267
339.999, 386.696
341.354, 434.135
342.708, 462.581
344.062, 526.007
345.416, 595.384
346.769, 689.668
348.123, 844.837
349.476, 984.089
350.829, 1223.365
352.182, 1410.927
353.534, 1840.328
354.887, 2162.702
356.239, 2390.880
357.591, 2619.236
358.942, 2725.488
360.294, 2776.628
361.645, 2601.779
362.996, 2498.939
364.347, 2402.112
365.698, 2148.293
367.048, 2119.483
368.398, 1847.684
369.748, 1728.894
371.098, 1627.112
372.448, 1486.338
373.797, 1351.573
375.146, 1139.815
376.495, 1111.065
377.844, 1004.322
379.192, 947.562
380.540, 950.783
381.889, 799.984
383.236, 763.169
384.584, 659.337
385.932, 683.489
387.279, 571.628
388.626, 542.757
389.973, 470.876
391.319, 412.987
392.666, 328.092
394.012, 330.193
395.358, 333.293
396.704, 312.396
398.049, 181.507
399.394, 286.624
400.740, 177.747
402.084, 204.311
403.429, 212.730
404.774, 206.358
406.118, 259.731
407.462, 231.311
408.806, 267.101
410.150, 284.322
411.493, 380.276
412.836, 455.043
414.179, 437.435
415.522, 474.413
416.865, 505.433
418.207, 565.126
419.549, 749.143
420.891, 710.304
422.233, 912.366
423.575, 932.541
424.916, 1102.997
426.257, 1118.754
427.598, 1155.640
428.939, 1235.800
430.279, 1149.407
431.619, 1209.327
432.959, 1200.154
434.299, 1282.941
435.639, 1438.387
436.978, 1629.108
438.318, 1838.901
439.657, 1980.785
440.996, 2327.596
442.334, 2650.068
443.673, 2941.752
445.011, 3621.671
446.349, 4156.312
447.687, 5177.303
449.024, 6306.259
450.361, 7866.003
451.699, 9858.648
453.036, 12029.652
454.372, 14209.468
455.709, 15929.263
457.045, 16659.037
458.381, 16478.795
459.717, 14748.607
461.053, 12948.338
462.388, 10668.172
463.724, 9007.772
465.059, 7521.908
466.394, 6408.417
467.728, 5142.553
469.063, 4277.103
470.397, 3671.462
471.731, 3148.183
473.065, 2625.795
474.398, 2350.887
475.732, 1921.805
477.065, 1744.102
478.398, 1412.204
479.731, 1221.843
481.063, 1098.401
482.396, 863.239
483.728, 774.806
485.060, 681.842
486.391, 564.440
487.723, 474.767
489.054, 440.169
490.385, 459.376
491.716, 304.874
493.047, 345.284
494.377, 261.231
495.708, 179.688
497.038, 213.401
498.368, 218.877
499.697, 177.138
501.027, 200.632
502.356, 217.063
503.685, 220.049
505.014, 209.951
506.342, 150.645
507.671, 119.211
508.999, 76.667
510.327, 69.627
511.655, 2.890
512.982, 44.480
514.310, 55.906
515.637, 106.262
516.964, 66.538
518.291, 94.862
519.617, 158.856
520.944, 247.172
522.270, 338.354
523.596, 465.709
524.921, 678.861
526.247, 853.908
527.572, 1024.134
528.897, 1599.250
530.222, 2277.329
531.547, 3149.437
532.871, 4644.427
534.196, 6066.413
535.520, 7765.290
536.844, 8964.170
538.167, 8533.049
539.491, 7341.858
540.814, 5576.514
542.137, 4371.160
543.460, 3253.776
544.783, 2368.377
546.105, 1790.963
547.427, 1289.565
548.749, 1140.101
550.071, 809.646
551.393, 598.178
552.714, 454.697
554.035, 382.203
555.356, 345.694
556.677, 166.167
557.998, 180.626
559.318, 147.067
560.638, 36.504
561.958, 72.921
563.278, 25.318
564.597, 41.304
565.917, 44.026
567.236, 14.664
568.555, 3.384
569.874, 63.130
571.192, 39.064
572.511, 19.764
573.829, 91.630
575.147, 59.572
576.464, 117.576
577.782, 58.652
579.099, 44.790
580.416, 42.979
581.733, 4.793
583.050, 0.463
584.366, 81.256
585.683, 49.952
586.999, 5.624
588.315, 115.282
589.630, 39.918
590.946, 61.545
592.261, 70.148
593.576, 150.726
594.891, 84.300
596.206, 65.850
597.520, 43.375
598.834, 59.876
600.148, 139.352
601.462, 87.813
602.776, 30.250
604.089, 95.661
605.402, 6.953
606.715, 17.396
608.028, 66.718
609.341, 32.985
610.653, 6.739
611.965, 45.469
613.277, 47.650
614.589, 49.805
615.901, 54.363
617.212, 38.048
618.523, 56.132
619.834, 29.189
621.145, 83.229
622.456, 9.758
623.766, 117.215
625.076, 99.173
626.386, 66.107
627.696, 102.022
629.006, 89.943
630.315, 75.870
631.624, 66.798
632.933, 24.263
634.242, 35.672
635.551, 26.367
636.859, 1.408
638.167, 26.452
639.475, 1.483
640.783, 5.406
642.090, 1.692
643.398, 17.192
644.705, 24.056
646.012, 48.892
647.318, 81.700
648.625, 65.482
649.931, 84.234
651.237, 3.035
652.543, 68.650
653.849, 24.308
655.155, 27.065
656.460, 108.506
657.765, 50.051
659.070, 62.568
660.375, 16.055
661.679, 33.491
662.984, 24.904
664.288, 30.267
665.592, 43.599
666.895, 34.251
668.199, 7.206
669.502, 12.514
670.805, 6.312
672.108, 51.141
673.411, 67.150
674.713, 51.962
676.016, 127.984
677.318, 48.178
678.620, 77.144
679.921, 37.267
681.223, 78.174
682.524, 100.054
683.825, 54.155
685.126, 77.129
686.427, 82.924
687.727, 72.695
689.028, 96.718
690.328, 100.127
691.628, 122.735
692.927, 122.958
694.227, 119.722
695.526, 133.039
696.825, 172.779
698.124, 171.625
699.423, 224.321
700.721, 231.842
702.020, 286.464
703.318, 314.283
704.616, 229.702
705.913, 329.096
707.211, 309.232
708.508, 380.071
709.805, 264.087
711.102, 383.525
712.399, 334.790
713.695, 349.199
714.992, 431.413
716.288, 303.593
717.584, 481.380
718.879, 367.230
720.175, 396.151
721.470, 370.149
722.765, 443.975
724.060, 447.247
725.355, 482.826
726.649, 481.298
727.944, 504.967
729.238, 416.998
730.532, 495.591
731.825, 440.921
733.119, 564.592
734.412, 552.973
735.705, 511.542
736.998, 600.892
738.291, 649.960
739.584, 623.071
740.876, 677.505
742.168, 706.037
743.460, 689.409
744.752, 731.959
746.043, 764.650
747.334, 815.032
748.626, 821.275
749.916, 917.747
751.207, 1061.000
752.498, 1020.230
753.788, 1161.382
755.078, 1187.489
756.368, 1321.704
757.658, 1375.853
758.947, 1449.785
760.237, 1586.023
761.526, 1679.776
762.815, 1786.692
764.104, 1894.714
765.392, 1938.040
766.680, 2128.662
767.969, 2109.446
769.257, 2327.216
770.544, 2467.752
771.832, 2404.497
773.119, 2668.257
774.406, 2568.974
775.693, 2744.726
776.980, 3032.517
778.267, 2964.647
779.553, 3298.918
780.839, 3353.705
782.125, 3604.333
783.411, 3800.163
784.697, 3784.846
785.982, 3833.448
787.267, 3671.990
788.552, 3284.942
789.837, 3104.309
791.122, 2677.053
792.406, 2266.938
793.690, 1912.007
794.974, 1605.963
796.258, 1266.952
797.542, 1131.049
798.825, 966.030
800.108, 863.139
801.391, 708.360
802.674, 805.699
803.957, 680.946
805.239, 612.251
806.522, 687.989
807.804, 641.187
809.085, 771.098
810.367, 749.215
811.649, 889.518
812.930, 908.556
814.211, 634.627
815.492, 698.113
816.772, 544.652
818.053, 468.368
819.333, 325.182
820.613, 226.078
821.893, 235.440
823.173, 224.470
824.452, 144.141
825.732, 170.946
827.011, 166.793
828.290, 143.690
829.568, 71.508
830.847, 52.627
832.125, 128.395
833.403, 54.267
834.681, 176.937
835.959, 139.781
837.236, 36.701
838.514, 59.411
839.791, 97.201
841.068, 93.001
842.345, 90.743
843.621, 32.429
844.898, 135.363
846.174, 27.765
847.450, 58.064
848.726, 24.863
850.001, 45.297
851.277, 16.652
852.552, 45.580
853.827, 80.508
855.102, 49.423
856.376, 10.677
857.651, 92.199
858.925, 99.062
860.199, 1.088
861.473, 3.743
862.746, 0.444
864.020, 44.351
865.293, 119.131
866.566, 36.901
867.839, 90.658
869.112, 40.597
870.384, 60.111
871.656, 78.809
872.928, 5.498
874.200, 39.174
875.472, 27.854
876.744, 6.478
878.015, 1.818
879.286, 25.830
880.557, 30.487
881.828, 40.135
883.098, 10.783
884.369, 77.447
885.639, 61.877
886.909, 44.789
888.178, 1.534
889.448, 48.854
890.717, 83.805
891.987, 19.541
893.256, 65.099
894.524, 1.730
895.793, 54.647
897.061, 45.941
898.330, 57.479
899.598, 19.065
900.865, 56.602
902.133, 64.868
903.401, 71.621
904.668, 33.104
905.935, 22.580
907.202, 43.051
908.468, 32.483
909.735, 50.959
911.001, 35.397
912.267, 20.831
913.533, 140.257
914.799, 6.687
916.064, 24.111
917.330, 4.469
918.595, 98.957
919.860, 56.384
921.124, 43.809
922.389, 16.770
923.653, 21.358
924.918, 14.040
926.182, 56.434
927.445, 44.174
928.709, 33.196
929.972, 103.563
931.236, 49.064
932.499, 61.283
933.761, 65.627
935.024, 62.030
936.286, 100.283
937.549, 84.593
938.811, 35.903
940.073, 58.211
941.334, 28.529
942.596, 84.847
943.857, 19.177
945.118, 96.511
946.379, 139.858
947.640, 66.209
948.900, 132.565
950.161, 63.929
951.421, 121.295
952.681, 145.663
953.940, 70.032
955.200, 131.402
956.459, 115.775
957.719, 88.150
958.978, 222.533
960.236, 141.919
961.495, 182.306
962.753, 217.708
964.012, 110.111
965.270, 108.516
966.527, 130.924
967.785, 168.335
969.043, 152.767
970.300, 142.209
971.557, 205.654
972.814, 153.118
974.071, 137.600
975.327, 314.094
976.583, 235.603
977.840, 321.119
979.095, 404.640
980.351, 334.165
981.607, 526.570
982.862, 336.900
984.117, 622.432
985.372, 650.781
986.627, 704.319
987.882, 824.861
989.136, 811.156
990.390, 922.568
991.644, 1113.134
992.898, 1026.698
994.152, 1129.270
995.405, 1046.960
996.659, 904.567
997.912, 786.610
999.165, 679.090
1000.417, 613.451
1001.670, 640.475
1002.922, 515.815
1004.174, 557.289
1005.426, 511.916
1006.678, 423.434
1007.930, 587.733
1009.181, 495.410
1010.432, 492.088
1011.683, 423.004
1012.934, 462.195
1014.185, 523.187
1015.435, 413.734
1016.685, 455.453
1017.935, 531.006
1019.185, 494.733
1020.435, 549.483
1021.684, 538.168
1022.934, 601.919
1024.183, 602.379
1025.432, 514.002
1026.680, 567.585
1027.929, 674.517
1029.177, 614.722
1030.425, 706.329
1031.673, 616.964
1032.921, 725.647
1034.169, 741.226
1035.416, 668.038
1036.663, 768.830
1037.911, 847.586
1039.157, 732.988
1040.404, 1025.695
1041.650, 844.558
1042.897, 887.077
1044.143, 912.961
1045.389, 744.598
1046.634, 951.096
1047.880, 881.956
1049.125, 810.343
1050.371, 913.110
1051.615, 1002.047
1052.860, 941.073
1054.105, 979.047
1055.349, 892.948
1056.593, 1126.812
1057.837, 936.788
1059.081, 959.970
1060.325, 1088.982
1061.568, 917.960
1062.812, 1100.886
1064.055, 1029.921
1065.298, 1167.809
1066.540, 1156.776
1067.783, 1183.519
1069.025, 1249.580
1070.267, 1437.645
1071.509, 1266.723
1072.751, 1568.026
1073.993, 1535.120
1075.234, 1547.125
1076.475, 1773.228
1077.716, 1718.168
1078.957, 1908.336
1080.198, 2019.460
1081.438, 1995.216
1082.679, 2227.375
1083.919, 2142.538
1085.159, 2362.729
1086.398, 2570.921
1087.638, 2630.150
1088.877, 2907.520
1090.116, 2921.724
1091.355, 2871.963
1092.594, 3289.231
1093.833, 3040.430
1095.071, 3197.845
1096.309, 3289.069
1097.547, 3178.657
1098.785, 3166.398
1100.023, 3011.803
1101.260, 3049.339
1102.498, 3052.738
1103.735, 2834.118
1104.972, 2817.357
1106.208, 2898.799
1107.445, 2510.372
1108.681, 2660.035
1109.918, 2444.290
1111.154, 2386.775
1112.389, 2509.168
1113.625, 2226.600
1114.860, 2185.332
1116.096, 2105.596
1117.331, 1950.500
1118.566, 2068.559
1119.800, 1829.948
1121.035, 1910.983
1122.269, 1906.759
1123.503, 1736.027
1124.737, 1705.075
1125.971, 1512.458
1127.205, 1376.264
1128.438, 1419.006
1129.671, 1193.420
1130.904, 1058.686
1132.137, 1052.996
1133.370, 973.524
1134.602, 917.437
1135.834, 880.629
1137.066, 799.225
1138.298, 831.039
1139.530, 726.303
1140.762, 736.077
1141.993, 625.605
1143.224, 631.474
1144.455, 627.801
1145.686, 554.410
1146.917, 418.042
1148.147, 408.505
1149.377, 404.050
1150.607, 409.433
1151.837, 411.646
1153.067, 288.147
1154.296, 360.927
1155.526, 327.724
1156.755, 222.194
1157.984, 281.758
1159.213, 58.469
1160.441, 217.101
1161.670, 131.816
1162.898, 124.058
1164.126, 190.386
1165.354, 135.061
1166.581, 98.552
1167.809, 189.883
1169.036, 26.322
1170.263, 106.982
1171.490, 46.908
1172.717, 45.108
1173.943, 136.774
1175.170, 35.536
1176.396, 119.872
1177.622, 212.911
1178.848, 60.639
1180.073, 125.163
1181.299, 233.646
1182.524, 95.785
1183.749, 193.316
1184.974, 161.355
1186.199, 115.483
1187.423, 290.136
1188.648, 167.050
1189.872, 335.417
1191.096, 154.844
1192.320, 163.280
1193.543, 367.503
1194.767, 208.087
1195.990, 330.058
1197.213, 474.884
1198.436, 270.406
1199.659, 451.779
1200.881, 252.682
1202.104, 401.951
1203.326, 544.087
1204.548, 334.617
1205.770, 494.707
1206.991, 544.031
1208.213, 282.655
1209.434, 495.794
1210.655, 468.014
1211.876, 386.390
1213.096, 496.470
1214.317, 314.661
1215.537, 402.656
1216.757, 369.724
1217.977, 170.101
1219.197, 364.950
1220.417, 310.208
1221.636, 170.994
1222.855, 349.804
1224.074, 292.593
1225.293, 90.474
1226.512, 315.801
1227.731, 166.464
1228.949, 211.012
1230.167, 236.330
1231.385, 98.688
1232.603, 321.958
1233.820, 112.000
1235.038, 81.521
1236.255, 148.192
1237.472, 118.219
1238.689, 112.852
1239.906, 140.476
1241.122, 81.568
1242.338, 193.169
1243.555, 43.830
1244.771, 9.778
1245.986, 91.340
1247.202, 62.130
1248.417, 97.574
1249.633, 103.598
1250.848, 12.270
1252.063, 92.536
1253.277, 62.995
1254.492, 43.003
1255.706, 186.430
1256.920, 88.845
1258.134, 112.866
1259.348, 105.254
1260.562, 34.825
1261.775, 249.376
1262.988, 6.689
1264.201, 20.360
1265.414, 122.874
1266.627, 50.907
1267.839, 33.611
1269.052, 161.751
1270.264, 0.003
1271.476, 130.098
1272.688, 30.183
1273.899, 46.271
1275.111, 125.271
1276.322, 194.252
1277.533, 153.412
1278.744, 102.143
1279.955, 73.054
1281.165, 122.181
1282.376, 88.038
1283.586, 41.150
1284.796, 181.897
1286.006, 47.631
1287.215, 19.483
1288.425, 32.162
1289.634, 47.225
1290.843, 91.773
1292.052, 89.296
1293.261, 32.275
1294.469, 110.118
1295.678, 152.468
1296.886, 11.215
1298.094, 124.126
1299.302, 35.621
1300.509, 52.574
1301.717, 131.844
1302.924, 108.958
1304.131, 73.035
1305.338, 92.031
1306.545, 71.958
1307.752, 185.885
1308.958, 58.255
1310.164, 79.545
1311.370, 122.312
1312.576, 25.950
1313.782, 135.744
1314.987, 81.397
1316.193, 36.018
1317.398, 194.955
1318.603, 76.504
1319.807, 55.014
1321.012, 153.586
1322.216, 3.976
1323.421, 58.415
1324.625, 104.950
1325.829, 10.734
1327.032, 194.537
1328.236, 97.775
1329.439, 35.036
1330.642, 223.102
1331.845, 3.200
1333.048, 16.747
1334.251, 134.255
1335.453, 24.780
1336.656, 114.128
1337.858, 163.038
1339.060, 11.126
1340.261, 28.663
1341.463, 42.410
1342.664, 25.881
1343.866, 120.780
1345.067, 79.594
1346.267, 143.972
1347.468, 172.502
1348.669, 41.999
1349.869, 177.439
1351.069, 119.843
1352.269, 11.788
1353.469, 157.533
1354.668, 134.821
1355.868, 9.076
1357.067, 161.294
1358.266, 13.480
1359.465, 174.630
1360.664, 154.281
1361.862, 8.627
1363.061, 246.426
1364.259, 98.579
1365.457, 15.424
1366.655, 254.536
1367.852, 27.472
1369.050, 22.383
1370.247, 70.214
1371.444, 29.959
1372.641, 12.179
1373.838, 67.004
1375.035, 41.278
1376.231, 70.317
1377.427, 115.562
1378.623, 40.026
1379.819, 193.612
1381.015, 14.824
1382.211, 238.975
1383.406, 302.950
1384.601, 88.189
1385.796, 323.799
1386.991, 188.550
1388.185, 116.316
1389.380, 269.514
1390.574, 150.212
1391.768, 44.787
1392.962, 320.141
1394.156, 179.272
1395.350, 126.685
1396.543, 267.813
1397.736, 80.456
1398.929, 236.910
1400.122, 217.318
1401.315, 76.502
1402.507, 260.326
1403.700, 157.129
1404.892, 158.891
1406.084, 293.706
1407.276, 65.526
1408.467, 216.270
1409.659, 221.896
1410.850, 121.201
1412.041, 247.987
1413.232, 171.250
1414.423, 212.033
1415.614, 388.263
1416.804, 184.610
1417.994, 216.700
1419.184, 321.416
1420.374, 31.001
1421.564, 207.069
1422.753, 264.686
1423.943, 137.792
1425.132, 344.773
1426.321, 237.727
1427.510, 121.656
1428.698, 262.196
1429.887, 134.646
1431.075, 214.526
1432.263, 313.845
1433.451, 68.647
1434.639, 155.903
1435.827, 384.857
1437.014, 695.597
1438.201, 291.223
1439.388, 188.587
1440.575, 138.296
1441.762, 301.933
1442.949, 268.520
1444.135, 116.349
1445.321, 324.368
1446.507, 152.056
1447.693, 210.929
1448.879, 324.208
1450.064, 117.636
1451.250, 303.040
1452.435, 185.220
1453.620, 126.045
1454.805, 286.567
1455.989, 150.300
1457.174, 186.160
1458.358, 393.067
1459.542, 30.425
1460.726, 267.066
1461.910, 313.355
1463.093, 86.428
1464.277, 350.385
1465.460, 230.146
1466.643, 60.581
1467.826, 438.496
1469.009, 219.546
1470.191, 151.471
1471.373, 257.618
1472.556, 178.329
1473.738, 268.214
1474.919, 266.146
1476.101, 207.852
1477.283, 174.339
1478.464, 339.348
1479.645, 74.070
1480.826, 358.771
1482.007, 273.147
1483.187, 180.317
1484.368, 391.931
1485.548, 148.990
1486.728, 191.023
1487.908, 347.202
1489.088, 109.303
1490.268, 227.416
1491.447, 200.854
1492.626, 121.431
1493.805, 370.488
