##NAMES=Marialite
##RRUFFID=R040043
##IDEAL CHEMISTRY=Na_4_Al_3_Si_9_O_24_Cl
##LOCALITY=Gouverneur, New York, USA
##OWNER=RRUFF
##SOURCE=University of Arizona Mineral Museum
##DESCRIPTION=White prismatic crystals
##STATUS=The identification of this mineral has been confirmed by X-ray diffraction and chemical analysis
##URL=rruff.info/R040043
##MEASURED CHEMISTRY=(Na_.493_Ca_.446_K_.061_)_4_(Si_.634_Al_.366_)_12_O_24_((CO_3_)_.581_Cl_.419_)
##PIN_ID=S00028
##ORIENTATION=Laser parallel to a* (1 0 0). Fiducial mark perpendicular to laser is parallel to c [0 0 1]
105.908, 0.000
107.300, 210.059
108.691, 804.609
110.082, 954.182
111.473, 1268.186
112.864, 1313.066
114.254, 1443.879
115.644, 1496.385
117.034, 1097.645
118.424, 671.689
119.813, 961.639
121.203, 411.830
122.592, 646.793
123.981, 807.887
125.369, 847.322
126.758, 1264.400
128.146, 1162.889
129.534, 1872.967
130.922, 1598.777
132.309, 1529.518
133.696, 995.369
135.083, 1495.166
136.470, 812.920
137.857, 1078.877
139.243, 823.602
140.630, 749.492
142.016, 334.525
143.401, 475.910
144.787, 749.975
146.172, 1016.598
147.557, 1414.717
148.942, 1726.320
150.327, 2440.398
151.711, 3075.719
153.096, 4311.512
154.480, 5496.793
155.863, 6500.531
157.247, 7520.721
158.630, 8526.773
160.013, 9257.172
161.396, 9932.480
162.779, 10532.594
164.161, 10222.855
165.544, 9899.043
166.926, 9095.629
168.308, 8032.846
169.689, 6901.229
171.070, 5948.285
172.452, 4816.988
173.833, 3756.828
175.213, 3104.520
176.594, 2380.623
177.974, 2023.799
179.354, 1658.873
180.734, 1456.678
182.114, 1340.361
183.493, 1476.564
184.872, 1628.139
186.251, 1876.111
187.630, 1903.539
189.008, 1940.629
190.387, 2332.285
191.765, 2406.906
193.143, 2712.457
194.520, 2372.822
195.898, 2521.160
197.275, 2365.168
198.652, 2346.719
200.029, 2180.898
201.405, 1837.711
202.782, 1531.160
204.158, 1745.209
205.534, 1923.738
206.909, 1450.912
208.285, 1904.719
209.660, 2104.836
211.035, 2043.107
212.410, 2291.117
213.784, 2180.176
215.159, 2415.674
216.533, 2617.648
217.907, 2742.070
219.281, 2795.902
220.654, 2838.570
222.027, 2950.434
223.400, 2747.410
224.773, 2786.670
226.146, 2515.195
227.518, 2356.088
228.891, 2138.928
230.263, 1958.693
231.634, 1753.383
233.006, 1442.773
234.377, 1179.938
235.748, 803.863
237.119, 441.551
238.490, 565.072
239.860, 131.635
241.231, 215.150
242.601, 17.129
243.970, 19.287
245.340, 35.424
246.709, 150.443
248.079, 311.387
249.448, 287.135
250.816, 738.475
252.185, 994.428
253.553, 1521.172
254.921, 2265.943
256.289, 3009.328
257.657, 3831.648
259.024, 4733.553
260.391, 5347.748
261.758, 5784.473
263.125, 6212.338
264.492, 5969.908
265.858, 5303.180
267.224, 4598.152
268.590, 3369.828
269.956, 2667.193
271.321, 2045.668
272.687, 1268.668
274.052, 633.152
275.416, 673.600
276.781, 501.705
278.146, 234.266
279.510, 410.111
280.874, 643.137
282.237, 791.266
283.601, 1057.871
284.964, 1080.580
286.327, 1591.656
287.690, 1879.629
289.053, 2185.463
290.416, 2805.121
291.778, 2716.578
293.140, 3119.816
294.502, 3081.812
295.863, 3430.551
297.225, 3290.025
298.586, 2514.209
299.947, 2100.092
301.308, 1111.658
302.668, 481.875
304.029, 244.697
305.389, 153.900
306.749, 262.061
308.108, 395.789
309.468, 649.141
310.827, 637.176
312.186, 827.861
313.545, 672.279
314.903, 677.393
316.262, 687.195
317.620, 713.645
318.978, 340.779
320.336, 561.500
321.693, 332.900
323.051, 203.971
324.408, 275.713
325.765, 184.834
327.121, 4.217
328.478, 385.102
329.834, 642.871
331.190, 1058.123
332.546, 1303.080
333.902, 1638.195
335.257, 1816.988
336.612, 2057.225
337.967, 2308.809
339.322, 1955.029
340.677, 1982.812
342.031, 1699.279
343.385, 1616.025
344.739, 1329.432
346.093, 1282.529
347.446, 1223.783
348.799, 1186.596
350.153, 1391.291
351.505, 1680.574
352.858, 1732.131
354.210, 2251.152
355.563, 2405.926
356.915, 3051.953
358.267, 3657.570
359.618, 4048.154
360.969, 4382.061
362.321, 4427.656
363.672, 4120.939
365.022, 3680.912
366.373, 3014.578
367.723, 2696.900
369.073, 2404.723
370.423, 2144.668
371.773, 1928.477
373.122, 2103.982
374.471, 2290.256
375.821, 2063.293
377.169, 2547.359
378.518, 2422.568
379.866, 2572.096
381.215, 2769.092
382.563, 2721.752
383.910, 2898.139
385.258, 3064.277
386.605, 2914.174
387.952, 2321.820
389.299, 2353.184
390.646, 2227.252
391.992, 2007.029
393.339, 1919.533
394.685, 1733.797
396.031, 1940.717
397.376, 1716.277
398.722, 1654.004
400.067, 1571.904
401.412, 1420.857
402.757, 1489.512
404.101, 1620.188
405.446, 1622.348
406.790, 1719.879
408.134, 1835.408
409.478, 2022.035
410.821, 2156.172
412.165, 2343.051
413.508, 2523.043
414.851, 2798.967
416.193, 3025.914
417.536, 3416.396
418.878, 3802.518
420.220, 4300.471
421.562, 3798.584
422.904, 4151.209
424.245, 4118.824
425.586, 3722.988
426.927, 3866.115
428.268, 3551.160
429.609, 3414.805
430.949, 3657.484
432.289, 4040.375
433.629, 3988.420
434.969, 4696.166
436.309, 4913.602
437.648, 5704.719
438.987, 6301.852
440.326, 7183.932
441.665, 8405.648
443.003, 9877.963
444.342, 11622.820
445.680, 13583.133
447.018, 16190.385
448.355, 18747.049
449.693, 22544.250
451.030, 27016.490
452.367, 31807.037
453.704, 34082.707
455.041, 36804.766
456.377, 37559.852
457.713, 37855.355
459.049, 37957.070
460.385, 37617.266
461.721, 36710.176
463.056, 33874.656
464.391, 31381.488
465.726, 28849.664
467.061, 24760.734
468.395, 21337.449
469.730, 18691.709
471.064, 15664.305
472.398, 13701.180
473.731, 11383.039
475.065, 9829.156
476.398, 8529.535
477.731, 7589.277
479.064, 6576.861
480.397, 5776.434
481.729, 4943.424
483.062, 4485.117
484.394, 4198.459
485.725, 3464.520
487.057, 3022.873
488.389, 2893.168
489.720, 2431.086
491.051, 2334.717
492.382, 2076.662
493.712, 1840.188
495.043, 1681.863
496.373, 1590.229
497.703, 1530.680
499.032, 1416.588
500.362, 1313.334
501.691, 1244.723
503.020, 1059.980
504.349, 1040.229
505.678, 1015.100
507.007, 878.779
508.335, 886.514
509.663, 816.879
510.991, 822.697
512.319, 905.252
513.646, 1164.027
514.973, 1110.297
516.300, 1410.027
517.627, 1409.828
518.954, 1299.871
520.280, 1772.730
521.607, 2045.451
522.933, 2554.996
524.259, 2953.826
525.584, 3853.062
526.910, 4913.744
528.235, 6142.141
529.560, 7831.158
530.885, 9693.617
532.209, 11772.836
533.534, 13674.584
534.858, 14910.387
536.182, 14843.762
537.506, 13861.773
538.829, 12072.021
540.152, 10207.914
541.476, 8719.074
542.799, 6703.371
544.121, 5704.719
545.444, 4681.932
546.766, 3669.035
548.088, 3384.230
549.410, 2675.453
550.732, 2436.043
552.053, 1961.592
553.375, 1622.691
554.696, 1400.896
556.017, 1331.867
557.337, 1299.793
558.658, 1039.361
559.978, 717.504
561.298, 913.934
562.618, 700.602
563.938, 619.754
565.257, 848.910
566.576, 357.492
567.895, 595.557
569.214, 685.492
570.533, 623.947
571.851, 583.123
573.170, 638.973
574.488, 372.229
575.805, 474.355
577.123, 255.354
578.440, 473.219
579.758, 613.955
581.075, 196.582
582.391, 385.074
583.708, 680.436
585.024, 398.684
586.341, 366.809
587.657, 649.814
588.972, 590.709
590.288, 489.486
591.603, 383.145
592.918, 473.684
594.233, 314.119
595.548, 611.461
596.863, 151.717
598.177, 320.883
599.491, 468.982
600.805, 329.008
602.119, 150.949
603.432, 582.797
604.746, 764.561
606.059, 603.258
607.372, 668.863
608.685, 1047.379
609.997, 626.812
611.309, 843.152
612.621, 588.402
613.933, 821.561
615.245, 328.631
616.557, 439.602
617.868, 250.480
619.179, 100.260
620.490, 77.938
621.801, 323.533
623.111, 81.912
624.421, 403.582
625.731, 130.846
627.041, 237.777
628.351, 28.533
629.660, 165.512
630.970, 332.586
632.279, 69.941
633.588, 29.512
634.896, 242.699
636.205, 58.789
637.513, 90.664
638.821, 135.566
640.129, 164.996
641.437, 148.568
642.744, 215.527
644.051, 197.160
645.358, 178.895
646.665, 144.789
647.972, 92.680
649.278, 36.455
650.584, 115.652
651.890, 28.428
653.196, 95.643
654.502, 192.260
655.807, 31.756
657.113, 131.766
658.418, 421.320
659.722, 345.576
661.027, 201.602
662.331, 141.842
663.636, 570.900
664.940, 73.928
666.244, 558.350
667.547, 17.844
668.851, 308.857
670.154, 247.994
671.457, 121.102
672.760, 346.777
674.062, 99.842
675.365, 596.434
676.667, 713.275
677.969, 980.229
679.271, 680.662
680.572, 370.383
681.874, 561.969
683.175, 318.988
684.476, 290.162
685.777, 284.490
687.077, 109.898
688.378, 391.104
689.678, 171.984
690.978, 302.359
692.278, 206.758
693.577, 583.008
694.877, 13.590
696.176, 649.203
697.475, 309.209
698.774, 678.248
700.072, 491.105
701.371, 737.500
702.669, 755.979
703.967, 1334.982
705.265, 1252.242
706.562, 868.520
707.860, 642.961
709.157, 1151.016
710.454, 698.145
711.751, 1360.080
713.047, 996.699
714.344, 1065.889
715.640, 614.158
716.936, 980.840
718.232, 1070.066
719.527, 775.373
720.823, 951.701
722.118, 818.002
723.413, 804.699
724.708, 810.270
726.002, 934.031
727.297, 842.283
728.591, 882.412
729.885, 857.135
731.179, 852.100
732.472, 816.752
733.766, 881.354
735.059, 969.447
736.352, 974.883
737.645, 983.432
738.937, 1122.811
740.230, 923.262
741.522, 1143.604
742.814, 1109.008
744.106, 1330.539
745.397, 1366.307
746.689, 1311.512
747.980, 1798.715
749.271, 1772.309
750.562, 2108.803
751.853, 1924.875
753.143, 2285.703
754.433, 2474.250
755.723, 2530.424
757.013, 3283.023
758.303, 3278.201
759.592, 3782.170
760.881, 3963.197
762.170, 4529.980
763.459, 5128.195
764.748, 5292.266
766.036, 6435.180
767.325, 6454.660
768.613, 7244.434
769.901, 7714.867
771.188, 7598.574
772.476, 7714.756
773.763, 6981.160
775.050, 6719.949
776.337, 5776.652
777.624, 5093.398
778.910, 4024.422
780.196, 3581.195
781.482, 2367.607
782.768, 1951.043
784.054, 1671.611
785.339, 1492.025
786.625, 960.881
787.910, 1232.641
789.195, 713.236
790.479, 739.279
791.764, 667.258
793.048, 521.102
794.332, 797.131
795.616, 909.273
796.900, 884.344
798.183, 722.684
799.467, 957.936
800.750, 855.102
802.033, 1036.113
803.316, 1605.891
804.598, 956.438
805.880, 1514.141
807.163, 1309.867
808.445, 1265.371
809.726, 810.512
811.008, 638.973
812.289, 386.844
813.570, 284.918
814.851, 136.922
816.132, 61.816
817.413, 1.703
818.693, 9.324
819.973, 101.652
821.253, 3.020
822.533, 136.277
823.813, 188.781
825.092, 45.965
826.371, 306.695
827.650, 213.301
828.929, 70.863
830.208, 155.969
831.486, 137.949
832.764, 73.027
834.042, 135.031
835.320, 25.383
836.598, 10.816
837.875, 86.328
839.152, 38.660
840.429, 266.266
841.706, 56.535
842.983, 106.227
844.259, 223.105
845.536, 126.027
846.812, 75.887
848.088, 91.547
849.363, 37.152
850.639, 238.062
851.914, 139.348
853.189, 63.246
854.464, 100.785
855.739, 57.977
857.013, 105.238
858.288, 36.363
859.562, 37.535
860.836, 41.242
862.110, 109.008
863.383, 101.664
864.656, 13.684
865.930, 232.922
867.203, 68.512
868.475, 258.074
869.748, 23.379
871.020, 102.129
872.292, 112.609
873.564, 3.918
874.836, 31.527
876.108, 89.047
877.379, 30.297
878.650, 83.434
879.922, 65.898
881.192, 42.852
882.463, 36.348
883.733, 203.512
885.004, 57.660
886.274, 88.805
887.544, 302.934
888.813, 31.945
890.083, 172.137
891.352, 203.211
892.621, 70.281
893.890, 53.332
895.159, 9.625
896.427, 20.391
897.695, 144.387
898.964, 254.367
900.232, 72.340
901.499, 70.305
902.767, 363.246
904.034, 95.188
905.301, 288.113
906.568, 375.035
907.835, 504.953
909.102, 208.859
910.368, 91.758
911.634, 204.648
912.900, 37.473
914.166, 567.363
915.432, 128.184
916.697, 12.008
917.962, 364.770
919.227, 199.535
920.492, 329.281
921.757, 161.020
923.021, 388.742
924.285, 325.457
925.550, 325.160
926.813, 251.867
928.077, 170.570
929.341, 233.270
930.604, 275.957
931.867, 2.652
933.130, 56.336
934.393, 426.027
935.655, 244.727
936.918, 583.430
938.180, 261.164
939.442, 206.895
940.703, 371.625
941.965, 497.363
943.226, 505.527
944.488, 539.938
945.749, 629.734
947.009, 482.535
948.270, 593.328
949.530, 860.113
950.791, 586.902
952.051, 800.688
953.311, 593.516
954.570, 950.340
955.830, 879.172
957.089, 593.012
958.348, 900.867
959.607, 865.734
960.866, 869.629
962.124, 947.598
963.383, 867.559
964.641, 798.520
965.899, 971.555
967.156, 965.035
968.414, 720.207
969.671, 1090.441
970.928, 673.184
972.185, 1294.566
973.442, 824.605
974.699, 1333.145
975.955, 1209.898
977.211, 1034.762
978.468, 1061.816
979.723, 1399.695
980.979, 1284.988
982.234, 1838.637
983.490, 913.559
984.745, 1461.945
986.000, 1714.203
987.254, 1103.320
988.509, 1931.160
989.763, 1360.664
991.017, 1703.980
992.271, 1529.355
993.525, 1525.773
994.779, 1957.758
996.032, 1520.066
997.285, 1911.969
998.538, 1314.469
999.791, 2121.094
1001.044, 1684.285
1002.296, 2189.992
1003.548, 1794.352
1004.800, 1803.562
1006.052, 1955.480
1007.304, 1761.062
1008.555, 1881.902
1009.807, 1897.684
1011.058, 1741.027
1012.309, 1938.246
1013.559, 1712.367
1014.810, 1748.523
1016.060, 2053.078
1017.310, 2171.406
1018.560, 1779.145
1019.810, 1995.461
1021.060, 2491.055
1022.309, 1912.938
1023.558, 2469.309
1024.807, 2006.289
1026.056, 2374.895
1027.305, 2334.059
1028.553, 2774.363
1029.801, 2759.398
1031.049, 2620.164
1032.297, 2581.891
1033.545, 2880.953
1034.793, 2837.258
1036.040, 2883.012
1037.287, 2951.906
1038.534, 2890.234
1039.781, 3209.617
1041.027, 3008.879
1042.274, 3159.207
1043.520, 3334.055
1044.766, 3130.828
1046.012, 3244.402
1047.257, 2998.035
1048.503, 3641.180
1049.748, 3086.461
1050.993, 3579.289
1052.238, 3591.105
1053.483, 3340.348
1054.727, 3393.254
1055.971, 3958.473
1057.216, 3622.672
1058.459, 3648.859
1059.703, 3856.027
1060.947, 3741.867
1062.190, 4199.996
1063.433, 4058.246
1064.676, 4242.352
1065.919, 3991.285
1067.162, 4899.887
1068.404, 4372.930
1069.646, 4570.195
1070.888, 5319.207
1072.130, 4824.195
1073.372, 5059.328
1074.613, 5392.391
1075.855, 5166.742
1077.096, 4989.715
1078.337, 5848.590
1079.578, 5545.441
1080.818, 5926.266
1082.059, 6342.789
1083.299, 7128.465
1084.539, 7415.797
1085.779, 9040.641
1087.018, 10092.852
1088.258, 10838.086
1089.497, 11005.133
1090.736, 11372.258
1091.975, 11710.055
1093.213, 12391.926
1094.452, 12638.141
1095.690, 12961.430
1096.928, 13298.977
1098.166, 13133.906
1099.404, 13325.699
1100.642, 12458.227
1101.879, 12644.086
1103.116, 12617.707
1104.353, 13098.945
1105.590, 13674.934
1106.827, 14521.340
1108.063, 14688.664
1109.299, 14937.688
1110.536, 13895.477
1111.771, 12212.918
1113.007, 9963.617
1114.243, 7658.727
1115.478, 5225.953
1116.713, 3782.629
1117.948, 2858.812
1119.183, 1398.816
1120.418, 1640.828
1121.652, 1976.035
1122.886, 2516.242
1124.120, 2041.953
1125.354, 1261.223
1126.588, 1313.668
1127.821, 641.293
1129.055, 1012.332
1130.288, 1042.160
1131.521, 791.703
1132.753, 486.863
1133.986, 230.824
1135.218, 810.504
1136.450, 270.031
1137.682, 457.098
1138.914, 313.160
1140.146, 56.094
1141.377, 394.617
1142.609, 142.750
1143.840, 79.445
1145.071, 286.457
1146.301, 154.441
1147.532, 163.074
1148.762, 9.930
1149.992, 25.145
1151.222, 90.902
1152.452, 164.133
1153.682, 97.754
1154.911, 150.562
1156.140, 196.066
1157.369, 147.273
1158.598, 241.742
1159.827, 232.742
1161.055, 106.508
1162.284, 314.977
1163.512, 265.355
1164.740, 398.320
1165.967, 492.277
1167.195, 661.828
1168.422, 532.531
1169.650, 603.137
1170.877, 303.113
1172.103, 317.312
1173.330, 415.762
1174.557, 580.102
1175.783, 544.496
1177.009, 59.340
1178.235, 544.641
1179.461, 555.012
1180.686, 548.422
1181.912, 876.023
1183.137, 612.086
1184.362, 753.215
1185.587, 810.133
1186.811, 1071.020
1188.036, 917.324
1189.260, 1150.855
1190.484, 981.910
1191.708, 1323.598
1192.932, 1092.367
1194.155, 1320.145
1195.378, 1247.090
1196.602, 1434.332
1197.825, 1190.250
1199.047, 1242.004
1200.270, 1109.965
1201.492, 1123.680
1202.715, 940.461
1203.937, 1273.316
1205.159, 1138.781
1206.380, 1351.352
1207.602, 569.926
1208.823, 742.285
1210.044, 787.535
1211.265, 569.422
1212.486, 765.441
1213.707, 489.297
1214.927, 612.383
1216.147, 453.004
1217.367, 688.098
1218.587, 590.465
1219.807, 236.680
1221.027, 489.746
1222.246, 177.621
1223.465, 263.340
1224.684, 747.922
1225.903, 683.137
1227.121, 696.477
1228.340, 432.457
1229.558, 457.203
1230.776, 149.766
1231.994, 2.172
1233.212, 167.414
1234.429, 154.883
1235.646, 192.809
1236.864, 168.574
1238.081, 58.180
1239.297, 453.625
1240.514, 313.910
1241.730, 392.039
1242.947, 269.969
1244.163, 171.738
1245.378, 195.344
1246.594, 250.758
1247.810, 142.871
1249.025, 451.188
1250.240, 5.906
1251.455, 119.352
1252.670, 235.930
1253.885, 10.359
1255.099, 3.363
1256.313, 238.961
1257.527, 188.957
1258.741, 356.750
1259.955, 292.617
1261.168, 210.215
1262.382, 119.504
1263.595, 205.184
1264.808, 99.828
1266.021, 72.398
1267.233, 6.574
1268.446, 184.398
1269.658, 114.586
1270.870, 175.164
1272.082, 12.844
1273.294, 48.160
1274.505, 30.449
1275.716, 115.719
1276.928, 304.324
1278.139, 202.664
1279.349, 491.234
1280.560, 563.406
1281.770, 224.008
1282.981, 98.484
1284.191, 23.402
1285.401, 163.539
1286.610, 70.000
1287.820, 336.016
1289.029, 101.105
1290.239, 241.688
1291.448, 119.859
1292.656, 161.988
1293.865, 294.496
1295.073, 216.973
1296.282, 315.527
1297.490, 113.418
1298.698, 357.445
1299.906, 193.363
1301.113, 84.164
1302.320, 120.871
1303.528, 204.504
1304.735, 38.066
1305.942, 171.566
1307.148, 402.012
1308.355, 122.414
1309.561, 517.773
1310.767, 331.098
1311.973, 561.379
1313.179, 107.531
1314.384, 597.398
1315.590, 162.820
1316.795, 447.613
1318.000, 218.070
1319.205, 409.195
1320.410, 416.227
1321.614, 62.711
1322.819, 648.688
1324.023, 227.809
1325.227, 613.480
1326.431, 565.875
1327.634, 65.312
1328.838, 255.719
1330.041, 96.559
1331.244, 663.742
1332.447, 126.176
1333.650, 139.137
1334.852, 527.043
1336.055, 291.410
1337.257, 498.504
1338.459, 236.797
1339.661, 733.492
1340.862, 545.582
1342.064, 595.645
1343.265, 614.469
1344.466, 456.133
1345.667, 675.523
1346.868, 614.902
1348.068, 648.121
1349.269, 343.109
1350.469, 629.324
1351.669, 459.035
1352.869, 635.715
1354.069, 783.113
1355.268, 304.828
1356.468, 753.691
1357.667, 622.957
1358.866, 379.695
1360.065, 705.781
1361.263, 104.773
1362.462, 528.977
1363.660, 770.875
1364.858, 637.156
1366.056, 747.672
1367.254, 737.797
1368.451, 519.746
1369.649, 178.781
1370.846, 752.816
1372.043, 292.242
1373.240, 623.840
1374.436, 541.434
1375.633, 418.938
1376.829, 322.000
1378.025, 216.777
1379.221, 461.914
1380.417, 434.914
1381.613, 433.246
1382.808, 628.371
1384.003, 491.855
1385.199, 431.883
1386.393, 360.234
1387.588, 946.441
1388.783, 504.828
1389.977, 622.977
1391.171, 211.652
1392.365, 369.359
1393.559, 342.312
1394.753, 103.570
1395.946, 515.305
1397.140, 525.258
1398.333, 332.016
1399.526, 159.961
1400.719, 316.832
1401.911, 341.520
1403.104, 480.684
1404.296, 149.105
1405.488, 439.867
1406.680, 4.262
1407.872, 290.012
1409.063, 0.000
##END=



