##NAMES=Meionite
##RRUFFID=R040169
##IDEAL CHEMISTRY=Ca_4_Al_6_Si_6_O_24_(CO_3_)
##LOCALITY=Black Hills, South Dakota, USA
##OWNER=RRUFF
##SOURCE=University of Arizona Mineral Museum
##DESCRIPTION=White massive
##STATUS=The identification of this mineral has been confirmed by X-ray diffraction and chemical analysis
##URL=rruff.info/R040169
##MEASURED CHEMISTRY=(Ca_0.73_Na_0.24_K_0.03_)_4_(Si_0.58_Al_0.41_)_12_O_24_((CO_3_)_0.90_Cl_0.10_)
##PIN_ID=L00216
##ORIENTATION=Laser parallel to a* (1 0 0). Fiducial mark perpendicular to laser is parallel to c [0 0 1]
102.428, 0.000
103.820, 41.541
105.212, 11.355
106.604, 50.782
107.995, 115.762
109.387, 76.886
110.777, 200.062
112.168, 372.705
113.559, 642.954
114.949, 819.368
116.339, 870.844
117.729, 966.700
119.119, 906.506
120.508, 809.776
121.897, 636.027
123.286, 854.815
124.675, 505.753
126.063, 838.510
127.452, 732.817
128.840, 938.475
130.228, 895.582
131.615, 1044.512
133.003, 1345.397
134.390, 1247.935
135.777, 1571.780
137.164, 1706.654
138.550, 1882.338
139.937, 2028.651
141.323, 2235.443
142.709, 2502.598
144.094, 2689.984
145.480, 2907.615
146.865, 3145.352
148.250, 3353.186
149.635, 3581.090
151.019, 3709.043
152.403, 3917.026
153.788, 3695.107
155.171, 3993.886
156.555, 3724.708
157.939, 3608.586
159.322, 3465.589
160.705, 3265.449
162.088, 3076.928
163.470, 2708.058
164.853, 2518.385
166.235, 2227.805
167.617, 1906.369
168.998, 1834.132
170.380, 1401.139
171.761, 1307.434
173.142, 853.052
174.523, 668.027
175.904, 552.388
177.284, 496.160
178.664, 239.369
180.044, 32.038
181.424, 144.191
182.803, 25.849
184.183, 227.030
185.562, 157.773
186.940, 228.176
188.319, 398.293
189.698, 548.169
191.076, 696.862
192.454, 883.813
193.831, 1036.601
195.209, 1175.736
196.586, 1334.721
197.963, 1313.562
199.340, 1342.271
200.717, 1540.850
202.093, 1339.307
203.470, 1468.497
204.846, 1340.969
206.221, 1257.158
207.597, 1355.371
208.972, 1129.043
210.347, 1382.169
211.722, 1374.827
213.097, 1258.368
214.472, 1417.430
215.846, 1571.977
217.220, 1798.548
218.594, 1919.787
219.967, 2142.479
221.341, 2113.127
222.714, 2305.576
224.087, 2332.991
225.460, 2565.448
226.832, 2865.004
228.204, 2964.346
229.577, 3155.543
230.948, 3322.986
232.320, 3382.275
233.692, 3431.541
235.063, 3480.776
236.434, 3550.290
237.805, 3635.397
239.175, 3738.271
240.545, 3887.339
241.916, 4096.334
243.286, 4355.291
244.655, 4654.103
246.025, 5342.815
247.394, 5621.426
248.763, 6319.939
250.132, 7138.352
251.501, 7686.664
252.869, 8764.880
254.237, 8963.009
255.605, 9911.042
256.973, 10148.989
258.340, 10236.855
259.708, 10414.635
261.075, 9472.323
262.442, 9249.929
263.808, 7927.459
265.175, 7214.912
266.541, 6172.289
267.907, 5012.603
269.273, 4323.523
270.639, 3484.805
272.004, 3106.870
273.369, 2319.324
274.734, 2412.085
276.099, 2055.100
277.463, 1888.316
278.828, 1741.703
280.192, 1575.248
281.556, 1528.909
282.919, 1442.662
284.283, 1466.492
285.646, 1510.381
287.009, 1638.566
288.372, 1968.280
289.734, 2032.269
291.097, 2436.268
292.459, 2700.295
293.821, 2994.322
295.183, 3248.344
296.544, 2802.373
297.905, 2606.374
299.266, 1860.376
300.627, 1354.331
301.988, 1148.235
303.348, 652.148
304.709, 645.997
306.069, 329.812
307.428, 353.554
308.788, 217.223
310.147, 100.811
311.507, 65.695
312.865, 102.332
314.224, 60.891
315.583, 225.988
316.941, 33.023
318.299, 190.187
319.657, 177.517
321.015, 205.026
322.372, 182.741
323.729, 190.323
325.086, 268.706
326.443, 237.056
327.800, 185.654
329.156, 304.484
330.512, 153.576
331.868, 292.887
333.224, 162.450
334.579, 182.159
335.935, 102.154
337.290, 147.656
338.645, 57.793
339.999, 248.273
341.354, 188.390
342.708, 238.021
344.062, 617.714
345.416, 538.062
346.769, 867.271
348.123, 947.598
349.476, 1316.494
350.829, 1436.348
352.182, 1634.894
353.534, 2063.649
354.887, 2152.004
356.239, 2660.261
357.591, 2568.426
358.942, 2816.491
360.294, 2914.463
361.645, 2862.335
362.996, 2760.110
364.347, 2537.792
365.698, 2435.375
367.048, 2032.862
368.398, 1950.234
369.748, 1797.478
371.098, 1474.486
372.448, 1511.243
373.797, 1287.661
375.146, 1223.697
376.495, 1279.353
377.844, 1254.601
379.192, 1229.460
380.540, 1123.924
381.889, 1067.998
383.236, 1171.749
384.584, 1285.342
385.932, 1388.812
387.279, 1393.520
388.626, 1375.471
389.973, 1358.691
391.319, 1401.846
392.666, 1354.933
394.012, 1407.953
395.358, 1440.905
396.704, 1323.788
398.049, 1346.605
399.394, 1379.353
400.740, 1312.569
402.084, 1415.657
403.429, 1468.828
404.774, 1601.369
406.118, 1554.157
407.462, 1757.448
408.806, 1989.942
410.150, 1943.441
411.493, 2406.647
412.836, 2578.892
414.179, 3021.639
415.522, 3323.562
416.865, 3626.855
418.207, 4039.398
419.549, 4251.773
420.891, 4875.242
422.233, 4808.045
423.575, 5040.559
424.916, 5073.578
426.257, 4565.805
427.598, 4589.375
428.939, 3951.402
430.279, 3672.570
431.619, 3284.250
432.959, 2877.094
434.299, 3011.193
435.639, 2563.758
436.978, 2897.725
438.318, 3029.961
439.657, 3102.959
440.996, 3759.562
442.334, 4102.422
443.673, 5004.912
445.011, 5837.469
446.349, 7390.578
447.687, 9383.328
449.024, 11134.979
450.361, 14018.055
451.699, 15049.902
453.036, 16337.480
454.372, 16549.846
455.709, 14632.559
457.045, 14340.572
458.381, 13362.051
459.717, 12941.852
461.053, 12372.949
462.388, 11643.682
463.724, 10989.043
465.059, 9698.660
466.394, 8825.250
467.728, 7723.518
469.063, 6752.117
470.397, 6149.400
471.731, 5193.746
473.065, 4689.957
474.398, 4013.916
475.732, 3886.760
477.065, 3287.057
478.398, 2813.852
479.731, 2992.553
481.063, 3170.104
482.396, 2885.195
483.728, 2194.600
485.060, 1881.574
486.391, 1842.260
487.723, 1464.637
489.054, 1369.867
490.385, 1397.502
491.716, 1103.809
493.047, 1192.061
494.377, 838.441
495.708, 912.984
497.038, 843.254
498.368, 704.309
499.697, 586.543
501.027, 639.758
502.356, 722.775
503.685, 675.732
505.014, 491.711
506.342, 737.936
507.671, 444.227
508.999, 760.578
510.327, 507.973
511.655, 843.859
512.982, 720.250
514.310, 876.725
515.637, 1302.744
516.964, 1339.186
518.291, 1784.541
519.617, 2380.408
520.944, 2915.736
522.270, 3770.709
523.596, 4916.441
524.921, 6371.303
526.247, 8316.922
527.572, 10882.086
528.897, 13357.170
530.222, 14931.543
531.547, 16195.883
532.871, 14770.354
534.196, 13404.336
535.520, 11228.180
536.844, 9041.875
538.167, 7405.398
539.491, 6099.475
540.814, 4972.855
542.137, 4146.129
543.460, 3249.691
544.783, 3032.857
546.105, 2316.062
547.427, 2239.096
548.749, 1892.055
550.071, 1504.939
551.393, 1407.746
552.714, 840.479
554.035, 973.139
555.356, 1105.721
556.677, 798.230
557.998, 750.666
559.318, 603.025
560.638, 615.303
561.958, 577.500
563.278, 709.633
564.597, 631.684
565.917, 493.666
567.236, 665.619
568.555, 407.488
569.874, 459.328
571.192, 671.082
572.511, 532.762
573.829, 724.355
575.147, 365.875
576.464, 527.363
577.782, 548.766
579.099, 270.086
580.416, 411.346
581.733, 462.512
583.050, 323.596
584.366, 494.590
585.683, 155.498
586.999, 506.352
588.315, 807.115
589.630, 547.818
590.946, 248.436
592.261, 18.963
593.576, 269.381
594.891, 9.705
596.206, 299.924
597.520, 100.049
598.834, 49.928
600.148, 89.973
601.462, 139.766
602.776, 99.463
604.089, 19.064
605.402, 48.555
606.715, 237.943
608.028, 2.762
609.341, 136.422
610.653, 84.490
611.965, 24.441
613.277, 6.730
614.589, 98.014
615.901, 90.547
617.212, 130.994
618.523, 127.289
619.834, 185.477
621.145, 226.436
622.456, 271.426
623.766, 100.803
625.076, 166.812
626.386, 94.338
627.696, 71.771
629.006, 219.119
630.315, 76.396
631.624, 33.637
632.933, 90.846
634.242, 82.010
635.551, 185.365
636.859, 27.570
638.167, 109.475
639.475, 227.416
640.783, 205.168
642.090, 8.008
643.398, 159.492
644.705, 176.988
646.012, 214.396
647.318, 196.680
648.625, 340.475
649.931, 128.467
651.237, 97.012
652.543, 195.252
653.849, 12.830
655.155, 354.055
656.460, 58.129
657.765, 229.057
659.070, 17.910
660.375, 185.283
661.679, 142.705
662.984, 16.033
664.288, 272.256
665.592, 309.359
666.895, 76.537
668.199, 413.129
669.502, 271.109
670.805, 228.588
672.108, 316.379
673.411, 194.408
674.713, 430.590
676.016, 288.531
677.318, 395.035
678.620, 466.932
679.921, 263.508
681.223, 450.309
682.524, 247.422
683.825, 334.295
685.126, 350.043
686.427, 514.824
687.727, 500.951
689.028, 447.686
690.328, 543.977
691.628, 564.809
692.927, 581.422
694.227, 606.980
695.526, 456.111
696.825, 741.920
698.124, 619.152
699.423, 525.582
700.721, 871.291
702.020, 580.021
703.318, 905.398
704.616, 820.719
705.913, 726.102
707.211, 920.717
708.508, 826.066
709.805, 850.812
711.102, 895.961
712.399, 1061.377
713.695, 1075.613
714.992, 1079.723
716.288, 1204.258
717.584, 1117.760
718.879, 1235.154
720.175, 1488.244
721.470, 1224.105
722.765, 1459.814
724.060, 1692.166
725.355, 1558.299
726.649, 1691.021
727.944, 1904.957
729.238, 1968.014
730.532, 2001.688
731.825, 2187.199
733.119, 2589.129
734.412, 2501.771
735.705, 2590.656
736.998, 2971.291
738.291, 2843.682
739.584, 3444.732
740.876, 3367.260
742.168, 3506.680
743.460, 4247.732
744.752, 3974.059
746.043, 4715.234
747.334, 4925.699
748.626, 5164.889
749.916, 5924.098
751.207, 5943.139
752.498, 6913.977
753.788, 7092.184
755.078, 7509.949
756.368, 8627.934
757.658, 8417.432
758.947, 9686.594
760.237, 9573.832
761.526, 9772.373
762.815, 10080.908
764.104, 9408.746
765.392, 9337.156
766.680, 8339.062
767.969, 7686.906
769.257, 7234.008
770.544, 6064.988
771.832, 5262.896
773.119, 4761.895
774.406, 4229.473
775.693, 3407.090
776.980, 2699.637
778.267, 2617.215
779.553, 2257.570
780.839, 1834.574
782.125, 1661.326
783.411, 1347.799
784.697, 1335.057
785.982, 1321.439
787.267, 647.432
788.552, 994.193
789.837, 495.445
791.122, 621.998
792.406, 766.465
793.690, 342.566
794.974, 469.668
796.258, 492.971
797.542, 407.922
798.825, 413.941
800.108, 439.965
801.391, 364.010
802.674, 222.027
803.957, 308.504
805.239, 184.014
806.522, 239.309
807.804, 414.932
809.085, 20.410
810.367, 225.682
811.649, 237.330
812.930, 2.736
814.211, 297.062
815.492, 222.109
816.772, 83.104
818.053, 550.875
819.333, 25.975
820.613, 281.145
821.893, 145.264
823.173, 80.711
824.452, 105.479
825.732, 79.984
827.011, 24.773
828.290, 418.961
829.568, 14.066
830.847, 298.484
832.125, 56.725
833.403, 238.230
834.681, 162.258
835.959, 66.986
837.236, 100.785
838.514, 125.137
839.791, 111.148
841.068, 213.352
842.345, 47.713
843.621, 131.773
844.898, 53.846
846.174, 30.486
847.450, 244.809
848.726, 30.857
850.001, 142.750
851.277, 3.104
852.552, 10.945
853.827, 104.590
855.102, 31.527
856.376, 142.150
857.651, 135.850
858.925, 99.467
860.199, 263.008
861.473, 66.479
862.746, 189.865
864.020, 73.184
865.293, 16.422
866.566, 249.578
867.839, 92.662
869.112, 175.666
870.384, 248.602
871.656, 38.535
872.928, 404.221
874.200, 13.086
875.472, 180.488
876.744, 541.928
878.015, 195.719
879.286, 146.441
880.557, 48.541
881.828, 100.549
883.098, 112.482
884.369, 195.715
885.639, 305.924
886.909, 137.502
888.178, 100.998
889.448, 440.361
890.717, 51.645
891.987, 212.854
893.256, 23.998
894.524, 124.928
895.793, 336.035
897.061, 43.072
898.330, 307.736
899.598, 158.479
900.865, 119.160
902.133, 439.781
903.401, 100.348
904.668, 40.861
905.935, 451.314
907.202, 18.279
908.468, 482.082
909.735, 122.393
911.001, 142.648
912.267, 422.852
913.533, 153.010
914.799, 373.113
916.064, 153.168
917.330, 263.174
918.595, 403.131
919.860, 183.066
921.124, 232.953
922.389, 382.797
923.653, 242.623
924.918, 337.631
926.182, 322.168
927.445, 351.889
928.709, 511.562
929.972, 501.254
931.236, 420.895
932.499, 780.523
933.761, 380.104
935.024, 629.643
936.286, 349.137
937.549, 398.586
938.811, 737.994
940.073, 287.361
941.334, 1106.684
942.596, 485.715
943.857, 574.977
945.118, 994.209
946.379, 252.500
947.640, 991.281
948.900, 460.229
950.161, 688.785
951.421, 917.334
952.681, 405.953
953.940, 964.215
955.200, 861.848
956.459, 759.805
957.719, 857.207
958.978, 534.809
960.236, 693.115
961.495, 977.719
962.753, 505.174
964.012, 1132.680
965.270, 638.645
966.527, 786.350
967.785, 1063.717
969.043, 794.295
970.300, 772.896
971.557, 1229.279
972.814, 896.801
974.071, 843.732
975.327, 1290.369
976.583, 907.088
977.840, 903.682
979.095, 1229.922
980.351, 1187.895
981.607, 863.998
982.862, 1301.424
984.117, 935.619
985.372, 1212.758
986.627, 1129.566
987.882, 1155.959
989.136, 1152.480
990.390, 1469.102
991.644, 1277.508
992.898, 1304.465
994.152, 1591.148
995.405, 1457.750
996.659, 1959.715
997.912, 1336.148
999.165, 1643.199
1000.417, 2037.332
1001.670, 1673.957
1002.922, 1839.070
1004.174, 2075.941
1005.426, 1662.410
1006.678, 2265.773
1007.930, 1572.410
1009.181, 2098.969
1010.432, 2306.441
1011.683, 1883.262
1012.934, 2509.262
1014.185, 2297.371
1015.435, 2413.352
1016.685, 3048.934
1017.935, 2476.152
1019.185, 3272.086
1020.435, 2988.949
1021.684, 3035.398
1022.934, 3637.695
1024.183, 3105.586
1025.432, 3319.227
1026.680, 3722.328
1027.929, 2859.332
1029.177, 4021.004
1030.425, 3407.938
1031.673, 3370.281
1032.921, 3865.691
1034.169, 3228.305
1035.416, 3646.023
1036.663, 3772.223
1037.911, 3457.195
1039.157, 4223.785
1040.404, 3535.520
1041.650, 3980.387
1042.897, 4436.371
1044.143, 3412.051
1045.389, 4425.824
1046.634, 3660.348
1047.880, 3786.254
1049.125, 4021.879
1050.371, 3328.121
1051.615, 3963.113
1052.860, 3899.062
1054.105, 3235.137
1055.349, 3751.699
1056.593, 3168.512
1057.837, 3155.125
1059.081, 3521.539
1060.325, 2928.148
1061.568, 3764.137
1062.812, 2900.648
1064.055, 2986.355
1065.298, 3942.754
1066.540, 3119.098
1067.783, 3315.391
1069.025, 3681.648
1070.267, 3157.875
1071.509, 3914.074
1072.751, 3560.266
1073.993, 2866.441
1075.234, 3772.629
1076.475, 3298.812
1077.716, 3544.977
1078.957, 3481.121
1080.198, 3267.254
1081.438, 4473.359
1082.679, 3939.461
1083.919, 4145.555
1085.159, 5261.629
1086.398, 4687.750
1087.638, 5763.898
1088.877, 5380.062
1090.116, 5526.250
1091.355, 6052.453
1092.594, 5028.664
1093.833, 5264.891
1095.071, 4991.113
1096.309, 4577.312
1097.547, 4783.484
1098.785, 4789.645
1100.023, 4015.781
1101.260, 4851.895
1102.498, 3868.055
1103.735, 3374.344
1104.972, 3590.852
1106.208, 2287.492
1107.445, 2214.301
1108.681, 1401.410
1109.918, 1438.660
1111.154, 1596.125
1112.389, 673.656
1113.625, 991.305
1114.860, 999.027
1116.096, 726.820
1117.331, 924.684
1118.566, 772.598
1119.800, 510.555
1121.035, 978.570
1122.269, 716.660
1123.503, 1224.816
1124.737, 833.051
1125.971, 541.363
1127.205, 899.770
1128.438, 258.266
1129.671, 216.867
1130.904, 865.582
1132.137, 45.582
1133.370, 323.387
1134.602, 642.488
1135.834, 231.742
1137.066, 551.152
1138.298, 149.270
1139.530, 680.500
1140.762, 590.477
1141.993, 90.684
1143.224, 511.113
1144.455, 431.770
1145.686, 122.637
1146.917, 1033.719
1148.147, 35.027
1149.377, 256.578
1150.607, 858.391
1151.837, 10.484
1153.067, 642.879
1154.296, 475.602
1155.526, 518.684
1156.755, 707.496
1157.984, 30.531
1159.213, 738.172
1160.441, 447.664
1161.670, 16.605
1162.898, 639.059
1164.126, 569.871
1165.354, 76.281
1166.581, 869.516
1167.809, 61.488
1169.036, 417.402
1170.263, 701.781
1171.490, 15.188
1172.717, 640.156
1173.943, 186.641
1175.170, 193.102
1176.396, 413.973
1177.622, 1.184
1178.848, 0.000
##END=



