##NAMES=Meionite
##RRUFFID=R040169
##IDEAL CHEMISTRY=Ca_4_Al_6_Si_6_O_24_(CO_3_)
##LOCALITY=Black Hills, South Dakota, USA
##OWNER=RRUFF
##SOURCE=University of Arizona Mineral Museum
##DESCRIPTION=White massive
##STATUS=The identification of this mineral has been confirmed by X-ray diffraction and chemical analysis
##URL=rruff.info/R040169
##MEASURED CHEMISTRY=(Ca_0.73_Na_0.24_K_0.03_)_4_(Si_0.58_Al_0.41_)_12_O_24_((CO_3_)_0.90_Cl_0.10_)
##PIN_ID=L00447
##ORIENTATION=Laser parallel to c* (0 0 1). Fiducial mark perpendicular to laser is parallel to -a [-1 0 0]
87.101, 0.000
88.496, 98.402
89.890, 17.124
91.284, 12.737
92.678, 107.706
94.071, 265.061
95.465, 263.141
96.858, 257.771
98.251, 385.938
99.644, 605.298
101.036, 904.002
102.428, 1110.626
103.820, 1544.276
105.212, 2064.210
106.604, 2499.679
107.995, 3239.984
109.387, 3584.505
110.777, 4002.692
112.168, 4414.094
113.559, 4578.311
114.949, 4375.015
116.339, 4044.080
117.729, 3855.862
119.119, 3260.615
120.508, 2908.025
121.897, 2727.665
123.286, 2579.169
124.675, 2232.244
126.063, 2346.643
127.452, 2122.163
128.840, 2178.635
130.228, 2375.902
131.615, 2293.843
133.003, 2362.367
134.390, 2351.411
135.777, 2430.975
137.164, 2570.935
138.550, 2601.253
139.937, 2881.891
141.323, 2832.818
142.709, 3054.037
144.094, 3346.600
145.480, 3312.510
146.865, 3782.554
148.250, 4176.990
149.635, 4584.393
151.019, 5342.266
152.403, 5979.536
153.788, 6406.038
155.171, 7371.737
156.555, 8166.684
157.939, 8810.924
159.322, 9564.490
160.705, 9957.422
162.088, 10299.744
163.470, 10441.488
164.853, 10292.690
166.235, 9933.407
167.617, 9443.679
168.998, 8953.471
170.380, 8282.781
171.761, 7611.583
173.142, 6829.969
174.523, 6068.027
175.904, 5685.812
177.284, 5183.366
178.664, 4890.719
180.044, 4407.896
181.424, 4225.499
182.803, 4024.121
184.183, 4110.854
185.562, 3957.473
186.940, 4183.990
188.319, 4270.409
189.698, 4306.734
191.076, 4542.971
192.454, 4479.118
193.831, 4845.180
195.209, 4841.156
196.586, 4857.052
197.963, 4774.949
199.340, 4769.191
200.717, 4759.829
202.093, 4713.064
203.470, 4672.470
204.846, 4386.508
206.221, 4549.344
207.597, 4416.695
208.972, 4365.898
210.347, 4454.930
211.722, 4401.574
213.097, 4321.611
214.472, 4049.433
215.846, 4100.796
217.220, 4060.971
218.594, 3899.184
219.967, 3985.712
221.341, 3962.125
222.714, 3978.554
224.087, 4064.982
225.460, 4111.402
226.832, 4217.807
228.204, 4184.186
229.577, 4230.516
230.948, 4246.783
232.320, 4112.970
233.692, 3989.066
235.063, 3855.072
236.434, 3717.758
237.805, 3617.425
239.175, 3452.550
240.545, 3418.649
241.916, 3325.005
243.286, 3231.521
244.655, 3319.150
246.025, 3126.527
247.394, 3322.815
248.763, 3408.201
250.132, 3593.308
251.501, 3658.355
252.869, 3973.580
254.237, 3837.735
255.605, 4052.557
256.973, 4009.313
258.340, 4186.979
259.708, 4235.307
261.075, 3804.197
262.442, 3713.566
263.808, 3173.346
265.175, 2703.484
266.541, 2123.949
267.907, 1574.685
269.273, 1220.187
270.639, 854.820
272.004, 608.307
273.369, 409.890
274.734, 311.611
276.099, 263.459
277.463, 305.406
278.828, 427.438
280.192, 459.546
281.556, 711.713
282.919, 833.924
284.283, 766.163
285.646, 1088.416
287.009, 1120.673
288.372, 1512.923
289.734, 1755.159
291.097, 1907.375
292.459, 2229.562
293.821, 2421.717
295.183, 2643.835
296.544, 2665.912
297.905, 2537.949
299.266, 2209.944
300.627, 1981.892
301.988, 1503.792
303.348, 1175.658
304.709, 1007.474
306.069, 549.236
307.428, 380.942
308.788, 212.582
310.147, 36.859
311.507, 53.446
312.865, 171.204
314.224, 185.173
315.583, 289.365
316.941, 279.799
318.299, 295.480
319.657, 404.410
321.015, 292.613
322.372, 441.062
323.729, 395.794
325.086, 446.794
326.443, 458.074
327.800, 397.638
329.156, 428.469
330.512, 323.566
331.868, 277.909
333.224, 170.481
334.579, 172.234
335.935, 1.812
337.290, 154.728
338.645, 102.520
339.999, 338.216
341.354, 402.805
342.708, 416.293
344.062, 560.072
345.416, 450.110
346.769, 784.026
348.123, 617.497
349.476, 858.520
350.829, 1086.141
352.182, 1023.313
353.534, 1480.375
354.887, 1656.652
356.239, 2022.275
357.591, 2307.869
358.942, 2633.133
360.294, 2828.291
361.645, 2843.336
362.996, 2928.188
364.347, 2922.734
365.698, 2746.875
367.048, 2500.576
368.398, 2313.799
369.748, 2134.946
371.098, 1938.650
372.448, 1800.300
373.797, 1611.525
375.146, 1462.421
376.495, 1473.148
377.844, 1413.758
379.192, 1324.280
380.540, 1364.722
381.889, 1225.093
383.236, 1105.396
384.584, 1155.633
385.932, 1115.800
387.279, 1075.898
388.626, 1035.926
389.973, 1005.881
391.319, 915.767
392.666, 955.576
394.012, 895.314
395.358, 946.058
396.704, 856.102
398.049, 756.911
399.394, 777.607
400.740, 768.144
402.084, 810.128
403.429, 881.196
404.774, 936.563
406.118, 983.361
407.462, 1125.051
408.806, 1215.855
410.150, 1348.075
411.493, 1437.934
412.836, 1588.359
414.179, 1839.011
415.522, 1959.349
416.865, 2200.201
418.207, 2440.833
419.549, 2670.854
420.891, 3071.178
422.233, 3342.203
423.575, 3372.157
424.916, 3431.105
426.257, 3531.216
427.598, 3403.517
428.939, 3352.998
430.279, 3385.476
431.619, 3519.932
432.959, 3259.304
434.299, 3822.713
435.639, 3682.160
436.978, 3972.462
438.318, 4610.874
439.657, 5068.906
440.996, 5987.531
442.334, 7035.300
443.673, 8502.261
445.011, 10338.629
446.349, 12844.890
447.687, 15991.029
449.024, 18877.057
450.361, 22732.971
451.699, 25548.771
453.036, 27494.453
454.372, 28520.018
455.709, 27045.467
457.045, 26861.006
458.381, 25507.033
459.717, 24443.467
461.053, 24169.543
462.388, 23065.730
463.724, 21765.184
465.059, 19831.424
466.394, 17988.070
467.728, 15763.616
469.063, 14008.776
470.397, 12263.220
471.731, 10298.868
473.065, 9022.755
474.398, 7879.791
475.732, 6984.627
477.065, 6294.488
478.398, 5412.459
479.731, 5089.596
481.063, 4549.677
482.396, 4175.645
483.728, 3712.549
485.060, 3171.889
486.391, 2987.796
487.723, 2482.561
489.054, 2200.652
490.385, 2037.908
491.716, 1760.445
493.047, 1565.861
494.377, 1262.505
495.708, 1193.801
497.038, 1080.743
498.368, 829.613
499.697, 794.192
501.027, 665.526
502.356, 698.139
503.685, 551.881
505.014, 463.964
506.342, 465.581
507.671, 308.164
508.999, 389.615
510.327, 222.522
511.655, 304.972
512.982, 306.764
514.310, 468.485
515.637, 599.427
516.964, 580.008
518.291, 750.503
519.617, 1090.918
520.944, 1341.255
522.270, 1881.525
523.596, 2441.718
524.921, 3261.842
526.247, 4291.883
527.572, 5622.045
528.897, 6922.400
530.222, 8223.268
531.547, 9394.039
532.871, 9454.723
534.196, 9105.361
535.520, 8086.048
536.844, 6747.041
538.167, 5657.572
539.491, 4548.020
540.814, 3698.800
542.137, 2858.877
543.460, 2408.921
544.783, 2018.378
546.105, 1517.793
547.427, 1476.798
548.749, 1285.803
550.071, 844.956
551.393, 743.275
552.714, 601.678
554.035, 339.743
555.356, 487.928
556.677, 285.647
557.998, 292.859
559.318, 130.062
560.638, 127.124
561.958, 144.259
563.278, 121.592
564.597, 99.055
565.917, 6.620
567.236, 124.335
568.555, 81.952
569.874, 29.504
571.192, 156.960
572.511, 84.321
573.829, 141.617
575.147, 28.819
576.464, 45.938
577.782, 162.958
579.099, 69.883
580.416, 3.268
581.733, 113.478
583.050, 330.130
584.366, 36.717
585.683, 36.794
586.999, 129.604
588.315, 44.094
589.630, 77.915
590.946, 78.125
592.261, 65.933
593.576, 19.874
594.891, 24.421
596.206, 61.193
597.520, 156.731
598.834, 92.179
600.148, 267.549
601.462, 432.827
602.776, 588.023
604.089, 603.141
605.402, 648.179
606.715, 883.140
608.028, 848.019
609.341, 912.821
610.653, 707.545
611.965, 652.190
613.277, 546.770
614.589, 481.302
615.901, 335.751
617.212, 210.122
618.523, 264.402
619.834, 208.597
621.145, 57.300
622.456, 136.682
623.766, 10.569
625.076, 164.360
626.386, 48.058
627.696, 8.336
629.006, 5.176
630.315, 88.641
631.624, 17.931
632.933, 105.479
634.242, 41.111
635.551, 162.300
636.859, 45.736
638.167, 19.201
639.475, 212.716
640.783, 76.267
642.090, 99.882
643.398, 83.608
644.705, 117.348
646.012, 161.158
647.318, 24.846
648.625, 79.747
649.931, 14.668
651.237, 100.598
652.543, 74.845
653.849, 99.924
655.155, 4.154
656.460, 148.589
657.765, 6.633
659.070, 27.901
660.375, 52.955
661.679, 52.207
662.984, 29.414
664.288, 102.949
665.592, 176.654
666.895, 40.529
668.199, 153.108
669.502, 286.445
670.805, 279.987
672.108, 444.121
673.411, 799.055
674.713, 994.244
676.016, 1220.592
677.318, 1327.268
678.620, 1116.386
679.921, 882.934
681.223, 670.686
682.524, 685.434
683.825, 477.197
685.126, 422.967
686.427, 304.241
687.727, 307.521
689.028, 311.607
690.328, 304.832
691.628, 280.832
692.927, 198.169
694.227, 291.691
695.526, 294.888
696.825, 198.344
698.124, 353.605
699.423, 348.343
700.721, 470.890
702.020, 463.184
703.318, 547.602
704.616, 529.600
705.913, 471.599
707.211, 603.893
708.508, 605.851
709.805, 577.927
711.102, 648.984
712.399, 649.175
713.695, 679.869
714.992, 681.759
716.288, 741.222
717.584, 700.351
718.879, 720.217
720.175, 699.055
721.470, 800.226
722.765, 845.920
724.060, 873.755
725.355, 859.219
726.649, 917.728
727.944, 969.792
729.238, 1081.114
730.532, 1119.493
731.825, 1170.740
733.119, 1228.036
734.412, 1405.912
735.705, 1258.841
736.998, 1485.724
738.291, 1523.693
739.584, 1737.286
740.876, 1585.062
742.168, 1566.316
743.460, 2053.928
744.752, 1808.163
746.043, 2271.146
747.334, 2317.758
748.626, 2250.234
749.916, 2526.243
751.207, 2565.644
752.498, 2966.297
753.788, 3102.945
755.078, 3203.193
756.368, 3649.799
757.658, 3877.365
758.947, 4235.460
760.237, 4433.568
761.526, 4771.480
762.815, 5238.611
764.104, 5096.689
765.392, 5443.889
766.680, 5141.646
767.969, 4911.469
769.257, 4986.114
770.544, 4612.162
771.832, 4019.977
773.119, 3704.972
774.406, 3311.376
775.693, 2786.367
776.980, 2198.122
778.267, 1972.608
779.553, 1606.465
780.839, 1370.362
782.125, 1163.922
783.411, 1176.809
784.697, 1150.916
785.982, 1035.366
787.267, 817.588
788.552, 1111.140
789.837, 821.757
791.122, 845.302
792.406, 878.216
793.690, 649.661
794.974, 753.403
796.258, 745.006
797.542, 617.064
798.825, 708.446
800.108, 669.724
801.391, 602.011
802.674, 471.977
803.957, 402.772
805.239, 453.653
806.522, 269.205
807.804, 319.626
809.085, 164.960
810.367, 194.694
811.649, 236.703
812.930, 156.344
814.211, 254.986
815.492, 82.353
816.772, 18.187
818.053, 341.021
819.333, 120.423
820.613, 140.013
821.893, 258.913
823.173, 138.171
824.452, 77.867
825.732, 77.416
827.011, 37.527
828.290, 11.583
829.568, 5.661
830.847, 12.104
832.125, 52.264
833.403, 12.590
834.681, 33.058
835.959, 16.317
837.236, 75.573
838.514, 65.502
839.791, 156.977
841.068, 180.789
842.345, 28.445
843.621, 145.991
844.898, 16.612
846.174, 39.476
847.450, 47.163
848.726, 74.064
850.001, 30.855
851.277, 12.883
852.552, 6.125
853.827, 110.477
855.102, 147.469
856.376, 5.691
857.651, 171.353
858.925, 148.202
860.199, 74.689
861.473, 111.425
862.746, 78.043
864.020, 59.309
865.293, 65.138
866.566, 47.178
867.839, 73.320
869.112, 109.349
870.384, 165.267
871.656, 41.076
872.928, 186.771
874.200, 7.639
875.472, 92.180
876.744, 363.110
878.015, 81.698
879.286, 63.326
880.557, 168.241
881.828, 76.950
883.098, 137.694
884.369, 27.767
885.639, 246.636
886.909, 210.938
888.178, 54.864
889.448, 119.184
890.717, 83.132
891.987, 53.028
893.256, 40.660
894.524, 75.758
895.793, 87.674
897.061, 121.002
898.330, 14.241
899.598, 197.391
900.865, 170.441
902.133, 223.412
903.401, 43.717
904.668, 40.977
905.935, 151.625
907.202, 35.875
908.468, 226.488
909.735, 138.750
911.001, 100.906
912.267, 82.955
913.533, 94.891
914.799, 256.717
916.064, 48.441
917.330, 190.055
918.595, 61.562
919.860, 17.039
921.124, 95.770
922.389, 315.330
923.653, 3.666
924.918, 247.225
926.182, 18.020
927.445, 198.713
928.709, 139.309
929.972, 199.824
931.236, 200.289
932.499, 320.662
933.761, 260.949
935.024, 291.158
936.286, 61.285
937.549, 51.355
938.811, 311.330
940.073, 201.225
941.334, 421.027
942.596, 210.760
943.857, 220.400
945.118, 519.957
946.379, 139.438
947.640, 488.828
948.900, 378.139
950.161, 497.312
951.421, 546.467
952.681, 305.541
953.940, 504.404
955.200, 542.650
956.459, 410.531
957.719, 528.543
958.978, 585.742
960.236, 813.070
961.495, 709.717
962.753, 536.410
964.012, 793.266
965.270, 539.713
966.527, 666.510
967.785, 962.531
969.043, 715.980
970.300, 572.947
971.557, 1068.922
972.814, 824.908
974.071, 881.324
975.327, 927.168
976.583, 752.652
977.840, 1018.059
979.095, 1183.061
980.351, 988.234
981.607, 1082.172
982.862, 1061.111
984.117, 1015.580
985.372, 1009.078
986.627, 1070.457
987.882, 997.180
989.136, 802.000
990.390, 916.391
991.644, 1060.404
992.898, 815.459
994.152, 1109.977
995.405, 945.133
996.659, 1117.043
997.912, 1122.236
999.165, 876.246
1000.417, 1020.893
1001.670, 955.529
1002.922, 1057.328
1004.174, 1272.785
1005.426, 1016.984
1006.678, 1391.281
1007.930, 1163.377
1009.181, 1367.668
1010.432, 1441.887
1011.683, 1445.582
1012.934, 1749.465
1014.185, 1623.080
1015.435, 1756.490
1016.685, 2109.900
1017.935, 1883.109
1019.185, 2196.486
1020.435, 2170.066
1021.684, 2343.834
1022.934, 2346.805
1024.183, 2360.570
1025.432, 2271.773
1026.680, 2667.631
1027.929, 2302.004
1029.177, 2718.434
1030.425, 2561.328
1031.673, 2524.760
1032.921, 2891.377
1034.169, 2654.605
1035.416, 2734.244
1036.663, 2957.850
1037.911, 2781.271
1039.157, 3109.121
1040.404, 2892.088
1041.650, 3084.816
1042.897, 3272.701
1044.143, 2695.012
1045.389, 3201.424
1046.634, 2954.066
1047.880, 3056.850
1049.125, 3148.666
1050.371, 2801.699
1051.615, 3144.564
1052.860, 3087.566
1054.105, 2725.744
1055.349, 2884.068
1056.593, 2736.623
1057.837, 2625.176
1059.081, 2747.973
1060.325, 2690.338
1061.568, 2982.521
1062.812, 2754.564
1064.055, 3196.672
1065.298, 3639.434
1066.540, 3621.125
1067.783, 3763.566
1069.025, 4355.328
1070.267, 3955.121
1071.509, 4519.742
1072.751, 4493.465
1073.993, 4125.082
1075.234, 4947.654
1076.475, 4989.129
1077.716, 5421.467
1078.957, 6223.541
1080.198, 7155.979
1081.438, 8898.277
1082.679, 10371.070
1083.919, 12126.840
1085.159, 15089.488
1086.398, 16850.090
1087.638, 19431.586
1088.877, 20704.316
1090.116, 21226.582
1091.355, 22069.777
1092.594, 21402.090
1093.833, 21024.430
1095.071, 20487.986
1096.309, 20049.959
1097.547, 19383.176
1098.785, 19835.750
1100.023, 18728.660
1101.260, 19121.236
1102.498, 18082.779
1103.735, 16315.035
1104.972, 15137.242
1106.208, 12128.801
1107.445, 9520.660
1108.681, 7262.418
1109.918, 4984.064
1111.154, 3745.650
1112.389, 2297.232
1113.625, 1658.951
1114.860, 1562.234
1116.096, 995.484
1117.331, 758.691
1118.566, 891.850
1119.800, 594.959
1121.035, 828.029
1122.269, 681.076
1123.503, 794.135
1124.737, 797.215
1125.971, 510.260
1127.205, 453.330
1128.438, 76.422
1129.671, 109.490
1130.904, 462.545
1132.137, 195.570
1133.370, 48.592
1134.602, 271.582
1135.834, 45.424
1137.066, 207.547
1138.298, 89.498
1139.530, 53.447
1140.762, 356.385
1141.993, 119.309
1143.224, 132.229
1144.455, 205.199
1145.686, 81.770
1146.917, 581.303
1148.147, 104.445
1149.377, 7.623
1150.607, 590.830
1151.837, 55.928
1153.067, 267.387
1154.296, 450.795
1155.526, 194.225
1156.755, 477.672
1157.984, 191.162
1159.213, 534.756
1160.441, 498.426
1161.670, 312.127
1162.898, 475.869
1164.126, 919.645
1165.354, 313.461
1166.581, 967.412
1167.809, 681.443
1169.036, 575.527
1170.263, 1039.666
1171.490, 563.711
1172.717, 797.770
1173.943, 901.783
1175.170, 575.793
1176.396, 839.842
1177.622, 793.930
1178.848, 908.051
1180.073, 982.211
1181.299, 686.412
1182.524, 980.676
1183.749, 1195.008
1184.974, 899.418
1186.199, 1203.914
1187.423, 1178.498
1188.648, 973.135
1189.872, 1307.820
1191.096, 1092.561
1192.320, 1707.359
1193.543, 1262.221
1194.767, 1085.660
1195.990, 1549.439
1197.213, 912.344
1198.436, 1271.479
1199.659, 1363.568
1200.881, 976.637
1202.104, 999.502
1203.326, 1061.828
1204.548, 925.297
1205.770, 1087.666
1206.991, 593.346
1208.213, 327.719
1209.434, 672.102
1210.655, 266.748
1211.876, 651.434
1213.096, 276.150
1214.317, 250.898
1215.537, 555.668
1216.757, 150.463
1217.977, 285.285
1219.197, 50.135
1220.417, 25.014
1221.636, 269.918
1222.855, 164.834
1224.074, 249.760
1225.293, 414.682
1226.512, 120.406
1227.731, 424.510
1228.949, 519.506
1230.167, 4.943
1231.385, 511.041
1232.603, 92.242
1233.820, 424.990
1235.038, 462.688
1236.255, 260.654
1237.472, 388.920
1238.689, 596.014
1239.906, 288.896
1241.122, 598.406
1242.338, 495.555
1243.555, 165.062
1244.771, 507.594
1245.986, 345.820
1247.202, 310.756
1248.417, 255.211
1249.633, 253.889
1250.848, 135.787
1252.063, 190.857
1253.277, 160.100
1254.492, 305.785
1255.706, 174.596
1256.920, 261.801
1258.134, 221.250
1259.348, 0.000
##END=



