##NAMES=Meionite
##RRUFFID=R040169
##IDEAL CHEMISTRY=Ca_4_Al_6_Si_6_O_24_(CO_3_)
##LOCALITY=Black Hills, South Dakota, USA
##OWNER=RRUFF
##SOURCE=University of Arizona Mineral Museum
##DESCRIPTION=White massive
##STATUS=The identification of this mineral has been confirmed by X-ray diffraction and chemical analysis
##URL=rruff.info/R040169
##MEASURED CHEMISTRY=(Ca_0.73_Na_0.24_K_0.03_)_4_(Si_0.58_Al_0.41_)_12_O_24_((CO_3_)_0.90_Cl_0.10_)
##PIN_ID=L00216
##ORIENTATION=Laser parallel to a* (1 0 0). Fiducial mark perpendicular to laser is parallel to c [0 0 1]
85.706, 0.000
87.101, 311.975
88.496, 779.676
89.890, 1161.680
91.284, 1942.217
92.678, 2224.400
94.071, 2468.465
95.465, 2440.338
96.858, 2280.156
98.251, 1993.262
99.644, 2088.654
101.036, 2064.883
102.428, 2224.287
103.820, 2437.281
105.212, 2697.314
106.604, 3262.785
107.995, 3604.463
109.387, 4382.219
110.777, 4713.918
112.168, 5056.779
113.559, 5867.785
114.949, 6326.213
116.339, 6843.004
117.729, 7318.873
119.119, 7164.064
120.508, 7728.531
121.897, 7592.170
123.286, 8014.914
124.675, 7716.723
126.063, 8217.568
127.452, 8037.426
128.840, 8316.311
130.228, 8264.277
131.615, 7865.328
133.003, 8181.451
134.390, 7889.021
135.777, 7656.570
137.164, 7455.939
138.550, 7351.480
139.937, 6881.061
141.323, 6261.438
142.709, 6273.639
144.094, 5509.113
145.480, 5308.039
146.865, 5110.254
148.250, 4755.168
149.635, 4611.490
151.019, 4407.693
152.403, 4473.191
153.788, 4187.625
155.171, 4230.840
156.555, 4162.875
157.939, 4163.791
159.322, 4083.672
160.705, 3872.598
162.088, 3820.584
163.470, 3337.621
164.853, 3313.754
166.235, 2799.061
167.617, 2343.539
168.998, 2077.234
170.380, 1560.396
171.761, 1403.234
173.142, 735.850
174.523, 408.303
175.904, 80.623
177.284, 277.168
178.664, 430.277
180.044, 625.346
181.424, 654.520
182.803, 687.285
184.183, 543.203
185.562, 523.746
186.940, 647.967
188.319, 321.802
189.698, 350.018
191.076, 31.035
192.454, 24.707
193.831, 122.080
195.209, 214.546
196.586, 169.605
197.963, 301.509
199.340, 322.247
200.717, 404.555
202.093, 517.764
203.470, 574.657
204.846, 693.816
206.221, 767.222
207.597, 853.721
208.972, 938.947
210.347, 990.472
211.722, 1036.061
213.097, 1001.103
214.472, 950.366
215.846, 993.787
217.220, 1170.933
218.594, 1073.160
219.967, 1111.018
221.341, 1185.797
222.714, 1127.991
224.087, 1170.083
225.460, 1212.056
226.832, 1363.894
228.204, 1245.635
229.577, 1397.380
230.948, 1259.926
232.320, 1352.533
233.692, 1345.600
235.063, 1128.798
236.434, 1360.843
237.805, 1171.385
239.175, 1271.557
240.545, 1331.781
241.916, 1281.480
243.286, 1462.562
244.655, 1654.005
246.025, 1844.381
247.394, 1994.186
248.763, 1983.559
250.132, 2602.814
251.501, 2526.180
252.869, 3094.180
254.237, 3194.899
255.605, 3487.455
256.973, 3511.321
258.340, 3636.148
259.708, 3661.690
261.075, 3027.761
262.442, 2964.225
263.808, 2460.970
265.175, 2057.887
266.541, 1534.900
267.907, 1021.951
269.273, 782.108
270.639, 516.000
272.004, 372.927
273.369, 229.754
274.734, 186.422
276.099, 52.826
277.463, 138.888
278.828, 24.630
280.192, 110.035
281.556, 315.129
282.919, 309.936
284.283, 214.452
285.646, 418.677
287.009, 272.626
288.372, 706.287
289.734, 729.683
291.097, 982.814
292.459, 1135.696
293.821, 1348.332
295.183, 1540.728
296.544, 1381.686
297.905, 1303.814
299.266, 963.777
300.627, 882.862
301.988, 621.148
303.348, 399.068
304.709, 466.794
306.069, 144.339
307.428, 311.644
308.788, 98.720
310.147, 24.483
311.507, 121.989
312.865, 121.831
314.224, 3.978
315.583, 160.556
316.941, 145.457
318.299, 30.735
319.657, 156.338
321.015, 62.301
322.372, 228.604
323.729, 165.260
325.086, 192.261
326.443, 69.628
327.800, 107.326
329.156, 215.364
330.512, 83.770
331.868, 182.508
333.224, 38.403
334.579, 40.674
335.935, 80.013
337.290, 200.584
338.645, 151.631
339.999, 412.525
341.354, 344.066
342.708, 408.136
344.062, 591.597
345.416, 423.135
346.769, 681.024
348.123, 627.681
349.476, 903.943
350.829, 962.599
352.182, 1068.993
353.534, 1294.195
354.887, 1251.511
356.239, 1659.005
357.591, 1696.180
358.942, 1941.975
360.294, 2017.454
361.645, 1922.584
362.996, 2007.285
364.347, 1941.486
365.698, 1825.124
367.048, 1668.250
368.398, 1560.828
369.748, 1572.847
371.098, 1534.369
372.448, 1465.356
373.797, 1444.737
375.146, 1495.970
376.495, 1363.883
377.844, 1365.282
379.192, 1354.589
380.540, 1263.690
381.889, 1382.611
383.236, 1341.367
384.584, 1509.977
385.932, 1648.443
387.279, 1536.775
388.626, 1574.968
389.973, 1663.027
391.319, 1551.445
392.666, 1579.228
394.012, 1597.926
395.358, 1685.924
396.704, 1423.848
398.049, 1432.201
399.394, 1470.273
400.740, 1258.619
402.084, 1456.568
403.429, 1474.749
404.774, 1611.823
406.118, 1409.291
407.462, 1457.279
408.806, 1714.327
410.150, 1441.482
411.493, 1839.207
412.836, 1775.494
414.179, 2192.634
415.522, 2128.136
416.865, 2364.538
418.207, 2720.497
419.549, 2655.625
420.891, 2981.047
422.233, 3135.884
423.575, 3310.589
424.916, 3244.955
426.257, 3048.648
427.598, 3133.334
428.939, 2877.049
430.279, 2851.886
431.619, 2885.664
432.959, 2507.949
434.299, 2859.564
435.639, 2548.813
436.978, 2856.887
438.318, 3049.162
439.657, 3114.876
440.996, 3744.994
442.334, 4158.410
443.673, 5016.300
445.011, 5833.637
446.349, 7269.329
447.687, 9138.441
449.024, 10582.988
450.361, 12842.468
451.699, 14341.318
453.036, 15212.128
454.372, 15473.349
455.709, 14204.585
457.045, 13885.541
458.381, 13106.053
459.717, 12588.117
461.053, 12507.512
462.388, 11525.810
463.724, 11160.160
465.059, 10014.184
466.394, 9271.309
467.728, 8197.687
469.063, 7419.102
470.397, 6893.033
471.731, 5749.516
473.065, 5145.797
474.398, 4565.430
475.732, 4272.684
477.065, 3901.467
478.398, 3348.508
479.731, 3245.695
481.063, 2833.796
482.396, 2825.248
483.728, 2472.398
485.060, 2070.594
486.391, 2113.174
487.723, 1702.973
489.054, 1679.932
490.385, 1449.797
491.716, 1306.889
493.047, 1238.291
494.377, 1027.762
495.708, 988.965
497.038, 938.846
498.368, 749.949
499.697, 710.582
501.027, 606.828
502.356, 662.057
503.685, 612.180
505.014, 461.201
506.342, 599.205
507.671, 450.377
508.999, 680.098
510.327, 542.326
511.655, 604.316
512.982, 506.957
514.310, 539.875
515.637, 685.090
516.964, 706.352
518.291, 1029.229
519.617, 1391.197
520.944, 1582.711
522.270, 2114.309
523.596, 2616.715
524.921, 3389.434
526.247, 4382.395
527.572, 5684.582
528.897, 7027.430
530.222, 7829.387
531.547, 8044.805
532.871, 8021.324
534.196, 7412.475
535.520, 6303.074
536.844, 5033.564
538.167, 4283.760
539.491, 3434.494
540.814, 2963.625
542.137, 2413.246
543.460, 2002.896
544.783, 1861.908
546.105, 1472.180
547.427, 1331.633
548.749, 1241.279
550.071, 761.062
551.393, 940.336
552.714, 619.160
554.035, 748.143
555.356, 726.678
556.677, 584.191
557.998, 611.848
559.318, 510.164
560.638, 566.594
561.958, 473.723
563.278, 701.055
564.597, 568.576
565.917, 405.154
567.236, 591.883
568.555, 529.176
569.874, 355.678
571.192, 662.820
572.511, 419.846
573.829, 766.771
575.147, 503.582
576.464, 560.303
577.782, 706.898
579.099, 583.387
580.416, 669.814
581.733, 646.125
583.050, 672.328
584.366, 798.414
585.683, 484.395
586.999, 660.318
588.315, 336.131
589.630, 351.857
590.946, 367.463
592.261, 252.959
593.576, 348.377
594.891, 283.691
596.206, 328.918
597.520, 244.090
598.834, 189.176
600.148, 264.203
601.462, 359.152
602.776, 374.006
604.089, 178.764
605.402, 73.434
606.715, 557.996
608.028, 272.479
609.341, 376.855
610.653, 91.129
611.965, 75.287
613.277, 149.328
614.589, 163.250
615.901, 217.059
617.212, 49.225
618.523, 4.361
619.834, 117.836
621.145, 188.797
622.456, 94.396
623.766, 82.500
625.076, 100.484
626.386, 63.406
627.696, 36.240
629.006, 79.025
630.315, 78.209
631.624, 84.482
632.933, 68.018
634.242, 79.303
635.551, 103.916
636.859, 103.059
638.167, 80.402
639.475, 63.926
640.783, 173.293
642.090, 119.770
643.398, 13.963
644.705, 57.352
646.012, 101.709
647.318, 108.873
648.625, 289.752
649.931, 103.943
651.237, 131.742
652.543, 47.055
653.849, 103.865
655.155, 150.084
656.460, 46.582
657.765, 156.008
659.070, 48.799
660.375, 108.914
661.679, 193.002
662.984, 5.102
664.288, 14.643
665.592, 197.502
666.895, 9.418
668.199, 141.266
669.502, 73.549
670.805, 213.119
672.108, 124.930
673.411, 223.654
674.713, 344.910
676.016, 528.072
677.318, 610.305
678.620, 558.652
679.921, 331.752
681.223, 224.256
682.524, 140.422
683.825, 292.609
685.126, 98.477
686.427, 292.760
687.727, 474.293
689.028, 338.256
690.328, 259.865
691.628, 412.141
692.927, 274.244
694.227, 315.971
695.526, 150.166
696.825, 412.057
698.124, 383.365
699.423, 304.760
700.721, 595.861
702.020, 356.510
703.318, 458.312
704.616, 419.004
705.913, 389.611
707.211, 424.520
708.508, 530.508
709.805, 479.484
711.102, 569.523
712.399, 719.160
713.695, 537.809
714.992, 387.061
716.288, 635.410
717.584, 773.859
718.879, 532.668
720.175, 811.277
721.470, 765.516
722.765, 843.186
724.060, 929.836
725.355, 871.180
726.649, 958.238
727.944, 957.490
729.238, 1100.578
730.532, 1089.271
731.825, 1204.061
733.119, 1150.566
734.412, 1399.848
735.705, 1360.512
736.998, 1707.854
738.291, 1526.727
739.584, 1934.053
740.876, 1762.572
742.168, 1864.273
743.460, 2391.555
744.752, 1944.738
746.043, 2890.621
747.334, 2796.812
748.626, 2789.150
749.916, 2964.023
751.207, 2950.379
752.498, 3688.211
753.788, 3662.826
755.078, 3637.973
756.368, 4491.816
757.658, 4326.574
758.947, 4851.410
760.237, 4915.414
761.526, 5309.145
762.815, 5174.129
764.104, 4808.580
765.392, 5013.250
766.680, 4536.340
767.969, 4079.564
769.257, 4053.465
770.544, 3366.418
771.832, 2954.947
773.119, 2816.725
774.406, 2459.742
775.693, 2022.357
776.980, 1616.883
778.267, 1448.977
779.553, 1268.186
780.839, 1108.914
782.125, 1169.613
783.411, 880.154
784.697, 1001.375
785.982, 1010.348
787.267, 480.350
788.552, 972.098
789.837, 549.643
791.122, 600.486
792.406, 907.459
793.690, 274.674
794.974, 645.746
796.258, 458.539
797.542, 404.217
798.825, 493.047
800.108, 261.957
801.391, 431.547
802.674, 270.453
803.957, 320.006
805.239, 298.809
806.522, 122.779
807.804, 460.211
809.085, 225.195
810.367, 183.596
811.649, 321.447
812.930, 159.648
814.211, 327.293
815.492, 341.471
816.772, 179.502
818.053, 646.510
819.333, 73.266
820.613, 341.002
821.893, 197.838
823.173, 135.117
824.452, 811.998
825.732, 139.371
827.011, 83.738
828.290, 393.371
829.568, 180.887
830.847, 379.049
832.125, 62.592
833.403, 125.406
834.681, 242.340
835.959, 31.293
837.236, 264.568
838.514, 29.049
839.791, 3.615
841.068, 342.488
842.345, 0.758
843.621, 275.297
844.898, 90.908
846.174, 107.039
847.450, 172.496
848.726, 11.990
850.001, 82.717
851.277, 198.406
852.552, 153.863
853.827, 198.896
855.102, 285.031
856.376, 30.053
857.651, 225.381
858.925, 220.434
860.199, 125.254
861.473, 200.105
862.746, 285.287
864.020, 140.152
865.293, 195.285
866.566, 270.414
867.839, 135.197
869.112, 229.240
870.384, 244.043
871.656, 68.734
872.928, 303.059
874.200, 52.463
875.472, 278.148
876.744, 605.883
878.015, 330.182
879.286, 233.441
880.557, 46.953
881.828, 49.654
883.098, 193.568
884.369, 73.322
885.639, 469.607
886.909, 32.426
888.178, 164.887
889.448, 317.568
890.717, 29.898
891.987, 282.111
893.256, 94.148
894.524, 193.959
895.793, 217.764
897.061, 70.654
898.330, 200.773
899.598, 122.092
900.865, 66.688
902.133, 374.396
903.401, 35.381
904.668, 6.254
905.935, 267.010
907.202, 87.660
908.468, 428.178
909.735, 282.162
911.001, 256.633
912.267, 239.117
913.533, 175.543
914.799, 339.270
916.064, 159.193
917.330, 189.023
918.595, 258.758
919.860, 188.398
921.124, 97.951
922.389, 297.410
923.653, 33.215
924.918, 138.037
926.182, 85.225
927.445, 244.309
928.709, 313.305
929.972, 302.254
931.236, 381.119
932.499, 589.912
933.761, 538.625
935.024, 527.260
936.286, 385.818
937.549, 374.291
938.811, 742.695
940.073, 180.184
941.334, 968.424
942.596, 386.059
943.857, 503.822
945.118, 801.852
946.379, 218.137
947.640, 995.889
948.900, 542.834
950.161, 689.504
951.421, 846.469
952.681, 482.389
953.940, 748.936
955.200, 824.734
956.459, 590.656
957.719, 726.414
958.978, 521.395
960.236, 647.719
961.495, 983.008
962.753, 338.055
964.012, 973.609
965.270, 668.418
966.527, 633.859
967.785, 1149.629
969.043, 624.344
970.300, 780.953
971.557, 1205.102
972.814, 720.301
974.071, 1044.848
975.327, 1089.066
976.583, 775.441
977.840, 859.559
979.095, 957.215
980.351, 973.023
981.607, 1107.289
982.862, 982.168
984.117, 901.816
985.372, 1076.297
986.627, 1100.418
987.882, 1211.945
989.136, 866.047
990.390, 1201.484
991.644, 1143.168
992.898, 977.441
994.152, 1461.230
995.405, 1135.117
996.659, 1458.211
997.912, 1316.246
999.165, 1259.551
1000.417, 1678.637
1001.670, 1352.828
1002.922, 1306.109
1004.174, 1743.891
1005.426, 1177.090
1006.678, 1960.605
1007.930, 1183.688
1009.181, 1786.875
1010.432, 1910.719
1011.683, 1553.398
1012.934, 2186.328
1014.185, 1840.727
1015.435, 1863.285
1016.685, 2345.898
1017.935, 1999.492
1019.185, 2501.707
1020.435, 2264.117
1021.684, 2396.215
1022.934, 2727.234
1024.183, 2372.664
1025.432, 2528.250
1026.680, 2979.484
1027.929, 2152.750
1029.177, 2960.316
1030.425, 2511.133
1031.673, 2460.789
1032.921, 3115.082
1034.169, 2696.328
1035.416, 2538.602
1036.663, 2789.039
1037.911, 2637.277
1039.157, 3262.512
1040.404, 2570.344
1041.650, 3051.535
1042.897, 3357.695
1044.143, 2251.926
1045.389, 3272.980
1046.634, 2617.609
1047.880, 2744.820
1049.125, 2915.320
1050.371, 2357.352
1051.615, 2828.277
1052.860, 3049.129
1054.105, 2259.059
1055.349, 2849.277
1056.593, 2319.008
1057.837, 2212.676
1059.081, 2581.629
1060.325, 2111.934
1061.568, 2813.824
1062.812, 2286.062
1064.055, 2626.664
1065.298, 3337.422
1066.540, 2669.082
1067.783, 2761.223
1069.025, 3361.785
1070.267, 2853.914
1071.509, 3585.645
1072.751, 3268.043
1073.993, 2820.188
1075.234, 3951.879
1076.475, 4242.484
1077.716, 3774.559
1078.957, 4296.547
1080.198, 4268.453
1081.438, 5830.285
1082.679, 6022.047
1083.919, 6733.719
1085.159, 8375.398
1086.398, 8446.992
1087.638, 9768.578
1088.877, 9920.105
1090.116, 10351.578
1091.355, 11093.004
1092.594, 10444.367
1093.833, 10515.633
1095.071, 10436.773
1096.309, 9697.789
1097.547, 10248.680
1098.785, 10529.492
1100.023, 9630.234
1101.260, 10470.895
1102.498, 9011.469
1103.735, 7701.961
1104.972, 7432.383
1106.208, 5372.750
1107.445, 4253.066
1108.681, 3053.688
1109.918, 2154.648
1111.154, 2345.672
1112.389, 1106.812
1113.625, 1058.055
1114.860, 1199.613
1116.096, 301.344
1117.331, 1073.344
1118.566, 885.535
1119.800, 527.793
1121.035, 1120.082
1122.269, 912.438
1123.503, 1104.945
1124.737, 667.621
1125.971, 480.328
1127.205, 833.090
1128.438, 195.891
1129.671, 338.734
1130.904, 921.609
1132.137, 124.504
1133.370, 187.461
1134.602, 660.445
1135.834, 103.469
1137.066, 486.539
1138.298, 40.332
1139.530, 562.863
1140.762, 486.129
1141.993, 29.484
1143.224, 462.949
1144.455, 376.543
1145.686, 29.711
1146.917, 1094.199
1148.147, 81.695
1149.377, 112.605
1150.607, 847.094
1151.837, 18.227
1153.067, 835.316
1154.296, 650.285
1155.526, 195.418
1156.755, 650.711
1157.984, 236.172
1159.213, 797.219
1160.441, 757.254
1161.670, 168.422
1162.898, 836.734
1164.126, 840.387
1165.354, 220.574
1166.581, 1073.324
1167.809, 520.219
1169.036, 585.305
1170.263, 950.586
1171.490, 9.676
1172.717, 689.203
1173.943, 594.980
1175.170, 160.648
1176.396, 665.109
1177.622, 375.152
1178.848, 585.832
1180.073, 987.562
1181.299, 1.512
1182.524, 611.102
1183.749, 566.895
1184.974, 0.523
1186.199, 587.816
1187.423, 0.000
##END=



