##NAMES=Meionite
##RRUFFID=R040169
##IDEAL CHEMISTRY=Ca_4_Al_6_Si_6_O_24_(CO_3_)
##LOCALITY=Black Hills, South Dakota, USA
##OWNER=RRUFF
##SOURCE=University of Arizona Mineral Museum
##DESCRIPTION=White massive
##STATUS=The identification of this mineral has been confirmed by X-ray diffraction and chemical analysis
##URL=rruff.info/R040169
##MEASURED CHEMISTRY=(Ca_0.73_Na_0.24_K_0.03_)_4_(Si_0.58_Al_0.41_)_12_O_24_((CO_3_)_0.90_Cl_0.10_)
##PIN_ID=L00216
##ORIENTATION=Laser parallel to a* (1 0 0). Fiducial mark perpendicular to laser is parallel to c [0 0 1]
89.890, 0.000
91.284, 49.802
92.678, 6.525
94.071, 69.149
95.465, 9.525
96.858, 79.130
98.251, 15.719
99.644, 186.627
101.036, 315.053
102.428, 390.895
103.820, 607.862
105.212, 763.993
106.604, 1102.698
107.995, 1519.479
109.387, 1864.830
110.777, 2173.276
112.168, 2334.400
113.559, 2471.758
114.949, 2488.091
116.339, 2450.496
117.729, 2299.240
119.119, 2019.500
120.508, 1761.574
121.897, 1475.611
123.286, 1461.357
124.675, 1128.518
126.063, 1032.841
127.452, 990.126
128.840, 1074.203
130.228, 1106.936
131.615, 916.205
133.003, 1045.914
134.390, 957.988
135.777, 1051.371
137.164, 1027.066
138.550, 1090.014
139.937, 1223.155
141.323, 1084.465
142.709, 1379.925
144.094, 1303.514
145.480, 1517.368
146.865, 1592.617
148.250, 1720.279
149.635, 2071.102
151.019, 2205.142
152.403, 2810.569
153.788, 2836.002
155.171, 3570.906
156.555, 3785.161
157.939, 4298.777
159.322, 4761.794
160.705, 4944.244
162.088, 5356.156
163.470, 5227.559
164.853, 5478.471
166.235, 5198.916
167.617, 4878.915
168.998, 4648.496
170.380, 4137.670
171.761, 3896.450
173.142, 3374.848
174.523, 3192.895
175.904, 2920.658
177.284, 2608.188
178.664, 2485.515
180.044, 2112.668
181.424, 2239.666
182.803, 2007.516
184.183, 2195.013
185.562, 2181.943
186.940, 2288.427
188.319, 2394.811
189.698, 2491.100
191.076, 2897.298
192.454, 2683.408
193.831, 3169.434
195.209, 3055.375
196.586, 3091.232
197.963, 3197.008
199.340, 3144.125
200.717, 3158.100
202.093, 2991.996
203.470, 2963.509
204.846, 3069.133
206.221, 2882.777
207.597, 3065.562
208.972, 2712.462
210.347, 2957.222
211.722, 2871.616
213.097, 2754.479
214.472, 2718.386
215.846, 2722.865
217.220, 2697.597
218.594, 2540.154
219.967, 2680.661
221.341, 2609.347
222.714, 2607.749
224.087, 2716.148
225.460, 2804.533
226.832, 2862.901
228.204, 2951.251
229.577, 2919.575
230.948, 2927.864
232.320, 2866.104
233.692, 2944.280
235.063, 2692.384
236.434, 2880.412
237.805, 2588.362
239.175, 2716.236
240.545, 2624.034
241.916, 2421.754
243.286, 2599.400
244.655, 2566.978
246.025, 2594.771
247.394, 2642.681
248.763, 2640.083
250.132, 2847.430
251.501, 2744.723
252.869, 3081.961
254.237, 2819.143
255.605, 3076.386
256.973, 3014.620
258.340, 2793.496
259.708, 2793.132
261.075, 2393.266
262.442, 2263.807
263.808, 1904.571
265.175, 1633.737
266.541, 1201.147
267.907, 903.767
269.273, 816.564
270.639, 509.518
272.004, 423.601
273.369, 300.798
274.734, 230.089
276.099, 268.488
277.463, 319.951
278.828, 377.467
280.192, 320.029
281.556, 426.625
282.919, 530.246
284.283, 478.882
285.646, 690.525
287.009, 641.167
288.372, 885.796
289.734, 998.406
291.097, 1138.991
292.459, 1502.549
293.821, 1512.077
295.183, 1731.567
296.544, 1526.021
297.905, 1639.437
299.266, 1408.815
300.627, 1150.152
301.988, 1101.444
303.348, 821.691
304.709, 683.891
306.069, 493.041
307.428, 322.141
308.788, 277.188
310.147, 72.182
311.507, 71.097
312.865, 98.082
314.224, 34.607
315.583, 154.835
316.941, 109.416
318.299, 172.175
319.657, 216.119
321.015, 161.265
322.372, 222.594
323.729, 267.124
325.086, 327.859
326.443, 335.848
327.800, 330.985
329.156, 323.406
330.512, 243.006
331.868, 186.802
333.224, 68.780
334.579, 114.884
335.935, 34.147
337.290, 93.463
338.645, 16.965
339.999, 259.345
341.354, 245.638
342.708, 266.840
344.062, 365.965
345.416, 326.062
346.769, 493.017
348.123, 525.459
349.476, 659.271
350.829, 774.058
352.182, 822.722
353.534, 1199.687
354.887, 1182.669
356.239, 1517.062
357.591, 1642.376
358.942, 1828.608
360.294, 2080.757
361.645, 1953.826
362.996, 2107.807
364.347, 1980.669
365.698, 1888.320
367.048, 1771.733
368.398, 1574.846
369.748, 1566.625
371.098, 1457.035
372.448, 1376.016
373.797, 1183.577
375.146, 1069.804
376.495, 1138.789
377.844, 1007.610
379.192, 1037.310
380.540, 975.933
381.889, 995.488
383.236, 868.980
384.584, 949.422
385.932, 949.811
387.279, 860.146
388.626, 965.430
389.973, 883.659
391.319, 846.837
392.666, 914.959
394.012, 894.520
395.358, 958.915
396.704, 836.314
398.049, 768.487
399.394, 802.062
400.740, 715.184
402.084, 842.102
403.429, 898.331
404.774, 932.049
406.118, 915.828
407.462, 1011.935
408.806, 1064.720
410.150, 1007.291
411.493, 1357.120
412.836, 1321.621
414.179, 1480.170
415.522, 1507.644
416.865, 1746.401
418.207, 1984.975
419.549, 1917.970
420.891, 2321.513
422.233, 2434.258
423.575, 2467.463
424.916, 2620.536
426.257, 2493.395
427.598, 2676.893
428.939, 2609.941
430.279, 2603.216
431.619, 2676.545
432.959, 2529.184
434.299, 2742.452
435.639, 2704.990
436.978, 2993.817
438.318, 3326.005
439.657, 3508.277
440.996, 4320.705
442.334, 4862.549
443.673, 5953.900
445.011, 7044.984
446.349, 8915.929
447.687, 11226.730
449.024, 13227.031
450.361, 16447.467
451.699, 18057.594
453.036, 19398.377
454.372, 19879.383
455.709, 17909.549
457.045, 17750.488
458.381, 16421.330
459.717, 15923.092
461.053, 15643.945
462.388, 14794.845
463.724, 14145.686
465.059, 12406.158
466.394, 11456.741
467.728, 10077.127
469.063, 8806.747
470.397, 7966.945
471.731, 6682.908
473.065, 5988.242
474.398, 5257.080
475.732, 4810.211
477.065, 4432.371
478.398, 3926.041
479.731, 3796.845
481.063, 3313.472
482.396, 3213.396
483.728, 2859.624
485.060, 2342.932
486.391, 2412.076
487.723, 1940.614
489.054, 1868.858
490.385, 1653.100
491.716, 1336.395
493.047, 1413.197
494.377, 1052.539
495.708, 1053.619
497.038, 1092.001
498.368, 797.573
499.697, 838.505
501.027, 644.940
502.356, 667.874
503.685, 591.762
505.014, 519.135
506.342, 536.709
507.671, 394.639
508.999, 524.527
510.327, 272.509
511.655, 521.137
512.982, 429.448
514.310, 405.518
515.637, 545.053
516.964, 538.620
518.291, 750.845
519.617, 937.008
520.944, 1123.103
522.270, 1589.154
523.596, 1925.140
524.921, 2571.058
526.247, 3397.253
527.572, 4333.379
528.897, 5479.426
530.222, 6185.845
531.547, 6922.032
532.871, 6478.451
534.196, 5974.855
535.520, 5091.451
536.844, 3967.945
538.167, 3454.216
539.491, 2690.519
540.814, 2196.516
542.137, 1812.206
543.460, 1438.227
544.783, 1323.855
546.105, 1039.310
547.427, 874.874
548.749, 749.882
550.071, 545.672
551.393, 620.521
552.714, 375.490
554.035, 400.528
555.356, 385.198
556.677, 185.815
557.998, 314.164
559.318, 168.586
560.638, 202.571
561.958, 113.919
563.278, 221.214
564.597, 192.442
565.917, 99.603
567.236, 161.727
568.555, 197.773
569.874, 121.781
571.192, 185.715
572.511, 159.580
573.829, 163.392
575.147, 81.134
576.464, 110.812
577.782, 234.415
579.099, 87.950
580.416, 261.437
581.733, 134.854
583.050, 148.215
584.366, 181.505
585.683, 34.726
586.999, 97.893
588.315, 40.986
589.630, 24.003
590.946, 136.946
592.261, 9.816
593.576, 92.618
594.891, 104.656
596.206, 87.940
597.520, 90.510
598.834, 63.005
600.148, 135.438
601.462, 277.802
602.776, 320.099
604.089, 332.333
605.402, 344.503
606.715, 596.610
608.028, 388.659
609.341, 460.645
610.653, 262.572
611.965, 184.431
613.277, 366.221
614.589, 157.949
615.901, 159.606
617.212, 8.796
618.523, 112.720
619.834, 78.916
621.145, 70.890
622.456, 136.840
623.766, 88.072
625.076, 89.232
626.386, 70.318
627.696, 18.666
629.006, 12.270
630.315, 93.150
631.624, 66.020
632.933, 114.966
634.242, 184.286
635.551, 146.373
636.859, 22.970
638.167, 117.692
639.475, 98.616
640.783, 9.317
642.090, 0.043
643.398, 21.478
644.705, 2.334
646.012, 94.328
647.318, 104.714
648.625, 117.252
649.931, 79.207
651.237, 99.368
652.543, 53.396
653.849, 54.777
655.155, 58.108
656.460, 30.592
657.765, 12.413
659.070, 65.312
660.375, 42.836
661.679, 188.974
662.984, 27.318
664.288, 153.299
665.592, 175.757
666.895, 27.416
668.199, 148.306
669.502, 212.380
670.805, 253.722
672.108, 365.045
673.411, 352.677
674.713, 723.255
676.016, 865.688
677.318, 866.544
678.620, 833.201
679.921, 464.462
681.223, 495.151
682.524, 350.970
683.825, 351.648
685.126, 369.897
686.427, 276.232
687.727, 316.406
689.028, 247.800
690.328, 238.921
691.628, 179.894
692.927, 190.551
694.227, 230.869
695.526, 212.960
696.825, 273.595
698.124, 333.916
699.423, 246.760
700.721, 326.267
702.020, 357.333
703.318, 317.164
704.616, 436.549
705.913, 236.425
707.211, 505.299
708.508, 404.776
709.805, 373.736
711.102, 602.782
712.399, 483.247
713.695, 590.647
714.992, 595.188
716.288, 457.746
717.584, 605.043
718.879, 466.666
720.175, 534.216
721.470, 592.138
722.765, 657.145
724.060, 752.933
725.355, 760.819
726.649, 783.041
727.944, 809.969
729.238, 740.823
730.532, 827.711
731.825, 776.011
733.119, 1062.019
734.412, 1038.739
735.705, 860.666
736.998, 1206.967
738.291, 1006.287
739.584, 1282.994
740.876, 1089.337
742.168, 1269.925
743.460, 1455.303
744.752, 1300.824
746.043, 1666.518
747.334, 1651.895
748.626, 1628.902
749.916, 1953.525
751.207, 1732.541
752.498, 2217.609
753.788, 2272.439
755.078, 2280.331
756.368, 2845.285
757.658, 2680.949
758.947, 2907.248
760.237, 2992.951
761.526, 2999.291
762.815, 3425.478
764.104, 3141.261
765.392, 3167.502
766.680, 2932.279
767.969, 2536.889
769.257, 2632.541
770.544, 2256.479
771.832, 2063.188
773.119, 1735.931
774.406, 1520.240
775.693, 1424.358
776.980, 1087.559
778.267, 942.172
779.553, 1105.639
780.839, 658.227
782.125, 841.523
783.411, 722.881
784.697, 635.700
785.982, 758.616
787.267, 447.272
788.552, 780.688
789.837, 551.758
791.122, 554.418
792.406, 816.311
793.690, 428.146
794.974, 551.092
796.258, 592.327
797.542, 324.461
798.825, 476.518
800.108, 217.479
801.391, 479.402
802.674, 234.892
803.957, 246.105
805.239, 377.342
806.522, 52.921
807.804, 263.605
809.085, 31.801
810.367, 82.321
811.649, 233.442
812.930, 13.592
814.211, 193.862
815.492, 182.438
816.772, 6.952
818.053, 431.921
819.333, 2.188
820.613, 142.447
821.893, 61.994
823.173, 18.042
824.452, 72.068
825.732, 52.262
827.011, 77.170
828.290, 303.180
829.568, 3.721
830.847, 204.163
832.125, 65.479
833.403, 74.741
834.681, 194.871
835.959, 55.084
837.236, 164.527
838.514, 95.947
839.791, 66.495
841.068, 232.405
842.345, 11.389
843.621, 19.987
844.898, 28.453
846.174, 56.578
847.450, 104.665
848.726, 7.168
850.001, 30.813
851.277, 58.954
852.552, 22.742
853.827, 205.100
855.102, 3.188
856.376, 91.303
857.651, 179.165
858.925, 57.439
860.199, 264.787
861.473, 102.935
862.746, 90.819
864.020, 78.488
865.293, 3.623
866.566, 224.168
867.839, 21.882
869.112, 29.508
870.384, 217.049
871.656, 45.485
872.928, 141.864
874.200, 39.135
875.472, 103.679
876.744, 453.361
878.015, 79.665
879.286, 247.174
880.557, 153.940
881.828, 39.371
883.098, 107.205
884.369, 6.295
885.639, 230.111
886.909, 166.445
888.178, 67.297
889.448, 258.837
890.717, 25.104
891.987, 40.854
893.256, 116.731
894.524, 57.466
895.793, 228.220
897.061, 103.836
898.330, 39.379
899.598, 214.848
900.865, 9.757
902.133, 315.552
903.401, 50.792
904.668, 134.012
905.935, 211.028
907.202, 24.002
908.468, 190.870
909.735, 145.671
911.001, 40.398
912.267, 155.047
913.533, 29.621
914.799, 114.137
916.064, 138.574
917.330, 62.939
918.595, 217.225
919.860, 161.441
921.124, 75.588
922.389, 259.658
923.653, 16.336
924.918, 267.602
926.182, 71.479
927.445, 65.285
928.709, 259.023
929.972, 12.697
931.236, 176.301
932.499, 369.838
933.761, 163.316
935.024, 396.732
936.286, 180.098
937.549, 223.402
938.811, 386.643
940.073, 89.643
941.334, 592.779
942.596, 265.904
943.857, 118.969
945.118, 471.975
946.379, 94.688
947.640, 467.570
948.900, 140.402
950.161, 172.500
951.421, 565.174
952.681, 236.709
953.940, 559.281
955.200, 540.828
956.459, 322.361
957.719, 554.393
958.978, 385.004
960.236, 476.506
961.495, 756.859
962.753, 187.514
964.012, 618.748
965.270, 448.787
966.527, 329.758
967.785, 760.646
969.043, 389.463
970.300, 511.307
971.557, 810.615
972.814, 421.150
974.071, 711.283
975.327, 649.150
976.583, 569.250
977.840, 759.215
979.095, 553.199
980.351, 615.025
981.607, 634.416
982.862, 554.828
984.117, 660.082
985.372, 500.303
986.627, 680.531
987.882, 590.492
989.136, 400.500
990.390, 889.863
991.644, 673.982
992.898, 584.145
994.152, 813.393
995.405, 432.375
996.659, 871.387
997.912, 702.646
999.165, 642.080
1000.417, 1080.146
1001.670, 559.031
1002.922, 968.117
1004.174, 940.703
1005.426, 780.377
1006.678, 1318.379
1007.930, 778.000
1009.181, 1077.459
1010.432, 1366.320
1011.683, 816.074
1012.934, 1405.113
1014.185, 1354.070
1015.435, 1332.943
1016.685, 1850.234
1017.935, 1079.654
1019.185, 1737.988
1020.435, 1586.359
1021.684, 1495.656
1022.934, 1930.154
1024.183, 1729.145
1025.432, 1617.479
1026.680, 2118.238
1027.929, 1418.381
1029.177, 2210.602
1030.425, 1759.826
1031.673, 1738.641
1032.921, 2203.320
1034.169, 1731.889
1035.416, 1888.607
1036.663, 2177.646
1037.911, 1796.396
1039.157, 2319.234
1040.404, 1938.332
1041.650, 2033.789
1042.897, 2461.824
1044.143, 1500.270
1045.389, 2173.662
1046.634, 1972.527
1047.880, 1750.846
1049.125, 2218.764
1050.371, 1527.459
1051.615, 1923.648
1052.860, 2152.652
1054.105, 1400.473
1055.349, 1908.809
1056.593, 1417.297
1057.837, 1422.445
1059.081, 2000.746
1060.325, 1398.859
1061.568, 1916.402
1062.812, 1774.506
1064.055, 1866.965
1065.298, 2734.867
1066.540, 2322.861
1067.783, 2580.521
1069.025, 2978.818
1070.267, 2347.229
1071.509, 3184.908
1072.751, 3003.348
1073.993, 2533.957
1075.234, 3502.406
1076.475, 3190.023
1077.716, 3867.604
1078.957, 4605.982
1080.198, 4773.344
1081.438, 6431.361
1082.679, 7260.184
1083.919, 8278.742
1085.159, 10667.676
1086.398, 10735.707
1087.638, 12993.781
1088.877, 13702.543
1090.116, 13750.059
1091.355, 15158.867
1092.594, 14276.930
1093.833, 14584.361
1095.071, 14772.951
1096.309, 13810.250
1097.547, 14458.945
1098.785, 14746.357
1100.023, 13683.891
1101.260, 14582.318
1102.498, 12870.102
1103.735, 11198.523
1104.972, 10386.938
1106.208, 7335.105
1107.445, 5885.084
1108.681, 3873.639
1109.918, 2510.758
1111.154, 2408.777
1112.389, 1057.570
1113.625, 896.129
1114.860, 1074.869
1116.096, 263.586
1117.331, 592.287
1118.566, 410.977
1119.800, 269.686
1121.035, 658.373
1122.269, 317.078
1123.503, 565.756
1124.737, 644.414
1125.971, 153.104
1127.205, 621.781
1128.438, 9.557
1129.671, 59.090
1130.904, 397.736
1132.137, 3.664
1133.370, 54.934
1134.602, 403.518
1135.834, 87.916
1137.066, 480.645
1138.298, 120.787
1139.530, 307.781
1140.762, 546.365
1141.993, 54.969
1143.224, 323.654
1144.455, 312.402
1145.686, 38.830
1146.917, 769.979
1148.147, 28.795
1149.377, 207.684
1150.607, 626.613
1151.837, 104.408
1153.067, 454.609
1154.296, 433.645
1155.526, 32.719
1156.755, 801.875
1157.984, 191.135
1159.213, 570.438
1160.441, 569.781
1161.670, 179.096
1162.898, 768.445
1164.126, 697.826
1165.354, 157.240
1166.581, 1026.652
1167.809, 406.105
1169.036, 415.602
1170.263, 895.133
1171.490, 134.688
1172.717, 864.275
1173.943, 783.900
1175.170, 243.562
1176.396, 873.273
1177.622, 443.033
1178.848, 842.852
1180.073, 932.721
1181.299, 452.639
1182.524, 1082.588
1183.749, 1002.574
1184.974, 622.631
1186.199, 1292.730
1187.423, 782.877
1188.648, 1143.072
1189.872, 1133.322
1191.096, 693.627
1192.320, 1483.852
1193.543, 921.152
1194.767, 749.777
1195.990, 1449.156
1197.213, 567.410
1198.436, 820.020
1199.659, 1208.953
1200.881, 559.004
1202.104, 1033.605
1203.326, 832.203
1204.548, 514.982
1205.770, 1174.641
1206.991, 122.859
1208.213, 502.512
1209.434, 722.170
1210.655, 78.164
1211.876, 741.502
1213.096, 151.166
1214.317, 190.584
1215.537, 860.221
1216.757, 49.840
1217.977, 499.432
1219.197, 518.984
1220.417, 71.510
1221.636, 667.936
1222.855, 347.307
1224.074, 246.586
1225.293, 655.824
1226.512, 95.105
1227.731, 675.219
1228.949, 905.754
1230.167, 26.607
1231.385, 938.424
1232.603, 330.338
1233.820, 470.117
1235.038, 860.775
1236.255, 281.510
1237.472, 579.539
1238.689, 748.838
1239.906, 246.586
1241.122, 823.994
1242.338, 628.762
1243.555, 67.805
1244.771, 1041.582
1245.986, 327.227
1247.202, 591.426
1248.417, 720.314
1249.633, 309.521
1250.848, 726.531
1252.063, 740.309
1253.277, 2.828
1254.492, 1100.346
1255.706, 0.000
##END=



