##NAMES=Mesolite
##RRUFFID=R050013
##IDEAL CHEMISTRY=Na_2_Ca_2_(Si_9_Al_6_)O_30_&#183;8H_2_O
##LOCALITY=Poona, Maharashtra, India
##OWNER=RRUFF
##SOURCE=University of Arizona Mineral Museum
##DESCRIPTION=Clear to white elongated prismatic single crystal
##STATUS=The identification of this mineral has been confirmed by X-ray diffraction and chemical analysis
##URL=rruff.info/R050013
##MEASURED CHEMISTRY=Na_2.00_Ca_2.00_(Si_9.00_Al_6.00_)O_30_Â·8H_2_O
##PIN_ID=M00156
##ORIENTATION=Laser parallel to -a* (-1 0 0). Fiducial mark perpendicular to laser is parallel to b [0 1 0]
113.2080, 0.0000000E+00
114.4400, 89.39746
115.6710, 36.68359
116.9030, 37.95215
118.1340, 4.881836
119.3650, 29.34668
120.5960, 125.8203
121.8270, 432.1348
123.0580, 641.3018
124.2880, 885.8750
125.5190, 1383.844
126.7490, 1796.688
127.9790, 1911.188
129.2090, 2483.057
130.4390, 2137.283
131.6680, 2187.361
132.8980, 2264.564
134.1270, 2653.422
135.3560, 3172.632
136.5850, 3666.406
137.8140, 4324.402
139.0430, 5267.334
140.2710, 6067.530
141.5000, 6815.279
142.7280, 7356.546
143.9560, 7360.813
145.1840, 7067.947
146.4120, 7348.385
147.6390, 7437.333
148.8670, 8122.683
150.0940, 8715.530
151.3210, 8821.179
152.5490, 8907.740
153.7750, 8781.488
155.0020, 8555.517
156.2290, 8378.930
157.4550, 7990.863
158.6810, 7688.523
159.9080, 7588.307
161.1340, 7780.318
162.3590, 7819.240
163.5850, 7635.770
164.8110, 7353.719
166.0360, 7500.207
167.2610, 7157.912
168.4860, 7174.457
169.7110, 6751.064
170.9360, 6650.111
172.1610, 6349.012
173.3850, 5887.908
174.6100, 5606.634
175.8340, 5190.398
177.0580, 4665.615
178.2820, 4447.863
179.5050, 4102.708
180.7290, 3780.788
181.9520, 3684.345
183.1760, 3425.752
184.3990, 3229.356
185.6220, 3028.771
186.8450, 2641.807
188.0670, 2609.562
189.2900, 2558.611
190.5120, 2431.085
191.7340, 2519.693
192.9560, 2530.447
194.1780, 2392.857
195.4000, 2278.013
196.6220, 2003.995
197.8430, 1775.987
199.0640, 1474.041
200.2860, 1221.141
201.5070, 1090.271
202.7270, 836.4199
203.9480, 807.5742
205.1690, 491.7207
206.3890, 432.8496
207.6090, 231.9531
208.8290, 175.0352
210.0490, 127.3096
211.2690, 267.8477
212.4890, 236.1045
213.7080, 98.71387
214.9280, 16.02832
216.1470, 126.1934
217.3660, 134.0010
218.5850, 275.7715
219.8030, 278.3818
221.0220, 138.7275
222.2400, 102.8125
223.4590, 196.0928
224.6770, 7.800781
225.8950, 151.7842
227.1120, 12.65918
228.3300, 131.8730
229.5480, 55.48828
230.7650, 49.25098
231.9820, 238.9023
233.1990, 78.92578
234.4160, 298.7773
235.6330, 328.4980
236.8490, 402.8213
238.0660, 419.1201
239.2820, 414.3359
240.4980, 437.8350
241.7140, 247.0020
242.9300, 304.3643
244.1460, 273.7363
245.3610, 407.8301
246.5770, 321.1729
247.7920, 412.8115
249.0070, 549.3301
250.2220, 728.7393
251.4370, 722.4150
252.6510, 737.7998
253.8660, 629.1611
255.0800, 628.3125
256.2940, 1032.178
257.5080, 1018.649
258.7220, 703.0869
259.9360, 750.2773
261.1490, 516.2959
262.3630, 740.1152
263.5760, 663.5781
264.7890, 805.4873
266.0020, 850.9404
267.2150, 711.0527
268.4270, 865.1201
269.6400, 905.1182
270.8520, 656.0283
272.0640, 621.8350
273.2760, 707.5215
274.4880, 621.0703
275.7000, 803.4609
276.9120, 834.6904
278.1230, 832.7510
279.3340, 843.6426
280.5450, 1046.363
281.7560, 1142.918
282.9670, 1539.305
284.1780, 1670.519
285.3880, 2237.541
286.5980, 2343.335
287.8090, 2841.876
289.0190, 2844.158
290.2290, 2906.188
291.4380, 2917.978
292.6480, 2567.539
293.8570, 2397.884
295.0670, 2250.021
296.2760, 1637.962
297.4850, 1479.715
298.6930, 1315.288
299.9020, 1142.690
301.1110, 895.9287
302.3190, 774.0088
303.5270, 580.9355
304.7350, 364.7021
305.9430, 319.2705
307.1510, 227.5830
308.3580, 165.6406
309.5660, 131.3057
310.7730, 131.5029
311.9800, 149.0879
313.1870, 143.9365
314.3940, 280.3086
315.6010, 310.2754
316.8070, 458.8857
318.0130, 361.2314
319.2200, 423.4277
320.4260, 442.5195
321.6310, 409.5234
322.8370, 259.4443
324.0430, 374.2588
325.2480, 348.9766
326.4540, 443.5928
327.6590, 355.1367
328.8640, 427.6133
330.0680, 451.0186
331.2730, 392.3721
332.4780, 471.6641
333.6820, 569.8896
334.8860, 506.0566
336.0900, 416.1680
337.2940, 481.2266
338.4980, 492.2178
339.7010, 465.1445
340.9050, 927.0146
342.1080, 913.8359
343.3110, 990.6064
344.5140, 1016.327
345.7170, 1020.996
346.9200, 1133.615
348.1220, 1138.912
349.3240, 1198.047
350.5270, 978.8193
351.7290, 877.2178
352.9310, 818.6631
354.1320, 851.2383
355.3340, 703.8623
356.5350, 472.6289
357.7370, 336.9150
358.9380, 420.3965
360.1390, 342.0459
361.3400, 282.8135
362.5400, 396.1035
363.7410, 258.5068
364.9410, 314.7598
366.1410, 263.7949
367.3410, 32.89355
368.5410, 13.42676
369.7410, 80.12109
370.9400, 31.84863
372.1400, 171.2471
373.3390, 76.70801
374.5380, 169.2295
375.7370, 359.4775
376.9360, 144.8281
378.1350, 217.7461
379.3330, 189.7070
380.5310, 82.47852
381.7300, 111.7793
382.9280, 174.0674
384.1260, 136.5586
385.3230, 128.2988
386.5210, 127.7344
387.7180, 33.58105
388.9160, 89.00781
390.1130, 94.14844
391.3100, 242.4775
392.5060, 364.4600
393.7030, 245.9531
394.9000, 556.2539
396.0960, 293.5537
397.2920, 484.9805
398.4880, 459.9990
399.6840, 692.0273
400.8800, 870.9863
402.0750, 860.9404
403.2710, 1034.339
404.4660, 1194.908
405.6610, 1460.480
406.8560, 1713.931
408.0510, 1848.154
409.2450, 1915.619
410.4400, 2145.311
411.6340, 2179.422
412.8280, 2317.993
414.0220, 2405.504
415.2160, 2569.247
416.4100, 2699.682
417.6030, 2958.463
418.7970, 3133.820
419.9900, 3197.019
421.1830, 3306.005
422.3760, 3232.066
423.5690, 3217.104
424.7610, 3088.084
425.9540, 2938.008
427.1460, 3026.877
428.3380, 2984.690
429.5300, 3116.451
430.7220, 3125.159
431.9140, 3266.814
433.1050, 3515.420
434.2970, 3847.975
435.4880, 4075.480
436.6790, 4290.938
437.8700, 4629.348
439.0610, 4854.715
440.2510, 4795.034
441.4420, 4752.308
442.6320, 4578.541
443.8220, 4551.727
445.0120, 4066.873
446.2020, 3956.718
447.3910, 3681.717
448.5810, 3193.776
449.7700, 2843.550
450.9600, 2523.530
452.1490, 2114.893
453.3370, 1902.809
454.5260, 1632.717
455.7150, 1488.844
456.9030, 1348.912
458.0910, 1076.256
459.2800, 1057.855
460.4670, 767.0889
461.6550, 886.9062
462.8430, 737.9795
464.0300, 753.1270
465.2180, 631.1328
466.4050, 722.3594
467.5920, 699.2080
468.7790, 812.9492
469.9650, 945.0820
471.1520, 704.8418
472.3380, 905.9023
473.5250, 905.0596
474.7110, 881.9688
475.8970, 1052.206
477.0820, 1196.855
478.2680, 1284.466
479.4540, 1508.238
480.6390, 1567.512
481.8240, 1807.830
483.0090, 2001.035
484.1940, 2235.384
485.3780, 2447.719
486.5630, 2581.568
487.7470, 2709.084
488.9320, 2789.635
490.1160, 2840.914
491.3000, 2843.179
492.4830, 2840.431
493.6670, 2793.678
494.8500, 2765.918
496.0340, 2604.165
497.2170, 2675.418
498.4000, 2638.712
499.5820, 2697.127
500.7650, 2704.028
501.9480, 2648.445
503.1300, 2988.637
504.3120, 3145.747
505.4940, 3137.484
506.6760, 3538.859
507.8580, 3810.688
509.0390, 4246.473
510.2210, 4781.609
511.4020, 5386.846
512.5830, 6029.061
513.7640, 7192.041
514.9450, 7983.221
516.1250, 9427.672
517.3060, 10998.57
518.4860, 13085.84
519.6660, 15858.65
520.8460, 18992.04
522.0260, 22770.69
523.2060, 26417.45
524.3850, 30238.88
525.5650, 33868.96
526.7440, 36171.97
527.9230, 37688.98
529.1020, 37735.28
530.2810, 35698.45
531.4590, 32403.42
532.6380, 28432.69
533.8160, 24545.68
534.9940, 20517.65
536.1720, 17122.62
537.3500, 14444.42
538.5270, 11858.89
539.7050, 9879.570
540.8820, 8118.297
542.0590, 6861.166
543.2360, 5585.516
544.4130, 5068.453
545.5900, 4287.432
546.7660, 3866.842
547.9430, 3400.861
549.1190, 3336.898
550.2950, 2835.178
551.4710, 2560.525
552.6470, 2425.574
553.8220, 2148.473
554.9980, 1820.143
556.1730, 1717.838
557.3480, 1656.488
558.5230, 1648.135
559.6980, 1434.775
560.8730, 1319.414
562.0470, 1154.047
563.2220, 1052.670
564.3960, 1005.289
565.5700, 919.8984
566.7440, 866.5039
567.9170, 825.1016
569.0910, 689.6914
570.2640, 677.2754
571.4380, 532.8555
572.6110, 720.4258
573.7840, 617.9922
574.9570, 505.5508
576.1290, 344.1074
577.3020, 493.6562
578.4740, 488.1973
579.6460, 477.7363
580.8180, 715.2676
581.9900, 512.7949
583.1620, 517.3164
584.3330, 292.8320
585.5040, 461.3418
586.6760, 442.8477
587.8470, 421.3496
589.0180, 560.8535
590.1880, 471.3574
591.3590, 251.8672
592.5290, 341.3848
593.7000, 244.9180
594.8700, 275.4570
596.0400, 358.4629
597.2090, 296.6172
598.3790, 188.6387
599.5490, 218.4746
600.7180, 168.5586
601.8870, 157.6445
603.0560, 169.2344
604.2250, 146.8242
605.3940, 177.4180
606.5620, 187.0137
607.7300, 261.6133
608.8990, 122.2148
610.0670, 139.8223
611.2350, 196.4277
612.4020, 457.0391
613.5700, 236.6484
614.7370, 631.2578
615.9050, 703.8730
617.0720, 779.4863
618.2390, 832.0957
619.4060, 1016.957
620.5720, 1332.318
621.7390, 1441.930
622.9050, 1774.537
624.0710, 2090.146
625.2370, 1668.752
626.4030, 1849.350
627.5690, 1591.945
628.7340, 1511.535
629.9000, 1204.506
631.0650, 980.0820
632.2300, 718.6543
633.3950, 727.2207
634.5600, 531.7812
635.7240, 530.7402
636.8890, 548.4160
638.0530, 570.2422
639.2170, 719.1895
640.3810, 845.7871
641.5450, 1132.434
642.7080, 1097.508
643.8720, 1031.598
645.0350, 1272.615
646.1980, 1554.129
647.3610, 1360.564
648.5240, 1335.996
649.6870, 1391.668
650.8490, 1265.295
652.0120, 1388.879
653.1740, 1258.395
654.3360, 1041.912
655.4980, 984.4668
656.6600, 681.0293
657.8210, 489.6230
658.9830, 374.2988
660.1440, 332.2500
661.3050, 46.23242
662.4660, 155.0039
663.6270, 115.2695
664.7870, 6.447266
665.9480, 135.2949
667.1080, 101.1680
668.2680, 0.2050780
669.4280, 137.3379
670.5880, 128.9863
671.7480, 226.3066
672.9070, 193.7227
674.0670, 194.0781
675.2260, 181.9375
676.3850, 57.95117
677.5440, 199.2773
678.7030, 101.0469
679.8610, 276.5703
681.0200, 5.507813
682.1780, 44.11523
683.3360, 140.7109
684.4940, 133.7148
685.6520, 140.2539
686.8090, 116.0938
687.9670, 110.4199
689.1240, 50.72070
690.2810, 32.99414
691.4380, 101.2402
692.5950, 135.4629
693.7520, 188.3027
694.9080, 179.8398
696.0650, 331.9980
697.2210, 368.1328
698.3770, 458.2500
699.5330, 641.3418
700.6880, 760.4160
701.8440, 841.4668
702.9990, 1106.498
704.1550, 1269.508
705.3100, 1591.496
706.4650, 1663.465
707.6190, 2148.412
708.7740, 2206.338
709.9290, 2206.242
711.0830, 2250.127
712.2370, 1807.988
713.3910, 1559.832
714.5450, 1580.650
715.6980, 1460.451
716.8520, 1268.230
718.0050, 1024.988
719.1580, 857.7246
720.3110, 600.4414
721.4640, 577.1348
722.6170, 373.8105
723.7700, 365.4609
724.9220, 260.0918
726.0740, 306.7012
727.2260, 340.2891
728.3780, 187.8535
729.5300, 263.4023
730.6810, 184.9277
731.8330, 172.4297
732.9840, 300.9102
734.1350, 64.37109
735.2860, 161.8086
736.4370, 203.2207
737.5880, 109.6133
738.7380, 436.9805
739.8880, 236.3281
741.0390, 318.6523
742.1890, 238.9551
743.3380, 569.2383
744.4880, 436.5000
745.6380, 630.7402
746.7870, 826.9609
747.9360, 840.1602
749.0850, 742.3359
750.2340, 825.4941
751.3830, 846.6309
752.5310, 952.7461
753.6800, 961.8438
754.8280, 795.9180
755.9760, 760.9727
757.1240, 556.0078
758.2720, 756.0215
759.4190, 581.0156
760.5670, 626.9883
761.7140, 557.9414
762.8610, 452.8770
764.0080, 443.7891
765.1550, 253.6836
766.3020, 305.5547
767.4480, 55.40625
768.5950, 315.2344
769.7410, 198.0430
770.8870, 222.8320
772.0330, 246.6016
773.1780, 50.35156
774.3240, 112.0762
775.4690, 61.22070
776.6140, 15.59375
777.7590, 74.01758
778.9040, 106.8848
780.0490, 82.13477
781.1940, 66.82812
782.3380, 14.40039
783.4820, 163.5898
784.6260, 26.76172
785.7700, 42.09570
786.9140, 84.98047
788.0580, 96.03906
789.2010, 104.4727
790.3450, 141.0918
791.4880, 126.0879
792.6310, 149.0664
793.7730, 139.0254
794.9160, 118.9668
796.0590, 118.8887
797.2010, 35.20898
798.3430, 51.36523
799.4850, 190.0039
800.6270, 7.759766
801.7690, 36.35352
802.9100, 72.55078
804.0520, 28.55469
805.1930, 14.60938
806.3340, 24.97266
807.4750, 69.39844
808.6160, 33.79688
809.7560, 25.28320
810.8970, 178.8672
812.0370, 99.96875
813.1770, 56.40039
814.3170, 55.49805
815.4570, 15.43164
816.5960, 17.73242
817.7360, 75.15430
818.8750, 170.7832
820.0140, 31.22266
821.1530, 216.0586
822.2920, 106.8320
823.4310, 87.16211
824.5690, 112.8672
825.7070, 95.54297
826.8460, 172.9590
827.9840, 69.29492
829.1220, 216.9121
830.2590, 187.6641
831.3970, 45.63281
832.5340, 257.5586
833.6710, 254.5137
834.8080, 291.4648
835.9450, 169.4062
837.0820, 215.3438
838.2190, 339.2773
839.3550, 522.2012
840.4910, 583.1191
841.6270, 517.0332
842.7630, 443.9395
843.8990, 745.8398
845.0350, 452.7344
846.1700, 817.6270
847.3060, 646.5117
848.4410, 913.3926
849.5760, 764.2676
850.7100, 998.1406
851.8450, 827.0059
852.9800, 1007.869
854.1140, 974.7266
855.2480, 1218.584
856.3820, 1307.434
857.5160, 1363.281
858.6500, 1631.127
859.7830, 1706.969
860.9170, 1764.809
862.0500, 1558.645
863.1830, 1336.479
864.3160, 1446.309
865.4480, 1128.139
866.5810, 934.9629
867.7130, 936.7891
868.8460, 724.6055
869.9780, 676.4297
871.1100, 455.8008
872.2410, 564.5859
873.3730, 615.4102
874.5050, 628.9766
875.6360, 417.8047
876.7670, 538.6719
877.8980, 639.5723
879.0290, 269.5137
880.1590, 294.4707
881.2900, 446.4629
882.4200, 360.4551
883.5500, 216.4473
884.6800, 357.4707
885.8100, 340.4922
886.9400, 428.5723
888.0690, 367.6777
889.1990, 378.8047
890.3280, 320.9355
891.4570, 403.0703
892.5860, 443.2148
893.7140, 396.3633
894.8430, 404.5273
895.9710, 548.6914
897.1000, 298.8633
898.2280, 395.0391
899.3560, 285.2148
900.4830, 482.3965
901.6110, 288.5801
902.7380, 157.7656
903.8660, 446.5703
904.9930, 343.7637
906.1200, 277.9648
907.2460, 172.1660
908.3730, 183.2422
909.5000, 463.1816
910.6260, 186.2734
911.7520, 345.2109
912.8780, 285.0293
914.0040, 308.1973
915.1290, 276.4414
916.2550, 242.0234
917.3800, 194.7090
918.5050, 209.4746
919.6300, 294.7461
920.7550, 127.0996
921.8800, 195.4570
923.0040, 218.5762
924.1290, 363.7715
925.2530, 392.0273
926.3770, 419.3984
927.5010, 839.7891
928.6250, 930.2070
929.7480, 960.6621
930.8720, 1297.135
931.9950, 1521.637
933.1180, 1562.902
934.2410, 1565.205
935.3640, 1577.721
936.4860, 1721.836
937.6090, 1375.031
938.7310, 1268.178
939.8530, 1011.420
940.9750, 1030.814
942.0970, 824.6211
943.2180, 645.3379
944.3400, 582.0117
945.4610, 493.4453
946.5820, 200.3164
947.7030, 416.3516
948.8240, 339.4844
949.9450, 270.9043
951.0650, 483.7656
952.1860, 365.0664
953.3060, 248.1250
954.4260, 335.4688
955.5460, 486.8320
956.6650, 370.2168
957.7850, 253.6602
958.9040, 293.1680
960.0230, 519.6953
961.1420, 653.2422
962.2610, 626.8145
963.3800, 725.4102
964.4990, 932.0234
965.6170, 1222.654
966.7350, 1105.305
967.8530, 1272.969
968.9710, 1450.656
970.0890, 1447.359
971.2070, 1488.080
972.3240, 1555.816
973.4410, 1691.574
974.5580, 1563.350
975.6750, 1451.141
976.7920, 1276.947
977.9090, 803.7773
979.0250, 816.6230
980.1410, 638.4863
981.2580, 562.3691
982.3740, 708.2695
983.4890, 682.1895
984.6050, 792.3477
985.7200, 794.0840
986.8360, 1032.057
987.9510, 1092.049
989.0660, 1223.641
990.1810, 1313.088
991.2950, 1261.139
992.4100, 1148.205
993.5240, 1095.291
994.6390, 1084.396
995.7530, 1387.518
996.8660, 1491.658
997.9800, 1591.822
999.0940, 1519.000
1000.207, 1969.199
1001.320, 2343.418
1002.433, 2075.652
1003.546, 1929.906
1004.659, 1535.004
1005.772, 1019.297
1006.884, 1019.609
1007.996, 756.9414
1009.108, 725.1230
1010.220, 814.3926
1011.332, 740.5566
1012.444, 745.8379
1013.555, 899.9883
1014.666, 933.2715
1015.777, 924.7305
1016.888, 1090.207
1017.999, 1340.195
1019.110, 1404.705
1020.220, 1419.420
1021.331, 1722.678
1022.441, 1741.318
1023.551, 1931.891
1024.661, 2176.479
1025.770, 2180.074
1026.880, 2346.082
1027.989, 2414.570
1029.098, 2652.219
1030.207, 2689.646
1031.316, 2741.322
1032.425, 2754.018
1033.533, 2682.723
1034.642, 3211.445
1035.750, 3561.182
1036.858, 4032.934
1037.966, 4872.701
1039.073, 5097.484
1040.181, 5636.281
1041.288, 6197.092
1042.396, 6176.918
1043.503, 5626.762
1044.610, 5043.623
1045.716, 4347.523
1046.823, 3657.457
1047.929, 3117.436
1049.036, 2459.469
1050.142, 2243.553
1051.248, 1723.676
1052.353, 1756.826
1053.459, 1580.990
1054.564, 1519.174
1055.670, 1058.393
1056.775, 964.5449
1057.880, 669.7773
1058.985, 794.6230
1060.089, 562.8555
1061.194, 791.9531
1062.298, 688.8145
1063.402, 566.3555
1064.506, 779.1055
1065.610, 595.6230
1066.713, 738.4453
1067.817, 762.8535
1068.920, 504.2754
1070.023, 721.7168
1071.126, 579.1699
1072.229, 760.6680
1073.332, 660.6582
1074.435, 752.2051
1075.537, 925.5176
1076.639, 967.0977
1077.741, 981.0352
1078.843, 1045.660
1079.945, 1127.344
1081.046, 1131.426
1082.148, 1191.797
1083.249, 1203.547
1084.350, 1197.109
1085.451, 1137.080
1086.551, 1101.873
1087.652, 1051.674
1088.752, 857.4824
1089.853, 958.2969
1090.953, 1013.119
1092.053, 860.9473
1093.152, 761.7852
1094.252, 743.3438
1095.351, 668.1934
1096.451, 682.0488
1097.550, 647.9121
1098.649, 648.7793
1099.748, 538.6484
1100.846, 604.5293
1101.945, 511.7637
1103.043, 595.3047
1104.141, 587.9199
1105.239, 568.1074
1106.337, 596.0215
1107.434, 637.9414
1108.532, 593.8652
1109.629, 687.7949
1110.726, 652.7305
1111.823, 595.6699
1112.920, 532.6152
1114.017, 572.5625
1115.113, 658.5176
1116.210, 590.4766
1117.306, 408.4395
1118.402, 267.4062
1119.498, 396.3770
1120.593, 361.3555
1121.689, 445.3320
1122.784, 321.3164
1123.879, 437.3047
1124.974, 429.2969
1126.069, 293.2930
1127.164, 124.2949
1128.259, 405.2988
1129.353, 26.30469
1130.447, 52.31641
1131.541, 360.3301
1132.635, 331.3496
1133.729, 314.3711
1134.822, 69.39648
1135.916, 16.57422
1137.009, 364.4473
1138.102, 98.47266
1139.195, 15.50000
1140.288, 14.46875
1141.380, 151.4414
1142.473, 132.8828
1143.565, 165.6055
1144.657, 47.80664
1145.749, 132.0254
1146.841, 73.68555
1147.932, 29.40039
1149.024, 108.8516
1150.115, 72.84180
1151.206, 198.4629
1152.297, 94.87109
1153.388, 84.32617
1154.479, 60.17188
1155.569, 18.67383
1156.659, 29.82422
1157.750, 0.6601560
1158.839, 26.62500
1159.929, 22.60742
1161.019, 5.923828
1162.108, 51.53711
1163.198, 100.9980
1164.287, 204.4629
1165.376, 291.9297
1166.465, 334.3945
1167.553, 358.1250
1168.642, 307.3340
1169.730, 339.8047
1170.818, 350.8867
1171.906, 91.75195
1172.994, 353.2266
1174.082, 258.7031
1175.170, 148.1816
1176.257, 273.6602
1177.344, 130.1406
1178.431, 80.61914
1179.518, 182.0996
1180.605, 210.5801
1181.691, 197.2930
1182.778, 223.5430
1183.864, 168.0234
1184.950, 123.5020
1186.036, 61.98438
1187.122, 37.53711
1188.207, 21.28516
1189.292, 63.81641
1190.378, 20.26758
1191.463, 50.89648
1192.548, 78.56445
1193.632, 24.28125
1194.717, 44.06250
1195.801, 5.197266
1196.886, 27.58203
1197.970, 84.60547
1199.054, 82.79297
1200.137, 158.9785
1201.221, 50.16211
1202.305, 203.3457
1203.388, 43.47461
1204.471, 114.6738
1205.554, 127.1797
1206.637, 178.8867
1207.719, 7.046875
1208.802, 216.0020
1209.884, 167.0508
1210.966, 354.0957
1212.048, 124.1387
1213.130, 225.1816
1214.212, 296.2207
1215.293, 222.2559
1216.374, 242.2910
1217.456, 206.3223
1218.536, 371.3516
1219.617, 315.3789
1220.698, 71.40430
1221.778, 284.4258
1222.859, 191.4453
1223.939, 13.53711
1225.019, 405.4609
1226.099, 270.4570
1227.178, 491.4512
1228.258, 199.4414
1229.337, 264.4277
1230.417, 390.4121
1231.496, 286.3984
1232.574, 426.3789
1233.653, 649.3594
1234.732, 442.9336
1235.810, 552.9082
1236.888, 605.8809
1237.966, 687.8516
1239.044, 685.8184
1240.122, 453.7871
1241.199, 402.7480
1242.277, 500.7090
1243.354, 576.6680
1244.431, 561.6230
1245.508, 480.6055
1246.585, 396.5879
1247.661, 674.5684
1248.738, 691.5430
1249.814, 551.5215
1250.890, 187.4980
1251.966, 215.4707
1253.042, 402.4414
1254.117, 152.4141
1255.193, 280.4219
1256.268, 325.4258
1257.343, 488.4316
1258.418, 605.4355
1259.493, 681.4395
1260.567, 815.4434
1261.642, 684.4805
1262.716, 935.5176
1263.790, 751.5859
1264.864, 721.6504
1265.938, 1028.908
1267.011, 811.9863
1268.085, 1016.064
1269.158, 930.1445
1270.231, 982.3945
1271.304, 988.5762
1272.377, 999.8750
1273.450, 1045.080
1274.522, 1070.436
1275.594, 939.6719
1276.666, 969.7520
1277.738, 872.9668
1278.810, 869.5566
1279.882, 894.6387
1280.953, 836.7578
1282.025, 821.8398
1283.096, 750.9180
1284.167, 765.0137
1285.238, 603.1094
1286.308, 592.2188
1287.379, 586.9336
1288.449, 457.1855
