##NAMES=Mesolite
##RRUFFID=R040139
##IDEAL CHEMISTRY=Na_2_Ca_2_(Si_9_Al_6_)O_30_&#183;8H_2_O
##LOCALITY=Lake Superior beach,  41 miles north of Tofte, Minnesota, USA
##OWNER=RRUFF
##SOURCE=University of Arizona Mineral Museum
##DESCRIPTION=Aggregate of white radiating thin acicular crystals.
##STATUS=The identification of this mineral has been confirmed by X-ray diffraction and chemical analysis
##URL=rruff.info/R040139
##MEASURED CHEMISTRY=Na_1.95_Ca_1.89_(Si_9.21_Al_5.82_)O_30_Â·8H_2_O
##PIN_ID=L00551
86.327, 0.000
87.705, 0.533
89.083, 108.502
90.461, 26.353
91.839, 1.722
93.216, 223.269
94.593, 702.640
95.971, 1225.947
97.347, 1530.220
98.724, 1703.390
100.101, 1504.443
101.477, 1562.339
102.854, 1846.005
104.230, 2034.451
105.606, 2376.777
106.982, 2802.238
108.358, 3030.331
109.733, 3141.088
111.108, 3355.652
112.484, 3054.132
113.859, 3375.561
115.233, 3459.133
116.608, 3164.282
117.983, 2640.891
119.357, 2198.520
120.731, 1746.654
122.105, 1315.057
123.479, 1033.541
124.853, 851.979
126.227, 793.712
127.600, 911.709
128.973, 1046.854
130.346, 1506.062
131.719, 1967.162
133.092, 2555.449
134.465, 3092.596
135.837, 3525.900
137.209, 3849.420
138.581, 3990.559
139.953, 4169.355
141.325, 4035.991
142.697, 4710.628
144.068, 5343.471
145.439, 6484.895
146.810, 8035.254
148.181, 9728.059
149.552, 10921.241
150.923, 11230.079
152.293, 11515.673
153.664, 11619.972
155.034, 12463.048
156.404, 13284.952
157.774, 14105.747
159.143, 14485.484
160.513, 14254.305
161.882, 13692.341
163.251, 12789.587
164.620, 12256.039
165.989, 12001.671
167.358, 11556.471
168.726, 11771.385
170.095, 11927.140
171.463, 12251.305
172.831, 11820.944
174.199, 11702.815
175.566, 11181.866
176.934, 10228.234
178.301, 9625.300
179.669, 8659.960
181.036, 8038.521
182.403, 7494.543
183.769, 6909.506
185.136, 6578.264
186.502, 6296.850
187.869, 6212.104
189.235, 5848.371
190.601, 5433.842
191.966, 4689.396
193.332, 4045.021
194.698, 3560.701
196.063, 3076.421
197.428, 2732.169
198.793, 2597.936
200.158, 2474.383
201.522, 2174.025
202.887, 1876.585
204.251, 1572.085
205.615, 1258.894
206.979, 1144.104
208.343, 773.317
209.707, 842.552
211.070, 731.659
212.434, 744.796
213.797, 813.396
215.160, 928.193
216.523, 1081.928
217.885, 982.861
219.248, 1068.800
220.610, 1140.595
221.973, 1092.246
223.335, 1429.757
224.697, 1828.128
226.058, 2440.362
227.420, 3283.459
228.781, 3796.422
230.143, 4159.234
231.504, 4061.992
232.865, 3887.232
234.225, 3094.320
235.586, 2671.953
236.946, 2046.515
238.307, 1792.598
239.667, 1814.806
241.027, 1909.432
242.387, 2128.629
243.746, 2241.502
245.106, 2312.711
246.465, 2163.663
247.824, 1916.499
249.183, 1347.218
250.542, 851.223
251.901, 597.517
253.259, 244.906
254.618, 214.507
255.976, 201.981
257.334, 230.807
258.692, 304.901
260.050, 403.199
261.407, 474.654
262.765, 257.224
264.122, 76.860
265.479, 75.496
266.836, 221.092
268.193, 332.446
269.549, 437.335
270.906, 512.342
272.262, 540.235
273.618, 595.669
274.974, 624.403
276.330, 599.467
277.686, 545.866
279.041, 548.598
280.396, 436.671
281.752, 259.065
283.107, 218.739
284.461, 28.315
285.816, 71.161
287.171, 387.805
288.525, 659.282
289.879, 996.605
291.233, 1449.778
292.587, 2109.802
293.941, 2789.672
295.294, 3216.378
296.648, 3365.881
298.001, 3563.170
299.354, 3231.191
300.707, 3058.950
302.060, 2709.457
303.412, 2619.722
304.765, 2356.755
306.117, 2139.562
307.469, 1974.168
308.821, 1674.573
310.173, 1488.789
311.525, 1182.792
312.876, 1088.592
314.228, 920.188
315.579, 818.605
316.930, 764.846
318.281, 562.911
319.631, 562.806
320.982, 534.536
322.332, 478.102
323.683, 365.513
325.033, 324.753
326.383, 325.827
327.732, 308.656
329.082, 327.772
330.431, 364.063
331.781, 401.484
333.130, 440.692
334.479, 513.650
335.827, 636.382
337.176, 819.927
338.525, 1204.100
339.873, 1315.990
341.221, 2006.055
342.569, 775.288
343.917, 797.625
345.265, 994.120
346.612, 1061.863
347.960, 1401.093
349.307, 1573.066
350.654, 1768.936
352.001, 1950.738
353.347, 1981.479
354.694, 2108.158
356.040, 1896.774
357.387, 1689.327
358.733, 1645.817
360.079, 1397.244
361.425, 1312.607
362.770, 1312.904
364.116, 1268.120
365.461, 1386.243
366.806, 1343.265
368.151, 1498.171
369.496, 1367.946
370.841, 1358.822
372.185, 1294.853
373.529, 1140.305
374.874, 1192.727
376.218, 927.375
377.562, 791.431
378.905, 683.556
380.249, 580.611
381.592, 689.600
382.936, 481.525
384.279, 632.379
385.622, 623.170
386.964, 629.898
388.307, 671.562
389.650, 709.165
390.992, 729.707
392.334, 691.189
393.676, 823.612
395.018, 794.966
396.360, 763.245
397.701, 881.443
399.042, 929.569
400.384, 1060.625
401.725, 1192.617
403.066, 1388.549
404.406, 1589.422
405.747, 1803.241
407.087, 2224.014
408.428, 2602.741
409.768, 3076.423
411.108, 3698.060
412.447, 4354.187
413.787, 5106.156
415.127, 5534.785
416.466, 6062.706
417.805, 6400.215
419.144, 6568.170
420.483, 7097.146
421.822, 7117.063
423.160, 7557.436
424.499, 7685.188
425.837, 7657.607
427.175, 7620.931
428.513, 7294.895
429.850, 7281.650
431.188, 6811.604
432.526, 6986.636
433.863, 7129.707
435.200, 7469.096
436.537, 8236.486
437.874, 8995.252
439.210, 10027.196
440.547, 11388.799
441.883, 12787.260
443.219, 14296.708
444.555, 15128.534
445.891, 16235.673
447.227, 16334.871
448.563, 16421.879
449.898, 16411.055
451.233, 15601.553
452.568, 15172.540
453.903, 13913.461
455.238, 12844.311
456.573, 11625.094
457.907, 10305.812
459.241, 8856.465
460.576, 7607.084
461.910, 6607.611
463.243, 5498.138
464.577, 4808.543
465.911, 4248.916
467.244, 3592.207
468.577, 3314.845
469.910, 2911.093
471.243, 2643.235
472.576, 2573.419
473.908, 2419.048
475.241, 2309.731
476.573, 2152.001
477.905, 2101.193
479.237, 2174.438
480.569, 2202.731
481.901, 2256.313
483.232, 2208.220
484.564, 2375.455
485.895, 2505.078
487.226, 2548.565
488.557, 2743.626
489.887, 2953.530
491.218, 3243.980
492.548, 3289.032
493.879, 3554.279
495.209, 3820.241
496.539, 3747.196
497.868, 4105.011
499.198, 3944.389
500.528, 4103.834
501.857, 4123.245
503.186, 4010.721
504.515, 4198.313
505.844, 4356.750
507.173, 4555.479
508.501, 4784.908
509.830, 5164.353
511.158, 5813.820
512.486, 6033.292
513.814, 6742.792
515.142, 7632.292
516.469, 8341.786
517.797, 9921.281
519.124, 11230.775
520.451, 13220.266
521.778, 15159.748
523.105, 18189.219
524.432, 22238.676
525.758, 26188.148
527.085, 32657.600
528.411, 37857.039
529.737, 45116.477
531.063, 52195.898
532.388, 54865.320
533.714, 55474.180
535.040, 55304.043
536.365, 49482.492
537.690, 43520.379
539.015, 35497.812
540.340, 29234.818
541.664, 23252.293
542.989, 19028.523
544.313, 15415.769
545.638, 12402.990
546.962, 10550.243
548.285, 8757.681
549.609, 7515.277
550.933, 6362.968
552.256, 5550.505
553.580, 4878.603
554.903, 4226.587
556.226, 3784.447
557.548, 3402.809
558.871, 3029.381
560.194, 2774.511
561.516, 2435.768
562.838, 2257.901
564.160, 2031.265
565.482, 1894.503
566.804, 1773.736
568.125, 1501.964
569.447, 1493.186
570.768, 1336.403
572.089, 1187.616
573.410, 1200.834
574.731, 990.069
576.052, 1021.322
577.372, 906.597
578.693, 908.891
580.013, 806.199
581.333, 772.515
582.653, 721.839
583.972, 661.182
585.292, 718.566
586.611, 642.034
587.931, 645.623
589.250, 573.364
590.569, 579.284
591.888, 562.403
593.206, 481.731
594.525, 444.282
595.843, 407.064
597.161, 300.072
598.479, 366.292
599.797, 267.724
601.115, 220.341
602.433, 322.096
603.750, 179.980
605.067, 276.928
606.384, 306.929
607.701, 217.949
609.018, 247.977
610.335, 297.008
611.651, 245.039
612.968, 231.070
614.284, 170.102
615.600, 71.134
616.916, 34.167
618.232, 15.090
619.547, 60.236
620.863, 9.271
622.178, 34.307
623.493, 15.343
624.808, 107.620
626.123, 90.374
627.438, 134.386
628.752, 44.178
630.066, 135.152
631.381, 10.159
632.695, 101.281
634.009, 102.764
635.322, 78.854
636.636, 115.357
637.949, 116.524
639.263, 104.361
640.576, 146.781
641.889, 59.369
643.202, 87.300
644.514, 53.875
645.827, 78.485
647.139, 92.287
648.452, 42.870
649.764, 11.203
651.076, 103.055
652.387, 146.369
653.699, 325.425
655.010, 393.187
656.322, 341.292
657.633, 355.154
658.944, 291.149
660.255, 480.007
661.565, 500.263
662.876, 447.356
664.186, 614.647
665.497, 626.802
666.807, 854.233
668.117, 949.583
669.426, 1004.705
670.736, 1203.452
672.046, 1318.786
673.355, 1515.210
674.664, 1470.208
675.973, 1369.255
677.282, 1370.298
678.591, 1108.312
679.899, 982.744
681.208, 843.889
682.516, 690.318
683.824, 687.620
685.132, 476.054
686.440, 524.502
687.748, 466.755
689.055, 306.081
690.362, 464.378
691.670, 404.661
692.977, 530.944
694.284, 545.208
695.590, 472.446
696.897, 680.701
698.203, 653.919
699.510, 795.140
700.816, 846.456
702.122, 904.829
703.428, 1097.788
704.733, 1127.075
706.039, 1359.019
707.344, 1701.085
708.650, 1907.445
709.955, 2844.158
711.260, 2684.170
712.564, 3188.313
713.869, 3715.334
715.173, 3817.590
716.478, 4169.800
717.782, 3741.921
719.086, 3393.931
720.390, 3037.735
721.694, 2597.820
722.997, 2215.663
724.301, 1869.604
725.604, 1532.594
726.907, 1318.602
728.210, 1092.091
729.513, 1031.774
730.815, 857.427
732.118, 882.163
733.420, 882.008
734.723, 527.833
736.025, 622.581
737.327, 565.015
738.628, 557.637
739.930, 517.183
741.231, 588.514
742.533, 609.183
743.834, 637.479
745.135, 680.079
746.436, 721.956
747.736, 775.058
749.037, 845.855
750.337, 896.055
751.638, 1003.231
752.938, 1074.384
754.238, 1183.512
755.538, 1256.628
756.837, 1345.704
758.137, 1338.752
759.436, 1402.775
760.735, 1324.766
762.034, 1277.727
763.333, 1339.658
764.632, 1237.559
765.931, 1261.430
767.229, 1106.270
768.527, 1040.080
769.825, 946.859
771.123, 848.610
772.421, 784.325
773.719, 686.012
775.017, 616.642
776.314, 542.266
777.611, 411.798
778.908, 356.189
780.205, 305.553
781.502, 198.358
782.799, 266.415
784.095, 189.773
785.392, 231.147
786.688, 151.358
787.984, 93.633
789.280, 97.048
790.575, 11.646
791.871, 30.399
793.167, 13.194
794.462, 4.471
795.757, 44.623
797.052, 92.693
798.347, 103.579
799.642, 62.664
800.936, 14.718
802.230, 12.742
803.525, 61.397
804.819, 63.538
806.113, 71.230
807.407, 125.838
808.700, 9.735
809.994, 4.693
811.287, 172.289
812.580, 406.238
813.873, 197.155
815.166, 331.041
816.459, 123.106
817.752, 104.375
819.044, 27.755
820.336, 105.208
821.629, 77.774
822.921, 108.438
824.212, 41.218
825.504, 115.076
826.796, 29.053
828.087, 19.898
829.378, 24.199
830.670, 9.366
831.961, 9.595
833.251, 29.113
834.542, 68.778
835.833, 24.406
837.123, 49.011
838.413, 90.489
839.703, 55.954
840.993, 50.381
842.283, 92.771
843.573, 72.100
844.862, 75.442
846.151, 75.725
847.441, 71.970
848.730, 74.105
850.018, 78.622
851.307, 72.493
852.596, 80.596
853.884, 77.663
855.173, 54.695
856.461, 6.309
857.749, 136.630
859.037, 56.538
860.324, 136.409
861.612, 105.247
862.899, 41.050
864.186, 184.818
865.474, 110.553
866.760, 76.256
868.047, 102.925
869.334, 43.560
870.620, 51.160
871.907, 67.724
873.193, 90.259
874.479, 134.760
875.765, 63.230
877.051, 116.666
878.336, 89.070
879.622, 72.452
880.907, 63.799
882.192, 183.114
883.477, 11.399
884.762, 134.644
886.047, 109.857
887.332, 79.040
888.616, 79.190
889.900, 92.310
891.184, 162.398
892.468, 112.457
893.752, 125.486
895.036, 197.486
896.320, 85.458
897.603, 176.399
898.886, 91.312
900.169, 153.196
901.452, 168.052
902.735, 222.881
904.018, 205.683
905.300, 168.458
906.583, 176.681
907.865, 170.898
909.147, 153.676
910.429, 167.363
911.711, 195.023
912.992, 151.658
914.274, 315.266
915.555, 452.847
916.836, 623.404
918.117, 288.936
919.398, 264.442
920.679, 270.932
921.960, 227.397
923.240, 359.838
924.520, 449.254
925.800, 415.645
927.080, 503.011
928.360, 534.353
929.640, 577.672
930.920, 698.967
932.199, 634.238
933.478, 806.487
934.757, 884.712
936.036, 1091.692
937.315, 1264.897
938.594, 1456.842
939.872, 1825.942
941.151, 2015.717
942.429, 2120.226
943.707, 2303.746
944.985, 2252.848
946.263, 1986.339
947.541, 2018.472
948.818, 1654.252
950.096, 1606.595
951.373, 1500.081
952.650, 1378.196
953.927, 1500.370
955.204, 1302.866
956.480, 1311.550
957.757, 1291.271
959.033, 1166.834
960.309, 1121.878
961.585, 958.464
962.861, 913.307
964.137, 977.438
965.412, 907.229
966.688, 1095.245
967.963, 1180.113
969.238, 1354.104
970.513, 1661.687
971.788, 1797.428
973.063, 2189.962
974.338, 2351.619
975.612, 2508.985
976.886, 2752.418
978.160, 2728.062
979.434, 2638.067
980.708, 2457.472
981.982, 2329.770
983.256, 2107.482
984.529, 1923.129
985.802, 1859.771
987.075, 1728.424
988.348, 1623.649
989.621, 1718.183
990.894, 1626.419
992.166, 1671.778
993.439, 1817.023
994.711, 1893.237
995.983, 1925.636
997.255, 2227.948
998.527, 2166.274
999.799, 2232.603
1001.070, 2449.932
1002.341, 2605.269
1003.613, 3054.660
1004.884, 3019.028
1006.155, 3223.432
1007.425, 3207.825
1008.696, 2952.126
1009.967, 2704.409
1011.237, 2554.102
1012.507, 2141.462
1013.777, 2090.180
1015.047, 1693.770
1016.317, 1725.058
1017.586, 1603.015
1018.856, 1545.665
1020.125, 1700.211
1021.394, 1650.882
1022.663, 1698.308
1023.932, 1878.789
1025.201, 1789.158
1026.470, 2088.814
1027.738, 2225.672
1029.006, 2544.235
1030.275, 2939.029
1031.543, 3235.851
1032.811, 3930.472
1034.078, 4595.062
1035.346, 4930.162
1036.613, 5944.053
1037.881, 6098.971
1039.148, 6653.792
1040.415, 7248.489
1041.682, 7323.460
1042.948, 7468.242
1044.215, 7443.325
1045.481, 7378.312
1046.748, 7253.269
1048.014, 6938.426
1049.280, 6873.232
1050.546, 6768.397
1051.811, 5993.522
1053.077, 5878.639
1054.342, 5093.813
1055.608, 4479.063
1056.873, 4164.249
1058.138, 3583.765
1059.402, 3608.984
1060.667, 3384.186
1061.932, 3049.577
1063.196, 3294.802
1064.460, 3060.031
1065.724, 3115.277
1066.988, 3280.514
1068.252, 3095.860
1069.516, 3371.258
1070.779, 3066.507
1072.043, 3093.824
1073.306, 3299.080
1074.569, 3234.339
1075.832, 3129.674
1077.095, 3354.940
1078.358, 3150.211
1079.620, 3445.486
1080.882, 3490.765
1082.145, 3376.276
1083.407, 3641.564
1084.669, 3606.857
1085.931, 3642.254
1087.192, 3727.556
1088.454, 3562.864
1089.715, 3708.180
1090.976, 3373.501
1092.237, 3349.110
1093.498, 3324.452
1094.759, 2949.802
1096.020, 2785.159
1097.280, 2480.540
1098.541, 2305.934
1099.801, 2152.574
1101.061, 1861.012
1102.321, 1781.748
1103.581, 1726.260
1104.840, 1656.815
1106.100, 1703.537
1107.359, 1681.148
1108.618, 1512.781
1109.877, 1725.738
1111.136, 1570.437
1112.395, 1559.395
1113.654, 1692.180
1114.912, 1574.985
1116.171, 1660.448
1117.429, 1500.277
1118.687, 1325.227
1119.945, 1473.158
1121.202, 1157.000
1122.460, 1153.485
1123.718, 1096.757
1124.975, 962.720
1126.232, 900.925
1127.489, 848.030
1128.746, 824.120
1130.003, 784.614
1131.259, 653.776
1132.516, 635.096
1133.772, 627.675
1135.028, 564.896
1136.285, 578.907
1137.540, 505.164
1138.796, 496.690
1140.052, 454.324
1141.307, 313.553
1142.563, 350.163
1143.818, 327.691
1145.073, 279.006
1146.328, 388.755
1147.583, 260.272
1148.837, 299.599
1150.092, 316.379
1151.346, 231.171
1152.600, 218.508
1153.854, 194.890
1155.108, 96.233
1156.362, 112.991
1157.615, 159.643
1158.869, 69.400
1160.122, 168.223
1161.375, 96.585
1162.629, 111.171
1163.881, 237.231
1165.134, 122.678
1166.387, 139.188
1167.639, 65.901
1168.892, 160.268
1170.144, 146.156
1171.396, 19.762
1172.648, 101.175
1173.900, 176.593
1175.151, 38.044
1176.403, 163.975
1177.654, 70.577
1178.905, 74.945
1180.156, 106.659
1181.407, 66.498
1182.658, 54.828
1183.909, 96.573
1185.159, 12.184
1186.409, 39.772
1187.660, 18.203
1188.910, 73.547
1190.159, 98.858
1191.409, 11.669
1192.659, 24.904
1193.908, 30.485
1195.158, 1.011
1196.407, 122.299
1197.656, 51.027
1198.905, 85.573
1200.154, 130.912
1201.402, 9.239
1202.651, 131.020
1203.899, 99.691
1205.147, 14.844
1206.395, 101.343
1207.643, 90.945
1208.891, 30.656
1210.139, 109.835
1211.386, 0.800
1212.634, 94.235
1213.881, 176.633
1215.128, 41.257
1216.375, 179.398
1217.622, 23.147
1218.868, 13.455
1220.115, 173.570
1221.361, 45.198
1222.607, 80.887
1223.853, 114.958
1225.099, 39.022
1226.345, 156.077
1227.591, 99.124
1228.836, 75.616
1230.082, 149.646
1231.327, 8.767
1232.572, 157.109
1233.817, 110.110
1235.062, 43.450
1236.306, 191.438
1237.551, 92.832
1238.795, 153.384
1240.040, 255.399
1241.284, 7.137
1242.528, 197.744
1243.771, 87.770
1245.015, 128.998
1246.259, 88.033
1247.502, 128.942
1248.745, 30.440
1249.988, 166.328
1251.231, 22.214
1252.474, 193.427
1253.717, 252.305
1254.959, 59.235
1256.202, 143.143
1257.444, 106.992
1258.686, 47.750
1259.928, 184.061
1261.170, 43.866
1262.412, 140.089
1263.653, 229.879
1264.895, 34.338
1266.136, 141.798
1267.377, 76.554
1268.618, 83.311
1269.859, 114.073
1271.100, 2.745
1272.340, 30.132
1273.581, 162.836
1274.821, 65.437
1276.061, 99.121
1277.301, 122.643
1278.541, 26.149
1279.781, 158.682
1281.020, 87.107
1282.260, 28.494
1283.499, 162.034
1284.738, 4.311
1285.977, 135.038
1287.216, 62.247
1288.455, 130.577
1289.694, 155.849
1290.932, 18.050
1292.170, 95.960
1293.409, 153.185
1294.647, 28.180
1295.885, 85.138
1297.122, 152.103
1298.360, 26.001
1299.597, 33.873
1300.835, 152.971
1302.072, 106.213
1303.309, 188.854
1304.546, 42.587
1305.783, 62.271
1307.019, 41.983
1308.256, 143.379
1309.492, 147.194
1310.728, 88.911
1311.965, 50.556
1313.200, 123.940
1314.436, 109.412
1315.672, 76.137
1316.907, 196.263
1318.143, 110.359
1319.378, 10.044
1320.613, 135.221
1321.848, 38.540
1323.083, 155.659
1324.318, 19.019
1325.552, 9.837
1326.787, 145.274
1328.021, 62.363
1329.255, 31.423
1330.489, 180.316
1331.723, 48.322
1332.957, 80.299
1334.190, 85.247
1335.424, 7.837
1336.657, 144.042
1337.890, 152.896
1339.123, 24.274
1340.356, 87.263
1341.589, 85.028
1342.821, 25.235
1344.054, 240.371
1345.286, 47.046
1346.518, 89.696
1347.750, 138.366
1348.982, 25.969
1350.214, 205.271
1351.445, 54.824
1352.677, 14.356
1353.908, 93.795
1355.139, 3.277
1356.370, 53.412
1357.601, 196.823
1358.832, 35.764
1360.063, 88.431
1361.293, 95.787
1362.524, 40.125
1363.754, 268.425
1364.984, 22.725
1366.214, 110.900
1367.444, 231.013
1368.673, 125.261
1369.903, 152.429
1371.132, 202.648
1372.362, 300.854
1373.591, 220.271
1374.820, 225.157
1376.048, 46.330
1377.277, 257.493
1378.506, 131.647
1379.734, 76.569
1380.962, 171.712
1382.191, 74.512
1383.419, 158.554
1384.646, 57.697
1385.874, 30.031
1387.102, 145.186
1388.329, 15.352
1389.556, 1.747
1390.784, 137.389
1392.011, 87.899
1393.238, 132.044
1394.464, 241.206
1395.691, 34.020
1396.917, 321.081
1398.144, 257.560
1399.370, 85.279
1400.596, 350.841
1401.822, 147.103
1403.048, 152.480
1404.273, 307.062
1405.499, 63.810
1406.724, 183.083
1407.949, 236.911
1409.175, 65.979
1410.400, 281.095
1411.624, 249.048
1412.849, 82.242
1414.074, 313.125
1415.298, 169.525
1416.522, 146.725
1417.746, 322.162
1418.970, 11.735
1420.194, 134.957
1421.418, 299.348
1422.642, 128.052
1423.865, 160.027
1425.088, 193.844
1426.311, 113.902
1427.534, 270.126
1428.757, 177.494
1429.980, 77.488
1431.203, 304.619
1432.425, 1.705
1433.647, 261.341
1434.870, 214.375
1436.092, 34.746
1437.314, 284.927
1438.535, 103.773
1439.757, 74.201
1440.979, 196.889
1442.200, 110.611
1443.421, 87.067
1444.642, 153.921
1445.863, 38.892
1447.084, 160.441
1448.305, 206.790
1449.525, 20.409
1450.746, 240.079
1451.966, 456.845
1453.186, 77.842
1454.406, 328.938
1455.626, 102.693
1456.846, 49.510
1458.065, 412.520
1459.285, 119.492
1460.504, 211.619
1461.723, 378.722
1462.942, 140.914
1464.161, 236.900
1465.380, 241.398
1466.599, 250.336
1467.817, 337.062
1469.035, 98.239
1470.254, 116.382
1471.472, 346.924
1472.690, 164.889
1473.907, 256.791
1475.125, 233.814
1476.343, 219.682
1477.560, 384.335
1478.777, 227.008
1479.994, 175.295
1481.211, 422.069
1482.428, 782.354
1483.645, 509.223
1484.861, 753.078
1486.078, 236.847
1487.294, 262.347
1488.510, 406.235
1489.726, 94.629
1490.942, 308.744
1492.158, 316.539
1493.374, 53.680
1494.589, 339.229
1495.804, 285.501
1497.020, 254.823
1498.235, 211.107
1499.450, 276.557
1500.664, 214.407
1501.879, 444.778
1503.094, 146.155
1504.308, 228.553
1505.522, 379.129
1506.736, 168.749
1507.950, 321.438
1509.164, 306.190
1510.378, 71.060
1511.591, 408.061
1512.805, 159.260
1514.018, 76.607
