##NAMES=Mesolite
##RRUFFID=R050013
##IDEAL CHEMISTRY=Na_2_Ca_2_(Si_9_Al_6_)O_30_&#183;8H_2_O
##LOCALITY=Poona, Maharashtra, India
##OWNER=RRUFF
##SOURCE=University of Arizona Mineral Museum
##DESCRIPTION=Clear to white elongated prismatic single crystal
##STATUS=The identification of this mineral has been confirmed by X-ray diffraction and chemical analysis
##URL=rruff.info/R050013
##MEASURED CHEMISTRY=Na_2.00_Ca_2.00_(Si_9.00_Al_6.00_)O_30_Â·8H_2_O
##PIN_ID=M00325
##ORIENTATION=Laser parallel to -c* (0 0 -1). Fiducial mark perpendicular to laser is parallel to a [1 0 0]
123.377, 0.000
124.770, 85.500
126.163, 71.332
127.556, 25.530
128.949, 30.240
130.342, 0.926
131.734, 303.836
133.126, 447.840
134.518, 850.341
135.909, 1382.734
137.301, 2206.799
138.692, 3305.728
140.083, 4566.621
141.473, 6157.160
142.864, 7190.722
144.254, 7988.634
145.644, 7878.160
147.034, 7908.786
148.423, 8190.376
149.812, 8672.881
151.201, 9646.218
152.590, 9990.589
153.979, 10715.884
155.367, 10216.616
156.755, 10190.587
158.143, 9873.950
159.530, 9607.357
160.918, 9711.709
162.305, 9926.201
163.692, 10469.585
165.078, 10301.638
166.465, 10612.477
167.851, 10242.219
169.237, 9970.972
170.623, 9759.129
172.008, 8968.300
173.393, 8558.415
174.778, 7778.573
176.163, 7318.110
177.548, 6710.833
178.932, 6391.165
180.316, 6536.247
181.700, 6254.216
183.083, 6294.239
184.467, 5759.266
185.850, 5232.909
187.233, 4538.815
188.616, 3810.388
189.998, 3300.979
191.380, 2732.892
192.762, 2592.675
194.144, 2369.274
195.525, 2150.741
196.907, 1996.814
198.288, 1711.679
199.669, 1543.118
201.049, 1328.176
202.429, 1125.117
203.810, 1065.792
205.189, 1088.051
206.569, 1215.228
207.949, 1391.428
209.328, 1712.660
210.707, 1901.946
212.085, 2077.311
213.464, 2118.760
214.842, 1921.292
216.220, 1760.077
217.598, 1390.431
218.976, 1226.810
220.353, 1243.908
221.730, 1292.701
223.107, 1399.048
224.483, 1330.101
225.860, 1215.948
227.236, 998.795
228.612, 804.589
229.988, 506.182
231.363, 327.847
232.738, 221.745
234.113, 92.763
235.488, 112.810
236.863, 105.897
238.237, 183.008
239.611, 188.128
240.985, 186.253
242.359, 184.377
243.732, 30.493
245.105, 14.402
246.478, 140.314
247.851, 157.142
249.223, 184.616
250.595, 159.929
251.967, 114.354
253.339, 65.701
254.711, 47.620
256.082, 39.829
257.453, 142.740
258.824, 93.623
260.195, 50.475
261.565, 32.286
262.935, 3.914
264.305, 39.744
265.675, 30.583
267.044, 7.002
268.414, 29.679
269.783, 52.672
271.151, 69.904
272.520, 61.219
273.888, 5.564
275.256, 11.952
276.624, 20.405
277.992, 59.052
279.359, 81.398
280.726, 159.605
282.093, 198.725
283.460, 247.781
284.827, 359.830
286.193, 500.885
287.559, 793.948
288.925, 975.130
290.290, 1264.559
291.656, 1360.084
293.021, 1334.033
294.386, 1292.108
295.750, 1021.635
297.115, 877.388
298.479, 683.300
299.843, 577.331
301.207, 510.453
302.570, 413.643
303.933, 329.879
305.296, 238.495
306.659, 137.412
308.022, 64.674
309.384, 0.914
310.746, 44.886
312.108, 110.744
313.470, 129.683
314.831, 155.712
316.193, 145.841
317.554, 126.076
318.914, 105.412
320.275, 59.872
321.635, 58.457
322.995, 7.167
324.355, 82.989
325.715, 12.947
327.074, 29.023
328.434, 15.781
329.792, 92.483
331.151, 76.096
332.510, 147.623
333.868, 124.071
335.226, 105.441
336.584, 108.729
337.941, 109.931
339.299, 126.045
340.656, 216.076
342.013, 243.029
343.370, 365.877
344.726, 502.618
346.082, 801.279
347.438, 847.864
348.794, 1076.278
350.150, 1131.315
351.505, 1135.964
352.860, 938.349
354.215, 746.651
355.570, 621.904
356.924, 411.080
358.278, 337.166
359.632, 278.122
360.986, 250.930
362.339, 310.569
363.693, 248.114
365.046, 285.591
366.399, 269.047
367.751, 285.491
369.104, 260.928
370.456, 203.357
371.808, 197.777
373.159, 153.188
374.511, 162.590
375.862, 146.983
377.213, 150.365
378.564, 167.737
379.914, 156.089
381.265, 135.364
382.615, 160.475
383.965, 180.399
385.315, 159.171
386.664, 188.206
388.013, 225.430
389.362, 206.953
390.711, 206.455
392.060, 197.947
393.408, 282.429
394.756, 338.902
396.104, 344.985
397.451, 460.665
398.799, 556.765
400.146, 643.782
401.493, 715.700
402.840, 885.675
404.186, 1056.648
405.533, 1193.619
406.879, 1481.774
408.225, 1772.463
409.570, 2062.312
410.916, 2423.168
412.261, 2537.361
413.606, 2768.164
414.951, 3034.888
416.295, 3138.726
417.639, 3296.932
418.983, 3390.940
420.327, 3579.733
421.671, 3562.040
423.014, 3618.525
424.357, 3674.494
425.700, 3446.144
427.043, 3664.472
428.386, 3525.086
429.728, 3758.245
431.070, 3997.054
432.412, 4288.500
433.753, 4964.953
435.095, 5485.039
436.436, 6432.706
437.777, 7050.061
439.118, 7729.974
440.458, 8694.310
441.798, 8863.993
443.138, 9484.199
444.478, 9564.593
445.818, 9675.146
447.157, 9855.706
448.496, 9816.279
449.835, 10126.863
451.174, 9947.440
452.513, 9838.017
453.851, 9168.586
455.189, 8049.150
456.527, 7051.930
457.864, 5742.478
459.202, 4901.151
460.539, 3951.673
461.876, 3273.181
463.212, 2791.224
464.549, 2392.704
465.885, 2167.169
467.221, 1886.638
468.557, 1775.758
469.893, 1724.587
471.228, 1631.521
472.563, 1647.707
473.898, 1548.562
475.233, 1608.459
476.567, 1578.926
477.902, 1603.511
479.236, 1752.031
480.570, 1805.251
481.903, 1927.443
483.237, 1994.452
484.570, 2148.675
485.903, 2435.367
487.235, 2518.225
488.568, 2786.076
489.900, 3036.636
491.232, 3211.342
492.564, 3414.921
493.896, 3541.950
495.227, 3720.892
496.558, 3715.753
497.889, 3797.656
499.220, 3879.588
500.551, 3715.600
501.881, 3950.005
503.211, 3902.537
504.541, 4096.102
505.870, 4221.683
507.200, 4370.274
508.529, 4798.877
509.858, 5021.497
511.187, 5558.136
512.515, 6080.796
513.844, 6800.464
515.172, 7822.159
516.500, 8692.871
517.827, 10293.594
519.155, 11664.327
520.482, 13975.074
521.809, 17355.840
523.136, 20146.623
524.462, 24897.430
525.789, 30298.242
527.115, 35679.078
528.441, 40469.906
529.766, 42730.770
531.092, 44391.555
532.417, 40372.352
533.742, 36432.977
535.067, 30963.662
536.391, 25254.301
537.716, 20754.969
539.040, 16185.730
540.364, 13246.463
541.688, 10797.125
543.011, 8677.910
544.334, 7611.802
545.657, 6203.626
546.980, 5327.595
548.303, 4794.620
549.625, 4078.658
550.947, 3743.711
552.269, 3133.777
553.591, 2962.860
554.913, 2649.957
556.234, 2329.069
557.555, 2182.203
558.876, 1941.358
560.197, 1832.533
561.517, 1602.725
562.837, 1536.932
564.157, 1399.155
565.477, 1242.395
566.797, 1183.663
568.116, 1003.971
569.435, 972.353
570.754, 893.811
572.073, 814.353
573.391, 798.972
574.709, 683.655
576.027, 634.390
577.345, 570.149
578.663, 542.932
579.980, 513.732
581.297, 438.550
582.614, 465.391
583.931, 438.256
585.248, 359.153
586.564, 395.072
587.880, 348.031
589.196, 303.024
590.511, 285.054
591.827, 200.130
593.142, 203.254
594.457, 152.423
595.772, 149.624
597.086, 93.856
598.401, 88.122
599.715, 107.406
601.029, 42.706
602.343, 35.019
603.656, 47.345
604.969, 25.684
606.282, 72.034
607.595, 19.395
608.908, 8.769
610.220, 65.153
611.532, 45.550
612.844, 51.957
614.156, 21.624
615.468, 16.804
616.779, 14.757
618.090, 17.692
619.401, 12.153
620.712, 41.375
622.022, 7.102
623.332, 7.590
624.642, 0.091
625.952, 6.379
627.262, 23.809
628.571, 33.094
629.880, 16.320
631.189, 28.396
632.498, 23.028
633.807, 36.979
635.115, 42.830
636.423, 47.711
637.731, 14.554
639.039, 22.767
640.346, 6.048
641.653, 18.405
642.960, 20.216
644.267, 12.780
645.574, 44.181
646.880, 24.991
648.186, 106.836
649.492, 115.889
650.798, 138.837
652.103, 247.127
653.409, 229.072
654.714, 303.355
656.019, 212.422
657.323, 293.518
658.628, 266.212
659.932, 261.560
661.236, 256.391
662.540, 255.816
663.843, 237.522
665.147, 211.893
666.450, 201.188
667.753, 227.527
669.056, 202.283
670.358, 210.413
671.660, 214.081
672.963, 166.355
674.264, 188.472
675.566, 111.067
676.868, 111.222
678.169, 103.269
679.470, 84.620
680.771, 127.147
682.071, 111.776
683.372, 113.695
684.672, 135.221
685.972, 144.700
687.271, 191.257
688.571, 184.345
689.870, 268.729
691.169, 276.293
692.468, 332.740
693.767, 405.277
695.065, 522.170
696.364, 562.364
697.662, 617.132
698.960, 653.567
700.257, 776.008
701.555, 775.542
702.852, 926.051
704.149, 1143.582
705.446, 1339.029
706.742, 1633.351
708.038, 1880.852
709.335, 2325.634
710.631, 2476.063
711.926, 2517.416
713.222, 2565.819
714.517, 2278.221
715.812, 2122.551
717.107, 1785.892
718.402, 1489.206
719.696, 1348.574
720.990, 1052.948
722.284, 936.317
723.578, 797.604
724.872, 609.007
726.165, 562.286
727.458, 475.611
728.751, 423.888
730.044, 320.153
731.336, 294.413
732.629, 250.666
733.921, 249.914
735.213, 201.174
736.504, 186.409
737.796, 198.638
739.087, 214.860
740.378, 194.075
741.669, 217.283
742.960, 225.484
744.250, 206.677
745.540, 295.863
746.830, 232.040
748.120, 297.210
749.410, 355.370
750.699, 321.522
751.988, 409.665
753.277, 416.799
754.566, 407.923
755.854, 424.038
757.143, 403.142
758.431, 458.237
759.719, 405.322
761.006, 434.397
762.294, 444.461
763.581, 372.515
764.868, 387.558
766.155, 369.591
767.442, 337.614
768.728, 269.625
770.014, 254.401
771.300, 217.390
772.586, 220.229
773.872, 186.195
775.157, 174.151
776.442, 118.545
777.727, 102.478
779.012, 92.398
780.297, 55.288
781.581, 50.124
782.865, 11.751
784.149, 57.618
785.433, 36.309
786.716, 29.850
787.999, 14.700
789.282, 31.002
790.565, 8.741
791.848, 17.742
793.130, 58.701
794.413, 26.318
795.695, 33.712
796.977, 17.150
798.258, 41.860
799.540, 31.385
800.821, 20.956
802.102, 52.566
803.382, 39.234
804.663, 20.951
805.943, 41.710
807.224, 51.522
808.504, 40.391
809.783, 52.312
811.063, 36.293
812.342, 45.324
813.621, 23.411
814.900, 62.542
816.179, 39.738
817.457, 11.988
818.736, 6.277
820.014, 36.602
821.292, 36.979
822.569, 27.409
823.847, 17.113
825.124, 41.391
826.401, 18.949
827.678, 18.448
828.954, 8.821
830.231, 18.163
831.507, 14.519
832.783, 3.244
834.059, 10.996
835.334, 9.207
836.610, 25.388
837.885, 11.546
839.160, 57.675
840.435, 39.786
841.709, 14.122
842.983, 81.927
844.258, 39.959
845.532, 67.972
846.805, 46.966
848.079, 27.941
849.352, 54.894
850.625, 67.828
851.898, 72.744
853.171, 71.642
854.443, 49.522
855.715, 55.383
856.988, 50.225
858.259, 70.049
859.531, 99.855
860.803, 56.644
862.074, 32.414
863.345, 73.163
864.616, 90.894
865.886, 78.608
867.157, 78.304
868.427, 94.982
869.697, 91.646
870.967, 97.292
872.236, 83.922
873.506, 81.534
874.775, 82.129
876.044, 100.706
877.313, 72.267
878.581, 118.811
879.849, 88.338
881.118, 98.847
882.386, 150.340
883.653, 106.821
884.921, 118.286
886.188, 119.735
887.455, 95.171
888.722, 145.591
889.989, 122.994
891.255, 119.382
892.522, 164.753
893.788, 153.109
895.054, 149.448
896.319, 141.772
897.585, 165.079
898.850, 156.372
900.115, 143.648
901.380, 165.908
902.645, 145.153
903.909, 160.382
905.174, 189.596
906.438, 181.794
907.701, 181.977
908.965, 198.145
910.229, 202.298
911.492, 251.435
912.755, 242.557
914.018, 239.669
915.280, 294.766
916.543, 316.848
917.805, 338.914
919.067, 325.966
920.329, 365.003
921.590, 467.025
922.852, 452.034
924.113, 582.029
925.374, 579.010
926.635, 683.977
927.895, 817.929
929.156, 934.870
930.416, 1170.799
931.676, 1358.713
932.936, 1520.594
934.195, 1896.436
935.454, 2109.945
936.714, 2373.780
937.973, 2476.507
939.231, 2312.414
940.490, 2174.897
941.748, 1875.670
943.006, 1739.842
944.264, 1735.357
945.522, 1596.284
946.780, 1768.209
948.037, 1742.619
949.294, 1761.022
950.551, 1841.840
951.808, 1686.270
953.064, 1534.311
954.320, 1351.324
955.577, 1140.132
956.832, 1134.046
958.088, 1075.623
959.344, 1178.546
960.599, 1225.132
961.854, 1282.935
963.109, 1604.711
964.364, 1903.889
965.618, 2256.413
966.872, 2809.457
968.127, 3095.906
969.380, 3419.073
970.634, 3487.574
971.888, 3134.150
973.141, 2981.681
974.394, 2437.798
975.647, 2145.541
976.900, 1914.749
978.152, 1545.357
979.404, 1484.121
980.656, 1220.407
981.908, 1179.135
983.160, 1210.970
984.411, 1177.510
985.663, 1229.877
986.914, 1249.144
988.165, 1258.125
989.415, 1269.073
990.666, 1254.919
991.916, 1257.263
993.166, 1282.074
994.416, 1353.113
995.665, 1399.924
996.915, 1548.377
998.164, 1663.740
999.413, 1776.746
1000.662, 1729.142
1001.911, 1740.591
1003.159, 1505.058
1004.407, 1326.518
1005.655, 1293.885
1006.903, 1139.274
1008.151, 1108.652
1009.398, 1059.112
1010.646, 1032.696
1011.893, 1122.105
1013.139, 1164.231
1014.386, 1236.709
1015.633, 1374.262
1016.879, 1388.764
1018.125, 1618.264
1019.371, 1775.255
1020.616, 1884.812
1021.862, 2341.392
1023.107, 2650.917
1024.352, 3109.436
1025.597, 3751.002
1026.842, 4238.607
1028.086, 5156.092
1029.330, 5635.698
1030.574, 6235.252
1031.818, 6983.853
1033.062, 7044.345
1034.305, 7361.055
1035.548, 7245.677
1036.791, 6625.126
1038.034, 6476.738
1039.277, 5694.383
1040.519, 5362.031
1041.762, 4971.687
1043.004, 4342.370
1044.246, 4265.028
1045.487, 3823.689
1046.729, 3466.352
1047.970, 3294.018
1049.211, 2816.688
1050.452, 2717.360
1051.692, 2667.034
1052.933, 2557.709
1054.173, 2738.387
1055.413, 2726.067
1056.653, 2897.902
1057.893, 3030.586
1059.132, 3065.271
1060.371, 3188.958
1061.610, 3074.647
1062.849, 3025.379
1064.088, 3086.074
1065.326, 2905.772
1066.565, 2825.472
1067.803, 2835.175
1069.041, 2629.879
1070.278, 2753.588
1071.516, 2514.297
1072.753, 2519.203
1073.990, 2521.917
1075.227, 2440.645
1076.464, 2458.364
1077.700, 2474.087
1078.936, 2359.320
1080.173, 2511.048
1081.408, 2386.782
1082.644, 2410.841
1083.880, 2379.587
1085.115, 2211.338
1086.350, 2084.094
1087.585, 1918.867
1088.820, 1665.018
1090.054, 1697.801
1091.288, 1461.600
1092.522, 1393.415
1093.756, 1331.061
1094.990, 1164.896
1096.224, 1215.794
1097.457, 1175.979
1098.690, 1147.045
1099.923, 1218.963
1101.156, 1203.096
1102.388, 1242.080
1103.621, 1300.046
1104.853, 1203.044
1106.085, 1314.916
1107.316, 1203.983
1108.548, 1144.097
1109.779, 1122.164
1111.010, 964.277
1112.241, 933.416
1113.472, 804.550
1114.703, 712.814
1115.933, 707.068
1117.163, 611.366
1118.393, 505.597
1119.623, 517.927
1120.853, 449.195
1122.082, 424.778
1123.311, 385.154
1124.540, 383.383
1125.769, 366.458
1126.997, 306.795
1128.226, 264.356
1129.454, 272.551
1130.682, 195.032
1131.910, 208.589
1133.138, 208.539
1134.365, 177.974
1135.592, 207.344
1136.819, 154.890
1138.046, 175.413
1139.273, 197.401
1140.499, 119.944
1141.725, 127.589
1142.951, 113.184
1144.177, 83.970
1145.403, 120.544
1146.628, 53.077
1147.854, 47.470
1149.079, 99.081
1150.304, 31.635
1151.528, 75.123
1152.753, 54.690
1153.977, 37.155
1155.201, 57.397
1156.425, 32.019
1157.649, 45.594
1158.872, 41.724
1160.096, 26.210
1161.319, 29.229
1162.542, 25.856
1163.764, 27.507
1164.987, 33.062
1166.209, 22.333
1167.431, 25.284
1168.653, 29.851
1169.875, 2.602
1171.097, 38.932
1172.318, 4.331
1173.539, 1.157
1174.760, 8.296
1175.981, 12.842
1177.202, 26.362
1178.422, 17.072
1179.642, 32.355
1180.862, 7.902
1182.082, 1.533
1183.302, 29.067
1184.521, 41.666
1185.740, 7.802
1186.959, 2.287
1188.178, 8.005
1189.397, 2.279
1190.615, 18.269
1191.834, 16.295
1193.052, 14.852
1194.269, 39.738
1195.487, 26.959
1196.705, 20.525
1197.922, 15.095
1199.139, 13.664
1200.356, 4.168
1201.573, 6.123
1202.789, 7.699
1204.006, 8.810
1205.222, 29.337
1206.438, 35.867
1207.653, 5.473
1208.869, 26.753
1210.084, 3.821
1211.299, 9.436
1212.514, 12.958
1213.729, 26.398
1214.944, 25.995
1216.158, 35.435
1217.372, 28.859
1218.586, 6.603
1219.800, 25.800
1221.014, 5.279
1222.227, 20.676
1223.440, 31.120
1224.654, 13.257
1225.866, 33.272
1227.079, 34.212
1228.292, 8.063
1229.504, 17.458
1230.716, 16.926
1231.928, 33.756
1233.139, 13.121
1234.351, 25.420
1235.562, 22.402
1236.773, 50.751
1237.984, 17.156
1239.195, 15.500
1240.406, 20.839
1241.616, 10.348
1242.826, 5.314
1244.036, 1.983
1245.246, 20.351
1246.456, 2.321
1247.665, 14.047
1248.874, 24.365
1250.083, 22.683
1251.292, 12.962
1252.501, 16.357
1253.709, 11.734
1254.917, 42.337
1256.125, 24.602
1257.333, 23.857
1258.541, 38.119
1259.748, 14.624
1260.956, 14.719
1262.163, 9.936
1263.370, 30.148
1264.576, 10.543
1265.783, 30.741
1266.989, 16.067
1268.195, 16.431
1269.401, 9.418
1270.607, 22.279
1271.813, 59.845
1273.018, 2.963
1274.223, 6.927
1275.428, 11.167
1276.633, 27.748
1277.838, 17.627
1279.042, 32.425
1280.246, 23.536
1281.450, 10.496
1282.654, 18.469
1283.858, 0.581
1285.061, 16.631
1286.265, 7.159
1287.468, 10.466
1288.671, 4.391
1289.873, 16.279
1291.076, 27.158
1292.278, 4.973
1293.480, 12.882
1294.682, 25.725
1295.884, 42.556
1297.086, 24.378
1298.287, 62.190
1299.488, 33.008
1300.689, 15.841
1301.890, 26.610
1303.091, 14.636
1304.291, 49.089
1305.491, 3.800
1306.691, 18.498
1307.891, 16.181
1309.091, 35.853
1310.290, 24.513
1311.490, 20.740
1312.689, 33.377
1313.888, 12.002
1315.086, 0.386
1316.285, 13.211
1317.483, 53.748
1318.681, 3.313
1319.879, 40.867
1321.077, 47.408
1322.275, 15.936
1323.472, 35.447
1324.669, 1.939
1325.866, 17.555
1327.063, 16.878
1328.260, 13.528
1329.456, 29.044
1330.653, 2.640
1331.849, 6.255
1333.045, 15.114
1334.240, 36.443
1335.436, 5.786
1336.631, 34.117
1337.826, 9.492
1339.021, 1.797
1340.216, 38.086
1341.411, 30.363
1342.605, 30.628
1343.799, 45.882
1344.993, 18.125
1346.187, 58.355
1347.381, 43.420
1348.574, 38.628
1349.767, 37.825
1350.961, 24.010
1352.153, 14.185
1353.346, 25.582
1354.539, 21.462
1355.731, 34.603
1356.923, 53.735
1358.115, 22.856
1359.307, 52.966
1360.498, 56.067
1361.690, 29.160
1362.881, 80.051
1364.072, 41.190
1365.263, 64.248
1366.453, 48.309
1367.644, 20.363
1368.834, 27.903
1370.024, 7.945
1371.214, 6.026
1372.404, 27.676
1373.593, 36.885
1374.783, 10.899
1375.972, 79.845
1377.161, 36.719
1378.349, 10.219
1379.538, 78.072
1380.726, 46.066
1381.915, 66.521
1383.103, 77.132
1384.290, 26.662
1385.478, 67.425
1386.665, 67.209
1387.853, 60.882
1389.040, 71.561
1390.227, 51.056
1391.413, 84.560
1392.600, 76.109
1393.786, 51.265
1394.972, 56.737
1396.158, 39.319
1397.344, 15.658
1398.530, 83.496
1399.715, 67.099
1400.900, 50.051
1402.085, 49.671
1403.270, 27.687
1404.455, 65.469
1405.639, 92.579
1406.824, 19.555
1408.008, 82.728
1409.192, 69.907
1410.375, 9.382
1411.559, 66.300
1412.742, 90.763
1413.925, 71.842
1415.108, 99.756
1416.291, 72.240
1417.474, 78.805
1418.656, 91.531
1419.839, 36.578
1421.021, 51.246
1422.202, 57.718
1423.384, 35.957
1424.566, 60.474
1425.747, 42.873
1426.928, 1.150
1428.109, 62.890
1429.290, 52.705
1430.470, 29.086
1431.651, 44.490
1432.831, 46.756
1434.011, 42.140
1435.191, 64.317
1436.370, 45.074
1437.550, 91.133
1438.729, 68.318
1439.908, 85.765
1441.087, 97.030
1442.266, 16.365
1443.444, 46.294
1444.623, 80.385
1445.801, 52.874
1446.979, 103.089
1448.157, 87.167
1449.334, 81.450
1450.512, 101.520
1451.689, 90.297
1452.866, 63.379
1454.043, 92.394
1455.220, 80.277
1456.396, 75.106
1457.573, 97.772
1458.749, 52.929
1459.925, 98.810
1461.100, 60.377
1462.276, 84.241
1463.451, 63.577
1464.627, 64.503
1465.802, 84.320
1466.977, 82.093
1468.151, 34.827
1469.326, 66.377
1470.500, 107.053
1471.674, 44.787
1472.848, 97.872
1474.022, 83.798
1475.195, 55.635
1476.369, 101.525
1477.542, 50.399
1478.715, 0.739
1479.888, 71.089
1481.061, 66.636
1482.233, 78.487
1483.405, 86.394
1484.577, 61.315
1485.749, 48.232
1486.921, 36.139
1488.093, 44.051
1489.264, 71.997
1490.435, 57.958
1491.606, 22.969
1492.777, 66.017
1493.948, 47.094
1495.118, 51.210
1496.288, 76.393
1497.459, 25.605
1498.628, 58.437
1499.798, 38.711
1500.968, 14.045
1502.137, 51.430
1503.306, 65.880
1504.475, 1.594
1505.644, 76.016
1506.813, 62.720
1507.981, 45.525
1509.149, 55.508
1510.318, 49.655
1511.485, 56.611
1512.653, 46.901
1513.821, 0.660
1514.988, 30.102
1516.155, 40.056
1517.322, 0.000
##END=



