##NAMES=Mesolite
##RRUFFID=R050013
##IDEAL CHEMISTRY=Na_2_Ca_2_(Si_9_Al_6_)O_30_&#183;8H_2_O
##LOCALITY=Poona, Maharashtra, India
##OWNER=RRUFF
##SOURCE=University of Arizona Mineral Museum
##DESCRIPTION=Clear to white elongated prismatic single crystal
##STATUS=The identification of this mineral has been confirmed by X-ray diffraction and chemical analysis
##URL=rruff.info/R050013
##MEASURED CHEMISTRY=Na_2.00_Ca_2.00_(Si_9.00_Al_6.00_)O_30_Â·8H_2_O
##PIN_ID=M00096
##ORIENTATION=Laser parallel to b* (0 1 0). Fiducial mark perpendicular to laser is parallel to c [0 0 1]
88.54200, 0.0000000E+00
89.77700, 14.24512
91.01200, 176.6631
92.24600, 363.7959
93.48000, 695.6689
94.71400, 896.5850
95.94800, 1172.185
97.18200, 1433.845
98.41600, 1960.961
99.64900, 1848.117
100.8830, 2067.268
102.1160, 2255.658
103.3490, 2746.409
104.5820, 3056.227
105.8150, 2988.587
107.0470, 3823.421
108.2800, 2817.805
109.5120, 2036.898
110.7440, 1988.766
111.9760, 2120.140
113.2080, 2219.568
114.4400, 2212.424
115.6710, 1811.967
116.9030, 1513.621
118.1340, 1159.133
119.3650, 1105.963
120.5960, 1569.940
121.8270, 2053.250
123.0580, 2792.003
124.2880, 3021.302
125.5190, 3084.240
126.7490, 3326.957
127.9790, 3937.590
129.2090, 4424.250
130.4390, 4656.026
131.6680, 5184.000
132.8980, 6481.243
134.1270, 8421.612
135.3560, 10043.50
136.5850, 10098.24
137.8140, 9263.282
139.0430, 8008.570
140.2710, 7049.228
141.5000, 6526.385
142.7280, 6592.138
143.9560, 7572.580
145.1840, 8801.801
146.4120, 10509.98
147.6390, 11383.96
148.8670, 11701.64
150.0940, 11505.67
151.3210, 11359.25
152.5490, 11150.41
153.7750, 11633.15
155.0020, 12046.48
156.2290, 12113.35
157.4550, 12684.77
158.6810, 12544.75
159.9080, 12065.32
161.1340, 11107.48
162.3590, 10980.55
163.5850, 10373.86
164.8110, 9665.461
166.0360, 9386.206
167.2610, 9111.995
168.4860, 8793.819
169.7110, 8943.731
170.9360, 8950.678
172.1610, 8588.654
173.3850, 7603.666
174.6100, 6791.707
175.8340, 5564.783
177.0580, 4539.887
178.2820, 3783.105
179.5050, 2912.134
180.7290, 2618.646
181.9520, 2327.211
183.1760, 2130.046
184.3990, 2120.246
185.6220, 2053.087
186.8450, 2213.188
188.0670, 1863.412
189.2900, 1608.748
190.5120, 1224.183
191.7340, 1054.691
192.9560, 845.2246
194.1780, 623.7637
195.4000, 381.3047
196.6220, 520.8428
197.8430, 477.3730
199.0640, 312.8955
200.2860, 294.4053
201.5070, 133.8994
202.7270, 213.6221
203.9480, 308.1670
205.1690, 616.7334
206.3890, 722.3262
207.6090, 701.0645
208.8290, 605.3105
210.0490, 482.9814
211.2690, 32.89258
212.4890, 471.0156
213.7080, 973.6348
214.9280, 2183.340
216.1470, 3055.951
217.3660, 3750.475
218.5850, 4520.907
219.8030, 5139.959
221.0220, 6113.172
222.2400, 6577.432
223.4590, 7297.095
224.6770, 8450.698
225.8950, 9352.259
227.1120, 10743.77
228.3300, 11608.24
229.5480, 11790.67
230.7650, 11319.05
231.9820, 10461.39
233.1990, 9266.683
234.4160, 8296.197
235.6330, 7469.289
236.8490, 6942.816
238.0660, 6546.672
239.2820, 6542.332
240.4980, 6516.531
241.7140, 6730.787
242.9300, 7186.953
244.1460, 7120.655
245.3610, 7075.723
246.5770, 5991.706
247.7920, 5084.670
249.0070, 4202.438
250.2220, 3427.235
251.4370, 2889.924
252.6510, 2504.023
253.8660, 2533.213
255.0800, 2431.463
256.2940, 2699.750
257.5080, 2540.499
258.7220, 2572.369
259.9360, 2212.661
261.1490, 1894.921
262.3630, 1322.135
263.5760, 931.2910
264.7890, 481.3408
266.0020, 160.2178
267.2150, 72.10352
268.4270, 352.6738
269.6400, 469.5625
270.8520, 592.0439
272.0640, 603.3955
273.2760, 659.3682
274.4880, 675.7236
275.7000, 601.4619
276.9120, 488.7803
278.1230, 286.4014
279.3340, 58.69629
280.5450, 314.3730
281.7560, 714.2568
282.9670, 1185.942
284.1780, 1680.433
285.3880, 2131.982
286.5980, 2534.851
287.8090, 3034.792
289.0190, 3491.313
290.2290, 4005.700
291.4380, 4482.615
292.6480, 5005.449
293.8570, 5557.158
295.0670, 5917.811
296.2760, 5980.967
297.4850, 5823.039
298.6930, 5447.023
299.9020, 5224.921
301.1110, 4846.736
302.3190, 4585.469
303.5270, 4201.121
304.7350, 4132.696
305.9430, 3711.192
307.1510, 3415.614
308.3580, 3097.961
309.5660, 2726.230
310.7730, 2375.424
311.9800, 2108.539
313.1870, 1988.574
314.3940, 1917.530
315.6010, 1778.408
316.8070, 1478.204
318.0130, 1241.920
319.2200, 1355.556
320.4260, 1048.111
321.6310, 1007.586
322.8370, 738.9785
324.0430, 598.1240
325.2480, 631.6396
326.4540, 404.3809
327.6590, 488.2910
328.8640, 526.4863
330.0680, 443.2783
331.2730, 496.0029
332.4780, 600.6797
333.6820, 517.3086
334.8860, 512.8916
336.0900, 580.4248
337.2940, 663.9102
338.4980, 775.3506
339.7010, 920.7451
340.9050, 1005.095
342.1080, 1018.400
343.3110, 1002.769
344.5140, 1104.984
345.7170, 1235.154
346.9200, 1070.279
348.1220, 1288.463
349.3240, 1283.604
350.5270, 1183.272
351.7290, 1165.210
352.9310, 1452.375
354.1320, 1427.417
355.3340, 1393.021
356.5350, 1354.453
357.7370, 1554.142
358.9380, 1490.790
360.1390, 1552.401
361.3400, 1427.978
362.5400, 1617.519
363.7410, 1427.025
364.9410, 1477.499
366.1410, 1391.944
367.3410, 1336.364
368.5410, 1366.763
369.7410, 1161.139
370.9400, 1118.496
372.1400, 1046.830
373.3390, 901.1455
374.5380, 593.4414
375.7370, 446.7158
376.9360, 464.9717
378.1350, 2.206055
379.3330, 115.6582
380.5310, 159.6719
381.7300, 80.87598
382.9280, 68.24023
384.1260, 89.76465
385.3230, 58.53418
386.5210, 111.7285
387.7180, 113.8350
388.9160, 169.8516
390.1130, 212.7861
391.3100, 157.6436
392.5060, 87.41504
393.7030, 503.0850
394.9000, 246.6826
396.0960, 489.2031
397.2920, 504.6504
398.4880, 652.0254
399.6840, 860.3281
400.8800, 1292.562
402.0750, 1504.728
403.2710, 2005.857
404.4660, 2364.984
405.6610, 2634.102
406.8560, 3266.193
408.0510, 3686.351
409.2450, 4244.502
410.4400, 5113.436
411.6340, 5920.225
412.8280, 6763.084
414.0220, 7745.315
415.2160, 8348.591
416.4100, 8902.872
417.6030, 9016.342
418.7970, 9478.494
419.9900, 10036.02
421.1830, 10426.34
422.3760, 11058.10
423.5690, 11578.89
424.7610, 11626.77
425.9540, 11596.49
427.1460, 11481.17
428.3380, 11270.81
429.5300, 10715.40
430.7220, 10403.95
431.9140, 10328.46
433.1050, 10536.94
434.2970, 10888.37
435.4880, 11787.76
436.6790, 12347.12
437.8700, 13258.45
439.0610, 13802.76
440.2510, 14954.04
441.4420, 15950.30
442.6320, 16535.53
443.8220, 16874.74
445.0120, 17327.93
446.2020, 17320.10
447.3910, 17210.24
448.5810, 16380.37
449.7700, 15578.48
450.9600, 14609.56
452.1490, 13179.63
453.3370, 11977.68
454.5260, 10974.71
455.7150, 9530.719
456.9030, 8612.709
458.0910, 7639.684
459.2800, 6783.640
460.4670, 5930.581
461.6550, 5201.502
462.8430, 4363.408
464.0300, 4109.299
465.2180, 3400.174
466.4050, 3043.033
467.5920, 2789.452
468.7790, 2402.987
469.9650, 2046.348
471.1520, 1927.965
472.3380, 1624.929
473.5250, 1366.975
474.7110, 1280.693
475.8970, 954.0791
477.0820, 825.9863
478.2680, 643.8652
479.4540, 542.1729
480.6390, 212.8330
481.8240, 384.6699
483.0090, 174.5088
484.1940, 212.3496
485.3780, 7.802734
486.5630, 48.04395
487.7470, 89.89453
488.9320, 111.7500
490.1160, 72.60840
491.3000, 166.5508
492.4830, 238.6006
493.6670, 314.8408
494.8500, 455.1191
496.0340, 618.9697
497.2170, 778.8291
498.4000, 987.8496
499.5820, 1234.896
500.7650, 1480.957
501.9480, 1651.032
503.1300, 2164.160
504.3120, 2494.301
505.4940, 2796.468
506.6760, 3312.654
507.8580, 3779.909
509.0390, 4414.193
510.2210, 5135.542
511.4020, 5735.918
512.5830, 6602.309
513.7640, 7777.732
514.9450, 9294.178
516.1250, 11014.94
517.3060, 12926.18
518.4860, 15410.75
519.6660, 18149.32
520.8460, 21165.69
522.0260, 24573.78
523.2060, 28174.20
524.3850, 31563.65
525.5650, 34452.01
526.7440, 36842.11
527.9230, 39092.18
529.1020, 41027.18
530.2810, 42347.32
531.4590, 43299.64
532.6380, 42808.50
533.8160, 41049.77
534.9940, 37343.54
536.1720, 32793.56
537.3500, 27600.87
538.5270, 22875.93
539.7050, 18733.00
540.8820, 15061.09
542.0590, 12170.16
543.2360, 9925.985
544.4130, 8077.713
545.5900, 6690.854
546.7660, 5412.922
547.9430, 4432.752
549.1190, 3883.385
550.2950, 3233.341
551.4710, 2782.285
552.6470, 2288.186
553.8220, 2020.041
554.9980, 1709.685
556.1730, 1455.715
557.3480, 1255.392
558.5230, 1101.779
559.6980, 923.2031
560.8730, 680.9053
562.0470, 610.8428
563.2220, 533.9863
564.3960, 424.2656
565.5700, 489.6807
566.7440, 348.0938
567.9170, 322.5186
569.0910, 380.9521
570.2640, 277.3955
571.4380, 318.8477
572.6110, 150.3105
573.7840, 191.8408
574.9570, 82.26270
576.1290, 304.7510
577.3020, 156.2510
578.4740, 388.7598
579.6460, 479.2793
580.8180, 533.8066
581.9900, 497.3447
583.1620, 510.8906
584.3330, 510.4473
585.5040, 730.0117
586.6760, 750.5850
587.8470, 707.1680
589.0180, 823.7598
590.1880, 725.3594
591.3590, 754.9678
592.5290, 699.5859
593.7000, 766.2109
594.8700, 574.8447
596.0400, 870.4883
597.2090, 839.1396
598.3790, 839.7979
599.5490, 676.4648
600.7180, 824.1387
601.8870, 767.8223
603.0560, 672.5117
604.2250, 582.2090
605.3940, 555.8936
606.5620, 472.5439
607.7300, 507.3438
608.8990, 395.0723
610.0670, 382.8076
611.2350, 426.5645
612.4020, 179.3320
613.5700, 254.1123
614.7370, 350.9062
615.9050, 450.7129
617.0720, 551.5264
618.2390, 657.3506
619.4060, 703.1855
620.5720, 856.0273
621.7390, 1279.875
622.9050, 1377.728
624.0710, 1761.584
625.2370, 1833.445
626.4030, 1672.202
627.5690, 1441.073
628.7340, 1297.946
629.9000, 843.8223
631.0650, 585.7021
632.2300, 417.5850
633.3950, 298.4688
634.5600, 222.3545
635.7240, 218.0391
636.8890, 309.1885
638.0530, 390.2334
639.2170, 458.9141
640.3810, 732.4541
641.5450, 831.0967
642.7080, 1215.596
643.8720, 1361.512
645.0350, 1558.797
646.1980, 1612.396
647.3610, 1676.096
648.5240, 1938.807
649.6870, 1814.668
650.8490, 2038.042
652.0120, 2106.348
653.1740, 2234.266
654.3360, 2237.943
655.4980, 2139.209
656.6600, 2133.682
657.8210, 2358.326
658.9830, 2657.161
660.1440, 2683.814
661.3050, 2881.269
662.4660, 2876.831
663.6270, 3106.006
664.7870, 2963.433
665.9480, 3113.861
667.1080, 2998.951
668.2680, 2912.780
669.4280, 2864.841
670.5880, 2506.568
671.7480, 2232.243
672.9070, 1792.322
674.0670, 1537.396
675.2260, 1174.875
676.3850, 925.0811
677.5440, 531.2793
678.7030, 456.6211
679.8610, 263.0742
681.0200, 2.259766
682.1780, 28.37891
683.3360, 137.0674
684.4940, 253.1943
685.6520, 218.1221
686.8090, 164.6875
687.9670, 510.1855
689.1240, 226.8428
690.2810, 240.9844
691.4380, 286.1670
692.5950, 123.3828
693.7520, 195.7695
694.9080, 229.5068
696.0650, 139.4053
697.2210, 34.42090
698.3770, 10.50098
699.5330, 240.3799
700.6880, 308.2266
701.8440, 677.0400
702.9990, 940.8193
704.1550, 1205.562
705.3100, 1578.270
706.4650, 1890.940
707.6190, 2126.574
708.7740, 2522.172
709.9290, 2586.733
711.0830, 2776.257
712.2370, 3022.743
713.3910, 3075.191
714.5450, 2909.603
715.6980, 2723.977
716.8520, 2404.312
718.0050, 2116.609
719.1580, 1778.868
720.3110, 1524.088
721.4640, 1167.270
722.6170, 900.4121
723.7700, 844.5156
724.9220, 764.5791
726.0740, 534.6035
727.2260, 528.5889
728.3780, 387.5342
729.5300, 317.4404
730.6810, 332.3047
731.8330, 424.1289
732.9840, 384.9131
734.1350, 458.2568
735.2860, 440.3604
736.4370, 549.0205
737.5880, 468.6406
738.7380, 491.2207
739.8880, 652.7578
741.0390, 671.2549
742.1890, 741.7090
743.3380, 980.1211
744.4880, 1114.492
745.6380, 1176.820
746.7870, 1358.107
747.9360, 1396.351
749.0850, 1510.552
750.2340, 1763.711
751.3830, 1801.827
752.5310, 1837.900
753.6800, 1902.930
754.8280, 1916.997
755.9760, 1944.562
757.1240, 1928.761
758.2720, 1950.616
759.4190, 1890.430
760.5670, 1841.877
761.7140, 1651.923
762.8610, 1579.604
764.0080, 1402.239
765.1550, 1300.833
766.3020, 1118.382
767.4480, 1049.888
768.5950, 751.3467
769.7410, 591.7637
770.8870, 659.1348
772.0330, 404.4619
773.1780, 343.7432
774.3240, 318.9795
775.4690, 90.17090
776.6140, 144.3066
777.7590, 62.39062
778.9040, 59.41309
780.0490, 95.62793
781.1940, 107.1914
782.3380, 4.269531
783.4820, 35.94922
784.6260, 144.5957
785.7700, 1.155273
786.9140, 130.8057
788.0580, 7.082031
789.2010, 81.30469
790.3450, 9.7655997E-02
791.4880, 20.85156
792.6310, 28.71875
793.7730, 120.4922
794.9160, 4.140625
796.0590, 115.6807
797.2010, 91.83203
798.3430, 49.48730
799.4850, 59.73828
800.6270, 95.89746
801.7690, 83.99805
802.9100, 52.03711
804.0520, 18.00684
805.1930, 22.89160
806.3340, 14.30664
807.4750, 177.3936
808.6160, 25.04004
809.7560, 31.39453
810.8970, 110.7354
812.0370, 5.638672
813.1770, 273.9590
814.3170, 101.2109
815.4570, 244.4043
816.5960, 211.5488
817.7360, 154.6406
818.8750, 151.7207
820.0140, 164.0146
821.1530, 294.3730
822.2920, 192.2871
823.4310, 296.2461
824.5690, 241.4121
825.7070, 176.7490
826.8460, 428.7334
827.9840, 197.7002
829.1220, 142.7080
830.2590, 150.8135
831.3970, 387.2578
832.5340, 324.4746
833.6710, 292.2422
834.8080, 290.4951
835.9450, 345.9258
837.0820, 250.2998
838.2190, 519.6396
839.3550, 603.9453
840.4910, 519.2178
841.6270, 554.4580
842.7630, 574.6650
843.8990, 603.4502
845.0350, 837.9814
846.1700, 753.0908
847.3060, 828.1680
848.4410, 957.2139
849.5760, 732.2275
850.7100, 924.2090
851.8450, 1001.158
852.9800, 1254.077
854.1140, 1181.965
855.2480, 1570.822
856.3820, 1343.648
857.5160, 1706.445
858.6500, 1909.211
859.7830, 1901.946
860.9170, 1737.652
862.0500, 1645.328
863.1830, 1688.977
864.3160, 1416.593
865.4480, 1300.182
866.5810, 1222.741
867.7130, 1032.271
868.8460, 931.7734
869.9780, 960.2480
871.1100, 742.6953
872.2410, 840.1143
873.3730, 638.5059
874.5050, 669.8740
875.6360, 719.2158
876.7670, 691.5303
877.8980, 662.8184
879.0290, 678.0898
880.1590, 744.3350
881.2900, 450.5674
882.4200, 512.7744
883.5500, 378.9561
884.6800, 477.1357
885.8100, 410.2930
886.9400, 455.4492
888.0690, 387.5879
889.1990, 443.7051
890.3280, 371.7998
891.4570, 375.8779
892.5860, 369.9326
893.7140, 395.9717
894.8430, 442.0010
895.9710, 546.0059
897.1000, 369.9883
898.2280, 421.9482
899.3560, 336.8857
900.4830, 544.8359
901.6110, 335.7646
902.7380, 474.6855
903.8660, 416.6016
904.9930, 460.4971
906.1200, 233.3721
907.2460, 238.2256
908.3730, 259.0596
909.5000, 308.8721
910.6260, 309.0010
911.7520, 335.2119
912.8780, 287.1631
914.0040, 247.2314
915.1290, 130.1768
916.2550, 107.2393
917.3800, 14.13477
918.5050, 139.0967
919.6300, 38.00781
920.7550, 86.75684
921.8800, 18.51172
923.0040, 115.9053
924.1290, 11.83301
925.2530, 68.71777
926.3770, 113.7598
927.5010, 109.4512
928.6250, 222.5312
929.7480, 284.3828
930.8720, 460.0400
931.9950, 464.4531
933.1180, 528.1250
934.2410, 508.3936
935.3640, 519.6904
936.4860, 456.9688
937.6090, 490.9814
938.7310, 495.0283
939.8530, 436.4531
940.9750, 236.1689
942.0970, 205.6465
943.2180, 102.6768
944.3400, 163.2969
945.4610, 49.23926
946.5820, 22.78223
947.7030, 75.74023
948.8240, 81.49414
949.9450, 96.83789
951.0650, 77.95312
952.1860, 66.93555
953.3060, 205.6816
954.4260, 215.4258
955.5460, 351.2305
956.6650, 241.6543
957.7850, 320.7871
958.9040, 293.4805
960.0230, 260.0645
961.1420, 349.6445
962.2610, 374.6387
963.3800, 574.5840
964.4990, 658.4551
965.6170, 979.4375
966.7350, 1219.686
967.8530, 1397.004
968.9710, 1738.367
970.0890, 2349.750
971.2070, 2573.143
972.3240, 2892.539
973.4410, 3259.938
974.5580, 3489.340
975.6750, 3805.744
976.7920, 3850.152
977.9090, 3853.566
979.0250, 3844.984
980.1410, 3322.406
981.2580, 3092.830
982.3740, 2669.262
983.4890, 2181.695
984.6050, 2010.137
985.7200, 1607.582
986.8360, 1439.033
987.9510, 1429.488
989.0660, 1216.951
990.1810, 960.4180
991.2950, 1153.893
992.4100, 1170.371
993.5240, 1099.857
994.6390, 1333.348
995.7530, 1551.846
996.8660, 1824.352
997.9800, 2146.867
999.0940, 2643.385
1000.207, 3126.910
1001.320, 3658.445
1002.433, 3685.986
1003.546, 3090.535
1004.659, 2543.158
1005.772, 2160.721
1006.884, 1813.295
1007.996, 1723.592
1009.108, 1285.180
1010.220, 1040.777
1011.332, 1018.383
1012.444, 815.0684
1013.555, 805.6914
1014.666, 747.2676
1015.777, 726.9082
1016.888, 690.5566
1017.999, 835.8262
1019.110, 1103.492
1020.220, 1255.131
1021.331, 1258.898
1022.441, 1303.014
1023.551, 1472.145
1024.661, 1651.170
1025.770, 1837.893
1026.880, 1902.801
1027.989, 1955.650
1029.098, 2020.400
1030.207, 2069.160
1031.316, 2136.930
1032.425, 2259.709
1033.533, 2545.455
1034.642, 2839.254
1035.750, 3024.189
1036.858, 3321.631
1037.966, 3806.459
1039.073, 4400.297
1040.181, 4914.143
1041.288, 5197.996
1042.396, 5625.863
1043.503, 5592.738
1044.610, 5615.623
1045.716, 5549.527
1046.823, 5141.438
1047.929, 4344.371
1049.036, 3799.324
1050.142, 3437.334
1051.248, 2761.045
1052.353, 2403.102
1053.459, 2046.334
1054.564, 1544.623
1055.670, 1654.809
1056.775, 1385.117
1057.880, 1247.283
1058.985, 1249.029
1060.089, 1231.365
1061.194, 1123.730
1062.298, 1060.123
1063.402, 1029.580
1064.506, 1113.074
1065.610, 1251.582
1066.713, 1305.889
1067.817, 1367.762
1068.920, 1546.396
1070.023, 1657.049
1071.126, 1822.717
1072.229, 2313.410
1073.332, 2376.434
1074.435, 2633.186
1075.537, 2863.975
1076.639, 2972.004
1077.741, 3281.674
1078.843, 3368.225
1079.945, 3309.883
1081.046, 3245.768
1082.148, 3107.090
1083.249, 2901.648
1084.350, 2669.609
1085.451, 2428.582
1086.551, 2123.566
1087.652, 1760.566
1088.752, 1598.580
1089.853, 1606.350
1090.953, 1297.723
1092.053, 1165.072
1093.152, 927.1250
1094.252, 989.0762
1095.351, 1008.145
1096.451, 787.2227
1097.550, 840.3086
1098.649, 760.4023
1099.748, 704.5020
1100.846, 693.6094
1101.945, 614.7188
1103.043, 689.8340
1104.141, 582.9570
1105.239, 805.0840
1106.337, 853.2188
1107.434, 813.3574
1108.532, 891.5000
1109.629, 887.4785
1110.726, 853.8027
1111.823, 937.9609
1112.920, 840.1250
1114.017, 900.2949
1115.113, 862.4707
1116.210, 858.6523
1117.306, 694.8379
1118.402, 487.0293
1119.498, 405.2266
1120.593, 554.4277
1121.689, 417.6328
1122.784, 417.8418
1123.879, 406.0586
1124.974, 356.2793
1126.069, 471.5059
1127.164, 254.7363
1128.259, 359.9707
1129.353, 271.2109
1130.447, 205.4570
1131.541, 387.7070
1132.635, 278.9629
1133.729, 293.2227
1134.822, 248.4863
1135.916, 0.7558590
1137.009, 44.02734
1138.102, 119.3047
1139.195, 15.41406
1140.288, 175.8633
1141.380, 43.14648
1142.473, 155.4336
1143.565, 41.24805
1144.657, 91.06055
1145.749, 55.63086
1146.841, 140.6543
1147.932, 20.94336
1149.024, 97.76172
1150.115, 34.48828
1151.206, 102.2520
1152.297, 18.03906
1153.388, 3.835938
1154.479, 3.628906
1155.569, 21.42188
1156.659, 119.7773
1157.750, 29.02148
1158.839, 42.81055
1159.929, 104.3789
1161.019, 32.57422
1162.108, 117.7715
1163.198, 42.97461
1164.287, 127.8203
1165.376, 66.31836
1166.465, 49.53711
1167.553, 57.41992
1168.642, 220.6680
1169.730, 86.75781
1170.818, 200.8535
1171.906, 133.9492
1172.994, 135.0508
1174.082, 131.1562
1175.170, 224.2598
1176.257, 211.3711
1177.344, 182.7148
1178.431, 203.6016
1179.518, 136.7207
1180.605, 31.83984
1181.691, 123.9629
1182.778, 148.0918
1183.864, 89.22266
1184.950, 74.64062
1186.036, 252.4531
1187.122, 147.4531
1188.207, 215.5762
1189.292, 183.6074
1190.378, 26.64648
1191.463, 51.68750
1192.548, 90.72852
1193.632, 94.76953
1194.717, 53.18945
1195.801, 41.81836
1196.886, 114.8242
1197.970, 81.82812
1199.054, 228.8359
1200.137, 90.84180
1201.221, 90.84570
1202.305, 170.8496
1203.388, 87.14648
1204.471, 38.80273
1205.554, 333.7480
1206.637, 21.30469
1207.719, 126.3828
1208.802, 13.46484
1209.884, 167.3066
1210.966, 3.851563
1212.048, 35.98242
1213.130, 137.8164
1214.212, 150.6445
1215.293, 136.4746
1216.374, 330.3008
1217.456, 423.1270
1218.536, 156.9473
1219.617, 6.769531
1220.698, 3.419922
1221.778, 82.99219
1222.859, 49.11523
1223.939, 44.14844
1225.019, 140.5508
1226.099, 172.2480
1227.178, 103.9453
1228.258, 337.6367
1229.337, 252.3281
1230.417, 346.0156
1231.496, 320.7031
1232.574, 524.3867
1233.653, 524.4609
1234.732, 550.7480
1235.810, 574.4277
1236.888, 479.1016
1237.966, 391.7754
1239.044, 463.4473
1240.122, 308.1133
1241.199, 320.7812
1242.277, 652.4434
1243.354, 349.1035
1244.431, 584.7617
1245.508, 445.4199
1246.585, 588.0723
1247.661, 467.7266
1248.738, 631.3770
1249.814, 712.0234
1250.890, 394.6680
1251.966, 441.3281
1253.042, 617.9844
1254.117, 402.6387
1255.193, 532.2988
1256.268, 347.9551
1257.343, 526.6094
1258.418, 579.2637
1259.493, 644.9180
1260.567, 674.5664
1261.642, 732.4180
1262.716, 713.8965
1263.790, 791.5625
1264.864, 905.2324
1265.938, 861.8340
1267.011, 762.4980
