##NAMES=Mesolite
##RRUFFID=R050013
##IDEAL CHEMISTRY=Na_2_Ca_2_(Si_9_Al_6_)O_30_&#183;8H_2_O
##LOCALITY=Poona, Maharashtra, India
##OWNER=RRUFF
##SOURCE=University of Arizona Mineral Museum
##DESCRIPTION=Clear to white elongated prismatic single crystal
##STATUS=The identification of this mineral has been confirmed by X-ray diffraction and chemical analysis
##URL=rruff.info/R050013
##MEASURED CHEMISTRY=Na_2.00_Ca_2.00_(Si_9.00_Al_6.00_)O_30_Â·8H_2_O
##PIN_ID=M00156
##ORIENTATION=Laser parallel to -a* (-1 0 0). Fiducial mark perpendicular to laser is parallel to b [0 1 0]
113.2080, 0.0000000E+00
114.4400, 96.38379
115.6710, 114.0596
116.9030, 102.1299
118.1340, 3.511719
119.3650, 13.89941
120.5960, 16.78320
121.8270, 66.76367
123.0580, 197.0664
124.2880, 431.2119
125.5190, 718.3066
126.7490, 1164.404
127.9790, 1638.176
129.2090, 2003.161
130.4390, 2277.030
131.6680, 2304.755
132.8980, 2618.207
134.1270, 2863.188
135.3560, 3065.544
136.5850, 4387.486
137.8140, 4792.617
139.0430, 5515.154
140.2710, 6104.836
141.5000, 6670.152
142.7280, 6546.262
143.9560, 6236.979
145.1840, 5870.248
146.4120, 5396.158
147.6390, 5354.491
148.8670, 5421.756
150.0940, 5573.180
151.3210, 5555.478
152.5490, 5629.451
153.7750, 5146.051
155.0020, 4945.299
156.2290, 4568.215
157.4550, 4403.822
158.6810, 4258.605
159.9080, 4341.566
161.1340, 4548.074
162.3590, 4623.998
163.5850, 4859.029
164.8110, 4885.762
166.0360, 4805.843
167.2610, 4453.203
168.4860, 4182.396
169.7110, 3989.457
170.9360, 3786.657
172.1610, 3789.346
173.3850, 3752.000
174.6100, 3206.476
175.8340, 3411.779
177.0580, 3011.910
178.2820, 2712.977
179.5050, 2478.004
180.7290, 2087.553
181.9520, 2050.745
183.1760, 1651.322
184.3990, 1564.152
185.6220, 1322.746
186.8450, 1326.021
188.0670, 1073.065
189.2900, 977.9033
190.5120, 911.3662
191.7340, 915.5322
192.9560, 941.6211
194.1780, 843.6387
195.4000, 993.5840
196.6220, 589.4609
197.8430, 751.2715
199.0640, 605.0176
200.2860, 364.6943
201.5070, 395.3047
202.7270, 211.8438
203.9480, 63.31543
205.1690, 52.71777
206.3890, 33.04785
207.6090, 84.69141
208.8290, 13.49609
210.0490, 50.38965
211.2690, 6.267578
212.4890, 76.92578
213.7080, 60.51074
214.9280, 62.71973
216.1470, 80.04199
217.3660, 133.5508
218.5850, 34.86328
219.8030, 234.7480
221.0220, 104.4512
222.2400, 231.9414
223.4590, 444.7812
224.6770, 192.0225
225.8950, 214.9658
227.1120, 77.45410
228.3300, 203.6289
229.5480, 232.7266
230.7650, 261.7480
231.9820, 238.6865
233.1990, 448.5312
234.4160, 603.2295
235.6330, 742.7988
236.8490, 1010.211
238.0660, 1217.454
239.2820, 1001.580
240.4980, 1084.717
241.7140, 711.6064
242.9300, 403.4463
244.1460, 442.5596
245.3610, 159.2031
246.5770, 50.39062
247.7920, 36.27441
249.0070, 37.16797
250.2220, 19.10547
251.4370, 20.06250
252.6510, 136.7686
253.8660, 135.4346
255.0800, 14.61035
256.2940, 223.5137
257.5080, 139.8896
258.7220, 328.5703
259.9360, 213.3672
261.1490, 176.6650
262.3630, 264.4941
263.5760, 146.7783
264.7890, 315.5264
266.0020, 458.5811
267.2150, 486.0596
268.4270, 490.7920
269.6400, 587.8135
270.8520, 638.8447
272.0640, 718.8760
273.2760, 684.8975
274.4880, 782.9004
275.7000, 984.8760
276.9120, 1257.823
278.1230, 1306.736
279.3340, 1734.608
280.5450, 1854.440
281.7560, 2027.229
282.9670, 2445.970
284.1780, 2711.653
285.3880, 2988.272
286.5980, 3207.822
287.8090, 3669.303
289.0190, 4072.717
290.2290, 3997.061
291.4380, 3908.341
292.6480, 3728.559
293.8570, 3366.711
295.0670, 3106.791
296.2760, 2439.801
297.4850, 2279.738
298.6930, 1791.606
299.9020, 1496.407
301.1110, 1329.140
302.3190, 946.8066
303.5270, 662.4082
304.7350, 729.9336
305.9430, 567.3701
307.1510, 530.6523
308.3580, 504.8066
309.5660, 526.7832
310.7730, 293.5781
311.9800, 570.2812
313.1870, 427.9258
314.3940, 516.5117
315.6010, 703.0332
316.8070, 695.4863
318.0130, 776.8828
319.2200, 774.2246
320.4260, 670.5195
321.6310, 625.7637
322.8370, 510.9004
324.0430, 424.1094
325.2480, 243.1973
326.4540, 118.1816
327.6590, 39.96680
328.8640, 57.24219
330.0680, 74.90625
331.2730, 45.06055
332.4780, 10.16211
333.6820, 102.7676
334.8860, 100.9062
336.0900, 289.9863
337.2940, 286.5059
338.4980, 203.4785
339.7010, 433.3965
340.9050, 526.2656
342.1080, 738.0820
343.3110, 772.8535
344.5140, 1056.574
345.7170, 1098.248
346.9200, 1201.873
348.1220, 1536.221
349.3240, 1458.893
350.5270, 1421.463
351.7290, 1271.873
352.9310, 1204.545
354.1320, 1133.674
355.3340, 917.3535
356.5350, 1200.088
357.7370, 896.9590
358.9380, 956.7930
360.1390, 1025.418
361.3400, 871.8926
362.5400, 720.2617
363.7410, 865.4434
364.9410, 680.1289
366.1410, 476.1270
367.3410, 295.4199
368.5410, 119.9883
369.7410, 47.90625
370.9400, 94.85547
372.1400, 102.8340
373.3390, 170.0801
374.5380, 291.3105
375.7370, 129.5566
376.9360, 128.9922
378.1350, 152.1113
379.3330, 115.2539
380.5310, 171.6191
381.7300, 192.0137
382.9280, 90.51172
384.1260, 192.0820
385.3230, 24.24023
386.5210, 116.4902
387.7180, 60.67578
388.9160, 13.67773
390.1130, 72.47266
391.3100, 89.10547
392.5060, 177.0371
393.7030, 145.4316
394.9000, 412.6035
396.0960, 280.1406
397.2920, 413.5938
398.4880, 510.0430
399.6840, 803.9902
400.8800, 933.3457
402.0750, 1024.502
403.2710, 1334.959
404.4660, 1621.879
405.6610, 1851.543
406.8560, 2133.609
408.0510, 2290.977
409.2450, 2431.213
410.4400, 2714.031
411.6340, 2676.951
412.8280, 2377.832
414.0220, 2530.674
415.2160, 2360.480
416.4100, 2440.246
417.6030, 2330.973
418.7970, 2452.658
419.9900, 2324.303
421.1830, 2235.906
422.3760, 2160.473
423.5690, 2221.998
424.7610, 2027.484
425.9540, 1828.930
427.1460, 1973.338
428.3380, 1829.707
429.5300, 1855.035
430.7220, 1973.328
431.9140, 2270.578
433.1050, 2352.791
434.2970, 2618.100
435.4880, 2784.107
436.6790, 3047.209
437.8700, 3350.273
439.0610, 3455.301
440.2510, 3633.293
441.4420, 3281.248
442.6320, 3524.166
443.8220, 3120.051
445.0120, 3069.898
446.2020, 2781.711
447.3910, 2364.488
448.5810, 2150.232
449.7700, 2068.973
450.9600, 1721.682
452.1490, 1696.297
453.3370, 1536.941
454.5260, 1318.459
455.7150, 1168.039
456.9030, 1151.199
458.0910, 1030.699
459.2800, 881.6973
460.4670, 612.6445
461.6550, 630.0723
462.8430, 513.4727
464.0300, 536.0391
465.2180, 537.1797
466.4050, 504.4355
467.5920, 433.2969
468.7790, 414.5078
469.9650, 357.7031
471.1520, 311.7383
472.3380, 318.2246
473.5250, 210.3047
474.7110, 189.2324
475.8970, 124.3340
477.0820, 380.2109
478.2680, 376.0410
479.4540, 169.0664
480.6390, 539.0508
481.8240, 389.6641
483.0090, 303.2188
484.1940, 525.1328
485.3780, 480.0234
486.5630, 416.8945
487.7470, 610.7441
488.9320, 568.5723
490.1160, 828.3789
491.3000, 705.1680
492.4830, 820.9414
493.6670, 1070.697
494.8500, 1037.438
496.0340, 1168.182
497.2170, 1368.912
498.4000, 1565.641
499.5820, 1716.355
500.7650, 1895.092
501.9480, 2004.828
503.1300, 2433.602
504.3120, 2596.410
505.4940, 3054.264
506.6760, 3367.129
507.8580, 3882.000
509.0390, 4421.773
510.2210, 4797.777
511.4020, 5333.854
512.5830, 6251.203
513.7640, 7167.080
514.9450, 8355.262
516.1250, 10090.23
517.3060, 11880.62
518.4860, 14139.24
519.6660, 16974.91
520.8460, 20280.14
522.0260, 24376.70
523.2060, 28030.75
524.3850, 32249.54
525.5650, 36240.72
526.7440, 38396.55
527.9230, 40284.63
529.1020, 40389.27
530.2810, 38550.98
531.4590, 35282.22
532.6380, 31191.50
533.8160, 26989.69
534.9940, 22821.26
536.1720, 19270.57
537.3500, 15803.36
538.5270, 13204.04
539.7050, 11035.01
540.8820, 8949.951
542.0590, 7810.395
543.2360, 6541.428
544.4130, 5678.461
545.5900, 4759.637
546.7660, 4399.664
547.9430, 3676.939
549.1190, 3584.215
550.2950, 2945.891
551.4710, 2884.963
552.6470, 2594.191
553.8220, 2246.326
554.9980, 2095.070
556.1730, 1912.078
557.3480, 1801.156
558.5230, 1662.178
559.6980, 1531.410
560.8730, 1417.123
562.0470, 1309.098
563.2220, 1164.070
564.3960, 1087.037
565.5700, 845.9980
566.7440, 689.9551
567.9170, 990.9062
569.0910, 686.8516
570.2640, 732.7949
571.4380, 610.7305
572.6110, 685.6641
573.7840, 693.5918
574.9570, 595.5176
576.1290, 489.4375
577.3020, 559.3535
578.4740, 521.2676
579.6460, 473.1758
580.8180, 400.0801
581.9900, 472.9824
583.1620, 342.8809
584.3330, 573.7754
585.5040, 565.6660
586.6760, 526.6816
587.8470, 442.5664
589.0180, 346.5879
590.1880, 216.0762
591.3590, 150.1387
592.5290, 134.0117
593.7000, 153.8809
594.8700, 36.25391
596.0400, 118.6016
597.2090, 415.4590
598.3790, 382.3887
599.5490, 352.2383
600.7180, 368.0879
601.8870, 263.9336
603.0560, 260.0273
604.2250, 351.6152
605.3940, 198.4551
606.5620, 169.2871
607.7300, 159.1211
608.8990, 16.95117
610.0670, 375.7852
611.2350, 373.6270
612.4020, 341.4590
613.5700, 737.3691
614.7370, 710.9336
615.9050, 658.4336
617.0720, 1018.713
618.2390, 1165.711
619.4060, 1371.717
620.5720, 1654.230
621.7390, 1843.240
622.9050, 2037.254
624.0710, 2127.268
625.2370, 2165.279
626.4030, 2229.289
627.5690, 1951.299
628.7340, 1812.621
629.9000, 1401.938
631.0650, 1162.230
632.2300, 809.7305
633.3950, 664.7305
634.5600, 792.7285
635.7240, 590.7715
636.8890, 679.7676
638.0530, 886.0996
639.2170, 823.2832
640.3810, 843.5645
641.5450, 1066.578
642.7080, 1326.283
643.8720, 1289.561
645.0350, 1426.865
646.1980, 1463.697
647.3610, 1441.104
648.5240, 1438.094
649.6870, 1419.518
650.8490, 1387.133
652.0120, 1390.834
653.1740, 1323.818
654.3360, 1190.564
655.4980, 1141.594
656.6600, 1007.750
657.8210, 762.5254
658.9830, 741.7520
660.1440, 401.3438
661.3050, 452.5391
662.4660, 279.9043
663.6270, 180.7129
664.7870, 348.5410
665.9480, 232.0625
667.1080, 184.7031
668.2680, 299.6680
669.4280, 392.5039
670.5880, 35.46680
671.7480, 31.10156
672.9070, 40.85156
674.0670, 133.2109
675.2260, 32.67383
676.3850, 118.8281
677.5440, 13.45898
678.7030, 118.8848
679.8610, 45.44922
681.0200, 41.87109
682.1780, 338.7324
683.3360, 146.0293
684.4940, 107.3477
685.6520, 235.6250
686.8090, 79.10938
687.9670, 84.09766
689.1240, 52.70703
690.2810, 58.55859
691.4380, 108.4570
692.5950, 115.5664
693.7520, 0.5800780
694.9080, 181.5723
696.0650, 125.5508
697.2210, 233.5215
698.3770, 143.4805
699.5330, 396.4258
700.6880, 325.3594
701.8440, 940.2832
702.9990, 994.1973
704.1550, 1230.098
705.3100, 1606.988
706.4650, 1983.867
707.6190, 2316.734
708.7740, 2034.588
709.9290, 2550.434
711.0830, 2158.264
712.2370, 1941.086
713.3910, 1912.895
714.5450, 1681.691
715.6980, 1295.477
716.8520, 1281.252
718.0050, 1116.014
719.1580, 781.7656
720.3110, 791.5020
721.4640, 668.2285
722.6170, 450.9434
723.7700, 387.6465
724.9220, 116.3359
726.0740, 166.0117
727.2260, 114.6777
728.3780, 85.66992
729.5300, 102.9121
730.6810, 287.4785
731.8330, 185.0332
732.9840, 235.5742
734.1350, 474.2539
735.2860, 188.7715
736.4370, 129.2773
737.5880, 400.7695
738.7380, 244.2500
739.8880, 419.7188
741.0390, 403.1777
742.1890, 508.6211
743.3380, 489.0566
744.4880, 748.4785
745.6380, 1003.889
746.7870, 1239.287
747.9360, 1094.539
749.0850, 1265.916
750.2340, 1260.279
751.3830, 1333.631
752.5310, 1155.971
753.6800, 1215.299
754.8280, 1118.617
755.9760, 964.9277
757.1240, 996.2246
758.2720, 855.5117
759.4190, 768.7852
760.5670, 709.0469
761.7140, 652.2969
762.8610, 585.5352
764.0080, 479.7578
765.1550, 420.9707
766.3020, 71.17188
767.4480, 73.35742
768.5950, 77.52930
769.7410, 32.68359
770.8870, 242.8203
772.0330, 174.1133
773.1780, 136.0547
774.3240, 202.1562
775.4690, 66.24219
776.6140, 101.3145
777.7590, 19.63086
778.9040, 140.3828
780.0490, 105.6172
781.1940, 66.70508
782.3380, 194.8613
783.4820, 25.41602
784.6260, 50.75586
785.7700, 144.8398
786.9140, 42.42578
788.0580, 160.9922
789.2010, 65.45312
790.3450, 256.0332
791.4880, 103.4922
792.6310, 150.8887
793.7730, 28.74219
794.9160, 212.4199
796.0590, 250.7520
797.2010, 64.91406
798.3430, 26.05469
799.4850, 165.1738
800.6270, 47.27734
801.7690, 56.36523
802.9100, 158.4355
804.0520, 123.4883
805.1930, 2.470703
806.3340, 95.47070
807.4750, 113.5566
808.6160, 155.8906
809.7560, 3.697266
810.8970, 123.5430
812.0370, 162.3887
813.1770, 80.35156
814.3170, 133.9941
815.4570, 9.783203
816.5960, 154.3105
817.7360, 126.3184
818.8750, 14.45117
820.0140, 148.9746
821.1530, 91.48828
822.2920, 185.0723
823.4310, 123.5605
824.5690, 150.7930
825.7070, 424.0078
826.8460, 136.8125
827.9840, 262.2051
829.1220, 373.4238
830.2590, 203.7207
831.3970, 394.3906
832.5340, 524.7832
833.6710, 261.0879
834.8080, 310.4609
835.9450, 206.8164
837.0820, 478.1680
838.2190, 376.5098
839.3550, 725.8398
840.4910, 687.1602
841.6270, 871.4727
842.7630, 1014.771
843.8990, 1017.061
845.0350, 922.3418
846.1700, 937.6113
847.3060, 861.8711
848.4410, 1107.123
849.5760, 918.3613
850.7100, 1186.594
851.8450, 1396.816
852.9800, 1467.029
854.1140, 1643.232
855.2480, 1967.426
856.3820, 1845.611
857.5160, 2100.787
858.6500, 2193.955
859.7830, 2076.115
860.9170, 2121.264
862.0500, 1863.275
863.1830, 1645.408
864.3160, 1708.395
865.4480, 1610.898
866.5810, 1669.816
867.7130, 1325.916
868.8460, 1002.008
869.9780, 951.0918
871.1100, 952.1719
872.2410, 667.2656
873.3730, 622.2734
874.5050, 576.9219
875.6360, 757.5859
876.7670, 526.7734
877.8980, 844.9766
879.0290, 833.1836
880.1590, 726.3828
881.2900, 931.5918
882.4200, 654.8027
883.5500, 585.0078
884.6800, 752.2070
885.8100, 628.4004
886.9400, 305.5859
888.0690, 506.7656
889.1990, 382.9414
890.3280, 445.1289
891.4570, 473.3555
892.5860, 452.5898
893.7140, 576.8359
894.8430, 688.0781
895.9710, 683.3340
897.1000, 576.5820
898.2280, 655.8262
899.3560, 479.0625
900.4830, 412.2949
901.6110, 511.5215
902.7380, 521.4375
903.8660, 471.3594
904.9930, 675.2891
906.1200, 592.0117
907.2460, 505.2246
908.3730, 568.4355
909.5000, 278.5918
910.6260, 630.7910
911.7520, 377.6523
912.8780, 348.6523
914.0040, 161.5469
915.1290, 233.7012
916.2550, 31.16016
917.3800, 155.0449
918.5050, 73.09766
919.6300, 284.2812
920.7550, 184.0566
921.8800, 56.24414
923.0040, 203.9941
924.1290, 103.1895
925.2530, 149.0176
926.3770, 190.2090
927.5010, 101.6426
928.6250, 272.8340
929.7480, 225.3926
930.8720, 249.5684
931.9950, 281.7910
933.1180, 333.7168
934.2410, 467.0938
935.3640, 489.3438
936.4860, 403.2129
937.6090, 289.1230
938.7310, 285.3789
939.8530, 222.5820
940.9750, 126.4688
942.0970, 120.5254
943.2180, 31.45898
944.3400, 32.13086
945.4610, 39.40820
946.5820, 76.84766
947.7030, 90.17578
948.8240, 206.3477
949.9450, 273.7246
951.0650, 176.8848
952.1860, 235.2305
953.3060, 173.6680
954.4260, 48.56250
955.5460, 228.0137
956.6650, 21.55859
957.7850, 208.9004
958.9040, 373.3672
960.0230, 371.8633
961.1420, 367.3672
962.2610, 332.8945
963.3800, 506.4453
964.4990, 472.0352
965.6170, 501.6328
966.7350, 443.2402
967.8530, 402.8535
968.9710, 509.3125
970.0890, 602.0996
971.2070, 726.7324
972.3240, 756.3711
973.4410, 876.0156
974.5580, 890.6680
975.6750, 801.3281
976.7920, 742.9922
977.9090, 719.6680
979.0250, 281.3457
980.1410, 218.0332
981.2580, 117.7266
982.3740, 286.4297
983.4890, 223.1367
984.6050, 263.8535
985.7200, 466.5742
986.8360, 601.3047
987.9510, 813.0430
989.0660, 780.7871
990.1810, 692.5371
991.2950, 596.2969
992.4100, 768.0645
993.5240, 894.8398
994.6390, 959.6211
995.7530, 1283.412
996.8660, 1214.209
997.9800, 1584.014
999.0940, 1847.828
1000.207, 2096.680
1001.320, 2412.541
1002.433, 2540.410
1003.546, 2079.289
1004.659, 1612.174
1005.772, 931.1680
1006.884, 426.3477
1007.996, 203.8594
1009.108, 353.3242
1010.220, 536.2480
1011.332, 257.9160
1012.444, 472.5762
1013.555, 598.5352
1014.666, 457.3730
1015.777, 858.7773
1016.888, 929.7383
1017.999, 1080.705
1019.110, 918.6777
1020.220, 1043.656
1021.331, 1292.641
1022.441, 1061.049
1023.551, 1466.988
1024.661, 1561.803
1025.770, 1514.439
1026.880, 1393.676
1027.989, 1555.279
1029.098, 1791.346
1030.207, 1917.377
1031.316, 1799.414
1032.425, 1661.453
1033.533, 1762.500
1034.642, 1772.551
1035.750, 1889.230
1036.858, 2295.293
1037.966, 2626.365
1039.073, 3241.441
1040.181, 3479.527
1041.288, 3483.619
1042.396, 3611.713
1043.503, 3308.814
1044.610, 2929.924
1045.716, 2273.035
1046.823, 1969.156
1047.929, 1725.299
1049.036, 1368.445
1050.142, 1197.637
1051.248, 900.3711
1052.353, 683.3320
1053.459, 656.6445
1054.564, 684.9902
1055.670, 479.3379
1056.775, 445.6953
1057.880, 270.0605
1058.985, 302.4570
1060.089, 309.8555
1061.194, 128.3027
1062.298, 193.0781
1063.402, 100.9160
1064.506, 224.2754
1065.610, 173.4316
1066.713, 171.9883
1067.817, 485.5566
1068.920, 183.1270
1070.023, 270.7051
1071.126, 540.2910
1072.229, 394.8809
1073.332, 511.4727
1074.435, 329.0820
1075.537, 572.7324
1076.639, 565.4297
1077.741, 529.1289
1078.843, 890.2383
1079.945, 1090.305
1081.046, 1120.031
1082.148, 1217.764
1083.249, 1058.500
1084.350, 1246.248
1085.451, 941.0527
1086.551, 1031.857
1087.652, 763.6719
1088.752, 924.4902
1089.853, 989.0820
1090.953, 886.9082
1092.053, 879.7363
1093.152, 950.5703
1094.252, 1034.408
1095.351, 829.2500
1096.451, 966.0938
1097.550, 600.9395
1098.649, 767.7910
1099.748, 528.6445
1100.846, 422.5020
1101.945, 617.3652
1103.043, 533.2285
1104.141, 721.0957
1105.239, 617.9648
1106.337, 676.8398
1107.434, 645.7168
1108.532, 669.5957
1109.629, 796.4805
1110.726, 480.3672
1111.823, 578.2578
1112.920, 717.1504
1114.017, 401.0469
1115.113, 347.9453
1116.210, 328.8477
1117.306, 329.7539
1118.402, 243.6621
1119.498, 472.5723
1120.593, 544.4863
1121.689, 543.4023
1122.784, 289.3223
1123.879, 281.2480
1124.974, 328.1738
1126.069, 270.1055
1127.164, 147.0391
1128.259, 220.9766
1129.353, 126.9160
1130.447, 185.8594
1131.541, 61.80664
1132.635, 107.1250
1133.729, 325.7109
1134.822, 55.66602
1135.916, 177.6250
1137.009, 65.41016
1138.102, 3.517578
1139.195, 136.5547
1140.288, 310.6953
1141.380, 99.00000
1142.473, 90.30078
1143.565, 23.64648
1144.657, 11.99609
1145.749, 44.36133
1146.841, 36.74023
1147.932, 92.85938
1149.024, 160.4629
1150.115, 107.0684
1151.206, 124.7188
1152.297, 118.2910
1153.388, 1.929688
1154.479, 60.43359
1155.569, 153.8105
1156.659, 55.24805
1157.750, 48.71680
1158.839, 1.208984
1159.929, 61.70703
1161.019, 112.7617
1162.108, 143.2324
1163.198, 91.70703
1164.287, 147.1855
1165.376, 54.66797
1166.465, 38.84570
1167.553, 35.96875
1168.642, 150.0859
1169.730, 131.5566
1170.818, 99.03320
1171.906, 146.5117
1172.994, 61.99414
1174.082, 298.4785
1175.170, 471.9668
1176.257, 383.4609
1177.344, 415.9570
1178.431, 42.45703
1179.518, 208.9590
1180.605, 77.46680
1181.691, 117.0254
1182.778, 83.57812
1183.864, 75.83398
1184.950, 112.2539
1186.036, 38.67188
1187.122, 226.0957
1188.207, 186.5195
1189.292, 171.9473
1190.378, 186.3789
1191.463, 112.8711
1192.548, 16.75391
1193.632, 1.669922
1194.717, 58.90820
1195.801, 87.52148
1196.886, 61.81836
1197.970, 85.16016
1199.054, 161.5039
1200.137, 141.8496
1201.221, 158.1973
1202.305, 280.5469
1203.388, 178.8984
1204.471, 144.2539
1205.554, 26.61133
1206.637, 71.96875
1207.719, 237.3281
1208.802, 148.6914
1209.884, 5.8594000E-02
1210.966, 190.4238
1212.048, 143.7891
1213.130, 422.1582
1214.212, 388.5293
1215.293, 518.9004
1216.374, 505.2734
1217.456, 588.6484
1218.536, 505.0781
1219.617, 312.4082
1220.698, 251.7910
1221.778, 145.1777
1222.859, 120.3047
1223.939, 137.9531
1225.019, 143.3457
1226.099, 268.7402
1227.178, 311.1367
1228.258, 313.5352
1229.337, 363.9375
1230.417, 399.5195
1231.496, 417.0859
1232.574, 490.1523
1233.653, 527.5645
1234.732, 576.9766
1235.810, 768.3926
1236.888, 737.8145
1237.966, 747.5352
1239.044, 864.6582
1240.122, 656.0840
1241.199, 549.5117
1242.277, 508.9434
1243.354, 782.3770
1244.431, 1039.814
1245.508, 768.2520
1246.585, 688.6934
1247.661, 649.1387
1248.738, 555.5879
1249.814, 354.0469
1250.890, 560.5117
1251.966, 279.0215
1253.042, 657.5430
1254.117, 371.1035
1255.193, 348.6699
1256.268, 830.2402
1257.343, 723.8164
1258.418, 484.3926
1259.493, 645.9727
1260.567, 772.5586
1261.642, 962.1465
1262.716, 1111.742
1263.790, 883.3730
1264.864, 1139.010
1265.938, 1107.688
1267.011, 1313.268
1268.085, 1302.279
1269.158, 1351.365
1270.231, 1171.512
1271.304, 1355.213
1272.377, 1218.998
1273.450, 1303.094
1274.522, 1189.793
1275.594, 1147.951
1276.666, 1145.264
1277.738, 1035.650
1278.810, 1121.396
1279.882, 1083.146
1280.953, 1124.902
1282.025, 1049.732
1283.096, 999.1719
1284.167, 903.3105
1285.238, 927.9941
1286.308, 970.1602
1287.379, 908.7383
1288.449, 891.9609
