##NAMES=Mesolite
##RRUFFID=R040139
##IDEAL CHEMISTRY=Na_2_Ca_2_(Si_9_Al_6_)O_30_&#183;8H_2_O
##LOCALITY=Lake Superior beach,  41 miles north of Tofte, Minnesota, USA
##OWNER=RRUFF
##SOURCE=University of Arizona Mineral Museum
##DESCRIPTION=Aggregate of white radiating thin acicular crystals.
##STATUS=The identification of this mineral has been confirmed by X-ray diffraction and chemical analysis
##URL=rruff.info/R040139
##MEASURED CHEMISTRY=Na_1.95_Ca_1.89_(Si_9.21_Al_5.82_)O_30_Â·8H_2_O
##PIN_ID=L00551
83.570, 0.000
84.949, 10.086
86.327, 45.698
87.705, 44.278
89.083, 160.144
90.461, 140.302
91.839, 205.772
93.216, 483.432
94.593, 900.832
95.971, 1426.168
97.347, 1768.526
98.724, 1877.072
100.101, 1800.871
101.477, 1879.073
102.854, 1940.925
104.230, 2255.786
105.606, 2473.150
106.982, 3012.794
108.358, 3095.540
109.733, 3231.881
111.108, 3351.082
112.484, 3092.431
113.859, 3365.400
115.233, 3429.645
116.608, 3284.880
117.983, 2800.838
119.357, 2407.290
120.731, 1994.060
122.105, 1411.009
123.479, 1338.041
124.853, 935.060
126.227, 1202.080
127.600, 1129.566
128.973, 1267.354
130.346, 1688.842
131.719, 2308.232
133.092, 2684.688
134.465, 3123.938
135.837, 3611.769
137.209, 3987.717
138.581, 4091.930
139.953, 4304.541
141.325, 4175.663
142.697, 4795.494
144.068, 5424.375
145.439, 6562.668
146.810, 8000.225
148.181, 9626.893
149.552, 10842.619
150.923, 11087.316
152.293, 11601.031
153.664, 11643.804
155.034, 12315.692
156.404, 13376.736
157.774, 14086.991
159.143, 14366.597
160.513, 14205.606
161.882, 13763.986
163.251, 12891.742
164.620, 12198.846
165.989, 11885.363
167.358, 11601.486
168.726, 11721.711
170.095, 11929.533
171.463, 12080.971
172.831, 11791.562
174.199, 11498.904
175.566, 11266.744
176.934, 10248.749
178.301, 9705.314
179.669, 8713.188
181.036, 8235.751
182.403, 7342.959
183.769, 6845.576
185.136, 6556.556
186.502, 6283.785
187.869, 6124.941
189.235, 5866.186
190.601, 5457.510
191.966, 4568.900
193.332, 4090.344
194.698, 3451.832
196.063, 2983.356
197.428, 2754.907
198.793, 2536.476
200.158, 2439.693
201.522, 2131.198
202.887, 1926.615
204.251, 1691.679
205.615, 1386.766
206.979, 1166.656
208.343, 802.074
209.707, 855.607
211.070, 821.820
212.434, 782.269
213.797, 1078.809
215.160, 1342.676
216.523, 1135.012
217.885, 1090.244
219.248, 1045.375
220.610, 1175.406
221.973, 1177.339
223.335, 1476.175
224.697, 1997.916
226.058, 2624.560
227.420, 3344.107
228.781, 3723.560
230.143, 4232.912
231.504, 3994.347
232.865, 3746.536
234.225, 3119.929
235.586, 2663.191
236.946, 2156.298
238.307, 1890.020
239.667, 1909.792
241.027, 1843.465
242.387, 2042.639
243.746, 2191.872
245.106, 2381.021
246.465, 2172.089
247.824, 1819.339
249.183, 1461.407
250.542, 897.991
251.901, 646.672
253.259, 323.331
254.618, 224.359
255.976, 180.679
257.334, 319.228
258.692, 415.964
260.050, 352.852
261.407, 429.855
262.765, 237.947
264.122, 165.092
265.479, 52.735
266.836, 192.597
268.193, 309.544
269.549, 442.622
270.906, 501.876
272.262, 597.338
273.618, 596.050
274.974, 552.027
276.330, 663.267
277.686, 471.808
279.041, 436.606
280.396, 393.660
281.752, 233.960
283.107, 285.468
284.461, 38.799
285.816, 39.925
287.171, 317.909
288.525, 606.781
289.879, 925.548
291.233, 1384.212
292.587, 1986.771
293.941, 2657.208
295.294, 2982.488
296.648, 3385.582
298.001, 3439.476
299.354, 3080.174
300.707, 2897.687
302.060, 2623.020
303.412, 2402.449
304.765, 2286.191
306.117, 1997.033
307.469, 1813.728
308.821, 1603.268
310.173, 1336.661
311.525, 1068.909
312.876, 1014.021
314.228, 826.007
315.579, 704.861
316.930, 648.590
318.281, 487.195
319.631, 461.688
320.982, 331.054
322.332, 276.306
323.683, 208.448
325.033, 121.460
326.383, 310.337
327.732, 120.113
329.082, 205.969
330.431, 466.276
331.781, 231.664
333.130, 363.874
334.479, 335.942
335.827, 448.871
337.176, 452.635
338.525, 457.009
339.873, 521.766
341.221, 525.765
342.569, 565.000
343.917, 691.496
345.265, 876.402
346.612, 929.868
347.960, 1205.155
349.307, 1319.373
350.654, 1590.551
352.001, 1712.686
353.347, 1803.780
354.694, 1782.831
356.040, 1757.840
357.387, 1471.806
358.733, 1439.729
360.079, 1139.609
361.425, 1242.447
362.770, 1156.233
364.116, 1047.959
365.461, 1189.613
366.806, 1122.172
368.151, 1189.626
369.496, 1158.970
370.841, 1202.235
372.185, 1106.427
373.529, 953.555
374.874, 939.622
376.218, 638.633
377.562, 595.595
378.905, 611.514
380.249, 415.390
381.592, 481.222
382.936, 316.010
384.279, 387.750
385.622, 352.444
386.964, 470.094
388.307, 435.701
389.650, 556.266
390.992, 618.791
392.334, 549.277
393.676, 573.715
395.018, 584.102
396.360, 521.432
397.701, 715.706
399.042, 697.931
400.384, 820.113
401.725, 1011.254
403.066, 1105.355
404.406, 1314.422
405.747, 1528.458
407.087, 1953.464
408.428, 2297.440
409.768, 2875.361
411.108, 3534.227
412.447, 4134.034
413.787, 4826.428
415.127, 5217.135
416.466, 5816.777
417.805, 6175.708
419.144, 6508.208
420.483, 6687.105
421.822, 7017.575
423.160, 7238.458
424.499, 7377.609
425.837, 7287.473
427.175, 7404.012
428.513, 6863.519
429.850, 6845.513
431.188, 6618.982
432.526, 6758.566
433.863, 6801.994
435.200, 7195.345
436.537, 7871.308
437.874, 8630.144
439.210, 9760.857
440.547, 10843.651
441.883, 12339.017
443.219, 13804.286
444.555, 14706.203
445.891, 15748.204
447.227, 15910.156
448.563, 15918.460
449.898, 16058.481
451.233, 15249.494
452.568, 14650.461
453.903, 13421.382
455.238, 12402.253
456.573, 11353.082
457.907, 9903.864
459.241, 8434.602
460.576, 7255.297
461.910, 6375.950
463.243, 5298.283
464.577, 4558.878
465.911, 4009.416
467.244, 3334.217
468.577, 3218.666
469.910, 2770.443
471.243, 2509.326
472.576, 2483.711
473.908, 2210.967
475.241, 2186.644
476.573, 2084.157
477.905, 2045.639
479.237, 2043.570
480.569, 1952.923
481.901, 2102.309
483.232, 2136.776
484.564, 2185.595
485.895, 2375.742
487.226, 2417.576
488.557, 2654.818
489.887, 2782.147
491.218, 3050.237
492.548, 3123.833
493.879, 3316.065
495.209, 3623.080
496.539, 3621.017
497.868, 3758.979
499.198, 3766.975
500.528, 3885.364
501.857, 3843.797
503.186, 3802.391
504.515, 4051.548
505.844, 4151.507
507.173, 4311.666
508.501, 4561.868
509.830, 4882.069
511.158, 5314.188
512.486, 5762.503
513.814, 6462.740
515.142, 7273.000
516.469, 8143.265
517.797, 9503.536
519.124, 10743.808
520.451, 12634.081
521.778, 14694.355
523.105, 17494.629
524.432, 21514.898
525.758, 25245.164
527.085, 31495.426
528.411, 36605.695
529.737, 43735.961
531.063, 50616.227
532.388, 53286.492
533.714, 53955.684
535.040, 53907.023
536.365, 48206.383
537.690, 42465.566
539.015, 34474.824
540.340, 28673.285
541.664, 22712.023
542.989, 18599.740
544.313, 14958.083
545.638, 12116.152
546.962, 10294.888
548.285, 8513.488
549.609, 7162.603
550.933, 6331.991
552.256, 5301.100
553.580, 4630.321
554.903, 4159.597
556.226, 3578.621
557.548, 3301.469
558.871, 2893.255
560.194, 2633.483
561.516, 2319.714
562.838, 2231.944
564.160, 1952.173
565.482, 1776.804
566.804, 1686.629
568.125, 1428.855
569.447, 1366.083
570.768, 1237.309
572.089, 1177.536
573.410, 1070.766
574.731, 831.003
576.052, 923.254
577.372, 855.521
578.693, 724.795
580.013, 796.078
581.333, 675.368
582.653, 698.665
583.972, 590.975
585.292, 689.305
586.611, 539.698
587.931, 575.190
589.250, 541.815
590.569, 490.606
591.888, 490.581
593.206, 449.762
594.525, 412.152
595.843, 331.740
597.161, 286.555
598.479, 373.547
599.797, 332.708
601.115, 207.026
602.433, 303.461
603.750, 184.025
605.067, 296.634
606.384, 297.288
607.701, 185.956
609.018, 258.631
610.335, 226.309
611.651, 289.989
612.968, 218.672
614.284, 135.356
615.600, 155.044
616.916, 43.734
618.232, 70.428
619.547, 39.123
620.863, 76.179
622.178, 4.504
623.493, 8.190
624.808, 92.123
626.123, 40.544
627.438, 62.786
628.752, 30.966
630.066, 82.311
631.381, 106.267
632.695, 72.026
634.009, 83.025
635.322, 89.012
636.636, 142.311
637.949, 53.131
639.263, 135.435
640.576, 151.547
641.889, 60.694
643.202, 71.536
644.514, 144.068
645.827, 43.695
647.139, 42.200
648.452, 43.859
649.764, 74.795
651.076, 88.960
652.387, 155.775
653.699, 133.501
655.010, 207.696
656.322, 228.687
657.633, 322.604
658.944, 336.091
660.255, 389.726
661.565, 534.385
662.876, 480.845
664.186, 583.113
665.497, 718.591
666.807, 779.756
668.117, 960.520
669.426, 999.242
670.736, 1211.779
672.046, 1369.219
673.355, 1458.597
674.664, 1433.185
675.973, 1382.943
677.282, 1346.211
678.591, 1053.751
679.899, 958.731
681.208, 844.081
682.516, 664.353
683.824, 604.518
685.132, 468.415
686.440, 469.458
687.748, 536.417
689.055, 241.644
690.362, 415.562
691.670, 379.449
692.977, 480.426
694.284, 575.254
695.590, 473.241
696.897, 677.891
698.203, 717.605
699.510, 792.437
700.816, 906.277
702.122, 894.149
703.428, 1034.933
704.733, 1128.682
706.039, 1409.428
707.344, 1681.130
708.650, 1877.858
709.955, 2206.451
711.260, 2672.041
712.564, 3161.730
713.869, 3555.085
715.173, 3673.662
716.478, 3716.597
717.782, 3557.135
719.086, 3325.864
720.390, 2955.126
721.694, 2479.652
722.997, 2176.055
724.301, 1780.470
725.604, 1481.134
726.907, 1361.464
728.210, 1066.063
729.513, 1091.750
730.815, 837.898
732.118, 770.115
733.420, 796.281
734.723, 639.389
736.025, 667.724
737.327, 588.686
738.628, 620.683
739.930, 523.858
741.231, 546.766
742.533, 587.884
743.834, 610.879
745.135, 703.062
746.436, 697.894
747.736, 740.705
749.037, 835.493
750.337, 891.259
751.638, 874.162
752.938, 1079.880
754.238, 1160.572
755.538, 1220.438
756.837, 1411.076
758.137, 1321.686
759.436, 1293.266
760.735, 1357.817
762.034, 1355.339
763.333, 1305.830
764.632, 1230.291
765.931, 1199.721
767.229, 983.120
768.527, 1008.488
769.825, 896.826
771.123, 753.133
772.421, 818.407
773.719, 601.651
775.017, 610.864
776.314, 501.045
777.611, 430.471
778.908, 464.563
780.205, 287.639
781.502, 261.380
782.799, 264.401
784.095, 210.024
785.392, 268.470
786.688, 151.344
787.984, 96.277
789.280, 150.389
790.575, 143.081
791.871, 48.492
793.167, 87.699
794.462, 28.788
795.757, 18.507
797.052, 21.090
798.347, 74.167
799.642, 63.790
800.936, 33.615
802.230, 35.576
803.525, 76.611
804.819, 106.575
806.113, 60.654
807.407, 134.823
808.700, 10.878
809.994, 44.474
811.287, 40.908
812.580, 39.424
813.873, 112.021
815.166, 14.264
816.459, 98.505
817.752, 63.385
819.044, 60.358
820.336, 143.424
821.629, 24.375
822.921, 4.875
824.212, 52.187
825.504, 17.587
826.796, 64.057
828.087, 0.379
829.378, 3.244
830.670, 10.071
831.961, 51.607
833.251, 3.448
834.542, 105.711
835.833, 44.833
837.123, 47.915
838.413, 53.956
839.703, 11.042
840.993, 74.895
842.283, 91.795
843.573, 45.659
844.862, 22.482
846.151, 98.259
847.441, 72.999
848.730, 105.702
850.018, 65.370
851.307, 143.001
852.596, 125.598
853.884, 95.159
855.173, 91.686
856.461, 82.177
857.749, 101.631
859.037, 107.051
860.324, 105.208
861.612, 112.786
862.899, 103.101
864.186, 132.381
865.474, 129.628
866.760, 102.841
868.047, 179.020
869.334, 122.167
870.620, 160.280
871.907, 33.362
873.193, 72.413
874.479, 179.429
875.765, 111.415
877.051, 136.367
878.336, 128.287
879.622, 64.173
880.907, 139.026
882.192, 69.847
883.477, 43.635
884.762, 167.388
886.047, 146.111
887.332, 152.805
888.616, 161.469
889.900, 102.104
891.184, 185.711
892.468, 172.289
893.752, 123.846
895.036, 182.372
896.320, 126.869
897.603, 150.342
898.886, 99.785
900.169, 179.197
901.452, 204.582
902.735, 194.937
904.018, 266.268
905.300, 134.570
906.583, 185.845
907.865, 221.092
909.147, 121.312
910.429, 184.502
911.711, 204.667
912.992, 193.802
914.274, 241.149
915.555, 213.252
916.836, 309.051
918.117, 222.081
919.398, 285.084
920.679, 396.062
921.960, 293.015
923.240, 349.944
924.520, 509.849
925.800, 614.729
927.080, 507.582
928.360, 538.411
929.640, 572.215
930.920, 733.994
932.199, 724.349
933.478, 907.496
934.757, 857.211
936.036, 1019.915
937.315, 1239.594
938.594, 1478.095
939.872, 1708.737
941.151, 2054.960
942.429, 2105.950
943.707, 2223.155
944.985, 2228.319
946.263, 1935.769
947.541, 1923.707
948.818, 1578.115
950.096, 1513.307
951.373, 1400.507
952.650, 1373.397
953.927, 1479.980
955.204, 1257.630
956.480, 1317.164
957.757, 1236.133
959.033, 1021.179
960.309, 1093.068
961.585, 914.268
962.861, 965.552
964.137, 959.360
965.412, 940.363
966.688, 1062.021
967.963, 1165.921
969.238, 1282.251
970.513, 1575.546
971.788, 1682.030
973.063, 1986.688
974.338, 2232.123
975.612, 2406.851
976.886, 2499.742
978.160, 2564.106
979.434, 2506.414
980.708, 2366.803
981.982, 2276.238
983.256, 2145.455
984.529, 1920.470
985.802, 1868.969
987.075, 1727.180
988.348, 1589.943
989.621, 1672.336
990.894, 1579.792
992.166, 1662.342
993.439, 1819.193
994.711, 1834.881
995.983, 1873.648
997.255, 2073.147
998.527, 2152.941
999.799, 2307.763
1001.070, 2497.491
1002.341, 2681.355
1003.613, 2947.102
1004.884, 3004.174
1006.155, 3196.175
1007.425, 3181.049
1008.696, 2922.910
1009.967, 2595.753
1011.237, 2483.678
1012.507, 2243.633
1013.777, 1906.583
1015.047, 1795.567
1016.317, 1696.513
1017.586, 1591.610
1018.856, 1588.697
1020.125, 1632.681
1021.394, 1613.018
1022.663, 1712.097
1023.932, 1748.349
1025.201, 1742.812
1026.470, 2021.704
1027.738, 2167.062
1029.006, 2478.139
1030.275, 2886.326
1031.543, 3168.483
1032.811, 3673.378
1034.078, 4378.591
1035.346, 4783.708
1036.613, 5698.533
1037.881, 5994.204
1039.148, 6459.854
1040.415, 6855.154
1041.682, 6990.725
1042.948, 7066.669
1044.215, 7212.135
1045.481, 7029.458
1046.748, 7144.677
1048.014, 6890.155
1049.280, 6716.777
1050.546, 6622.135
1051.811, 5907.395
1053.077, 5652.891
1054.342, 4988.389
1055.608, 4434.497
1056.873, 4179.998
1058.138, 3585.563
1059.402, 3401.170
1060.667, 3356.703
1061.932, 3072.041
1063.196, 3267.583
1064.460, 3033.126
1065.724, 3038.678
1066.988, 3174.248
1068.252, 3029.810
1069.516, 3185.376
1070.779, 3030.944
1072.043, 3046.677
1073.306, 3202.254
1074.569, 3168.436
1075.832, 3144.152
1077.095, 3329.742
1078.358, 3165.337
1079.620, 3440.938
1080.882, 3446.542
1082.145, 3422.152
1083.407, 3607.766
1084.669, 3563.383
1085.931, 3619.167
1087.192, 3704.795
1088.454, 3610.429
1089.715, 3736.070
1090.976, 3441.716
1092.237, 3367.366
1093.498, 3193.026
1094.759, 2878.691
1096.020, 2830.462
1097.280, 2549.142
1098.541, 2284.832
1099.801, 2204.482
1101.061, 1954.210
1102.321, 1825.104
1103.581, 1713.882
1104.840, 1603.697
1106.100, 1518.709
1107.359, 1688.588
1108.618, 1447.594
1109.877, 1727.668
1111.136, 1627.657
1112.395, 1443.680
1113.654, 1679.002
1114.912, 1488.126
1116.171, 1573.390
1117.429, 1452.550
1118.687, 1296.760
1119.945, 1383.030
1121.202, 1201.281
1122.460, 1147.774
1123.718, 1123.295
1124.975, 921.835
1126.232, 947.426
1127.489, 906.974
1128.746, 762.566
1130.003, 710.195
1131.259, 675.855
1132.516, 604.579
1133.772, 575.298
1135.028, 591.039
1136.285, 538.955
1137.540, 482.804
1138.796, 363.441
1140.052, 494.883
1141.307, 355.532
1142.563, 377.942
1143.818, 410.173
1145.073, 290.855
1146.328, 318.696
1147.583, 256.367
1148.837, 276.336
1150.092, 215.108
1151.346, 203.667
1152.600, 221.382
1153.854, 212.284
1155.108, 117.173
1156.362, 228.170
1157.615, 156.021
1158.869, 148.981
1160.122, 260.461
1161.375, 45.197
1162.629, 96.222
1163.881, 168.250
1165.134, 44.110
1166.387, 83.175
1167.639, 47.872
1168.892, 111.620
1170.144, 55.534
1171.396, 1.439
1172.648, 34.308
1173.900, 121.863
1175.151, 64.281
1176.403, 51.606
1177.654, 39.935
1178.905, 35.667
1180.156, 113.687
1181.407, 21.656
1182.658, 103.386
1183.909, 27.306
1185.159, 12.839
1186.409, 31.009
1187.660, 17.993
1188.910, 20.131
1190.159, 88.947
1191.409, 12.361
1192.659, 32.653
1193.908, 106.223
1195.158, 55.742
1196.407, 100.930
1197.656, 25.162
1198.905, 43.172
1200.154, 22.796
1201.402, 2.572
1202.651, 105.070
1203.899, 64.797
1205.147, 22.212
1206.395, 100.410
1207.643, 5.193
1208.891, 6.418
1210.139, 152.023
1211.386, 29.997
1212.634, 28.771
1213.881, 105.360
1215.128, 32.277
1216.375, 28.856
1217.622, 106.432
1218.868, 53.031
1220.115, 77.591
1221.361, 1.461
1222.607, 68.404
1223.853, 15.057
1225.099, 11.204
1226.345, 175.757
1227.591, 80.270
1228.836, 131.433
1230.082, 135.932
1231.327, 69.620
1232.572, 85.381
1233.817, 177.611
1235.062, 13.522
1236.306, 130.274
1237.551, 56.214
1238.795, 102.267
1240.040, 183.732
1241.284, 74.438
1242.528, 141.301
1243.771, 80.726
1245.015, 39.393
1246.259, 98.154
1247.502, 73.550
1248.745, 14.484
1249.988, 146.887
1251.231, 35.387
1252.474, 89.180
1253.717, 101.546
1254.959, 35.010
1256.202, 131.486
1257.444, 51.844
1258.686, 46.250
1259.928, 115.602
1261.170, 114.948
1262.412, 24.570
1263.653, 76.907
1264.895, 52.019
1266.136, 232.458
1267.377, 82.777
1268.618, 81.089
1269.859, 131.423
1271.100, 44.690
1272.340, 48.530
1273.581, 53.198
1274.821, 55.859
1276.061, 70.207
1277.301, 65.448
1278.541, 65.275
1279.781, 65.289
1281.020, 59.117
1282.260, 65.806
1283.499, 66.154
1284.738, 29.050
1285.977, 50.324
1287.216, 15.831
1288.455, 44.029
1289.694, 189.972
1290.932, 6.729
1292.170, 165.527
1293.409, 131.478
1294.647, 17.863
1295.885, 40.240
1297.122, 53.402
1298.360, 28.034
1299.597, 24.151
1300.835, 154.343
1302.072, 172.179
1303.309, 83.507
1304.546, 58.865
1305.783, 95.202
1307.019, 70.643
1308.256, 52.069
1309.492, 179.182
1310.728, 3.772
1311.965, 59.976
1313.200, 101.184
1314.436, 53.346
1315.672, 69.511
1316.907, 218.712
1318.143, 7.786
1319.378, 10.168
1320.613, 205.821
1321.848, 2.187
1323.083, 108.775
1324.318, 96.917
1325.552, 31.168
1326.787, 269.710
1328.021, 66.567
1329.255, 79.403
1330.489, 190.205
1331.723, 91.983
1332.957, 107.731
1334.190, 109.267
1335.424, 73.962
1336.657, 105.311
1337.890, 52.573
1339.123, 3.807
1340.356, 162.564
1341.589, 97.293
1342.821, 58.822
1344.054, 195.395
1345.286, 1.854
1346.518, 249.281
1347.750, 63.315
1348.982, 5.306
1350.214, 419.945
1351.445, 119.269
1352.677, 55.571
1353.908, 208.244
1355.139, 65.502
1356.370, 141.511
1357.601, 171.622
1358.832, 52.786
1360.063, 99.927
1361.293, 226.198
1362.524, 6.295
1363.754, 174.364
1364.984, 13.425
1366.214, 136.450
1367.444, 168.454
1368.673, 69.454
1369.903, 50.258
1371.132, 171.203
1372.362, 21.532
1373.591, 137.312
1374.820, 159.206
1376.048, 25.085
1377.277, 222.948
1378.506, 99.798
1379.734, 159.629
1380.962, 140.451
1382.191, 46.028
1383.419, 79.566
1384.646, 41.459
1385.874, 30.450
1387.102, 144.231
1388.329, 85.014
1389.556, 48.799
1390.784, 149.519
1392.011, 90.214
1393.238, 65.801
1394.464, 177.472
1395.691, 36.354
1396.917, 233.906
1398.144, 122.185
1399.370, 54.579
1400.596, 249.788
1401.822, 132.898
1403.048, 130.224
1404.273, 378.233
1405.499, 147.348
1406.724, 214.521
1407.949, 265.516
1409.175, 16.298
1410.400, 204.139
1411.624, 314.951
1412.849, 29.677
1414.074, 333.388
1415.298, 230.784
1416.522, 150.066
1417.746, 285.080
1418.970, 31.323
1420.194, 140.734
1421.418, 273.335
1422.642, 87.423
1423.865, 224.770
1425.088, 200.581
1426.311, 9.623
1427.534, 238.172
1428.757, 166.784
1429.980, 21.776
1431.203, 296.231
1432.425, 11.841
1433.647, 171.475
1434.870, 282.250
1436.092, 27.393
1437.314, 215.996
1438.535, 112.239
1439.757, 34.337
1440.979, 335.240
1442.200, 137.965
1443.421, 98.744
1444.642, 254.958
1445.863, 26.964
1447.084, 197.404
1448.305, 184.112
1449.525, 25.455
1450.746, 195.683
1451.966, 176.993
1453.186, 67.981
1454.406, 276.423
1455.626, 134.408
1456.846, 11.211
1458.065, 290.916
1459.285, 90.778
1460.504, 210.501
1461.723, 295.985
1462.942, 64.923
1464.161, 212.231
1465.380, 263.729
1466.599, 138.991
1467.817, 252.036
1469.035, 144.824
1470.254, 67.107
1471.472, 391.314
1472.690, 198.321
1473.907, 346.174
1475.125, 319.035
1476.343, 169.085
1477.560, 342.768
1478.777, 267.289
1479.994, 99.616
1481.211, 400.649
1482.428, 260.292
1483.645, 143.579
1484.861, 391.035
1486.078, 227.995
1487.294, 153.923
1488.510, 331.224
1489.726, 96.155
1490.942, 282.988
1492.158, 394.813
1493.374, 190.404
1494.589, 342.078
1495.804, 228.778
1497.020, 254.639
1498.235, 258.025
1499.450, 274.825
1500.664, 163.354
1501.879, 382.971
1503.094, 125.169
1504.308, 266.820
1505.522, 299.473
1506.736, 30.689
1507.950, 249.321
1509.164, 353.923
1510.378, 60.613
1511.591, 340.391
1512.805, 144.245
1514.018, 64.148
