##NAMES=Mesolite
##RRUFFID=R050013
##IDEAL CHEMISTRY=Na_2_Ca_2_(Si_9_Al_6_)O_30_&#183;8H_2_O
##LOCALITY=Poona, Maharashtra, India
##OWNER=RRUFF
##SOURCE=University of Arizona Mineral Museum
##DESCRIPTION=Clear to white elongated prismatic single crystal
##STATUS=The identification of this mineral has been confirmed by X-ray diffraction and chemical analysis
##URL=rruff.info/R050013
##MEASURED CHEMISTRY=Na_2.00_Ca_2.00_(Si_9.00_Al_6.00_)O_30_Â·8H_2_O
##PIN_ID=M00156
##ORIENTATION=Laser parallel to -a* (-1 0 0). Fiducial mark perpendicular to laser is parallel to b [0 1 0]
113.2080, 0.0000000E+00
114.4400, 1.511719
115.6710, 45.01367
116.9030, 73.76172
118.1340, 71.33008
119.3650, 32.50195
120.5960, 5.136719
121.8270, 95.78906
123.0580, 93.25586
124.2880, 296.2793
125.5190, 416.4863
126.7490, 535.6699
127.9790, 815.8809
129.2090, 1033.568
130.4390, 1339.916
131.6680, 1401.490
132.8980, 1792.748
134.1270, 2345.289
135.3560, 2805.812
136.5850, 3570.092
137.8140, 4283.984
139.0430, 5297.506
140.2710, 6428.646
141.5000, 7335.369
142.7280, 7814.742
143.9560, 7808.346
145.1840, 8089.143
146.4120, 8296.875
147.6390, 8892.406
148.8670, 9479.348
150.0940, 10079.66
151.3210, 10225.39
152.5490, 10044.60
153.7750, 9715.354
155.0020, 9508.668
156.2290, 9187.562
157.4550, 8900.049
158.6810, 8915.152
159.9080, 8757.914
161.1340, 9025.529
162.3590, 8938.512
163.5850, 8720.438
164.8110, 8208.648
166.0360, 8026.020
167.2610, 7727.879
168.4860, 7504.869
169.7110, 7103.590
170.9360, 6769.275
172.1610, 6169.764
173.3850, 5612.760
174.6100, 5266.283
175.8340, 4908.082
177.0580, 4848.314
178.2820, 4341.035
179.5050, 4585.484
180.7290, 4235.174
181.9520, 4286.363
183.1760, 4134.443
184.3990, 3794.250
185.6220, 3324.773
186.8450, 3097.066
188.0670, 2963.238
189.2900, 2840.311
190.5120, 2554.279
191.7340, 2499.205
192.9560, 2313.832
194.1780, 2176.594
195.4000, 1748.736
196.6220, 1751.824
197.8430, 1318.445
199.0640, 1188.027
200.2860, 1148.576
201.5070, 1026.088
202.7270, 1163.562
203.9480, 1162.998
205.1690, 1060.391
206.3890, 1388.887
207.6090, 1483.193
208.8290, 1786.865
210.0490, 1925.766
211.2690, 1859.820
212.4890, 1640.670
213.7080, 1448.654
214.9280, 1314.777
216.1470, 1140.176
217.3660, 1014.168
218.5850, 961.1777
219.8030, 951.8945
221.0220, 1011.082
222.2400, 1076.898
223.4590, 825.3613
224.6770, 562.1777
225.8950, 590.5254
227.1120, 537.4785
228.3300, 80.34180
229.5480, 276.1562
230.7650, 43.91797
231.9820, 81.63086
233.1990, 160.7070
234.4160, 14.94336
235.6330, 9.968750
236.8490, 5.029297
238.0660, 219.6680
239.2820, 150.4766
240.4980, 88.61914
241.7140, 46.10547
242.9300, 51.70703
244.1460, 157.9648
245.3610, 71.56445
246.5770, 126.2422
247.7920, 61.65039
249.0070, 274.4297
250.2220, 89.90430
251.4370, 322.7969
252.6510, 398.7305
253.8660, 399.9922
255.0800, 457.8477
256.2940, 444.9414
257.5080, 467.5781
258.7220, 406.1426
259.9360, 522.1523
261.1490, 513.3145
262.3630, 601.7500
263.5760, 411.1895
264.7890, 414.8828
266.0020, 587.4824
267.2150, 340.4551
268.4270, 188.6367
269.6400, 185.9160
270.8520, 238.2715
272.0640, 298.6816
273.2760, 376.1367
274.4880, 516.6211
275.7000, 272.1270
276.9120, 451.6348
278.1230, 187.1348
279.3340, 288.6191
280.5450, 553.0820
281.7560, 439.5195
282.9670, 472.9238
284.1780, 734.2949
285.3880, 722.6270
286.5980, 891.9199
287.8090, 1051.168
289.0190, 1334.369
290.2290, 1109.510
291.4380, 1119.582
292.6480, 681.5684
293.8570, 752.4707
295.0670, 547.2891
296.2760, 522.0293
297.4850, 464.6855
298.6930, 195.2676
299.9020, 244.7715
301.1110, 45.19922
302.3190, 62.54492
303.5270, 128.8105
304.7350, 149.0059
305.9430, 36.87500
307.1510, 66.84961
308.3580, 99.92969
309.5660, 124.1289
310.7730, 47.45312
311.9800, 32.88477
313.1870, 70.42383
314.3940, 80.08008
315.6010, 37.14648
316.8070, 64.27344
318.0130, 192.2988
319.2200, 89.09766
320.4260, 29.27148
321.6310, 154.9336
322.8370, 14.92969
324.0430, 119.0918
325.2480, 92.49805
326.4540, 52.93945
327.6590, 146.6895
328.8640, 61.57031
330.0680, 32.22656
331.2730, 156.8984
332.4780, 95.02539
333.6820, 192.9570
334.8860, 130.8926
336.0900, 127.7754
337.2940, 264.5957
338.4980, 393.3652
339.7010, 477.0898
340.9050, 597.8047
342.1080, 767.3887
343.3110, 771.9668
344.5140, 863.4980
345.7170, 892.9844
346.9200, 810.4258
348.1220, 828.9492
349.3240, 942.1680
350.5270, 760.4746
351.7290, 601.7285
352.9310, 603.9199
354.1320, 366.0488
355.3340, 185.0840
356.5350, 322.9512
357.7370, 84.65430
358.9380, 252.2188
360.1390, 140.6680
361.3400, 21.06055
362.5400, 240.3555
363.7410, 151.4980
364.9410, 22.47656
366.1410, 6.593750
367.3410, 93.01562
368.5410, 60.84961
369.7410, 102.5449
370.9400, 72.02148
372.1400, 51.43945
373.3390, 48.11133
374.5380, 92.25586
375.7370, 26.94336
376.9360, 89.61523
378.1350, 4.865234
379.3330, 125.0293
380.5310, 45.76562
381.7300, 5.355469
382.9280, 73.35352
384.1260, 12.31250
385.3230, 122.7734
386.5210, 50.07422
387.7180, 216.7715
388.9160, 340.6738
390.1130, 89.95703
391.3100, 216.6387
392.5060, 423.2500
393.7030, 281.5859
394.9000, 439.9746
396.0960, 338.5723
397.2920, 510.1738
398.4880, 396.8359
399.6840, 500.5605
400.8800, 606.2930
402.0750, 687.0137
403.2710, 734.7227
404.4660, 1018.402
405.6610, 1122.053
406.8560, 1382.709
408.0510, 1308.355
409.2450, 1559.996
410.4400, 1837.660
411.6340, 2071.291
412.8280, 2513.355
414.0220, 2950.363
415.2160, 3241.543
416.4100, 3609.932
417.6030, 3853.379
418.7970, 4217.785
419.9900, 4453.914
421.1830, 4396.242
422.3760, 4376.916
423.5690, 3956.967
424.7610, 4220.174
425.9540, 4086.340
427.1460, 3979.469
428.3380, 4041.557
429.5300, 4314.607
430.7220, 4347.615
431.9140, 4598.582
433.1050, 4794.512
434.2970, 5132.398
435.4880, 5428.250
436.6790, 5625.062
437.8700, 5679.836
439.0610, 5881.572
440.2510, 6013.271
441.4420, 5856.930
442.6320, 5473.816
443.8220, 5116.863
445.0120, 4839.344
446.2020, 4506.057
447.3910, 4136.574
448.5810, 3768.834
449.7700, 3428.031
450.9600, 3104.158
452.1490, 2679.441
453.3370, 2520.020
454.5260, 2155.369
455.7150, 1930.592
456.9030, 1799.420
458.0910, 1725.605
459.2800, 1595.369
460.4670, 1571.580
461.6550, 1502.812
462.8430, 1513.268
464.0300, 1494.488
465.2180, 1648.947
466.4050, 1647.045
467.5920, 1873.594
468.7790, 1936.955
469.9650, 1981.785
471.1520, 1973.609
472.3380, 2330.541
473.5250, 2448.559
474.7110, 2579.359
475.8970, 2899.451
477.0820, 2873.367
478.2680, 3659.902
479.4540, 3817.395
480.6390, 3926.557
481.8240, 4603.236
483.0090, 4596.930
484.1940, 5258.602
485.3780, 5814.258
486.5630, 6148.891
487.7470, 6113.508
488.9320, 6297.107
490.1160, 6146.688
491.3000, 6095.254
492.4830, 5611.801
493.6670, 5656.332
494.8500, 5354.848
496.0340, 4881.359
497.2170, 4758.734
498.4000, 4594.348
499.5820, 4593.523
500.7650, 4413.455
501.9480, 4360.311
503.1300, 4309.711
504.3120, 4199.883
505.4940, 4283.721
506.6760, 4496.193
507.8580, 4547.381
509.0390, 4876.607
510.2210, 5324.447
511.4020, 5718.285
512.5830, 6258.641
513.7640, 7108.947
514.9450, 8150.701
516.1250, 9248.621
517.3060, 10747.77
518.4860, 13211.11
519.6660, 15664.56
520.8460, 17983.71
522.0260, 21485.30
523.2060, 24672.22
524.3850, 28375.86
525.5650, 31077.37
526.7440, 32782.03
527.9230, 33196.83
529.1020, 33103.04
530.2810, 30983.44
531.4590, 28054.90
532.6380, 24482.33
533.8160, 20596.89
534.9940, 17095.78
536.1720, 14650.70
537.3500, 11824.16
538.5270, 9832.615
539.7050, 8259.641
540.8820, 6801.676
542.0590, 5911.242
543.2360, 5007.508
544.4130, 4306.848
545.5900, 3931.178
546.7660, 3446.686
547.9430, 3198.986
549.1190, 3056.711
550.2950, 2882.637
551.4710, 2587.473
552.6470, 2401.188
553.8220, 2179.396
554.9980, 1972.447
556.1730, 1764.539
557.3480, 1621.352
558.5230, 1431.207
559.6980, 1369.994
560.8730, 1443.768
562.0470, 1237.531
563.2220, 1152.281
564.3960, 1029.023
565.5700, 822.7539
566.7440, 973.4707
567.9170, 805.1738
569.0910, 903.8672
570.2640, 697.5488
571.4380, 719.2188
572.6110, 555.8750
573.7840, 775.5195
574.9570, 730.1543
576.1290, 681.7754
577.3020, 395.3867
578.4740, 418.9844
579.6460, 536.5723
580.8180, 445.1484
581.9900, 562.7129
583.1620, 629.2676
584.3330, 502.8145
585.5040, 438.3496
586.6760, 665.8848
587.8470, 605.4180
589.0180, 623.9473
590.1880, 539.4648
591.3590, 306.0039
592.5290, 296.6582
593.7000, 354.3477
594.8700, 489.9844
596.0400, 304.0332
597.2090, 313.0703
598.3790, 198.0000
599.5490, 227.6426
600.7180, 613.4648
601.8870, 314.3125
603.0560, 298.0742
604.2250, 300.8027
605.3940, 49.59180
606.5620, 233.5000
607.7300, 354.2949
608.8990, 212.1309
610.0670, 446.9648
611.2350, 191.7969
612.4020, 226.6738
613.5700, 353.5508
614.7370, 367.4453
615.9050, 517.3301
617.0720, 822.3066
618.2390, 824.2188
619.4060, 924.1289
620.5720, 1084.066
621.7390, 1093.963
622.9050, 1528.850
624.0710, 1898.723
625.2370, 1931.586
626.4030, 1809.439
627.5690, 1779.285
628.7340, 1945.117
629.9000, 1469.939
631.0650, 1369.896
632.2300, 799.6953
633.3950, 885.7246
634.5600, 716.5059
635.7240, 691.0742
636.8890, 861.0098
638.0530, 935.9082
639.2170, 1014.180
640.3810, 1116.854
641.5450, 1206.725
642.7080, 1313.199
643.8720, 1406.914
645.0350, 1596.824
646.1980, 1767.967
647.3610, 1553.609
648.5240, 1822.506
649.6870, 1893.227
650.8490, 1967.189
652.0120, 1649.107
653.1740, 1725.857
654.3360, 1336.639
655.4980, 1515.615
656.6600, 1173.557
657.8210, 1049.324
658.9830, 811.1660
660.1440, 759.4297
661.3050, 548.2441
662.4660, 259.0234
663.6270, 312.8086
664.7870, 150.5898
665.9480, 372.3594
667.1080, 278.1230
668.2680, 27.67188
669.4280, 155.1348
670.5880, 9.855469
671.7480, 44.55273
672.9070, 112.7715
674.0670, 112.1816
675.2260, 191.6797
676.3850, 263.7715
677.5440, 56.10742
678.7030, 282.7773
679.8610, 250.8203
681.0200, 68.02734
682.1780, 83.73047
683.3360, 63.65820
684.4940, 62.35938
685.6520, 33.01172
686.8090, 119.3574
687.9670, 45.11719
689.1240, 59.36133
690.2810, 158.3652
691.4380, 49.89844
692.5950, 15.13477
693.7520, 141.3359
694.9080, 107.5176
696.0650, 402.6758
697.2210, 157.8555
698.3770, 187.9746
699.5330, 368.0840
700.6880, 617.1660
701.8440, 669.2266
702.9990, 795.2715
704.1550, 1268.295
705.3100, 1283.299
706.4650, 1624.283
707.6190, 1650.250
708.7740, 1718.197
709.9290, 1819.125
711.0830, 1898.035
712.2370, 1796.926
713.3910, 1535.797
714.5450, 1198.648
715.6980, 1199.484
716.8520, 726.2988
718.0050, 714.0957
719.1580, 725.8750
720.3110, 520.6328
721.4640, 658.3730
722.6170, 384.0957
723.7700, 213.7988
724.9220, 295.4844
726.0740, 205.1523
727.2260, 283.7988
728.3780, 169.4297
729.5300, 291.0410
730.6810, 120.6348
731.8330, 119.2070
732.9840, 222.7617
734.1350, 47.29492
735.2860, 50.80664
736.4370, 82.29492
737.5880, 152.7637
738.7380, 156.9531
739.8880, 104.6426
741.0390, 122.0527
742.1890, 128.4414
743.3380, 116.3418
744.4880, 98.01953
745.6380, 165.3496
746.7870, 177.6621
747.9360, 293.9531
749.0850, 276.2285
750.2340, 318.5215
751.3830, 370.7207
752.5310, 314.9355
753.6800, 200.1367
754.8280, 102.3164
755.9760, 386.4766
757.1240, 172.6191
758.2720, 102.7422
759.4190, 397.8477
760.5670, 296.9355
761.7140, 521.0039
762.8610, 174.0586
764.0080, 198.0938
765.1550, 129.1074
766.3020, 161.1074
767.4480, 154.0898
768.5950, 64.05469
769.7410, 322.0039
770.8870, 38.93359
772.0330, 134.8438
773.1780, 30.26172
774.3240, 11.58008
775.4690, 4.607422
776.6140, 129.1641
777.7590, 26.91992
778.9040, 35.54297
780.0490, 31.63281
781.1940, 19.97266
782.3380, 71.35352
783.4820, 27.70508
784.6260, 52.20703
785.7700, 8.769531
786.9140, 67.62891
788.0580, 89.98828
789.2010, 28.31445
790.3450, 69.59570
791.4880, 60.86328
792.6310, 75.88281
793.7730, 26.29688
794.9160, 188.4570
796.0590, 38.60156
797.2010, 82.26758
798.3430, 45.29492
799.4850, 374.8262
800.6270, 190.8496
801.7690, 127.8613
802.9100, 203.8535
804.0520, 65.83398
805.1930, 28.20312
806.3340, 11.77734
807.4750, 208.1133
808.6160, 125.3574
809.7560, 274.7793
810.8970, 55.59961
812.0370, 119.4043
813.1770, 44.16797
814.3170, 82.36328
815.4570, 158.4453
816.5960, 130.1133
817.7360, 166.6484
818.8750, 240.3711
820.0140, 12.16016
821.1530, 1.957031
822.2920, 182.0625
823.4310, 161.9707
824.5690, 58.92578
825.7070, 169.2734
826.8460, 189.1230
827.9840, 12.29492
829.1220, 170.1699
830.2590, 379.1523
831.3970, 239.4453
832.5340, 287.5977
833.6710, 0.9824220
834.8080, 268.3770
835.9450, 4.792969
837.0820, 155.2051
838.2190, 485.6172
839.3550, 452.0254
840.4910, 525.4316
841.6270, 452.8379
842.7630, 542.2422
843.8990, 484.6445
845.0350, 478.0469
846.1700, 745.4473
847.3060, 785.8496
848.4410, 607.2520
849.5760, 637.6523
850.7100, 413.0527
851.8450, 637.4570
852.9800, 970.8555
854.1140, 987.2598
855.2480, 1045.664
856.3820, 1123.070
857.5160, 1216.477
858.6500, 1438.885
859.7830, 1509.293
860.9170, 1515.705
862.0500, 1533.457
863.1830, 1336.533
864.3160, 1336.951
865.4480, 1138.371
866.5810, 878.7969
867.7130, 882.1328
868.8460, 592.4727
869.9780, 585.9062
871.1100, 677.9551
872.2410, 746.0371
873.3730, 693.8086
874.5050, 755.7090
875.6360, 540.1758
876.7670, 489.5273
877.8980, 281.0059
879.0290, 281.5332
880.1590, 528.0215
881.2900, 509.4434
882.4200, 327.9961
883.5500, 325.6191
884.6800, 242.2891
885.8100, 348.9863
886.9400, 297.6934
888.0690, 485.4180
889.1990, 137.1523
890.3280, 275.9238
891.4570, 477.6797
892.5860, 327.5254
893.7140, 523.3945
894.8430, 383.2500
895.9710, 201.2051
897.1000, 426.1836
898.2280, 571.1699
899.3560, 174.1875
900.4830, 578.2168
901.6110, 193.2539
902.7380, 253.3086
903.8660, 249.3730
904.9930, 458.3027
906.1200, 401.3867
907.2460, 516.2422
908.3730, 231.3438
909.5000, 297.6602
910.6260, 395.6035
911.7520, 216.5898
912.8780, 341.7383
914.0040, 335.4805
915.1290, 202.4570
916.2550, 355.9023
917.3800, 321.1094
918.5050, 11.86328
919.6300, 546.9336
920.7550, 271.2305
921.8800, 615.3008
923.0040, 620.5625
924.1290, 515.6250
925.2530, 898.7344
926.3770, 819.0547
927.5010, 1263.383
928.6250, 1669.523
929.7480, 1760.727
930.8720, 2231.113
931.9950, 2452.445
933.1180, 2794.438
934.2410, 2852.895
935.3640, 2813.387
936.4860, 2595.902
937.6090, 2301.434
938.7310, 1635.980
939.8530, 1525.551
940.9750, 1106.332
942.0970, 968.2109
943.2180, 942.8359
944.3400, 510.4805
945.4610, 713.1484
946.5820, 286.8711
947.7030, 745.6445
948.8240, 523.5000
949.9450, 354.4492
951.0650, 575.2500
952.1860, 370.3398
953.3060, 417.5273
954.4260, 572.7266
955.5460, 404.7539
956.6650, 307.0195
957.7850, 474.3281
958.9040, 564.6680
960.0230, 564.3516
961.1420, 812.8945
962.2610, 1069.387
963.3800, 1228.961
964.4990, 1311.555
965.6170, 1347.184
966.7350, 1503.832
967.8530, 1559.508
968.9710, 1672.168
970.0890, 2106.887
971.2070, 2356.621
972.3240, 2432.391
973.4410, 2403.188
974.5580, 2293.000
975.6750, 2016.840
976.7920, 1617.699
977.9090, 1165.586
979.0250, 1231.496
980.1410, 1034.430
981.2580, 723.3828
982.3740, 738.0781
983.4890, 590.3711
984.6050, 531.3984
985.7200, 771.4531
986.8360, 631.5312
987.9510, 455.6328
989.0660, 644.7578
990.1810, 604.8945
991.2950, 899.0781
992.4100, 812.2734
993.5240, 1039.500
994.6390, 1167.750
995.7530, 1275.020
996.8660, 1205.312
997.9800, 1443.633
999.0940, 1382.977
1000.207, 1412.348
1001.320, 2110.746
1002.433, 2263.164
1003.546, 2003.609
1004.659, 1406.281
1005.772, 1009.777
1006.884, 818.3008
1007.996, 547.8516
1009.108, 380.1992
1010.220, 467.8047
1011.332, 332.0000
1012.444, 749.3984
1013.555, 768.0742
1014.666, 737.7734
1015.777, 849.4961
1016.888, 806.3711
1017.999, 1274.434
1019.110, 1685.055
1020.220, 1586.945
1021.331, 1937.906
1022.441, 1971.477
1023.551, 2549.336
1024.661, 2550.094
1025.770, 2803.883
1026.880, 2779.656
1027.989, 3183.359
1029.098, 3138.156
1030.207, 3492.332
1031.316, 3323.363
1032.425, 3361.746
1033.533, 3899.824
1034.642, 4094.922
1035.750, 4580.719
1036.858, 5482.855
1037.966, 6323.008
1039.073, 7004.188
1040.181, 7788.387
1041.288, 8010.602
1042.396, 8003.836
1043.503, 7317.113
1044.610, 6449.422
1045.716, 5345.750
1046.823, 4757.102
1047.929, 4038.430
1049.036, 3695.934
1050.142, 2700.363
1051.248, 2702.832
1052.353, 1914.242
1053.459, 1898.793
1054.564, 1466.387
1055.670, 1387.008
1056.775, 1216.648
1057.880, 1301.344
1058.985, 935.0547
1060.089, 936.7852
1061.194, 888.5430
1062.298, 807.3398
1063.402, 921.1602
1064.506, 1014.117
1065.610, 1069.445
1066.713, 1231.352
1067.817, 1516.277
1068.920, 1352.215
1070.023, 1096.176
1071.126, 1317.152
1072.229, 1312.145
1073.332, 1393.160
1074.435, 1425.199
1075.537, 1392.273
1076.639, 1427.355
1077.741, 1457.457
1078.843, 1549.582
1079.945, 1504.723
1081.046, 1411.875
1082.148, 1371.301
1083.249, 1239.504
1084.350, 1211.484
1085.451, 1018.746
1086.551, 1032.020
1087.652, 1032.367
1088.752, 870.4180
1089.853, 880.7969
1090.953, 975.1914
1092.053, 610.5977
1093.152, 821.0234
1094.252, 801.5078
1095.351, 462.9961
1096.451, 635.5000
1097.550, 596.0195
1098.649, 358.5508
1099.748, 841.0938
1100.846, 450.6523
1101.945, 620.2227
1103.043, 792.8086
1104.141, 754.4023
1105.239, 921.0117
1106.337, 573.6289
1107.434, 668.2617
1108.532, 776.9062
1109.629, 477.5664
1110.726, 745.2344
1111.823, 583.9141
1112.920, 686.6055
1114.017, 661.3125
1115.113, 658.0273
1116.210, 551.7539
1117.306, 417.4883
1118.402, 505.2344
1119.498, 275.9961
1120.593, 482.7656
1121.689, 462.5430
1122.784, 447.3359
1123.879, 250.1367
1124.974, 400.9492
1126.069, 380.7734
1127.164, 72.60547
1128.259, 47.44922
1129.353, 130.3008
1130.447, 200.1641
1131.541, 120.0820
1132.635, 313.0078
1133.729, 394.9492
1134.822, 81.89453
1135.916, 3.144531
1137.009, 141.8203
1138.102, 91.78906
1139.195, 65.77344
1140.288, 34.23438
1141.380, 39.74609
1142.473, 170.2656
1143.565, 50.35547
1144.657, 29.55078
1145.749, 156.4805
1146.841, 31.44141
1147.932, 254.5664
1149.024, 143.6953
1150.115, 100.8867
1151.206, 6.875000
1152.297, 33.37891
1153.388, 5.601563
1154.479, 100.8477
1155.569, 132.1328
1156.659, 97.48047
1157.750, 61.87500
1158.839, 41.29688
1159.929, 209.7383
1161.019, 48.26172
1162.108, 100.1992
1163.198, 85.31641
1164.287, 362.1250
1165.376, 393.5742
1166.465, 18.97266
1167.553, 444.4727
1168.642, 214.9258
1169.730, 354.3867
1170.818, 304.8594
1171.906, 309.3320
1172.994, 388.8125
1174.082, 547.2969
1175.170, 189.7852
1176.257, 149.2773
1177.344, 361.7812
1178.431, 19.71094
1179.518, 22.21484
1180.605, 470.2656
1181.691, 31.74609
1182.778, 331.2305
1183.864, 227.7227
1184.950, 382.2188
1186.036, 374.3398
1187.122, 172.2188
1188.207, 245.7305
1189.292, 341.2422
1190.378, 160.7617
1191.463, 102.2812
1192.548, 170.8047
1193.632, 172.3320
1194.717, 25.85938
1195.801, 140.6133
1196.886, 262.8398
1197.970, 47.28906
1199.054, 290.7422
1200.137, 138.1953
1201.221, 159.6562
1202.305, 320.1133
1203.388, 267.5781
1204.471, 226.0469
1205.554, 188.5117
1206.637, 168.6602
1207.719, 200.4531
1208.802, 183.9258
1209.884, 231.4062
1210.966, 327.8828
1212.048, 349.3594
1213.130, 334.8398
1214.212, 413.3281
1215.293, 225.8125
1216.374, 506.3008
1217.456, 317.7852
1218.536, 3.722656
1219.617, 162.7539
1220.698, 186.2305
1221.778, 55.70703
1222.859, 358.1836
1223.939, 187.6641
1225.019, 364.1445
1226.099, 416.6250
1227.178, 211.1055
1228.258, 280.5859
1229.337, 320.5273
1230.417, 475.5430
1231.496, 468.0273
1232.574, 431.5078
1233.653, 438.9883
1234.732, 484.4727
1235.810, 531.9531
1236.888, 741.4297
1237.966, 445.9102
1239.044, 670.3906
1240.122, 770.8672
1241.199, 562.3438
1242.277, 517.8242
1243.354, 601.3008
1244.431, 688.7734
1245.508, 770.2461
1246.585, 658.7188
1247.661, 774.1875
1248.738, 423.6602
1249.814, 635.1250
1250.890, 562.5938
1251.966, 466.0898
1253.042, 521.5859
1254.117, 626.0859
1255.193, 437.5859
1256.268, 498.0820
1257.343, 690.5781
1258.418, 660.0781
1259.493, 490.5703
1260.567, 501.9531
1261.642, 776.4453
1262.716, 480.9336
1263.790, 948.4219
1264.864, 771.9141
1265.938, 838.2070
1267.011, 841.7227
1268.085, 1035.250
1269.158, 876.7773
1270.231, 710.5273
1271.304, 886.0547
1272.377, 825.0039
1273.450, 906.8398
1274.522, 844.1484
1275.594, 982.2539
1276.666, 1003.105
1277.738, 876.9922
1278.810, 975.2109
1279.882, 803.8945
1280.953, 809.3359
1282.025, 919.7227
1283.096, 649.5273
1284.167, 797.4414
1285.238, 452.0977
1286.308, 884.7500
1287.379, 376.4375
1288.449, 574.2148
