##NAMES=Mesolite
##RRUFFID=R040139
##IDEAL CHEMISTRY=Na_2_Ca_2_(Si_9_Al_6_)O_30_&#183;8H_2_O
##LOCALITY=Lake Superior beach,  41 miles north of Tofte, Minnesota, USA
##OWNER=RRUFF
##SOURCE=University of Arizona Mineral Museum
##DESCRIPTION=Aggregate of white radiating thin acicular crystals.
##STATUS=The identification of this mineral has been confirmed by X-ray diffraction and chemical analysis
##URL=rruff.info/R040139
##MEASURED CHEMISTRY=Na_1.95_Ca_1.89_(Si_9.21_Al_5.82_)O_30_Â·8H_2_O
##PIN_ID=L00494
74.587, 0.000
75.978, 4.543
77.368, 180.322
78.758, 563.779
80.149, 842.626
81.538, 504.118
82.928, 75.256
84.318, 51.184
85.707, 221.500
87.096, 356.640
88.485, 395.084
89.873, 463.866
91.262, 707.147
92.650, 1374.242
94.038, 1945.718
95.426, 2354.070
96.813, 2844.859
98.201, 3119.012
99.588, 3526.508
100.975, 3773.175
102.362, 4209.659
103.748, 4403.646
105.135, 4835.880
106.521, 5229.189
107.907, 5193.411
109.292, 5268.406
110.678, 4664.382
112.063, 4591.893
113.448, 4879.744
114.833, 4977.892
116.218, 4946.329
117.602, 4995.057
118.987, 5434.081
120.371, 4775.782
121.755, 4369.218
123.138, 4053.602
124.522, 4352.385
125.905, 4635.737
127.288, 4831.827
128.671, 5637.562
130.053, 6292.932
131.436, 7207.965
132.818, 7532.690
134.200, 7437.135
135.582, 6971.439
136.963, 6215.746
138.345, 5439.874
139.726, 4703.766
141.107, 4577.436
142.488, 4323.914
143.868, 4538.229
145.248, 4887.353
146.629, 5424.947
148.008, 6104.678
149.388, 6086.705
150.768, 6158.597
152.147, 6070.357
153.526, 6422.028
154.905, 6733.843
156.284, 7085.899
157.662, 7428.005
159.040, 7379.900
160.418, 7511.645
161.796, 7343.280
163.174, 7083.545
164.551, 6909.693
165.929, 6779.971
167.306, 6799.376
168.683, 6726.649
170.059, 6842.631
171.436, 6735.241
172.812, 6666.474
174.188, 6672.225
175.564, 6148.438
176.939, 6008.155
178.315, 5468.316
179.690, 5249.040
181.065, 5104.971
182.440, 4678.958
183.814, 4600.998
185.188, 4296.084
186.563, 4210.212
187.937, 3953.381
189.310, 3849.585
190.684, 3479.822
192.057, 3017.088
193.430, 2722.380
194.803, 2265.032
196.176, 2025.775
197.549, 1859.881
198.921, 1797.829
200.293, 1773.791
201.665, 1501.990
203.037, 1432.194
204.408, 1116.396
205.779, 1063.591
207.150, 787.772
208.521, 588.936
209.892, 429.275
211.262, 237.239
212.633, 123.324
214.003, 22.390
215.373, 63.436
216.742, 47.539
218.112, 73.532
219.481, 50.547
220.850, 92.584
222.219, 28.357
223.588, 47.276
224.956, 294.173
226.324, 489.049
227.692, 750.902
229.060, 954.686
230.428, 910.128
231.795, 946.410
233.162, 696.192
234.529, 653.327
235.896, 512.278
237.263, 462.136
238.629, 540.181
239.995, 549.374
241.361, 560.586
242.727, 558.333
244.093, 625.686
245.458, 566.448
246.823, 414.638
248.188, 283.182
249.553, 7.361
250.917, 58.544
252.282, 197.252
253.646, 257.831
255.010, 187.322
256.374, 136.730
257.737, 114.062
259.101, 117.327
260.464, 57.542
261.827, 65.141
263.189, 56.890
264.552, 52.544
265.914, 85.987
267.276, 84.056
268.638, 151.131
270.000, 101.235
271.362, 106.362
272.723, 95.517
274.084, 4.702
275.445, 104.898
276.806, 22.859
278.166, 46.602
279.526, 17.332
280.887, 82.041
282.246, 13.737
283.606, 108.408
284.966, 126.052
286.325, 265.661
287.684, 410.229
289.043, 531.750
290.402, 847.222
291.760, 1119.646
293.118, 1583.022
294.477, 1792.353
295.834, 2118.639
297.192, 2106.882
298.550, 2062.086
299.907, 1916.247
301.264, 1592.366
302.621, 1449.449
303.978, 1152.494
305.334, 950.501
306.690, 777.470
308.046, 555.400
309.402, 407.294
310.758, 264.507
312.113, 138.750
313.469, 74.386
314.824, 24.987
316.179, 50.545
317.533, 19.064
318.888, 111.541
320.242, 44.991
321.596, 99.406
322.950, 151.790
324.304, 107.143
325.657, 213.462
327.010, 178.706
328.363, 244.696
329.716, 240.484
331.069, 272.118
332.421, 432.657
333.774, 377.097
335.126, 511.412
336.478, 389.564
337.829, 407.577
339.181, 316.491
340.532, 197.377
341.883, 237.235
343.234, 100.063
344.585, 115.871
345.935, 192.661
347.285, 241.434
348.635, 391.192
349.985, 388.935
351.335, 499.660
352.684, 611.369
354.034, 656.062
355.383, 569.737
356.731, 485.396
358.080, 540.031
359.429, 381.618
360.777, 405.165
362.125, 404.677
363.473, 335.168
364.820, 445.643
366.168, 392.101
367.515, 584.542
368.862, 521.967
370.209, 577.375
371.556, 578.767
372.902, 475.136
374.249, 554.484
375.595, 393.816
376.940, 401.131
378.286, 354.537
379.632, 365.186
380.977, 288.542
382.322, 134.091
383.667, 177.308
385.012, 79.523
386.356, 100.716
387.700, 73.888
389.044, 6.964
390.388, 35.146
391.732, 70.774
393.075, 21.247
394.419, 1.224
395.762, 33.867
397.105, 10.059
398.447, 11.328
399.790, 158.309
401.132, 140.905
402.474, 261.493
403.816, 356.079
405.158, 445.655
406.499, 734.220
407.841, 757.770
409.182, 1104.303
410.523, 1401.818
411.864, 1679.900
413.204, 2022.087
414.544, 2156.468
415.884, 2427.942
417.224, 2565.735
418.564, 2515.594
419.904, 2941.767
421.243, 2963.623
422.582, 3179.119
423.921, 3506.024
425.260, 3621.332
426.598, 3540.798
427.937, 3401.048
429.275, 3332.305
430.613, 3146.236
431.951, 3037.186
433.288, 2990.700
434.625, 2955.783
435.963, 3129.456
437.300, 3309.729
438.636, 3646.761
439.973, 4130.603
441.309, 4627.150
442.646, 5621.118
443.981, 5333.261
445.317, 5814.198
446.653, 5918.098
447.988, 5777.976
449.323, 5745.834
450.658, 5259.669
451.993, 4967.480
453.328, 4518.273
454.662, 3930.129
455.996, 3451.925
457.331, 2928.653
458.664, 2454.685
459.998, 2050.371
461.331, 1821.148
462.665, 1517.799
463.998, 1236.810
465.330, 1168.876
466.663, 959.461
467.996, 878.026
469.328, 700.714
470.660, 760.386
471.992, 685.018
473.323, 642.481
474.655, 645.149
475.986, 568.513
477.317, 646.311
478.648, 657.636
479.979, 667.507
481.309, 749.683
482.640, 750.316
483.970, 842.182
485.300, 958.031
486.629, 1036.625
487.959, 1250.037
489.288, 1401.676
490.617, 1578.286
491.946, 1639.911
493.275, 1785.486
494.603, 1874.052
495.932, 1819.619
497.260, 1900.983
498.588, 1824.356
499.916, 1826.741
501.243, 1869.129
502.571, 1784.528
503.898, 1826.953
505.225, 1887.688
506.552, 1957.059
507.878, 2064.462
509.205, 2240.861
510.531, 2476.256
511.857, 2611.650
513.183, 3058.046
514.508, 3389.449
515.834, 3710.858
517.159, 4400.275
518.484, 4955.699
519.809, 6008.122
521.133, 6980.545
522.458, 8344.963
523.782, 10249.375
525.106, 12491.119
526.430, 15198.173
527.754, 18442.559
529.077, 22146.936
530.400, 26461.303
531.723, 28845.662
533.046, 31540.008
534.369, 31304.352
535.692, 29068.680
537.014, 26553.004
538.336, 22087.316
539.658, 18551.629
540.980, 14775.954
542.301, 12139.742
543.623, 9873.909
544.944, 7906.737
546.265, 6723.032
547.585, 5529.676
548.906, 4787.703
550.226, 4046.980
551.547, 3585.976
552.867, 3235.604
554.186, 2727.098
555.506, 2491.379
556.825, 2241.148
558.145, 2044.832
559.464, 1902.750
560.783, 1707.512
562.101, 1593.732
563.420, 1371.945
564.738, 1281.152
566.056, 1153.153
567.374, 978.542
568.692, 963.726
570.009, 866.902
571.326, 811.074
572.643, 706.259
573.960, 606.493
575.277, 603.793
576.594, 498.142
577.910, 471.526
579.226, 449.938
580.542, 357.380
581.858, 374.837
583.173, 278.310
584.489, 382.799
585.804, 234.302
587.119, 300.829
588.434, 295.379
589.748, 248.971
591.063, 213.591
592.377, 141.243
593.691, 120.922
595.005, 108.606
596.318, 41.321
597.632, 106.035
598.945, 43.742
600.258, 75.450
601.571, 123.150
602.884, 32.852
604.196, 83.546
605.508, 55.795
606.821, 53.584
608.132, 45.578
609.444, 45.240
610.756, 77.894
612.067, 19.047
613.378, 28.996
614.689, 60.805
616.000, 9.574
617.311, 44.035
618.621, 15.637
619.931, 34.771
621.241, 12.196
622.551, 15.633
623.861, 46.917
625.170, 49.459
626.479, 11.000
627.788, 10.740
629.097, 16.636
630.406, 54.581
631.714, 12.515
633.023, 27.428
634.331, 1.996
635.639, 38.285
636.946, 50.143
638.254, 53.769
639.561, 26.692
640.868, 6.868
642.175, 3.186
643.482, 16.178
644.789, 66.751
646.095, 0.187
647.401, 5.560
648.707, 51.070
650.013, 21.894
651.319, 27.979
652.624, 31.748
653.929, 92.385
655.234, 120.210
656.539, 178.157
657.844, 128.715
659.148, 186.278
660.453, 243.780
661.757, 244.402
663.061, 368.278
664.364, 443.476
665.668, 508.991
666.971, 507.148
668.274, 556.501
669.577, 611.810
670.880, 558.013
672.183, 618.423
673.485, 530.748
674.787, 494.511
676.089, 465.734
677.391, 406.074
678.693, 395.533
679.994, 378.281
681.296, 337.971
682.597, 417.535
683.898, 380.049
685.198, 421.419
686.499, 443.855
687.799, 443.197
689.099, 508.518
690.399, 428.904
691.699, 464.108
692.998, 499.408
694.298, 518.669
695.597, 565.698
696.896, 559.873
698.195, 669.021
699.493, 703.348
700.792, 691.317
702.090, 750.325
703.388, 840.492
704.686, 988.259
705.984, 1069.366
707.281, 1274.355
708.578, 1432.468
709.876, 1776.646
711.172, 1903.610
712.469, 2300.720
713.766, 2413.787
715.062, 2566.781
716.358, 2355.720
717.654, 2174.649
718.950, 2065.547
720.246, 1682.599
721.541, 1513.378
722.836, 1252.410
724.131, 1078.354
725.426, 954.086
726.721, 808.873
728.015, 728.599
729.310, 622.454
730.604, 623.177
731.898, 542.125
733.191, 491.820
734.485, 485.362
735.778, 459.914
737.071, 517.417
738.364, 459.973
739.657, 514.437
740.950, 495.882
742.242, 531.345
743.535, 581.750
744.827, 592.177
746.118, 654.618
747.410, 735.044
748.702, 772.366
749.993, 900.725
751.284, 976.004
752.575, 979.381
753.866, 1121.617
755.156, 1124.832
756.447, 1179.063
757.737, 1156.234
759.027, 1110.370
760.316, 1104.498
761.606, 1019.604
762.896, 907.688
764.185, 887.751
765.474, 766.792
766.763, 719.810
768.051, 665.720
769.340, 580.648
770.628, 507.601
771.916, 407.208
773.204, 376.116
774.492, 303.892
775.780, 259.740
777.067, 286.208
778.354, 197.568
779.641, 171.367
780.928, 168.144
782.215, 118.756
783.501, 79.341
784.787, 65.923
786.073, 66.603
787.359, 44.113
788.645, 17.925
789.930, 24.319
791.216, 12.672
792.501, 2.555
793.786, 0.950
795.071, 4.573
796.355, 15.347
797.640, 26.195
798.924, 4.052
800.208, 0.192
801.492, 22.836
802.775, 38.885
804.059, 34.004
805.342, 36.125
806.625, 31.290
807.908, 13.504
809.191, 48.563
810.474, 66.684
811.756, 28.875
813.038, 61.116
814.320, 60.426
815.602, 14.802
816.884, 3.221
818.165, 8.677
819.446, 1.826
820.727, 8.755
822.008, 12.272
823.289, 27.882
824.569, 42.542
825.850, 46.258
827.130, 45.368
828.410, 36.865
829.690, 28.750
830.969, 15.181
832.249, 1.660
833.528, 12.331
834.807, 14.294
836.086, 25.230
837.364, 28.538
838.643, 53.027
839.921, 32.890
841.199, 50.728
842.477, 51.543
843.755, 31.334
845.033, 70.102
846.310, 42.846
847.587, 47.568
848.864, 98.267
850.141, 58.944
851.418, 60.599
852.694, 20.231
853.971, 94.839
855.247, 82.427
856.523, 40.993
857.798, 133.536
859.074, 53.060
860.349, 79.562
861.624, 55.043
862.899, 38.502
864.174, 89.938
865.449, 57.353
866.723, 68.747
867.998, 87.435
869.272, 95.469
870.545, 93.800
871.819, 96.110
873.093, 54.400
874.366, 114.668
875.639, 48.917
876.912, 65.144
878.185, 110.350
879.458, 92.538
880.730, 101.705
882.002, 65.853
883.274, 91.981
884.546, 33.090
885.818, 88.179
887.090, 119.249
888.361, 111.301
889.632, 121.335
890.903, 99.352
892.174, 117.351
893.444, 130.333
894.715, 104.298
895.985, 115.245
897.255, 101.176
898.525, 92.090
899.795, 89.986
901.064, 122.865
902.334, 93.727
903.603, 144.572
904.872, 77.401
906.140, 125.213
907.409, 135.008
908.677, 93.788
909.946, 126.552
911.214, 124.300
912.482, 135.032
913.749, 161.749
915.017, 115.455
916.284, 200.146
917.551, 158.821
918.818, 185.481
920.085, 215.126
921.352, 198.761
922.618, 273.382
923.884, 277.988
925.150, 275.582
926.416, 304.161
927.682, 341.726
928.947, 452.282
930.213, 500.827
931.478, 499.360
932.743, 700.880
934.008, 785.379
935.272, 970.658
936.537, 1143.758
937.801, 1302.788
939.065, 1409.811
940.329, 1447.696
941.593, 1329.203
942.856, 1203.862
944.119, 1101.169
945.383, 967.675
946.646, 829.460
947.908, 707.476
949.171, 648.245
950.433, 603.319
951.696, 526.770
952.958, 544.586
954.220, 472.946
955.481, 470.406
956.743, 458.214
958.004, 457.583
959.265, 475.456
960.526, 469.439
961.787, 548.215
963.048, 549.851
964.308, 655.856
965.569, 775.840
966.829, 816.867
968.089, 933.762
969.348, 1035.408
970.608, 1166.714
971.867, 1257.684
973.126, 1340.994
974.385, 1568.090
975.644, 1841.211
976.903, 1955.418
978.161, 1845.402
979.420, 1845.459
980.678, 1736.064
981.936, 1575.193
983.193, 1461.195
984.451, 1310.060
985.708, 1127.620
986.966, 1067.220
988.223, 1112.929
989.479, 1014.682
990.736, 1115.562
991.993, 1164.365
993.249, 1250.257
994.505, 1358.157
995.761, 1394.975
997.017, 1477.957
998.272, 1490.826
999.528, 1506.718
1000.783, 1452.824
1002.038, 1433.768
1003.293, 1411.724
1004.548, 1375.487
1005.802, 1353.997
1007.057, 1325.648
1008.311, 1295.535
1009.565, 1238.812
1010.818, 1200.755
1012.072, 1170.817
1013.326, 1102.789
1014.579, 1166.695
1015.832, 1175.820
1017.085, 1116.816
1018.338, 1111.864
1019.590, 1131.997
1020.842, 1169.167
1022.095, 1195.444
1023.347, 1256.521
1024.599, 1323.536
1025.850, 1435.808
1027.102, 1601.811
1028.353, 1779.886
1029.604, 1994.155
1030.855, 2182.358
1032.106, 2398.605
1033.356, 2523.706
1034.607, 2655.925
1035.857, 2841.224
1037.107, 2985.460
1038.357, 2998.861
1039.607, 3288.208
1040.856, 3508.594
1042.106, 4078.016
1043.355, 4496.404
1044.604, 5130.797
1045.852, 5535.153
1047.101, 5237.804
1048.350, 5082.164
1049.598, 4344.492
1050.846, 3778.818
1052.094, 3219.229
1053.342, 2755.615
1054.589, 2407.031
1055.837, 2140.333
1057.084, 1873.755
1058.331, 1666.320
1059.578, 1520.300
1060.824, 1438.145
1062.071, 1347.581
1063.317, 1290.020
1064.563, 1305.564
1065.809, 1253.011
1067.055, 1271.461
1068.301, 1278.922
1069.546, 1285.386
1070.791, 1268.644
1072.036, 1335.320
1073.281, 1322.796
1074.526, 1416.308
1075.771, 1483.791
1077.015, 1544.278
1078.259, 1570.819
1079.503, 1572.312
1080.747, 1557.933
1081.991, 1562.585
1083.234, 1539.088
1084.478, 1528.880
1085.721, 1564.108
1086.964, 1479.625
1088.206, 1437.064
1089.449, 1373.606
1090.691, 1250.548
1091.934, 1265.144
1093.176, 1183.729
1094.418, 1147.298
1095.659, 1129.880
1096.901, 1087.474
1098.142, 1045.129
1099.384, 1004.709
1100.625, 945.348
1101.865, 911.971
1103.106, 861.675
1104.347, 896.469
1105.587, 907.170
1106.827, 806.890
1108.067, 890.746
1109.307, 792.506
1110.546, 786.279
1111.786, 791.213
1113.025, 747.039
1114.264, 684.635
1115.503, 679.505
1116.742, 607.916
1117.980, 655.922
1119.219, 584.918
1120.457, 491.856
1121.695, 482.836
1122.933, 518.894
1124.171, 491.008
1125.408, 522.314
1126.645, 440.983
1127.883, 543.942
1129.120, 357.948
1130.356, 298.042
1131.593, 309.259
1132.829, 265.392
1134.066, 227.974
1135.302, 203.151
1136.538, 201.279
1137.773, 169.423
1139.009, 171.575
1140.244, 166.362
1141.480, 201.639
1142.715, 163.500
1143.950, 165.808
1145.184, 163.153
1146.419, 92.313
1147.653, 141.655
1148.887, 89.917
1150.121, 95.173
1151.355, 120.109
1152.589, 74.370
1153.822, 150.719
1155.056, 129.053
1156.289, 49.439
1157.522, 128.744
1158.755, 79.021
1159.987, 43.250
1161.220, 73.601
1162.452, 63.867
1163.684, 64.137
1164.916, 102.340
1166.148, 59.145
1167.379, 69.622
1168.611, 10.687
1169.842, 44.976
1171.073, 56.921
1172.304, 40.272
1173.534, 67.510
1174.765, 77.063
1175.995, 23.272
1177.225, 44.581
1178.455, 29.482
1179.685, 5.692
1180.915, 8.488
1182.144, 29.884
1183.374, 18.829
1184.603, 22.578
1185.832, 2.441
1187.060, 73.844
1188.289, 17.819
1189.518, 7.935
1190.746, 74.369
1191.974, 9.823
1193.202, 42.179
1194.430, 12.783
1195.657, 20.490
1196.884, 8.459
1198.112, 24.085
1199.339, 12.310
1200.566, 2.353
1201.792, 18.966
1203.019, 55.237
1204.245, 42.500
1205.471, 6.945
1206.697, 79.302
1207.923, 3.643
1209.149, 39.858
1210.374, 83.218
1211.600, 30.295
1212.825, 54.940
1214.050, 30.202
1215.275, 28.091
1216.499, 25.305
1217.724, 21.915
1218.948, 6.789
1220.172, 42.470
1221.396, 4.867
1222.620, 22.981
1223.843, 25.090
1225.067, 2.321
1226.290, 47.424
1227.513, 2.428
1228.736, 3.333
1229.959, 38.757
1231.181, 25.885
1232.404, 55.137
1233.626, 39.216
1234.848, 19.529
1236.070, 21.538
1237.291, 8.384
1238.513, 14.048
1239.734, 19.111
1240.955, 45.341
1242.177, 28.476
1243.397, 43.529
1244.618, 18.197
1245.838, 20.850
1247.059, 61.896
1248.279, 17.052
1249.499, 20.980
1250.719, 4.090
1251.938, 50.260
1253.158, 49.262
1254.377, 6.289
1255.596, 37.273
1256.815, 44.242
1258.034, 3.274
1259.253, 58.234
1260.471, 9.825
1261.689, 39.119
1262.907, 4.981
1264.125, 77.973
1265.343, 23.841
1266.561, 84.697
1267.778, 35.013
1268.995, 19.857
1270.212, 41.713
1271.429, 37.943
1272.646, 27.750
1273.862, 24.454
1275.079, 4.678
1276.295, 1.085
1277.511, 25.162
1278.727, 41.574
1279.943, 0.298
1281.158, 36.320
1282.373, 64.023
1283.589, 39.320
1284.804, 47.351
1286.019, 17.033
1287.233, 40.434
1288.448, 1.579
1289.662, 15.979
1290.876, 9.720
1292.090, 79.073
1293.304, 11.597
1294.518, 32.376
1295.731, 34.879
1296.944, 0.630
1298.158, 36.033
1299.371, 16.420
1300.583, 20.920
1301.796, 12.703
1303.008, 29.786
1304.221, 37.189
1305.433, 3.418
1306.645, 21.042
1307.856, 42.296
1309.068, 42.624
1310.280, 2.063
1311.491, 69.231
1312.702, 5.513
1313.913, 24.780
1315.124, 41.050
1316.334, 3.289
1317.545, 27.513
1318.755, 54.724
1319.965, 12.921
1321.175, 69.105
1322.385, 39.276
1323.594, 5.424
1324.804, 65.551
1326.013, 24.660
1327.222, 7.755
1328.431, 45.835
1329.639, 66.419
1330.848, 4.608
1332.056, 45.592
1333.265, 11.410
1334.473, 54.563
1335.680, 40.420
1336.888, 19.367
1338.096, 27.296
1339.303, 4.209
1340.510, 45.855
1341.717, 55.738
1342.924, 25.607
1344.131, 56.462
1345.337, 29.304
1346.544, 33.104
1347.750, 44.141
1348.956, 45.722
1350.162, 16.511
1351.367, 48.147
1352.573, 27.357
1353.778, 54.661
1354.983, 25.399
1356.188, 19.126
1357.393, 44.739
1358.598, 37.442
1359.802, 9.865
1361.007, 47.811
1362.211, 9.477
1363.415, 69.343
1364.619, 31.785
1365.822, 20.424
1367.026, 115.024
1368.229, 73.650
1369.432, 35.271
1370.635, 72.839
1371.838, 53.675
1373.041, 67.168
1374.243, 79.637
1375.446, 55.263
1376.648, 28.852
1377.850, 69.426
1379.052, 16.001
1380.253, 73.662
1381.455, 62.774
1382.656, 19.292
1383.857, 110.821
1385.058, 30.280
1386.259, 46.749
1387.459, 95.053
1388.660, 27.508
1389.860, 98.825
1391.060, 102.103
1392.260, 65.687
1393.460, 130.506
1394.660, 39.079
1395.859, 29.339
1397.059, 123.499
1398.258, 58.643
1399.457, 71.827
1400.655, 84.216
1401.854, 44.788
1403.052, 89.858
1404.251, 115.308
1405.449, 45.522
1406.647, 114.443
1407.845, 26.174
1409.042, 2.224
1410.240, 147.619
1411.437, 7.190
1412.634, 62.609
1413.831, 49.196
1415.028, 6.769
1416.224, 90.353
1417.421, 53.740
1418.617, 85.446
1419.813, 132.994
1421.009, 60.416
1422.205, 76.574
1423.401, 80.058
1424.596, 9.418
1425.791, 98.983
1426.986, 89.562
1428.181, 26.176
1429.376, 115.329
1430.571, 58.040
1431.765, 1.911
1432.960, 112.862
1434.154, 53.826
1435.348, 32.704
1436.541, 71.156
1437.735, 1.940
1438.929, 87.697
1440.122, 149.139
1441.315, 1.979
1442.508, 135.758
1443.701, 148.551
1444.893, 22.052
1446.086, 122.808
1447.278, 81.678
1448.470, 70.617
1449.662, 131.114
1450.854, 65.617
1452.046, 68.365
1453.237, 106.311
1454.428, 49.436
1455.619, 113.551
1456.810, 107.065
1458.001, 14.504
1459.192, 165.398
1460.382, 24.759
1461.573, 43.199
1462.763, 114.445
1463.953, 50.833
1465.143, 110.038
1466.332, 171.042
1467.522, 11.166
1468.711, 127.305
1469.900, 116.586
1471.089, 12.854
1472.278, 129.076
1473.467, 64.357
1474.655, 68.595
1475.843, 90.821
1477.032, 85.262
1478.220, 74.615
1479.407, 84.770
1480.595, 48.133
1481.783, 63.656
1482.970, 79.913
1484.157, 26.040
1485.344, 128.220
1486.531, 59.437
1487.718, 28.703
1488.904, 128.981
1490.090, 93.175
1491.277, 14.444
1492.463, 140.701
1493.648, 42.949
1494.834, 54.326
1496.020, 106.790
1497.205, 34.270
1498.390, 101.821
1499.575, 97.424
1500.760, 21.084
1501.945, 86.871
1503.129, 49.748
1504.314, 9.713
1505.498, 95.774
1506.682, 29.956
1507.866, 47.286
1509.049, 110.783
1510.233, 30.470
1511.416, 95.384
1512.600, 97.563
1513.783, 3.938
1514.966, 96.961
1516.148, 91.364
1517.331, 65.421
1518.513, 112.825
1519.695, 56.884
1520.878, 0.000
##END=



