##NAMES=Mesolite
##RRUFFID=R050013
##IDEAL CHEMISTRY=Na_2_Ca_2_(Si_9_Al_6_)O_30_&#183;8H_2_O
##LOCALITY=Poona, Maharashtra, India
##OWNER=RRUFF
##SOURCE=University of Arizona Mineral Museum
##DESCRIPTION=Clear to white elongated prismatic single crystal
##STATUS=The identification of this mineral has been confirmed by X-ray diffraction and chemical analysis
##URL=rruff.info/R050013
##MEASURED CHEMISTRY=Na_2.00_Ca_2.00_(Si_9.00_Al_6.00_)O_30_Â·8H_2_O
##PIN_ID=M00325
##ORIENTATION=Laser parallel to -c* (0 0 -1). Fiducial mark perpendicular to laser is parallel to a [1 0 0]
123.377, 0.000
124.770, 167.991
126.163, 0.516
127.556, 9.532
128.949, 19.281
130.342, 61.445
131.734, 276.969
133.126, 470.034
134.518, 729.970
135.909, 872.304
137.301, 1270.891
138.692, 1825.978
140.083, 2588.622
141.473, 3587.371
142.864, 4478.796
144.254, 5205.429
145.644, 5253.591
147.034, 5240.799
148.423, 5435.862
149.812, 5603.715
151.201, 6299.174
152.590, 6723.612
153.979, 7289.058
155.367, 7089.396
156.755, 7341.521
158.143, 7172.793
159.530, 7074.293
160.918, 7187.206
162.305, 7241.159
163.692, 7774.284
165.078, 7726.222
166.465, 7947.018
167.851, 7616.787
169.237, 7295.639
170.623, 7083.888
172.008, 6409.504
173.393, 6145.646
174.778, 5531.049
176.163, 5216.997
177.548, 4869.227
178.932, 4501.771
180.316, 4553.234
181.700, 4340.128
183.083, 4379.409
184.467, 4149.104
185.850, 3736.489
187.233, 3273.152
188.616, 2632.220
189.998, 2244.585
191.380, 1730.303
192.762, 1593.176
194.144, 1415.888
195.525, 1305.198
196.907, 1198.637
198.288, 1081.257
199.669, 987.282
201.049, 776.994
202.429, 704.717
203.810, 674.699
205.189, 692.229
206.569, 769.334
207.949, 968.449
209.328, 1203.601
210.707, 1409.812
212.085, 1593.094
213.464, 1683.453
214.842, 1523.533
216.220, 1380.522
217.598, 1181.760
218.976, 1129.943
220.353, 1147.010
221.730, 1234.985
223.107, 1429.715
224.483, 1466.135
225.860, 1494.583
227.236, 1249.188
228.612, 1052.732
229.988, 704.157
231.363, 443.101
232.738, 293.956
234.113, 181.911
235.488, 146.165
236.863, 29.447
238.237, 146.742
239.611, 105.041
240.985, 121.338
242.359, 160.880
243.732, 8.049
245.105, 21.338
246.478, 150.442
247.851, 156.957
249.223, 143.705
250.595, 84.529
251.967, 32.650
253.339, 34.512
254.711, 108.562
256.082, 124.525
257.453, 218.064
258.824, 193.547
260.195, 132.625
261.565, 86.468
262.935, 16.257
264.305, 1.292
265.675, 35.323
267.044, 33.741
268.414, 43.414
269.783, 52.346
271.151, 86.430
272.520, 139.568
273.888, 40.725
275.256, 86.906
276.624, 10.148
277.992, 7.501
279.359, 29.022
280.726, 102.374
282.093, 55.576
283.460, 121.686
284.827, 166.762
286.193, 224.827
287.559, 394.889
288.925, 460.552
290.290, 656.386
291.656, 787.257
293.021, 824.933
294.386, 828.667
295.750, 644.877
297.115, 610.265
298.479, 439.787
299.843, 399.411
301.207, 331.108
302.570, 272.857
303.933, 251.640
305.296, 128.441
306.659, 99.242
308.022, 23.027
309.384, 38.785
310.746, 1.494
312.108, 73.822
313.470, 43.223
314.831, 80.693
316.193, 76.245
317.554, 69.884
318.914, 52.612
320.275, 45.448
321.635, 78.399
322.995, 30.469
324.355, 74.648
325.715, 26.954
327.074, 32.380
328.434, 0.075
329.792, 109.427
331.151, 105.690
332.510, 169.870
333.868, 139.970
335.226, 149.995
336.584, 109.941
337.941, 49.806
339.299, 118.586
340.656, 113.284
342.013, 161.905
343.370, 212.448
344.726, 303.877
346.082, 520.222
347.438, 523.492
348.794, 704.579
350.150, 706.302
351.505, 712.731
352.860, 639.986
354.215, 542.191
355.570, 464.358
356.924, 286.477
358.278, 240.498
359.632, 201.374
360.986, 162.096
362.339, 180.597
363.693, 171.942
365.046, 223.201
366.399, 165.424
367.751, 185.621
369.104, 212.802
370.456, 200.970
371.808, 179.125
373.159, 91.267
374.511, 149.393
375.862, 114.505
377.213, 141.601
378.564, 164.679
379.914, 91.726
381.265, 153.723
382.615, 92.609
383.965, 150.365
385.315, 140.010
386.664, 108.545
388.013, 167.980
389.362, 146.336
390.711, 146.657
392.060, 162.963
393.408, 168.254
394.756, 226.524
396.104, 225.779
397.451, 295.694
398.799, 349.404
400.146, 370.822
401.493, 471.542
402.840, 569.863
404.186, 716.375
405.533, 855.225
406.879, 971.735
408.225, 1200.492
409.570, 1382.180
410.916, 1618.494
412.261, 1763.672
413.606, 2001.598
414.951, 2044.814
416.295, 2106.945
417.639, 2325.352
418.983, 2307.893
420.327, 2590.878
421.671, 2466.758
423.014, 2508.378
424.357, 2530.579
425.700, 2344.046
427.043, 2440.557
428.386, 2367.973
429.728, 2599.530
431.070, 2654.529
432.412, 2918.023
433.753, 3305.436
435.095, 3575.575
436.436, 4186.976
437.777, 4641.539
439.118, 5147.980
440.458, 5759.649
441.798, 5757.180
443.138, 6398.753
444.478, 6470.896
445.818, 6567.651
447.157, 6755.561
448.496, 6712.640
449.835, 6985.726
451.174, 6842.803
452.513, 6857.872
453.851, 6468.930
455.189, 5745.976
456.527, 5251.007
457.864, 4230.023
459.202, 3585.115
460.539, 2968.196
461.876, 2427.158
463.212, 2129.223
464.549, 1734.148
465.885, 1596.212
467.221, 1416.740
468.557, 1357.112
469.893, 1383.877
471.228, 1235.540
472.563, 1303.740
473.898, 1217.462
475.233, 1252.878
476.567, 1337.314
477.902, 1306.586
479.236, 1398.443
480.570, 1342.137
481.903, 1542.241
483.237, 1564.324
484.570, 1643.303
485.903, 1915.481
487.235, 1941.631
488.568, 2197.435
489.900, 2309.258
491.232, 2463.404
492.564, 2791.514
493.896, 2723.939
495.227, 2933.238
496.558, 2861.584
497.889, 3017.737
499.220, 2967.271
500.551, 2797.501
501.881, 3030.697
503.211, 2800.112
504.541, 3032.746
505.870, 3039.527
507.200, 3090.314
508.529, 3632.112
509.858, 3583.915
511.187, 3902.725
512.515, 4186.541
513.844, 4656.361
515.172, 5412.193
516.500, 6121.033
517.827, 7523.882
519.155, 8225.729
520.482, 9436.416
521.809, 11756.947
523.136, 13517.562
524.462, 16858.152
525.789, 20398.969
527.115, 24189.553
528.441, 27580.242
529.766, 29371.059
531.092, 29481.238
532.417, 28532.533
533.742, 26392.842
535.067, 22443.439
536.391, 18453.898
537.716, 15274.479
539.040, 11925.176
540.364, 9835.574
541.688, 7905.246
543.011, 6407.674
544.334, 5584.354
545.657, 4524.005
546.980, 4038.538
548.303, 3534.330
549.625, 2929.049
550.947, 2780.782
552.269, 2321.598
553.591, 2193.451
554.913, 1873.477
556.234, 1758.511
557.555, 1623.553
558.876, 1477.605
560.197, 1367.678
561.517, 1225.004
562.837, 1109.856
564.157, 987.962
565.477, 907.077
566.797, 853.221
568.116, 755.396
569.435, 740.638
570.754, 610.946
572.073, 538.318
573.391, 552.738
574.709, 466.192
576.027, 502.681
577.345, 421.180
578.663, 390.689
579.980, 382.206
581.297, 313.731
582.614, 329.266
583.931, 265.812
585.248, 264.378
586.564, 262.968
587.880, 188.591
589.196, 203.245
590.511, 150.935
591.827, 98.661
593.142, 117.432
594.457, 91.262
595.772, 121.125
597.086, 56.032
598.401, 41.963
599.715, 18.917
601.029, 33.886
602.343, 72.864
603.656, 6.148
604.969, 50.849
606.282, 89.853
607.595, 39.864
608.908, 76.881
610.220, 30.905
611.532, 48.935
612.844, 66.972
614.156, 19.015
615.468, 70.065
616.779, 10.879
618.090, 11.817
619.401, 14.250
620.712, 13.676
622.022, 33.403
623.332, 16.511
624.642, 18.650
625.952, 4.749
627.262, 32.079
628.571, 32.165
629.880, 8.608
631.189, 18.213
632.498, 15.417
633.807, 32.833
635.115, 56.357
636.423, 21.024
637.731, 0.196
639.039, 2.039
640.346, 10.170
641.653, 18.560
642.960, 27.088
644.267, 28.623
645.574, 35.722
646.880, 44.821
648.186, 115.513
649.492, 85.752
650.798, 125.226
652.103, 191.178
653.409, 154.362
654.714, 222.403
656.019, 213.308
657.323, 251.513
658.628, 257.580
659.932, 228.068
661.236, 252.806
662.540, 212.530
663.843, 264.932
665.147, 246.457
666.450, 281.470
667.753, 307.729
669.056, 297.045
670.358, 327.358
671.660, 336.864
672.963, 212.302
674.264, 325.120
675.566, 186.815
676.868, 185.716
678.169, 162.268
679.470, 113.154
680.771, 161.621
682.071, 101.659
683.372, 102.379
684.672, 99.748
685.972, 103.940
687.271, 141.779
688.571, 124.565
689.870, 177.614
691.169, 195.116
692.468, 237.961
693.767, 320.044
695.065, 346.848
696.364, 422.649
697.662, 454.545
698.960, 436.308
700.257, 551.119
701.555, 520.032
702.852, 696.807
704.149, 822.597
705.446, 915.345
706.742, 1125.061
708.038, 1221.777
709.335, 1522.544
710.631, 1680.264
711.926, 1779.001
713.222, 1830.795
714.517, 1664.564
715.812, 1550.380
717.107, 1304.122
718.402, 1107.974
719.696, 964.721
720.990, 790.425
722.284, 685.198
723.578, 547.859
724.872, 424.566
726.165, 416.246
727.458, 350.895
728.751, 286.628
730.044, 251.268
731.336, 195.958
732.629, 215.587
733.921, 155.212
735.213, 183.832
736.504, 176.445
737.796, 145.053
739.087, 164.655
740.378, 158.251
741.669, 154.842
742.960, 152.426
744.250, 157.004
745.540, 166.959
746.830, 155.140
748.120, 190.697
749.410, 213.247
750.699, 214.790
751.988, 297.325
753.277, 264.852
754.566, 311.371
755.854, 291.881
757.143, 290.383
758.431, 321.877
759.719, 280.309
761.006, 303.786
762.294, 290.253
763.581, 251.711
764.868, 297.161
766.155, 237.601
767.442, 256.032
768.728, 222.454
770.014, 195.867
771.300, 211.270
772.586, 146.571
773.872, 106.855
775.157, 129.230
776.442, 100.473
777.727, 82.828
779.012, 37.015
780.297, 66.350
781.581, 40.676
782.865, 26.597
784.149, 34.900
785.433, 9.118
786.716, 4.214
787.999, 13.522
789.282, 35.697
790.565, 9.496
791.848, 4.458
793.130, 17.398
794.413, 7.727
795.695, 23.248
796.977, 3.167
798.258, 18.108
799.540, 58.080
800.821, 15.105
802.102, 60.160
803.382, 26.269
804.663, 45.416
805.943, 36.609
807.224, 39.844
808.504, 37.125
809.783, 50.449
811.063, 38.823
812.342, 36.242
813.621, 10.705
814.900, 46.198
816.179, 29.741
817.457, 24.324
818.736, 41.945
820.014, 17.614
821.292, 21.317
822.569, 6.057
823.847, 5.819
825.124, 24.625
826.401, 7.462
827.678, 13.328
828.954, 11.229
830.231, 25.839
831.507, 7.891
832.783, 30.920
834.059, 9.934
835.334, 0.073
836.610, 71.893
837.885, 5.155
839.160, 2.233
840.435, 44.662
841.709, 4.542
842.983, 21.397
844.258, 10.235
845.532, 44.051
846.805, 20.852
848.079, 4.635
849.352, 55.393
850.625, 3.137
851.898, 64.856
853.171, 53.560
854.443, 29.250
855.715, 61.924
856.988, 58.583
858.259, 68.228
859.531, 75.859
860.803, 75.590
862.074, 63.079
863.345, 73.667
864.616, 69.242
865.886, 54.803
867.157, 60.349
868.427, 48.130
869.697, 65.399
870.967, 37.902
872.236, 62.391
873.506, 71.865
874.775, 54.326
876.044, 87.772
877.313, 68.205
878.581, 73.624
879.849, 82.030
881.118, 58.423
882.386, 101.802
883.653, 66.170
884.921, 106.524
886.188, 83.865
887.455, 78.194
888.722, 120.509
889.989, 90.811
891.255, 80.100
892.522, 113.376
893.788, 107.641
895.054, 152.893
896.319, 101.133
897.585, 160.360
898.850, 116.574
900.115, 134.776
901.380, 166.966
902.645, 129.142
903.909, 178.309
905.174, 169.464
906.438, 148.607
907.701, 204.738
908.965, 162.857
910.229, 188.968
911.492, 213.066
912.755, 163.153
914.018, 233.228
915.280, 255.291
916.543, 248.342
917.805, 262.381
919.067, 300.408
920.329, 348.424
921.590, 382.428
922.852, 372.421
924.113, 439.410
925.374, 502.389
926.635, 568.360
927.895, 700.321
929.156, 726.272
930.416, 937.211
931.676, 1010.069
932.936, 1204.987
934.195, 1496.832
935.454, 1682.606
936.714, 1897.400
937.973, 1961.033
939.231, 1848.459
940.490, 1796.785
941.748, 1490.699
943.006, 1415.214
944.264, 1375.547
945.522, 1319.497
946.780, 1437.912
948.037, 1451.419
949.294, 1522.146
950.551, 1493.898
951.808, 1379.103
953.064, 1325.968
954.320, 1075.971
955.577, 990.066
956.832, 969.927
958.088, 869.315
959.344, 916.469
960.599, 984.770
961.854, 1114.206
963.109, 1344.345
964.364, 1590.629
965.618, 1878.492
966.872, 2324.104
968.127, 2575.729
969.380, 2829.673
970.634, 2907.492
971.888, 2694.822
973.141, 2547.902
974.394, 2132.925
975.647, 1898.948
976.900, 1666.777
978.152, 1356.671
979.404, 1296.185
980.656, 1099.828
981.908, 1030.264
983.160, 1057.049
984.411, 1046.505
985.663, 1081.378
986.914, 1147.680
988.165, 1152.306
989.415, 1172.282
990.666, 1088.434
991.916, 1159.942
993.166, 1133.499
994.416, 1020.794
995.665, 1124.641
996.915, 1142.143
998.164, 1242.409
999.413, 1342.953
1000.662, 1271.499
1001.911, 1311.954
1003.159, 1155.540
1004.407, 1029.088
1005.655, 1026.533
1006.903, 870.115
1008.151, 888.683
1009.398, 837.292
1010.646, 783.932
1011.893, 861.586
1013.139, 865.186
1014.386, 868.840
1015.633, 1050.476
1016.879, 1039.053
1018.125, 1192.655
1019.371, 1285.206
1020.616, 1454.830
1021.862, 1736.342
1023.107, 1905.956
1024.352, 2338.612
1025.597, 2729.197
1026.842, 3129.892
1028.086, 3774.539
1029.330, 4123.308
1030.574, 4573.007
1031.818, 5100.622
1033.062, 5106.756
1034.305, 5458.408
1035.548, 5364.158
1036.791, 5017.867
1038.034, 4926.582
1039.277, 4300.295
1040.519, 4078.011
1041.762, 3778.736
1043.004, 3290.671
1044.246, 3237.401
1045.487, 2901.331
1046.729, 2620.072
1047.970, 2452.816
1049.211, 2111.563
1050.452, 2079.312
1051.692, 2050.063
1052.933, 1914.351
1054.173, 2109.107
1055.413, 2052.100
1056.653, 2187.863
1057.893, 2281.629
1059.132, 2249.350
1060.371, 2438.123
1061.610, 2376.904
1062.849, 2336.688
1064.088, 2385.473
1065.326, 2224.261
1066.565, 2253.052
1067.803, 2209.845
1069.041, 2077.668
1070.278, 2177.467
1071.516, 2039.269
1072.753, 1959.987
1073.990, 2070.794
1075.227, 1922.440
1076.464, 1968.439
1077.700, 1991.254
1078.936, 1871.073
1080.173, 2040.895
1081.408, 1974.719
1082.644, 1926.188
1083.880, 1893.018
1085.115, 1760.853
1086.350, 1773.691
1087.585, 1628.533
1088.820, 1363.396
1090.054, 1437.255
1091.288, 1221.131
1092.522, 1197.018
1093.756, 1079.910
1094.990, 977.814
1096.224, 999.724
1097.457, 923.646
1098.690, 951.917
1099.923, 1003.861
1101.156, 927.829
1102.388, 993.867
1103.621, 1009.871
1104.853, 964.991
1106.085, 1062.241
1107.316, 978.301
1108.548, 892.260
1109.779, 896.356
1111.010, 740.475
1112.241, 784.032
1113.472, 666.213
1114.703, 542.460
1115.933, 584.650
1117.163, 496.884
1118.393, 435.106
1119.623, 414.427
1120.853, 325.684
1122.082, 314.001
1123.311, 337.299
1124.540, 270.658
1125.769, 282.100
1126.997, 264.419
1128.226, 234.790
1129.454, 256.603
1130.682, 185.966
1131.910, 252.419
1133.138, 201.846
1134.365, 160.218
1135.592, 189.322
1136.819, 159.699
1138.046, 119.240
1139.273, 135.057
1140.499, 111.518
1141.725, 105.063
1142.951, 97.282
1144.177, 94.787
1145.403, 97.325
1146.628, 47.751
1147.854, 73.233
1149.079, 65.323
1150.304, 38.767
1151.528, 76.075
1152.753, 43.575
1153.977, 49.160
1155.201, 73.735
1156.425, 19.314
1157.649, 63.839
1158.872, 24.417
1160.096, 32.915
1161.319, 17.328
1162.542, 7.917
1163.764, 30.608
1164.987, 23.210
1166.209, 8.734
1167.431, 43.242
1168.653, 4.022
1169.875, 2.521
1171.097, 34.110
1172.318, 25.757
1173.539, 4.373
1174.760, 21.191
1175.981, 7.232
1177.202, 22.331
1178.422, 29.753
1179.642, 18.728
1180.862, 13.756
1182.082, 3.580
1183.302, 14.960
1184.521, 1.012
1185.740, 13.607
1186.959, 29.147
1188.178, 13.766
1189.397, 10.694
1190.615, 7.025
1191.834, 9.784
1193.052, 10.735
1194.269, 19.860
1195.487, 4.476
1196.705, 23.074
1197.922, 13.631
1199.139, 17.514
1200.356, 23.043
1201.573, 9.938
1202.789, 49.660
1204.006, 23.279
1205.222, 24.456
1206.438, 12.001
1207.653, 28.848
1208.869, 13.406
1210.084, 21.861
1211.299, 1.504
1212.514, 15.957
1213.729, 46.558
1214.944, 0.883
1216.158, 28.567
1217.372, 34.132
1218.586, 37.158
1219.800, 47.356
1221.014, 19.076
1222.227, 5.519
1223.440, 24.899
1224.654, 17.433
1225.866, 46.881
1227.079, 34.295
1228.292, 14.224
1229.504, 27.265
1230.716, 14.860
1231.928, 11.374
1233.139, 33.773
1234.351, 7.629
1235.562, 43.030
1236.773, 36.504
1237.984, 21.192
1239.195, 41.594
1240.406, 36.034
1241.616, 15.484
1242.826, 46.882
1244.036, 5.724
1245.246, 30.778
1246.456, 20.164
1247.665, 3.615
1248.874, 33.029
1250.083, 0.414
1251.292, 18.803
1252.501, 27.574
1253.709, 13.061
1254.917, 24.427
1256.125, 36.778
1257.333, 20.881
1258.541, 17.530
1259.748, 4.857
1260.956, 30.439
1262.163, 18.755
1263.370, 33.069
1264.576, 7.399
1265.783, 26.693
1266.989, 29.984
1268.195, 13.367
1269.401, 12.633
1270.607, 2.883
1271.813, 50.126
1273.018, 27.634
1274.223, 2.409
1275.428, 27.808
1276.633, 11.981
1277.838, 16.219
1279.042, 31.409
1280.246, 21.407
1281.450, 34.761
1282.654, 4.924
1283.858, 0.067
1285.061, 21.190
1286.265, 6.302
1287.468, 5.518
1288.671, 16.575
1289.873, 9.657
1291.076, 46.731
1292.278, 26.794
1293.480, 2.160
1294.682, 41.915
1295.884, 21.057
1297.086, 27.956
1298.287, 9.960
1299.488, 11.955
1300.689, 11.977
1301.890, 25.956
1303.091, 40.073
1304.291, 33.931
1305.491, 21.128
1306.691, 13.794
1307.891, 8.705
1309.091, 13.607
1310.290, 31.501
1311.490, 36.386
1312.689, 7.262
1313.888, 40.128
1315.086, 18.982
1316.285, 12.826
1317.483, 15.661
1318.681, 7.486
1319.879, 24.298
1321.077, 28.004
1322.275, 3.202
1323.472, 39.578
1324.669, 46.922
1325.866, 13.684
1327.063, 34.395
1328.260, 3.140
1329.456, 21.870
1330.653, 35.594
1331.849, 21.691
1333.045, 36.006
1334.240, 12.581
1335.436, 14.740
1336.631, 40.732
1337.826, 2.388
1339.021, 20.032
1340.216, 22.709
1341.411, 32.335
1342.605, 8.953
1343.799, 31.028
1344.993, 4.629
1346.187, 21.988
1347.381, 19.624
1348.574, 0.199
1349.767, 60.813
1350.961, 9.630
1352.153, 27.915
1353.346, 61.453
1354.539, 16.984
1355.731, 70.506
1356.923, 21.031
1358.115, 27.540
1359.307, 76.016
1360.498, 27.250
1361.690, 14.741
1362.881, 33.310
1364.072, 22.789
1365.263, 22.438
1366.453, 64.712
1367.644, 25.179
1368.834, 45.584
1370.024, 65.988
1371.214, 37.366
1372.404, 33.081
1373.593, 17.633
1374.783, 26.958
1375.972, 62.056
1377.161, 7.140
1378.349, 64.227
1379.538, 38.304
1380.726, 14.371
1381.915, 74.077
1383.103, 48.123
1384.290, 46.098
1385.478, 74.718
1386.665, 64.767
1387.853, 30.750
1389.040, 69.133
1390.227, 40.992
1391.413, 49.898
1392.600, 83.733
1393.786, 10.578
1394.972, 72.251
1396.158, 59.767
1397.344, 27.057
1398.530, 66.516
1399.715, 54.253
1400.900, 35.858
1402.085, 118.048
1403.270, 13.641
1404.455, 114.130
1405.639, 79.796
1406.824, 49.678
1408.008, 103.906
1409.192, 60.236
1410.375, 30.634
1411.559, 70.058
1412.742, 49.836
1413.925, 67.885
1415.108, 51.279
1416.291, 56.044
1417.474, 64.417
1418.656, 58.212
1419.839, 59.409
1421.021, 55.420
1422.202, 56.559
1423.384, 52.015
1424.566, 61.134
1425.747, 46.984
1426.928, 51.383
1428.109, 42.557
1429.290, 24.380
1430.470, 58.853
1431.651, 58.010
1432.831, 47.719
1434.011, 71.531
1435.191, 55.103
1436.370, 28.860
1437.550, 86.663
1438.729, 73.516
1439.908, 76.852
1441.087, 106.466
1442.266, 29.225
1443.444, 100.934
1444.623, 64.774
1445.801, 24.192
1446.979, 92.907
1448.157, 90.876
1449.334, 54.975
1450.512, 111.685
1451.689, 56.335
1452.866, 68.828
1454.043, 117.392
1455.220, 56.983
1456.396, 106.662
1457.573, 102.945
1458.749, 54.532
1459.925, 87.907
1461.100, 66.797
1462.276, 69.236
1463.451, 108.743
1464.627, 45.993
1465.802, 80.566
1466.977, 95.106
1468.151, 65.621
1469.326, 93.121
1470.500, 80.609
1471.674, 65.113
1472.848, 105.715
1474.022, 79.073
1475.195, 8.680
1476.369, 92.337
1477.542, 64.879
1478.715, 54.552
1479.888, 97.094
1481.061, 19.755
1482.233, 97.198
1483.405, 74.883
1484.577, 51.577
1485.749, 62.277
1486.921, 108.001
1488.093, 16.765
1489.264, 95.564
1490.435, 54.403
1491.606, 35.278
1492.777, 92.181
1493.948, 43.119
1495.118, 53.097
1496.288, 83.494
1497.459, 29.526
1498.628, 79.604
1499.798, 54.404
1500.968, 7.419
1502.137, 62.822
1503.306, 72.571
1504.475, 51.898
1505.644, 78.292
1506.813, 76.793
1507.981, 55.285
1509.149, 60.504
1510.318, 26.992
1511.485, 31.632
1512.653, 45.519
1513.821, 0.116
1514.988, 65.528
1516.155, 0.000
##END=



