##NAMES=Mesolite
##RRUFFID=R040139
##IDEAL CHEMISTRY=Na_2_Ca_2_(Si_9_Al_6_)O_30_&#183;8H_2_O
##LOCALITY=Lake Superior beach,  41 miles north of Tofte, Minnesota, USA
##OWNER=RRUFF
##SOURCE=University of Arizona Mineral Museum
##DESCRIPTION=Aggregate of white radiating thin acicular crystals.
##STATUS=The identification of this mineral has been confirmed by X-ray diffraction and chemical analysis
##URL=rruff.info/R040139
##MEASURED CHEMISTRY=Na_1.95_Ca_1.89_(Si_9.21_Al_5.82_)O_30_Â·8H_2_O
##PIN_ID=L00551
86.327, 0.000
87.705, 22.296
89.083, 43.958
90.461, 38.082
91.839, 64.911
93.216, 262.500
94.593, 748.572
95.971, 1308.990
97.347, 1530.646
98.724, 1671.389
100.101, 1580.137
101.477, 1575.803
102.854, 1577.288
104.230, 1903.590
105.606, 2243.808
106.982, 2567.198
108.358, 2743.240
109.733, 2821.980
111.108, 2994.538
112.484, 2630.947
113.859, 3000.263
115.233, 3071.702
116.608, 2884.709
117.983, 2249.176
119.357, 1854.621
120.731, 1550.607
122.105, 966.900
123.479, 763.312
124.853, 609.717
126.227, 736.006
127.600, 832.094
128.973, 968.527
130.346, 1305.539
131.719, 1864.649
133.092, 2271.545
134.465, 2746.633
135.837, 3337.240
137.209, 3617.984
138.581, 3706.423
139.953, 3822.621
141.325, 3816.751
142.697, 4328.969
144.068, 4909.448
145.439, 6248.518
146.810, 7556.592
148.181, 9297.246
149.552, 10518.055
150.923, 10753.479
152.293, 11037.176
153.664, 11399.634
155.034, 11970.910
156.404, 12821.059
157.774, 13590.142
159.143, 13808.209
160.513, 13705.388
161.882, 13231.802
163.251, 12307.467
164.620, 11822.358
165.989, 11366.451
167.358, 11079.738
168.726, 11262.376
170.095, 11353.442
171.463, 11552.956
172.831, 11347.751
174.199, 11139.013
175.566, 10552.701
176.934, 9705.308
178.301, 9172.637
179.669, 8063.949
181.036, 7634.771
182.403, 6997.105
183.769, 6611.865
185.136, 6320.014
186.502, 5982.042
187.869, 5905.464
189.235, 5510.048
190.601, 5154.728
191.966, 4439.488
193.332, 3784.318
194.698, 3199.203
196.063, 2834.129
197.428, 2529.082
198.793, 2444.053
200.158, 2239.033
201.522, 2036.964
202.887, 1742.441
204.251, 1479.127
205.615, 1190.228
206.979, 977.524
208.343, 705.576
209.707, 718.300
211.070, 688.318
212.434, 621.785
213.797, 847.002
215.160, 848.236
216.523, 1011.488
217.885, 912.532
219.248, 902.708
220.610, 980.745
221.973, 1079.645
223.335, 1397.409
224.697, 1866.039
226.058, 2411.538
227.420, 3203.906
228.781, 3786.143
230.143, 4198.238
231.504, 4030.470
232.865, 3764.713
234.225, 3030.644
235.586, 2516.722
236.946, 2185.006
238.307, 2368.426
239.667, 1959.801
241.027, 2012.557
242.387, 2141.440
243.746, 2221.148
245.106, 2341.579
246.465, 2193.895
247.824, 1878.096
249.183, 1369.186
250.542, 863.650
251.901, 644.193
253.259, 273.347
254.618, 220.309
255.976, 213.605
257.334, 234.269
258.692, 347.212
260.050, 355.374
261.407, 356.699
262.765, 243.144
264.122, 111.663
265.479, 139.796
266.836, 324.322
268.193, 316.989
269.549, 570.814
270.906, 475.879
272.262, 573.175
273.618, 572.740
274.974, 509.593
276.330, 542.735
277.686, 498.191
279.041, 485.959
280.396, 329.045
281.752, 299.414
283.107, 192.064
284.461, 52.029
285.816, 106.927
287.171, 383.638
288.525, 612.192
289.879, 1053.598
291.233, 1542.861
292.587, 2073.983
293.941, 2723.958
295.294, 3104.776
296.648, 3594.405
298.001, 3581.807
299.354, 3266.958
300.707, 3146.859
302.060, 2733.520
303.412, 2617.947
304.765, 2473.150
306.117, 2254.142
307.469, 1958.928
308.821, 1716.513
310.173, 1442.909
311.525, 1174.096
312.876, 1161.089
314.228, 900.898
315.579, 844.546
316.930, 822.019
318.281, 656.322
319.631, 618.465
320.982, 405.450
322.332, 401.279
323.683, 361.950
325.033, 277.451
326.383, 381.793
327.732, 259.973
329.082, 354.990
330.431, 312.850
331.781, 385.553
333.130, 464.065
334.479, 503.349
335.827, 636.426
337.176, 643.318
338.525, 624.967
339.873, 688.034
341.221, 697.333
342.569, 750.806
343.917, 792.457
345.265, 992.324
346.612, 1014.523
347.960, 1380.211
349.307, 1588.671
350.654, 1663.033
352.001, 1948.335
353.347, 1963.576
354.694, 1977.756
356.040, 1973.876
357.387, 1596.935
358.733, 1554.932
360.079, 1375.867
361.425, 1451.741
362.770, 1295.552
364.116, 1290.289
365.461, 1452.945
366.806, 1367.500
368.151, 1980.941
369.496, 1541.258
370.841, 1357.783
372.185, 1291.221
373.529, 1092.428
374.874, 1038.273
376.218, 888.977
377.562, 766.603
378.905, 660.257
380.249, 578.846
381.592, 604.370
382.936, 547.832
384.279, 542.229
385.622, 526.564
386.964, 563.836
388.307, 613.046
389.650, 601.196
390.992, 753.288
392.334, 678.322
393.676, 763.298
395.018, 768.209
396.360, 821.048
397.701, 920.815
399.042, 891.511
400.384, 1056.137
401.725, 1163.704
403.066, 1391.213
404.406, 1584.667
405.747, 1783.070
407.087, 2217.430
408.428, 2672.744
409.768, 3166.018
411.108, 3793.245
412.447, 4404.369
413.787, 5066.478
415.127, 5465.832
416.466, 6004.152
417.805, 6412.182
419.144, 6510.480
420.483, 6890.206
421.822, 7109.859
423.160, 7379.382
424.499, 7547.167
425.837, 7511.052
427.175, 7460.379
428.513, 7067.903
429.850, 6995.664
431.188, 6657.274
432.526, 6804.629
433.863, 6895.667
435.200, 7236.529
436.537, 7891.158
437.874, 8703.516
439.210, 9778.486
440.547, 11064.046
441.883, 12449.288
443.219, 13786.225
444.555, 14619.743
445.891, 15908.170
447.227, 16068.935
448.563, 16106.126
449.898, 16065.124
451.233, 15225.870
452.568, 14736.550
453.903, 13487.164
455.238, 12447.712
456.573, 11258.193
457.907, 10008.615
459.241, 8478.974
460.576, 7319.269
461.910, 6699.793
463.243, 5460.000
464.577, 4640.116
465.911, 4130.841
467.244, 3451.540
468.577, 3162.066
469.910, 2830.215
471.243, 2575.333
472.576, 2520.321
473.908, 2278.253
475.241, 2152.616
476.573, 2031.256
477.905, 2062.404
479.237, 2108.170
480.569, 2072.746
481.901, 2144.647
483.232, 2179.466
484.564, 2321.535
485.895, 2322.767
487.226, 2383.069
488.557, 2643.871
489.887, 2782.978
491.218, 3062.778
492.548, 3030.125
493.879, 3476.750
495.209, 3552.674
496.539, 3519.673
497.868, 3796.690
499.198, 3743.550
500.528, 3800.721
501.857, 3867.950
503.186, 3815.394
504.515, 4023.023
505.844, 4091.513
507.173, 4300.110
508.501, 4499.302
509.830, 4788.510
511.158, 5367.704
512.486, 5736.921
513.814, 6616.149
515.142, 7345.401
516.469, 8044.642
517.797, 9523.886
519.124, 10803.118
520.451, 12752.353
521.778, 14561.579
523.105, 17650.791
524.432, 21550.006
525.758, 25459.217
527.085, 31518.416
528.411, 36877.605
529.737, 43646.777
531.063, 50275.961
532.388, 52775.152
533.714, 55704.309
535.040, 52963.254
536.365, 47521.574
537.690, 41599.395
539.015, 33776.777
540.340, 28123.822
541.664, 22320.982
542.989, 18257.902
544.313, 14844.791
545.638, 11981.569
546.962, 10148.583
548.285, 8405.812
549.609, 7142.996
550.933, 6040.825
552.256, 5288.346
553.580, 4686.231
554.903, 4134.144
556.226, 3612.286
557.548, 3181.854
558.871, 2977.313
560.194, 2623.377
561.516, 2303.434
562.838, 2237.486
564.160, 1930.534
565.482, 1716.577
566.804, 1729.616
568.125, 1426.650
569.447, 1291.681
570.768, 1170.708
572.089, 1135.730
573.410, 1064.753
574.731, 943.787
576.052, 916.838
577.372, 877.907
578.693, 710.991
580.013, 803.086
581.333, 665.189
582.653, 767.304
583.972, 587.437
585.292, 770.604
586.611, 565.870
587.931, 594.282
589.250, 606.841
590.569, 502.615
591.888, 479.579
593.206, 421.760
594.525, 346.156
595.843, 334.754
597.161, 332.562
598.479, 307.568
599.797, 289.771
601.115, 216.129
602.433, 326.636
603.750, 225.262
605.067, 252.946
606.384, 640.676
607.701, 287.423
609.018, 297.180
610.335, 311.936
611.651, 286.694
612.968, 188.454
614.284, 298.215
615.600, 214.977
616.916, 34.741
618.232, 88.507
619.547, 15.726
620.863, 4.040
622.178, 141.806
623.493, 34.425
624.808, 35.662
626.123, 29.883
627.438, 89.130
628.752, 13.844
630.066, 140.029
631.381, 53.809
632.695, 171.444
634.009, 52.255
635.322, 73.945
636.636, 112.018
637.949, 113.012
639.263, 145.299
640.576, 120.328
641.889, 18.872
643.202, 132.580
644.514, 20.833
645.827, 80.413
647.139, 30.775
648.452, 44.284
649.764, 21.818
651.076, 135.435
652.387, 99.707
653.699, 138.807
655.010, 198.062
656.322, 204.729
657.633, 333.166
658.944, 399.353
660.255, 364.788
661.565, 409.905
662.876, 441.252
664.186, 622.751
665.497, 678.299
666.807, 842.330
668.117, 968.784
669.426, 1035.671
670.736, 1292.472
672.046, 1269.218
673.355, 1469.769
674.664, 1478.183
675.973, 1397.508
677.282, 1256.548
678.591, 1033.000
679.899, 980.338
681.208, 838.115
682.516, 597.949
683.824, 582.099
685.132, 470.417
686.440, 443.747
687.748, 475.018
689.055, 353.463
690.362, 464.765
691.670, 384.479
692.977, 445.458
694.284, 593.418
695.590, 520.530
696.897, 686.264
698.203, 657.014
699.510, 759.157
700.816, 866.166
702.122, 927.877
703.428, 1071.416
704.733, 1116.208
706.039, 1366.086
707.344, 1662.989
708.650, 1880.207
709.955, 2223.194
711.260, 2687.198
712.564, 3117.439
713.869, 3605.308
715.173, 3718.229
716.478, 3939.707
717.782, 3571.558
719.086, 3229.618
720.390, 3048.341
721.694, 2585.221
722.997, 2818.978
724.301, 1760.946
725.604, 1565.901
726.907, 1315.657
728.210, 1010.466
729.513, 1004.959
730.815, 787.455
732.118, 808.043
733.420, 781.501
734.723, 566.940
736.025, 639.552
737.327, 574.812
738.628, 604.486
739.930, 536.743
741.231, 585.957
742.533, 568.292
743.834, 591.474
745.135, 643.951
746.436, 731.151
747.736, 791.605
749.037, 761.856
750.337, 878.943
751.638, 978.227
752.938, 1067.269
754.238, 1119.287
755.538, 1219.322
756.837, 1328.288
758.137, 1336.228
759.436, 1428.140
760.735, 1265.023
762.034, 1367.878
763.333, 1302.705
764.632, 1243.501
765.931, 1178.269
767.229, 1111.008
768.527, 953.716
769.825, 933.395
771.123, 774.043
772.421, 733.663
773.719, 633.251
775.017, 575.810
776.314, 493.048
777.611, 462.517
778.908, 430.984
780.205, 310.756
781.502, 242.466
782.799, 298.261
784.095, 115.347
785.392, 228.377
786.688, 120.452
787.984, 83.496
789.280, 111.104
790.575, 81.103
791.871, 34.402
793.167, 9.293
794.462, 3.935
795.757, 26.579
797.052, 4.312
798.347, 61.088
799.642, 42.314
800.936, 11.903
802.230, 56.671
803.525, 85.865
804.819, 53.583
806.113, 49.820
807.407, 33.483
808.700, 1.781
809.994, 32.010
811.287, 69.875
812.580, 33.832
813.873, 156.864
815.166, 17.035
816.459, 91.272
817.752, 94.615
819.044, 49.065
820.336, 65.598
821.629, 73.224
822.921, 53.053
824.212, 102.708
825.504, 53.581
826.796, 100.540
828.087, 44.390
829.378, 31.722
830.670, 74.093
831.961, 10.131
833.251, 16.583
834.542, 64.246
835.833, 9.872
837.123, 7.556
838.413, 101.956
839.703, 59.430
840.993, 53.867
842.283, 65.265
843.573, 50.375
844.862, 52.902
846.151, 32.140
847.441, 124.335
848.730, 126.495
850.018, 88.620
851.307, 177.708
852.596, 6.763
853.884, 77.766
855.173, 108.731
856.461, 29.661
857.749, 357.547
859.037, 157.403
860.324, 135.225
861.612, 128.012
862.899, 50.764
864.186, 103.479
865.474, 97.158
866.760, 45.801
868.047, 124.407
869.334, 18.979
870.620, 214.506
871.907, 118.001
873.193, 64.472
874.479, 140.906
875.765, 99.307
877.051, 124.672
878.336, 70.005
879.622, 69.303
880.907, 112.565
882.192, 95.794
883.477, 166.992
884.762, 162.162
886.047, 135.301
887.332, 162.407
888.616, 162.482
889.900, 116.528
891.184, 244.542
892.468, 92.526
893.752, 187.479
895.036, 209.402
896.320, 159.295
897.603, 262.159
898.886, 114.993
900.169, 175.795
901.452, 109.568
902.735, 152.310
904.018, 211.021
905.300, 131.704
906.583, 254.357
907.865, 280.982
909.147, 170.579
910.429, 220.147
911.711, 194.688
912.992, 211.200
914.274, 283.701
915.555, 253.175
916.836, 288.621
918.117, 319.041
919.398, 341.432
920.679, 333.802
921.960, 322.146
923.240, 452.462
924.520, 430.757
925.800, 438.024
927.080, 458.265
928.360, 492.480
929.640, 559.670
930.920, 720.837
932.199, 676.979
933.478, 782.095
934.757, 835.188
936.036, 1015.240
937.315, 1211.292
938.594, 1458.776
939.872, 1714.707
941.151, 1966.196
942.429, 2011.512
943.707, 2176.961
944.985, 2180.266
946.263, 1918.930
947.541, 1860.488
948.818, 1524.314
950.096, 1416.858
951.373, 1463.899
952.650, 1389.103
953.927, 1391.841
955.204, 1213.907
956.480, 1349.754
957.757, 1245.751
959.033, 1072.773
960.309, 1144.007
961.585, 1000.218
962.861, 1003.599
964.137, 959.815
965.412, 904.629
966.688, 1099.667
967.963, 1222.943
969.238, 1273.963
970.513, 1571.290
971.788, 1636.380
973.063, 2101.302
974.338, 2300.163
975.612, 2447.523
976.886, 2560.445
978.160, 2502.919
979.434, 2501.462
980.708, 2337.044
981.982, 2282.806
983.256, 2040.689
984.529, 1867.646
985.802, 1786.869
987.075, 1698.666
988.348, 1518.564
989.621, 1657.032
990.894, 1520.428
992.166, 1691.490
993.439, 1758.370
994.711, 1766.221
995.983, 1910.116
997.255, 2119.826
998.527, 2148.663
999.799, 2247.073
1001.070, 2379.210
1002.341, 2617.353
1003.613, 2921.378
1004.884, 3065.772
1006.155, 3268.144
1007.425, 3152.115
1008.696, 3016.215
1009.967, 2642.616
1011.237, 2391.184
1012.507, 2072.493
1013.777, 1968.709
1015.047, 1669.896
1016.317, 1752.760
1017.586, 1624.858
1018.856, 1507.931
1020.125, 1668.767
1021.394, 1578.165
1022.663, 1694.320
1023.932, 1773.920
1025.201, 1780.021
1026.470, 2158.010
1027.738, 2149.356
1029.006, 2463.532
1030.275, 2857.822
1031.543, 3121.890
1032.811, 3615.955
1034.078, 4270.207
1035.346, 4835.102
1036.613, 5770.394
1037.881, 5974.865
1039.148, 6489.228
1040.415, 6923.707
1041.682, 6878.792
1042.948, 7173.087
1044.215, 7107.719
1045.481, 6972.315
1046.748, 7076.920
1048.014, 6701.551
1049.280, 6646.337
1050.546, 6600.972
1051.811, 5735.296
1053.077, 5809.880
1054.342, 5104.192
1055.608, 4828.973
1056.873, 4123.612
1058.138, 3518.206
1059.402, 3442.850
1060.667, 3387.495
1061.932, 3102.408
1063.196, 3177.058
1064.460, 2981.710
1065.724, 3030.251
1066.988, 3124.906
1068.252, 3009.629
1069.516, 3174.368
1070.779, 3079.036
1072.043, 3095.086
1073.306, 3229.760
1074.569, 3064.435
1075.832, 3190.061
1077.095, 3294.741
1078.358, 3219.423
1079.620, 3834.107
1080.882, 3899.223
1082.145, 3663.962
1083.407, 3648.653
1084.669, 3623.348
1085.931, 4158.097
1087.192, 3722.798
1088.454, 3587.503
1089.715, 3762.220
1090.976, 3456.942
1092.237, 3272.610
1093.498, 3337.366
1094.759, 2942.128
1096.020, 2786.914
1097.280, 2531.705
1098.541, 2247.506
1099.801, 2156.797
1101.061, 1866.636
1102.321, 1885.752
1103.581, 1732.646
1104.840, 1654.531
1106.100, 1581.266
1107.359, 1608.194
1108.618, 1521.048
1109.877, 1710.096
1111.136, 1586.272
1112.395, 1543.459
1113.654, 1602.803
1114.912, 1455.896
1116.171, 1496.126
1117.429, 1436.283
1118.687, 1326.464
1119.945, 1468.783
1121.202, 1138.042
1122.460, 1112.700
1123.718, 1116.172
1124.975, 854.552
1126.232, 872.261
1127.489, 889.784
1128.746, 809.535
1130.003, 770.391
1131.259, 670.921
1132.516, 666.758
1133.772, 630.529
1135.028, 563.135
1136.285, 565.895
1137.540, 538.533
1138.796, 473.944
1140.052, 523.326
1141.307, 268.994
1142.563, 336.749
1143.818, 510.438
1145.073, 275.132
1146.328, 334.290
1147.583, 208.380
1148.837, 239.268
1150.092, 250.412
1151.346, 112.252
1152.600, 222.001
1153.854, 160.960
1155.108, 121.717
1156.362, 279.495
1157.615, 17.264
1158.869, 87.044
1160.122, 164.321
1161.375, 15.371
1162.629, 169.263
1163.881, 123.463
1165.134, 22.508
1166.387, 93.862
1167.639, 68.583
1168.892, 116.386
1170.144, 40.068
1171.396, 14.866
1172.648, 53.941
1173.900, 208.443
1175.151, 62.716
1176.403, 62.240
1177.654, 41.808
1178.905, 8.603
1180.156, 32.474
1181.407, 50.632
1182.658, 44.427
1183.909, 86.876
1185.159, 29.147
1186.409, 31.361
1187.660, 20.146
1188.910, 17.920
1190.159, 96.693
1191.409, 24.293
1192.659, 128.469
1193.908, 135.465
1195.158, 16.618
1196.407, 119.133
1197.656, 17.073
1198.905, 11.735
1200.154, 20.146
1201.402, 33.237
1202.651, 127.968
1203.899, 38.779
1205.147, 10.146
1206.395, 143.571
1207.643, 4.132
1208.891, 27.621
1210.139, 144.321
1211.386, 9.538
1212.634, 56.264
1213.881, 121.946
1215.128, 80.143
1216.375, 133.494
1217.622, 18.066
1218.868, 15.836
1220.115, 66.455
1221.361, 33.509
1222.607, 123.085
1223.853, 60.770
1225.099, 23.471
1226.345, 154.095
1227.591, 59.655
1228.836, 97.359
1230.082, 9.095
1231.327, 32.653
1232.572, 196.239
1233.817, 108.759
1235.062, 35.573
1236.306, 190.264
1237.551, 80.914
1238.795, 158.540
1240.040, 193.188
1241.284, 17.974
1242.528, 197.333
1243.771, 85.786
1245.015, 101.636
1246.259, 136.075
1247.502, 70.506
1248.745, 2.520
1249.988, 139.889
1251.231, 13.480
1252.474, 72.034
1253.717, 168.433
1254.959, 7.851
1256.202, 182.306
1257.444, 8.312
1258.686, 69.181
1259.928, 46.534
1261.170, 51.882
1262.412, 21.640
1263.653, 216.977
1264.895, 57.693
1266.136, 95.111
1267.377, 164.414
1268.618, 72.838
1269.859, 133.098
1271.100, 8.350
1272.340, 67.939
1273.581, 205.426
1274.821, 28.651
1276.061, 83.494
1277.301, 31.644
1278.541, 17.785
1279.781, 231.315
1281.020, 42.428
1282.260, 60.659
1283.499, 131.152
1284.738, 73.196
1285.977, 158.211
1287.216, 6.189
1288.455, 72.899
1289.694, 168.315
1290.932, 98.165
1292.170, 302.998
1293.409, 189.101
1294.647, 16.904
1295.885, 26.896
1297.122, 82.823
1298.360, 23.581
1299.597, 4.635
1300.835, 186.353
1302.072, 139.944
1303.309, 172.043
1304.546, 120.671
1305.783, 136.282
1307.019, 214.464
1308.256, 1.032
1309.492, 67.835
1310.728, 106.362
1311.965, 33.875
1313.200, 72.372
1314.436, 23.853
1315.672, 19.687
1316.907, 188.274
1318.143, 18.311
1319.378, 55.941
1320.613, 322.163
1321.848, 14.609
1323.083, 131.590
1324.318, 98.867
1325.552, 111.986
1326.787, 261.104
1328.021, 4.833
1329.255, 53.202
1330.489, 174.214
1331.723, 25.207
1332.957, 98.160
1334.190, 182.384
1335.424, 22.467
1336.657, 176.326
1337.890, 163.160
1339.123, 84.968
1340.356, 241.150
1341.589, 86.908
1342.821, 105.621
1344.054, 274.918
1345.286, 98.585
1346.518, 41.228
1347.750, 110.557
1348.982, 60.146
1350.214, 222.712
1351.445, 126.250
1352.677, 62.742
1353.908, 176.924
1355.139, 32.364
1356.370, 136.608
1357.601, 148.988
1358.832, 45.342
1360.063, 121.364
1361.293, 154.668
1362.524, 92.948
1363.754, 192.316
1364.984, 2.282
1366.214, 111.858
1367.444, 258.964
1368.673, 47.204
1369.903, 166.956
1371.132, 123.065
1372.362, 104.153
1373.591, 166.271
1374.820, 148.317
1376.048, 110.346
1377.277, 339.354
1378.506, 95.917
1379.734, 132.842
1380.962, 155.803
1382.191, 75.742
1383.419, 103.612
1384.646, 111.576
1385.874, 5.524
1387.102, 109.356
1388.329, 62.231
1389.556, 64.841
1390.784, 167.005
1392.011, 41.592
1393.238, 196.245
1394.464, 236.099
1395.691, 4.647
1396.917, 275.857
1398.144, 107.136
1399.370, 116.632
1400.596, 282.271
1401.822, 75.744
1403.048, 27.871
1404.273, 265.988
1405.499, 119.988
1406.724, 232.202
1407.949, 285.090
1409.175, 58.185
1410.400, 283.978
1411.624, 227.426
1412.849, 8.269
1414.074, 283.161
1415.298, 129.064
1416.522, 181.611
1417.746, 277.472
1418.970, 7.608
1420.194, 96.282
1421.418, 341.468
1422.642, 37.966
1423.865, 278.246
1425.088, 233.859
1426.311, 51.582
1427.534, 307.673
1428.757, 116.347
1429.980, 48.333
1431.203, 301.979
1432.425, 11.627
1433.647, 227.981
1434.870, 181.113
1436.092, 39.310
1437.314, 265.780
1438.535, 143.549
1439.757, 54.429
1440.979, 330.306
1442.200, 74.810
1443.421, 86.056
1444.642, 210.572
1445.863, 48.457
1447.084, 520.654
1448.305, 244.690
1449.525, 41.457
1450.746, 225.031
1451.966, 225.763
1453.186, 12.025
1454.406, 352.398
1455.626, 60.712
1456.846, 163.538
1458.065, 388.586
1459.285, 178.094
1460.504, 193.314
1461.723, 380.298
1462.942, 15.195
1464.161, 294.989
1465.380, 301.052
1466.599, 172.485
1467.817, 191.022
1469.035, 216.938
1470.254, 134.710
1471.472, 364.791
1472.690, 150.793
1473.907, 262.740
1475.125, 328.975
1476.343, 143.492
1477.560, 287.805
1478.777, 146.609
1479.994, 131.422
1481.211, 369.938
1482.428, 271.188
1483.645, 240.515
1484.861, 383.376
1486.078, 212.817
1487.294, 321.512
1488.510, 454.018
1489.726, 90.088
1490.942, 323.062
1492.158, 367.152
1493.374, 150.903
1494.589, 325.652
1495.804, 131.249
1497.020, 188.666
1498.235, 292.869
1499.450, 321.228
1500.664, 202.309
1501.879, 319.247
1503.094, 119.101
1504.308, 198.765
1505.522, 312.864
1506.736, 76.033
1507.950, 273.176
1509.164, 256.282
1510.378, 19.320
1511.591, 467.405
1512.805, 169.658
1514.018, 37.952
1515.231, 356.252
