##NAMES=Mesolite
##RRUFFID=R050013
##IDEAL CHEMISTRY=Na_2_Ca_2_(Si_9_Al_6_)O_30_&#183;8H_2_O
##LOCALITY=Poona, Maharashtra, India
##OWNER=RRUFF
##SOURCE=University of Arizona Mineral Museum
##DESCRIPTION=Clear to white elongated prismatic single crystal
##STATUS=The identification of this mineral has been confirmed by X-ray diffraction and chemical analysis
##URL=rruff.info/R050013
##MEASURED CHEMISTRY=Na_2.00_Ca_2.00_(Si_9.00_Al_6.00_)O_30_Â·8H_2_O
##PIN_ID=M00096
##ORIENTATION=Laser parallel to b* (0 1 0). Fiducial mark perpendicular to laser is parallel to c [0 0 1]
88.54200, 0.0000000E+00
89.77700, 415.3047
91.01200, 960.0879
92.24600, 1477.088
93.48000, 2082.070
94.71400, 2449.203
95.94800, 2852.154
97.18200, 3669.904
98.41600, 4200.092
99.64900, 4096.646
100.8830, 3485.363
102.1160, 2859.473
103.3490, 2482.469
104.5820, 2545.672
105.8150, 3081.930
107.0470, 3537.920
108.2800, 2334.395
109.5120, 1708.381
110.7440, 1884.744
111.9760, 1669.369
113.2080, 2061.447
114.4400, 2272.072
115.6710, 2763.490
116.9030, 3593.213
118.1340, 4632.094
119.3650, 5780.744
120.5960, 6627.523
121.8270, 8020.074
123.0580, 9379.875
124.2880, 10100.44
125.5190, 9807.262
126.7490, 9809.754
127.9790, 10555.39
129.2090, 11748.51
130.4390, 12821.05
131.6680, 13293.82
132.8980, 12201.73
134.1270, 10413.11
135.3560, 8610.340
136.5850, 6678.244
137.8140, 5157.850
139.0430, 4150.961
140.2710, 3419.758
141.5000, 2961.402
142.7280, 2437.043
143.9560, 2850.873
145.1840, 3175.500
146.4120, 3416.812
147.6390, 3624.590
148.8670, 4168.602
150.0940, 4136.674
151.3210, 4101.029
152.5490, 4193.365
153.7750, 4173.764
155.0020, 4228.863
156.2290, 4278.598
157.4550, 4440.062
158.6810, 4621.211
159.9080, 5005.049
161.1340, 4993.590
162.3590, 5243.863
163.5850, 5247.135
164.8110, 5280.666
166.0360, 5137.580
167.2610, 5163.219
168.4860, 4919.736
169.7110, 4684.820
170.9360, 4797.701
172.1610, 4758.191
173.3850, 4385.814
174.6100, 4397.309
175.8340, 4129.234
177.0580, 4094.484
178.2820, 3696.646
179.5050, 3683.438
180.7290, 3689.611
181.9520, 3969.500
183.1760, 3820.734
184.3990, 3504.818
185.6220, 3405.861
186.8450, 3110.258
188.0670, 3235.561
189.2900, 3290.002
190.5120, 2888.553
191.7340, 2718.195
192.9560, 2219.861
194.1780, 1670.465
195.4000, 1301.977
196.6220, 799.7578
197.8430, 558.0156
199.0640, 358.8203
200.2860, 428.8301
201.5070, 133.5996
202.7270, 67.83984
203.9480, 51.49023
205.1690, 335.9785
206.3890, 571.6016
207.6090, 875.3633
208.8290, 978.2617
210.0490, 1391.291
211.2690, 1374.428
212.4890, 1169.666
213.7080, 1075.926
214.9280, 715.3418
216.1470, 487.4512
217.3660, 89.58789
218.5850, 72.54492
219.8030, 339.3594
221.0220, 761.0645
222.2400, 765.0234
223.4590, 963.2148
224.6770, 1144.777
225.8950, 1368.244
227.1120, 1736.299
228.3300, 1881.254
229.5480, 2168.137
230.7650, 2462.945
231.9820, 2345.682
233.1990, 2326.348
234.4160, 2179.936
235.6330, 2152.979
236.8490, 2171.227
238.0660, 1953.209
239.2820, 1764.166
240.4980, 1185.518
241.7140, 1044.748
242.9300, 827.3496
244.1460, 668.7344
245.3610, 447.8828
246.5770, 298.0957
247.7920, 19.10352
249.0070, 65.42578
250.2220, 102.8789
251.4370, 232.8105
252.6510, 15.75391
253.8660, 217.2891
255.0800, 123.4609
256.2940, 367.5371
257.5080, 632.9961
258.7220, 640.2969
259.9360, 285.4238
261.1490, 188.3496
262.3630, 245.0449
263.5760, 41.50586
264.7890, 352.6680
266.0020, 358.4688
267.2150, 382.8047
268.4270, 174.6816
269.6400, 69.08789
270.8520, 99.01953
272.0640, 44.50781
273.2760, 85.13086
274.4880, 179.1719
275.7000, 244.3984
276.9120, 316.2305
278.1230, 498.6855
279.3340, 585.7852
280.5450, 488.5430
281.7560, 751.9512
282.9670, 952.0234
284.1780, 1360.777
285.3880, 1425.223
286.5980, 1898.371
287.8090, 2136.229
289.0190, 2201.809
290.2290, 2505.113
291.4380, 2509.143
292.6480, 2360.746
293.8570, 2384.338
295.0670, 2605.348
296.2760, 2436.268
297.4850, 2333.484
298.6930, 1870.674
299.9020, 1895.564
301.1110, 1409.348
302.3190, 1276.027
303.5270, 1266.604
304.7350, 1203.076
305.9430, 1254.449
307.1510, 943.7246
308.3580, 954.8945
309.5660, 966.9629
310.7730, 1066.926
311.9800, 1035.783
313.1870, 1116.529
314.3940, 1253.039
315.6010, 1170.145
316.8070, 1348.805
318.0130, 1426.969
319.2200, 1556.014
320.4260, 1737.922
321.6310, 1763.619
322.8370, 1806.850
324.0430, 1738.365
325.2480, 1733.594
326.4540, 1809.582
327.6590, 1686.105
328.8640, 1704.203
330.0680, 1739.732
331.2730, 1738.395
332.4780, 2002.355
333.6820, 1907.586
334.8860, 1998.824
336.0900, 1756.809
337.2940, 1540.852
338.4980, 1289.852
339.7010, 1389.799
340.9050, 1213.342
342.1080, 1527.490
343.3110, 1608.064
344.5140, 1664.852
345.7170, 1443.441
346.9200, 1595.318
348.1220, 1775.258
349.3240, 1525.250
350.5270, 1633.291
351.7290, 1344.064
352.9310, 1478.629
354.1320, 1417.732
355.3340, 1486.141
356.5350, 1350.375
357.7370, 1395.230
358.9380, 1207.740
360.1390, 1376.645
361.3400, 1506.619
362.5400, 1686.324
363.7410, 1755.424
364.9410, 1848.951
366.1410, 1823.826
367.3410, 1818.617
368.5410, 1771.334
369.7410, 1602.980
370.9400, 1641.562
372.1400, 1517.082
373.3390, 1361.541
374.5380, 1417.938
375.7370, 1205.275
376.9360, 1029.551
378.1350, 945.7656
379.3330, 757.9199
380.5310, 612.0020
381.7300, 527.4082
382.9280, 411.5684
384.1260, 451.5410
385.3230, 280.1035
386.5210, 461.5020
387.7180, 458.7422
388.9160, 430.8184
390.1130, 357.0156
391.3100, 448.1816
392.5060, 512.6367
393.7030, 554.5508
394.9000, 416.4707
396.0960, 610.5938
397.2920, 476.7012
398.4880, 557.5293
399.6840, 686.6133
400.8800, 1078.893
402.0750, 1423.447
403.2710, 1653.803
404.4660, 1926.555
405.6610, 1939.844
406.8560, 2215.533
408.0510, 2284.654
409.2450, 2385.127
410.4400, 2557.311
411.6340, 2619.580
412.8280, 2780.109
414.0220, 3106.988
415.2160, 3392.939
416.4100, 3814.389
417.6030, 3642.596
418.7970, 4083.854
419.9900, 3880.260
421.1830, 3874.664
422.3760, 4196.859
423.5690, 3892.936
424.7610, 4048.354
425.9540, 4210.377
427.1460, 4038.064
428.3380, 3952.467
429.5300, 4040.752
430.7220, 3972.922
431.9140, 4271.979
433.1050, 4400.926
434.2970, 4693.766
435.4880, 5309.492
436.6790, 5717.588
437.8700, 5849.104
439.0610, 6155.088
440.2510, 6331.420
441.4420, 6717.061
442.6320, 6680.777
443.8220, 6805.879
445.0120, 6666.906
446.2020, 6602.752
447.3910, 6353.195
448.5810, 6006.410
449.7700, 5627.869
450.9600, 5101.158
452.1490, 4554.117
453.3370, 3977.361
454.5260, 3670.189
455.7150, 3037.807
456.9030, 2658.680
458.0910, 1935.953
459.2800, 1801.688
460.4670, 1373.150
461.6550, 1312.539
462.8430, 1063.824
464.0300, 927.2559
465.2180, 715.8418
466.4050, 638.6777
467.5920, 440.3262
468.7790, 413.3867
469.9650, 209.4473
471.1520, 254.4160
472.3380, 113.3203
473.5250, 46.82031
474.7110, 42.63867
475.8970, 89.60156
477.0820, 14.22266
478.2680, 149.1289
479.4540, 48.81836
480.6390, 204.3047
481.8240, 207.1250
483.0090, 124.7520
484.1940, 122.2812
485.3780, 117.0098
486.5630, 267.8633
487.7470, 252.9180
488.9320, 117.3086
490.1160, 239.6660
491.3000, 49.18750
492.4830, 54.26172
493.6670, 105.7793
494.8500, 316.0645
496.0340, 253.9316
497.2170, 386.0762
498.4000, 483.6094
499.5820, 673.5430
500.7650, 913.7812
501.9480, 1102.359
503.1300, 1318.154
504.3120, 1696.104
505.4940, 1850.137
506.6760, 2096.189
507.8580, 2556.287
509.0390, 3050.363
510.2210, 3601.430
511.4020, 4374.484
512.5830, 5085.545
513.7640, 6044.598
514.9450, 7065.621
516.1250, 8627.652
517.3060, 10244.70
518.4860, 12350.70
519.6660, 14728.68
520.8460, 17525.63
522.0260, 20695.90
523.2060, 23513.55
524.3850, 26306.82
525.5650, 28552.43
526.7440, 29727.38
527.9230, 29783.73
529.1020, 29292.67
530.2810, 28129.57
531.4590, 26413.32
532.6380, 25183.44
533.8160, 22630.27
534.9940, 20097.61
536.1720, 18077.11
537.3500, 15418.73
538.5270, 13173.47
539.7050, 11457.45
540.8820, 8912.471
542.0590, 7544.719
543.2360, 6391.777
544.4130, 5471.525
545.5900, 4779.854
546.7660, 4324.785
547.9430, 3760.029
549.1190, 3397.217
550.2950, 3074.057
551.4710, 2733.975
552.6470, 2640.236
553.8220, 2242.727
554.9980, 2184.883
556.1730, 1882.863
557.3480, 1962.615
558.5230, 1473.229
559.6980, 1482.715
560.8730, 1408.229
562.0470, 1163.764
563.2220, 1031.307
564.3960, 904.8438
565.5700, 742.6074
566.7440, 684.1992
567.9170, 510.3906
569.0910, 553.8730
570.2640, 496.3320
571.4380, 413.7676
572.6110, 363.1777
573.7840, 373.5684
574.9570, 466.9336
576.1290, 339.2793
577.3020, 154.6035
578.4740, 292.9004
579.6460, 132.1777
580.8180, 315.4277
581.9900, 173.6562
583.1620, 136.8594
584.3330, 463.0391
585.5040, 409.1973
586.6760, 350.3379
587.8470, 493.4570
589.0180, 499.5566
590.1880, 127.6387
591.3590, 214.6992
592.5290, 44.74219
593.7000, 204.7656
594.8700, 143.7734
596.0400, 141.7656
597.2090, 139.7383
598.3790, 159.6914
599.5490, 185.6230
600.7180, 170.5371
601.8870, 177.6074
603.0560, 187.2988
604.2250, 137.1484
605.3940, 84.97461
606.5620, 10.77539
607.7300, 41.54883
608.8990, 167.0703
610.0670, 152.4727
611.2350, 159.0176
612.4020, 158.7480
613.5700, 238.8828
614.7370, 212.7285
615.9050, 585.1504
617.0720, 805.1875
618.2390, 839.1016
619.4060, 844.1445
620.5720, 998.0156
621.7390, 1379.807
622.9050, 1693.531
624.0710, 1836.541
625.2370, 1950.826
626.4030, 1678.561
627.5690, 1463.949
628.7340, 1284.404
629.9000, 832.4961
631.0650, 852.0469
632.2300, 364.3242
633.3950, 384.6230
634.5600, 304.8262
635.7240, 314.8125
636.8890, 388.6152
638.0530, 471.3984
639.2170, 673.7598
640.3810, 696.3398
641.5450, 848.5273
642.7080, 803.9883
643.8720, 1022.092
645.0350, 1019.316
646.1980, 1042.240
647.3610, 1133.865
648.5240, 1338.533
649.6870, 1390.516
650.8490, 1372.049
652.0120, 1368.223
653.1740, 1374.566
654.3360, 1349.584
655.4980, 1046.957
656.6600, 1170.355
657.8210, 980.4316
658.9830, 1100.723
660.1440, 1306.494
661.3050, 844.6230
662.4660, 1087.387
663.6270, 1079.988
664.7870, 786.6543
665.9480, 956.6484
667.1080, 915.1758
668.2680, 748.7441
669.4280, 850.2539
670.5880, 658.9648
671.7480, 594.6348
672.9070, 545.5078
674.0670, 330.2637
675.2260, 403.2480
676.3850, 252.0781
677.5440, 177.8926
678.7030, 121.8164
679.8610, 186.2051
681.0200, 300.0039
682.1780, 198.7070
683.3360, 266.9746
684.4940, 126.6191
685.6520, 220.9180
686.8090, 148.0938
687.9670, 17.24023
689.1240, 28.73633
690.2810, 39.32617
691.4380, 151.5527
692.5950, 95.40039
693.7520, 180.5137
694.9080, 232.9824
696.0650, 298.6758
697.2210, 345.3262
698.3770, 511.9648
699.5330, 484.5254
700.6880, 770.0410
701.8440, 865.5137
702.9990, 1024.941
704.1550, 1417.322
705.3100, 1757.662
706.4650, 1751.955
707.6190, 1916.203
708.7740, 2209.406
709.9290, 2104.564
711.0830, 2200.674
712.2370, 2183.742
713.3910, 1892.764
714.5450, 1809.740
715.6980, 1798.674
716.8520, 1562.084
718.0050, 1379.924
719.1580, 1060.154
720.3110, 981.8652
721.4640, 838.2207
722.6170, 798.3398
723.7700, 732.9531
724.9220, 672.5215
726.0740, 617.8945
727.2260, 495.5195
728.3780, 519.9492
729.5300, 573.7656
730.6810, 581.8984
731.8330, 487.2773
732.9840, 614.2812
734.1350, 534.9844
735.2860, 526.6328
736.4370, 692.2305
737.5880, 585.8672
738.7380, 614.5645
739.8880, 578.1562
741.0390, 708.7305
742.1890, 738.3047
743.3380, 887.6191
744.4880, 938.6680
745.6380, 1131.365
746.7870, 969.1445
747.9360, 1396.406
749.0850, 1521.562
750.2340, 1471.703
751.3830, 1319.805
752.5310, 1278.201
753.6800, 1185.621
754.8280, 1242.879
755.9760, 1005.270
757.1240, 1043.627
758.2720, 911.9883
759.4190, 939.3105
760.5670, 964.6465
761.7140, 702.0020
762.8610, 767.3496
764.0080, 837.6934
765.1550, 641.0234
766.3020, 610.3848
767.4480, 462.7734
768.5950, 469.1504
769.7410, 125.5449
770.8870, 320.9043
772.0330, 159.2207
773.1780, 184.4844
774.3240, 61.30273
775.4690, 68.19336
776.6140, 125.0488
777.7590, 79.65234
778.9040, 184.5508
780.0490, 62.92969
781.1940, 57.41797
782.3380, 187.0156
783.4820, 102.7891
784.6260, 257.6914
785.7700, 19.80664
786.9140, 73.01172
788.0580, 50.33203
789.2010, 140.7539
790.3450, 64.32812
791.4880, 3.988281
792.6310, 113.7695
793.7730, 162.6660
794.9160, 19.27930
796.0590, 60.15820
797.2010, 24.97656
798.3430, 75.17578
799.4850, 60.56055
800.6270, 5.037109
801.7690, 44.44141
802.9100, 130.0117
804.0520, 27.72852
805.1930, 22.46875
806.3340, 170.6035
807.4750, 176.3125
808.6160, 116.6074
809.7560, 60.47266
810.8970, 131.7148
812.0370, 35.84375
813.1770, 214.5391
814.3170, 45.38867
815.4570, 43.04883
816.5960, 115.1660
817.7360, 244.6016
818.8750, 255.4648
820.0140, 111.8555
821.1530, 2.482422
822.2920, 73.45117
823.4310, 88.76172
824.5690, 320.7148
825.7070, 449.0801
826.8460, 304.8281
827.9840, 250.2031
829.1220, 335.0020
830.2590, 427.5273
831.3970, 312.3652
832.5340, 613.3828
833.6710, 468.6387
834.8080, 308.0488
835.9450, 443.5918
837.0820, 529.0996
838.2190, 515.5703
839.3550, 677.0078
840.4910, 532.4043
841.6270, 596.7637
842.7630, 845.0918
843.8990, 785.3809
845.0350, 698.6367
846.1700, 671.8535
847.3060, 950.0391
848.4410, 983.1914
849.5760, 902.3047
850.7100, 858.3848
851.8450, 865.4336
852.9800, 1141.447
854.1140, 1244.432
855.2480, 1395.379
856.3820, 1576.297
857.5160, 1709.182
858.6500, 1703.037
859.7830, 1879.861
860.9170, 1772.652
862.0500, 1726.412
863.1830, 1786.143
864.3160, 1503.840
865.4480, 1346.506
866.5810, 1260.145
867.7130, 1085.754
868.8460, 968.3359
869.9780, 938.9004
871.1100, 826.4355
872.2410, 1051.000
873.3730, 744.5371
874.5050, 871.0488
875.6360, 652.5312
876.7670, 666.0117
877.8980, 716.4668
879.0290, 579.8965
880.1590, 618.3008
881.2900, 552.6953
882.4200, 528.0742
883.5500, 629.4395
884.6800, 628.8301
885.8100, 427.1973
886.9400, 747.5391
888.0690, 702.8574
889.1990, 530.1738
890.3280, 621.4648
891.4570, 655.7305
892.5860, 603.9414
893.7140, 536.2031
894.8430, 615.3984
895.9710, 644.5742
897.1000, 690.3926
898.2280, 670.5977
899.3560, 657.9453
900.4830, 593.0215
901.6110, 564.0742
902.7380, 516.0977
903.8660, 520.5703
904.9930, 699.0781
906.1200, 422.9043
907.2460, 702.5234
908.3730, 410.4375
909.5000, 685.4375
910.6260, 608.3477
911.7520, 744.7793
912.8780, 243.5957
914.0040, 666.0664
915.1290, 331.0664
916.2550, 406.6660
917.3800, 279.5820
918.5050, 156.3359
919.6300, 155.3457
920.7550, 326.6406
921.8800, 214.8691
923.0040, 172.7422
924.1290, 344.0254
925.2530, 182.6250
926.3770, 277.0117
927.5010, 431.6836
928.6250, 443.9844
929.7480, 494.3906
930.8720, 443.7598
931.9950, 515.0449
933.1180, 609.8047
934.2410, 590.1934
935.3640, 686.9082
936.4860, 491.7520
937.6090, 882.5020
938.7310, 756.9648
939.8530, 545.7227
940.9750, 802.4883
942.0970, 372.3496
943.2180, 394.9824
944.3400, 408.6855
945.4610, 261.1621
946.5820, 316.7305
947.7030, 264.0703
948.8240, 396.5605
949.9450, 298.0371
951.0650, 325.3652
952.1860, 282.1895
953.3060, 286.7188
954.4260, 305.5449
955.5460, 330.8535
956.6650, 388.2500
957.7850, 437.9707
958.9040, 583.7695
960.0230, 551.5566
961.1420, 619.4238
962.2610, 580.2012
963.3800, 728.7734
964.4990, 786.6836
965.6170, 841.8926
966.7350, 918.0605
967.8530, 990.4258
968.9710, 1079.371
970.0890, 1163.287
971.2070, 1390.244
972.3240, 1581.205
973.4410, 1948.172
974.5580, 1929.146
975.6750, 2046.129
976.7920, 2337.113
977.9090, 1977.109
979.0250, 1961.111
980.1410, 1994.119
981.2580, 1417.135
982.3740, 1361.160
983.4890, 1228.193
984.6050, 1305.232
985.7200, 1170.281
986.8360, 850.3379
987.9510, 965.4004
989.0660, 1043.475
990.1810, 649.5586
991.2950, 976.6484
992.4100, 1062.750
993.5240, 814.8613
994.6390, 1178.982
995.7530, 1311.113
996.8660, 1309.252
997.9800, 1549.406
999.0940, 1976.568
1000.207, 2639.738
1001.320, 3060.922
1002.433, 3102.115
1003.546, 2409.672
1004.659, 1690.887
1005.772, 1402.971
1006.884, 1266.211
1007.996, 897.4590
1009.108, 867.7188
1010.220, 982.7383
1011.332, 671.6758
1012.444, 786.9707
1013.555, 552.2754
1014.666, 929.5176
1015.777, 930.7129
1016.888, 961.7031
1017.999, 1245.469
1019.110, 1140.844
1020.220, 1462.215
1021.331, 1577.598
1022.441, 1511.240
1023.551, 1760.646
1024.661, 1556.062
1025.770, 1851.420
1026.880, 2034.980
1027.989, 2051.434
1029.098, 2178.578
1030.207, 2101.373
1031.316, 2156.859
1032.425, 2247.359
1033.533, 2336.410
1034.642, 2447.398
1035.750, 2748.938
1036.858, 3106.488
1037.966, 3569.051
1039.073, 3791.629
1040.181, 4332.225
1041.288, 4688.836
1042.396, 4526.465
1043.503, 4411.111
1044.610, 4249.801
1045.716, 4316.539
1046.823, 3797.342
1047.929, 3688.160
1049.036, 3058.059
1050.142, 2505.070
1051.248, 2451.061
1052.353, 2080.131
1053.459, 1702.842
1054.564, 1485.100
1055.670, 1346.359
1056.775, 945.6699
1057.880, 919.0254
1058.985, 916.4453
1060.089, 706.9121
1061.194, 770.4102
1062.298, 580.9414
1063.402, 735.0840
1064.506, 610.7383
1065.610, 626.4102
1066.713, 740.9297
1067.817, 808.6465
1068.920, 833.5078
1070.023, 922.2988
1071.126, 864.1309
1072.229, 1187.023
1073.332, 1339.953
1074.435, 1279.205
1075.537, 1384.178
1076.639, 1812.061
1077.741, 1766.121
1078.843, 1921.455
1079.945, 2323.215
1081.046, 2208.232
1082.148, 2205.475
1083.249, 2284.732
1084.350, 2167.027
1085.451, 1652.338
1086.551, 1382.662
1087.652, 1575.998
1088.752, 1543.352
1089.853, 1481.730
1090.953, 1446.023
1092.053, 1143.531
1093.152, 1195.951
1094.252, 1038.529
1095.351, 897.9766
1096.451, 847.4355
1097.550, 762.9082
1098.649, 723.2441
1099.748, 529.9336
1100.846, 741.4609
1101.945, 663.0000
1103.043, 795.5469
1104.141, 723.1094
1105.239, 733.6797
1106.337, 755.2617
1107.434, 960.8535
1108.532, 1032.457
1109.629, 921.0703
1110.726, 977.6953
1111.823, 708.3301
1112.920, 770.9727
1114.017, 641.6289
1115.113, 845.2910
1116.210, 1029.967
1117.306, 1037.652
1118.402, 895.3457
1119.498, 753.0508
1120.593, 953.7656
1121.689, 981.4883
1122.784, 849.2227
1123.879, 1039.965
1124.974, 806.7188
1126.069, 752.4844
1127.164, 427.2578
1128.259, 450.0391
1129.353, 339.8320
1130.447, 273.6348
1131.541, 197.4473
1132.635, 531.2676
1133.729, 251.0996
1134.822, 59.05859
1135.916, 242.7695
1137.009, 232.3926
1138.102, 60.34180
1139.195, 407.0879
1140.288, 56.84180
1141.380, 98.39648
1142.473, 18.66797
1143.565, 29.06055
1144.657, 31.80078
1145.749, 64.44922
1146.841, 42.72070
1147.932, 37.92969
1149.024, 201.2891
1150.115, 4.332031
1151.206, 65.96289
1152.297, 59.59961
1153.388, 99.75391
1154.479, 126.8535
1155.569, 152.4688
1156.659, 18.90625
1157.750, 0.7148440
1158.839, 104.4062
1159.929, 7.105469
1161.019, 176.8105
1162.108, 118.5273
1163.198, 494.2559
1164.287, 150.9883
1165.376, 135.7500
1166.465, 413.5215
1167.553, 239.2988
1168.642, 371.0840
1169.730, 331.8789
1170.818, 440.6797
1171.906, 281.4883
1172.994, 234.3047
1174.082, 339.1289
1175.170, 209.9590
1176.257, 273.7969
1177.344, 113.6406
1178.431, 289.4922
1179.518, 74.34961
1180.605, 10.78516
1181.691, 135.0703
1182.778, 179.9316
1183.864, 103.1992
1184.950, 61.38672
1186.036, 100.3926
1187.122, 256.1797
1188.207, 322.9688
1189.292, 249.7637
1190.378, 84.55859
1191.463, 73.64062
1192.548, 3.884766
1193.632, 48.13477
1194.717, 125.5840
1195.801, 28.30664
1196.886, 67.97266
1197.970, 65.71094
1199.054, 19.80273
1200.137, 107.0762
1201.221, 112.7578
1202.305, 38.44531
1203.388, 77.13086
1204.471, 247.1816
1205.554, 291.3672
1206.637, 207.0859
1207.719, 112.3457
1208.802, 18.77539
1209.884, 106.7949
1210.966, 78.43359
1212.048, 168.8750
1213.130, 375.1836
1214.212, 418.4922
1215.293, 468.1992
1216.374, 494.3711
1217.456, 352.4141
1218.536, 395.7148
1219.617, 286.0195
1220.698, 138.3203
1221.778, 178.6250
1222.859, 140.9297
1223.939, 3.132813
1225.019, 268.4180
1226.099, 79.70703
1227.178, 187.9922
1228.258, 332.8594
1229.337, 122.1406
1230.417, 365.4258
1231.496, 596.7031
1232.574, 617.9844
1233.653, 607.2617
1234.732, 584.5352
1235.810, 726.8086
1236.888, 872.0820
1237.966, 737.3516
1239.044, 846.6211
1240.122, 895.8906
1241.199, 498.1562
1242.277, 632.4180
1243.354, 631.6797
1244.431, 718.9375
1245.508, 768.7617
1246.585, 687.4453
1247.661, 869.7031
1248.738, 750.9648
1249.814, 816.2266
1250.890, 983.4844
1251.966, 1074.742
1253.042, 1001.023
1254.117, 627.2930
1255.193, 708.6094
1256.268, 867.9414
1257.343, 579.2695
1258.418, 972.5938
1259.493, 658.9180
1260.567, 798.2383
1261.642, 1409.590
1262.716, 995.9375
1263.790, 784.2812
1264.864, 1087.273
1265.938, 1280.613
1267.011, 942.0938
1268.085, 1245.430
