##NAMES=Mesolite
##RRUFFID=R050013
##IDEAL CHEMISTRY=Na_2_Ca_2_(Si_9_Al_6_)O_30_&#183;8H_2_O
##LOCALITY=Poona, Maharashtra, India
##OWNER=RRUFF
##SOURCE=University of Arizona Mineral Museum
##DESCRIPTION=Clear to white elongated prismatic single crystal
##STATUS=The identification of this mineral has been confirmed by X-ray diffraction and chemical analysis
##URL=rruff.info/R050013
##MEASURED CHEMISTRY=Na_2.00_Ca_2.00_(Si_9.00_Al_6.00_)O_30_Â·8H_2_O
##PIN_ID=M00325
##ORIENTATION=Laser parallel to -c* (0 0 -1). Fiducial mark perpendicular to laser is parallel to a [1 0 0]
123.377, 0.000
124.770, 13.017
126.163, 14.977
127.556, 409.723
128.949, 902.194
130.342, 1577.916
131.734, 2527.954
133.126, 2820.461
134.518, 2925.895
135.909, 2233.071
137.301, 1916.181
138.692, 1944.175
140.083, 2376.572
141.473, 3207.699
142.864, 4012.058
144.254, 4511.398
145.644, 4556.188
147.034, 4797.568
148.423, 4713.631
149.812, 5058.014
151.201, 5798.470
152.590, 6169.819
153.979, 6590.941
155.367, 6101.753
156.755, 5992.205
158.143, 5243.662
159.530, 4929.664
160.918, 4765.913
162.305, 4660.660
163.692, 4991.576
165.078, 5148.957
166.465, 5666.028
167.851, 5730.393
169.237, 5399.188
170.623, 4797.288
172.008, 3967.889
173.393, 3213.141
174.778, 2524.244
176.163, 2117.292
177.548, 1476.327
178.932, 1192.426
180.316, 1162.667
181.700, 1020.117
183.083, 1164.837
184.467, 1036.880
185.850, 918.287
187.233, 726.092
188.616, 409.401
189.998, 199.266
191.380, 46.369
192.762, 50.511
194.144, 16.101
195.525, 120.957
196.907, 236.230
198.288, 239.123
199.669, 324.103
201.049, 225.912
202.429, 277.336
203.810, 160.136
205.189, 88.714
206.569, 67.330
207.949, 72.097
209.328, 152.086
210.707, 208.326
212.085, 255.827
213.464, 227.586
214.842, 262.601
216.220, 408.862
217.598, 628.357
218.976, 1110.076
220.353, 1662.003
221.730, 2630.127
223.107, 3683.438
224.483, 4586.407
225.860, 5457.590
227.236, 5476.264
228.612, 5236.571
229.988, 4316.535
231.363, 3584.604
232.738, 2994.763
234.113, 2555.008
235.488, 2630.332
236.863, 2599.726
238.237, 3039.188
239.611, 3226.712
240.985, 3547.283
242.359, 3418.899
243.732, 2950.538
245.105, 2382.168
246.478, 1769.754
247.851, 1292.199
249.223, 980.505
250.595, 908.979
251.967, 818.843
253.339, 880.670
254.711, 1118.250
256.082, 1092.951
257.453, 1123.338
258.824, 888.503
260.195, 637.577
261.565, 372.641
262.935, 135.693
264.305, 7.264
265.675, 224.231
267.044, 246.208
268.414, 356.194
269.783, 404.189
271.151, 436.194
272.520, 486.208
273.888, 396.230
275.256, 402.261
276.624, 337.350
277.992, 318.773
279.359, 232.706
280.726, 110.242
282.093, 38.341
283.460, 102.089
284.827, 266.198
286.193, 492.204
287.559, 928.248
288.925, 1340.710
290.290, 1886.429
291.656, 2355.585
293.021, 2783.525
294.386, 2946.032
295.750, 2703.959
297.115, 2700.201
298.479, 2448.684
299.843, 2476.346
301.207, 2261.134
302.570, 2190.010
303.933, 1923.945
305.296, 1634.922
306.659, 1513.921
308.022, 1237.924
309.384, 1161.904
310.746, 1031.824
312.108, 965.678
313.470, 966.465
314.831, 765.190
316.193, 745.858
317.554, 584.456
318.914, 425.991
320.275, 432.463
321.635, 330.863
322.995, 254.189
324.355, 193.434
325.715, 212.558
327.074, 224.523
328.434, 243.266
329.792, 262.652
331.151, 258.759
332.510, 389.719
333.868, 393.553
335.226, 387.279
336.584, 414.904
337.941, 387.433
339.299, 494.871
340.656, 522.224
342.013, 595.494
343.370, 746.686
344.726, 861.803
346.082, 1065.850
347.438, 1083.829
348.794, 1279.742
350.150, 1255.593
351.505, 1317.384
352.860, 1270.118
354.215, 1165.795
355.570, 1144.907
356.924, 1004.479
358.278, 1008.748
359.632, 1000.708
360.986, 1034.048
362.339, 1064.699
363.693, 1063.755
365.046, 1155.182
366.399, 1024.274
367.751, 989.041
369.104, 959.216
370.456, 708.555
371.808, 643.282
373.159, 508.316
374.511, 401.804
375.862, 292.858
377.213, 218.726
378.564, 205.853
379.914, 159.133
381.265, 206.413
382.615, 158.695
383.965, 213.976
385.315, 272.257
386.664, 258.541
388.013, 337.818
389.362, 262.089
390.711, 301.355
392.060, 314.620
393.408, 342.885
394.756, 373.150
396.104, 347.415
397.451, 492.678
398.799, 531.941
400.146, 578.202
401.493, 754.461
402.840, 928.718
404.186, 1186.973
405.533, 1463.226
406.879, 1844.475
408.225, 2297.723
409.570, 2814.969
410.916, 3376.213
412.261, 3719.455
413.606, 4187.697
414.951, 4123.929
416.295, 4223.149
417.639, 4479.357
418.983, 4511.561
420.327, 4792.765
421.671, 4771.969
423.014, 4618.172
424.357, 4569.375
425.700, 4171.567
427.043, 4132.610
428.386, 3765.082
429.728, 3723.219
431.070, 3573.500
432.412, 3751.813
433.753, 4064.166
435.095, 4410.425
436.436, 5344.381
437.777, 5847.006
439.118, 6911.754
440.458, 7937.727
441.798, 8449.178
443.138, 9358.407
444.478, 9582.262
445.818, 9833.247
447.157, 9615.565
448.496, 9237.902
449.835, 8880.260
451.174, 8122.628
452.513, 7682.999
453.851, 6969.365
455.189, 6168.724
456.527, 5473.071
457.864, 4640.407
459.202, 4130.727
460.539, 3437.032
461.876, 2964.320
463.212, 2567.590
464.549, 2119.844
465.885, 1900.871
467.221, 1640.387
468.557, 1476.705
469.893, 1375.874
471.228, 1181.105
472.563, 1135.344
473.898, 983.237
475.233, 945.443
476.567, 820.110
477.902, 848.831
479.236, 829.842
480.570, 697.336
481.903, 783.083
483.237, 724.853
484.570, 743.317
485.903, 770.705
487.235, 770.727
488.568, 799.343
489.900, 844.078
491.232, 828.886
492.564, 844.667
493.896, 856.738
495.227, 909.815
496.558, 863.897
497.889, 932.981
499.220, 991.083
500.551, 971.188
501.881, 1199.304
503.211, 1206.420
504.541, 1380.546
505.870, 1527.677
507.200, 1776.813
508.529, 2056.961
509.858, 2281.113
511.187, 2664.279
512.515, 3022.448
513.844, 3582.613
515.172, 4314.786
516.500, 4874.959
517.827, 5970.133
519.155, 6810.308
520.482, 8351.481
521.809, 10353.671
523.136, 12105.860
524.462, 15038.062
525.789, 18210.271
527.115, 21762.494
528.441, 24834.740
529.766, 26757.025
531.092, 28399.340
532.417, 25851.699
533.742, 23914.078
535.067, 20126.471
536.391, 16848.709
537.716, 13870.545
539.040, 11327.585
540.364, 9283.287
541.688, 7422.079
543.011, 6107.157
544.334, 5154.064
545.657, 4176.329
546.980, 3571.552
548.303, 2977.044
549.625, 2519.313
550.947, 2173.761
552.269, 1748.280
553.591, 1658.811
554.913, 1358.351
556.234, 1194.900
557.555, 1018.459
558.876, 910.027
560.197, 802.605
561.517, 736.191
562.837, 656.787
564.157, 592.392
565.477, 504.006
566.797, 488.628
568.116, 423.654
569.435, 411.899
570.754, 344.549
572.073, 319.207
573.391, 295.873
574.709, 230.548
576.027, 267.232
577.345, 223.925
578.663, 216.627
579.980, 267.337
581.297, 197.055
582.614, 266.783
583.931, 230.518
585.248, 280.267
586.564, 312.057
587.880, 258.946
589.196, 264.939
590.511, 211.065
591.827, 209.335
593.142, 273.758
594.457, 156.347
595.772, 261.079
597.086, 174.953
598.401, 216.953
599.715, 227.075
601.029, 191.294
602.343, 277.578
603.656, 218.907
604.969, 225.251
606.282, 247.601
607.595, 206.957
608.908, 290.318
610.220, 218.686
611.532, 210.059
612.844, 200.437
614.156, 123.820
615.468, 126.208
616.779, 77.601
618.090, 43.000
619.401, 39.403
620.712, 9.811
622.022, 34.224
623.332, 39.358
624.642, 18.944
625.952, 49.401
627.262, 72.903
628.571, 47.287
629.880, 47.734
631.189, 66.075
632.498, 95.901
633.807, 123.289
635.115, 60.683
636.423, 89.490
637.731, 78.631
639.039, 30.910
640.346, 81.671
641.653, 57.007
642.960, 40.500
644.267, 22.951
645.574, 8.942
646.880, 41.986
648.186, 80.814
649.492, 47.735
650.798, 71.631
652.103, 108.438
653.409, 99.968
654.714, 200.785
656.019, 208.095
657.323, 290.122
658.628, 369.512
659.932, 411.628
661.236, 448.926
662.540, 595.707
663.843, 719.917
665.147, 880.061
666.450, 1082.693
667.753, 1339.768
669.056, 1462.578
670.358, 1761.565
671.660, 1794.442
672.963, 1732.535
674.264, 1771.750
675.566, 1423.848
676.868, 1297.780
678.169, 1047.432
679.470, 798.960
680.771, 710.585
682.071, 500.667
683.372, 447.159
684.672, 336.837
685.972, 322.737
687.271, 303.076
688.571, 242.571
689.870, 283.050
691.169, 258.590
692.468, 354.929
693.767, 392.353
695.065, 380.781
696.364, 459.137
697.662, 472.543
698.960, 458.923
700.257, 593.239
701.555, 571.600
702.852, 759.853
704.149, 838.154
705.446, 920.628
706.742, 1215.917
708.038, 1391.198
709.335, 1787.612
710.631, 1977.989
711.926, 2151.339
713.222, 2208.697
714.517, 2107.111
715.812, 1998.417
717.107, 1685.668
718.402, 1539.023
719.696, 1294.244
720.990, 1049.530
722.284, 903.841
723.578, 766.923
724.872, 653.181
726.165, 631.579
727.458, 501.670
728.751, 495.873
730.044, 441.061
731.336, 402.344
732.629, 405.499
733.921, 399.682
735.213, 368.883
736.504, 344.978
737.796, 316.180
739.087, 405.174
740.378, 371.250
741.669, 449.369
742.960, 514.339
744.250, 475.528
745.540, 605.508
746.830, 607.522
748.120, 720.543
749.410, 804.509
750.699, 889.547
751.988, 1052.550
753.277, 997.440
754.566, 1105.485
755.854, 1066.442
757.143, 990.356
758.431, 1077.201
759.719, 1016.800
761.006, 1012.843
762.294, 1000.621
763.581, 851.306
764.868, 842.139
766.155, 743.764
767.442, 689.369
768.728, 541.979
770.014, 458.547
771.300, 422.120
772.586, 322.649
773.872, 284.159
775.157, 261.649
776.442, 230.120
777.727, 190.571
779.012, 129.212
780.297, 92.325
781.581, 101.597
782.865, 68.980
784.149, 82.261
785.433, 55.496
786.716, 5.038
787.999, 55.220
789.282, 23.096
790.565, 17.519
791.848, 1.718
793.130, 29.573
794.413, 22.167
795.695, 14.834
796.977, 2.533
798.258, 30.529
799.540, 36.110
800.821, 22.260
802.102, 34.455
803.382, 19.701
804.663, 34.990
805.943, 33.331
807.224, 28.724
808.504, 17.164
809.783, 72.648
811.063, 20.204
812.342, 41.805
813.621, 5.461
814.900, 40.154
816.179, 15.903
817.457, 22.695
818.736, 37.532
820.014, 13.424
821.292, 52.358
822.569, 0.353
823.847, 16.617
825.124, 17.440
826.401, 13.459
827.678, 10.330
828.954, 13.172
830.231, 17.985
831.507, 14.228
832.783, 42.517
834.059, 31.240
835.334, 12.938
836.610, 48.609
837.885, 27.257
839.160, 17.881
840.435, 82.479
841.709, 44.055
842.983, 46.609
844.258, 36.140
845.532, 77.649
846.805, 56.136
848.079, 54.602
849.352, 71.045
850.625, 59.467
851.898, 64.867
853.171, 80.245
854.443, 68.602
855.715, 92.938
856.988, 80.253
858.259, 38.546
859.531, 79.818
860.803, 80.068
862.074, 46.297
863.345, 53.504
864.616, 57.689
865.886, 53.852
867.157, 38.994
868.427, 62.113
869.697, 73.211
870.967, 46.288
872.236, 76.343
873.506, 58.377
874.775, 50.391
876.044, 102.382
877.313, 58.354
878.581, 29.305
879.849, 93.234
881.118, 64.142
882.386, 65.030
883.653, 39.896
884.921, 67.742
886.188, 58.567
887.455, 51.373
888.722, 74.159
889.989, 45.925
891.255, 92.670
892.522, 70.396
893.788, 57.104
895.054, 89.792
896.319, 34.461
897.585, 81.108
898.850, 69.737
900.115, 64.346
901.380, 73.935
902.645, 52.505
903.909, 57.054
905.174, 79.584
906.438, 38.095
907.701, 54.586
908.965, 60.058
910.229, 71.510
911.492, 55.944
912.755, 84.359
914.018, 72.756
915.280, 90.135
916.543, 49.496
917.805, 103.838
919.067, 107.163
920.329, 87.471
921.590, 111.761
922.852, 86.035
924.113, 112.292
925.374, 167.532
926.635, 142.756
927.895, 181.963
929.156, 177.155
930.416, 203.331
931.676, 225.495
932.936, 238.516
934.195, 299.566
935.454, 347.477
936.714, 357.434
937.973, 395.269
939.231, 335.570
940.490, 334.408
941.748, 314.221
943.006, 248.428
944.264, 247.944
945.522, 231.578
946.780, 251.678
948.037, 225.332
949.294, 220.125
950.551, 223.865
951.808, 211.254
953.064, 206.484
954.320, 239.923
955.577, 197.261
956.832, 223.615
958.088, 201.051
959.344, 197.754
960.599, 247.162
961.854, 255.068
963.109, 296.248
964.364, 348.056
965.618, 420.130
966.872, 512.011
968.127, 523.401
969.380, 652.353
970.634, 648.362
971.888, 658.874
973.141, 688.934
974.394, 657.251
975.647, 659.382
976.900, 638.615
978.152, 582.628
979.404, 631.510
980.656, 580.503
981.908, 667.657
983.160, 755.083
984.411, 794.633
985.663, 970.076
986.914, 1022.054
988.165, 1112.614
989.415, 1282.980
990.666, 1265.115
991.916, 1450.808
993.166, 1659.337
994.416, 1776.871
995.665, 2103.336
996.915, 2311.991
998.164, 2586.555
999.413, 2688.107
1000.662, 2579.725
1001.911, 2392.292
1003.159, 1938.878
1004.407, 1555.526
1005.655, 1339.121
1006.903, 1102.816
1008.151, 962.455
1009.398, 877.914
1010.646, 708.550
1011.893, 720.194
1013.139, 688.695
1014.386, 694.226
1015.633, 697.773
1016.879, 688.303
1018.125, 745.769
1019.371, 769.330
1020.616, 792.936
1021.862, 930.429
1023.107, 1016.047
1024.352, 1262.655
1025.597, 1481.174
1026.842, 1616.903
1028.086, 2002.445
1029.330, 2190.837
1030.574, 2516.526
1031.818, 2794.098
1033.062, 2886.674
1034.305, 3002.333
1035.548, 3074.736
1036.791, 2922.888
1038.034, 2783.418
1039.277, 2513.134
1040.519, 2417.648
1041.762, 2187.367
1043.004, 1976.429
1044.246, 1944.095
1045.487, 1746.824
1046.729, 1543.307
1047.970, 1504.987
1049.211, 1300.624
1050.452, 1259.241
1051.692, 1189.902
1052.933, 1112.477
1054.173, 1148.073
1055.413, 1188.775
1056.653, 1207.306
1057.893, 1317.909
1059.132, 1294.612
1060.371, 1431.294
1061.610, 1448.915
1062.849, 1432.657
1064.088, 1560.355
1065.326, 1448.128
1066.565, 1545.736
1067.803, 1609.537
1069.041, 1590.344
1070.278, 1798.128
1071.516, 1775.936
1072.753, 1913.722
1073.990, 1984.535
1075.227, 1989.350
1076.464, 2162.167
1077.700, 2201.181
1078.936, 2202.003
1080.173, 2321.826
1081.408, 2196.651
1082.644, 2149.482
1083.880, 2099.314
1085.115, 1905.150
1086.350, 1817.989
1087.585, 1663.831
1088.820, 1404.684
1090.054, 1344.539
1091.288, 1119.412
1092.522, 1072.347
1093.756, 958.244
1094.990, 841.158
1096.224, 831.088
1097.457, 824.030
1098.690, 773.980
1099.923, 770.701
1101.156, 775.693
1102.388, 771.026
1103.621, 767.044
1104.853, 760.077
1106.085, 715.462
1107.316, 659.532
1108.548, 640.975
1109.779, 593.077
1111.010, 550.399
1112.241, 518.789
1113.472, 477.985
1114.703, 442.162
1115.933, 439.359
1117.163, 417.589
1118.393, 416.834
1119.623, 415.170
1120.853, 396.712
1122.082, 430.946
1123.311, 379.290
1124.540, 371.889
1125.769, 387.267
1126.997, 355.587
1128.226, 362.459
1129.454, 350.830
1130.682, 264.171
1131.910, 284.489
1133.138, 249.987
1134.365, 253.374
1135.592, 236.962
1136.819, 170.358
1138.046, 159.771
1139.273, 152.810
1140.499, 129.197
1141.725, 151.674
1142.951, 146.148
1144.177, 88.546
1145.403, 130.075
1146.628, 75.478
1147.854, 72.963
1149.079, 79.710
1150.304, 76.131
1151.528, 77.593
1152.753, 68.100
1153.977, 56.528
1155.201, 64.050
1156.425, 58.574
1157.649, 51.128
1158.872, 64.572
1160.096, 34.050
1161.319, 39.120
1162.542, 23.618
1163.764, 22.111
1164.987, 38.604
1166.209, 15.084
1167.431, 19.590
1168.653, 27.111
1169.875, 34.647
1171.097, 6.834
1172.318, 1.354
1173.539, 0.102
1174.760, 23.236
1175.981, 10.867
1177.202, 49.330
1178.422, 13.134
1179.642, 12.667
1180.862, 1.236
1182.082, 19.817
1183.302, 27.687
1184.521, 16.703
1185.740, 7.723
1186.959, 0.220
1188.178, 19.417
1189.397, 21.041
1190.615, 7.480
1191.834, 1.718
1193.052, 5.148
1194.269, 11.619
1195.487, 13.552
1196.705, 18.212
1197.922, 14.389
1199.139, 18.095
1200.356, 14.630
1201.573, 3.372
1202.789, 15.920
1204.006, 19.488
1205.222, 5.387
1206.438, 14.091
1207.653, 18.722
1208.869, 1.289
1210.084, 16.767
1211.299, 16.307
1212.514, 20.945
1213.729, 26.013
1214.944, 34.468
1216.158, 31.000
1217.372, 38.476
1218.586, 29.643
1219.800, 48.696
1221.014, 11.527
1222.227, 1.079
1223.440, 8.448
1224.654, 1.488
1225.866, 34.012
1227.079, 29.480
1228.292, 31.569
1229.504, 27.114
1230.716, 23.692
1231.928, 14.380
1233.139, 29.887
1234.351, 17.365
1235.562, 18.838
1236.773, 45.377
1237.984, 1.091
1239.195, 6.386
1240.406, 42.851
1241.616, 7.316
1242.826, 35.783
1244.036, 19.248
1245.246, 17.287
1246.456, 7.200
1247.665, 8.307
1248.874, 35.161
1250.083, 23.620
1251.292, 7.704
1252.501, 32.786
1253.709, 7.764
1254.917, 25.815
1256.125, 5.244
1257.333, 8.127
1258.541, 7.298
1259.748, 29.711
1260.956, 17.188
1262.163, 11.599
1263.370, 12.007
1264.576, 0.537
1265.783, 5.692
1266.989, 1.661
1268.195, 6.780
1269.401, 3.844
1270.607, 16.470
1271.813, 36.953
1273.018, 7.633
1274.223, 15.218
1275.428, 45.196
1276.633, 29.463
1277.838, 0.929
1279.042, 17.242
1280.246, 0.389
1281.450, 19.495
1282.654, 16.782
1283.858, 22.891
1285.061, 31.407
1286.265, 5.650
1287.468, 7.884
1288.671, 27.115
1289.873, 3.334
1291.076, 45.531
1292.278, 9.719
1293.480, 0.099
1294.682, 27.097
1295.884, 18.265
1297.086, 8.416
1298.287, 28.562
1299.488, 6.700
1300.689, 8.172
1301.890, 42.944
1303.091, 29.946
1304.291, 21.142
1305.491, 2.779
1306.691, 18.292
1307.891, 20.355
1309.091, 21.411
1310.290, 25.460
1311.490, 20.018
1312.689, 17.538
1313.888, 14.566
1315.086, 19.584
1316.285, 29.528
1317.483, 36.518
1318.681, 1.495
1319.879, 8.486
1321.077, 53.458
1322.275, 11.578
1323.472, 21.370
1324.669, 13.311
1325.866, 12.242
1327.063, 32.162
1328.260, 20.528
1329.456, 13.365
1330.653, 30.152
1331.849, 39.987
1333.045, 21.859
1334.240, 16.260
1335.436, 6.995
1336.631, 4.796
1337.826, 44.604
1339.021, 0.405
1340.216, 23.195
1341.411, 0.976
1342.605, 9.747
1343.799, 25.508
1344.993, 24.738
1346.187, 22.997
1347.381, 18.724
1348.574, 1.442
1349.767, 41.078
1350.961, 13.814
1352.153, 19.504
1353.346, 49.187
1354.539, 14.894
1355.731, 22.560
1356.923, 3.219
1358.115, 3.132
1359.307, 28.506
1360.498, 49.137
1361.690, 15.761
1362.881, 17.378
1364.072, 8.988
1365.263, 23.589
1366.453, 78.181
1367.644, 6.571
1368.834, 29.150
1370.024, 68.722
1371.214, 2.389
1372.404, 40.949
1373.593, 19.507
1374.783, 14.042
1375.972, 32.562
1377.161, 39.075
1378.349, 41.301
1379.538, 26.472
1380.726, 28.683
1381.915, 42.888
1383.103, 85.300
1384.290, 47.128
1385.478, 86.301
1386.665, 62.108
1387.853, 49.876
1389.040, 39.538
1390.227, 38.633
1391.413, 44.731
1392.600, 78.719
1393.786, 18.556
1394.972, 39.245
1396.158, 53.094
1397.344, 21.308
1398.530, 85.024
1399.715, 16.824
1400.900, 44.518
1402.085, 48.437
1403.270, 28.268
1404.455, 58.097
1405.639, 50.853
1406.824, 21.234
1408.008, 55.056
1409.192, 52.814
1410.375, 32.351
1411.559, 61.145
1412.742, 40.045
1413.925, 26.682
1415.108, 28.346
1416.291, 26.937
1417.474, 25.488
1418.656, 57.205
1419.839, 25.736
1421.021, 68.516
1422.202, 25.959
1423.384, 3.434
1424.566, 41.063
1425.747, 18.824
1426.928, 23.135
1428.109, 55.613
1429.290, 57.113
1430.470, 30.498
1431.651, 51.507
1432.831, 45.119
1434.011, 40.288
1435.191, 58.404
1436.370, 22.611
1437.550, 38.570
1438.729, 27.123
1439.908, 38.299
1441.087, 71.069
1442.266, 32.502
1443.444, 45.839
1444.623, 64.920
1445.801, 31.728
1446.979, 71.195
1448.157, 39.177
1449.334, 43.074
1450.512, 45.939
1451.689, 62.929
1452.866, 51.880
1454.043, 93.741
1455.220, 33.525
1456.396, 66.858
1457.573, 50.567
1458.749, 39.048
1459.925, 31.344
1461.100, 60.955
1462.276, 22.676
1463.451, 62.036
1464.627, 64.542
1465.802, 17.199
1466.977, 67.506
1468.151, 35.707
1469.326, 39.038
1470.500, 72.385
1471.674, 34.138
1472.848, 26.367
1474.022, 52.924
1475.195, 17.456
1476.369, 73.091
1477.542, 44.635
1478.715, 33.261
1479.888, 60.898
1481.061, 30.543
1482.233, 55.191
1483.405, 45.852
1484.577, 46.492
1485.749, 33.106
1486.921, 26.655
1488.093, 21.291
1489.264, 7.890
1490.435, 8.489
1491.606, 0.905
1492.777, 49.704
1493.948, 42.344
1495.118, 0.947
1496.288, 39.841
1497.459, 14.651
1498.628, 23.482
1499.798, 43.333
1500.968, 2.205
1502.137, 31.105
1503.306, 41.044
1504.475, 6.033
1505.644, 27.668
1506.813, 57.334
1507.981, 23.421
1509.149, 37.556
1510.318, 9.741
1511.485, 1.016
1512.653, 40.431
1513.821, 27.081
1514.988, 29.288
1516.155, 80.458
1517.322, 0.000
##END=



