##NAMES=Mesolite
##RRUFFID=R050013
##IDEAL CHEMISTRY=Na_2_Ca_2_(Si_9_Al_6_)O_30_&#183;8H_2_O
##LOCALITY=Poona, Maharashtra, India
##OWNER=RRUFF
##SOURCE=University of Arizona Mineral Museum
##DESCRIPTION=Clear to white elongated prismatic single crystal
##STATUS=The identification of this mineral has been confirmed by X-ray diffraction and chemical analysis
##URL=rruff.info/R050013
##MEASURED CHEMISTRY=Na_2.00_Ca_2.00_(Si_9.00_Al_6.00_)O_30_Â·8H_2_O
##PIN_ID=M00096
##ORIENTATION=Laser parallel to b* (0 1 0). Fiducial mark perpendicular to laser is parallel to c [0 0 1]
88.54200, 0.0000000E+00
89.77700, 269.4355
91.01200, 1018.568
92.24600, 1405.785
93.48000, 1948.061
94.71400, 2554.189
95.94800, 2826.531
97.18200, 3092.700
98.41600, 3551.758
99.64900, 3656.342
100.8830, 3649.436
102.1160, 3743.068
103.3490, 4003.629
104.5820, 4608.258
105.8150, 5052.752
107.0470, 5247.350
108.2800, 4150.197
109.5120, 2711.035
110.7440, 1826.662
111.9760, 1361.711
113.2080, 1127.609
114.4400, 769.8809
115.6710, 598.1406
116.9030, 499.0820
118.1340, 338.5137
119.3650, 215.8691
120.5960, 118.1797
121.8270, 52.95312
123.0580, 12.83398
124.2880, 160.2910
125.5190, 36.53711
126.7490, 93.88672
127.9790, 217.6973
129.2090, 554.5742
130.4390, 653.6406
131.6680, 1003.135
132.8980, 1469.287
134.1270, 2189.982
135.3560, 2593.172
136.5850, 2876.898
137.8140, 2954.195
139.0430, 3065.100
140.2710, 2928.643
141.5000, 3031.852
142.7280, 3490.744
143.9560, 3846.340
145.1840, 4555.656
146.4120, 5082.709
147.6390, 5745.293
148.8670, 5428.613
150.0940, 5228.211
151.3210, 4431.639
152.5490, 4177.457
153.7750, 3951.225
155.0020, 4130.988
156.2290, 4169.359
157.4550, 4475.082
158.6810, 4302.727
159.9080, 4318.045
161.1340, 4147.039
162.3590, 3838.811
163.5850, 3593.023
164.8110, 3348.582
166.0360, 3396.270
167.2610, 3396.166
168.4860, 3473.207
169.7110, 3696.910
170.9360, 3653.727
172.1610, 3678.426
173.3850, 3685.303
174.6100, 3388.957
175.8340, 3021.305
177.0580, 2643.668
178.2820, 2559.154
179.5050, 2485.479
180.7290, 2466.562
181.9520, 2287.689
183.1760, 2090.869
184.3990, 1941.096
185.6220, 1663.363
186.8450, 1461.664
188.0670, 1313.992
189.2900, 1192.346
190.5120, 1118.717
191.7340, 926.1016
192.9560, 659.4883
194.1780, 721.8672
195.4000, 553.2246
196.6220, 362.5566
197.8430, 809.8574
199.0640, 527.1270
200.2860, 549.3594
201.5070, 506.5566
202.7270, 385.7168
203.9480, 192.8301
205.1690, 41.89062
206.3890, 22.89062
207.6090, 45.17383
208.8290, 249.3066
210.0490, 119.1465
211.2690, 322.2148
212.4890, 10.74023
213.7080, 141.5820
214.9280, 226.9492
216.1470, 60.36133
217.3660, 85.40234
218.5850, 135.5059
219.8030, 232.6719
221.0220, 92.90820
222.2400, 118.3125
223.4590, 4.013672
224.6770, 89.85352
225.8950, 182.0449
227.1120, 106.7754
228.3300, 50.26367
229.5480, 190.5977
230.7650, 132.8184
231.9820, 38.25391
233.1990, 304.2402
234.4160, 221.5645
235.6330, 320.2324
236.8490, 319.4648
238.0660, 242.5801
239.2820, 575.9258
240.4980, 454.5508
241.7140, 567.9922
242.9300, 462.6699
244.1460, 609.4434
245.3610, 721.8262
246.5770, 394.9766
247.7920, 323.5000
249.0070, 51.86328
250.2220, 94.45703
251.4370, 15.61914
252.6510, 220.2930
253.8660, 183.4668
255.0800, 155.5488
256.2940, 75.27148
257.5080, 54.62500
258.7220, 133.0273
259.9360, 155.0586
261.1490, 184.1855
262.3630, 113.3750
263.5760, 39.38086
264.7890, 27.11523
266.0020, 34.19531
267.2150, 31.58398
268.4270, 162.5391
269.6400, 250.9961
270.8520, 334.4590
272.0640, 414.5176
273.2760, 530.8691
274.4880, 747.0723
275.7000, 821.2168
276.9120, 848.2852
278.1230, 817.2715
279.3340, 1160.168
280.5450, 1433.975
281.7560, 1504.691
282.9670, 1807.322
284.1780, 2177.863
285.3880, 2410.320
286.5980, 2574.697
287.8090, 2717.988
289.0190, 2742.199
290.2290, 2811.330
291.4380, 2993.383
292.6480, 3017.359
293.8570, 3361.242
295.0670, 3216.875
296.2760, 3264.188
297.4850, 2871.336
298.6930, 2553.242
299.9020, 2176.955
301.1110, 1727.422
302.3190, 1600.746
303.5270, 1326.957
304.7350, 1198.109
305.9430, 858.2090
307.1510, 869.2500
308.3580, 815.2324
309.5660, 514.1582
310.7730, 354.0234
311.9800, 538.8242
313.1870, 596.5664
314.3940, 560.2461
315.6010, 494.7695
316.8070, 539.0645
318.0130, 535.0723
319.2200, 533.9453
320.4260, 550.9590
321.6310, 478.0781
322.8370, 577.3848
324.0430, 504.5156
325.2480, 548.2344
326.4540, 427.6191
327.6590, 479.6035
328.8640, 339.5645
330.0680, 191.4902
331.2730, 159.3457
332.4780, 320.1230
333.6820, 215.8438
334.8860, 182.4961
336.0900, 136.0703
337.2940, 103.5645
338.4980, 175.6289
339.7010, 300.2988
340.9050, 362.5645
342.1080, 564.7754
343.3110, 691.9297
344.5140, 752.0312
345.7170, 794.0781
346.9200, 956.0723
348.1220, 1005.012
349.3240, 1214.896
350.5270, 1039.582
351.7290, 1062.781
352.9310, 1299.350
354.1320, 1441.104
355.3340, 1352.164
356.5350, 1227.584
357.7370, 1166.967
358.9380, 1022.426
360.1390, 1012.006
361.3400, 1027.443
362.5400, 949.2969
363.7410, 840.6152
364.9410, 690.7617
366.1410, 540.0293
367.3410, 657.9316
368.5410, 496.3770
369.7410, 446.5527
370.9400, 433.3379
372.1400, 262.0801
373.3390, 166.6797
374.5380, 181.3242
375.7370, 164.9160
376.9360, 47.10547
378.1350, 104.4746
379.3330, 183.2656
380.5310, 171.9727
381.7300, 218.4180
382.9280, 88.82812
384.1260, 62.59375
385.3230, 87.91406
386.5210, 8.140625
387.7180, 15.23438
388.9160, 77.19727
390.1130, 125.0566
391.3100, 39.81836
392.5060, 291.4590
393.7030, 280.7402
394.9000, 149.6406
396.0960, 349.6504
397.2920, 382.5488
398.4880, 234.4590
399.6840, 520.8125
400.8800, 654.5645
402.0750, 802.4648
403.2710, 1071.416
404.4660, 1095.633
405.6610, 1428.730
406.8560, 1399.988
408.0510, 1738.000
409.2450, 1944.152
410.4400, 1971.541
411.6340, 2255.820
412.8280, 2322.244
414.0220, 2485.783
415.2160, 2516.277
416.4100, 2373.717
417.6030, 2395.107
418.7970, 2330.441
419.9900, 2495.721
421.1830, 2125.945
422.3760, 2279.117
423.5690, 2095.236
424.7610, 1920.301
425.9540, 2099.312
427.1460, 2207.273
428.3380, 1784.184
429.5300, 1958.041
430.7220, 2116.848
431.9140, 1960.602
433.1050, 2158.307
434.2970, 2301.961
435.4880, 2464.566
436.6790, 2575.504
437.8700, 2592.629
439.0610, 2714.088
440.2510, 2876.504
441.4420, 2837.871
442.6320, 3180.195
443.8220, 2941.477
445.0120, 3019.713
446.2020, 2864.908
447.3910, 2621.064
448.5810, 2792.180
449.7700, 2306.256
450.9600, 2235.289
452.1490, 1947.283
453.3370, 1696.238
454.5260, 1535.152
455.7150, 1254.029
456.9030, 1276.865
458.0910, 1110.666
459.2800, 910.4258
460.4670, 683.2559
461.6550, 633.9434
462.8430, 654.5996
464.0300, 606.2207
465.2180, 567.8066
466.4050, 497.3633
467.5920, 379.8867
468.7790, 330.3828
469.9650, 251.6992
471.1520, 319.6230
472.3380, 291.9688
473.5250, 414.2949
474.7110, 375.4160
475.8970, 356.8496
477.0820, 266.6875
478.2680, 258.3887
479.4540, 229.3242
480.6390, 297.8340
481.8240, 323.0801
483.0090, 398.7812
484.1940, 474.6348
485.3780, 541.3828
486.5630, 609.4453
487.7470, 585.4785
488.9320, 571.4902
490.1160, 611.5938
491.3000, 497.4336
492.4830, 643.3691
493.6670, 806.2812
494.8500, 811.1934
496.0340, 1110.100
497.2170, 1004.037
498.4000, 1147.033
499.5820, 1313.094
500.7650, 1545.139
501.9480, 1503.199
503.1300, 1895.293
504.3120, 2128.416
505.4940, 2178.543
506.6760, 2602.688
507.8580, 2985.893
509.0390, 3527.107
510.2210, 3865.389
511.4020, 4066.668
512.5830, 4962.969
513.7640, 5701.287
514.9450, 6584.488
516.1250, 7673.770
517.3060, 9244.154
518.4860, 10917.53
519.6660, 13090.73
520.8460, 15483.83
522.0260, 18053.97
523.2060, 20836.81
524.3850, 23393.72
525.5650, 25853.77
526.7440, 27840.50
527.9230, 29817.33
529.1020, 31052.60
530.2810, 32211.23
531.4590, 32940.65
532.6380, 33151.64
533.8160, 32074.56
534.9940, 29783.61
536.1720, 26460.82
537.3500, 22645.35
538.5270, 18867.67
539.7050, 15687.12
540.8820, 12785.57
542.0590, 10629.20
543.2360, 8758.832
544.4130, 7455.496
545.5900, 6086.160
546.7660, 5181.887
547.9430, 4634.688
549.1190, 4115.543
550.2950, 3647.412
551.4710, 3188.301
552.6470, 2687.230
553.8220, 2576.195
554.9980, 2437.992
556.1730, 2320.953
557.3480, 1868.914
558.5230, 1814.873
559.6980, 1489.830
560.8730, 1526.789
562.0470, 1571.744
563.2220, 1205.701
564.3960, 1084.656
565.5700, 888.6133
566.7440, 785.5664
567.9170, 714.5234
569.0910, 721.4785
570.2640, 687.4355
571.4380, 536.3945
572.6110, 656.3535
573.7840, 450.3145
574.9570, 506.2773
576.1290, 531.2402
577.3020, 261.2070
578.4740, 185.1758
579.6460, 320.1465
580.8180, 241.1191
581.9900, 226.0957
583.1620, 428.0742
584.3330, 244.0547
585.5040, 258.0391
586.6760, 322.0293
587.8470, 320.0195
589.0180, 299.8438
590.1880, 281.5430
591.3590, 214.0156
592.5290, 217.0254
593.7000, 159.0605
594.8700, 198.0762
596.0400, 152.1465
597.2090, 126.2441
598.3790, 76.27539
599.5490, 63.31055
600.7180, 12.65234
601.8870, 100.3906
603.0560, 53.80859
604.2250, 91.39453
605.3940, 38.55273
606.5620, 144.6172
607.7300, 86.68750
608.8990, 82.76367
610.0670, 99.15430
611.2350, 191.0859
612.4020, 157.0664
613.5700, 5.916016
614.7370, 55.92578
615.9050, 240.9668
617.0720, 352.0176
618.2390, 422.0938
619.4060, 482.1934
620.5720, 740.3301
621.7390, 779.5059
622.9050, 923.7129
624.0710, 1307.932
625.2370, 1214.164
626.4030, 1230.402
627.5690, 990.6484
628.7340, 712.8984
629.9000, 501.1602
631.0650, 383.8496
632.2300, 297.1230
633.3950, 352.4043
634.5600, 159.0703
635.7240, 303.3652
636.8890, 186.8477
638.0530, 99.38672
639.2170, 345.7188
640.3810, 343.4277
641.5450, 490.0840
642.7080, 372.6055
643.8720, 685.6348
645.0350, 758.5371
646.1980, 686.2207
647.3610, 630.8047
648.5240, 815.9590
649.6870, 826.5469
650.8490, 767.3086
652.0120, 737.3535
653.1740, 768.7598
654.3360, 573.2051
655.4980, 424.4805
656.6600, 398.3398
657.8210, 187.7520
658.9830, 245.5215
660.1440, 316.2109
661.3050, 282.0293
662.4660, 153.6543
663.6270, 394.4512
664.7870, 130.6152
665.9480, 162.6582
667.1080, 105.5723
668.2680, 9.710938
669.4280, 166.6914
670.5880, 241.0938
671.7480, 172.3379
672.9070, 44.71094
674.0670, 29.61133
675.2260, 117.0820
676.3850, 17.07422
677.5440, 4.400391
678.7030, 224.0820
679.8610, 129.7793
681.0200, 117.1289
682.1780, 64.93555
683.3360, 66.53320
684.4940, 84.65625
685.6520, 146.6875
686.8090, 134.2441
687.9670, 264.4043
689.1240, 256.5625
690.2810, 198.7656
691.4380, 172.2539
692.5950, 84.39258
693.7520, 21.47070
694.9080, 148.6504
696.0650, 312.7676
697.2210, 80.87695
698.3770, 340.9824
699.5330, 170.0801
700.6880, 614.1738
701.8440, 600.2598
702.9990, 810.3418
704.1550, 1107.414
705.3100, 1238.482
706.4650, 1408.543
707.6190, 1581.600
708.7740, 1769.646
709.9290, 1882.688
711.0830, 2082.723
712.2370, 2107.752
713.3910, 2123.775
714.5450, 2043.789
715.6980, 1963.797
716.8520, 1646.797
718.0050, 1433.791
719.1580, 1373.775
720.3110, 1083.758
721.4640, 881.7285
722.6170, 653.6934
723.7700, 454.6484
724.9220, 549.5996
726.0740, 476.5410
727.2260, 592.4746
728.3780, 253.4004
729.5300, 203.3164
730.6810, 467.2285
731.8330, 95.12891
732.9840, 141.0234
734.1350, 249.9082
735.2860, 74.78516
736.4370, 311.6504
737.5880, 442.5098
738.7380, 292.3594
739.8880, 163.0957
741.0390, 268.9297
742.1890, 268.7520
743.3380, 405.5684
744.4880, 754.3730
745.6380, 790.1699
746.7870, 744.9590
747.9360, 1035.738
749.0850, 1010.654
750.2340, 922.9238
751.3830, 1122.320
752.5310, 1001.057
753.6800, 1078.791
754.8280, 944.5176
755.9760, 996.2324
757.1240, 898.9414
758.2720, 928.6406
759.4190, 861.3281
760.5670, 917.0078
761.7140, 669.6758
762.8610, 574.3359
764.0080, 601.9844
765.1550, 523.6250
766.3020, 326.2539
767.4480, 315.8730
768.5950, 25.48242
769.7410, 259.0781
770.8870, 150.6621
772.0330, 52.76562
773.1780, 152.7578
774.3240, 81.26953
775.4690, 160.2324
776.6140, 28.84180
777.7590, 36.55078
778.9040, 48.88672
780.0490, 82.52148
781.1940, 85.30078
782.3380, 19.93750
783.4820, 50.16211
784.6260, 60.62891
785.7700, 11.25195
786.9140, 171.1758
788.0580, 14.16406
789.2010, 34.18359
790.3450, 103.2480
791.4880, 119.3965
792.6310, 36.63477
793.7730, 36.07812
794.9160, 212.7754
796.0590, 122.5352
797.2010, 8.943359
798.3430, 66.61914
799.4850, 195.2168
800.6270, 115.7500
801.7690, 52.26953
802.9100, 9.771484
804.0520, 138.2461
805.1930, 150.2930
806.3340, 154.9844
807.4750, 47.32031
808.6160, 6.361328
809.7560, 70.18750
810.8970, 6.451172
812.0370, 26.04492
813.1770, 88.19531
814.3170, 1.423828
815.4570, 17.69531
816.5960, 81.67773
817.7360, 111.2559
818.8750, 39.20703
820.0140, 279.1016
821.1530, 179.9785
822.2920, 94.84180
823.4310, 60.68750
824.5690, 211.5098
825.7070, 168.3203
826.8460, 136.1113
827.9840, 66.88672
829.1220, 161.6445
830.2590, 156.3867
831.3970, 334.2793
832.5340, 192.9863
833.6710, 335.6797
834.8080, 246.3555
835.9450, 177.0176
837.0820, 370.6621
838.2190, 212.2910
839.3550, 256.9062
840.4910, 609.5039
841.6270, 509.0859
842.7630, 427.6523
843.8990, 401.2012
845.0350, 408.7188
846.1700, 618.2578
847.3060, 512.7637
848.4410, 586.2500
849.5760, 668.7246
850.7100, 652.1797
851.8450, 813.6211
852.9800, 716.0488
854.1140, 901.4609
855.2480, 1143.855
856.3820, 1035.236
857.5160, 1239.602
858.6500, 1379.951
859.7830, 1412.287
860.9170, 1475.418
862.0500, 1205.910
863.1830, 1404.201
864.3160, 1045.477
865.4480, 861.7363
866.5810, 955.9805
867.7130, 1062.211
868.8460, 658.4004
869.9780, 651.6016
871.1100, 333.7852
872.2410, 535.8359
873.3730, 561.9922
874.5050, 452.1699
875.6360, 366.3340
876.7670, 524.4902
877.8980, 318.6328
879.0290, 581.7637
880.1590, 446.8770
881.2900, 278.9785
882.4200, 292.0664
883.5500, 287.1426
884.6800, 352.2148
885.8100, 395.2812
886.9400, 326.3672
888.0690, 222.4570
889.1990, 187.5664
890.3280, 507.6602
891.4570, 308.7578
892.5860, 438.8633
893.7140, 234.9570
894.8430, 232.9102
895.9710, 458.1074
897.1000, 226.1621
898.2280, 274.1992
899.3560, 403.2305
900.4830, 377.2441
901.6110, 442.5566
902.7380, 319.2344
903.8660, 431.2109
904.9930, 399.7500
906.1200, 249.6992
907.2460, 393.6367
908.3730, 302.1855
909.5000, 267.0957
910.6260, 314.8184
911.7520, 290.4746
912.8780, 78.35742
914.0040, 140.8535
915.1290, 196.4004
916.2550, 43.07031
917.3800, 137.2305
918.5050, 106.5059
919.6300, 212.0234
920.7550, 172.6367
921.8800, 30.66992
923.0040, 153.2617
924.1290, 106.6777
925.2530, 79.80078
926.3770, 175.5586
927.5010, 177.2793
928.6250, 186.6719
929.7480, 478.5176
930.8720, 320.3164
931.9950, 148.8047
933.1180, 444.4004
934.2410, 6.933594
935.3640, 339.7422
936.4860, 217.4648
937.6090, 217.9141
938.7310, 508.5566
939.8530, 359.3477
940.9750, 189.9316
942.0970, 173.7344
943.2180, 281.1484
944.3400, 80.25781
945.4610, 135.1992
946.5820, 227.3828
947.7030, 120.4551
948.8240, 129.4727
949.9450, 75.85547
951.0650, 306.9746
952.1860, 185.0703
953.3060, 0.4804690
954.4260, 64.50000
955.5460, 12.10547
956.6650, 348.7090
957.7850, 186.0801
958.9040, 164.2930
960.0230, 359.8906
961.1420, 240.4883
962.2610, 548.0293
963.3800, 245.2852
964.4990, 386.8770
965.6170, 463.4668
966.7350, 618.0625
967.8530, 471.6602
968.9710, 506.2559
970.0890, 656.8516
971.2070, 811.4473
972.3240, 756.0410
973.4410, 744.6348
974.5580, 648.2266
975.6750, 867.8203
976.7920, 758.4141
977.9090, 922.0078
979.0250, 512.5996
980.1410, 587.1914
981.2580, 590.7832
982.3740, 428.3770
983.4890, 331.9727
984.6050, 460.5664
985.7200, 598.1602
986.8360, 584.7559
987.9510, 344.3516
989.0660, 737.9492
990.1810, 527.5488
991.2950, 712.1484
992.4100, 676.7500
993.5240, 590.3496
994.6390, 466.9531
995.7530, 847.5547
996.8660, 1089.160
997.9800, 1058.770
999.0940, 1265.377
1000.207, 1544.988
1001.320, 1906.600
1002.433, 1762.213
1003.546, 1625.830
1004.659, 919.4492
1005.772, 379.0703
1006.884, 510.6953
1007.996, 404.9336
1009.108, 465.5625
1010.220, 257.6680
1011.332, 267.3008
1012.444, 350.9375
1013.555, 246.5762
1014.666, 586.2168
1015.777, 588.8613
1016.888, 692.5117
1017.999, 702.3340
1019.110, 652.9844
1020.220, 1061.639
1021.331, 1075.295
1022.441, 1036.377
1023.551, 982.0391
1024.661, 1076.293
1025.770, 1341.213
1026.880, 1280.268
1027.989, 1218.938
1029.098, 1461.611
1030.207, 1441.287
1031.316, 1457.963
1032.425, 1519.645
1033.533, 1478.328
1034.642, 1614.016
1035.750, 1770.705
1036.858, 2091.635
1037.966, 2119.330
1039.073, 2630.031
1040.181, 2909.734
1041.288, 3031.439
1042.396, 2968.170
1043.503, 3215.902
1044.610, 3109.641
1045.716, 3101.801
1046.823, 2738.566
1047.929, 2210.379
1049.036, 2010.195
1050.142, 1755.840
1051.248, 1198.695
1052.353, 1021.957
1053.459, 946.8242
1054.564, 619.7168
1055.670, 742.4473
1056.775, 754.4082
1057.880, 411.3809
1058.985, 435.3770
1060.089, 362.3438
1061.194, 507.4199
1062.298, 326.0176
1063.402, 116.1230
1064.506, 302.3574
1065.610, 248.5078
1066.713, 277.6738
1067.817, 412.7910
1068.920, 326.9648
1070.023, 137.1426
1071.126, 282.6953
1072.229, 237.8887
1073.332, 162.0840
1074.435, 379.9277
1075.537, 318.1797
1076.639, 624.4336
1077.741, 649.4355
1078.843, 738.7090
1079.945, 827.9961
1081.046, 838.6367
1082.148, 853.1191
1083.249, 839.3184
1084.350, 821.7012
1085.451, 817.1191
1086.551, 793.5098
1087.652, 722.9434
1088.752, 799.3789
1089.853, 887.8242
1090.953, 750.2715
1092.053, 731.7246
1093.152, 717.1836
1094.252, 841.6504
1095.351, 897.1191
1096.451, 702.5938
1097.550, 947.0723
1098.649, 647.5566
1099.748, 761.7051
1100.846, 538.1992
1101.945, 430.7188
1103.043, 574.2441
1104.141, 448.7734
1105.239, 627.3066
1106.337, 521.8457
1107.434, 621.3906
1108.532, 310.9395
1109.629, 503.5020
1110.726, 367.0723
1111.823, 243.6445
1112.920, 144.2246
1114.017, 478.8066
1115.113, 284.3965
1116.210, 505.9922
1117.306, 197.5918
1118.402, 527.2012
1119.498, 244.8125
1120.593, 247.4277
1121.689, 311.0527
1122.784, 362.6797
1123.879, 438.3145
1124.974, 276.9512
1126.069, 345.5977
1127.164, 260.2480
1128.259, 356.9062
1129.353, 201.5664
1130.447, 246.4941
1131.541, 149.9043
1132.635, 280.5859
1133.729, 285.2715
1134.822, 350.3516
1135.916, 46.65820
1137.009, 191.3574
1138.102, 247.0664
1139.195, 144.2188
1140.288, 293.4238
1141.380, 26.92578
1142.473, 225.7148
1143.565, 24.36328
1144.657, 121.0156
1145.749, 54.68555
1146.841, 102.3691
1147.932, 16.93945
1149.024, 39.25391
1150.115, 86.42383
1151.206, 138.1074
1152.297, 94.95898
1153.388, 123.5020
1154.479, 17.13867
1155.569, 62.21484
1156.659, 88.59766
1157.750, 3.017578
1158.839, 53.56055
1159.929, 84.14648
1161.019, 104.7637
1162.108, 106.3906
1163.198, 125.7539
1164.287, 241.6602
1165.376, 50.30273
1166.465, 223.9512
1167.553, 0.6054690
1168.642, 254.2637
1169.730, 290.9277
1170.818, 246.5996
1171.906, 237.2734
1172.994, 59.95703
1174.082, 305.6445
1175.170, 303.3359
1176.257, 72.96094
1177.344, 298.7070
1178.431, 419.3789
1179.518, 130.0547
1180.605, 185.7344
1181.691, 175.4258
1182.778, 88.87891
1183.864, 120.7734
1184.950, 101.4297
1186.036, 183.0938
1187.122, 58.76172
1188.207, 126.4336
1189.292, 171.1133
1190.378, 32.20312
1191.463, 231.4727
1192.548, 105.8555
1193.632, 134.7656
1194.717, 147.6094
1195.801, 199.9414
1196.886, 95.49609
1197.970, 253.0586
1199.054, 261.6211
1200.137, 310.1914
1201.221, 22.23438
1202.305, 135.3281
1203.388, 394.8984
1204.471, 75.53125
1205.554, 254.0039
1206.637, 32.54297
1207.719, 51.08594
1208.802, 43.64844
1209.884, 264.2188
1210.966, 108.7969
1212.048, 268.4023
1213.130, 474.0430
1214.212, 356.8711
1215.293, 522.5195
1216.374, 260.1719
1217.456, 269.8281
1218.536, 111.4883
1219.617, 145.1484
1220.698, 96.81641
1221.778, 148.4883
1222.859, 270.1602
1223.939, 204.8359
1225.019, 227.5195
1226.099, 125.2031
1227.178, 92.88672
1228.258, 169.5781
1229.337, 8.722656
1230.417, 507.9648
1231.496, 271.1016
1232.574, 352.7969
1233.653, 263.4961
1234.732, 195.2031
1235.810, 365.9102
1236.888, 320.6562
1237.966, 283.4336
1239.044, 339.1797
1240.122, 259.9844
1241.199, 347.3125
1242.277, 266.0703
1243.354, 290.8516
1244.431, 518.6680
1245.508, 295.4688
1246.585, 321.2734
1247.661, 425.0781
1248.738, 289.8867
1249.814, 504.7031
1250.890, 552.5156
1251.966, 369.3320
1253.042, 575.1523
1254.117, 291.9805
1255.193, 283.8086
1256.268, 228.6406
1257.343, 273.4805
1258.418, 334.3203
1259.493, 410.1836
1260.567, 473.0703
1261.642, 515.0859
1262.716, 608.9883
1263.790, 587.7422
1264.864, 690.6406
1265.938, 725.5391
1267.011, 569.4453
