##NAMES=Mesolite
##RRUFFID=R040139
##IDEAL CHEMISTRY=Na_2_Ca_2_(Si_9_Al_6_)O_30_&#183;8H_2_O
##LOCALITY=Lake Superior beach,  41 miles north of Tofte, Minnesota, USA
##OWNER=RRUFF
##SOURCE=University of Arizona Mineral Museum
##DESCRIPTION=Aggregate of white radiating thin acicular crystals.
##STATUS=The identification of this mineral has been confirmed by X-ray diffraction and chemical analysis
##URL=rruff.info/R040139
##MEASURED CHEMISTRY=Na_1.95_Ca_1.89_(Si_9.21_Al_5.82_)O_30_Â·8H_2_O
##PIN_ID=L00494
74.587, 0.000
75.978, 4.712
77.368, 340.179
78.758, 1029.664
80.149, 1487.591
81.538, 1005.651
82.928, 390.507
84.318, 202.041
85.707, 184.465
87.096, 74.507
88.485, 33.660
89.873, 123.194
91.262, 223.370
92.650, 730.303
94.038, 1077.780
95.426, 1291.406
96.813, 1735.775
98.201, 2018.930
99.588, 2458.113
100.975, 3040.036
102.362, 3628.293
103.748, 4301.569
105.135, 5117.625
106.521, 5640.271
107.907, 5893.367
109.292, 5656.825
110.678, 4991.068
112.063, 4997.253
113.448, 5253.716
114.833, 5730.038
116.218, 6666.331
117.602, 7602.447
118.987, 7408.610
120.371, 5477.325
121.755, 4075.669
123.138, 2968.608
124.522, 2593.077
125.905, 2419.962
127.288, 2417.009
128.671, 2541.290
130.053, 2987.866
131.436, 3473.791
132.818, 3586.113
134.200, 3788.876
135.582, 3697.127
136.963, 3577.904
138.345, 3377.224
139.726, 3160.124
141.107, 3423.669
142.488, 3571.890
143.868, 4399.710
145.248, 4571.437
146.629, 5377.219
148.008, 5762.000
149.388, 5547.187
150.768, 5452.517
152.147, 5078.338
153.526, 5046.277
154.905, 5075.536
156.284, 5287.978
157.662, 5479.775
159.040, 5385.140
160.418, 5337.376
161.796, 5016.508
163.174, 4732.817
164.551, 4712.488
165.929, 4472.385
167.306, 4603.537
168.683, 4598.077
170.059, 4807.050
171.436, 4837.173
172.812, 4837.716
174.188, 4714.644
175.564, 4464.009
176.939, 4293.117
178.315, 3924.662
179.690, 3850.567
181.065, 3615.520
182.440, 3540.512
183.814, 3394.540
185.188, 3002.597
186.563, 2815.678
187.937, 2524.779
189.310, 2236.895
190.684, 1967.024
192.057, 1701.161
193.430, 1600.303
194.803, 1392.540
196.176, 1314.225
197.549, 1308.619
198.921, 1302.720
200.293, 1208.808
201.665, 1134.883
203.037, 1018.128
204.408, 796.750
205.779, 640.895
207.150, 478.607
208.521, 363.000
209.892, 275.028
211.262, 154.919
212.633, 124.588
214.003, 42.211
215.373, 98.789
216.742, 5.679
218.112, 16.808
219.481, 25.749
220.850, 63.349
222.219, 17.994
223.588, 18.682
224.956, 191.587
226.324, 170.810
227.692, 343.754
229.060, 295.202
230.428, 313.895
231.795, 190.115
233.162, 123.624
234.529, 148.087
235.896, 80.567
237.263, 113.824
238.629, 196.163
239.995, 267.520
241.361, 405.655
242.727, 477.714
244.093, 570.198
245.458, 549.015
246.823, 451.063
248.188, 324.330
249.553, 79.773
250.917, 33.646
252.282, 108.977
253.646, 186.583
255.010, 221.830
256.374, 236.248
257.737, 252.513
259.101, 230.913
260.464, 230.375
261.827, 252.907
263.189, 32.524
264.552, 107.683
265.914, 41.900
267.276, 75.675
268.638, 84.520
270.000, 2.441
271.362, 27.420
272.723, 36.534
274.084, 143.435
275.445, 149.289
276.806, 321.087
278.166, 325.831
279.526, 403.521
280.887, 515.156
282.246, 584.739
283.606, 794.267
284.966, 884.731
286.325, 1070.113
287.684, 1214.406
289.043, 1578.609
290.402, 1770.722
291.760, 2135.751
293.118, 2541.698
294.477, 2843.565
295.834, 3044.356
297.192, 3003.073
298.550, 2730.718
299.907, 2422.293
301.264, 2032.801
302.621, 1830.242
303.978, 1498.621
305.334, 1331.936
306.690, 1095.190
308.046, 840.379
309.402, 738.488
310.758, 484.469
312.113, 409.266
313.469, 357.917
314.824, 302.521
316.179, 354.079
317.533, 329.589
318.888, 382.050
320.242, 396.450
321.596, 475.816
322.950, 577.149
324.304, 552.437
325.657, 600.691
327.010, 401.845
328.363, 487.756
329.716, 355.344
331.069, 369.604
332.421, 299.550
333.774, 236.339
335.126, 322.982
336.478, 217.488
337.829, 231.895
339.181, 263.266
340.532, 223.613
341.883, 260.935
343.234, 275.232
344.585, 366.504
345.935, 380.753
347.285, 454.978
348.635, 652.181
349.985, 723.359
351.335, 868.515
352.684, 908.647
354.034, 1033.754
355.383, 1046.839
356.731, 974.899
358.080, 978.935
359.429, 910.945
360.777, 1010.930
362.125, 892.891
363.473, 870.829
364.820, 938.742
366.168, 832.632
367.515, 868.495
368.862, 797.330
370.209, 773.133
371.556, 713.907
372.902, 608.653
374.249, 576.240
375.595, 394.672
376.940, 367.932
378.286, 224.181
379.632, 143.904
380.977, 179.953
382.322, 71.373
383.667, 79.407
385.012, 3.262
386.356, 32.037
387.700, 43.451
389.044, 1.742
390.388, 22.103
391.732, 19.583
393.075, 58.664
394.419, 47.763
395.762, 87.495
397.105, 126.229
398.447, 206.407
399.790, 224.873
401.132, 255.691
402.474, 403.611
403.816, 473.510
405.158, 589.382
406.499, 770.226
407.841, 940.039
409.182, 1217.820
410.523, 1614.570
411.864, 1881.280
413.204, 2243.809
414.544, 2317.515
415.884, 2490.270
417.224, 2468.714
418.564, 2483.153
419.904, 2505.475
421.243, 2431.056
422.582, 2453.576
423.921, 2472.590
425.260, 2420.344
426.598, 2311.291
427.937, 2180.278
429.275, 2127.057
430.613, 1927.195
431.951, 1863.399
433.288, 1810.951
434.625, 1885.068
435.963, 1992.402
437.300, 2093.735
438.636, 2362.824
439.973, 2649.886
441.309, 2981.920
442.646, 3350.927
443.981, 3446.907
445.317, 3709.860
446.653, 3594.786
447.988, 3576.686
449.323, 3433.560
450.658, 3077.408
451.993, 2833.232
453.328, 2464.030
454.662, 2219.804
455.996, 1938.554
457.331, 1587.280
458.664, 1314.982
459.998, 1168.661
461.331, 1039.317
462.665, 851.979
463.998, 768.702
465.330, 632.315
466.663, 535.945
467.996, 498.491
469.328, 428.014
470.660, 415.532
471.992, 379.014
473.323, 344.540
474.655, 315.418
475.986, 291.063
477.317, 339.722
478.648, 314.829
479.979, 347.353
481.309, 375.555
482.640, 369.708
483.970, 430.793
485.300, 481.034
486.629, 541.998
487.959, 576.600
489.288, 644.478
490.617, 715.963
491.946, 702.857
493.275, 784.915
494.603, 859.795
495.932, 1067.410
497.260, 1013.075
498.588, 1123.832
499.916, 1137.990
501.243, 1230.660
502.571, 1321.978
503.898, 1516.793
505.225, 1593.989
506.552, 1877.248
507.878, 2025.549
509.205, 2241.855
510.531, 2528.157
511.857, 2794.450
513.183, 3211.740
514.508, 3650.025
515.834, 4012.310
517.159, 4848.597
518.484, 5492.885
519.809, 6611.181
521.133, 7518.470
522.458, 9100.756
523.782, 11293.038
525.106, 13265.309
526.430, 16747.574
527.754, 20199.840
529.077, 24992.092
530.400, 29194.346
531.723, 31836.582
533.046, 33282.551
534.369, 34351.043
535.692, 32173.262
537.014, 29015.416
538.336, 24406.965
539.658, 20317.893
540.980, 16229.172
542.301, 13338.987
543.623, 10699.138
544.944, 8706.580
546.265, 7455.583
547.585, 6060.003
548.906, 5290.508
550.226, 4479.138
551.547, 3898.340
552.867, 3544.239
554.186, 3093.855
555.506, 2873.374
556.825, 2624.437
558.145, 2402.096
559.464, 2224.835
560.783, 2050.701
562.101, 1891.963
563.420, 1676.221
564.738, 1540.475
566.056, 1476.725
567.374, 1252.971
568.692, 1210.213
570.009, 1054.452
571.326, 995.692
572.643, 892.956
573.960, 749.264
575.277, 774.638
576.594, 655.086
577.910, 639.613
579.226, 621.224
580.542, 519.913
581.858, 548.679
583.173, 426.531
584.489, 480.409
585.804, 447.333
587.119, 403.288
588.434, 395.281
589.748, 274.316
591.063, 281.372
592.377, 247.455
593.691, 160.549
595.005, 221.645
596.318, 137.741
597.632, 133.834
598.945, 101.926
600.258, 90.508
601.571, 138.100
602.884, 94.183
604.196, 136.264
605.508, 132.343
606.821, 89.419
608.132, 125.493
609.444, 91.565
610.756, 122.635
612.067, 37.702
613.378, 74.767
614.689, 49.830
616.000, 40.891
617.311, 48.950
618.621, 30.007
619.931, 18.062
621.241, 1.114
622.551, 19.163
623.861, 10.210
625.170, 33.255
626.479, 28.297
627.788, 22.380
629.097, 27.418
630.406, 11.641
631.714, 19.178
633.023, 19.961
634.331, 12.617
635.639, 32.340
636.946, 0.995
638.254, 75.784
639.561, 74.524
640.868, 2.580
642.175, 67.970
643.482, 21.494
644.789, 79.860
646.095, 18.392
647.401, 39.195
648.707, 66.794
650.013, 55.238
651.319, 45.484
652.624, 22.167
653.929, 13.669
655.234, 21.589
656.539, 75.926
657.844, 42.188
659.148, 115.482
660.453, 153.387
661.757, 148.828
663.061, 258.378
664.364, 300.219
665.668, 321.673
666.971, 423.412
668.274, 430.480
669.577, 446.503
670.880, 397.261
672.183, 438.948
673.485, 443.378
674.787, 353.672
676.089, 439.024
677.391, 397.672
678.693, 434.640
679.994, 411.967
681.296, 459.983
682.597, 529.018
683.898, 530.961
685.198, 619.788
686.499, 644.754
687.799, 600.738
689.099, 727.635
690.399, 663.419
691.699, 624.227
692.998, 637.993
694.298, 581.959
695.597, 612.810
696.896, 587.572
698.195, 621.259
699.493, 630.179
700.792, 639.089
702.090, 731.913
703.388, 813.928
704.686, 953.500
705.984, 1108.387
707.281, 1264.300
708.578, 1521.689
709.876, 1803.941
711.172, 2173.972
712.469, 2412.764
713.766, 2543.642
715.062, 2649.548
716.358, 2514.368
717.654, 2245.253
718.950, 2092.122
720.246, 1720.008
721.541, 1504.781
722.836, 1264.676
724.131, 1108.350
725.426, 947.166
726.721, 836.053
728.015, 782.662
729.310, 654.487
730.604, 607.220
731.898, 581.802
733.191, 530.546
734.485, 520.297
735.778, 438.997
737.071, 481.536
738.364, 420.106
739.657, 453.695
740.950, 519.273
742.242, 546.763
743.535, 614.334
744.827, 646.799
746.118, 681.397
747.410, 802.983
748.702, 912.408
749.993, 974.819
751.284, 1147.248
752.575, 1198.693
753.866, 1269.063
755.156, 1373.438
756.447, 1313.805
757.737, 1299.133
759.027, 1234.450
760.316, 1131.793
761.606, 1032.079
762.896, 936.439
764.185, 854.876
765.474, 768.504
766.763, 699.218
768.051, 617.433
769.340, 534.634
770.628, 471.821
771.916, 387.993
773.204, 340.150
774.492, 291.294
775.780, 234.155
777.067, 241.396
778.354, 158.471
779.641, 144.493
780.928, 147.564
782.215, 106.620
783.501, 120.646
784.787, 72.672
786.073, 82.619
787.359, 72.108
788.645, 40.558
789.930, 55.167
791.216, 36.186
792.501, 6.963
793.786, 4.022
795.071, 11.418
796.355, 18.804
797.640, 18.906
798.924, 5.768
800.208, 5.308
801.492, 17.161
802.775, 21.258
804.059, 25.526
805.342, 30.078
806.625, 29.553
807.908, 27.130
809.191, 17.790
810.474, 8.458
811.756, 55.022
813.038, 7.707
814.320, 33.352
815.602, 10.039
816.884, 27.754
818.165, 16.508
819.446, 42.294
820.727, 0.873
822.008, 26.017
823.289, 3.855
824.569, 0.247
825.850, 14.675
827.130, 26.628
828.410, 24.619
829.690, 41.646
830.969, 1.281
832.249, 37.185
833.528, 9.926
834.807, 21.934
836.086, 15.777
837.364, 4.396
838.643, 61.405
839.921, 26.191
841.199, 19.961
842.477, 38.715
843.755, 63.454
845.033, 56.177
846.310, 63.887
847.587, 14.581
848.864, 40.259
850.141, 60.922
851.418, 77.570
852.694, 22.205
853.971, 24.824
855.247, 48.427
856.523, 41.015
857.798, 73.588
859.074, 38.146
860.349, 33.690
861.624, 2.218
862.899, 4.726
864.174, 11.949
865.449, 66.685
866.723, 45.142
867.998, 36.584
869.272, 55.011
870.545, 37.423
871.819, 38.820
873.093, 32.202
874.366, 56.568
875.639, 24.920
876.912, 75.257
878.185, 38.581
879.458, 18.890
880.730, 90.183
882.002, 28.464
883.274, 47.729
884.546, 107.981
885.818, 39.219
887.090, 34.443
888.361, 43.655
889.632, 78.852
890.903, 68.036
892.174, 60.209
893.444, 59.370
894.715, 113.521
895.985, 53.660
897.255, 117.786
898.525, 39.900
899.795, 39.000
901.064, 79.087
902.334, 86.162
903.603, 65.225
904.872, 57.276
906.140, 77.315
907.409, 66.341
908.677, 64.356
909.946, 70.360
911.214, 68.351
912.482, 58.332
913.749, 98.300
915.017, 46.257
916.284, 119.203
917.551, 66.136
918.818, 54.059
920.085, 105.971
921.352, 81.871
922.618, 129.761
923.884, 107.639
925.150, 120.507
926.416, 191.365
927.682, 117.211
928.947, 175.047
930.213, 212.874
931.478, 229.690
932.743, 325.496
934.008, 337.292
935.272, 431.036
936.537, 543.812
937.801, 553.393
939.065, 569.004
940.329, 568.564
941.593, 573.985
942.856, 552.459
944.119, 512.851
945.383, 419.366
946.646, 338.808
947.908, 328.381
949.171, 299.597
950.433, 243.763
951.696, 294.759
952.958, 254.894
954.220, 243.288
955.481, 248.461
956.743, 221.456
958.004, 246.236
959.265, 296.102
960.526, 292.107
961.787, 361.688
963.048, 339.844
964.308, 437.066
965.569, 480.254
966.829, 572.823
968.089, 641.848
969.348, 697.755
970.608, 786.362
971.867, 875.345
973.126, 955.039
974.385, 1085.392
975.644, 1136.782
976.903, 1209.427
978.161, 1264.135
979.420, 1203.092
980.678, 1155.174
981.936, 1006.188
983.193, 924.898
984.451, 849.280
985.708, 800.292
986.966, 711.608
988.223, 716.896
989.479, 700.281
990.736, 777.773
991.993, 843.117
993.249, 873.443
994.505, 931.847
995.761, 1043.354
997.017, 1110.841
998.272, 1136.360
999.528, 1064.675
1000.783, 1066.101
1002.038, 937.613
1003.293, 914.195
1004.548, 936.547
1005.802, 798.910
1007.057, 820.377
1008.311, 744.817
1009.565, 695.397
1010.818, 690.837
1012.072, 717.260
1013.326, 707.224
1014.579, 717.328
1015.832, 733.661
1017.085, 734.233
1018.338, 776.717
1019.590, 785.167
1020.842, 806.696
1022.095, 831.154
1023.347, 863.625
1024.599, 932.071
1025.850, 994.621
1027.102, 1134.042
1028.353, 1209.774
1029.604, 1401.261
1030.855, 1522.670
1032.106, 1652.349
1033.356, 1774.803
1034.607, 1801.347
1035.857, 1928.032
1037.107, 2011.548
1038.357, 2070.357
1039.607, 2212.902
1040.856, 2381.596
1042.106, 2706.573
1043.355, 3005.192
1044.604, 3464.722
1045.852, 3668.549
1047.101, 3452.161
1048.350, 3265.897
1049.598, 2790.465
1050.846, 2366.032
1052.094, 1973.748
1053.342, 1668.307
1054.589, 1417.153
1055.837, 1206.811
1057.084, 1031.532
1058.331, 940.271
1059.578, 855.991
1060.824, 805.720
1062.071, 779.480
1063.317, 712.167
1064.563, 697.899
1065.809, 679.543
1067.055, 614.278
1068.301, 667.014
1069.546, 659.704
1070.791, 588.443
1072.036, 600.184
1073.281, 613.927
1074.526, 617.671
1075.771, 627.428
1077.015, 635.700
1078.259, 649.929
1079.503, 645.685
1080.747, 640.828
1081.991, 641.048
1083.234, 618.980
1084.478, 625.742
1085.721, 621.506
1086.964, 605.406
1088.206, 621.178
1089.449, 644.018
1090.691, 668.916
1091.934, 724.546
1093.176, 757.389
1094.418, 817.246
1095.659, 812.879
1096.901, 804.844
1098.142, 786.659
1099.384, 797.478
1100.625, 758.310
1101.865, 742.253
1103.106, 653.110
1104.347, 695.029
1105.587, 638.905
1106.827, 571.838
1108.067, 567.743
1109.307, 569.663
1110.546, 522.596
1111.786, 490.681
1113.025, 464.635
1114.264, 440.456
1115.503, 435.602
1116.742, 409.559
1117.980, 396.659
1119.219, 387.685
1120.457, 358.088
1121.695, 334.697
1122.933, 305.758
1124.171, 286.346
1125.408, 290.106
1126.645, 255.446
1127.883, 242.540
1129.120, 241.688
1130.356, 186.889
1131.593, 171.131
1132.829, 146.359
1134.066, 159.564
1135.302, 168.070
1136.538, 119.223
1137.773, 180.674
1139.009, 157.906
1140.244, 127.231
1141.480, 137.458
1142.715, 104.634
1143.950, 114.977
1145.184, 100.603
1146.419, 63.775
1147.653, 120.899
1148.887, 49.676
1150.121, 115.852
1151.355, 114.115
1152.589, 53.453
1153.822, 49.896
1155.056, 47.972
1156.289, 39.246
1157.522, 36.622
1158.755, 41.520
1159.987, 28.329
1161.220, 42.669
1162.452, 41.903
1163.684, 24.439
1164.916, 26.200
1166.148, 28.391
1167.379, 36.947
1168.611, 3.239
1169.842, 2.567
1171.073, 22.229
1172.304, 28.586
1173.534, 52.942
1174.765, 32.674
1175.995, 7.989
1177.225, 19.085
1178.455, 2.019
1179.685, 2.210
1180.915, 55.500
1182.144, 32.333
1183.374, 32.519
1184.603, 2.209
1185.832, 14.477
1187.060, 0.197
1188.289, 0.216
1189.518, 14.587
1190.746, 16.118
1191.974, 27.756
1193.202, 6.937
1194.430, 15.315
1195.657, 1.021
1196.884, 7.156
1198.112, 21.461
1199.339, 17.597
1200.566, 20.977
1201.792, 24.440
1203.019, 14.669
1204.245, 7.905
1205.471, 0.930
1206.697, 4.151
1207.923, 12.292
1209.149, 1.454
1210.374, 11.553
1211.600, 22.788
1212.825, 17.976
1214.050, 18.237
1215.275, 13.592
1216.499, 18.727
1217.724, 27.901
1218.948, 20.143
1220.172, 24.244
1221.396, 35.700
1222.620, 12.571
1223.843, 52.662
1225.067, 30.221
1226.290, 18.305
1227.513, 32.387
1228.736, 14.465
1229.959, 81.545
1231.181, 21.706
1232.404, 50.773
1233.626, 2.090
1234.848, 24.012
1236.070, 25.103
1237.291, 21.260
1238.513, 18.346
1239.734, 10.409
1240.955, 8.571
1242.177, 30.635
1243.397, 53.696
1244.618, 62.799
1245.838, 46.857
1247.059, 54.911
1248.279, 4.089
1249.499, 27.479
1250.719, 16.391
1251.938, 53.276
1253.158, 20.314
1254.377, 35.351
1255.596, 39.384
1256.815, 39.415
1258.034, 0.567
1259.253, 44.573
1260.471, 13.306
1261.689, 61.053
1262.907, 13.022
1264.125, 14.049
1265.343, 61.567
1266.561, 40.513
1267.778, 12.522
1268.995, 38.387
1270.212, 1.372
1271.429, 25.290
1272.646, 0.827
1273.862, 38.047
1275.079, 29.138
1276.295, 19.991
1277.511, 14.961
1278.727, 19.789
1279.943, 26.610
1281.158, 0.955
1282.373, 48.839
1283.589, 47.375
1284.804, 27.387
1286.019, 6.133
1287.233, 27.140
1288.448, 43.744
1289.662, 4.441
1290.876, 32.873
1292.090, 55.788
1293.304, 8.557
1294.518, 2.843
1295.731, 59.790
1296.944, 27.412
1298.158, 10.093
1299.371, 3.699
1300.583, 6.704
1301.796, 9.668
1303.008, 3.463
1304.221, 19.913
1305.433, 33.621
1306.645, 13.137
1307.856, 39.643
1309.068, 12.860
1310.280, 0.379
1311.491, 80.091
1312.702, 3.551
1313.913, 27.999
1315.124, 19.491
1316.334, 14.082
1317.545, 13.329
1318.755, 13.727
1319.965, 1.109
1321.175, 18.478
1322.385, 4.268
1323.594, 1.931
1324.804, 53.391
1326.013, 29.703
1327.222, 15.998
1328.431, 59.282
1329.639, 2.543
1330.848, 23.792
1332.056, 30.718
1333.265, 9.937
1334.473, 50.176
1335.680, 2.051
1336.888, 4.759
1338.096, 0.491
1339.303, 7.455
1340.510, 2.112
1341.717, 6.205
1342.924, 17.912
1344.131, 36.019
1345.337, 37.115
1346.544, 5.200
1347.750, 34.272
1348.956, 32.333
1350.162, 3.615
1351.367, 73.391
1352.573, 32.400
1353.778, 47.353
1354.983, 48.392
1356.188, 42.392
1357.393, 39.382
1358.598, 21.364
1359.802, 11.337
1361.007, 50.302
1362.211, 40.304
1363.415, 23.254
1364.619, 60.197
1365.822, 24.135
1367.026, 94.066
1368.229, 66.982
1369.432, 12.092
1370.635, 66.821
1371.838, 61.809
1373.041, 60.721
1374.243, 55.618
1375.446, 35.771
1376.648, 74.405
1377.850, 40.970
1379.052, 4.349
1380.253, 52.289
1381.455, 36.819
1382.656, 54.471
1383.857, 70.114
1385.058, 36.638
1386.259, 60.195
1387.459, 64.760
1388.660, 51.361
1389.860, 88.797
1391.060, 86.406
1392.260, 31.858
1393.460, 108.297
1394.660, 49.773
1395.859, 90.098
1397.059, 99.222
1398.258, 66.639
1399.457, 74.874
1400.655, 114.143
1401.854, 34.150
1403.052, 67.451
1404.251, 28.073
1405.449, 9.181
1406.647, 126.399
1407.845, 38.694
1409.042, 1.831
1410.240, 95.514
1411.437, 46.108
1412.634, 65.996
1413.831, 32.823
1415.028, 44.039
1416.224, 66.336
1417.421, 82.749
1418.617, 7.521
1419.813, 106.057
1421.009, 18.051
1422.205, 75.630
1423.401, 80.402
1424.596, 4.157
1425.791, 57.746
1426.986, 104.082
1428.181, 47.055
1429.376, 73.323
1430.571, 47.536
1431.765, 3.360
1432.960, 131.807
1434.154, 72.704
1435.348, 52.696
1436.541, 74.155
1437.735, 19.650
1438.929, 79.023
1440.122, 53.907
1441.315, 20.294
1442.508, 99.574
1443.701, 66.837
1444.893, 7.521
1446.086, 89.956
1447.278, 51.071
1448.470, 50.189
1449.662, 75.673
1450.854, 33.695
1452.046, 71.864
1453.237, 80.806
1454.428, 49.813
1455.619, 158.866
1456.810, 80.583
1458.001, 14.425
1459.192, 104.331
1460.382, 51.178
1461.573, 58.703
1462.763, 104.301
1463.953, 98.985
1465.143, 36.328
1466.332, 109.076
1467.522, 74.623
1468.711, 96.447
1469.900, 62.618
1471.089, 31.065
1472.278, 67.981
1473.467, 71.759
1474.655, 48.546
1475.843, 122.821
1477.032, 9.668
1478.220, 47.529
1479.407, 74.095
1480.595, 15.643
1481.783, 83.393
1482.970, 29.764
1484.157, 53.505
1485.344, 102.289
1486.531, 92.049
1487.718, 24.788
1488.904, 73.258
1490.090, 55.963
1491.277, 53.694
1492.463, 98.483
1493.648, 53.312
1494.834, 51.161
1496.020, 32.098
1497.205, 13.100
1498.390, 58.954
1499.575, 12.019
1500.760, 33.138
1501.945, 111.327
1503.129, 46.572
1504.314, 0.899
1505.498, 75.333
1506.682, 16.879
1507.866, 45.552
1509.049, 83.374
1510.233, 46.381
1511.416, 85.605
1512.600, 98.132
1513.783, 2.760
1514.966, 107.723
1516.148, 29.250
1517.331, 0.279
1518.513, 0.000
##END=



