##NAMES=Mesolite
##RRUFFID=R040139
##IDEAL CHEMISTRY=Na_2_Ca_2_(Si_9_Al_6_)O_30_&#183;8H_2_O
##LOCALITY=Lake Superior beach,  41 miles north of Tofte, Minnesota, USA
##OWNER=RRUFF
##SOURCE=University of Arizona Mineral Museum
##DESCRIPTION=Aggregate of white radiating thin acicular crystals.
##STATUS=The identification of this mineral has been confirmed by X-ray diffraction and chemical analysis
##URL=rruff.info/R040139
##MEASURED CHEMISTRY=Na_1.95_Ca_1.89_(Si_9.21_Al_5.82_)O_30_Â·8H_2_O
##PIN_ID=L00494
74.587, 0.000
75.978, 4.714
77.368, 181.408
78.758, 479.307
80.149, 603.208
81.538, 295.927
82.928, 2.037
84.318, 31.978
85.707, 169.312
87.096, 268.963
88.485, 290.677
89.873, 421.568
91.262, 655.776
92.650, 1267.541
94.038, 1943.200
95.426, 2174.184
96.813, 2392.014
98.201, 2374.288
99.588, 2452.802
100.975, 2451.016
102.362, 2580.968
103.748, 2784.165
105.135, 3175.188
106.521, 3482.727
107.907, 3628.596
109.292, 3861.579
110.678, 3954.992
112.063, 4075.926
113.448, 4157.429
114.833, 4207.261
116.218, 4207.532
117.602, 4006.663
118.987, 4129.120
120.371, 3390.331
121.755, 2880.769
123.138, 2352.845
124.522, 2298.256
125.905, 2347.811
127.288, 2324.955
128.671, 2604.618
130.053, 3241.453
131.436, 3845.533
132.818, 4217.912
134.200, 4659.647
135.582, 4770.787
136.963, 4591.414
138.345, 4462.127
139.726, 4012.928
141.107, 4133.244
142.488, 4263.092
143.868, 4892.485
145.248, 5761.437
146.629, 6839.968
148.008, 8048.100
149.388, 8355.856
150.768, 8963.253
152.147, 9050.313
153.526, 9677.117
154.905, 10383.740
156.284, 11070.151
157.662, 11786.303
159.040, 11652.130
160.418, 11707.720
161.796, 11033.121
163.174, 10438.365
164.551, 10153.481
165.929, 9678.493
167.306, 9783.412
168.683, 9488.253
170.059, 9783.024
171.436, 9665.611
172.812, 9380.136
174.188, 9207.343
175.564, 8470.530
176.939, 8002.006
178.315, 7151.499
179.690, 6728.060
181.065, 6036.066
182.440, 5523.889
183.814, 5130.794
185.188, 4825.775
186.563, 4792.823
187.937, 4574.933
189.310, 4405.099
190.684, 3995.317
192.057, 3501.580
193.430, 3151.886
194.803, 2723.230
196.176, 2448.608
197.549, 2260.095
198.921, 2201.300
200.293, 2015.108
201.665, 1748.565
203.037, 1571.845
204.408, 1310.230
205.779, 1144.534
207.150, 871.677
208.521, 765.203
209.892, 747.817
211.262, 613.812
212.633, 706.677
214.003, 783.510
215.373, 997.312
216.742, 942.084
218.112, 870.825
219.481, 907.537
220.850, 833.216
222.219, 1008.861
223.588, 1256.471
224.956, 1779.046
226.324, 2198.588
227.692, 2725.170
229.060, 3163.906
230.428, 3017.860
231.795, 3032.854
233.162, 2489.168
234.529, 2085.995
235.896, 1749.468
237.263, 1459.382
238.629, 1383.714
239.995, 1332.216
241.361, 1564.836
242.727, 1656.914
244.093, 1725.692
245.458, 1731.002
246.823, 1505.790
248.188, 1157.974
249.553, 733.208
250.917, 489.019
252.282, 279.076
253.646, 126.347
255.010, 160.801
256.374, 138.412
257.737, 271.159
259.101, 268.022
260.464, 285.986
261.827, 260.036
263.189, 404.160
264.552, 409.348
265.914, 6.585
267.276, 134.160
268.638, 76.935
270.000, 259.734
271.362, 359.615
272.723, 395.610
274.084, 384.734
275.445, 446.991
276.806, 380.400
278.166, 354.948
279.526, 305.632
280.887, 326.442
282.246, 292.385
283.606, 120.456
284.966, 95.609
286.325, 95.158
287.684, 247.889
289.043, 469.575
290.402, 797.195
291.760, 1129.731
293.118, 1686.182
294.477, 1953.551
295.834, 2334.840
297.192, 2435.053
298.550, 2319.193
299.907, 2287.261
301.264, 1962.260
302.621, 1930.192
303.978, 1676.054
305.334, 1467.849
306.690, 1338.578
308.046, 1126.246
309.402, 1054.855
310.758, 716.405
312.113, 661.896
313.469, 485.333
314.824, 442.715
316.179, 431.046
317.533, 267.328
318.888, 302.560
320.242, 205.741
321.596, 133.875
322.950, 136.955
324.304, 1.024
325.657, 20.919
327.010, 56.216
328.363, 41.555
329.716, 57.254
331.069, 147.883
332.421, 247.457
333.774, 250.982
335.126, 387.331
336.478, 334.412
337.829, 289.047
339.181, 372.212
340.532, 229.956
341.883, 312.326
343.234, 224.423
344.585, 305.408
345.935, 367.376
347.285, 390.328
348.635, 522.262
349.985, 621.180
351.335, 763.081
352.684, 857.965
354.034, 955.830
355.383, 1016.678
356.731, 829.508
358.080, 782.320
359.429, 667.114
360.777, 647.889
362.125, 573.631
363.473, 564.296
364.820, 630.838
366.168, 562.301
367.515, 726.735
368.862, 667.152
370.209, 694.551
371.556, 786.931
372.902, 613.290
374.249, 652.634
375.595, 431.961
376.940, 433.272
378.286, 310.568
379.632, 267.847
380.977, 347.110
382.322, 190.358
383.667, 205.586
385.012, 122.796
386.356, 154.981
387.700, 193.144
389.044, 89.289
390.388, 223.404
391.732, 122.501
393.075, 189.566
394.419, 146.596
395.762, 108.586
397.105, 240.539
398.447, 178.465
399.790, 241.361
401.132, 357.237
402.474, 489.106
403.816, 652.969
405.158, 710.816
406.499, 983.647
407.841, 1188.457
409.182, 1586.245
410.523, 1951.008
411.864, 2446.747
413.204, 3003.459
414.544, 3312.143
415.884, 3781.795
417.224, 4099.417
418.564, 4388.009
419.904, 5062.567
421.243, 5288.093
422.582, 5968.585
423.921, 6476.044
425.260, 6747.468
426.598, 6951.859
427.937, 6589.472
429.275, 6634.088
430.613, 6112.135
431.951, 5916.551
433.288, 5829.540
434.625, 5659.117
435.963, 5996.227
437.300, 6090.285
438.636, 6675.385
439.973, 7401.947
441.309, 8291.475
442.646, 9199.572
443.981, 9619.685
445.317, 10410.469
446.653, 10442.701
447.988, 10335.354
449.323, 10169.249
450.658, 9343.122
451.993, 9056.974
453.328, 7810.804
454.662, 7074.612
455.996, 6294.398
457.331, 5498.164
458.664, 4736.912
459.998, 4197.638
461.331, 3650.344
462.665, 3146.914
463.998, 2823.580
465.330, 2565.587
466.663, 2233.537
467.996, 2128.840
469.328, 1805.717
470.660, 1800.445
471.992, 1726.598
473.323, 1685.814
474.655, 1705.871
475.986, 1610.633
477.317, 1755.261
478.648, 1756.685
479.979, 1829.843
481.309, 1997.533
482.640, 2037.387
483.970, 2233.202
485.300, 2426.470
486.629, 2536.525
487.959, 2949.888
489.288, 3077.885
490.617, 3650.580
491.946, 3939.441
493.275, 3818.679
494.603, 4089.930
495.932, 3871.455
497.260, 3971.986
498.588, 3749.384
499.916, 3610.933
501.243, 3526.045
502.571, 3419.634
503.898, 3329.688
505.225, 3342.236
506.552, 3370.881
507.878, 3407.555
509.205, 3521.250
510.531, 3849.967
511.857, 3988.694
513.183, 4524.442
514.508, 4918.203
515.834, 5199.977
517.159, 6068.764
518.484, 6809.556
519.809, 8043.354
521.133, 9197.163
522.458, 10920.971
523.782, 13324.793
525.106, 15628.620
526.430, 19702.449
527.754, 23566.277
529.077, 28470.111
530.400, 34293.949
531.723, 37517.785
533.046, 41201.637
534.369, 41045.469
535.692, 38269.324
537.014, 34783.160
538.336, 29006.947
539.658, 24160.545
540.980, 19194.395
542.301, 15777.438
543.623, 12780.670
544.944, 10092.423
546.265, 8534.931
547.585, 6988.037
548.906, 5924.798
550.226, 5022.201
551.547, 4301.026
552.867, 3942.118
554.186, 3290.532
555.506, 2934.017
556.825, 2593.538
558.145, 2335.524
559.464, 2131.054
560.783, 1868.930
562.101, 1801.808
563.420, 1540.688
564.738, 1419.570
566.056, 1354.453
567.374, 1133.338
568.692, 1105.225
570.009, 1035.113
571.326, 889.003
572.643, 890.896
573.960, 710.791
575.277, 699.686
576.594, 607.583
577.910, 583.482
579.226, 604.383
580.542, 468.284
581.858, 507.188
583.173, 443.093
584.489, 425.000
585.804, 401.908
587.119, 394.838
588.434, 416.827
589.748, 411.859
591.063, 391.985
592.377, 306.230
593.691, 313.604
595.005, 278.106
596.318, 203.752
597.632, 251.525
598.945, 188.419
600.258, 186.420
601.571, 214.537
602.884, 155.759
604.196, 223.042
605.508, 184.379
606.821, 202.726
608.132, 237.075
609.444, 192.426
610.756, 201.779
612.067, 123.134
613.378, 130.491
614.689, 124.850
616.000, 6.211
617.311, 73.573
618.621, 55.937
619.931, 49.697
621.241, 20.662
622.551, 25.977
623.861, 23.619
625.170, 41.263
626.479, 62.912
627.788, 12.410
629.097, 36.762
630.406, 39.829
631.714, 33.370
633.023, 60.635
634.331, 55.920
635.639, 51.209
636.946, 38.794
638.254, 70.337
639.561, 52.546
640.868, 34.734
642.175, 67.721
643.482, 7.640
644.789, 56.544
646.095, 0.277
647.401, 35.955
648.707, 15.438
650.013, 80.188
651.319, 111.621
652.624, 186.989
653.929, 191.424
655.234, 246.422
656.539, 287.127
657.844, 399.598
659.148, 427.892
660.453, 538.212
661.757, 572.354
663.061, 676.771
664.364, 787.350
665.668, 830.824
666.971, 918.078
668.274, 989.043
669.577, 1007.430
670.880, 919.223
672.183, 926.806
673.485, 777.621
674.787, 685.432
676.089, 623.896
677.391, 504.982
678.693, 442.003
679.994, 403.626
681.296, 318.202
682.597, 293.013
683.898, 244.962
685.198, 269.016
686.499, 253.086
687.799, 216.957
689.099, 326.841
690.399, 257.475
691.699, 356.056
692.998, 364.714
694.298, 379.328
695.597, 475.990
696.896, 476.889
698.195, 538.501
699.493, 688.160
700.792, 706.727
702.090, 800.009
703.388, 869.495
704.686, 956.769
705.984, 1147.610
707.281, 1304.024
708.578, 1619.223
709.876, 1879.690
711.172, 2255.023
712.469, 2616.355
713.766, 2768.783
715.062, 2839.049
716.358, 2833.511
717.654, 2611.858
718.950, 2358.050
720.246, 1948.361
721.541, 1732.609
722.836, 1380.761
724.131, 1201.064
725.426, 996.313
726.721, 855.420
728.015, 749.728
729.310, 568.856
730.604, 593.864
731.898, 550.942
733.191, 459.882
734.485, 476.864
735.778, 397.716
737.071, 437.656
738.364, 399.612
739.657, 424.514
740.950, 429.112
742.242, 436.220
743.535, 442.912
744.827, 515.657
746.118, 526.384
747.410, 657.088
748.702, 723.775
749.993, 716.443
751.284, 861.093
752.575, 920.723
753.866, 942.333
755.156, 1034.921
756.447, 1099.488
757.737, 1098.033
759.027, 1074.556
760.316, 1034.056
761.606, 986.532
762.896, 923.986
764.185, 954.416
765.474, 844.821
766.763, 821.204
768.051, 754.562
769.340, 636.897
770.628, 600.208
771.916, 514.491
773.204, 437.754
774.492, 377.992
775.780, 363.322
777.067, 286.511
778.354, 267.317
779.641, 202.136
780.928, 189.560
782.215, 132.366
783.501, 137.278
784.787, 63.721
786.073, 69.057
787.359, 75.509
788.645, 2.788
789.930, 75.994
791.216, 0.881
792.501, 15.960
793.786, 21.790
795.071, 31.138
796.355, 2.474
797.640, 27.461
798.924, 27.010
800.208, 29.778
801.492, 76.373
802.775, 16.018
804.059, 67.717
805.342, 46.497
806.625, 29.347
807.908, 30.258
809.191, 7.231
810.474, 50.254
811.756, 62.349
813.038, 43.524
814.320, 75.767
815.602, 25.097
816.884, 29.486
818.165, 79.938
819.446, 46.477
820.727, 59.031
822.008, 6.776
823.289, 45.514
824.569, 20.323
825.850, 17.188
827.130, 21.109
828.410, 11.913
829.690, 0.105
830.969, 5.831
832.249, 34.724
833.528, 19.416
834.807, 15.388
836.086, 52.154
837.364, 35.890
838.643, 29.594
839.921, 28.263
841.199, 38.900
842.477, 36.505
843.755, 75.078
845.033, 84.622
846.310, 63.137
847.587, 70.624
848.864, 56.080
850.141, 29.508
851.418, 61.903
852.694, 49.269
853.971, 67.604
855.247, 134.912
856.523, 84.193
857.798, 132.445
859.074, 27.671
860.349, 95.865
861.624, 146.032
862.899, 79.173
864.174, 109.285
865.449, 108.370
866.723, 82.429
867.998, 106.459
869.272, 79.463
870.545, 91.439
871.819, 124.388
873.093, 92.311
874.366, 103.207
875.639, 122.076
876.912, 81.920
878.185, 90.736
879.458, 120.526
880.730, 68.296
882.002, 107.039
883.274, 131.755
884.546, 110.449
885.818, 139.118
887.090, 124.761
888.361, 151.382
889.632, 125.978
890.903, 117.557
892.174, 126.111
893.444, 139.642
894.715, 137.251
895.985, 151.635
897.255, 145.097
898.525, 144.536
899.795, 148.954
901.064, 182.350
902.334, 145.725
903.603, 187.081
904.872, 201.414
906.140, 189.726
907.409, 219.016
908.677, 186.283
909.946, 231.530
911.214, 185.755
912.482, 214.958
913.749, 221.141
915.017, 214.303
916.284, 247.444
917.551, 326.563
918.818, 269.663
920.085, 349.740
921.352, 359.798
922.618, 354.836
923.884, 417.854
925.150, 436.851
926.416, 519.832
927.682, 560.794
928.947, 604.742
930.213, 690.669
931.478, 864.580
932.743, 1070.472
934.008, 1279.349
935.272, 1626.051
936.537, 1886.750
937.801, 2191.125
939.065, 2339.505
940.329, 2272.895
941.593, 2188.280
942.856, 1909.648
944.119, 1680.290
945.383, 1428.871
946.646, 1182.128
947.908, 1021.816
949.171, 899.264
950.433, 807.190
951.696, 763.627
952.958, 687.895
954.220, 645.720
955.481, 674.302
956.743, 632.364
958.004, 619.712
959.265, 658.881
960.526, 614.459
961.787, 696.460
963.048, 771.738
964.308, 886.238
965.569, 1011.905
966.829, 1123.533
968.089, 1302.328
969.348, 1421.835
970.608, 1610.165
971.867, 1760.585
973.126, 1882.213
974.385, 2278.114
975.644, 2480.583
976.903, 2597.629
978.161, 2730.872
979.420, 2729.871
980.678, 2575.858
981.936, 2369.178
983.193, 2006.865
984.451, 1737.602
985.708, 1555.722
986.966, 1356.877
988.223, 1283.781
989.479, 1279.535
990.736, 1287.168
991.993, 1284.769
993.249, 1384.557
994.505, 1462.319
995.761, 1570.323
997.017, 1692.366
998.272, 1711.317
999.528, 1797.311
1000.783, 1809.249
1002.038, 1755.939
1003.293, 1773.908
1004.548, 1740.821
1005.802, 1690.814
1007.057, 1687.090
1008.311, 1641.155
1009.565, 1500.422
1010.818, 1501.123
1012.072, 1347.239
1013.326, 1243.568
1014.579, 1218.623
1015.832, 1238.806
1017.085, 1176.989
1018.338, 1265.066
1019.590, 1315.252
1020.842, 1314.340
1022.095, 1451.480
1023.347, 1502.761
1024.599, 1632.916
1025.850, 1790.119
1027.102, 1996.417
1028.353, 2328.549
1029.604, 2625.727
1030.855, 2879.155
1032.106, 3267.248
1033.356, 3521.511
1034.607, 3679.199
1035.857, 3900.485
1037.107, 4005.907
1038.357, 4107.286
1039.607, 4521.768
1040.856, 5001.754
1042.106, 5586.111
1043.355, 6307.511
1044.604, 7220.199
1045.852, 7929.659
1047.101, 7484.171
1048.350, 7244.678
1049.598, 6144.597
1050.846, 5323.295
1052.094, 4846.846
1053.342, 4032.321
1054.589, 3529.888
1055.837, 3059.181
1057.084, 2623.933
1058.331, 2320.494
1059.578, 2156.050
1060.824, 2043.769
1062.071, 1922.420
1063.317, 1857.991
1064.563, 1818.643
1065.809, 1791.221
1067.055, 1772.807
1068.301, 1820.397
1069.546, 1945.991
1070.791, 1948.591
1072.036, 2144.438
1073.281, 2288.044
1074.526, 2377.655
1075.771, 2478.922
1077.015, 2551.327
1078.259, 2661.594
1079.503, 2661.218
1080.747, 2709.846
1081.991, 2760.479
1083.234, 2717.115
1084.478, 2774.792
1085.721, 2723.437
1086.964, 2565.088
1088.206, 2504.749
1089.449, 2288.417
1090.691, 2174.090
1091.934, 1948.802
1093.176, 1809.500
1094.418, 1640.225
1095.659, 1501.958
1096.901, 1439.753
1098.142, 1400.528
1099.384, 1293.319
1100.625, 1172.182
1101.865, 1196.098
1103.106, 1182.953
1104.347, 1197.843
1105.587, 1239.764
1106.827, 1101.756
1108.067, 1227.757
1109.307, 1131.826
1110.546, 1086.887
1111.786, 1096.034
1113.025, 1065.374
1114.264, 1016.330
1115.503, 945.126
1116.742, 849.359
1117.980, 856.774
1119.219, 769.101
1120.457, 665.464
1121.695, 668.273
1122.933, 568.653
1124.171, 548.350
1125.408, 526.926
1126.645, 419.401
1127.883, 441.369
1129.120, 434.870
1130.356, 355.435
1131.593, 366.338
1132.829, 314.830
1134.066, 297.311
1135.302, 299.380
1136.538, 235.851
1137.773, 229.328
1139.009, 217.811
1140.244, 213.302
1141.480, 205.963
1142.715, 157.982
1143.950, 167.716
1145.184, 232.608
1146.419, 166.478
1147.653, 179.358
1148.887, 110.569
1150.121, 92.564
1151.355, 90.581
1152.589, 69.366
1153.822, 97.014
1155.056, 81.839
1156.289, 97.526
1157.522, 114.307
1158.755, 109.573
1159.987, 73.848
1161.220, 103.663
1162.452, 59.591
1163.684, 25.270
1164.916, 75.529
1166.148, 15.276
1167.379, 50.539
1168.611, 23.095
1169.842, 35.732
1171.073, 101.531
1172.304, 55.082
1173.534, 71.623
1174.765, 35.723
1175.995, 14.469
1177.225, 48.438
1178.455, 45.485
1179.685, 32.314
1180.915, 66.814
1182.144, 20.371
1183.374, 26.399
1184.603, 73.865
1185.832, 0.649
1187.060, 47.249
1188.289, 52.119
1189.518, 15.568
1190.746, 81.256
1191.974, 14.821
1193.202, 3.877
1194.430, 5.018
1195.657, 20.927
1196.884, 21.438
1198.112, 12.122
1199.339, 2.520
1200.566, 34.726
1201.792, 40.410
1203.019, 41.974
1204.245, 30.821
1205.471, 0.524
1206.697, 40.217
1207.923, 9.628
1209.149, 6.063
1210.374, 16.495
1211.600, 5.516
1212.825, 22.122
1214.050, 0.945
1215.275, 38.949
1216.499, 60.488
1217.724, 38.899
1218.948, 10.476
1220.172, 19.058
1221.396, 2.829
1222.620, 20.636
1223.843, 14.918
1225.067, 24.619
1226.290, 25.156
1227.513, 11.726
1228.736, 25.431
1229.959, 27.054
1231.181, 0.789
1232.404, 32.435
1233.626, 24.049
1234.848, 12.662
1236.070, 33.366
1237.291, 31.987
1238.513, 10.234
1239.734, 19.789
1240.955, 14.830
1242.177, 29.408
1243.397, 8.955
1244.618, 33.510
1245.838, 55.051
1247.059, 9.606
1248.279, 3.223
1249.499, 23.754
1250.719, 41.316
1251.938, 22.954
1253.158, 14.515
1254.377, 19.796
1255.596, 9.827
1256.815, 18.142
1258.034, 2.726
1259.253, 2.810
1260.471, 14.353
1261.689, 10.549
1262.907, 14.784
1264.125, 0.723
1265.343, 4.912
1266.561, 5.765
1267.778, 6.311
1268.995, 17.125
1270.212, 2.541
1271.429, 0.882
1272.646, 12.188
1273.862, 5.520
1275.079, 16.777
1276.295, 5.030
1277.511, 2.502
1278.727, 30.845
1279.943, 36.046
1281.158, 3.553
1282.373, 3.534
1283.589, 3.695
1284.804, 3.815
1286.019, 3.925
1287.233, 3.044
1288.448, 0.132
1289.662, 10.807
1290.876, 3.228
1292.090, 30.260
1293.304, 31.737
1294.518, 16.757
1295.731, 3.205
1296.944, 12.847
1298.158, 9.081
1299.371, 35.995
1300.583, 8.884
1301.796, 29.752
1303.008, 11.602
1304.221, 12.437
1305.433, 16.257
1306.645, 12.062
1307.856, 8.150
1309.068, 40.616
1310.280, 3.365
1311.491, 27.100
1312.702, 12.187
1313.913, 32.499
1315.124, 57.210
1316.334, 13.850
1317.545, 4.529
1318.755, 23.070
1319.965, 29.348
1321.175, 36.214
1322.385, 5.253
1323.594, 11.241
1324.804, 22.597
1326.013, 2.056
1327.222, 21.494
1328.431, 30.599
1329.639, 28.995
1330.848, 35.414
1332.056, 20.763
1333.265, 11.894
1334.473, 47.828
1335.680, 48.133
1336.888, 4.581
1338.096, 45.462
1339.303, 9.710
1340.510, 16.938
1341.717, 61.150
1342.924, 5.936
1344.131, 66.937
1345.337, 24.072
1346.544, 9.271
1347.750, 84.517
1348.956, 51.281
1350.162, 39.804
1351.367, 41.880
1352.573, 8.061
1353.778, 71.829
1354.983, 72.777
1356.188, 11.790
1357.393, 94.706
1358.598, 21.714
1359.802, 5.320
1361.007, 81.636
1362.211, 4.880
1363.415, 54.516
1364.619, 97.493
1365.822, 27.036
1367.026, 113.784
1368.229, 34.961
1369.432, 79.127
1370.635, 94.241
1371.838, 74.376
1373.041, 43.493
1374.243, 64.569
1375.446, 39.638
1376.648, 61.659
1377.850, 70.655
1379.052, 6.602
1380.253, 51.612
1381.455, 72.525
1382.656, 17.372
1383.857, 123.884
1385.058, 24.020
1386.259, 82.558
1387.459, 141.147
1388.660, 88.255
1389.860, 107.337
1391.060, 87.286
1392.260, 72.762
1393.460, 110.865
1394.660, 84.802
1395.859, 58.543
1397.059, 160.272
1398.258, 82.094
1399.457, 81.654
1400.655, 125.663
1401.854, 64.347
1403.052, 91.540
1404.251, 107.548
1405.449, 39.560
1406.647, 92.465
1407.845, 73.625
1409.042, 42.915
1410.240, 150.592
1411.437, 111.426
1412.634, 65.348
1413.831, 128.908
1415.028, 53.729
1416.224, 117.807
1417.421, 78.141
1418.617, 66.290
1419.813, 125.658
1421.009, 25.430
1422.205, 38.940
1423.401, 104.686
1424.596, 2.104
1425.791, 51.391
1426.986, 78.794
1428.181, 69.769
1429.376, 77.914
1430.571, 53.519
1431.765, 57.055
1432.960, 127.048
1434.154, 70.667
1435.348, 52.164
1436.541, 150.040
1437.735, 67.956
1438.929, 88.168
1440.122, 100.896
1441.315, 72.365
1442.508, 66.969
1443.701, 124.083
1444.893, 94.059
1446.086, 82.526
1447.278, 74.994
1448.470, 66.342
1449.662, 93.575
1450.854, 70.798
1452.046, 77.615
1453.237, 96.460
1454.428, 43.310
1455.619, 63.433
1456.810, 117.746
1458.001, 28.875
1459.192, 169.839
1460.382, 89.626
1461.573, 43.332
1462.763, 97.264
1463.953, 34.537
1465.143, 49.136
1466.332, 107.126
1467.522, 44.073
1468.711, 104.981
1469.900, 67.936
1471.089, 30.906
1472.278, 93.908
1473.467, 20.831
1474.655, 37.701
1475.843, 72.642
1477.032, 53.610
1478.220, 25.539
1479.407, 94.450
1480.595, 43.333
1481.783, 62.248
1482.970, 88.885
1484.157, 45.844
1485.344, 82.749
1486.531, 92.890
1487.718, 48.180
1488.904, 130.510
1490.090, 1.406
1491.277, 1.010
1492.463, 131.480
1493.648, 19.059
1494.834, 61.777
1496.020, 123.673
1497.205, 42.748
1498.390, 45.907
1499.575, 100.246
1500.760, 18.965
1501.945, 104.776
1503.129, 58.306
1504.314, 0.262
1505.498, 0.000
##END=



