##NAMES=Metatorbernite
##RRUFFID=R070686
##IDEAL CHEMISTRY=Cu^2+^(U^6+^O_2_)_2_(PO_4_)_2_&#183;8H_2_O
##LOCALITY=Fichtelgebirge, Franconia, Bavaria, Germany
##OWNER=RRUFF
##SOURCE=Michael Scott
##DESCRIPTION=Green tabular crystals
##STATUS=The identification of this mineral has been confirmed by X-ray diffraction.
##URL=rruff.info/R070686
##PIN_ID=M01699
##ORIENTATION=Laser parallel to c* (0 0 1). Fiducial mark perpendicular to laser is parallel to b [0 1 0]
136.1040, 0.0000000E+00
137.3420, 79.77734
138.5800, 92.34766
139.8180, 185.4863
141.0560, 50.29297
142.2940, 117.4473
143.5310, 66.83789
144.7680, 113.6348
146.0050, 120.1699
147.2420, 184.6562
148.4790, 112.2969
149.7150, 6.937500
150.9510, 106.5176
152.1870, 51.52930
153.4230, 43.06445
154.6590, 20.90625
155.8940, 29.77344
157.1300, 5.330078
158.3650, 214.8203
159.6000, 177.1504
160.8340, 338.1992
162.0690, 164.5703
163.3030, 163.9160
164.5370, 127.9414
165.7710, 423.3750
167.0050, 491.9922
168.2380, 477.5879
169.4720, 340.9805
170.7050, 485.0078
171.9380, 595.5273
173.1700, 428.4004
174.4030, 666.3984
175.6350, 900.2598
176.8680, 1006.777
178.1000, 1224.797
179.3310, 1119.178
180.5630, 1373.814
181.7940, 1500.617
183.0260, 1953.504
184.2570, 2040.418
185.4870, 2503.293
186.7180, 2664.082
187.9480, 3075.742
189.1790, 3532.229
190.4090, 3442.504
191.6390, 4018.539
192.8680, 4112.299
194.0980, 4490.756
195.3270, 4462.885
196.5560, 4086.656
197.7850, 3883.049
199.0140, 3567.041
200.2420, 3203.613
201.4710, 2793.742
202.6990, 2528.412
203.9270, 2364.602
205.1550, 2341.299
206.3820, 2300.486
207.6090, 2256.145
208.8370, 2394.107
210.0640, 2479.455
211.2900, 2650.711
212.5170, 2939.127
213.7440, 2972.791
214.9700, 3178.807
216.1960, 3251.271
217.4220, 3381.055
218.6470, 3528.004
219.8730, 3678.943
221.0980, 3688.750
222.3230, 3916.248
223.5480, 3778.469
224.7730, 3700.439
225.9970, 3821.180
227.2220, 3644.715
228.4460, 3594.162
229.6700, 3491.201
230.8940, 3301.193
232.1170, 3186.018
233.3400, 2908.688
234.5640, 2717.213
235.7870, 2998.594
237.0100, 2662.840
238.2320, 2847.947
239.4550, 2843.926
240.6770, 2877.770
241.8990, 3166.486
243.1210, 2934.066
244.3420, 2981.514
245.5640, 3119.824
246.7850, 3134.998
248.0060, 3104.031
249.2270, 3197.375
250.4480, 3248.672
251.6690, 3260.275
252.8890, 3333.729
254.1090, 3309.035
255.3290, 3388.668
256.5490, 3411.469
257.7680, 3463.033
258.9880, 3483.723
260.2070, 3399.252
261.4260, 3431.350
262.6450, 3484.609
263.8640, 3593.854
265.0820, 3693.717
266.3000, 3779.410
267.5180, 3994.924
268.7360, 3722.262
269.9540, 4178.412
271.1720, 4075.377
272.3890, 4221.154
273.6060, 4376.736
274.8230, 4663.123
276.0400, 4732.309
277.2560, 4732.291
278.4730, 5005.068
279.6890, 4965.631
280.9050, 5234.980
282.1210, 5631.115
283.3370, 5415.740
284.5520, 5723.061
285.7670, 5303.684
286.9820, 5413.076
288.1970, 5487.436
289.4120, 5607.391
290.6270, 5586.164
291.8410, 5768.164
293.0550, 5799.602
294.2690, 5917.453
295.4830, 5728.621
296.6970, 5640.924
297.9100, 5839.547
299.1230, 5688.789
300.3360, 5688.305
301.5490, 5928.154
302.7620, 5896.984
303.9740, 5823.984
305.1860, 6122.043
306.3990, 6083.092
307.6110, 6112.107
308.8220, 6093.080
310.0340, 6249.992
311.2450, 6345.805
312.4560, 6062.510
313.6670, 6304.086
314.8780, 6425.527
316.0890, 6376.801
317.2990, 6013.873
318.5090, 6489.711
319.7200, 6396.305
320.9290, 6712.662
322.1390, 6362.764
323.3490, 6202.584
324.5580, 6536.145
325.7670, 6664.420
326.9760, 6506.475
328.1850, 6574.211
329.3930, 6681.650
330.6020, 6766.805
331.8100, 6556.639
333.0180, 6502.123
334.2260, 6752.262
335.4340, 6639.059
336.6410, 7024.492
337.8480, 6747.553
339.0550, 7072.238
340.2620, 6991.572
341.4690, 6782.506
342.6760, 6849.031
343.8820, 6867.148
345.0880, 7200.846
346.2940, 6923.123
347.5000, 7020.969
348.7060, 6979.383
349.9110, 6907.355
351.1160, 6867.881
352.3210, 7080.963
353.5260, 6911.592
354.7310, 7234.754
355.9360, 6940.453
357.1400, 6991.711
358.3440, 7249.502
359.5480, 7274.842
360.7520, 7094.715
361.9550, 7147.133
363.1590, 6974.080
364.3620, 6956.568
365.5650, 7082.598
366.7680, 7037.172
367.9710, 7081.279
369.1730, 7221.939
370.3760, 7010.125
371.5780, 7292.842
372.7800, 7349.086
373.9810, 7226.867
375.1830, 7034.191
376.3840, 7446.055
377.5860, 7190.434
378.7870, 6794.348
379.9880, 7020.770
381.1880, 7050.693
382.3890, 6987.154
383.5890, 7069.123
384.7890, 6835.584
385.9890, 7122.551
387.1890, 6787.006
388.3880, 7085.986
389.5880, 7096.490
390.7870, 7131.484
391.9860, 7207.994
393.1850, 7231.564
394.3840, 7294.996
395.5820, 7264.457
396.7800, 7446.922
397.9790, 7349.859
399.1770, 7498.266
400.3740, 7780.141
401.5720, 7354.471
402.7690, 7636.273
403.9670, 7498.533
405.1640, 7631.264
406.3600, 7717.453
407.5570, 7557.143
408.7540, 7539.199
409.9500, 7548.900
411.1460, 7227.977
412.3420, 7263.504
413.5380, 7046.484
414.7330, 6905.891
415.9290, 7093.748
417.1240, 6653.039
418.3190, 6476.736
419.5140, 6641.885
420.7090, 6727.473
421.9030, 6416.510
423.0970, 6241.961
424.2920, 6463.832
425.4860, 6479.164
426.6790, 6421.859
427.8730, 6537.500
429.0660, 6464.949
430.2600, 6661.852
431.4530, 6514.969
432.6460, 6498.598
433.8380, 6781.711
435.0310, 7068.471
436.2230, 7023.084
437.4150, 7185.596
438.6070, 7075.555
439.7990, 7150.168
440.9910, 7047.920
442.1820, 6897.006
443.3730, 6987.283
444.5640, 6619.879
445.7550, 6506.715
446.9460, 6282.971
448.1370, 6217.053
449.3270, 5924.754
450.5170, 5826.725
451.7070, 5914.590
452.8970, 5644.262
454.0870, 5405.465
455.2760, 5471.836
456.4650, 5414.502
457.6550, 5078.354
458.8430, 5168.094
460.0320, 5111.992
461.2210, 4944.943
462.4090, 5414.162
463.5970, 4882.535
464.7850, 4870.395
465.9730, 4827.611
467.1610, 5161.230
468.3480, 4734.246
469.5360, 4715.420
470.7230, 4590.680
471.9100, 4216.930
473.0970, 4150.449
474.2830, 4035.830
475.4700, 4168.805
476.6560, 3957.824
477.8420, 3770.324
479.0280, 3815.641
480.2140, 3620.059
481.3990, 3617.102
482.5850, 3646.627
483.7700, 3312.883
484.9550, 3377.482
486.1400, 3307.438
487.3240, 3094.734
488.5090, 3367.363
489.6930, 2788.342
490.8770, 3013.664
492.0610, 2934.350
493.2450, 3009.320
494.4290, 2868.609
495.6120, 2843.920
496.7950, 2877.828
497.9780, 2560.564
499.1610, 2829.326
500.3440, 2441.320
501.5260, 2499.197
502.7090, 2269.713
503.8910, 2337.715
505.0730, 2349.949
506.2550, 2453.670
507.4360, 2299.307
508.6180, 2357.365
509.7990, 2091.115
510.9800, 2233.391
512.1610, 2006.844
513.3420, 2007.061
514.5230, 1848.834
515.7030, 1936.051
516.8830, 1648.873
518.0630, 1853.318
519.2430, 1555.191
520.4230, 1593.414
521.6020, 1584.539
522.7820, 1517.268
523.9610, 1488.773
525.1400, 1366.006
526.3190, 1425.314
527.4970, 1282.291
528.6760, 1391.889
529.8540, 1251.348
531.0320, 1327.803
532.2100, 1063.717
533.3880, 1127.410
534.5660, 1326.027
535.7430, 1052.004
536.9200, 868.1133
538.0970, 982.5352
539.2740, 697.5293
540.4510, 662.7324
541.6270, 588.5723
542.8040, 521.5039
543.9800, 555.1523
545.1560, 542.2539
546.3320, 640.4570
547.5080, 560.2285
548.6830, 629.1172
549.8580, 517.9785
551.0340, 436.3262
552.2090, 276.7266
553.3830, 279.8262
554.5580, 426.0527
555.7320, 414.2734
556.9070, 398.7891
558.0810, 427.6699
559.2550, 335.7793
560.4280, 203.8730
561.6020, 184.8145
562.7750, 142.8125
563.9490, 71.31445
565.1220, 184.3613
566.2950, 131.0039
567.4670, 125.2363
568.6400, 139.9727
569.8120, 39.23633
570.9840, 272.2539
572.1560, 3.982422
573.3280, 182.6504
574.5000, 108.0625
575.6710, 148.8672
576.8430, 261.5957
578.0140, 441.7754
579.1850, 157.6309
580.3560, 84.38281
581.5260, 178.5039
582.6970, 263.2129
583.8670, 119.5234
585.0370, 209.1738
586.2070, 96.78320
587.3770, 124.9590
588.5460, 283.7402
589.7160, 308.4922
590.8850, 350.5898
592.0540, 408.5117
593.2230, 410.1289
594.3920, 303.6719
595.5600, 343.6641
596.7290, 334.6934
597.8970, 370.1523
599.0650, 276.7246
600.2330, 158.6445
601.4000, 16.58008
602.5680, 45.45898
603.7350, 176.1191
604.9020, 119.1992
606.0690, 8.435547
607.2360, 212.6562
608.4030, 75.96484
609.5690, 493.2109
610.7360, 7.599609
611.9020, 191.7383
613.0680, 255.1055
614.2340, 90.76367
615.3990, 56.92969
616.5650, 26.42773
617.7300, 102.7520
618.8950, 21.28906
620.0600, 33.53906
621.2250, 25.27148
622.3890, 121.2402
623.5540, 142.1680
624.7180, 183.8984
625.8820, 158.0645
627.0460, 162.4375
628.2100, 175.2285
629.3730, 159.4961
630.5370, 213.0957
631.7000, 146.1426
632.8630, 186.4102
634.0260, 184.5781
635.1890, 119.8027
636.3510, 331.6465
637.5140, 141.0625
638.6760, 49.25586
639.8380, 175.2871
641.0000, 107.4688
642.1610, 194.7773
643.3230, 185.5527
644.4840, 196.7656
645.6450, 190.5039
646.8060, 127.3398
647.9670, 129.5879
649.1280, 122.3887
650.2880, 91.00781
651.4490, 204.4766
652.6090, 190.7500
653.7690, 149.8594
654.9290, 119.5391
656.0880, 66.84570
657.2480, 64.28516
658.4070, 209.2871
659.5660, 93.74609
660.7250, 232.0078
661.8840, 337.1133
663.0430, 36.07227
664.2010, 206.8008
665.3600, 429.3535
666.5180, 180.7559
667.6760, 322.9609
668.8330, 54.00586
669.9910, 87.80664
671.1480, 244.3633
672.3060, 106.7227
673.4630, 144.8320
674.6200, 372.6816
675.7770, 240.3379
676.9330, 146.7656
678.0900, 341.8848
679.2460, 351.7676
680.4020, 280.4023
681.5580, 358.7695
682.7140, 281.8594
683.8690, 403.6543
685.0250, 224.1953
686.1800, 336.3887
687.3350, 107.2637
688.4900, 252.7305
689.6450, 366.8418
690.7990, 220.6270
691.9540, 289.0332
693.1080, 356.0742
694.2620, 436.7715
695.4160, 325.1367
696.5700, 413.1309
697.7230, 582.7812
698.8770, 302.1172
700.0300, 324.0605
701.1830, 312.6074
702.3360, 478.7520
703.4890, 448.5371
704.6410, 476.5840
705.7930, 344.9492
706.9460, 514.6016
708.0980, 466.5293
709.2500, 586.4043
710.4010, 393.9219
711.5530, 407.9434
712.7040, 430.6230
713.8560, 415.9766
715.0070, 450.9141
716.1580, 357.9688
717.3080, 516.6934
718.4590, 521.8027
719.6090, 615.3457
720.7590, 504.3320
721.9090, 494.8164
723.0590, 582.8613
724.2090, 586.1992
725.3590, 480.3516
726.5080, 505.8242
727.6570, 504.4375
728.8060, 478.7168
729.9550, 657.5410
731.1040, 488.8125
732.2530, 416.4707
733.4010, 426.5996
734.5490, 678.5039
735.6970, 496.0840
736.8450, 527.4922
737.9930, 660.5547
739.1400, 575.1465
740.2880, 481.4668
741.4350, 717.3359
742.5820, 302.6445
743.7290, 464.0039
744.8760, 494.4805
746.0220, 574.1621
747.1690, 750.9414
748.3150, 438.2500
749.4610, 688.0586
750.6070, 511.8809
751.7530, 553.2109
752.8980, 666.1758
754.0440, 772.9688
755.1890, 621.9199
756.3340, 646.4961
757.4790, 788.0020
758.6240, 735.3633
759.7680, 797.0547
760.9130, 664.2148
762.0570, 864.5840
763.2010, 677.5547
764.3450, 826.1016
765.4890, 949.2461
766.6320, 631.9961
767.7760, 725.3066
768.9190, 900.1934
770.0620, 884.6426
771.2050, 948.5957
772.3480, 1018.416
773.4900, 962.0000
774.6330, 989.9043
775.7750, 999.9004
776.9170, 999.7715
778.0590, 914.2637
779.2010, 963.3945
780.3420, 1081.473
781.4840, 908.3027
782.6250, 1093.869
783.7660, 984.0957
784.9070, 1114.230
786.0480, 1145.744
787.1890, 1245.734
788.3290, 1368.309
789.4690, 1389.453
790.6100, 1520.867
791.7490, 1593.529
792.8890, 1649.951
794.0290, 1791.006
795.1680, 1771.197
796.3080, 1929.170
797.4470, 1990.453
798.5860, 2047.377
799.7250, 2168.262
800.8630, 2347.311
802.0020, 2495.746
803.1400, 2695.322
804.2780, 2895.139
805.4160, 3157.525
806.5540, 3361.254
807.6920, 3686.941
808.8300, 3826.889
809.9670, 4368.668
811.1040, 4614.510
812.2410, 5165.012
813.3780, 5690.285
814.5150, 6762.396
815.6510, 7832.121
816.7880, 9450.590
817.9240, 11204.51
819.0600, 13966.50
820.1960, 17740.82
821.3320, 21664.18
822.4670, 26630.55
823.6030, 32326.25
824.7380, 38751.73
825.8730, 43885.92
827.0080, 44914.38
828.1430, 42280.60
829.2770, 35995.89
830.4120, 27982.82
831.5460, 21021.53
832.6800, 15329.72
833.8140, 11729.32
834.9480, 9384.633
836.0810, 7626.363
837.2150, 6559.191
838.3480, 5440.727
839.4810, 5224.514
840.6140, 4487.510
841.7470, 3860.680
842.8800, 3733.453
844.0120, 2909.471
845.1450, 2772.281
846.2770, 2346.027
847.4090, 2047.805
848.5410, 1735.381
849.6720, 1714.074
850.8040, 1653.588
851.9350, 1593.740
853.0660, 1343.043
854.1970, 1458.689
855.3280, 1229.941
856.4590, 1279.271
857.5900, 1053.883
858.7200, 903.7715
859.8500, 1006.686
860.9800, 993.2383
862.1100, 842.0430
863.2400, 994.1309
864.3700, 767.8418
865.4990, 606.4355
866.6280, 766.6875
867.7570, 741.1504
868.8860, 644.1543
870.0150, 618.2344
871.1440, 641.9648
872.2720, 489.7461
873.4010, 586.2363
874.5290, 497.6914
875.6570, 642.6328
876.7850, 532.5020
877.9120, 587.6406
879.0400, 540.8281
880.1670, 602.9355
881.2940, 550.4316
882.4210, 777.7617
883.5480, 512.6855
884.6750, 891.1133
885.8020, 609.3574
886.9280, 491.2520
888.0540, 704.0371
889.1800, 569.1172
890.3060, 734.9062
891.4320, 678.3105
892.5580, 742.9883
893.6830, 896.1934
894.8080, 901.0645
895.9330, 947.5391
897.0580, 952.9023
898.1830, 944.0430
899.3080, 937.6875
900.4320, 900.5879
901.5570, 974.1289
902.6810, 976.5977
903.8050, 1063.691
904.9290, 848.5391
906.0520, 699.8203
907.1760, 681.8516
908.2990, 672.4746
909.4230, 581.1250
910.5460, 422.8516
911.6690, 543.4434
912.7910, 315.8320
913.9140, 191.7051
915.0360, 160.0742
916.1590, 31.59961
917.2810, 103.2832
918.4030, 27.19727
919.5240, 82.33203
920.6460, 15.79297
921.7680, 12.70508
922.8890, 11.55859
924.0100, 77.77344
925.1310, 35.39648
926.2520, 53.76172
927.3730, 74.65234
928.4930, 97.87305
929.6130, 137.9473
930.7340, 150.4414
931.8540, 170.7051
932.9740, 189.0215
934.0930, 190.9688
935.2130, 216.4648
936.3320, 213.9395
937.4520, 219.2871
938.5710, 217.6465
939.6900, 263.1602
940.8090, 259.7910
941.9270, 269.2969
943.0460, 258.0508
944.1640, 262.0625
945.2820, 204.3086
946.4000, 232.7559
947.5180, 241.4434
948.6360, 85.35156
949.7530, 176.3848
950.8710, 107.6074
951.9880, 158.9844
953.1050, 46.52148
954.2220, 108.1738
955.3390, 154.9512
956.4550, 92.11719
957.5720, 56.13086
958.6880, 8.076172
959.8040, 154.9961
960.9200, 207.8672
962.0360, 201.6797
963.1520, 152.4590
964.2670, 251.2012
965.3820, 235.8965
966.4980, 244.5391
967.6130, 403.1523
968.7280, 520.7227
969.8420, 673.2402
970.9570, 779.7246
972.0710, 831.2363
973.1850, 1015.721
974.3000, 1169.180
975.4140, 1349.619
976.5270, 1878.674
977.6410, 2475.471
978.7540, 3201.885
979.8680, 4090.293
980.9810, 5143.686
982.0940, 6100.094
983.2070, 7582.518
984.3200, 9221.959
985.4320, 10935.43
986.5440, 12530.91
987.6570, 14295.00
988.7690, 15237.55
989.8810, 16192.07
990.9920, 16573.16
992.1040, 16710.55
993.2160, 16541.33
994.3270, 16148.00
995.4380, 15147.96
996.5490, 14486.71
997.6600, 13376.59
998.7710, 11752.77
999.8810, 10240.30
1000.991, 8845.076
1002.102, 7642.756
1003.212, 6681.176
1004.322, 5805.465
1005.431, 4956.941
1006.541, 4237.609
1007.651, 3528.334
1008.760, 2899.070
1009.869, 2319.791
1010.978, 1814.438
1012.087, 1385.568
1013.195, 968.2422
1014.304, 990.5176
1015.412, 646.2559
1016.521, 648.1914
1017.629, 686.0645
1018.737, 665.4609
1019.844, 583.9629
1020.952, 233.9121
1022.059, 255.6348
1023.167, 142.8926
1024.274, 36.49414
1025.381, 140.0078
1026.488, 113.7227
1027.594, 7.662109
1028.701, 6.117188
1029.807, 57.13477
1030.913, 13.48242
1032.019, 29.12695
1033.125, 109.9766
1034.231, 179.5684
1035.337, 133.9941
1036.442, 204.1816
1037.548, 161.1035
1038.653, 264.1387
1039.758, 303.2930
1040.863, 386.5625
1041.967, 395.2793
1043.072, 325.4570
1044.176, 353.0742
1045.280, 328.8281
1046.384, 214.7578
1047.488, 262.2031
1048.592, 286.0898
1049.696, 202.7695
1050.799, 289.5059
1051.903, 226.3145
1053.006, 419.9473
1054.109, 211.0000
1055.212, 259.9043
1056.314, 360.7246
1057.417, 299.8223
1058.519, 323.2617
1059.621, 262.4395
1060.724, 300.2617
1061.826, 306.2480
1062.927, 367.4141
1064.029, 408.3887
1065.130, 459.7207
1066.232, 697.5352
1067.333, 443.7969
1068.434, 627.1348
1069.535, 494.1992
1070.636, 648.5371
1071.736, 678.5703
1072.837, 513.5371
1073.937, 705.3184
1075.037, 709.1641
1076.137, 725.2988
1077.237, 820.8379
1078.337, 686.4004
1079.436, 968.9570
1080.535, 765.6211
1081.635, 1174.150
1082.734, 827.4961
1083.833, 926.9023
1084.931, 997.2363
1086.030, 993.4160
1087.128, 876.2344
1088.227, 1152.309
1089.325, 987.7539
1090.423, 985.4121
1091.521, 1056.178
1092.618, 1129.277
1093.716, 1259.598
1094.813, 1371.145
1095.911, 1356.914
1097.008, 1456.914
1098.105, 1667.141
1099.202, 1427.600
1100.298, 1468.289
1101.395, 1400.213
1102.491, 1628.371
1103.587, 1434.770
1104.683, 1627.404
1105.779, 1709.281
1106.875, 1971.396
1107.971, 1810.758
1109.066, 1772.363
1110.161, 2133.217
1111.256, 1992.314
1112.351, 1885.664
1113.446, 1841.262
1114.541, 1989.113
1115.636, 2115.215
1116.730, 2271.576
1117.824, 2317.512
1118.918, 2369.523
1120.012, 2361.193
1121.106, 2418.586
1122.200, 2365.244
1123.293, 2455.168
1124.387, 2466.344
1125.480, 2251.842
1126.573, 2495.598
1127.666, 2376.631
1128.759, 2288.947
1129.851, 2647.543
1130.944, 2485.432
1132.036, 2650.621
1133.128, 2298.104
1134.220, 2686.879
1135.312, 2704.953
1136.404, 2608.328
1137.495, 2716.004
1138.587, 2505.992
1139.678, 2784.287
1140.769, 2962.891
1141.860, 2826.793
1142.951, 2928.008
1144.041, 3067.521
1145.132, 3196.344
1146.222, 3127.465
1147.313, 2888.891
1148.403, 2990.613
1149.493, 3093.643
1150.582, 3281.959
1151.672, 3032.574
1152.761, 3205.496
1153.851, 3379.713
1154.940, 3136.229
1156.029, 3392.035
1157.118, 3183.141
1158.207, 3322.471
1159.295, 3390.186
1160.384, 3414.137
1161.472, 3415.494
1162.560, 3346.039
1163.648, 3690.826
1164.736, 3209.133
1165.824, 3311.746
1166.911, 3565.670
1167.999, 3301.930
1169.086, 3278.490
1170.173, 3505.355
1171.260, 3678.547
1172.347, 3667.057
1173.434, 3624.877
1174.520, 3570.002
1175.606, 3457.461
1176.693, 3830.254
1177.779, 3740.371
1178.865, 3776.855
1179.951, 3575.703
1181.036, 3781.939
1182.122, 3631.510
1183.207, 3672.445
1184.292, 4047.764
1185.377, 3791.432
1186.462, 3732.475
1187.547, 3895.859
1188.632, 3795.613
1189.716, 4024.746
1190.800, 3860.258
1191.885, 3727.168
1192.969, 4014.461
1194.052, 4081.141
1195.136, 4050.199
1196.220, 3938.637
1197.303, 4109.475
1198.387, 3976.699
1199.470, 4040.324
1200.553, 4221.367
1201.636, 4172.818
1202.718, 4239.676
1203.801, 4083.928
1204.883, 4188.580
1205.966, 4049.648
1207.048, 4090.107
1208.130, 4100.973
1209.211, 4069.289
1210.293, 3952.979
1211.375, 4032.102
1212.456, 4271.631
1213.537, 4093.547
1214.618, 4070.836
1215.699, 4090.480
1216.780, 3940.467
1217.861, 3841.807
1218.941, 4073.510
1220.022, 4181.555
1221.102, 4218.920
1222.182, 3971.629
1223.262, 4199.656
1224.342, 4199.004
1225.422, 3979.691
1226.501, 4199.691
1227.580, 4116.023
1228.660, 4057.680
1229.739, 3922.656
1230.818, 3972.945
1231.896, 3833.555
1232.975, 4170.473
1234.054, 3817.697
1235.132, 4115.256
1236.210, 3993.141
1237.288, 4127.352
1238.366, 3932.883
1239.444, 3905.732
1240.521, 3885.895
1241.599, 3771.367
1242.676, 3949.150
1243.753, 3585.238
1244.830, 3897.633
1245.907, 3759.342
1246.984, 3801.346
1248.061, 3666.654
1249.137, 3548.262
1250.214, 3744.172
1251.290, 3685.381
1252.366, 3552.895
1253.442, 3728.697
1254.517, 3569.789
1255.593, 3807.170
1256.668, 3676.846
1257.744, 3389.807
1258.819, 3470.066
1259.894, 3329.611
1260.969, 3427.438
1262.044, 3238.549
1263.118, 3072.938
1264.193, 3156.607
1265.267, 3141.557
1266.341, 3205.176
1267.415, 3185.682
1268.489, 3064.461
1269.563, 3067.510
1270.636, 2952.828
1271.710, 3029.885
1272.783, 2886.736
1273.856, 2923.857
1274.929, 2654.240
1276.002, 2940.188
1277.075, 2704.492
1278.147, 2791.660
1279.220, 2929.770
1280.292, 2572.447
1281.364, 2525.381
1282.436, 2448.127
1283.508, 2627.566
1284.580, 2418.254
1285.652, 2387.818
1286.723, 2289.004
1287.794, 2377.980
1288.865, 2334.303
1289.936, 2292.975
1291.007, 2054.932
1292.078, 2144.158
1293.149, 2122.506
1294.219, 2249.164
1295.289, 2026.049
1296.360, 2142.504
1297.430, 1868.039
1298.499, 1781.916
1299.569, 1854.307
1300.639, 1674.340
1301.708, 1818.605
1302.778, 1863.869
1303.847, 1830.775
1304.916, 1788.271
1305.985, 1495.037
1307.053, 1729.893
1308.122, 1654.447
1309.190, 1481.973
1310.259, 1655.455
1311.327, 1604.137
1312.395, 1517.613
1313.463, 1467.340
1314.531, 1486.328
1315.598, 1486.311
