##NAMES=Metatorbernite
##RRUFFID=R070686
##IDEAL CHEMISTRY=Cu^2+^(U^6+^O_2_)_2_(PO_4_)_2_&#183;8H_2_O
##LOCALITY=Fichtelgebirge, Franconia, Bavaria, Germany
##OWNER=RRUFF
##SOURCE=Michael Scott
##DESCRIPTION=Green tabular crystals
##STATUS=The identification of this mineral has been confirmed by X-ray diffraction.
##URL=rruff.info/R070686
##PIN_ID=M00978
##ORIENTATION=Laser parallel to -a* (-1 0 0). Fiducial mark perpendicular to laser is parallel to c [0 0 1]
170.7050, 0.0000000E+00
171.9380, 58.60645
173.1700, 35.55859
174.4030, 8.303711
175.6350, 132.7969
176.8680, 15.11523
178.1000, 239.5020
179.3310, 279.2646
180.5630, 497.2803
181.7940, 602.9805
183.0260, 971.1045
184.2570, 1351.046
185.4870, 1550.078
186.7180, 1943.725
187.9480, 2307.669
189.1790, 2676.262
190.4090, 2999.188
191.6390, 3372.078
192.8680, 3624.774
194.0980, 3702.467
195.3270, 3423.804
196.5560, 3106.891
197.7850, 2724.775
199.0140, 2218.538
200.2420, 1831.238
201.4710, 1242.928
202.6990, 975.6445
203.9270, 626.4248
205.1550, 529.2949
206.3820, 492.3438
207.6090, 540.8721
208.8370, 496.6055
210.0640, 592.5713
211.2900, 514.6807
212.5170, 703.2549
213.7440, 892.4316
214.9700, 945.3271
216.1960, 1198.431
217.4220, 1405.262
218.6470, 1390.433
219.8730, 1576.260
221.0980, 1671.170
222.3230, 1664.376
223.5480, 1712.869
224.7730, 1494.643
225.9970, 1439.689
227.2220, 1243.004
228.4460, 1041.576
229.6700, 1092.399
230.8940, 888.4639
232.1170, 620.7617
233.3400, 495.2920
234.5640, 252.0508
235.7870, 347.0352
237.0100, 225.2471
238.2320, 170.6816
239.4550, 158.0508
240.6770, 219.2227
241.8990, 30.32520
243.1210, 44.64551
244.3420, 89.86035
245.5640, 47.68066
246.7850, 57.29004
248.0060, 92.99023
249.2270, 17.79492
250.4480, 93.71191
251.6690, 74.25293
252.8890, 73.09375
254.1090, 81.80957
255.3290, 4.603516
256.5490, 22.85449
257.7680, 118.1826
258.9880, 43.38086
260.2070, 109.4512
261.4260, 14.38867
262.6450, 34.19531
263.8640, 131.8721
265.0820, 112.4219
266.3000, 114.8467
267.5180, 14.14844
268.7360, 5.669922
269.9540, 136.6064
271.1720, 156.6641
272.3890, 194.3418
273.6060, 122.1416
274.8230, 199.5635
276.0400, 264.1104
277.2560, 187.7803
278.4730, 352.5742
279.6890, 449.4922
280.9050, 342.5098
282.1210, 525.6289
283.3370, 577.8750
284.5520, 677.2266
285.7670, 540.6357
286.9820, 665.1465
288.1970, 666.7207
289.4120, 740.3672
290.6270, 731.1035
291.8410, 775.8828
293.0550, 805.7715
294.2690, 767.1768
295.4830, 631.9600
296.6970, 686.2588
297.9100, 597.6963
299.1230, 536.2705
300.3360, 561.9824
301.5490, 558.8330
302.7620, 572.8184
303.9740, 616.9414
305.1860, 573.2031
306.3990, 506.6016
307.6110, 450.1377
308.8220, 543.8115
310.0340, 533.6240
311.2450, 676.5723
312.4560, 536.6562
313.6670, 588.8779
314.8780, 606.2383
316.0890, 564.7422
317.2990, 575.2168
318.5090, 385.2490
319.7200, 490.6709
320.9290, 481.2441
322.1390, 356.3770
323.3490, 394.7930
324.5580, 372.4570
325.7670, 545.3457
326.9760, 533.4395
328.1850, 522.7217
329.3930, 622.1758
330.6020, 529.7891
331.8100, 563.5527
333.0180, 618.4590
334.2260, 607.5020
335.4340, 632.6768
336.6410, 728.9736
337.8480, 642.3867
339.0550, 652.9072
340.2620, 744.5254
341.4690, 791.2363
342.6760, 768.0391
343.8820, 808.9062
345.0880, 854.9277
346.2940, 816.0146
347.5000, 785.1973
348.7060, 804.4756
349.9110, 844.8496
351.1160, 1060.319
352.3210, 848.8828
353.5260, 1113.471
354.7310, 1145.156
355.9360, 1130.937
357.1400, 1049.763
358.3440, 1121.589
359.5480, 1231.495
360.7520, 1248.410
361.9550, 1342.357
363.1590, 1440.323
364.3620, 1275.284
365.5650, 1386.342
366.7680, 1584.504
367.9710, 1451.768
369.1730, 1456.133
370.3760, 1519.600
371.5780, 1599.165
372.7800, 1790.830
373.9810, 1547.592
375.1830, 1553.451
376.3840, 1729.406
377.5860, 1820.456
378.7870, 1814.602
379.9880, 1768.840
381.1880, 1943.173
382.3890, 1852.596
383.5890, 2062.111
384.7890, 2127.717
385.9890, 2026.413
387.1890, 2061.182
388.3880, 2097.055
389.5880, 2275.828
390.7870, 2536.876
391.9860, 2542.013
393.1850, 2521.238
394.3840, 2888.534
395.5820, 3148.934
396.7800, 3576.326
397.9790, 3953.922
399.1770, 4400.310
400.3740, 4768.941
401.5720, 4992.820
402.7690, 5458.174
403.9670, 5628.622
405.1640, 6001.656
406.3600, 6228.337
407.5570, 6005.484
408.7540, 6199.060
409.9500, 5787.629
411.1460, 5149.234
412.3420, 4603.594
413.5380, 4152.459
414.7330, 3742.747
415.9290, 3420.896
417.1240, 3158.612
418.3190, 3011.833
419.5140, 2889.133
420.7090, 2776.888
421.9030, 2715.064
423.0970, 2671.727
424.2920, 2765.466
425.4860, 2759.319
426.6790, 2849.244
427.8730, 2847.246
429.0660, 2958.328
430.2600, 2876.496
431.4530, 3050.749
432.6460, 3027.090
433.8380, 3303.529
435.0310, 3353.051
436.2230, 3365.802
437.4150, 3616.532
438.6070, 3710.339
439.7990, 3954.256
440.9910, 3867.242
442.1820, 3970.480
443.3730, 3794.625
444.5640, 3792.850
445.7550, 3621.151
446.9460, 3246.093
448.1370, 3260.556
449.3270, 2948.105
450.5170, 2879.736
451.7070, 2652.442
452.8970, 2744.678
454.0870, 2481.591
455.2760, 2512.611
456.4650, 2450.328
457.6550, 2543.057
458.8430, 2346.324
460.0320, 2284.658
461.2210, 2309.090
462.4090, 2257.637
463.5970, 2297.274
464.7850, 2274.006
465.9730, 2138.823
467.1610, 2153.721
468.3480, 1923.713
469.5360, 2018.790
470.7230, 1885.948
471.9100, 1774.183
473.0970, 1778.503
474.2830, 1508.899
475.4700, 1635.381
476.6560, 1470.938
477.8420, 1361.572
479.0280, 1412.287
480.2140, 1274.078
481.3990, 1260.941
482.5850, 1354.884
483.7700, 1250.900
484.9550, 1235.993
486.1400, 1237.167
487.3240, 1160.413
488.5090, 1162.738
489.6930, 1133.135
490.8770, 929.6025
492.0610, 1087.152
493.2450, 913.7676
494.4290, 942.4561
495.6120, 883.2109
496.7950, 1043.035
497.9780, 958.9248
499.1610, 943.8789
500.3440, 915.8994
501.5260, 857.9854
502.7090, 791.1357
503.8910, 952.3506
505.0730, 857.6309
506.2550, 1010.976
507.4360, 888.3848
508.6180, 874.8584
509.7990, 702.3955
510.9800, 743.9951
512.1610, 757.6572
513.3420, 892.3818
514.5230, 805.1680
515.7030, 703.0156
516.8830, 675.9248
518.0630, 592.8945
519.2430, 558.9248
520.4230, 613.0127
521.6020, 627.1611
522.7820, 758.3682
523.9610, 723.5732
525.1400, 540.9551
526.3190, 617.3350
527.4970, 701.7734
528.6760, 476.2676
529.8540, 557.8174
531.0320, 395.4229
532.2100, 378.1025
533.3880, 564.8359
534.5660, 356.6338
535.7430, 627.4746
536.9200, 401.3691
538.0970, 503.4609
539.2740, 327.4736
540.4510, 374.5518
541.6270, 424.4277
542.8040, 502.6240
543.9800, 244.3643
545.1560, 310.4844
546.3320, 286.2695
547.5080, 481.7100
548.6830, 407.2129
549.8580, 213.2949
551.0340, 193.2578
552.2090, 123.9307
553.3830, 294.8281
554.5580, 117.9150
555.7320, 234.9658
556.9070, 323.8291
558.0810, 213.4326
559.2550, 143.3770
560.4280, 168.3623
561.6020, 278.6953
562.7750, 277.0469
563.9490, 51.44043
565.1220, 238.7061
566.2950, 4.589844
567.4670, 75.79590
568.6400, 57.19043
569.8120, 66.81152
570.9840, 160.8096
572.1560, 49.54980
573.3280, 70.42871
574.5000, 87.23242
575.6710, 87.06738
576.8430, 12.09863
578.0140, 60.64551
579.1850, 48.53223
580.3560, 3.286133
581.5260, 80.42480
582.6970, 19.95410
583.8670, 72.65234
585.0370, 132.5986
586.2070, 18.53125
587.3770, 45.08398
588.5460, 87.85645
589.7160, 93.70020
590.8850, 95.94922
592.0540, 164.8350
593.2230, 37.21680
594.3920, 91.35156
595.5600, 170.3721
596.7290, 44.64355
597.8970, 41.67285
599.0650, 169.4648
600.2330, 8.405273
601.4000, 113.7725
602.5680, 69.77930
603.7350, 82.43555
604.9020, 61.54590
606.0690, 50.41211
607.2360, 99.60156
608.4030, 203.5771
609.5690, 228.0986
610.7360, 219.8447
611.9020, 324.9248
613.0680, 83.99902
614.2340, 141.3633
615.3990, 192.5225
616.5650, 34.24902
617.7300, 117.4590
618.8950, 263.0166
620.0600, 246.1436
621.2250, 251.9893
622.3890, 229.6191
623.5540, 179.5352
624.7180, 232.4043
625.8820, 191.3330
627.0460, 147.0557
628.2100, 173.2480
629.3730, 153.2402
630.5370, 158.8076
631.7000, 171.7070
632.8630, 163.3555
634.0260, 150.2529
635.1890, 170.3760
636.3510, 217.8398
637.5140, 234.9521
638.6760, 234.7695
639.8380, 106.1611
641.0000, 217.2559
642.1610, 113.3438
643.3230, 94.42383
644.4840, 89.50781
645.6450, 97.58984
646.8060, 92.52441
647.9670, 110.7393
649.1280, 85.81445
650.2880, 50.88086
651.4490, 10.94531
652.6090, 23.38672
653.7690, 130.0439
654.9290, 111.0908
656.0880, 55.18359
657.2480, 224.2627
658.4070, 207.3271
659.5660, 154.4170
660.7250, 160.4990
661.8840, 132.7471
663.0430, 187.7051
664.2010, 90.80859
665.3600, 121.9043
666.5180, 77.98828
667.6760, 8.052734
668.8330, 36.10547
669.9910, 85.14160
671.1480, 135.1611
672.3060, 71.15918
673.4630, 6.137695
674.6200, 20.43359
675.7770, 166.0283
676.9330, 3.940430
678.0900, 104.8252
679.2460, 131.6885
680.4020, 41.47266
681.5580, 47.31641
682.7140, 67.91895
683.8690, 20.22168
685.0250, 11.56641
686.1800, 28.04688
687.3350, 25.63379
688.4900, 140.8086
689.6450, 103.9404
690.7990, 36.99219
691.9540, 160.6826
693.1080, 49.48438
694.2620, 46.35645
695.4160, 49.70312
696.5700, 0.2685550
697.7230, 193.7129
698.8770, 99.66211
700.0300, 22.42090
701.1830, 195.5684
702.3360, 130.1504
703.4890, 59.70508
704.6410, 53.75586
705.7930, 117.6914
706.9460, 68.11230
708.0980, 59.49609
709.2500, 18.84082
710.4010, 27.52148
711.5530, 7.373047
712.7040, 21.44434
713.8560, 34.66113
715.0070, 145.2842
716.1580, 87.52441
717.3080, 82.39453
718.4590, 26.77930
719.6090, 41.95215
720.7590, 126.6416
721.9090, 35.11523
723.0590, 57.70703
724.2090, 61.64648
725.3590, 24.82227
726.5080, 67.60156
727.6570, 19.15332
728.8060, 34.45312
729.9550, 81.06641
731.1040, 5.305664
732.2530, 115.0312
733.4010, 72.88574
734.5490, 55.48535
735.6970, 169.3916
736.8450, 53.46289
737.9930, 243.4639
739.1400, 91.03711
740.2880, 30.82324
741.4350, 136.0186
742.5820, 72.36719
743.7290, 131.0918
744.8760, 225.7910
746.0220, 48.05469
747.1690, 106.8047
748.3150, 151.8662
749.4610, 308.8740
750.6070, 91.06934
751.7530, 191.9668
752.8980, 92.42383
754.0440, 170.2041
755.1890, 221.9316
756.3340, 83.60840
757.4790, 257.2158
758.6240, 172.7754
759.7680, 129.2803
760.9130, 172.7227
762.0570, 179.1084
763.2010, 76.43945
764.3450, 207.6953
765.4890, 112.8965
766.6320, 179.0303
767.7760, 215.1064
768.9190, 90.12988
770.0620, 325.0771
771.2050, 160.9756
772.3480, 369.8115
773.4900, 235.5977
774.6330, 371.3301
775.7750, 395.0107
776.9170, 587.6406
778.0590, 424.2197
779.2010, 470.7480
780.3420, 440.2334
781.4840, 526.4082
782.6250, 459.4834
783.7660, 571.9551
784.9070, 684.5488
786.0480, 510.1025
787.1890, 592.9873
788.3290, 567.8730
789.4690, 578.9336
790.6100, 711.7070
791.7490, 764.4531
792.8890, 883.1396
794.0290, 1086.148
795.1680, 1133.973
796.3080, 1292.195
797.4470, 1422.290
798.5860, 1547.274
799.7250, 1750.215
800.8630, 1745.611
802.0020, 1792.819
803.1400, 1928.814
804.2780, 2138.268
805.4160, 2345.861
806.5540, 2504.966
807.6920, 2849.718
808.8300, 3051.992
809.9670, 3549.221
811.1040, 3744.384
812.2410, 4164.506
813.3780, 4780.570
814.5150, 5684.437
815.6510, 6613.396
816.7880, 7942.301
817.9240, 9736.416
819.0600, 12363.20
820.1960, 15728.46
821.3320, 19986.33
822.4670, 24757.56
823.6030, 31271.14
824.7380, 37778.66
825.8730, 42771.62
827.0080, 44236.68
828.1430, 42226.05
829.2770, 36253.21
830.4120, 28321.17
831.5460, 20557.14
832.6800, 15063.30
833.8140, 11090.70
834.9480, 8561.746
836.0810, 6814.740
837.2150, 5976.372
838.3480, 5217.971
839.4810, 4665.512
840.6140, 4247.164
841.7470, 3679.184
842.8800, 3109.864
844.0120, 2771.339
845.1450, 2100.568
846.2770, 1799.406
847.4090, 1470.480
848.5410, 1329.400
849.6720, 1150.375
850.8040, 984.6475
851.9350, 957.2041
853.0660, 807.1768
854.1970, 729.9883
855.3280, 797.9131
856.4590, 595.4297
857.5900, 574.4434
858.7200, 378.4463
859.8500, 495.0879
860.9800, 396.7188
862.1100, 338.8740
863.2400, 266.4473
864.3700, 309.0908
865.4990, 155.3057
866.6280, 116.8506
867.7570, 345.3008
868.8860, 245.1025
870.0150, 77.42285
871.1440, 4.256836
872.2720, 158.0215
873.4010, 211.0967
874.5290, 271.3408
875.6570, 65.12988
876.7850, 187.2402
877.9120, 140.6689
879.0400, 183.6123
880.1670, 179.7666
881.2940, 224.3057
882.4210, 162.5449
883.5480, 277.9463
884.6750, 291.0918
885.8020, 196.8711
886.9280, 316.6240
888.0540, 157.0518
889.1800, 223.3809
890.3060, 492.6494
891.4320, 370.1289
892.5580, 408.2266
893.6830, 671.7236
894.8080, 712.4648
895.9330, 827.3867
897.0580, 750.9863
898.1830, 808.5977
899.3080, 764.9648
900.4320, 892.7988
901.5570, 974.9795
902.6810, 883.3223
903.8050, 937.0527
904.9290, 883.4121
906.0520, 678.5049
907.1760, 574.2705
908.2990, 749.2920
909.4230, 399.9336
910.5460, 593.8877
911.6690, 597.8076
912.7910, 482.6934
913.9140, 217.5449
915.0360, 176.3633
916.1590, 25.14844
917.2810, 57.87793
918.4030, 148.5566
919.5240, 34.20410
920.6460, 32.79883
921.7680, 100.3389
922.8890, 48.84180
924.0100, 218.2979
925.1310, 46.72168
926.2520, 22.14648
927.3730, 157.5312
928.4930, 138.6445
929.6130, 211.7871
930.7340, 91.10156
931.8540, 64.15820
932.9740, 55.88281
934.0930, 36.96094
935.2130, 20.82031
936.3320, 51.54688
937.4520, 56.50781
938.5710, 219.0566
939.6900, 72.82422
940.8090, 92.68164
941.9270, 110.3203
943.0460, 237.8047
944.1640, 280.8438
945.2820, 317.2930
946.4000, 327.0176
947.5180, 308.4121
948.6360, 387.4492
949.7530, 325.8535
950.8710, 529.1699
951.9880, 547.4609
953.1050, 769.7402
954.2220, 831.5195
955.3390, 867.4883
956.4550, 956.3340
957.5720, 1156.547
958.6880, 1154.451
959.8040, 1217.617
960.9200, 1400.803
962.0360, 1230.996
963.1520, 1333.166
964.2670, 1471.359
965.3820, 1431.555
966.4980, 1581.744
967.6130, 1705.914
968.7280, 1988.066
969.8420, 2123.203
970.9570, 2459.316
972.0710, 2623.426
973.1850, 3105.574
974.3000, 3743.748
975.4140, 4561.904
976.5270, 5393.068
977.6410, 6779.211
978.7540, 7646.336
979.8680, 9367.443
980.9810, 11457.54
982.0940, 13555.64
983.2070, 16470.72
984.3200, 19357.81
985.4320, 23286.88
986.5440, 27072.00
987.6570, 30781.53
988.7690, 33244.61
989.8810, 34899.71
990.9920, 35364.79
992.1040, 35025.86
993.2160, 34323.93
994.3270, 33739.00
995.4380, 32434.04
996.5490, 31444.10
997.6600, 29495.96
998.7710, 26775.00
999.8810, 23283.71
1000.991, 19658.69
1002.102, 16470.74
1003.212, 13712.64
1004.322, 11408.22
1005.431, 9645.582
1006.541, 8401.707
1007.651, 6772.525
1008.760, 5601.645
1009.869, 4542.139
1010.978, 3775.846
1012.087, 2997.990
1013.195, 2554.695
1014.304, 2138.371
1015.412, 1761.426
1016.521, 1562.221
1017.629, 1462.064
1018.737, 1280.195
1019.844, 1177.088
1020.952, 1068.215
1022.059, 961.7285
1023.167, 895.8594
1024.274, 816.9883
1025.381, 772.1133
1026.488, 675.2441
1027.594, 627.0449
1028.701, 512.5039
1029.807, 523.6387
1030.913, 487.7715
1032.019, 458.4277
1033.125, 548.0547
1034.231, 387.2031
1035.337, 293.3594
1036.442, 313.5176
1037.548, 337.6797
1038.653, 289.8516
1039.758, 270.0254
1040.863, 229.7402
1041.967, 129.3828
1043.072, 149.5645
1044.176, 216.7480
1045.280, 241.9375
1046.384, 152.1230
1047.488, 292.3125
1048.592, 55.49805
1049.696, 232.9434
1050.799, 250.4414
1051.903, 165.4961
1053.006, 130.3770
1054.109, 148.2520
1055.212, 272.7500
1056.314, 221.1992
1057.417, 240.4277
1058.519, 127.1074
1059.621, 205.3105
1060.724, 64.74219
1061.826, 52.80469
1062.927, 184.0039
1064.029, 87.23828
1065.130, 196.5840
1066.232, 123.5312
1067.333, 97.32812
1068.434, 20.68359
1069.535, 23.81445
1070.636, 113.1484
1071.736, 52.00781
1072.837, 33.05859
1073.937, 51.80469
1075.037, 110.9863
1076.137, 62.88867
1077.237, 14.20117
1078.337, 35.69727
1079.436, 17.41016
1080.535, 20.46875
1081.635, 31.33789
1082.734, 18.79688
1083.833, 4.945313
1084.931, 22.11328
1086.030, 37.70312
1087.128, 114.4844
1088.227, 47.30859
1089.325, 223.8984
1090.423, 94.87891
1091.521, 86.32812
1092.618, 73.55664
1093.716, 29.80078
1094.813, 40.06641
1095.911, 109.3496
1097.008, 273.6523
1098.105, 138.9746
1099.202, 148.3125
1100.298, 72.67383
1101.395, 275.0527
1102.491, 129.4512
1103.587, 54.87305
1104.683, 206.3145
1105.779, 7.777344
1106.875, 80.25977
1107.971, 56.76172
1109.066, 141.2871
1110.161, 241.8340
1111.256, 144.4004
1112.351, 246.9902
1113.446, 252.6016
1114.541, 211.2363
1115.636, 248.8926
1116.730, 100.5742
1117.824, 203.2793
1118.918, 22.99414
1120.012, 186.7520
1121.106, 116.5195
1122.200, 198.3125
1123.293, 102.1309
1124.387, 104.9707
1125.480, 244.8379
1126.573, 247.7305
1127.666, 115.6465
1128.759, 122.5859
1129.851, 83.21484
1130.944, 2.453125
1132.036, 96.57227
1133.128, 41.63086
1134.220, 164.7168
1135.312, 34.83008
1136.404, 123.9805
1137.495, 197.1816
1138.587, 197.4141
1139.678, 344.6758
1140.769, 165.9785
1141.860, 233.3203
1142.951, 325.6914
1144.041, 423.0938
1145.132, 380.8555
1146.222, 366.0234
1147.313, 301.5312
1148.403, 299.0723
1149.493, 303.6387
1150.582, 321.2344
1151.672, 316.8633
1152.761, 483.5176
1153.851, 347.2070
1154.940, 570.9258
1156.029, 469.6836
1157.118, 451.4688
1158.207, 536.2832
1159.295, 434.1328
1160.384, 391.0078
1161.472, 626.9160
1162.560, 486.8555
1163.648, 563.8242
1164.736, 303.8262
1165.824, 613.8555
1166.911, 655.9277
1167.999, 497.0312
1169.086, 447.1641
1170.173, 532.3457
1171.260, 625.5625
1172.347, 692.8086
1173.434, 726.4648
1174.520, 656.4180
1175.606, 726.7715
1176.693, 850.1562
1177.779, 777.5781
1178.865, 998.0293
1179.951, 860.5156
1181.036, 593.0469
1182.122, 823.6191
1183.207, 723.2246
1184.292, 878.8789
1185.377, 800.5781
1186.462, 889.3223
1187.547, 878.1094
1188.632, 748.9355
1189.716, 939.7578
1190.800, 937.6738
1191.885, 1023.688
1192.969, 917.7344
1194.052, 896.8164
1195.136, 740.7344
1196.220, 939.9551
1197.303, 1011.188
1198.387, 1082.541
1199.470, 1010.943
1200.553, 1016.441
1201.636, 1130.691
1202.718, 1219.064
1203.801, 981.3516
1204.883, 1171.863
1205.966, 1049.537
1207.048, 1213.664
1208.130, 1327.396
1209.211, 1273.867
1210.293, 1287.678
1211.375, 1258.750
1212.456, 1186.688
1213.537, 1156.619
1214.618, 1215.607
1215.699, 1198.633
1216.780, 1062.449
1217.861, 1243.557
1218.941, 1306.092
1220.022, 1375.279
1221.102, 1162.795
1222.182, 1108.062
1223.262, 1142.371
1224.342, 1161.721
1225.422, 1110.119
1226.501, 1311.559
1227.580, 1155.064
1228.660, 1369.609
1229.739, 1306.197
1230.818, 1210.826
1231.896, 1183.496
1232.975, 1266.205
1234.054, 1422.957
1235.132, 1382.750
1236.210, 1405.424
1237.288, 1291.482
1238.366, 1346.416
1239.444, 1208.391
1240.521, 1226.410
1241.599, 1224.469
1242.676, 1255.570
1243.753, 1215.711
1244.830, 1114.898
1245.907, 1190.123
1246.984, 1269.391
1248.061, 1298.701
1249.137, 1069.625
1250.214, 1278.018
1251.290, 1219.469
1252.366, 1183.963
1253.442, 1287.500
1254.517, 1286.078
1255.593, 1232.695
1256.668, 1227.359
1257.744, 1242.062
1258.819, 1156.807
1259.894, 1157.629
1260.969, 1117.418
1262.044, 1182.289
1263.118, 1128.207
1264.193, 1108.893
1265.267, 1134.162
1266.341, 1056.205
1267.415, 1117.285
1268.489, 1153.410
1269.563, 1042.992
1270.636, 1157.197
1271.710, 1107.443
1272.783, 946.7344
1273.856, 1115.943
1274.929, 885.3145
1276.002, 921.7266
1277.075, 893.1797
1278.147, 995.6719
1279.220, 918.2090
1280.292, 823.7832
1281.364, 908.4004
1282.436, 1006.324
1283.508, 815.0215
1284.580, 779.6191
1285.652, 919.3965
1286.723, 759.2148
1287.794, 749.0742
1288.865, 665.0352
1289.936, 840.9727
1291.007, 783.9512
1292.078, 861.9668
1293.149, 847.0938
1294.219, 543.1914
1295.289, 730.9043
1296.360, 574.0820
1297.430, 608.2988
1298.499, 749.6797
1299.569, 772.9766
1300.639, 784.2422
1301.708, 602.6816
1302.778, 725.0938
1303.847, 694.5469
1304.916, 585.0371
1305.985, 619.5645
1307.053, 507.1309
1308.122, 544.7363
1309.190, 518.7793
1310.259, 569.0625
1311.327, 486.7832
1312.395, 515.0605
1313.463, 469.8594
1314.531, 427.7109
1315.598, 602.5840
1316.666, 545.6387
1317.733, 509.5879
1318.800, 517.6074
1319.867, 457.6621
1320.934, 493.7559
1322.001, 469.8574
1323.067, 351.2227
1324.134, 484.4551
1325.200, 443.7266
1326.266, 496.0605
1327.333, 182.4258
1328.398, 465.8242
1329.464, 362.2637
1330.530, 172.7617
1331.595, 585.3047
1332.661, 201.8906
1333.726, 522.5215
1334.791, 447.2109
1335.856, 366.6641
1336.921, 362.4375
1337.985, 325.2520
1339.050, 299.1035
1340.114, 415.9922
1341.178, 159.4121
1342.242, 301.8984
1343.306, 303.9688
1344.370, 465.0078
