##NAMES=Metatorbernite
##RRUFFID=R070686
##IDEAL CHEMISTRY=Cu^2+^(U^6+^O_2_)_2_(PO_4_)_2_&#183;8H_2_O
##LOCALITY=Fichtelgebirge, Franconia, Bavaria, Germany
##OWNER=RRUFF
##SOURCE=Michael Scott
##DESCRIPTION=Green tabular crystals
##STATUS=The identification of this mineral has been confirmed by X-ray diffraction.
##URL=rruff.info/R070686
##PIN_ID=M00978
##ORIENTATION=Laser parallel to -a* (-1 0 0). Fiducial mark perpendicular to laser is parallel to c [0 0 1]
170.7050, 0.0000000E+00
171.9380, 61.92871
173.1700, 4.622070
174.4030, 120.2637
175.6350, 96.14062
176.8680, 144.9268
178.1000, 313.5781
179.3310, 521.7959
180.5630, 698.7832
181.7940, 751.9980
183.0260, 1177.681
184.2570, 1464.348
185.4870, 1743.605
186.7180, 2402.298
187.9480, 2614.625
189.1790, 3120.773
190.4090, 3458.440
191.6390, 3890.535
192.8680, 4274.750
194.0980, 4438.690
195.3270, 4182.829
196.5560, 3751.176
197.7850, 3265.743
199.0140, 2640.539
200.2420, 2012.567
201.4710, 1529.989
202.6990, 1096.240
203.9270, 928.5498
205.1550, 702.3408
206.3820, 565.4092
207.6090, 379.1064
208.8370, 356.2666
210.0640, 295.3135
211.2900, 322.2988
212.5170, 290.5273
213.7440, 296.0371
214.9700, 306.4619
216.1960, 308.4277
217.4220, 315.0400
218.6470, 346.8916
219.8730, 323.9121
221.0980, 387.1465
222.3230, 260.5850
223.5480, 263.2246
224.7730, 223.0557
225.9970, 307.0723
227.2220, 213.2686
228.4460, 313.6377
229.6700, 199.1777
230.8940, 2.880859
232.1170, 169.7451
233.3400, 148.7676
234.5640, 13.05469
235.7870, 74.72363
237.0100, 58.24121
238.2320, 4.606445
239.4550, 17.82227
240.6770, 5.888672
241.8990, 44.19141
243.1210, 120.4199
244.3420, 54.75586
245.5640, 47.09668
246.7850, 113.5352
248.0060, 50.88086
249.2270, 16.64648
250.4480, 4.893555
251.6690, 105.5020
252.8890, 44.18848
254.1090, 121.9502
255.3290, 9.207031
256.5490, 118.2852
257.7680, 94.71680
258.9880, 1.199219
260.2070, 70.03320
261.4260, 36.78613
262.6450, 151.5391
263.8640, 173.9434
265.0820, 112.4258
266.3000, 1.4648000E-02
267.5180, 44.62207
268.7360, 119.3359
269.9540, 98.12598
271.1720, 111.9932
272.3890, 149.2080
273.6060, 258.9609
274.8230, 200.0576
276.0400, 233.2305
277.2560, 258.4346
278.4730, 410.7002
279.6890, 420.0381
280.9050, 550.4521
282.1210, 493.9219
283.3370, 608.4443
284.5520, 645.0439
285.7670, 466.7188
286.9820, 667.4473
288.1970, 567.2334
289.4120, 510.0684
290.6270, 621.9785
291.8410, 425.9639
293.0550, 470.0244
294.2690, 561.1621
295.4830, 549.3740
296.6970, 449.6709
297.9100, 370.0410
299.1230, 425.5000
300.3360, 537.0352
301.5490, 474.6445
302.7620, 476.3799
303.9740, 462.2129
305.1860, 477.1143
306.3990, 407.1016
307.6110, 368.1846
308.8220, 447.3359
310.0340, 400.5547
311.2450, 419.9043
312.4560, 399.3662
313.6670, 366.9092
314.8780, 294.5146
316.0890, 369.1836
317.2990, 217.9854
318.5090, 397.9854
319.7200, 228.1084
320.9290, 370.8115
322.1390, 370.7773
323.3490, 339.9658
324.5580, 328.3672
325.7670, 278.9580
326.9760, 249.7012
328.1850, 169.5811
329.3930, 202.0879
330.6020, 331.7100
331.8100, 244.9434
333.0180, 297.2783
334.2260, 291.7021
335.4340, 304.2119
336.6410, 284.2119
337.8480, 278.0879
339.0550, 252.2080
340.2620, 252.0146
341.4690, 317.8906
342.6760, 317.8330
343.8820, 374.8428
345.0880, 503.9170
346.2940, 357.0547
347.5000, 429.2539
348.7060, 280.5068
349.9110, 524.7363
351.1160, 403.0156
352.3210, 262.3545
353.5260, 463.7539
354.7310, 344.1504
355.9360, 492.6035
357.1400, 467.1152
358.3440, 504.6885
359.5480, 577.2607
360.7520, 630.8916
361.9550, 465.5439
363.1590, 424.2559
364.3620, 420.0234
365.5650, 412.8516
366.7680, 453.7363
367.9710, 633.6748
369.1730, 526.6719
370.3760, 605.7207
371.5780, 645.8223
372.7800, 549.9766
373.9810, 651.1797
375.1830, 580.4326
376.3840, 612.7012
377.5860, 674.0527
378.7870, 594.4658
379.9880, 664.5361
381.1880, 862.5732
382.3890, 571.3057
383.5890, 743.7637
384.7890, 563.9473
385.9890, 640.4844
387.1890, 740.2197
388.3880, 673.0000
389.5880, 938.8213
390.7870, 730.6855
391.9860, 932.8555
393.1850, 744.8115
394.3840, 941.4648
395.5820, 924.5215
396.7800, 1086.620
397.9790, 1264.767
399.1770, 1268.953
400.3740, 1354.051
401.5720, 1558.618
402.7690, 1605.955
403.9670, 1513.309
405.1640, 1552.874
406.3600, 1541.804
407.5570, 1652.053
408.7540, 1513.601
409.9500, 1427.186
411.1460, 1331.793
412.3420, 1163.460
413.5380, 1194.163
414.7330, 1158.930
415.9290, 1097.737
417.1240, 1195.581
418.3190, 936.4600
419.5140, 768.2129
420.7090, 906.1738
421.9030, 837.1699
423.0970, 1095.202
424.2920, 980.6621
425.4860, 1054.779
426.6790, 948.0850
427.8730, 847.2803
429.0660, 1153.511
430.2600, 1151.201
431.4530, 1149.226
432.6460, 1076.588
433.8380, 936.1426
435.0310, 1142.556
436.2230, 1184.998
437.4150, 1061.477
438.6070, 1203.099
439.7990, 1304.870
440.9910, 1206.440
442.1820, 1190.068
443.3730, 1144.833
444.5640, 1147.515
445.7550, 1114.228
446.9460, 1080.790
448.1370, 1016.028
449.3270, 1010.823
450.5170, 951.9746
451.7070, 900.9082
452.8970, 867.7793
454.0870, 864.6787
455.2760, 815.6035
456.4650, 870.5576
457.6550, 683.5352
458.8430, 735.6318
460.0320, 741.6553
461.2210, 620.7197
462.4090, 898.8438
463.5970, 706.0098
464.7850, 637.7871
465.9730, 757.6875
467.1610, 589.4023
468.3480, 468.9434
469.5360, 644.3203
470.7230, 704.7666
471.9100, 596.2412
473.0970, 711.7461
474.2830, 719.2832
475.4700, 498.8506
476.6560, 397.4443
477.8420, 631.0703
479.0280, 605.7227
480.2140, 557.4033
481.3990, 463.1084
482.5850, 485.8408
483.7700, 312.6064
484.9550, 275.4014
486.1400, 522.2236
487.3240, 357.0703
488.5090, 362.9443
489.6930, 434.8428
490.8770, 341.7646
492.0610, 248.7080
493.2450, 349.6758
494.4290, 385.6689
495.6120, 375.6865
496.7950, 414.2471
497.9780, 384.7979
499.1610, 406.8906
500.3440, 390.0078
501.5260, 368.1455
502.7090, 262.3076
503.8910, 387.1387
505.0730, 325.3496
506.2550, 301.5811
507.4360, 374.7061
508.6180, 361.9775
509.7990, 75.26660
510.9800, 321.3965
512.1610, 215.7236
513.3420, 380.0693
514.5230, 276.4316
515.7030, 189.8105
516.8830, 113.2090
518.0630, 241.6221
519.2430, 275.0527
520.4230, 196.5283
521.6020, 254.0098
522.7820, 194.5176
523.9610, 275.0225
525.1400, 178.0449
526.3190, 344.9336
527.4970, 80.52832
528.6760, 55.10449
529.8540, 134.6953
531.0320, 312.2969
532.2100, 206.9131
533.3880, 79.99219
534.5660, 259.6494
535.7430, 293.8896
536.9200, 176.7705
538.0970, 246.4658
539.2740, 194.4287
540.4510, 120.1455
541.6270, 137.0029
542.8040, 181.7432
543.9800, 133.6602
545.1560, 166.9570
546.3320, 106.7432
547.5080, 104.6631
548.6830, 102.5186
549.8580, 61.06250
551.0340, 174.8955
552.2090, 127.7363
553.3830, 142.8203
554.5580, 267.7080
555.7320, 211.4219
556.9070, 42.28711
558.0810, 185.1611
559.2550, 119.0420
560.4280, 26.81250
561.6020, 157.0645
562.7750, 45.18652
563.9490, 63.12207
565.1220, 38.18262
566.2950, 114.7041
567.4670, 5.407227
568.6400, 116.1787
569.8120, 26.07324
570.9840, 12.81445
572.1560, 83.76660
573.3280, 69.36133
574.5000, 30.18457
575.6710, 10.89355
576.8430, 7.718750
578.0140, 103.4014
579.1850, 27.05664
580.3560, 29.24023
581.5260, 45.26562
582.6970, 1.760742
583.8670, 1.128906
585.0370, 95.26074
586.2070, 53.72754
587.3770, 109.8105
588.5460, 139.3867
589.7160, 46.32520
590.8850, 66.96191
592.0540, 80.28125
593.2230, 29.46973
594.3920, 23.49512
595.5600, 88.84570
596.7290, 73.65234
597.8970, 81.34570
599.0650, 19.96777
600.2330, 115.6826
601.4000, 182.3320
602.5680, 25.65723
603.7350, 157.6924
604.9020, 6.336914
606.0690, 7.188477
607.2360, 77.56445
608.4030, 71.81543
609.5690, 145.3271
610.7360, 17.37109
611.9020, 117.8945
613.0680, 203.3955
614.2340, 137.6514
615.3990, 185.8916
616.5650, 36.79590
617.7300, 142.9551
618.8950, 100.6338
620.0600, 60.11621
621.2250, 166.5488
622.3890, 144.9717
623.5540, 106.1250
624.7180, 208.6338
625.8820, 112.6504
627.0460, 132.0254
628.2100, 319.1309
629.3730, 49.47949
630.5370, 36.81641
631.7000, 104.1396
632.8630, 151.4492
634.0260, 186.5479
635.1890, 117.1953
636.3510, 104.7080
637.5140, 195.6875
638.6760, 132.0449
639.8380, 157.0244
641.0000, 85.23535
642.1610, 115.1621
643.3230, 10.68457
644.4840, 175.4717
645.6450, 67.61328
646.8060, 7.739258
647.9670, 153.8398
649.1280, 61.92578
650.2880, 10.99512
651.4490, 119.0381
652.6090, 118.0645
653.7690, 251.0742
654.9290, 114.0693
656.0880, 82.04492
657.2480, 177.0049
658.4070, 134.9463
659.5660, 20.12988
660.7250, 53.75195
661.8840, 53.61719
663.0430, 151.4639
664.2010, 33.31543
665.3600, 40.14551
666.5180, 57.95215
667.6760, 111.7383
668.8330, 208.5049
669.9910, 177.2520
671.1480, 79.98242
672.3060, 13.70312
673.4630, 97.40332
674.6200, 42.10059
675.7770, 14.22656
676.9330, 251.4463
678.0900, 23.10547
679.2460, 127.7607
680.4020, 42.60645
681.5580, 126.9609
682.7140, 25.50586
683.8690, 25.01660
685.0250, 142.4932
686.1800, 81.94629
687.3350, 17.37500
688.4900, 257.7666
689.6450, 126.1338
690.7990, 228.4785
691.9540, 35.80078
693.1080, 107.0859
694.2620, 47.65137
695.4160, 47.53516
696.5700, 229.6895
697.7230, 268.8193
698.8770, 40.92480
700.0300, 51.16309
701.1830, 94.19922
702.3360, 122.2090
703.4890, 11.80859
704.6410, 171.7402
705.7930, 284.6406
706.9460, 6.360352
708.0980, 242.1865
709.2500, 104.9863
710.4010, 19.33301
711.5530, 129.3428
712.7040, 24.02148
713.8560, 99.50391
715.0070, 252.1357
716.1580, 62.74023
717.3080, 71.31348
718.4590, 196.7422
719.6090, 115.0244
720.7590, 44.51367
721.9090, 7.057617
723.0590, 78.96973
724.2090, 75.36328
725.3590, 104.6943
726.5080, 154.9980
727.6570, 188.1885
728.8060, 225.0215
729.9550, 185.9512
731.1040, 127.0195
732.2530, 90.18750
733.4010, 67.32422
734.5490, 44.89844
735.6970, 150.6641
736.8450, 163.4375
737.9930, 179.8047
739.1400, 198.3691
740.2880, 30.52539
741.4350, 104.3633
742.5820, 112.3145
743.7290, 11.65039
744.8760, 175.4727
746.0220, 34.00391
747.1690, 54.46875
748.3150, 95.57227
749.4610, 170.9648
750.6070, 187.0645
751.7530, 72.54688
752.8980, 134.4297
754.0440, 198.8496
755.1890, 80.24219
756.3340, 128.5977
757.4790, 173.9238
758.6240, 229.2246
759.7680, 284.4961
760.9130, 26.73828
762.0570, 56.93750
763.2010, 90.09961
764.3450, 272.2285
765.4890, 82.32812
766.6320, 335.3926
767.7760, 246.4316
768.9190, 242.4395
770.0620, 211.4199
771.2050, 80.37109
772.3480, 122.2891
773.4900, 138.2012
774.6330, 31.08398
775.7750, 169.9668
776.9170, 86.82227
778.0590, 214.0059
779.2010, 89.79688
780.3420, 129.5527
781.4840, 36.62891
782.6250, 241.3613
783.7660, 305.1172
784.9070, 329.9551
786.0480, 396.2695
787.1890, 245.3574
788.3290, 385.1250
789.4690, 355.7656
790.6100, 301.3379
791.7490, 375.2676
792.8890, 498.6934
794.0290, 358.4863
795.1680, 506.8789
796.3080, 590.3223
797.4470, 521.6660
798.5860, 870.4590
799.7250, 718.7871
800.8630, 789.8379
802.0020, 890.1641
803.1400, 917.0391
804.2780, 1182.152
805.4160, 1176.268
806.5540, 1161.873
807.6920, 1383.498
808.8300, 1569.434
809.9670, 1629.926
811.1040, 1828.006
812.2410, 2127.703
813.3780, 2503.459
814.5150, 3037.129
815.6510, 3514.398
816.7880, 4493.449
817.9240, 5767.283
819.0600, 7618.111
820.1960, 9488.605
821.3320, 11792.08
822.4670, 14429.84
823.6030, 17188.49
824.7380, 20130.56
825.8730, 22338.25
827.0080, 22572.91
828.1430, 20928.55
829.2770, 17426.92
830.4120, 13851.47
831.5460, 10272.18
832.6800, 7592.701
833.8140, 5624.199
834.9480, 4392.668
836.0810, 3594.852
837.2150, 3013.271
838.3480, 2635.426
839.4810, 2222.742
840.6140, 2187.273
841.7470, 1842.584
842.8800, 1504.867
844.0120, 1387.428
845.1450, 1046.656
846.2770, 1108.639
847.4090, 800.6602
848.5410, 761.7656
849.6720, 548.0957
850.8040, 695.9746
851.9350, 534.0762
853.0660, 526.2988
854.1970, 458.6348
855.3280, 339.6641
856.4590, 289.5000
857.5900, 297.2500
858.7200, 88.88672
859.8500, 200.2129
860.9800, 260.4355
862.1100, 206.0137
863.2400, 156.8438
864.3700, 100.7012
865.4990, 220.5293
866.6280, 309.3477
867.7570, 228.0469
868.8860, 340.4414
870.0150, 4.484375
871.1440, 30.03125
872.2720, 48.34570
873.4010, 113.2285
874.5290, 97.80273
875.6570, 56.34375
876.7850, 293.1738
877.9120, 175.2656
879.0400, 76.39062
880.1670, 223.3008
881.2940, 142.7012
882.4210, 199.3262
883.5480, 114.7051
884.6750, 312.5488
885.8020, 76.88086
886.9280, 298.2051
888.0540, 91.79688
889.1800, 313.8828
890.3060, 198.1348
891.4320, 233.6680
892.5580, 252.6504
893.6830, 380.7949
894.8080, 356.6777
895.9330, 349.0957
897.0580, 418.4707
898.1830, 374.4531
899.3080, 515.8945
900.4320, 329.9473
901.5570, 315.2344
902.6810, 477.2441
903.8050, 439.2305
904.9290, 487.1953
906.0520, 517.1387
907.1760, 298.4238
908.2990, 336.9277
909.4230, 303.5664
910.5460, 256.2363
911.6690, 291.9551
912.7910, 98.01953
913.9140, 335.8145
915.0360, 336.8574
916.1590, 333.2695
917.2810, 154.3770
918.4030, 141.0918
919.5240, 143.7852
920.6460, 151.4629
921.7680, 117.1191
922.8890, 149.7539
924.0100, 129.2812
925.1310, 137.8398
926.2520, 75.54688
927.3730, 180.1016
928.4930, 81.63477
929.6130, 149.1465
930.7340, 129.6387
931.8540, 35.10938
932.9740, 66.56641
934.0930, 126.0000
935.2130, 57.58594
936.3320, 56.75781
937.4520, 135.0801
938.5710, 228.4453
939.6900, 151.7305
940.8090, 64.18555
941.9270, 59.43359
943.0460, 11.34180
944.1640, 12.16211
945.2820, 31.02148
946.4000, 83.16406
947.5180, 150.7891
948.6360, 15.17383
949.7530, 65.89062
950.8710, 104.9727
951.9880, 122.8008
953.1050, 178.6484
954.2220, 239.6328
955.3390, 129.4512
956.4550, 260.7148
957.5720, 140.0215
958.6880, 117.7949
959.8040, 259.0117
960.9200, 310.7578
962.0360, 521.4863
963.1520, 450.1973
964.2670, 347.0449
965.3820, 531.7285
966.4980, 388.4219
967.6130, 367.1035
968.7280, 637.7695
969.8420, 576.4199
970.9570, 595.0586
972.0710, 818.6855
973.1850, 893.2988
974.3000, 1041.896
975.4140, 1271.496
976.5270, 1328.080
977.6410, 1576.650
978.7540, 1962.217
979.8680, 2547.768
980.9810, 2987.354
982.0940, 3697.887
983.2070, 4308.402
984.3200, 5424.918
985.4320, 6208.414
986.5440, 7223.900
987.6570, 7779.375
988.7690, 8337.840
989.8810, 8904.293
990.9920, 8664.730
992.1040, 8418.156
993.2160, 8380.846
994.3270, 8283.355
995.4380, 8065.766
996.5490, 7592.055
997.6600, 6929.342
998.7710, 6268.133
999.8810, 5484.496
1000.991, 4782.715
1002.102, 3900.184
1003.212, 3344.512
1004.322, 2709.363
1005.431, 2138.982
1006.541, 1876.555
1007.651, 1618.393
1008.760, 1217.096
1009.869, 1091.223
1010.978, 1078.504
1012.087, 780.6855
1013.195, 620.1680
1014.304, 373.4375
1015.412, 402.4902
1016.521, 413.7637
1017.629, 295.7070
1018.737, 140.9961
1019.844, 184.0605
1020.952, 31.33594
1022.059, 265.1680
1023.167, 256.4316
1024.274, 222.6836
1025.381, 51.92969
1026.488, 212.1680
1027.594, 326.4023
1028.701, 143.6270
1029.807, 198.8438
1030.913, 83.06055
1032.019, 82.27539
1033.125, 55.48438
1034.231, 104.6875
1035.337, 169.8867
1036.442, 187.0820
1037.548, 213.2695
1038.653, 85.44922
1039.758, 11.62500
1040.863, 83.20508
1041.967, 55.90820
1043.072, 156.9824
1044.176, 54.03906
1045.280, 111.0566
1046.384, 44.70508
1047.488, 39.71680
1048.592, 173.7227
1049.696, 89.73047
1050.799, 122.6895
1051.903, 125.5898
1053.006, 199.5020
1054.109, 220.6699
1055.212, 70.25195
1056.314, 232.1914
1057.417, 170.0449
1058.519, 21.93750
1059.621, 11.44141
1060.724, 273.4160
1061.826, 131.9922
1062.927, 217.9375
1064.029, 13.80273
1065.130, 73.70703
1066.232, 177.1406
1067.333, 75.99805
1068.434, 80.13281
1069.535, 59.47070
1070.636, 36.62305
1071.736, 142.3164
1072.837, 0.2558590
1073.937, 64.67773
1075.037, 58.04883
1076.137, 136.0859
1077.237, 232.0840
1078.337, 77.08594
1079.436, 139.4883
1080.535, 80.36328
1081.635, 4.466797
1082.734, 300.6855
1083.833, 47.64648
1084.931, 116.0762
1086.030, 31.09766
1087.128, 87.72266
1088.227, 58.51367
1089.325, 78.71094
1090.423, 59.03906
1091.521, 39.29297
1092.618, 52.47656
1093.716, 301.2520
1094.813, 151.0312
1095.911, 55.18555
1097.008, 87.58203
1098.105, 135.3555
1099.202, 108.1328
1100.298, 208.9141
1101.395, 113.7012
1102.491, 119.4922
1103.587, 216.2871
1104.683, 63.09180
1105.779, 137.7285
1106.875, 192.7129
1107.971, 92.53125
1109.066, 192.3594
1110.161, 39.19141
1111.256, 42.02930
1112.351, 2.128906
1113.446, 170.7246
1114.541, 323.5801
1115.636, 90.44336
1116.730, 303.3125
1117.824, 156.1914
1118.918, 88.07617
1120.012, 477.9707
1121.106, 359.8691
1122.200, 61.77930
1123.293, 216.6934
1124.387, 127.6172
1125.480, 7.449219
1126.573, 194.4941
1127.666, 46.44336
1128.759, 342.4023
1129.851, 334.3691
1130.944, 256.3477
1132.036, 396.3379
1133.128, 65.33594
1134.220, 206.3418
1135.312, 229.3613
1136.404, 3.396484
1137.495, 272.4492
1138.587, 33.53711
1139.678, 14.65430
1140.769, 326.7812
1141.860, 230.9238
1142.951, 120.0762
1144.041, 330.2402
1145.132, 357.4180
1146.222, 322.6055
1147.313, 239.8086
1148.403, 86.01953
1149.493, 195.2441
1150.582, 21.52148
1151.672, 261.7578
1152.761, 292.9902
1153.851, 392.2910
1154.940, 472.6055
1156.029, 421.8906
1157.118, 501.2656
1158.207, 271.6172
1159.295, 392.9844
1160.384, 242.3613
1161.472, 163.7520
1162.560, 406.1562
1163.648, 271.5781
1164.736, 579.0234
1165.824, 319.5020
1166.911, 233.0059
1167.999, 55.52148
1169.086, 415.0508
1170.173, 308.5938
1171.260, 256.9941
1172.347, 427.6055
1173.434, 257.1953
1174.520, 322.2656
1175.606, 269.8848
1176.693, 487.5391
1177.779, 353.2109
1178.865, 314.8945
1179.951, 239.5938
1181.036, 363.3066
1182.122, 406.0391
1183.207, 370.7832
1184.292, 259.5449
1185.377, 337.3223
1186.462, 383.1172
1187.547, 265.9395
1188.632, 389.7793
1189.716, 481.6328
1190.800, 403.5059
1191.885, 425.3965
1192.969, 484.3047
1194.052, 437.2305
1195.136, 649.1719
1196.220, 486.1328
1197.303, 546.1152
1198.387, 314.1152
1199.470, 432.1562
1200.553, 689.2168
1201.636, 617.2363
1202.718, 632.3320
1203.801, 481.2617
1204.883, 603.3945
1205.966, 578.5469
1207.048, 495.7305
1208.130, 441.9453
1209.211, 490.1035
1210.293, 541.3984
1211.375, 495.7383
1212.456, 621.1055
1213.537, 649.5176
1214.618, 554.9688
1215.699, 474.4219
1216.780, 693.7422
1217.861, 647.2324
1218.941, 565.2891
1220.022, 732.6953
1221.102, 820.2461
1222.182, 602.3652
1223.262, 466.9551
1224.342, 632.5664
1225.422, 480.2012
1226.501, 655.7070
1227.580, 490.3809
1228.660, 657.0762
1229.739, 526.7949
1230.818, 750.5332
1231.896, 590.2930
1232.975, 767.0723
1234.054, 500.8750
1235.132, 854.6973
1236.210, 785.5391
1237.288, 550.4023
1238.366, 525.2891
1239.444, 652.1953
1240.521, 669.1230
1241.599, 576.0723
1242.676, 687.9941
1243.753, 531.9863
1244.830, 651.9980
1245.907, 413.0312
1246.984, 842.0859
1248.061, 593.1641
1249.137, 753.2656
1250.214, 755.3906
1251.290, 789.5352
1252.366, 786.0215
1253.442, 611.8887
1254.517, 654.0957
1255.593, 643.2070
1256.668, 490.4590
1257.744, 545.7305
1258.819, 620.0234
1259.894, 370.3379
1260.969, 313.6699
1262.044, 506.0254
1263.118, 688.4043
1264.193, 342.8027
1265.267, 463.2227
1266.341, 413.6621
1267.415, 355.1230
1268.489, 365.9082
1269.563, 371.4102
1270.636, 461.9355
1271.710, 474.9219
1272.783, 491.0488
1273.856, 524.6367
1274.929, 474.2461
1276.002, 405.8770
1277.075, 498.5273
1278.147, 522.4609
1279.220, 571.1602
1280.292, 344.7441
1281.364, 268.4863
1282.436, 374.2520
1283.508, 219.0332
1284.580, 254.8379
1285.652, 400.6602
1286.723, 387.3672
1287.794, 331.2344
1288.865, 415.1211
1289.936, 547.5430
1291.007, 362.4727
1292.078, 455.0684
1293.149, 412.2852
1294.219, 369.4785
1295.289, 394.5195
1296.360, 379.5508
1297.430, 448.6016
1298.499, 409.9512
1299.569, 437.3809
1300.639, 339.5234
1301.708, 453.6816
1302.778, 372.8613
1303.847, 372.1055
1304.916, 323.7422
1305.985, 291.0254
1307.053, 294.6895
1308.122, 438.6523
1309.190, 321.9961
1310.259, 347.3594
1311.327, 417.7559
1312.395, 330.1719
1313.463, 383.6074
1314.531, 141.0625
1315.598, 424.2344
1316.666, 442.7305
1317.733, 238.2500
1318.800, 197.7891
1319.867, 276.3477
1320.934, 321.9277
1322.001, 412.5273
1323.067, 346.9043
1324.134, 374.7812
1325.200, 212.4355
1326.266, 220.1094
1327.333, 188.7988
1328.398, 193.5215
1329.464, 210.2773
1330.530, 308.9766
1331.595, 301.7480
1332.661, 402.5410
1333.726, 551.3516
1334.791, 530.1836
1335.856, 143.0312
1336.921, 252.9004
1337.985, 44.80859
1339.050, 142.7656
1340.114, 128.2832
1341.178, 257.7402
1342.242, 180.7539
1343.306, 214.7988
1344.370, 280.8633
