##NAMES=Metatorbernite
##RRUFFID=R040171
##IDEAL CHEMISTRY=Cu^2+^(U^6+^O_2_)_2_(PO_4_)_2_&#183;8H_2_O
##LOCALITY=La Luz de Cobre, Sonora, Mexico
##OWNER=RRUFF
##SOURCE=University of Arizona Mineral Museum
##DESCRIPTION=Green thin tabular crystals
##STATUS=The identification of this mineral has been confirmed by X-ray diffraction and chemical analysis
##URL=rruff.info/R040171
##MEASURED CHEMISTRY=(Cu_0.80_[box]_0.20_)_Σ=1_(U_1.00_O_2_)_2_(P_1.00_O_4_)_2_·8((H_2_O)_0.95_(H_3_O)^+^_0.05_)
##PIN_ID=M00079
##ORIENTATION=Laser parallel to -c* (0 0 -1). Fiducial mark perpendicular to laser is parallel to a [1 0 0]
89.193, 0.000
90.587, 123.203
91.981, 324.353
93.375, 867.128
94.768, 1313.833
96.161, 1810.230
97.554, 1937.940
98.947, 1896.888
100.340, 1557.998
101.732, 820.706
103.124, 548.299
104.516, 478.775
105.908, 563.212
107.300, 780.180
108.691, 759.086
110.082, 1010.435
111.473, 953.697
112.864, 785.652
114.254, 697.539
115.644, 687.542
117.034, 500.810
118.424, 420.462
119.813, 300.600
121.203, 351.947
122.592, 434.492
123.981, 435.498
125.369, 585.162
126.758, 519.975
128.146, 418.818
129.534, 334.646
130.922, 363.417
132.309, 197.771
133.696, 246.047
135.083, 122.537
136.470, 140.155
137.857, 80.854
139.243, 133.639
140.630, 135.513
142.016, 130.477
143.401, 108.533
144.787, 108.254
146.172, 94.480
147.557, 84.252
148.942, 71.671
150.327, 43.169
151.711, 25.738
153.096, 7.375
154.480, 37.085
155.863, 32.133
157.247, 12.276
158.630, 8.343
160.013, 111.333
161.396, 158.243
162.779, 95.074
164.161, 90.842
165.544, 43.907
166.926, 29.166
168.308, 88.225
169.689, 33.708
171.070, 22.927
172.452, 17.938
173.833, 34.854
175.213, 74.754
176.594, 148.756
177.974, 199.797
179.354, 255.166
180.734, 448.614
182.114, 555.924
183.493, 692.346
184.872, 1098.876
186.251, 1450.509
187.630, 2024.240
189.008, 2547.068
190.387, 3145.985
191.765, 3579.979
193.143, 3978.042
194.520, 3960.170
195.898, 3320.365
197.275, 2608.626
198.652, 1810.954
200.029, 1327.347
201.405, 915.807
202.782, 697.333
204.158, 497.921
205.534, 365.559
206.909, 401.227
208.285, 341.830
209.660, 403.362
211.035, 423.889
212.410, 415.383
213.784, 601.893
215.159, 669.468
216.533, 877.113
217.907, 1010.828
219.281, 1148.612
220.654, 1388.466
222.027, 1472.388
223.400, 1512.380
224.773, 1374.440
226.146, 1217.568
227.518, 1056.766
228.891, 833.031
230.263, 657.364
231.634, 483.548
233.006, 348.777
234.377, 192.771
235.748, 113.376
237.119, 84.049
238.490, 47.210
239.860, 22.400
241.231, 49.521
242.601, 63.574
243.970, 56.558
245.340, 98.238
246.709, 190.721
248.079, 85.138
249.448, 32.922
250.816, 150.282
252.185, 28.181
253.553, 124.499
254.921, 77.725
256.289, 147.770
257.657, 97.011
259.024, 93.526
260.391, 86.082
261.758, 42.477
263.125, 58.699
264.492, 28.208
265.858, 21.220
267.224, 40.683
268.590, 54.476
269.956, 55.305
271.321, 83.957
272.687, 50.249
274.052, 109.542
275.416, 69.829
276.781, 194.113
278.146, 224.399
279.510, 195.693
280.874, 406.999
282.237, 443.319
283.601, 530.658
284.964, 493.018
286.327, 544.388
287.690, 654.734
289.053, 534.060
290.416, 519.130
291.778, 614.051
293.140, 435.924
294.502, 555.678
295.863, 404.420
297.225, 417.209
298.586, 407.046
299.947, 357.931
301.308, 356.863
302.668, 362.843
304.029, 353.868
305.389, 424.940
306.749, 437.059
308.108, 340.224
309.468, 393.435
310.827, 346.690
312.186, 339.924
313.545, 318.081
314.903, 310.729
316.262, 296.165
317.620, 223.321
318.978, 321.846
320.336, 304.307
321.693, 326.804
323.051, 218.559
324.408, 388.223
325.765, 189.434
327.121, 403.166
328.478, 255.063
329.834, 332.208
331.190, 350.863
332.546, 310.769
333.902, 320.327
335.257, 328.479
336.612, 347.760
337.967, 357.539
339.322, 417.461
340.677, 433.401
342.031, 459.484
343.385, 447.409
344.739, 495.461
346.093, 501.960
347.446, 500.589
348.799, 568.888
350.153, 534.119
351.505, 671.396
352.858, 698.715
354.210, 700.079
355.563, 758.485
356.915, 774.935
358.267, 761.428
359.618, 819.964
360.969, 768.542
362.321, 948.163
363.672, 824.826
365.022, 921.534
366.373, 955.296
367.723, 982.102
369.073, 1004.949
370.423, 945.837
371.773, 1094.768
373.122, 1028.742
374.471, 1071.759
375.821, 1140.818
377.169, 1057.923
378.518, 1286.104
379.866, 1199.325
381.215, 1270.614
382.563, 1329.946
383.910, 1331.337
385.258, 1266.776
386.605, 1352.257
387.952, 1469.790
389.299, 1469.365
390.646, 1596.004
391.992, 1661.684
393.339, 1769.407
394.685, 2026.201
396.031, 2434.036
397.376, 2894.937
398.722, 3273.877
400.067, 3605.881
401.412, 3961.536
402.757, 3770.428
404.101, 4512.731
405.446, 4835.521
406.790, 4969.685
408.134, 4694.053
409.478, 4084.926
410.821, 3496.069
412.165, 3011.510
413.508, 2637.441
414.851, 2441.539
416.193, 2132.120
417.536, 1960.752
418.878, 1941.456
420.220, 1812.230
421.562, 1889.062
422.904, 1654.869
424.245, 1786.553
425.586, 1883.642
426.927, 1838.678
428.268, 1939.838
429.609, 1834.736
430.949, 1885.882
432.289, 2010.280
433.629, 2290.497
434.969, 2317.750
436.309, 2585.038
437.648, 2577.379
438.987, 2847.759
440.326, 2860.184
441.665, 2824.644
443.003, 2756.140
444.342, 2619.693
445.680, 2381.282
447.018, 2183.920
448.355, 2114.595
449.693, 1901.309
451.030, 1781.062
452.367, 1784.856
453.704, 1832.693
455.041, 1661.566
456.377, 1683.476
457.713, 1608.424
459.049, 1594.408
460.385, 1646.429
461.721, 1618.486
463.056, 1694.581
464.391, 1527.711
465.726, 1477.877
467.061, 1489.079
468.395, 1325.315
469.730, 1247.588
471.064, 1253.895
472.398, 1110.236
473.731, 1179.612
475.065, 990.022
476.398, 1041.467
477.731, 979.945
479.064, 988.459
480.397, 864.006
481.729, 948.597
483.062, 959.226
484.394, 844.893
485.725, 849.618
487.057, 785.413
488.389, 825.263
489.720, 872.166
491.051, 679.113
492.382, 775.103
493.712, 742.150
495.043, 747.245
496.373, 637.382
497.703, 737.555
499.032, 668.760
500.362, 666.997
501.691, 726.265
503.020, 699.438
504.349, 730.383
505.678, 702.252
507.007, 751.642
508.335, 698.062
509.663, 680.530
510.991, 529.010
512.319, 647.518
513.646, 556.056
514.973, 800.623
516.300, 669.218
517.627, 566.842
518.954, 482.494
520.280, 362.173
521.607, 430.880
522.933, 410.615
524.259, 422.932
525.584, 385.283
526.910, 360.312
528.235, 455.154
529.560, 391.021
530.885, 437.913
532.209, 314.979
533.534, 372.922
534.858, 406.890
536.182, 404.255
537.506, 397.543
538.829, 461.584
540.152, 346.421
541.476, 300.508
542.799, 345.522
544.121, 261.826
545.444, 295.286
546.766, 354.750
548.088, 162.090
549.410, 275.430
550.732, 221.767
552.053, 291.648
553.375, 234.012
554.696, 222.464
556.017, 145.839
557.337, 174.842
558.658, 224.688
559.978, 240.516
561.298, 197.562
562.618, 238.683
563.938, 101.904
565.257, 121.886
566.576, 201.409
567.895, 50.494
569.214, 196.043
570.533, 250.391
571.851, 59.457
573.170, 78.473
574.488, 172.997
575.805, 68.985
577.123, 106.036
578.440, 65.557
579.758, 12.347
581.075, 55.864
582.391, 12.306
583.708, 60.656
585.024, 84.717
586.341, 10.030
587.657, 126.959
588.972, 194.026
590.288, 147.226
591.603, 77.343
592.918, 38.607
594.233, 133.679
595.548, 98.815
596.863, 97.682
598.177, 93.906
599.491, 84.009
600.805, 87.354
602.119, 116.090
603.432, 127.705
604.746, 184.879
606.059, 175.521
607.372, 213.530
608.685, 170.738
609.997, 321.600
611.309, 127.948
612.621, 183.859
613.933, 141.042
615.245, 257.995
616.557, 254.912
617.868, 233.879
619.179, 298.797
620.490, 256.963
621.801, 237.887
623.111, 351.864
624.421, 243.859
625.731, 283.785
627.041, 172.715
628.351, 332.653
629.660, 182.591
630.970, 40.528
632.279, 347.463
633.588, 126.398
634.896, 247.330
636.205, 189.259
637.513, 174.188
638.821, 202.113
640.129, 189.035
641.437, 195.955
642.744, 148.870
644.051, 135.782
645.358, 143.689
646.665, 121.593
647.972, 117.018
649.278, 137.386
650.584, 98.273
651.890, 61.155
653.196, 53.329
654.502, 150.901
655.807, 101.765
657.113, 64.622
658.418, 207.471
659.722, 166.312
661.027, 108.147
662.331, 121.974
663.636, 57.793
664.940, 228.604
666.244, 0.405
667.547, 162.198
668.851, 20.981
670.154, 96.755
671.457, 28.521
672.760, 27.275
674.062, 68.021
675.365, 55.756
676.667, 41.481
677.969, 70.195
679.271, 93.899
680.572, 8.408
681.874, 41.733
683.175, 0.094
684.476, 65.531
685.777, 42.144
687.077, 59.745
688.378, 9.334
689.678, 86.909
690.978, 29.471
692.278, 3.021
693.577, 109.446
694.877, 87.009
696.176, 83.550
697.475, 68.829
698.774, 51.807
700.072, 5.490
701.371, 17.799
702.669, 22.929
703.967, 33.128
705.265, 66.471
706.562, 41.689
707.860, 10.834
709.157, 95.042
710.454, 41.005
711.751, 76.967
713.047, 55.994
714.344, 60.062
715.640, 17.126
716.936, 3.443
718.232, 19.415
719.527, 19.680
720.823, 29.050
722.118, 38.059
723.413, 2.159
724.708, 3.529
726.002, 46.942
727.297, 40.584
728.591, 7.911
729.885, 22.553
731.179, 52.992
732.472, 69.591
733.766, 76.248
735.059, 31.982
736.352, 40.771
737.645, 58.620
738.937, 6.539
740.230, 63.500
741.522, 50.451
742.814, 74.367
744.106, 68.394
745.397, 59.343
746.689, 68.270
747.980, 58.076
749.271, 76.054
750.562, 29.087
751.853, 33.714
753.143, 2.485
754.433, 79.215
755.723, 59.922
757.013, 46.396
758.303, 101.219
759.592, 10.188
760.881, 49.356
762.170, 35.894
763.459, 30.093
764.748, 42.811
766.036, 27.234
767.325, 149.624
768.613, 83.009
769.901, 117.381
771.188, 184.734
772.476, 116.064
773.763, 165.394
775.050, 90.355
776.337, 193.649
777.624, 119.129
778.910, 115.381
780.196, 224.625
781.482, 240.824
782.768, 206.078
784.054, 157.264
785.339, 272.429
786.625, 420.572
787.910, 203.693
789.195, 394.794
790.479, 369.872
791.764, 472.930
793.048, 445.965
794.332, 438.986
795.616, 681.985
796.900, 728.962
798.183, 840.934
799.467, 896.884
800.750, 1026.812
802.033, 1136.718
803.316, 1133.604
804.598, 1371.468
805.880, 1451.860
807.163, 1502.133
808.445, 1761.933
809.726, 1926.715
811.008, 2137.475
812.289, 2449.215
813.570, 2655.932
814.851, 3361.629
816.132, 3826.303
817.413, 4572.955
818.693, 5623.589
819.973, 7631.199
821.253, 10323.771
822.533, 15438.341
823.813, 23838.891
825.092, 35215.410
826.371, 44412.922
827.650, 43862.406
828.929, 33059.859
830.208, 21655.311
831.486, 13748.733
832.764, 9039.146
834.042, 6527.538
835.320, 4911.357
836.598, 3905.158
837.875, 3476.285
839.152, 2974.618
840.429, 2702.951
841.706, 2401.264
842.983, 1795.416
844.259, 1340.695
845.536, 1067.954
846.812, 832.822
848.088, 684.771
849.363, 424.971
850.639, 507.379
851.914, 566.541
853.189, 325.780
854.464, 374.731
855.739, 317.531
857.013, 378.329
858.288, 306.255
859.562, 376.183
860.836, 221.116
862.110, 238.509
863.383, 178.422
864.656, 217.248
865.930, 279.152
867.203, 166.040
868.475, 87.867
869.748, 259.322
871.020, 61.570
872.292, 29.747
873.564, 149.830
874.836, 62.165
876.108, 33.966
877.379, 27.222
878.650, 117.048
879.922, 83.090
881.192, 113.418
882.463, 178.797
883.733, 162.668
885.004, 180.074
886.274, 160.416
887.544, 112.288
888.813, 325.888
890.083, 220.889
891.352, 316.722
892.621, 430.781
893.890, 486.135
895.159, 527.295
896.427, 632.356
897.695, 648.066
898.964, 779.278
900.232, 813.580
901.499, 830.193
902.767, 838.075
904.034, 728.352
905.301, 662.895
906.568, 599.077
907.835, 537.139
909.102, 500.434
910.368, 445.442
911.634, 399.125
912.900, 322.092
914.166, 307.836
915.432, 261.212
916.697, 217.383
917.962, 74.896
919.227, 215.920
920.492, 61.760
921.757, 208.655
923.021, 51.061
924.285, 40.498
925.550, 181.294
926.813, 0.281
928.077, 128.981
929.341, 11.387
930.604, 176.732
931.867, 69.179
933.130, 3.285
934.393, 21.916
935.655, 81.429
936.918, 61.769
938.180, 92.873
939.442, 95.432
940.703, 119.755
941.965, 120.073
943.226, 116.388
944.488, 161.808
945.749, 121.226
947.009, 230.525
948.270, 216.821
949.530, 215.623
950.791, 248.910
952.051, 221.192
953.311, 327.472
954.570, 291.748
955.830, 429.116
957.089, 451.384
958.348, 460.649
959.607, 545.911
960.866, 621.795
962.124, 585.051
963.383, 593.303
964.641, 756.554
965.899, 764.802
967.156, 982.048
968.414, 1046.291
969.671, 1079.533
970.928, 1273.773
972.185, 1441.011
973.442, 1884.247
974.699, 2179.482
975.955, 2815.717
977.211, 3609.949
978.468, 4248.180
979.723, 5248.412
980.979, 6355.957
982.234, 7846.186
983.490, 10550.583
984.745, 13682.812
986.000, 18732.895
987.254, 24218.027
988.509, 28687.270
989.763, 30992.332
991.017, 30276.803
992.271, 28596.045
993.525, 26910.025
994.779, 26780.279
996.032, 27546.529
997.285, 28267.777
998.538, 26380.035
999.791, 21837.318
1001.044, 17299.605
1002.296, 13000.924
1003.548, 10459.236
1004.800, 8657.571
1006.052, 7270.914
1007.304, 6000.260
1008.555, 4531.617
1009.807, 3482.979
1011.058, 2762.365
1012.309, 2191.754
1013.559, 1875.149
1014.810, 1597.579
1016.060, 1345.012
1017.310, 1169.902
1018.560, 1225.938
1019.810, 961.379
1021.060, 916.886
1022.309, 973.151
1023.558, 641.922
1024.807, 673.472
1026.056, 528.847
1027.305, 617.864
1028.553, 456.768
1029.801, 640.373
1031.049, 509.005
1032.297, 391.644
1033.545, 364.298
1034.793, 434.962
1036.040, 379.633
1037.287, 348.336
1038.534, 335.076
1039.781, 300.510
1041.027, 365.629
1042.274, 266.451
1043.520, 351.289
1044.766, 357.135
1046.012, 278.990
1047.257, 277.853
1048.503, 234.724
1049.748, 380.602
1050.993, 159.488
1052.238, 312.386
1053.483, 257.290
1054.727, 160.221
1055.971, 86.162
1057.216, 98.473
1058.459, 143.092
1059.703, 127.071
1060.947, 124.083
1062.190, 109.102
1063.433, 63.143
1064.676, 86.197
1065.919, 104.265
1067.162, 34.346
1068.404, 98.440
1069.646, 61.451
1070.888, 49.362
1072.130, 169.712
1073.372, 9.796
1074.613, 81.112
1075.855, 99.950
1077.096, 38.630
1078.337, 13.435
1079.578, 21.301
1080.818, 58.615
1082.059, 20.549
1083.299, 14.546
1084.539, 26.574
1085.779, 48.531
1087.018, 44.408
1088.258, 50.333
1089.497, 24.981
1090.736, 38.109
1091.975, 35.249
1093.213, 16.399
1094.452, 24.439
1095.690, 80.723
1096.928, 46.895
1098.166, 69.921
1099.404, 91.243
1100.642, 120.419
1101.879, 14.607
1103.116, 108.807
1104.353, 1.018
1105.590, 48.239
1106.827, 43.473
1108.063, 13.719
1109.299, 13.024
1110.536, 37.240
1111.771, 13.516
1113.007, 75.804
1114.243, 111.104
1115.478, 114.418
1116.713, 73.745
1117.948, 58.084
1119.183, 155.437
1120.418, 102.803
1121.652, 400.180
1122.886, 787.572
1124.120, 852.977
1125.354, 436.399
1126.588, 232.834
1127.821, 110.284
1129.055, 7.250
1130.288, 18.228
1131.521, 49.772
1132.753, 98.204
1133.986, 21.297
1135.218, 44.792
1136.450, 59.711
1137.682, 63.772
1138.914, 91.266
1140.146, 59.218
1141.377, 42.284
1142.609, 78.213
1143.840, 130.725
1145.071, 116.251
1146.301, 149.792
1147.532, 112.347
1148.762, 184.919
1149.992, 115.504
1151.222, 101.104
1152.452, 82.720
1153.682, 234.350
1154.911, 144.994
1156.140, 251.655
1157.369, 87.330
1158.598, 216.021
1159.827, 200.727
1161.055, 304.447
1162.284, 196.183
1163.512, 270.935
1164.740, 284.701
1165.967, 367.483
1167.195, 228.281
1168.422, 364.094
1169.650, 302.922
1170.877, 438.768
1172.103, 223.631
1173.330, 266.511
1174.557, 327.406
1175.783, 412.320
1177.009, 412.253
1178.235, 271.203
1179.461, 398.167
1180.686, 378.146
1181.912, 448.142
1183.137, 589.153
1184.362, 525.181
1185.587, 500.225
1186.811, 469.283
1188.036, 469.357
1189.260, 613.446
1190.484, 658.552
1191.708, 632.674
1192.932, 585.812
1194.155, 565.965
1195.378, 648.133
1196.602, 599.318
1197.825, 676.519
1199.047, 617.737
1200.270, 672.971
1201.492, 633.221
1202.715, 676.896
1203.937, 682.770
1205.159, 772.068
1206.380, 840.385
1207.602, 900.717
1208.823, 738.067
1210.044, 703.434
1211.265, 754.815
1212.486, 848.215
1213.707, 783.632
1214.927, 918.065
1216.147, 840.518
1217.367, 794.603
1218.587, 862.371
1219.807, 918.879
1221.027, 877.409
1222.246, 942.546
1223.465, 880.115
1224.684, 928.613
1225.903, 1043.224
1227.121, 891.854
1228.340, 823.378
1229.558, 1060.896
1230.776, 985.587
1231.994, 955.307
1233.212, 853.043
1234.429, 912.794
1235.646, 924.561
1236.864, 967.341
1238.081, 1005.137
1239.297, 920.946
1240.514, 961.771
1241.730, 942.388
1242.947, 907.243
1244.163, 927.113
1245.378, 858.490
1246.594, 949.392
1247.810, 988.310
1249.025, 787.243
1250.240, 958.191
1251.455, 779.061
1252.670, 834.041
1253.885, 946.038
1255.099, 976.050
1256.313, 951.454
1257.527, 788.500
1258.741, 904.562
1259.955, 870.642
1261.168, 770.738
1262.382, 900.000
1263.595, 812.132
1264.808, 852.279
1266.021, 848.446
1267.233, 760.629
1268.446, 681.829
1269.658, 825.049
1270.870, 748.271
1272.082, 717.525
1273.294, 645.798
1274.505, 604.953
1275.716, 722.950
1276.928, 732.276
1278.139, 548.455
1279.349, 735.818
1280.560, 674.349
1281.770, 616.089
1282.981, 646.509
1284.191, 577.130
1285.401, 555.368
1286.610, 563.844
1287.820, 516.603
1289.029, 529.129
1290.239, 519.054
1291.448, 488.219
1292.656, 529.793
1293.865, 435.387
1295.073, 465.001
1296.282, 435.635
1297.490, 362.289
1298.698, 330.962
1299.906, 377.657
1301.113, 338.390
1302.320, 340.104
1303.528, 345.857
1304.735, 374.630
1305.942, 385.424
1307.148, 366.238
1308.355, 400.071
1309.561, 323.926
1310.767, 370.801
1311.973, 282.697
1313.179, 334.614
1314.384, 173.552
1315.590, 259.511
1316.795, 281.492
1318.000, 228.496
1319.205, 294.521
1320.410, 281.567
1321.614, 180.635
1322.819, 209.727
1324.023, 212.841
1325.227, 215.965
1326.431, 324.101
1327.634, 232.261
1328.838, 64.442
1330.041, 156.645
1331.244, 184.870
1332.447, 269.120
1333.650, 229.394
1334.852, 124.691
1336.055, 168.013
1337.257, 85.358
1338.459, 164.729
1339.661, 133.125
1340.862, 177.547
1342.064, 299.994
1343.265, 32.467
1344.466, 279.968
1345.667, 183.495
1346.868, 63.049
1348.068, 210.631
1349.269, 168.241
1350.469, 114.880
1351.669, 216.548
1352.869, 159.247
1354.069, 274.977
1355.268, 242.738
1356.468, 252.765
1357.667, 256.363
1358.866, 242.227
1360.065, 158.126
1361.263, 125.065
1362.462, 49.054
1363.660, 187.723
1364.858, 124.175
1366.056, 303.474
1367.254, 121.662
1368.451, 150.899
1369.649, 86.192
1370.846, 24.477
1372.043, 223.625
1373.240, 76.772
1374.436, 38.868
1375.633, 211.930
1376.829, 86.978
1378.025, 86.275
1379.221, 100.600
1380.417, 81.949
1381.613, 86.330
1382.808, 120.742
1384.003, 135.212
1385.199, 115.709
1386.393, 111.465
1387.588, 100.288
1388.783, 69.371
1389.977, 56.984
1391.171, 57.625
1392.365, 12.292
1393.559, 76.985
1394.753, 63.707
1395.946, 31.451
1397.140, 126.216
1398.333, 62.003
1399.526, 15.830
1400.719, 14.701
1401.911, 86.623
1403.104, 54.627
1404.296, 70.692
1405.488, 14.202
1406.680, 80.933
1407.872, 90.099
1409.063, 157.295
1410.255, 25.523
1411.446, 93.781
1412.637, 108.070
1413.828, 47.610
1415.018, 112.741
1416.209, 7.121
1417.399, 43.466
1418.589, 0.977
1419.779, 42.450
1420.969, 45.953
1422.159, 150.488
1423.348, 114.053
1424.537, 18.350
1425.726, 42.278
1426.915, 96.938
1428.104, 163.628
1429.293, 121.348
1430.481, 31.099
1431.669, 1.120
1432.857, 68.690
1434.045, 57.530
1435.233, 153.398
1436.420, 188.296
1437.608, 208.221
1438.795, 85.172
1439.982, 113.148
1441.169, 7.149
1442.355, 206.148
1443.542, 183.155
1444.728, 243.177
1445.914, 192.215
1447.100, 122.272
1448.286, 174.354
1449.472, 262.482
1450.657, 243.666
1451.842, 293.906
1453.027, 224.202
1454.212, 284.554
1455.397, 255.963
1456.581, 197.430
1457.766, 223.956
1458.950, 237.543
1460.134, 178.191
1461.318, 326.901
1462.501, 232.294
1463.685, 247.114
1464.868, 352.991
1466.051, 173.932
1467.234, 254.222
1468.417, 78.784
1469.600, 102.779
1470.782, 122.842
1471.965, 207.242
1473.147, 197.918
1474.329, 234.634
1475.510, 203.890
1476.692, 180.243
1477.873, 151.664
1479.055, 158.153
1480.236, 140.084
1481.416, 140.303
1482.597, 131.072
1483.778, 108.884
1484.958, 106.785
1486.138, 101.183
1487.318, 153.873
1488.498, 79.802
1489.678, 117.348
1490.857, 65.743
1492.037, 122.247
1493.216, 160.924
1494.395, 184.922
1495.574, 134.093
1496.752, 148.452
1497.931, 25.996
1499.109, 95.737
1500.287, 140.693
1501.465, 109.885
1502.643, 5.336
1503.820, 28.072
1504.998, 3.100
1506.175, 12.443
1507.352, 15.362
1508.529, 97.576
1509.706, 150.248
1510.882, 196.756
1512.059, 253.504
1513.235, 184.847
1514.411, 148.372
1515.587, 25.232
1516.762, 169.264
1517.938, 0.000
##END=



