##NAMES=Metatorbernite
##RRUFFID=R040171
##IDEAL CHEMISTRY=Cu^2+^(U^6+^O_2_)_2_(PO_4_)_2_&#183;8H_2_O
##LOCALITY=La Luz de Cobre, Sonora, Mexico
##OWNER=RRUFF
##SOURCE=University of Arizona Mineral Museum
##DESCRIPTION=Green thin tabular crystals
##STATUS=The identification of this mineral has been confirmed by X-ray diffraction and chemical analysis
##URL=rruff.info/R040171
##MEASURED CHEMISTRY=(Cu_0.80_[box]_0.20_)_Σ=1_(U_1.00_O_2_)_2_(P_1.00_O_4_)_2_·8((H_2_O)_0.95_(H_3_O)^+^_0.05_)
##PIN_ID=M00079
##ORIENTATION=Laser parallel to -c* (0 0 -1). Fiducial mark perpendicular to laser is parallel to a [1 0 0]
85.009, 0.000
86.404, 5.602
87.798, 110.320
89.193, 281.105
90.587, 583.706
91.981, 947.966
93.375, 1366.328
94.768, 1896.773
96.161, 2326.188
97.554, 2556.596
98.947, 2276.273
100.340, 1839.078
101.732, 1357.272
103.124, 1139.357
104.516, 1094.152
105.908, 1148.865
107.300, 1353.219
108.691, 1472.830
110.082, 1580.095
111.473, 1395.133
112.864, 1385.282
114.254, 1379.882
115.644, 1054.719
117.034, 947.593
118.424, 662.723
119.813, 666.574
121.203, 663.727
122.592, 616.412
123.981, 739.379
125.369, 759.721
126.758, 699.744
128.146, 620.121
129.534, 549.171
130.922, 554.652
132.309, 432.825
133.696, 411.320
135.083, 324.117
136.470, 340.207
137.857, 258.578
139.243, 352.223
140.630, 287.131
142.016, 297.295
143.401, 219.707
144.787, 199.360
146.172, 216.248
147.557, 185.359
148.942, 203.681
150.327, 168.205
151.711, 116.926
153.096, 48.842
154.480, 85.951
155.863, 50.250
157.247, 59.736
158.630, 1.408
160.013, 12.264
161.396, 16.699
162.779, 90.483
164.161, 0.786
165.544, 94.221
166.926, 54.479
168.308, 57.614
169.689, 119.742
171.070, 132.815
172.452, 52.809
173.833, 121.524
175.213, 44.820
176.594, 3.155
177.974, 53.876
179.354, 95.067
180.734, 224.505
182.114, 214.940
183.493, 331.497
184.872, 624.176
186.251, 823.975
187.630, 1242.894
189.008, 1503.926
190.387, 1975.065
191.765, 2396.307
193.143, 2601.650
194.520, 2650.096
195.898, 2319.647
197.275, 1939.300
198.652, 1297.059
200.029, 972.920
201.405, 659.887
202.782, 430.957
204.158, 240.131
205.534, 232.398
206.909, 203.726
208.285, 193.100
209.660, 249.507
211.035, 373.909
212.410, 412.184
213.784, 570.983
215.159, 643.365
216.533, 855.043
217.907, 1118.827
219.281, 1218.719
220.654, 1473.717
222.027, 1551.819
223.400, 1607.027
224.773, 1613.340
226.146, 1299.757
227.518, 1176.277
228.891, 930.902
230.263, 639.629
231.634, 536.460
233.006, 311.394
234.377, 188.430
235.748, 61.570
237.119, 51.813
238.490, 11.160
239.860, 8.609
241.231, 6.838
242.601, 33.817
243.970, 72.574
245.340, 8.435
246.709, 151.394
248.079, 219.455
249.448, 345.616
250.816, 247.542
252.185, 343.337
253.553, 331.925
254.921, 170.033
256.289, 270.550
257.657, 18.403
259.024, 53.539
260.391, 6.083
261.758, 57.508
263.125, 150.707
264.492, 42.780
265.858, 50.708
267.224, 77.506
268.590, 10.815
269.956, 104.749
271.321, 45.770
272.687, 6.366
274.052, 100.034
275.416, 4.224
276.781, 130.591
278.146, 147.484
279.510, 159.453
280.874, 259.498
282.237, 279.619
283.601, 398.816
284.964, 423.411
286.327, 375.434
287.690, 451.834
289.053, 405.207
290.416, 322.567
291.778, 493.912
293.140, 338.153
294.502, 339.353
295.863, 196.589
297.225, 352.911
298.586, 260.316
299.947, 233.804
301.308, 364.373
302.668, 213.022
304.029, 198.751
305.389, 315.559
306.749, 256.444
308.108, 294.405
309.468, 293.442
310.827, 229.555
312.186, 229.740
313.545, 226.000
314.903, 246.332
316.262, 229.735
317.620, 227.210
318.978, 240.754
320.336, 207.369
321.693, 271.053
323.051, 133.231
324.408, 301.844
325.765, 182.535
327.121, 268.282
328.478, 279.755
329.834, 278.542
331.190, 321.094
332.546, 317.616
333.902, 263.575
335.257, 349.042
336.612, 332.066
337.967, 361.259
339.322, 425.498
340.677, 386.285
342.031, 437.843
343.385, 430.465
344.739, 470.152
346.093, 563.902
347.446, 521.717
348.799, 534.596
350.153, 673.538
351.505, 701.543
352.858, 650.612
354.210, 748.744
355.563, 764.938
356.915, 815.193
358.267, 791.509
359.618, 857.887
360.969, 867.331
362.321, 885.835
363.672, 839.399
365.022, 934.026
366.373, 1017.733
367.723, 928.501
369.073, 1021.327
370.423, 1024.212
371.773, 1058.172
373.122, 1062.209
374.471, 1074.307
375.821, 1250.479
377.169, 1137.715
378.518, 1302.042
379.866, 1193.429
381.215, 1251.902
382.563, 1384.433
383.910, 1351.049
385.258, 1401.728
386.605, 1312.463
387.952, 1416.278
389.299, 1375.192
390.646, 1575.167
391.992, 1478.197
393.339, 1598.286
394.685, 1657.452
396.031, 1801.674
397.376, 1941.984
398.722, 2136.351
400.067, 2229.799
401.412, 2413.558
402.757, 2405.889
404.101, 2612.381
405.446, 2665.068
406.790, 2482.813
408.134, 2620.611
409.478, 2497.474
410.821, 2390.388
412.165, 2199.358
413.508, 2139.754
414.851, 2025.521
416.193, 1995.717
417.536, 1906.976
418.878, 1865.296
420.220, 1860.691
421.562, 1942.141
422.904, 1724.562
424.245, 1958.251
425.586, 2034.667
426.927, 1951.737
428.268, 2172.206
429.609, 2073.734
430.949, 2088.615
432.289, 2260.238
433.629, 2476.232
434.969, 2473.319
436.309, 2815.651
437.648, 2871.767
438.987, 3204.499
440.326, 3209.814
441.665, 3147.523
443.003, 2968.955
444.342, 2867.444
445.680, 2654.985
447.018, 2521.579
448.355, 2381.226
449.693, 2108.926
451.030, 2021.677
452.367, 1900.479
453.704, 1874.333
455.041, 1806.237
456.377, 1820.193
457.713, 1885.201
459.049, 1827.257
460.385, 1731.364
461.721, 1809.521
463.056, 1821.733
464.391, 1671.993
465.726, 1674.302
467.061, 1705.659
468.395, 1442.064
469.730, 1359.518
471.064, 1431.017
472.398, 1251.563
473.731, 1274.157
475.065, 1114.796
476.398, 1141.482
477.731, 1047.214
479.064, 1080.990
480.397, 960.811
481.729, 937.677
483.062, 902.587
484.394, 877.546
485.725, 853.549
487.057, 759.601
488.389, 826.716
489.720, 755.876
491.051, 758.099
492.382, 833.375
493.712, 821.706
495.043, 730.101
496.373, 644.564
497.703, 761.079
499.032, 721.658
500.362, 690.289
501.691, 707.963
503.020, 677.678
504.349, 694.433
505.678, 760.227
507.007, 774.061
508.335, 676.934
509.663, 649.878
510.991, 561.828
512.319, 618.100
513.646, 577.126
514.973, 575.189
516.300, 482.289
517.627, 561.426
518.954, 474.600
520.280, 443.030
521.607, 360.275
522.933, 347.556
524.259, 317.683
525.584, 335.614
526.910, 297.999
528.235, 358.417
529.560, 360.978
530.885, 360.971
532.209, 270.026
533.534, 370.574
534.858, 351.122
536.182, 209.293
537.506, 262.846
538.829, 325.613
540.152, 263.846
541.476, 216.870
542.799, 285.782
544.121, 188.037
545.444, 285.851
546.766, 255.290
548.088, 161.026
549.410, 235.194
550.732, 214.111
552.053, 273.023
553.375, 192.406
554.696, 177.583
556.017, 232.547
557.337, 150.359
558.658, 240.407
559.978, 137.929
561.298, 135.933
562.618, 158.571
563.938, 147.716
565.257, 120.461
566.576, 133.133
567.895, 109.109
569.214, 171.361
570.533, 75.850
571.851, 49.115
573.170, 32.352
574.488, 118.972
575.805, 6.289
577.123, 52.622
578.440, 1.232
579.758, 15.182
581.075, 24.889
582.391, 94.163
583.708, 71.320
585.024, 25.427
586.341, 2.820
587.657, 88.043
588.972, 92.187
590.288, 135.109
591.603, 71.617
592.918, 1.406
594.233, 14.798
595.548, 3.693
596.863, 24.876
598.177, 6.731
599.491, 18.439
600.805, 29.579
602.119, 37.858
603.432, 27.467
604.746, 87.833
606.059, 149.928
607.372, 107.245
608.685, 17.135
609.997, 148.077
611.309, 31.960
612.621, 41.639
613.933, 49.491
615.245, 98.125
616.557, 69.763
617.868, 71.408
619.179, 110.059
620.490, 74.035
621.801, 82.700
623.111, 159.369
624.421, 20.040
625.731, 198.713
627.041, 51.398
628.351, 120.089
629.660, 54.782
630.970, 58.476
632.279, 231.171
633.588, 104.866
634.896, 167.567
636.205, 91.269
637.513, 222.975
638.821, 119.698
640.129, 190.426
641.437, 177.152
642.744, 163.877
644.051, 106.620
645.358, 168.361
646.665, 109.101
647.972, 188.841
649.278, 36.579
650.584, 58.312
651.890, 35.040
653.196, 199.763
654.502, 179.480
655.807, 177.192
657.113, 103.897
658.418, 115.597
659.722, 134.288
661.027, 175.974
662.331, 116.650
663.636, 96.319
664.940, 213.980
666.244, 24.632
667.547, 218.275
668.851, 12.908
670.154, 118.529
671.457, 67.141
672.760, 53.741
674.062, 128.333
675.365, 105.913
676.667, 2.518
677.969, 118.029
679.271, 130.563
680.572, 23.086
681.874, 63.406
683.175, 96.044
684.476, 148.481
685.777, 45.907
687.077, 33.683
688.378, 50.316
689.678, 66.995
690.978, 38.706
692.278, 30.542
693.577, 104.228
694.877, 59.917
696.176, 78.954
697.475, 50.104
698.774, 70.857
700.072, 11.112
701.371, 127.052
702.669, 59.024
703.967, 127.165
705.265, 20.592
706.562, 110.320
707.860, 33.032
709.157, 52.282
710.454, 76.337
711.751, 91.062
713.047, 46.451
714.344, 74.061
715.640, 24.444
716.936, 39.178
718.232, 65.404
719.527, 146.833
720.823, 24.148
722.118, 71.657
723.413, 6.201
724.708, 63.212
726.002, 39.457
727.297, 174.567
728.591, 53.656
729.885, 11.029
731.179, 135.048
732.472, 165.045
733.766, 101.274
735.059, 33.964
736.352, 3.118
737.645, 36.748
738.937, 52.477
740.230, 66.276
741.522, 50.609
742.814, 95.309
744.106, 79.020
745.397, 42.704
746.689, 157.366
747.980, 16.005
749.271, 135.586
750.562, 25.052
751.853, 82.467
753.143, 28.532
754.433, 54.896
755.723, 48.961
757.013, 41.328
758.303, 154.668
759.592, 83.985
760.881, 104.271
762.170, 89.529
763.459, 124.757
764.748, 120.975
766.036, 129.409
767.325, 158.274
768.613, 136.751
769.901, 195.889
771.188, 188.286
772.476, 179.982
773.763, 245.454
775.050, 70.400
776.337, 330.418
777.624, 190.719
778.910, 297.699
780.196, 248.659
781.482, 250.011
782.768, 291.726
784.054, 279.004
785.339, 322.951
786.625, 427.871
787.910, 425.725
789.195, 540.006
790.479, 428.882
791.764, 601.982
793.048, 572.852
794.332, 709.963
795.616, 818.652
796.900, 921.340
798.183, 985.949
799.467, 1063.557
800.750, 1302.520
802.033, 1240.254
803.316, 1394.839
804.598, 1606.337
805.880, 1590.809
807.163, 1848.252
808.445, 2043.667
809.726, 2266.057
811.008, 2649.419
812.289, 2853.752
813.570, 3257.060
814.851, 3768.338
816.132, 4559.588
817.413, 5206.812
818.693, 6538.006
819.973, 8716.172
821.253, 11818.280
822.533, 17274.389
823.813, 26738.189
825.092, 39233.246
826.371, 49508.277
827.650, 49371.273
828.929, 37408.250
830.208, 24787.191
831.486, 15874.888
832.764, 10451.774
834.042, 7456.635
835.320, 5623.096
836.598, 4526.877
837.875, 4009.655
839.152, 3442.405
840.429, 3073.018
841.706, 2734.205
842.983, 2007.333
844.259, 1588.975
845.536, 1158.624
846.812, 1027.651
848.088, 824.303
849.363, 623.741
850.639, 649.721
851.914, 548.910
853.189, 562.216
854.464, 518.182
855.739, 510.591
857.013, 476.490
858.288, 458.882
859.562, 386.925
860.836, 398.238
862.110, 341.557
863.383, 326.929
864.656, 275.461
865.930, 272.729
867.203, 228.149
868.475, 136.332
869.748, 196.041
871.020, 104.268
872.292, 119.856
873.564, 141.938
874.836, 101.419
876.108, 57.969
877.379, 100.864
878.650, 121.169
879.922, 172.891
881.192, 185.833
882.463, 90.800
883.733, 239.380
885.004, 230.258
886.274, 209.115
887.544, 295.693
888.813, 350.927
890.083, 272.396
891.352, 411.621
892.621, 426.292
893.890, 597.211
895.159, 563.771
896.427, 695.076
897.695, 650.105
898.964, 894.459
900.232, 807.124
901.499, 924.344
902.767, 873.895
904.034, 831.552
905.301, 751.403
906.568, 683.215
907.835, 720.253
909.102, 633.265
910.368, 393.505
911.634, 374.990
912.900, 439.777
914.166, 312.756
915.432, 359.522
916.697, 257.264
917.962, 151.747
919.227, 247.895
920.492, 79.050
921.757, 239.528
923.021, 71.257
924.285, 52.307
925.550, 63.322
926.813, 9.013
928.077, 132.967
929.341, 71.087
930.604, 133.321
931.867, 129.800
933.130, 0.987
934.393, 42.152
935.655, 61.296
936.918, 99.281
938.180, 105.949
939.442, 114.391
940.703, 23.661
941.965, 95.708
943.226, 25.740
944.488, 25.094
945.749, 22.860
947.009, 159.787
948.270, 102.699
949.530, 40.403
950.791, 133.437
952.051, 56.263
953.311, 24.072
954.570, 87.856
955.830, 179.626
957.089, 199.384
958.348, 177.126
959.607, 242.856
960.866, 309.918
962.124, 216.623
963.383, 207.315
964.641, 335.996
965.899, 247.665
967.156, 406.320
968.414, 372.964
969.671, 455.597
970.928, 632.218
972.185, 573.827
973.442, 938.426
974.699, 1086.014
975.955, 1476.593
977.211, 1797.161
978.468, 1957.718
979.723, 2592.266
980.979, 3149.804
982.234, 3850.331
983.490, 5290.854
984.745, 6756.369
986.000, 9211.875
987.254, 12049.371
988.509, 14198.881
989.763, 15632.387
991.017, 15982.876
992.271, 15492.363
993.525, 14672.858
994.779, 14244.363
996.032, 14362.863
997.285, 14362.369
998.538, 13482.871
999.791, 11328.401
1001.044, 9412.926
1002.296, 7298.471
1003.548, 6238.010
1004.800, 5659.570
1006.052, 5058.132
1007.304, 4261.686
1008.555, 3006.258
1009.807, 2188.869
1011.058, 1644.479
1012.309, 1269.082
1013.559, 1055.686
1014.810, 815.308
1016.060, 620.926
1017.310, 643.573
1018.560, 525.220
1019.810, 442.796
1021.060, 395.471
1022.309, 322.986
1023.558, 280.450
1024.807, 259.095
1026.056, 200.516
1027.305, 227.278
1028.553, 255.732
1029.801, 236.329
1031.049, 170.032
1032.297, 145.733
1033.545, 127.122
1034.793, 127.834
1036.040, 117.542
1037.287, 72.249
1038.534, 60.955
1039.781, 57.517
1041.027, 62.411
1042.274, 78.122
1043.520, 83.856
1044.766, 126.594
1046.012, 94.335
1047.257, 108.078
1048.503, 52.177
1049.748, 173.547
1050.993, 51.730
1052.238, 97.977
1053.483, 17.685
1054.727, 17.586
1055.971, 6.861
1057.216, 32.250
1058.459, 17.388
1059.703, 44.655
1060.947, 60.062
1062.190, 1.782
1063.433, 80.504
1064.676, 3.230
1065.919, 67.038
1067.162, 81.337
1068.404, 95.331
1069.646, 17.997
1070.888, 6.555
1072.130, 7.891
1073.372, 37.509
1074.613, 16.454
1075.855, 9.202
1077.096, 39.554
1078.337, 60.790
1079.578, 114.550
1080.818, 30.812
1082.059, 25.181
1083.299, 93.035
1084.539, 29.864
1085.779, 81.889
1087.018, 77.350
1088.258, 54.182
1089.497, 16.241
1090.736, 30.884
1091.975, 16.396
1093.213, 5.337
1094.452, 124.141
1095.690, 21.355
1096.928, 94.972
1098.166, 78.571
1099.404, 83.229
1100.642, 112.868
1101.879, 108.136
1103.116, 103.608
1104.353, 154.213
1105.590, 136.886
1106.827, 61.565
1108.063, 179.256
1109.299, 15.044
1110.536, 193.662
1111.771, 82.378
1113.007, 90.102
1114.243, 148.837
1115.478, 166.580
1116.713, 165.335
1117.948, 148.809
1119.183, 172.944
1120.418, 144.149
1121.652, 193.455
1122.886, 130.262
1124.120, 112.079
1125.354, 162.907
1126.588, 87.747
1127.821, 192.598
1129.055, 18.459
1130.288, 118.333
1131.521, 219.219
1132.753, 127.116
1133.986, 26.026
1135.218, 40.958
1136.450, 260.902
1137.682, 66.859
1138.914, 263.827
1140.146, 97.812
1141.377, 119.809
1142.609, 197.818
1143.840, 42.841
1145.071, 212.877
1146.301, 165.926
1147.532, 208.988
1148.762, 209.063
1149.992, 244.152
1151.222, 268.396
1152.452, 213.371
1153.682, 305.501
1154.911, 316.645
1156.140, 302.382
1157.369, 246.974
1158.598, 296.158
1159.827, 295.357
1161.055, 302.591
1162.284, 300.799
1163.512, 338.041
1164.740, 391.299
1165.967, 409.569
1167.195, 442.074
1168.422, 530.156
1169.650, 497.471
1170.877, 441.802
1172.103, 486.150
1173.330, 434.512
1174.557, 467.891
1175.783, 484.748
1177.009, 492.743
1178.235, 515.134
1179.461, 542.580
1180.686, 516.043
1181.912, 527.522
1183.137, 550.737
1184.362, 586.458
1185.587, 634.057
1186.811, 671.601
1188.036, 783.161
1189.260, 773.738
1190.484, 756.332
1191.708, 837.941
1192.932, 938.568
1194.155, 737.212
1195.378, 976.873
1196.602, 830.441
1197.825, 950.137
1199.047, 816.821
1200.270, 986.553
1201.492, 874.305
1202.715, 1012.097
1203.937, 865.438
1205.159, 1065.497
1206.380, 999.403
1207.602, 1019.832
1208.823, 862.694
1210.044, 1010.506
1211.265, 1165.409
1212.486, 1106.311
1213.707, 1076.675
1214.927, 1053.253
1216.147, 1016.237
1217.367, 1072.426
1218.587, 1149.128
1219.807, 1108.811
1221.027, 1053.173
1222.246, 1069.586
1223.465, 1006.327
1224.684, 1083.487
1225.903, 1134.804
1227.121, 1045.011
1228.340, 1037.982
1229.558, 1025.252
1230.776, 1092.540
1231.994, 1127.853
1233.212, 1019.328
1234.429, 1106.129
1235.646, 1189.513
1236.864, 1089.369
1238.081, 1187.795
1239.297, 1156.240
1240.514, 1076.549
1241.730, 1092.057
1242.947, 1167.589
1244.163, 997.141
1245.378, 1126.712
1246.594, 1195.325
1247.810, 1201.957
1249.025, 1052.610
1250.240, 1231.291
1251.455, 1039.989
1252.670, 1114.710
1253.885, 1010.450
1255.099, 1081.613
1256.313, 1019.052
1257.527, 997.854
1258.741, 1159.678
1259.955, 1030.521
1261.168, 908.387
1262.382, 1076.280
1263.595, 1042.244
1264.808, 988.173
1266.021, 1046.124
1267.233, 900.098
1268.446, 776.092
1269.658, 1071.109
1270.870, 840.148
1272.082, 863.210
1273.294, 1011.293
1274.505, 848.400
1275.716, 886.530
1276.928, 843.683
1278.139, 668.857
1279.349, 898.115
1280.560, 787.511
1281.770, 778.756
1282.981, 797.024
1284.191, 720.316
1285.401, 706.116
1286.610, 710.456
1287.820, 680.820
1289.029, 647.208
1290.239, 598.619
1291.448, 636.056
1292.656, 652.518
1293.865, 545.003
1295.073, 731.514
1296.282, 577.049
1297.490, 609.608
1298.698, 683.192
1299.906, 577.803
1301.113, 613.438
1302.320, 557.098
1303.528, 461.783
1304.735, 511.492
1305.942, 475.229
1307.148, 499.988
1308.355, 540.774
1309.561, 369.586
1310.767, 509.424
1311.973, 356.285
1313.179, 461.175
1314.384, 258.091
1315.590, 342.032
1316.795, 425.001
1318.000, 444.992
1319.205, 334.012
1320.410, 429.059
1321.614, 342.131
1322.819, 364.232
1324.023, 359.362
1325.227, 300.520
1326.431, 340.706
1327.634, 407.923
1328.838, 221.168
1330.041, 217.442
1331.244, 287.718
1332.447, 351.022
1333.650, 205.352
1334.852, 261.709
1336.055, 229.098
1337.257, 185.517
1338.459, 257.966
1339.661, 240.447
1340.862, 342.959
1342.064, 273.517
1343.265, 203.106
1344.466, 247.741
1345.667, 273.886
1346.868, 230.588
1348.068, 240.327
1349.269, 278.104
1350.469, 269.925
1351.669, 294.783
1352.869, 109.689
1354.069, 190.632
1355.268, 265.611
1356.468, 123.631
1357.667, 189.689
1358.866, 253.807
1360.065, 144.983
1361.263, 237.204
1362.462, 165.588
1363.660, 214.885
1364.858, 187.228
1366.056, 89.175
1367.254, 294.623
1368.451, 226.124
1369.649, 218.676
1370.846, 193.329
1372.043, 155.991
1373.240, 121.481
1374.436, 181.358
1375.633, 261.834
1376.829, 179.286
1378.025, 229.854
1379.221, 162.770
1380.417, 212.356
1381.613, 164.981
1382.808, 146.647
1384.003, 183.350
1385.199, 220.090
1386.393, 73.868
1387.588, 37.682
1388.783, 197.534
1389.977, 33.421
1391.171, 127.348
1392.365, 41.312
1393.559, 90.314
1394.753, 227.354
1395.946, 200.433
1397.140, 187.550
1398.333, 31.294
1399.526, 105.900
1400.719, 84.135
1401.911, 84.396
1403.104, 196.685
1404.296, 62.010
1405.488, 0.371
1406.680, 7.229
1407.872, 113.211
1409.063, 76.690
1410.255, 148.209
1411.446, 56.768
1412.637, 135.364
1413.828, 56.000
1415.018, 118.676
1416.209, 116.394
1417.399, 142.151
1418.589, 137.366
1419.779, 111.782
1420.969, 83.659
1422.159, 7.423
1423.348, 85.465
1424.537, 132.531
1425.726, 60.568
1426.915, 80.646
1428.104, 31.236
1429.293, 126.922
1430.481, 41.121
1431.669, 73.361
1432.857, 4.641
1434.045, 41.955
1435.233, 65.303
1436.420, 273.689
1437.608, 186.111
1438.795, 27.569
1439.982, 197.062
1441.169, 125.587
1442.355, 101.141
1443.542, 174.725
1444.728, 213.294
1445.914, 205.889
1447.100, 216.503
1448.286, 105.138
1449.472, 251.798
1450.657, 73.489
1451.842, 210.242
1453.027, 247.058
1454.212, 251.939
1455.397, 352.887
1456.581, 174.902
1457.766, 303.983
1458.950, 334.133
1460.134, 214.414
1461.318, 270.683
1462.501, 200.021
1463.685, 243.412
1464.868, 294.754
1466.051, 116.304
1467.234, 301.928
1468.417, 103.626
1469.600, 208.401
1470.782, 140.255
1471.965, 164.013
1473.147, 73.602
1474.329, 105.807
1475.510, 225.024
1476.692, 143.058
1477.873, 127.166
1479.055, 123.351
1480.236, 64.613
1481.416, 229.957
1482.597, 39.386
1483.778, 195.903
1484.958, 125.518
1486.138, 111.235
1487.318, 15.942
1488.498, 9.970
1489.678, 93.029
1490.857, 77.199
1492.037, 82.505
1493.216, 225.935
1494.395, 155.487
1495.574, 133.161
1496.752, 181.964
1497.931, 75.246
1499.109, 176.805
1500.287, 93.575
1501.465, 151.573
1502.643, 135.820
1503.820, 16.340
1504.998, 68.949
1506.175, 151.763
1507.352, 23.116
1508.529, 108.351
1509.706, 109.190
1510.882, 120.368
1512.059, 84.882
1513.235, 269.929
1514.411, 121.236
1515.587, 14.138
