##NAMES=Metatorbernite
##RRUFFID=R040171
##IDEAL CHEMISTRY=Cu^2+^(U^6+^O_2_)_2_(PO_4_)_2_&#183;8H_2_O
##LOCALITY=La Luz de Cobre, Sonora, Mexico
##OWNER=RRUFF
##SOURCE=University of Arizona Mineral Museum
##DESCRIPTION=Green thin tabular crystals
##STATUS=The identification of this mineral has been confirmed by X-ray diffraction and chemical analysis
##URL=rruff.info/R040171
##MEASURED CHEMISTRY=(Cu_0.80_[box]_0.20_)_Σ=1_(U_1.00_O_2_)_2_(P_1.00_O_4_)_2_·8((H_2_O)_0.95_(H_3_O)^+^_0.05_)
##PIN_ID=S00039
##ORIENTATION=Laser parallel to -b* (0 -1 0). Fiducial mark perpendicular to laser is parallel to c [0 0 1]
137.857, 0.000
139.243, 50.308
140.630, 12.295
142.016, 23.107
143.401, 80.322
144.787, 104.079
146.172, 80.615
147.557, 61.095
148.942, 165.100
150.327, 125.104
151.711, 123.650
153.096, 215.870
154.480, 152.341
155.863, 121.845
157.247, 66.698
158.630, 53.520
160.013, 23.821
161.396, 54.632
162.779, 50.837
164.161, 34.749
165.544, 61.670
166.926, 15.543
168.308, 41.641
169.689, 33.249
171.070, 46.694
172.452, 9.169
173.833, 18.844
175.213, 84.640
176.594, 41.607
177.974, 114.046
179.354, 255.943
180.734, 232.277
182.114, 400.019
183.493, 495.142
184.872, 770.624
186.251, 1078.443
187.630, 1422.580
189.008, 1881.021
190.387, 2370.758
191.765, 2564.782
193.143, 2650.572
194.520, 2682.664
195.898, 2385.511
197.275, 1893.623
198.652, 1432.997
200.029, 925.628
201.405, 695.515
202.782, 466.654
204.158, 431.043
205.534, 435.681
206.909, 199.565
208.285, 303.696
209.660, 267.071
211.035, 360.691
212.410, 402.555
213.784, 537.660
215.159, 706.007
216.533, 887.593
217.907, 1002.418
219.281, 1225.479
220.654, 1296.740
222.027, 1551.090
223.400, 1577.523
224.773, 1476.042
226.146, 1302.642
227.518, 1186.319
228.891, 910.074
230.263, 853.910
231.634, 611.800
233.006, 471.761
234.377, 379.797
235.748, 338.900
237.119, 284.211
238.490, 342.376
239.860, 240.791
241.231, 238.328
242.601, 188.992
243.970, 301.785
245.340, 350.708
246.709, 313.763
248.079, 437.951
249.448, 419.273
250.816, 487.730
252.185, 609.323
253.553, 505.054
254.921, 561.921
256.289, 596.927
257.657, 604.071
259.024, 590.355
260.391, 689.779
261.758, 728.344
263.125, 825.050
264.492, 815.898
265.858, 895.437
267.224, 973.557
268.590, 1016.306
269.956, 1131.731
271.321, 1209.303
272.687, 1255.026
274.052, 1309.898
275.416, 1160.898
276.781, 1595.958
278.146, 1889.451
279.510, 2048.915
280.874, 1672.784
282.237, 1988.537
283.601, 2027.280
284.964, 2054.707
286.327, 2315.614
287.690, 2375.005
289.053, 2346.540
290.416, 2550.221
291.778, 2534.046
293.140, 2637.014
294.502, 2553.125
295.863, 2664.379
297.225, 2695.773
298.586, 2732.309
299.947, 2840.983
301.308, 2862.796
302.668, 2829.979
304.029, 2960.119
305.389, 3005.205
306.749, 2927.374
308.108, 3030.590
309.468, 3114.828
310.827, 3114.102
312.186, 3066.389
313.545, 3219.563
314.903, 3072.874
316.262, 3136.137
317.620, 3278.468
318.978, 3310.902
320.336, 3273.488
321.693, 3299.910
323.051, 3291.508
324.408, 3216.113
325.765, 3329.333
327.121, 3281.703
328.478, 3428.221
329.834, 3294.140
331.190, 3482.945
332.546, 3288.917
333.902, 3409.677
335.257, 3364.894
336.612, 3410.241
337.967, 3276.332
339.322, 3365.938
340.677, 3321.673
342.031, 3386.532
343.385, 3323.514
344.739, 3355.617
346.093, 3213.840
347.446, 3262.181
348.799, 3189.638
350.153, 3320.210
351.505, 3237.897
352.858, 3297.697
354.210, 3308.554
355.563, 3247.875
356.915, 3279.765
358.267, 3221.006
359.618, 3212.300
360.969, 3245.810
362.321, 3185.374
363.672, 3205.043
365.022, 3207.815
366.373, 3101.692
367.723, 3178.670
369.073, 3152.752
370.423, 3141.936
371.773, 3043.229
373.122, 3142.619
374.471, 3164.111
375.821, 3026.701
377.169, 3147.409
378.518, 3015.224
379.866, 3058.158
381.215, 3001.195
382.563, 3097.338
383.910, 3018.573
385.258, 2973.901
386.605, 3073.336
387.952, 3004.896
389.299, 3180.582
390.646, 3091.393
391.992, 3231.333
393.339, 3278.391
394.685, 3524.546
396.031, 3922.806
397.376, 4214.159
398.722, 4679.612
400.067, 4956.160
401.412, 4987.868
402.757, 5333.627
404.101, 5492.978
405.446, 5915.004
406.790, 6187.092
408.134, 5880.761
409.478, 5441.077
410.821, 4693.501
412.165, 3907.045
413.508, 3761.685
414.851, 3458.414
416.193, 3117.133
417.536, 3061.433
418.878, 2972.423
420.220, 2856.285
421.562, 2700.642
422.904, 2799.739
424.245, 2853.162
425.586, 2673.898
426.927, 2782.506
428.268, 2677.208
429.609, 2713.004
430.949, 2752.898
432.289, 3012.292
433.629, 2907.488
434.969, 3180.668
436.309, 3095.940
437.648, 3401.294
438.987, 3474.748
440.326, 3473.280
441.665, 3393.894
443.003, 3349.599
444.342, 3097.390
445.680, 2927.262
447.018, 2773.209
448.355, 2568.232
449.693, 2439.325
451.030, 2358.490
452.367, 2318.723
453.704, 2211.127
455.041, 2101.401
456.377, 2064.843
457.713, 2001.351
459.049, 1957.931
460.385, 1952.575
461.721, 2037.287
463.056, 1892.061
464.391, 1871.915
465.726, 1924.853
467.061, 1763.870
468.395, 1579.966
469.730, 1639.142
471.064, 1474.396
472.398, 1489.728
473.731, 1363.137
475.065, 1324.624
476.398, 1268.188
477.731, 1255.829
479.064, 1236.546
480.397, 1133.340
481.729, 1089.209
483.062, 1068.155
484.394, 1055.175
485.725, 1027.692
487.057, 936.465
488.389, 984.717
489.720, 901.040
491.051, 857.449
492.382, 848.927
493.712, 863.482
495.043, 781.111
496.373, 793.806
497.703, 715.568
499.032, 703.792
500.362, 766.291
501.691, 684.248
503.020, 686.269
504.349, 708.352
505.678, 740.496
507.007, 731.702
508.335, 678.968
509.663, 608.294
510.991, 508.501
512.319, 589.629
513.646, 626.907
514.973, 622.686
516.300, 452.452
517.627, 496.705
518.954, 455.078
520.280, 456.069
521.607, 400.474
522.933, 377.358
524.259, 318.307
525.584, 342.375
526.910, 350.415
528.235, 337.023
529.560, 366.372
530.885, 267.491
532.209, 268.763
533.534, 250.909
534.858, 288.239
536.182, 308.737
537.506, 242.838
538.829, 218.129
540.152, 213.645
541.476, 211.221
542.799, 130.057
544.121, 144.696
545.444, 148.951
546.766, 108.166
548.088, 183.380
549.410, 206.554
550.732, 95.352
552.053, 133.319
553.375, 56.512
554.696, 103.927
556.017, 92.238
557.337, 137.250
558.658, 104.694
559.978, 7.048
561.298, 65.471
562.618, 50.351
563.938, 6.506
565.257, 65.093
566.576, 47.551
567.895, 30.309
569.214, 35.385
570.533, 2.152
571.851, 8.241
573.170, 30.144
574.488, 70.097
575.805, 37.789
577.123, 72.179
578.440, 59.979
579.758, 15.784
581.075, 61.292
582.391, 3.722
583.708, 24.479
585.024, 4.626
586.341, 6.199
587.657, 23.729
588.972, 29.885
590.288, 36.989
591.603, 12.419
592.918, 8.511
594.233, 25.220
595.548, 103.335
596.863, 2.697
598.177, 100.765
599.491, 33.326
600.805, 40.049
602.119, 86.354
603.432, 124.449
604.746, 123.668
606.059, 131.404
607.372, 124.531
608.685, 114.130
609.997, 82.802
611.309, 94.065
612.621, 93.879
613.933, 224.973
615.245, 105.595
616.557, 107.195
617.868, 238.193
619.179, 139.596
620.490, 116.518
621.801, 223.908
623.111, 151.539
624.421, 287.628
625.731, 147.546
627.041, 194.623
628.351, 158.478
629.660, 175.188
630.970, 185.991
632.279, 161.647
633.588, 227.253
634.896, 104.928
636.205, 165.588
637.513, 82.243
638.821, 132.884
640.129, 113.507
641.437, 102.112
642.744, 49.698
644.051, 54.265
645.358, 41.052
646.665, 88.336
647.972, 68.840
649.278, 85.321
650.584, 163.780
651.890, 110.967
653.196, 114.918
654.502, 89.012
655.807, 52.373
657.113, 52.221
658.418, 39.299
659.722, 39.296
661.027, 52.549
662.331, 66.773
663.636, 102.969
664.940, 37.135
666.244, 97.271
667.547, 0.375
668.851, 62.447
670.154, 60.487
671.457, 6.494
672.760, 100.468
674.062, 20.408
675.365, 12.314
676.667, 14.186
677.969, 10.978
679.271, 26.815
680.572, 10.573
681.874, 7.293
683.175, 14.974
684.476, 4.384
685.777, 5.215
687.077, 31.229
688.378, 14.268
689.678, 7.276
690.978, 39.129
692.278, 73.506
693.577, 32.229
694.877, 80.021
696.176, 16.907
697.475, 30.856
698.774, 18.122
700.072, 29.053
701.371, 33.063
702.669, 109.258
703.967, 90.572
705.265, 103.195
706.562, 110.515
707.860, 62.818
709.157, 0.110
710.454, 1.071
711.751, 21.487
713.047, 11.460
714.344, 25.309
715.640, 19.787
716.936, 5.493
718.232, 20.125
719.527, 69.998
720.823, 31.317
722.118, 24.920
723.413, 62.140
724.708, 31.620
726.002, 8.566
727.297, 26.863
728.591, 55.933
729.885, 36.780
731.179, 7.657
732.472, 12.037
733.766, 31.582
735.059, 19.659
736.352, 28.606
737.645, 19.140
738.937, 25.357
740.230, 19.267
741.522, 15.312
742.814, 16.265
744.106, 6.647
745.397, 8.645
746.689, 13.854
747.980, 34.594
749.271, 20.059
750.562, 89.429
751.853, 10.727
753.143, 37.915
754.433, 80.021
755.723, 8.051
757.013, 36.977
758.303, 68.810
759.592, 99.568
760.881, 86.251
762.170, 153.857
763.459, 132.739
764.748, 130.733
766.036, 156.270
767.325, 87.604
768.613, 177.314
769.901, 144.622
771.188, 104.014
772.476, 195.883
773.763, 121.684
775.050, 213.912
776.337, 177.790
777.624, 173.914
778.910, 219.134
780.196, 249.034
781.482, 237.210
782.768, 263.698
784.054, 316.840
785.339, 382.197
786.625, 390.489
787.910, 458.042
789.195, 435.412
790.479, 463.509
791.764, 556.918
793.048, 568.441
794.332, 610.343
795.616, 723.179
796.900, 786.949
798.183, 930.654
799.467, 1020.294
800.750, 1092.869
802.033, 1150.377
803.316, 1363.821
804.598, 1409.200
805.880, 1592.665
807.163, 1779.436
808.445, 1970.943
809.726, 2195.061
811.008, 2473.113
812.289, 2722.100
813.570, 3122.021
814.851, 3646.878
816.132, 4168.671
817.413, 4792.396
818.693, 5869.060
819.973, 7368.658
821.253, 9857.190
822.533, 14384.568
823.813, 21332.971
825.092, 31237.311
826.371, 40747.570
827.650, 40619.785
828.929, 32356.941
830.208, 22031.020
831.486, 14715.041
832.764, 10505.425
834.042, 7895.319
835.320, 6509.140
836.598, 5543.827
837.875, 4530.531
839.152, 3699.655
840.429, 3090.025
841.706, 2401.611
842.983, 1845.030
844.259, 1513.562
845.536, 1118.895
846.812, 880.044
848.088, 726.575
849.363, 635.900
850.639, 540.983
851.914, 445.990
853.189, 344.718
854.464, 376.626
855.739, 378.899
857.013, 287.194
858.288, 289.472
859.562, 247.769
860.836, 189.423
862.110, 175.885
863.383, 148.099
864.656, 108.066
865.930, 103.183
867.203, 143.418
868.475, 91.271
869.748, 104.279
871.020, 128.995
872.292, 92.024
873.564, 43.353
874.836, 72.889
876.108, 20.636
877.379, 118.833
878.650, 82.786
879.922, 25.019
881.192, 7.889
882.463, 525.902
883.733, 517.032
885.004, 479.582
886.274, 901.802
887.544, 621.401
888.813, 604.973
890.083, 952.219
891.352, 794.911
892.621, 372.790
893.890, 441.251
895.159, 494.380
896.427, 513.439
897.695, 648.843
898.964, 668.248
900.232, 666.176
901.499, 647.714
902.767, 647.442
904.034, 573.733
905.301, 587.747
906.568, 497.024
907.835, 470.776
909.102, 396.333
910.368, 338.278
911.634, 298.469
912.900, 230.755
914.166, 193.354
915.432, 135.380
916.697, 54.898
917.962, 50.280
919.227, 58.060
920.492, 36.766
921.757, 2.078
923.021, 1.625
924.285, 29.367
925.550, 64.555
926.813, 14.796
928.077, 19.407
929.341, 125.124
930.604, 64.153
931.867, 110.695
933.130, 68.134
934.393, 35.212
935.655, 106.254
936.918, 167.358
938.180, 392.948
939.442, 52.485
940.703, 14.970
941.965, 20.511
943.226, 39.030
944.488, 4.613
945.749, 67.777
947.009, 43.148
948.270, 81.499
949.530, 125.832
950.791, 75.146
952.051, 115.443
953.311, 173.582
954.570, 254.984
955.830, 307.230
957.089, 330.461
958.348, 362.676
959.607, 354.876
960.866, 379.062
962.124, 519.234
963.383, 618.393
964.641, 701.539
965.899, 810.673
967.156, 846.795
968.414, 970.905
969.671, 1223.005
970.928, 1364.094
972.185, 1603.174
973.442, 1935.245
974.699, 2390.308
975.955, 2969.363
977.211, 3481.410
978.468, 4468.452
979.723, 5356.486
980.979, 6590.515
982.234, 8464.538
983.490, 10780.559
984.745, 14533.575
986.000, 19450.594
987.254, 24168.600
988.509, 28620.605
989.763, 30000.615
991.017, 29593.623
992.271, 27771.635
993.525, 27020.652
994.779, 27019.670
996.032, 27634.695
997.285, 27961.719
998.538, 25275.771
999.791, 21644.828
1001.044, 16766.922
1002.296, 13349.029
1003.548, 10693.150
1004.800, 9137.281
1006.052, 7898.416
1007.304, 6251.571
1008.555, 4842.770
1009.807, 3743.007
1011.058, 2872.288
1012.309, 2430.221
1013.559, 1943.102
1014.810, 1598.603
1016.060, 1333.067
1017.310, 1220.924
1018.560, 983.544
1019.810, 903.984
1021.060, 842.924
1022.309, 732.539
1023.558, 610.353
1024.807, 440.732
1026.056, 474.384
1027.305, 401.117
1028.553, 410.267
1029.801, 333.784
1031.049, 228.389
1032.297, 237.322
1033.545, 283.160
1034.793, 199.025
1036.040, 209.925
1037.287, 188.867
1038.534, 154.310
1039.781, 153.599
1041.027, 100.902
1042.274, 122.985
1043.520, 73.104
1044.766, 48.259
1046.012, 80.453
1047.257, 35.686
1048.503, 133.960
1049.748, 14.277
1050.993, 19.643
1052.238, 60.046
1053.483, 16.491
1054.727, 28.967
1055.971, 46.487
1057.216, 142.047
1058.459, 50.642
1059.703, 36.284
1060.947, 79.032
1062.190, 8.325
1063.433, 2.416
1064.676, 15.808
1065.919, 3.003
1067.162, 50.833
1068.404, 1.298
1069.646, 24.603
1070.888, 18.085
1072.130, 1.065
1073.372, 62.665
1074.613, 49.876
1075.855, 72.124
1077.096, 65.905
1078.337, 155.005
1079.578, 125.831
1080.818, 156.526
1082.059, 124.511
1083.299, 208.188
1084.539, 136.521
1085.779, 106.170
1087.018, 268.577
1088.258, 115.021
1089.497, 296.176
1090.736, 207.485
1091.975, 253.040
1093.213, 245.256
1094.452, 294.331
1095.690, 420.001
1096.928, 350.711
1098.166, 471.460
1099.404, 508.248
1100.642, 420.076
1101.879, 464.944
1103.116, 509.853
1104.353, 604.806
1105.590, 550.802
1106.827, 638.839
1108.063, 574.918
1109.299, 766.039
1110.536, 609.201
1111.771, 717.406
1113.007, 755.652
1114.243, 783.945
1115.478, 756.281
1116.713, 807.660
1117.948, 919.106
1119.183, 815.613
1120.418, 1043.165
1121.652, 1369.793
1122.886, 1830.467
1124.120, 1867.202
1125.354, 1430.986
1126.588, 1324.816
1127.821, 1060.696
1129.055, 1153.626
1130.288, 1080.605
1131.521, 1113.642
1132.753, 1110.725
1133.986, 1158.859
1135.218, 1189.532
1136.450, 1218.276
1137.682, 1271.562
1138.914, 1240.898
1140.146, 1272.287
1141.377, 1351.723
1142.609, 1371.208
1143.840, 1345.741
1145.071, 1429.322
1146.301, 1432.954
1147.532, 1445.633
1148.762, 1406.362
1149.992, 1396.140
1151.222, 1425.968
1152.452, 1570.845
1153.682, 1418.771
1154.911, 1508.749
1156.140, 1440.774
1157.369, 1540.852
1158.598, 1528.979
1159.827, 1506.155
1161.055, 1482.384
1162.284, 1587.665
1163.512, 1575.000
1164.740, 1490.394
1165.967, 1432.845
1167.195, 1633.351
1168.422, 1560.917
1169.650, 1591.540
1170.877, 1509.218
1172.103, 1436.954
1173.330, 1556.756
1174.557, 1653.617
1175.783, 1538.547
1177.009, 1519.529
1178.235, 1586.569
1179.461, 1611.672
1180.686, 1560.843
1181.912, 1627.063
1183.137, 1572.334
1184.362, 1573.654
1185.587, 1549.023
1186.811, 1595.442
1188.036, 1517.911
1189.260, 1555.429
1190.484, 1606.998
1191.708, 1573.349
1192.932, 1600.788
1194.155, 1533.997
1195.378, 1612.761
1196.602, 1511.576
1197.825, 1545.439
1199.047, 1594.352
1200.270, 1505.316
1201.492, 1557.330
1202.715, 1449.399
1203.937, 1636.518
1205.159, 1436.685
1206.380, 1614.900
1207.602, 1458.165
1208.823, 1573.079
1210.044, 1576.373
1211.265, 1518.825
1212.486, 1533.152
1213.707, 1573.633
1214.927, 1463.192
1216.147, 1555.776
1217.367, 1622.431
1218.587, 1550.326
1219.807, 1483.904
1221.027, 1515.734
1222.246, 1420.626
1223.465, 1473.587
1224.684, 1488.599
1225.903, 1402.035
1227.121, 1378.304
1228.340, 1424.524
1229.558, 1465.826
1230.776, 1390.192
1231.994, 1405.605
1233.212, 1330.094
1234.429, 1260.796
1235.646, 1370.396
1236.864, 1267.039
1238.081, 1327.777
1239.297, 1373.518
1240.514, 1315.316
1241.730, 1371.434
1242.947, 1289.328
1244.163, 1242.274
1245.378, 1219.263
1246.594, 1250.299
1247.810, 1188.381
1249.025, 1236.511
1250.240, 1191.679
1251.455, 1181.147
1252.670, 1162.419
1253.885, 1130.801
1255.099, 1106.097
1256.313, 1085.507
1257.527, 1081.963
1258.741, 1073.464
1259.955, 950.438
1261.168, 1011.031
1262.382, 1047.673
1263.595, 918.784
1264.808, 968.418
1266.021, 957.407
1267.233, 910.576
1268.446, 997.447
1269.658, 809.376
1270.870, 921.045
1272.082, 918.054
1273.294, 829.356
1274.505, 835.043
1275.716, 803.951
1276.928, 757.406
1278.139, 779.859
1279.349, 732.857
1280.560, 789.187
1281.770, 647.305
1282.981, 704.223
1284.191, 673.076
1285.401, 646.463
1286.610, 688.088
1287.820, 641.689
1289.029, 643.142
1290.239, 575.029
1291.448, 607.767
1292.656, 593.550
1293.865, 556.378
1295.073, 503.252
1296.282, 526.170
1297.490, 506.133
1298.698, 501.141
1299.906, 374.304
1301.113, 425.402
1302.320, 367.545
1303.528, 381.722
1304.735, 355.942
1305.942, 406.207
1307.148, 380.845
1308.355, 362.871
1309.561, 383.266
1310.767, 291.708
1311.973, 336.192
1313.179, 279.720
1314.384, 283.294
1315.590, 291.902
1316.795, 363.552
1318.000, 207.246
1319.205, 324.986
1320.410, 281.764
1321.614, 113.587
1322.819, 266.354
1324.023, 218.078
1325.227, 283.797
1326.431, 284.547
1327.634, 211.312
1328.838, 207.077
1330.041, 215.866
1331.244, 181.668
1332.447, 116.492
1333.650, 100.415
1334.852, 148.292
1336.055, 108.203
1337.257, 155.146
1338.459, 128.119
1339.661, 92.124
1340.862, 147.157
1342.064, 100.219
1343.265, 72.309
1344.466, 85.195
1345.667, 8.338
1346.868, 17.140
1348.068, 112.251
1349.269, 85.466
1350.469, 111.701
1351.669, 350.957
1352.869, 165.515
1354.069, 269.554
1355.268, 4.918
1356.468, 62.456
1357.667, 123.351
1358.866, 72.783
1360.065, 88.244
1361.263, 47.734
1362.462, 25.227
1363.660, 111.146
1364.858, 13.790
1366.056, 62.296
1367.254, 35.825
1368.451, 133.495
1369.649, 52.980
1370.846, 8.686
1372.043, 142.051
1373.240, 1.543
1374.436, 107.015
1375.633, 257.543
1376.829, 37.993
1378.025, 10.589
1379.221, 1.193
1380.417, 42.396
1381.613, 2.956
1382.808, 19.753
1384.003, 19.795
1385.199, 12.983
1386.393, 33.235
1387.588, 1.172
1388.783, 28.167
1389.977, 179.221
1391.171, 63.985
1392.365, 81.417
1393.559, 30.300
1394.753, 8.109
1395.946, 40.066
1397.140, 55.253
1398.333, 34.482
1399.526, 51.552
1400.719, 19.033
1401.911, 50.361
1403.104, 9.282
1404.296, 13.112
1405.488, 7.548
1406.680, 113.967
1407.872, 82.436
1409.063, 0.143
1410.255, 145.233
1411.446, 11.436
1412.637, 79.852
1413.828, 9.094
1415.018, 22.707
1416.209, 19.449
1417.399, 3.562
1418.589, 6.795
1419.779, 37.667
1420.969, 9.342
1422.159, 2.609
1423.348, 45.480
1424.537, 22.387
1425.726, 5.791
1426.915, 10.013
1428.104, 0.719
1429.293, 25.473
1430.481, 42.954
1431.669, 54.359
1432.857, 38.812
1434.045, 46.299
1435.233, 70.188
1436.420, 60.370
1437.608, 128.838
1438.795, 110.981
1439.982, 140.238
1441.169, 128.975
1442.355, 43.760
1443.542, 145.587
1444.728, 162.464
1445.914, 78.821
1447.100, 95.541
1448.286, 121.533
1449.472, 85.591
1450.657, 284.339
1451.842, 232.432
1453.027, 213.676
1454.212, 260.413
1455.397, 220.820
1456.581, 215.173
1457.766, 220.435
1458.950, 187.366
1460.134, 218.907
1461.318, 139.509
1462.501, 224.151
1463.685, 234.857
1464.868, 118.166
1466.051, 211.085
1467.234, 91.486
1468.417, 135.313
1469.600, 128.958
1470.782, 101.021
1471.965, 99.686
1473.147, 139.793
1474.329, 127.202
1475.510, 32.234
1476.692, 105.056
1477.873, 100.799
1479.055, 91.451
1480.236, 178.000
1481.416, 47.433
1482.597, 148.329
1483.778, 128.503
1484.958, 84.561
1486.138, 10.433
1487.318, 159.097
1488.498, 5.468
1489.678, 164.722
1490.857, 90.659
1492.037, 89.248
1493.216, 112.952
1494.395, 39.929
1495.574, 154.141
1496.752, 23.799
1497.931, 76.756
1499.109, 13.385
1500.287, 252.450
1501.465, 145.618
1502.643, 227.555
1503.820, 81.342
1504.998, 5.365
1506.175, 17.171
1507.352, 90.059
1508.529, 57.857
1509.706, 19.017
1510.882, 48.816
1512.059, 47.811
1513.235, 36.144
1514.411, 60.817
1515.587, 34.304
1516.762, 1.820
1517.938, 7.463
1519.113, 28.788
1520.288, 0.000
##END=



