##NAMES=Metatorbernite
##RRUFFID=R040171
##IDEAL CHEMISTRY=Cu^2+^(U^6+^O_2_)_2_(PO_4_)_2_&#183;8H_2_O
##LOCALITY=La Luz de Cobre, Sonora, Mexico
##OWNER=RRUFF
##SOURCE=University of Arizona Mineral Museum
##DESCRIPTION=Green thin tabular crystals
##STATUS=The identification of this mineral has been confirmed by X-ray diffraction and chemical analysis
##URL=rruff.info/R040171
##MEASURED CHEMISTRY=(Cu_0.80_[box]_0.20_)_Σ=1_(U_1.00_O_2_)_2_(P_1.00_O_4_)_2_·8((H_2_O)_0.95_(H_3_O)^+^_0.05_)
##PIN_ID=S00039
##ORIENTATION=Laser parallel to -b* (0 -1 0). Fiducial mark perpendicular to laser is parallel to c [0 0 1]
140.630, 0.000
142.016, 28.999
143.401, 129.270
144.787, 168.982
146.172, 182.974
147.557, 213.866
148.942, 195.694
150.327, 181.136
151.711, 154.453
153.096, 114.997
154.480, 27.508
155.863, 117.102
157.247, 44.408
158.630, 50.036
160.013, 12.031
161.396, 8.808
162.779, 19.691
164.161, 19.452
165.544, 4.509
166.926, 1.840
168.308, 9.591
169.689, 7.830
171.070, 62.114
172.452, 81.234
173.833, 142.526
175.213, 236.983
176.594, 187.600
177.974, 304.373
179.354, 433.299
180.734, 540.374
182.114, 801.596
183.493, 1100.958
184.872, 1434.453
186.251, 2056.072
187.630, 2789.806
189.008, 3836.653
190.387, 4973.480
191.765, 5999.068
193.143, 7025.756
194.520, 7247.931
195.898, 6592.197
197.275, 5140.552
198.652, 3622.998
200.029, 2470.531
201.405, 1702.150
202.782, 1251.854
204.158, 985.643
205.534, 759.516
206.909, 547.471
208.285, 473.508
209.660, 408.625
211.035, 342.824
212.410, 325.103
213.784, 296.462
215.159, 322.901
216.533, 307.420
217.907, 307.019
219.281, 318.697
220.654, 297.453
222.027, 401.286
223.400, 379.191
224.773, 363.147
226.146, 339.146
227.518, 273.180
228.891, 244.241
230.263, 186.318
231.634, 126.411
233.006, 82.512
234.377, 50.603
235.748, 18.337
237.119, 1.316
238.490, 17.989
239.860, 12.793
241.231, 16.558
242.601, 4.957
243.970, 19.968
245.340, 1.388
246.709, 9.787
248.079, 12.228
249.448, 31.712
250.816, 96.241
252.185, 106.813
253.553, 136.431
254.921, 134.093
256.289, 92.802
257.657, 116.555
259.024, 105.355
260.391, 90.202
261.758, 83.095
263.125, 142.036
264.492, 189.022
265.858, 192.056
267.224, 255.137
268.590, 184.265
269.956, 295.440
271.321, 334.662
272.687, 299.929
274.052, 375.240
275.416, 414.675
276.781, 516.998
278.146, 558.448
279.510, 690.945
280.874, 798.489
282.237, 855.090
283.601, 858.748
284.964, 894.458
286.327, 989.219
287.690, 997.030
289.053, 896.896
290.416, 1021.807
291.778, 921.765
293.140, 970.771
294.502, 831.822
295.863, 903.919
297.225, 873.059
298.586, 854.244
299.947, 869.474
301.308, 869.746
302.668, 910.061
304.029, 983.419
305.389, 966.327
306.749, 926.176
308.108, 946.940
309.468, 898.607
310.827, 871.175
312.186, 879.602
313.545, 849.098
314.903, 845.015
316.262, 817.383
317.620, 830.544
318.978, 793.928
320.336, 788.130
321.693, 764.148
323.051, 736.337
324.408, 675.736
325.765, 813.600
327.121, 679.890
328.478, 783.288
329.834, 732.154
331.190, 834.603
332.546, 709.594
333.902, 776.889
335.257, 818.635
336.612, 860.247
337.967, 887.255
339.322, 1020.129
340.677, 766.044
342.031, 761.999
343.385, 731.994
344.739, 777.032
346.093, 742.108
347.446, 734.223
348.799, 719.390
350.153, 743.594
351.505, 745.847
352.858, 765.135
354.210, 763.315
355.563, 778.822
356.915, 759.214
358.267, 766.642
359.618, 771.114
360.969, 815.620
362.321, 776.160
363.672, 813.747
365.022, 793.723
366.373, 839.043
367.723, 839.550
369.073, 839.479
370.423, 846.250
371.773, 863.052
373.122, 846.891
374.471, 857.256
375.821, 815.690
377.169, 857.643
378.518, 810.632
379.866, 804.651
381.215, 883.699
382.563, 896.792
383.910, 860.912
385.258, 881.062
386.605, 950.254
387.952, 818.485
389.299, 914.748
390.646, 882.038
391.992, 968.355
393.339, 1022.709
394.685, 1062.095
396.031, 1136.513
397.376, 1285.959
398.722, 1399.441
400.067, 1490.954
401.412, 1506.332
402.757, 1697.805
404.101, 1636.258
405.446, 1709.856
406.790, 1765.327
408.134, 1872.012
409.478, 1798.738
410.821, 1421.492
412.165, 1220.272
413.508, 1194.086
414.851, 1078.928
416.193, 1071.826
417.536, 1031.729
418.878, 1033.669
420.220, 1094.606
421.562, 1099.609
422.904, 1019.536
424.245, 986.594
425.586, 903.677
426.927, 986.885
428.268, 929.014
429.609, 949.167
430.949, 990.377
432.289, 1007.435
433.629, 1042.029
434.969, 1122.296
436.309, 1150.598
437.648, 1238.925
438.987, 1307.280
440.326, 1292.049
441.665, 1251.449
443.003, 1282.879
444.342, 1126.438
445.680, 1139.909
447.018, 1125.507
448.355, 999.021
449.693, 1004.555
451.030, 908.110
452.367, 918.688
453.704, 772.285
455.041, 856.094
456.377, 801.729
457.713, 803.383
459.049, 771.054
460.385, 752.174
461.721, 780.449
463.056, 733.173
464.391, 765.914
465.726, 785.671
467.061, 691.448
468.395, 603.244
469.730, 683.061
471.064, 596.898
472.398, 661.816
473.731, 518.695
475.065, 539.596
476.398, 466.518
477.731, 527.463
479.064, 404.431
480.397, 463.424
481.729, 479.439
483.062, 420.478
484.394, 383.539
485.725, 383.091
487.057, 350.209
488.389, 350.350
489.720, 358.511
491.051, 354.696
492.382, 371.902
493.712, 358.929
495.043, 280.382
496.373, 346.652
497.703, 293.941
499.032, 302.249
500.362, 322.576
501.691, 327.921
503.020, 326.689
504.349, 325.398
505.678, 308.665
507.007, 292.081
508.335, 268.979
509.663, 223.430
510.991, 262.551
512.319, 268.034
513.646, 249.129
514.973, 183.645
516.300, 242.176
517.627, 226.780
518.954, 158.589
520.280, 195.166
521.607, 221.756
522.933, 223.325
524.259, 169.353
525.584, 145.524
526.910, 225.552
528.235, 175.777
529.560, 209.038
530.885, 200.147
532.209, 191.292
533.534, 145.996
534.858, 193.797
536.182, 116.755
537.506, 121.893
538.829, 156.647
540.152, 103.413
541.476, 169.819
542.799, 99.605
544.121, 114.401
545.444, 105.722
546.766, 116.823
548.088, 87.657
549.410, 105.490
550.732, 129.331
552.053, 105.269
553.375, 128.865
554.696, 175.131
556.017, 164.114
557.337, 203.712
558.658, 187.477
559.978, 135.007
561.298, 148.953
562.618, 134.883
563.938, 111.017
565.257, 216.849
566.576, 35.970
567.895, 13.750
569.214, 119.070
570.533, 137.094
571.851, 14.590
573.170, 15.635
574.488, 1.902
575.805, 20.734
577.123, 7.243
578.440, 43.789
579.758, 2.397
581.075, 40.852
582.391, 54.932
583.708, 44.898
585.024, 46.141
586.341, 49.811
587.657, 18.765
588.972, 3.280
590.288, 36.248
591.603, 22.011
592.918, 39.226
594.233, 52.187
595.548, 56.926
596.863, 71.846
598.177, 20.243
599.491, 58.830
600.805, 13.550
602.119, 7.415
603.432, 45.796
604.746, 7.037
606.059, 44.293
607.372, 33.251
608.685, 91.344
609.997, 49.386
611.309, 3.311
612.621, 10.450
613.933, 67.481
615.245, 46.396
616.557, 39.309
617.868, 35.219
619.179, 37.147
620.490, 42.051
621.801, 93.969
623.111, 68.866
624.421, 106.759
625.731, 41.649
627.041, 127.546
628.351, 72.438
629.660, 2.664
630.970, 144.228
632.279, 49.124
633.588, 73.031
634.896, 30.934
636.205, 18.840
637.513, 27.741
638.821, 87.639
640.129, 60.543
641.437, 75.448
642.744, 13.653
644.051, 20.235
645.358, 27.117
646.665, 53.991
647.972, 58.838
649.278, 64.105
650.584, 58.579
651.890, 65.427
653.196, 52.268
654.502, 50.100
655.807, 52.180
657.113, 11.740
658.418, 45.547
659.722, 15.345
661.027, 10.865
662.331, 4.909
663.636, 34.673
664.940, 54.572
666.244, 54.143
667.547, 40.152
668.851, 11.520
670.154, 21.818
671.457, 11.818
672.760, 48.444
674.062, 6.060
675.365, 29.336
676.667, 42.236
677.969, 21.798
679.271, 38.652
680.572, 29.139
681.874, 1.341
683.175, 4.804
684.476, 2.251
685.777, 2.562
687.077, 25.183
688.378, 5.417
689.678, 29.136
690.978, 2.797
692.278, 4.481
693.577, 6.573
694.877, 71.078
696.176, 38.332
697.475, 40.428
698.774, 68.768
700.072, 101.951
701.371, 36.880
702.669, 16.755
703.967, 4.337
705.265, 80.405
706.562, 56.460
707.860, 11.500
709.157, 12.508
710.454, 0.496
711.751, 37.455
713.047, 3.600
714.344, 4.314
715.640, 5.203
716.936, 49.065
718.232, 55.913
719.527, 36.745
720.823, 14.561
722.118, 40.353
723.413, 17.873
724.708, 32.862
726.002, 52.578
727.297, 4.278
728.591, 13.949
729.885, 5.980
731.179, 26.188
732.472, 10.217
733.766, 18.339
735.059, 5.097
736.352, 24.399
737.645, 22.977
738.937, 74.429
740.230, 80.026
741.522, 85.829
742.814, 80.591
744.106, 81.989
745.397, 18.333
746.689, 5.122
747.980, 5.207
749.271, 16.411
750.562, 27.317
751.853, 14.537
753.143, 32.731
754.433, 61.512
755.723, 4.668
757.013, 66.792
758.303, 52.793
759.592, 55.883
760.881, 46.850
762.170, 79.913
763.459, 62.963
764.748, 22.004
766.036, 132.021
767.325, 54.022
768.613, 85.814
769.901, 142.781
771.188, 101.732
772.476, 151.666
773.763, 85.583
775.050, 128.485
776.337, 87.540
777.624, 102.409
778.910, 164.262
780.196, 188.396
781.482, 263.639
782.768, 358.448
784.054, 550.448
785.339, 732.161
786.625, 831.877
787.910, 866.491
789.195, 788.686
790.479, 652.042
791.764, 587.731
793.048, 643.097
794.332, 781.544
795.616, 821.631
796.900, 845.249
798.183, 887.485
799.467, 1096.104
800.750, 1103.668
802.033, 1271.218
803.316, 1662.510
804.598, 1519.777
805.880, 1759.515
807.163, 1456.991
808.445, 1666.450
809.726, 1719.890
811.008, 2082.313
812.289, 2352.718
813.570, 2722.105
814.851, 3189.476
816.132, 3660.229
817.413, 4464.563
818.693, 5601.882
819.973, 7221.717
821.253, 10098.999
822.533, 15006.612
823.813, 22544.861
825.092, 33130.492
826.371, 43385.711
827.650, 43716.902
828.929, 35001.035
830.208, 24042.945
831.486, 15739.095
832.764, 11054.225
834.042, 8066.374
835.320, 6430.063
836.598, 5253.607
837.875, 4293.291
839.152, 3506.774
840.429, 3042.221
841.706, 2398.233
842.983, 1981.069
844.259, 1578.362
845.536, 1261.253
846.812, 1026.985
848.088, 932.532
849.363, 762.458
850.639, 636.371
851.914, 541.637
853.189, 497.520
854.464, 466.388
855.739, 470.726
857.013, 404.247
858.288, 343.095
859.562, 303.907
860.836, 261.705
862.110, 210.400
863.383, 260.432
864.656, 180.790
865.930, 189.424
867.203, 209.437
868.475, 177.889
869.748, 161.347
871.020, 109.995
872.292, 127.654
873.564, 110.102
874.836, 113.845
876.108, 61.295
877.379, 66.038
878.650, 159.315
879.922, 66.840
881.192, 134.886
882.463, 168.377
883.733, 159.442
885.004, 182.327
886.274, 177.979
887.544, 192.128
888.813, 171.176
890.083, 242.910
891.352, 255.013
892.621, 332.513
893.890, 378.008
895.159, 478.359
896.427, 538.679
897.695, 577.150
898.964, 627.468
900.232, 645.705
901.499, 665.862
902.767, 671.288
904.034, 657.595
905.301, 599.742
906.568, 575.490
907.835, 574.329
909.102, 444.947
910.368, 393.567
911.634, 395.674
912.900, 317.816
914.166, 304.654
915.432, 321.468
916.697, 213.860
917.962, 233.497
919.227, 188.831
920.492, 220.366
921.757, 133.672
923.021, 152.983
924.285, 174.288
925.550, 48.584
926.813, 117.879
928.077, 22.612
929.341, 41.865
930.604, 81.131
931.867, 16.390
933.130, 22.360
934.393, 34.057
935.655, 18.728
936.918, 57.460
938.180, 15.297
939.442, 46.139
940.703, 42.980
941.965, 18.907
943.226, 57.181
944.488, 3.263
945.749, 30.668
947.009, 9.628
948.270, 30.392
949.530, 18.407
950.791, 21.417
952.051, 42.422
953.311, 23.423
954.570, 0.583
955.830, 113.401
957.089, 91.379
958.348, 49.353
959.607, 145.322
960.866, 79.288
962.124, 140.249
963.383, 119.206
964.641, 217.160
965.899, 239.109
967.156, 225.055
968.414, 250.000
969.671, 321.943
970.928, 392.883
972.185, 513.834
973.442, 529.783
974.699, 720.741
975.955, 813.696
977.211, 1068.655
978.468, 1327.613
979.723, 1603.568
980.979, 1908.521
982.234, 2671.483
983.490, 3823.443
984.745, 4567.401
986.000, 5995.371
987.254, 7441.349
988.509, 8861.329
989.763, 9287.312
991.017, 9176.295
992.271, 8736.280
993.525, 8489.262
994.779, 8463.252
996.032, 8847.250
997.285, 8861.257
998.538, 8003.265
999.791, 6911.282
1001.044, 5423.300
1002.296, 4396.315
1003.548, 3487.347
1004.800, 2833.380
1006.052, 2539.413
1007.304, 2032.461
1008.555, 1505.520
1009.807, 1160.585
1011.058, 924.650
1012.309, 745.717
1013.559, 593.793
1014.810, 506.875
1016.060, 410.964
1017.310, 388.056
1018.560, 309.156
1019.810, 254.264
1021.060, 231.380
1022.309, 193.497
1023.558, 221.618
1024.807, 189.740
1026.056, 176.870
1027.305, 96.002
1028.553, 149.149
1029.801, 146.301
1031.049, 35.456
1032.297, 81.621
1033.545, 64.794
1034.793, 105.976
1036.040, 91.165
1037.287, 32.367
1038.534, 35.578
1039.781, 33.802
1041.027, 11.967
1042.274, 20.267
1043.520, 50.505
1044.766, 22.253
1046.012, 22.016
1047.257, 30.218
1048.503, 35.456
1049.748, 20.702
1050.993, 39.963
1052.238, 19.238
1053.483, 19.468
1054.727, 45.827
1055.971, 24.132
1057.216, 17.555
1058.459, 41.758
1059.703, 11.916
1060.947, 10.412
1062.190, 35.747
1063.433, 63.913
1064.676, 16.590
1065.919, 52.266
1067.162, 14.956
1068.404, 3.429
1069.646, 18.316
1070.888, 63.008
1072.130, 7.339
1073.372, 52.675
1074.613, 39.018
1075.855, 1.634
1077.096, 17.279
1078.337, 33.909
1079.578, 20.272
1080.818, 43.641
1082.059, 72.720
1083.299, 36.320
1084.539, 18.058
1085.779, 89.236
1087.018, 4.371
1088.258, 14.071
1089.497, 37.604
1090.736, 71.020
1091.975, 72.937
1093.213, 34.752
1094.452, 85.496
1095.690, 36.150
1096.928, 41.156
1098.166, 88.621
1099.404, 140.998
1100.642, 128.828
1101.879, 156.937
1103.116, 110.436
1104.353, 97.186
1105.590, 65.713
1106.827, 121.250
1108.063, 81.797
1109.299, 128.354
1110.536, 119.919
1111.771, 177.499
1113.007, 235.087
1114.243, 152.687
1115.478, 147.305
1116.713, 182.933
1117.948, 222.571
1119.183, 143.219
1120.418, 283.878
1121.652, 518.547
1122.886, 840.227
1124.120, 751.917
1125.354, 540.617
1126.588, 390.329
1127.821, 291.050
1129.055, 281.784
1130.288, 314.527
1131.521, 268.283
1132.753, 236.048
1133.986, 255.825
1135.218, 358.613
1136.450, 165.412
1137.682, 344.222
1138.914, 285.042
1140.146, 288.876
1141.377, 370.726
1142.609, 253.585
1143.840, 340.460
1145.071, 325.346
1146.301, 350.243
1147.532, 358.153
1148.762, 359.218
1149.992, 318.004
1151.222, 354.949
1152.452, 360.904
1153.682, 327.871
1154.911, 341.850
1156.140, 440.840
1157.369, 373.843
1158.598, 371.857
1159.827, 471.883
1161.055, 448.921
1162.284, 440.971
1163.512, 434.032
1164.740, 462.105
1165.967, 394.190
1167.195, 493.288
1168.422, 464.397
1169.650, 450.518
1170.877, 491.651
1172.103, 395.796
1173.330, 460.953
1174.557, 496.123
1175.783, 529.305
1177.009, 393.499
1178.235, 449.705
1179.461, 514.922
1180.686, 449.152
1181.912, 543.395
1183.137, 530.649
1184.362, 534.917
1185.587, 512.195
1186.811, 497.487
1188.036, 507.791
1189.260, 544.701
1190.484, 536.037
1191.708, 562.385
1192.932, 563.003
1194.155, 537.421
1195.378, 553.808
1196.602, 532.207
1197.825, 506.620
1199.047, 599.045
1200.270, 567.482
1201.492, 631.262
1202.715, 591.724
1203.937, 594.198
1205.159, 585.121
1206.380, 555.228
1207.602, 570.206
1208.823, 518.328
1210.044, 578.863
1211.265, 589.540
1212.486, 583.613
1213.707, 526.976
1214.927, 594.146
1216.147, 562.739
1217.367, 598.817
1218.587, 571.433
1219.807, 560.062
1221.027, 571.435
1222.246, 569.354
1223.465, 556.992
1224.684, 575.217
1225.903, 534.910
1227.121, 532.614
1228.340, 578.330
1229.558, 584.060
1230.776, 552.618
1231.994, 602.384
1233.212, 585.173
1234.429, 574.915
1235.646, 596.738
1236.864, 595.591
1238.081, 548.458
1239.297, 591.346
1240.514, 599.247
1241.730, 551.165
1242.947, 562.108
1244.163, 535.071
1245.378, 567.048
1246.594, 541.061
1247.810, 436.102
1249.025, 511.119
1250.240, 499.210
1251.455, 493.872
1252.670, 551.933
1253.885, 480.007
1255.099, 461.094
1256.313, 460.196
1257.527, 486.083
1258.741, 438.210
1259.955, 407.353
1261.168, 474.514
1262.382, 503.684
1263.595, 508.866
1264.808, 429.062
1266.021, 477.271
1267.233, 474.496
1268.446, 488.733
1269.658, 479.269
1270.870, 453.550
1272.082, 419.548
1273.294, 399.841
1274.505, 332.290
1275.716, 332.611
1276.928, 392.946
1278.139, 458.294
1279.349, 256.657
1280.560, 350.034
1281.770, 329.424
1282.981, 361.829
1284.191, 300.248
1285.401, 307.941
1286.610, 177.377
1287.820, 308.840
1289.029, 200.993
1290.239, 352.484
1291.448, 316.990
1292.656, 170.511
1293.865, 257.047
1295.073, 191.598
1296.282, 187.164
1297.490, 221.746
1298.698, 247.342
1299.906, 220.954
1301.113, 241.581
1302.320, 206.223
1303.528, 179.860
1304.735, 108.512
1305.942, 165.179
1307.148, 161.852
1308.355, 148.513
1309.561, 207.188
1310.767, 136.878
1311.973, 224.583
1313.179, 170.302
1314.384, 218.036
1315.590, 184.782
1316.795, 143.542
1318.000, 99.317
1319.205, 89.938
1320.410, 100.907
1321.614, 86.702
1322.819, 104.498
1324.023, 137.306
1325.227, 133.488
1326.431, 174.961
1327.634, 123.808
1328.838, 143.667
1330.041, 77.539
1331.244, 89.540
1332.447, 128.322
1333.650, 71.017
1334.852, 118.946
1336.055, 56.889
1337.257, 101.846
1338.459, 37.821
1339.661, 86.905
1340.862, 53.918
1342.064, 88.063
1343.265, 78.113
1344.466, 95.074
1345.667, 35.041
1346.868, 147.014
1348.068, 75.976
1349.269, 47.911
1350.469, 142.845
1351.669, 103.768
1352.869, 60.750
1354.069, 113.621
1355.268, 36.380
1356.468, 109.188
1357.667, 145.029
1358.866, 25.897
1360.065, 69.785
1361.263, 10.695
1362.462, 141.631
1363.660, 31.588
1364.858, 29.573
1366.056, 20.584
1367.254, 42.618
1368.451, 75.673
1369.649, 0.749
1370.846, 32.845
1372.043, 82.961
1373.240, 57.098
1374.436, 104.254
1375.633, 88.371
1376.829, 31.593
1378.025, 59.789
1379.221, 62.999
1380.417, 44.208
1381.613, 15.437
1382.808, 80.684
1384.003, 10.950
1385.199, 82.237
1386.393, 80.542
1387.588, 58.864
1388.783, 30.205
1389.977, 4.435
1391.171, 3.945
1392.365, 18.334
1393.559, 4.269
1394.753, 42.857
1395.946, 16.573
1397.140, 6.021
1398.333, 2.485
1399.526, 61.968
1400.719, 23.533
1401.911, 19.985
1403.104, 14.521
1404.296, 46.924
1405.488, 27.649
1406.680, 31.240
1407.872, 18.849
1409.063, 53.476
1410.255, 10.122
1411.446, 47.787
1412.637, 33.613
1413.828, 140.174
1415.018, 0.104
1416.209, 52.609
1417.399, 3.660
1418.589, 71.089
1419.779, 17.853
1420.969, 62.633
1422.159, 33.434
1423.348, 74.255
1424.537, 53.322
1425.726, 45.969
1426.915, 17.868
1428.104, 3.202
1429.293, 17.240
1430.481, 69.752
1431.669, 10.225
1432.857, 44.829
1434.045, 52.907
1435.233, 32.174
1436.420, 68.165
1437.608, 12.340
1438.795, 81.547
1439.982, 46.788
1441.169, 67.061
1442.355, 147.367
1443.542, 150.547
1444.728, 104.918
1445.914, 109.614
1447.100, 85.943
1448.286, 147.303
1449.472, 76.360
1450.657, 149.496
1451.842, 71.724
1453.027, 121.972
1454.212, 218.240
1455.397, 123.527
1456.581, 126.764
1457.766, 117.566
1458.950, 79.893
1460.134, 89.237
1461.318, 88.597
1462.501, 68.881
1463.685, 100.928
1464.868, 148.063
1466.051, 204.114
1467.234, 199.761
1468.417, 113.107
1469.600, 185.030
1470.782, 96.895
1471.965, 69.922
1473.147, 73.946
1474.329, 134.321
1475.510, 18.328
1476.692, 80.998
1477.873, 23.330
1479.055, 111.615
1480.236, 118.102
1481.416, 19.032
1482.597, 139.066
1483.778, 21.254
1484.958, 65.628
1486.138, 57.125
1487.318, 156.573
1488.498, 124.409
1489.678, 46.884
1490.857, 70.602
1492.037, 89.562
1493.216, 40.266
1494.395, 0.185
1495.574, 0.000
##END=



