##NAMES=Metatorbernite
##RRUFFID=R070686
##IDEAL CHEMISTRY=Cu^2+^(U^6+^O_2_)_2_(PO_4_)_2_&#183;8H_2_O
##LOCALITY=Fichtelgebirge, Franconia, Bavaria, Germany
##OWNER=RRUFF
##SOURCE=Michael Scott
##DESCRIPTION=Green tabular crystals
##STATUS=The identification of this mineral has been confirmed by X-ray diffraction.
##URL=rruff.info/R070686
##PIN_ID=M00978
##ORIENTATION=Laser parallel to -a* (-1 0 0). Fiducial mark perpendicular to laser is parallel to c [0 0 1]
170.7050, 0.0000000E+00
171.9380, 3.083984
173.1700, 10.59668
174.4030, 52.31738
175.6350, 140.1797
176.8680, 235.3760
178.1000, 276.7275
179.3310, 165.6689
180.5630, 430.1357
181.7940, 447.3301
183.0260, 720.7227
184.2570, 922.1328
185.4870, 959.8193
186.7180, 1027.402
187.9480, 1231.795
189.1790, 1458.887
190.4090, 1770.346
191.6390, 1658.053
192.8680, 1774.855
194.0980, 1983.664
195.3270, 1988.059
196.5560, 1791.633
197.7850, 1662.234
199.0140, 1441.115
200.2420, 1573.715
201.4710, 1093.988
202.6990, 823.8965
203.9270, 1006.404
205.1550, 511.3945
206.3820, 548.1523
207.6090, 629.1582
208.8370, 596.1660
210.0640, 544.0898
211.2900, 311.0332
212.5170, 294.7383
213.7440, 243.8125
214.9700, 388.2383
216.1960, 185.9980
217.4220, 154.0762
218.6470, 150.4648
219.8730, 28.84766
221.0980, 35.87500
222.3230, 74.37891
223.5480, 79.90039
224.7730, 41.31445
225.9970, 54.72656
227.2220, 26.01562
228.4460, 67.54492
229.6700, 45.31250
230.8940, 205.3105
232.1170, 61.53711
233.3400, 219.9844
234.5640, 109.6484
235.7870, 89.52734
237.0100, 221.6152
238.2320, 16.08984
239.4550, 51.59180
240.6770, 56.10547
241.8990, 32.99023
243.1210, 25.11133
244.3420, 165.3594
245.5640, 18.41992
246.7850, 26.81836
248.0060, 178.0938
249.2270, 256.4238
250.4480, 186.8242
251.6690, 22.69922
252.8890, 321.8633
254.1090, 33.51953
255.3290, 100.2676
256.5490, 6.119141
257.7680, 233.0703
258.9880, 91.12891
260.2070, 118.2949
261.4260, 151.5645
262.6450, 159.9434
263.8640, 184.4355
265.0820, 226.0352
266.3000, 207.7461
267.5180, 397.5645
268.7360, 358.4922
269.9540, 240.5234
271.1720, 391.6621
272.3890, 461.9062
273.6060, 420.2578
274.8230, 497.9414
276.0400, 492.2910
277.2560, 538.9688
278.4730, 424.7461
279.6890, 478.6250
280.9050, 447.6055
282.1210, 639.6855
283.3370, 644.8711
284.5520, 561.1562
285.7670, 721.5469
286.9820, 649.0410
288.1970, 711.6367
289.4120, 587.3301
290.6270, 732.1270
291.8410, 560.0234
293.0550, 634.0195
294.2690, 653.1270
295.4830, 768.3477
296.6970, 562.6660
297.9100, 742.0762
299.1230, 670.5781
300.3360, 529.1738
301.5490, 633.8594
302.7620, 751.6426
303.9740, 721.5215
305.1860, 687.5059
306.3990, 691.5918
307.6110, 646.7949
308.8220, 741.1230
310.0340, 726.6445
311.2450, 721.3047
312.4560, 732.9062
313.6670, 587.9316
314.8780, 691.9062
316.0890, 629.9766
317.2990, 589.0859
318.5090, 723.9570
319.7200, 755.7539
320.9290, 689.9570
322.1390, 585.5137
323.3490, 804.3730
324.5580, 861.5352
325.7670, 690.9414
326.9760, 764.6172
328.1850, 542.4980
329.3930, 628.5723
330.6020, 552.8281
331.8100, 712.2539
333.0180, 715.8340
334.2260, 856.5664
335.4340, 851.0820
336.6410, 717.5156
337.8480, 869.6953
339.0550, 728.0020
340.2620, 799.4375
341.4690, 519.9805
342.6760, 585.6270
343.8820, 747.3711
345.0880, 626.2246
346.2940, 717.1797
347.5000, 828.2344
348.7060, 731.3906
349.9110, 558.6387
351.1160, 610.9648
352.3210, 525.3770
353.5260, 633.8770
354.7310, 474.4609
355.9360, 668.1250
357.1400, 549.8711
358.3440, 562.6992
359.5480, 653.6074
360.7520, 718.5938
361.9550, 726.6602
363.1590, 886.7988
364.3620, 749.0117
365.5650, 724.0117
366.7680, 506.9961
367.9710, 708.4219
369.1730, 811.9160
370.3760, 716.0293
371.5780, 622.6543
372.7800, 654.3477
373.9810, 714.1094
375.1830, 626.9355
376.3840, 672.8223
377.5860, 526.7695
378.7870, 665.7773
379.9880, 735.8438
381.1880, 696.9668
382.3890, 674.1484
383.5890, 617.2656
384.7890, 663.9824
385.9890, 666.3301
387.1890, 656.4238
388.3880, 647.8770
389.5880, 634.6016
390.7870, 622.7969
391.9860, 622.4023
393.1850, 680.0586
394.3840, 728.7793
395.5820, 824.5527
396.7800, 899.2500
397.9790, 743.1719
399.1770, 881.1445
400.3740, 776.6016
401.5720, 891.6777
402.7690, 864.7988
403.9670, 886.9707
405.1640, 963.2031
406.3600, 637.4805
407.5570, 828.8145
408.7540, 726.2090
409.9500, 810.6582
411.1460, 840.5449
412.3420, 746.0859
413.5380, 729.6699
414.7330, 661.2988
415.9290, 649.8008
417.1240, 620.5176
418.3190, 637.6289
419.5140, 672.4316
420.7090, 634.2754
421.9030, 653.1641
423.0970, 586.0918
424.2920, 548.9375
425.4860, 564.5996
426.6790, 459.1562
427.8730, 545.2676
429.0660, 564.4141
430.2600, 477.5977
431.4530, 704.4629
432.6460, 746.3965
433.8380, 669.7129
435.0310, 699.0625
436.2230, 743.4473
437.4150, 651.1582
438.6070, 590.7168
439.7990, 762.2285
440.9910, 679.1641
442.1820, 724.7461
443.3730, 646.3789
444.5640, 659.0801
445.7550, 620.0918
446.9460, 620.8516
448.1370, 785.4453
449.3270, 719.7480
450.5170, 746.6543
451.7070, 455.5156
452.8970, 615.4180
454.0870, 452.3574
455.2760, 394.8535
456.4650, 319.8652
457.6550, 654.0312
458.8430, 527.1523
460.0320, 479.1523
461.2210, 467.2949
462.4090, 361.4980
463.5970, 536.7715
464.7850, 361.3828
465.9730, 448.7578
467.1610, 441.1328
468.3480, 401.5879
469.5360, 405.8242
470.7230, 458.3691
471.9100, 480.9512
473.0970, 358.6895
474.2830, 412.3320
475.4700, 393.0078
476.6560, 462.7148
477.8420, 440.2656
479.0280, 304.9434
480.2140, 316.2051
481.3990, 308.0312
482.5850, 278.1250
483.7700, 319.7539
484.9550, 325.6816
486.1400, 257.6094
487.3240, 357.6504
488.5090, 306.7207
489.6930, 255.7227
490.8770, 133.7461
492.0610, 312.7910
493.2450, 209.8555
494.4290, 204.9414
495.6120, 257.0469
496.7950, 273.1934
497.9780, 288.1660
499.1610, 230.4961
500.3440, 271.6992
501.5260, 302.6602
502.7090, 191.9199
503.8910, 205.5488
505.0730, 309.7852
506.2550, 106.1289
507.4360, 384.3926
508.6180, 204.7500
509.7990, 70.04102
510.9800, 168.3438
512.1610, 114.7988
513.3420, 161.2969
514.5230, 145.9004
515.7030, 43.81250
516.8830, 176.1738
518.0630, 132.5352
519.2430, 148.9082
520.4230, 193.1680
521.6020, 189.6738
522.7820, 200.0684
523.9610, 234.6523
525.1400, 173.1328
526.3190, 9.773438
527.4970, 155.3164
528.6760, 267.7461
529.8540, 150.1816
531.0320, 30.62109
532.2100, 58.06836
533.3880, 122.5723
534.5660, 109.0254
535.7430, 134.1719
536.9200, 153.8887
538.0970, 61.10938
539.2740, 46.42773
540.4510, 24.89453
541.6270, 14.25391
542.8040, 75.50781
543.9800, 203.2656
545.1560, 152.0488
546.3320, 217.5137
547.5080, 41.18750
548.6830, 103.6895
549.8580, 65.19922
551.0340, 195.4102
552.2090, 9.376953
553.3830, 134.2910
554.5580, 140.9785
555.7320, 222.7930
556.9070, 68.66797
558.0810, 21.72852
559.2550, 5.589844
560.4280, 259.9375
561.6020, 14.42383
562.7750, 240.5352
563.9490, 291.4238
565.1220, 22.70312
566.2950, 228.4297
567.4670, 141.1699
568.6400, 15.43945
569.8120, 122.7715
570.9840, 123.2676
572.1560, 8.113281
573.3280, 7.822266
574.5000, 136.0586
575.6710, 63.57812
576.8430, 62.83203
578.0140, 61.36523
579.1850, 12.28125
580.3560, 256.8691
581.5260, 60.73633
582.6970, 110.4922
583.8670, 51.34180
585.0370, 31.30859
586.2070, 128.0879
587.3770, 119.9668
588.5460, 23.23633
589.7160, 36.07422
590.8850, 6.302734
592.0540, 142.5352
593.2230, 82.64258
594.3920, 93.41797
595.5600, 9.583984
596.7290, 62.41406
597.8970, 22.30859
599.0650, 28.77148
600.2330, 164.3477
601.4000, 264.8105
602.5680, 237.4941
603.7350, 131.9609
604.9020, 23.82422
606.0690, 43.18945
607.2360, 91.80664
608.4030, 81.91992
609.5690, 148.8203
610.7360, 140.8359
611.9020, 51.44336
613.0680, 9.458984
614.2340, 214.6836
615.3990, 178.1289
616.5650, 78.47266
617.7300, 92.63867
618.8950, 144.1641
620.0600, 9.927734
621.2250, 121.4570
622.3890, 3.318359
623.5540, 295.4922
624.7180, 62.30273
625.8820, 149.8750
627.0460, 59.99219
628.2100, 62.11523
629.3730, 313.3066
630.5370, 237.9160
631.7000, 362.6270
632.8630, 227.4375
634.0260, 147.8477
635.1890, 203.6426
636.3510, 103.9102
637.5140, 120.0449
638.6760, 173.2598
639.8380, 115.4590
641.0000, 55.17383
642.1610, 118.5527
643.3230, 72.62500
644.4840, 138.6543
645.6450, 120.6484
646.8060, 189.6230
647.9670, 131.5664
649.1280, 189.4707
650.2880, 169.4688
651.4490, 128.8691
652.6090, 124.9961
653.7690, 106.7988
654.9290, 51.59180
656.0880, 177.3340
657.2480, 217.0430
658.4070, 296.7480
659.5660, 272.4121
660.7250, 257.4980
661.8840, 285.8438
663.0430, 158.2109
664.2010, 187.7344
665.3600, 155.2559
666.5180, 184.2461
667.6760, 216.5098
668.8330, 275.7793
669.9910, 272.2363
671.1480, 258.6641
672.3060, 219.0547
673.4630, 326.4277
674.6200, 45.79102
675.7770, 182.0820
676.9330, 91.66602
678.0900, 119.4785
679.2460, 266.5703
680.4020, 165.6406
681.5580, 189.2207
682.7140, 193.2266
683.8690, 191.1777
685.0250, 49.09375
686.1800, 222.9375
687.3350, 81.74219
688.4900, 51.47852
689.6450, 96.14062
690.7990, 150.7617
691.9540, 236.9316
693.1080, 234.4434
694.2620, 205.9043
695.4160, 274.3301
696.5700, 375.8750
697.7230, 234.2070
698.8770, 137.1309
700.0300, 283.3516
701.1830, 169.5195
702.3360, 195.6309
703.4890, 104.6875
704.6410, 132.4141
705.7930, 88.59961
706.9460, 164.4492
708.0980, 326.2441
709.2500, 287.9844
710.4010, 258.6699
711.5530, 20.65625
712.7040, 204.5352
713.8560, 278.0137
715.0070, 340.4375
716.1580, 32.80664
717.3080, 94.81055
718.4590, 247.9375
719.6090, 158.0840
720.7590, 320.7793
721.9090, 73.80859
723.0590, 376.7461
724.2090, 302.5938
725.3590, 17.56055
726.5080, 305.1465
727.6570, 261.3750
728.8060, 101.4785
729.9550, 155.9531
731.1040, 49.43359
732.2530, 4.912109
733.4010, 46.67773
734.5490, 145.7578
735.6970, 117.2324
736.8450, 223.1914
737.9930, 266.6641
739.1400, 105.5859
740.2880, 42.71875
741.4350, 2.5390999E-02
742.5820, 37.18359
743.7290, 158.1777
744.8760, 195.7539
746.0220, 224.3066
747.1690, 18.59180
748.3150, 200.2305
749.4610, 207.1973
750.6070, 427.9199
751.7530, 285.6465
752.8980, 227.7891
754.0440, 245.8730
755.1890, 354.9219
756.3340, 148.2344
757.4790, 351.1426
758.6240, 92.53320
759.7680, 304.3184
760.9130, 217.0605
762.0570, 133.8184
763.2010, 407.4082
764.3450, 211.1562
765.4890, 202.5684
766.6320, 187.9141
767.7760, 311.4961
768.9190, 279.8184
770.0620, 249.0820
771.2050, 337.2871
772.3480, 238.4395
773.4900, 513.6152
774.6330, 174.4473
775.7750, 507.2051
776.9170, 439.2070
778.0590, 222.1738
779.2010, 298.3125
780.3420, 402.8379
781.4840, 379.6152
782.6250, 780.7832
783.7660, 533.5625
784.9070, 941.2734
786.0480, 910.3477
787.1890, 904.1934
788.3290, 963.3301
789.4690, 1098.518
790.6100, 1256.793
791.7490, 1458.951
792.8890, 1543.250
794.0290, 1524.195
795.1680, 1692.176
796.3080, 1937.295
797.4470, 1908.768
798.5860, 2186.131
799.7250, 2370.037
800.8630, 2217.184
802.0020, 2062.354
803.1400, 2176.252
804.2780, 2279.084
805.4160, 2561.221
806.5540, 2643.697
807.6920, 2866.945
808.8300, 3004.768
809.9670, 3318.807
811.1040, 3672.246
812.2410, 3998.215
813.3780, 4712.168
814.5150, 5092.225
815.6510, 5951.666
816.7880, 6786.434
817.9240, 8289.391
819.0600, 9658.215
820.1960, 11513.76
821.3320, 13267.94
822.4670, 14352.79
823.6030, 15396.46
824.7380, 16171.03
825.8730, 16693.51
827.0080, 16156.85
828.1430, 15190.51
829.2770, 13238.65
830.4120, 10769.72
831.5460, 8675.129
832.6800, 6990.215
833.8140, 5647.721
834.9480, 4756.631
836.0810, 3946.521
837.2150, 3592.385
838.3480, 2753.551
839.4810, 2721.875
840.6140, 2547.744
841.7470, 2403.094
842.8800, 2094.365
844.0120, 1784.037
845.1450, 1604.578
846.2770, 1440.658
847.4090, 1378.004
848.5410, 1262.377
849.6720, 1133.082
850.8040, 1094.084
851.9350, 977.5645
853.0660, 860.8516
854.1970, 780.4941
855.3280, 792.1270
856.4590, 672.8789
857.5900, 661.7109
858.7200, 617.5332
859.8500, 451.4004
860.9800, 335.0020
862.1100, 449.8750
863.2400, 317.4746
864.3700, 519.8379
865.4990, 418.5078
866.6280, 578.0332
867.7570, 380.2168
868.8860, 156.4922
870.0150, 266.5977
871.1440, 312.7949
872.2720, 405.4688
873.4010, 266.2598
874.5290, 195.1660
875.6570, 153.6719
876.7850, 262.5684
877.9120, 269.6055
879.0400, 217.1699
880.1670, 392.1504
881.2940, 393.4121
882.4210, 182.8477
883.5480, 366.6680
884.6750, 202.9668
885.8020, 245.2344
886.9280, 200.0137
888.0540, 369.4961
889.1800, 369.6816
890.3060, 346.8848
891.4320, 334.4668
892.5580, 454.0215
893.6830, 395.5371
894.8080, 474.1992
895.9330, 438.4531
897.0580, 321.3027
898.1830, 415.4336
899.3080, 290.7246
900.4320, 458.3887
901.5570, 523.9648
902.6810, 283.3926
903.8050, 520.3203
904.9290, 359.0625
906.0520, 410.6250
907.1760, 491.5098
908.2990, 126.8711
909.4230, 38.72656
910.5460, 156.6211
911.6690, 122.8809
912.7910, 307.9902
913.9140, 124.0312
915.0360, 151.3359
916.1590, 215.8633
917.2810, 204.3438
918.4030, 3.548828
919.5240, 109.8984
920.6460, 163.1953
921.7680, 237.3828
922.8890, 16.58008
924.0100, 33.69922
925.1310, 25.10547
926.2520, 58.15039
927.3730, 154.6914
928.4930, 67.49023
929.6130, 60.77148
930.7340, 133.8535
931.8540, 183.4297
932.9740, 3.042969
934.0930, 100.4062
935.2130, 168.8027
936.3320, 85.84766
937.4520, 85.62109
938.5710, 116.5137
939.6900, 146.4531
940.8090, 9.625000
941.9270, 7.218750
943.0460, 67.98828
944.1640, 48.29102
945.2820, 55.67188
946.4000, 155.9883
947.5180, 76.00000
948.6360, 64.55859
949.7530, 197.8223
950.8710, 19.83398
951.9880, 151.4336
953.1050, 61.34375
954.2220, 285.7832
955.3390, 9.478516
956.4550, 196.5078
957.5720, 16.51172
958.6880, 338.4590
959.8040, 294.3789
960.9200, 26.72266
962.0360, 342.6484
963.1520, 366.4453
964.2670, 309.0918
965.3820, 11.17969
966.4980, 458.4863
967.6130, 26.11719
968.7280, 164.7031
969.8420, 239.2539
970.9570, 328.7773
972.0710, 357.2695
973.1850, 455.7285
974.3000, 533.5820
975.4140, 533.5664
976.5270, 673.9492
977.6410, 652.3125
978.7540, 629.6465
979.8680, 835.9531
980.9810, 958.2285
982.0940, 1108.984
983.2070, 1266.715
984.3200, 1482.926
985.4320, 1741.111
986.5440, 1925.266
987.6570, 2110.414
988.7690, 2148.547
989.8810, 1866.654
990.9920, 2232.738
992.1040, 2116.793
993.2160, 2297.838
994.3270, 1942.855
995.4380, 1976.512
996.5490, 1900.510
997.6600, 1636.102
998.7710, 1526.051
999.8810, 1430.984
1000.991, 1302.898
1002.102, 1113.719
1003.212, 836.3105
1004.322, 881.6836
1005.431, 632.2363
1006.541, 722.0957
1007.651, 557.4336
1008.760, 608.3848
1009.869, 385.9609
1010.978, 570.2695
1012.087, 359.6289
1013.195, 418.7793
1014.304, 425.5547
1015.412, 533.3145
1016.521, 150.2246
1017.629, 106.9648
1018.737, 260.0312
1019.844, 402.2617
1020.952, 150.2930
1022.059, 242.9609
1023.167, 120.6133
1024.274, 187.2305
1025.381, 401.7852
1026.488, 175.3945
1027.594, 314.9863
1028.701, 317.5684
1029.807, 228.1367
1030.913, 106.6074
1032.019, 87.15039
1033.125, 169.4863
1034.231, 187.0039
1035.337, 109.5117
1036.442, 73.80273
1037.548, 167.2852
1038.653, 263.7559
1039.758, 68.21289
1040.863, 149.3398
1041.967, 201.9863
1043.072, 143.5625
1044.176, 18.83008
1045.280, 110.5352
1046.384, 155.6797
1047.488, 298.9160
1048.592, 302.4180
1049.696, 378.2109
1050.799, 28.96680
1051.903, 265.0469
1053.006, 17.15430
1054.109, 182.2422
1055.212, 118.5742
1056.314, 206.0352
1057.417, 6.751953
1058.519, 200.2754
1059.621, 204.2656
1060.724, 253.7539
1061.826, 341.0977
1062.927, 266.0391
1064.029, 322.4062
1065.130, 198.0469
1066.232, 105.7422
1067.333, 195.8398
1068.434, 182.4570
1069.535, 317.0977
1070.636, 57.80078
1071.736, 329.6211
1072.837, 96.19531
1073.937, 172.8438
1075.037, 122.5859
1076.137, 169.4648
1077.237, 261.8633
1078.337, 12.13281
1079.436, 128.4062
1080.535, 240.7031
1081.635, 7.144531
1082.734, 142.0625
1083.833, 99.45703
1084.931, 221.2266
1086.030, 115.1562
1087.128, 40.67188
1088.227, 204.7852
1089.325, 28.83203
1090.423, 171.8008
1091.521, 178.0117
1092.618, 276.2305
1093.716, 39.15234
1094.813, 236.0898
1095.911, 122.6562
1097.008, 179.5859
1098.105, 58.31641
1099.202, 260.5898
1100.298, 198.5195
1101.395, 250.7148
1102.491, 230.0352
1103.587, 163.3672
1104.683, 191.7188
1105.779, 287.0898
1106.875, 290.4727
1107.971, 179.8750
1109.066, 344.2969
1110.161, 112.7383
1111.256, 315.1953
1112.351, 196.6719
1113.446, 331.1680
1114.541, 203.6836
1115.636, 309.2148
1116.730, 359.7734
1117.824, 309.3477
1118.918, 308.9414
1120.012, 223.5586
1121.106, 207.1953
1122.200, 294.8555
1123.293, 270.5391
1124.387, 190.2383
1125.480, 192.9648
1126.573, 71.71094
1127.666, 206.4805
1128.759, 311.2773
1129.851, 477.0977
1130.944, 288.9453
1132.036, 307.8125
1133.128, 319.7070
1134.220, 144.6289
1135.312, 413.5742
1136.404, 201.5508
1137.495, 392.5547
1138.587, 422.5820
1139.678, 215.6328
1140.769, 359.7148
1141.860, 244.8320
1142.951, 451.9727
1144.041, 443.1445
1145.132, 477.3438
1146.222, 197.5703
1147.313, 208.8242
1148.403, 478.1094
1149.493, 358.4336
1150.582, 479.7852
1151.672, 273.1680
1152.761, 427.5820
1153.851, 523.0234
1154.940, 350.4922
1156.029, 430.9922
1157.118, 623.5234
1158.207, 531.0820
1159.295, 460.6680
1160.384, 394.2891
1161.472, 237.9336
1162.560, 574.6133
1163.648, 523.3203
1164.736, 477.0625
1165.824, 31.83203
1166.911, 302.6328
1167.999, 98.46484
1169.086, 511.3320
1170.173, 246.2344
1171.260, 335.1602
1172.347, 261.1836
1173.434, 437.1797
1174.520, 453.2227
1175.606, 410.7812
1176.693, 345.4688
1177.779, 397.6250
1178.865, 353.8438
1179.951, 239.1016
1181.036, 257.4023
1182.122, 180.0000
1183.207, 381.4297
1184.292, 190.9062
1185.377, 219.4727
1186.462, 647.0195
1187.547, 484.6211
1188.632, 463.1289
1189.716, 394.8398
1190.800, 479.6289
1191.885, 561.4492
1192.969, 233.3203
1194.052, 368.2578
1195.136, 407.2617
1196.220, 530.3203
1197.303, 644.4375
1198.387, 512.5938
1199.470, 515.7969
1200.553, 374.0664
1201.636, 211.4219
1202.718, 592.8594
1203.801, 338.3633
1204.883, 636.9258
1205.966, 428.5469
1207.048, 438.2188
1208.130, 366.9531
1209.211, 548.6484
1210.293, 326.9961
1211.375, 430.9258
1212.456, 378.9258
1213.537, 446.9648
1214.618, 500.0664
1215.699, 490.2305
1216.780, 320.4766
1217.861, 387.2070
1218.941, 355.3789
1220.022, 388.0898
1221.102, 425.5977
1222.182, 278.1484
1223.262, 363.7344
1224.342, 501.8438
1225.422, 467.5312
1226.501, 681.3750
1227.580, 539.1406
1228.660, 379.9766
1229.739, 823.8477
1230.818, 414.7695
1231.896, 378.7266
1232.975, 318.7305
1234.054, 360.7734
1235.132, 423.8555
1236.210, 374.5625
1237.288, 527.2109
1238.366, 426.4492
1239.444, 309.7266
1240.521, 520.0508
1241.599, 39.41016
1242.676, 534.8125
1243.753, 326.2578
1244.830, 719.7383
1245.907, 433.2617
1246.984, 593.8203
1248.061, 305.4297
1249.137, 225.0742
1250.214, 353.7695
1251.290, 453.5078
1252.366, 250.3047
1253.442, 339.1445
1254.517, 460.0234
1255.593, 567.9414
1256.668, 601.5195
1257.744, 610.9023
1258.819, 699.5859
1259.894, 331.6680
1260.969, 433.7852
1262.044, 288.9453
1263.118, 423.1445
1264.193, 326.3828
1265.267, 434.6602
1266.341, 538.9727
1267.415, 461.3281
1268.489, 711.7227
1269.563, 371.1602
1270.636, 326.6289
1271.710, 359.1406
1272.783, 448.6875
1273.856, 421.2734
1274.929, 408.8984
1276.002, 568.5625
1277.075, 599.2578
1278.147, 398.9688
1279.220, 365.7461
1280.292, 510.5586
1281.364, 303.4102
1282.436, 377.3008
1283.508, 287.2188
1284.580, 281.1797
1285.652, 285.3984
1286.723, 134.1953
1287.794, 268.2617
1288.865, 306.3594
1289.936, 296.4922
1291.007, 141.6602
1292.078, 251.8633
1293.149, 62.09766
1294.219, 88.09766
1295.289, 197.6758
1296.360, 94.00781
1297.430, 366.1133
1298.499, 436.5156
1299.569, 345.9492
1300.639, 341.4141
1301.708, 286.6367
1302.778, 229.5078
1303.847, 212.1016
1304.916, 233.7344
1305.985, 353.4180
1307.053, 146.0742
1308.122, 56.07812
1309.190, 244.5078
1310.259, 340.7734
1311.327, 192.9492
1312.395, 208.1523
1313.463, 497.0586
1314.531, 476.0273
1315.598, 411.0273
1316.666, 416.0547
1317.733, 382.1094
1318.800, 380.1914
1319.867, 235.2969
1320.934, 336.4297
1322.001, 280.5938
1323.067, 29.25781
1324.134, 202.9922
1325.200, 439.2227
1326.266, 225.8164
1327.333, 501.0977
1328.398, 289.4023
1329.464, 236.7383
1330.530, 392.1094
1331.595, 171.5859
1332.661, 167.0195
1333.726, 254.3281
1334.791, 334.8242
1335.856, 322.3555
1336.921, 356.6250
1337.985, 313.4883
1339.050, 307.5000
1340.114, 220.8828
1341.178, 232.5820
1342.242, 254.3047
1343.306, 180.8047
1344.370, 237.5977
