##NAMES=Metatorbernite
##RRUFFID=R070686
##IDEAL CHEMISTRY=Cu^2+^(U^6+^O_2_)_2_(PO_4_)_2_&#183;8H_2_O
##LOCALITY=Fichtelgebirge, Franconia, Bavaria, Germany
##OWNER=RRUFF
##SOURCE=Michael Scott
##DESCRIPTION=Green tabular crystals
##STATUS=The identification of this mineral has been confirmed by X-ray diffraction.
##URL=rruff.info/R070686
##PIN_ID=M01699
##ORIENTATION=Laser parallel to c* (0 0 1). Fiducial mark perpendicular to laser is parallel to b [0 1 0]
153.4230, 0.0000000E+00
154.6590, 190.3633
155.8940, 107.2061
157.1300, 231.1680
158.3650, 77.25781
159.6000, 17.43652
160.8340, 80.62695
162.0690, 177.6602
163.3030, 116.7930
164.5370, 140.0801
165.7710, 92.24414
167.0050, 75.39258
168.2380, 134.8262
169.4720, 94.89648
170.7050, 53.32227
171.9380, 112.2871
173.1700, 37.39648
174.4030, 1.494141
175.6350, 175.1074
176.8680, 295.8203
178.1000, 569.2715
179.3310, 653.1406
180.5630, 910.1504
181.7940, 1225.061
183.0260, 1523.660
184.2570, 2158.756
185.4870, 2633.184
186.7180, 3142.795
187.9480, 3693.451
189.1790, 4046.035
190.4090, 4503.434
191.6390, 5096.461
192.8680, 5434.902
194.0980, 5506.582
195.3270, 5370.359
196.5560, 4843.129
197.7850, 4456.795
199.0140, 3863.285
200.2420, 3133.535
201.4710, 2602.490
202.6990, 2171.100
203.9270, 2056.324
205.1550, 1628.121
206.3820, 1771.455
207.6090, 1962.293
208.8370, 1929.609
210.0640, 2189.371
211.2900, 2108.555
212.5170, 2272.133
213.7440, 2550.086
214.9700, 2705.389
216.1960, 3012.021
217.4220, 3029.967
218.6470, 3291.205
219.8730, 3476.713
221.0980, 3982.479
222.3230, 3664.486
223.5480, 3928.719
224.7730, 4082.178
225.9970, 3778.844
227.2220, 3732.449
228.4460, 3705.182
229.6700, 3612.076
230.8940, 3534.215
232.1170, 3329.572
233.3400, 3314.342
234.5640, 3295.482
235.7870, 3159.043
237.0100, 3389.127
238.2320, 3306.766
239.4550, 3349.990
240.6770, 3454.830
241.8990, 3527.303
243.1210, 3674.424
244.3420, 3732.990
245.5640, 3692.666
246.7850, 3833.809
248.0060, 3851.936
249.2270, 3983.158
250.4480, 3983.379
251.6690, 4153.299
252.8890, 4253.924
254.1090, 4398.254
255.3290, 4416.287
256.5490, 4451.025
257.7680, 4793.469
258.9880, 4891.615
260.2070, 4859.463
261.4260, 4937.010
262.6450, 5014.254
263.8640, 5140.191
265.0820, 5259.816
266.3000, 5469.131
267.5180, 5636.129
268.7360, 5799.809
269.9540, 6047.166
271.1720, 5995.195
272.3890, 6128.902
273.6060, 6350.273
274.8230, 6540.312
276.0400, 6921.014
277.2560, 7024.371
278.4730, 7018.387
279.6890, 7042.055
280.9050, 7563.367
282.1210, 7599.328
283.3370, 8023.926
284.5520, 8064.164
285.7670, 8373.043
286.9820, 8557.562
288.1970, 8325.709
289.4120, 8542.484
290.6270, 8737.926
291.8410, 9055.043
293.0550, 8789.840
294.2690, 9179.359
295.4830, 9037.580
296.6970, 9288.531
297.9100, 9260.262
299.1230, 9360.752
300.3360, 9421.705
301.5490, 9536.027
302.7620, 9542.641
303.9740, 9679.375
305.1860, 9543.402
306.3990, 9893.061
307.6110, 9924.988
308.8220, 9708.133
310.0340, 9688.523
311.2450, 9970.068
312.4560, 9809.734
313.6670, 10082.34
314.8780, 10125.78
316.0890, 10147.78
317.2990, 10206.81
318.5090, 10328.45
319.7200, 10236.49
320.9290, 10264.37
322.1390, 10102.59
323.3490, 10163.64
324.5580, 10148.47
325.7670, 10128.21
326.9760, 10482.43
328.1850, 10275.48
329.3930, 10265.26
330.6020, 10585.70
331.8100, 10258.82
333.0180, 10175.56
334.2260, 10505.93
335.4340, 10361.93
336.6410, 10374.52
337.8480, 10414.70
339.0550, 10616.44
340.2620, 10413.74
341.4690, 10222.59
342.6760, 10505.99
343.8820, 10139.93
345.0880, 10423.39
346.2940, 10418.37
347.5000, 10524.88
348.7060, 10443.89
349.9110, 10416.41
351.1160, 10247.42
352.3210, 10135.91
353.5260, 10228.89
354.7310, 10311.35
355.9360, 10136.27
357.1400, 10025.65
358.3440, 10038.50
359.5480, 10126.80
360.7520, 10054.56
361.9550, 10063.76
363.1590, 10172.40
364.3620, 9918.473
365.5650, 9972.965
366.7680, 9929.881
367.9710, 9939.227
369.1730, 9902.973
370.3760, 9744.125
371.5780, 9960.672
372.7800, 9803.617
373.9810, 9706.953
375.1830, 9762.688
376.3840, 9591.818
377.5860, 9798.338
378.7870, 9634.254
379.9880, 9466.562
381.1880, 9505.275
382.3890, 9278.383
383.5890, 9383.879
384.7890, 9510.773
385.9890, 9635.047
387.1890, 9309.699
388.3880, 9306.734
389.5880, 9393.156
390.7870, 9222.953
391.9860, 9434.121
393.1850, 9782.660
394.3840, 9898.568
395.5820, 10159.84
396.7800, 10536.49
397.9790, 10608.50
399.1770, 10978.89
400.3740, 11217.58
401.5720, 11576.67
402.7690, 11879.11
403.9670, 12193.89
405.1640, 12416.04
406.3600, 12581.52
407.5570, 12310.35
408.7540, 12095.52
409.9500, 11781.02
411.1460, 11074.87
412.3420, 10510.22
413.5380, 9872.750
414.7330, 9262.598
415.9290, 8773.094
417.1240, 8424.652
418.3190, 8098.494
419.5140, 8082.660
420.7090, 7996.146
421.9030, 8013.693
423.0970, 7575.809
424.2920, 7863.346
425.4860, 7588.527
426.6790, 7740.855
427.8730, 7586.320
429.0660, 7626.488
430.2600, 7647.615
431.4530, 7742.713
432.6460, 7722.852
433.8380, 7613.660
435.0310, 7722.547
436.2230, 7792.195
437.4150, 7781.436
438.6070, 7920.000
439.7990, 8037.715
440.9910, 7864.340
442.1820, 7779.160
443.3730, 7590.816
444.5640, 7401.492
445.7550, 7103.301
446.9460, 6665.934
448.1370, 6750.180
449.3270, 6150.570
450.5170, 6154.492
451.7070, 5960.383
452.8970, 5708.377
454.0870, 5727.098
455.2760, 5485.777
456.4650, 5381.145
457.6550, 5442.838
458.8430, 5118.098
460.0320, 5194.504
461.2210, 5062.184
462.4090, 4763.734
463.5970, 4895.928
464.7850, 4701.111
465.9730, 4663.635
467.1610, 4546.436
468.3480, 4589.816
469.5360, 4276.586
470.7230, 4179.643
471.9100, 3999.891
473.0970, 3993.221
474.2830, 3624.883
475.4700, 3654.828
476.6560, 3428.857
477.8420, 3291.705
479.0280, 3104.105
480.2140, 3122.508
481.3990, 2953.586
482.5850, 3138.898
483.7700, 3152.006
484.9550, 2894.285
486.1400, 2676.604
487.3240, 2580.850
488.5090, 2767.330
489.6930, 2505.754
490.8770, 2756.639
492.0610, 2212.135
493.2450, 2263.473
494.4290, 2350.018
495.6120, 2206.562
496.7950, 2054.500
497.9780, 2102.773
499.1610, 1970.104
500.3440, 2005.465
501.5260, 1806.975
502.7090, 1909.318
503.8910, 1733.293
505.0730, 1852.068
506.2550, 1585.861
507.4360, 1710.404
508.6180, 1626.713
509.7990, 1539.275
510.9800, 1409.287
512.1610, 1398.449
513.3420, 1509.064
514.5230, 1434.510
515.7030, 1026.090
516.8830, 1164.148
518.0630, 991.9863
519.2430, 774.2930
520.4230, 1126.482
521.6020, 952.9512
522.7820, 817.3320
523.9610, 920.7891
525.1400, 819.5117
526.3190, 751.0547
527.4970, 752.9199
528.6760, 736.9824
529.8540, 704.9219
531.0320, 621.5469
532.2100, 617.5410
533.3880, 552.1562
534.5660, 654.7148
535.7430, 630.6973
536.9200, 585.5645
538.0970, 594.5547
539.2740, 478.6484
540.4510, 438.6055
541.6270, 452.0664
542.8040, 360.7832
543.9800, 272.8652
545.1560, 439.8574
546.3320, 281.0938
547.5080, 189.6465
548.6830, 136.1152
549.8580, 282.6777
551.0340, 267.1836
552.2090, 207.2812
553.3830, 7.634766
554.5580, 215.7754
555.7320, 118.0117
556.9070, 84.06055
558.0810, 10.40430
559.2550, 117.5645
560.4280, 124.1523
561.6020, 148.3574
562.7750, 43.79883
563.9490, 55.55078
565.1220, 58.33594
566.2950, 226.1543
567.4670, 11.52148
568.6400, 180.6230
569.8120, 98.60156
570.9840, 87.82812
572.1560, 259.4824
573.3280, 174.8047
574.5000, 180.3555
575.6710, 117.0371
576.8430, 226.5996
578.0140, 228.6055
579.1850, 316.6562
580.3560, 216.3281
581.5260, 272.1582
582.6970, 242.7549
583.8670, 292.3223
585.0370, 189.3467
586.2070, 244.5830
587.3770, 226.4482
588.5460, 354.5283
589.7160, 402.8760
590.8850, 299.2109
592.0540, 285.1094
593.2230, 373.5059
594.3920, 211.3760
595.5600, 260.8213
596.7290, 321.3389
597.8970, 215.4639
599.0650, 233.5684
600.2330, 184.1211
601.4000, 197.0879
602.5680, 262.4961
603.7350, 144.3184
604.9020, 25.75488
606.0690, 247.8340
607.2360, 102.5303
608.4030, 142.9990
609.5690, 119.6221
610.7360, 89.01270
611.9020, 108.0293
613.0680, 1.858398
614.2340, 4.925781
615.3990, 172.2578
616.5650, 131.7256
617.7300, 9.012695
618.8950, 149.7383
620.0600, 168.5244
621.2250, 305.2627
622.3890, 458.4492
623.5540, 187.5762
624.7180, 153.5479
625.8820, 216.8838
627.0460, 343.4092
628.2100, 321.6465
629.3730, 136.7021
630.5370, 207.9551
631.7000, 246.9648
632.8630, 295.6865
634.0260, 310.2588
635.1890, 199.5469
636.3510, 326.8115
637.5140, 298.7559
638.6760, 419.6025
639.8380, 225.2715
641.0000, 233.3125
642.1610, 300.9932
643.3230, 242.5195
644.4840, 310.9072
645.6450, 277.3301
646.8060, 391.3789
647.9670, 331.8672
649.1280, 249.7236
650.2880, 418.1279
651.4490, 414.4141
652.6090, 381.1729
653.7690, 455.4717
654.9290, 468.6660
656.0880, 347.3984
657.2480, 552.9092
658.4070, 420.9570
659.5660, 449.9150
660.7250, 385.7617
661.8840, 321.4766
663.0430, 369.0156
664.2010, 478.4482
665.3600, 322.7559
666.5180, 505.8799
667.6760, 503.9072
668.8330, 417.7998
669.9910, 444.5391
671.1480, 406.1201
672.3060, 532.5068
673.4630, 491.7246
674.6200, 486.7383
675.7770, 507.5674
676.9330, 384.2080
678.0900, 530.6377
679.2460, 551.8301
680.4020, 592.7891
681.5580, 443.4990
682.7140, 512.9336
683.8690, 495.0957
685.0250, 535.9795
686.1800, 537.5889
687.3350, 554.9180
688.4900, 564.9678
689.6450, 623.7354
690.7990, 465.2295
691.9540, 510.4092
693.1080, 583.1143
694.2620, 562.6953
695.4160, 626.9746
696.5700, 539.6426
697.7230, 432.2627
698.8770, 593.5918
700.0300, 526.6113
701.1830, 517.3027
702.3360, 677.9297
703.4890, 653.9863
704.6410, 619.6211
705.7930, 602.5977
706.9460, 530.4043
708.0980, 598.0459
709.2500, 652.9502
710.4010, 778.7471
711.5530, 755.8252
712.7040, 669.6543
713.8560, 675.7979
715.0070, 774.8223
716.1580, 604.0439
717.3080, 687.6123
718.4590, 658.8008
719.6090, 577.0039
720.7590, 570.3496
721.9090, 470.0635
723.0590, 484.7930
724.2090, 599.6582
725.3590, 535.5859
726.5080, 498.2715
727.6570, 569.7754
728.8060, 549.3320
729.9550, 605.8027
731.1040, 484.7578
732.2530, 448.7188
733.4010, 502.1084
734.5490, 492.7891
735.6970, 548.1748
736.8450, 409.6035
737.9930, 454.6650
739.1400, 420.1875
740.2880, 567.1582
741.4350, 706.2236
742.5820, 539.0674
743.7290, 574.0967
744.8760, 433.7393
746.0220, 507.0820
747.1690, 370.7041
748.3150, 478.9160
749.4610, 571.6982
750.6070, 405.5029
751.7530, 351.5244
752.8980, 462.2256
754.0440, 563.9004
755.1890, 512.9814
756.3340, 473.8916
757.4790, 468.1553
758.6240, 520.3154
759.7680, 608.6973
760.9130, 488.7500
762.0570, 550.8965
763.2010, 419.7637
764.3450, 563.4668
765.4890, 373.1309
766.6320, 519.4219
767.7760, 496.6445
768.9190, 562.2773
770.0620, 638.1738
771.2050, 513.0996
772.3480, 651.6768
773.4900, 639.1250
774.6330, 523.0420
775.7750, 579.4756
776.9170, 730.9609
778.0590, 688.5254
779.2010, 625.9023
780.3420, 714.4033
781.4840, 717.7119
782.6250, 790.0996
783.7660, 824.3867
784.9070, 773.5918
786.0480, 836.5449
787.1890, 887.2988
788.3290, 912.6660
789.4690, 973.8926
790.6100, 1202.036
791.7490, 1201.685
792.8890, 1310.747
794.0290, 1346.768
795.1680, 1458.614
796.3080, 1582.153
797.4470, 1772.872
798.5860, 1850.491
799.7250, 1957.559
800.8630, 2147.421
802.0020, 2260.685
803.1400, 2490.338
804.2780, 2651.462
805.4160, 2833.961
806.5540, 3023.785
807.6920, 3435.732
808.8300, 3710.254
809.9670, 3995.702
811.1040, 4504.297
812.2410, 4999.711
813.3780, 5851.846
814.5150, 6664.082
815.6510, 8103.795
816.7880, 9372.151
817.9240, 11629.57
819.0600, 14960.95
820.1960, 18890.28
821.3320, 23685.68
822.4670, 28762.37
823.6030, 34744.51
824.7380, 41841.50
825.8730, 47662.14
827.0080, 49312.58
828.1430, 47306.19
829.2770, 40605.57
830.4120, 32098.35
831.5460, 23673.06
832.6800, 17148.82
833.8140, 12808.78
834.9480, 10134.79
836.0810, 8291.106
837.2150, 6661.002
838.3480, 5783.072
839.4810, 4884.828
840.6140, 4476.553
841.7470, 3899.932
842.8800, 3415.561
844.0120, 2908.645
845.1450, 2626.312
846.2770, 2393.936
847.4090, 2006.696
848.5410, 1969.811
849.6720, 1781.846
850.8040, 1614.702
851.9350, 1543.140
853.0660, 1412.698
854.1970, 1297.978
855.3280, 1132.533
856.4590, 1083.682
857.5900, 1204.024
858.7200, 1002.185
859.8500, 852.7412
860.9800, 870.1719
862.1100, 633.8828
863.2400, 657.4502
864.3700, 573.8984
865.4990, 595.9326
866.6280, 461.1475
867.7570, 308.4668
868.8860, 355.8301
870.0150, 371.3760
871.1440, 347.5938
872.2720, 480.9980
873.4010, 280.0010
874.5290, 418.0371
875.6570, 200.1025
876.7850, 300.1885
877.9120, 418.2715
879.0400, 324.5879
880.1670, 432.1777
881.2940, 374.9824
882.4210, 266.1768
883.5480, 317.1260
884.6750, 344.4248
885.8020, 407.0527
886.9280, 424.3691
888.0540, 462.1494
889.1800, 427.3105
890.3060, 383.0039
891.4320, 702.5635
892.5580, 554.2764
893.6830, 752.6260
894.8080, 765.6943
895.9330, 800.9873
897.0580, 797.0146
898.1830, 805.8652
899.3080, 891.0176
900.4320, 857.6484
901.5570, 853.2383
902.6810, 844.6816
903.8050, 782.5850
904.9290, 743.6250
906.0520, 726.1611
907.1760, 588.4951
908.2990, 528.2822
909.4230, 397.5000
910.5460, 337.7090
911.6690, 242.6816
912.7910, 146.4971
913.9140, 107.7734
915.0360, 1.669922
916.1590, 17.53125
917.2810, 10.15332
918.4030, 29.63281
919.5240, 0.5693360
920.6460, 147.0361
921.7680, 173.4219
922.8890, 279.7803
924.0100, 146.4541
925.1310, 146.0029
926.2520, 92.49219
927.3730, 308.2607
928.4930, 230.0039
929.6130, 181.9473
930.7340, 390.8271
931.8540, 307.0723
932.9740, 286.6357
934.0930, 200.4922
935.2130, 444.5879
936.3320, 314.0449
937.4520, 244.7959
938.5710, 456.7871
939.6900, 324.1328
940.8090, 338.7637
941.9270, 312.6689
943.0460, 234.8340
944.1640, 255.7383
945.2820, 155.8057
946.4000, 265.5732
947.5180, 269.5537
948.6360, 321.7422
949.7530, 59.14062
950.8710, 81.65137
951.9880, 126.7217
953.1050, 42.98535
954.2220, 28.22754
955.3390, 1.625977
956.4550, 270.4541
957.5720, 351.4736
958.6880, 403.4346
959.8040, 322.3408
960.9200, 436.1924
962.0360, 535.9893
963.1520, 781.7520
964.2670, 795.4795
965.3820, 742.1650
966.4980, 813.8164
967.6130, 1201.429
968.7280, 1360.015
969.8420, 1723.594
970.9570, 1909.147
972.0710, 2072.689
973.1850, 2577.222
974.3000, 3055.731
975.4140, 3859.225
976.5270, 4697.705
977.6410, 6025.182
978.7540, 7449.664
979.8680, 9348.146
980.9810, 11516.63
982.0940, 14210.10
983.2070, 17427.56
984.3200, 21371.03
985.4320, 25625.50
986.5440, 29891.97
987.6570, 33762.46
988.7690, 36414.96
989.8810, 37770.25
990.9920, 38237.44
992.1040, 38133.03
993.2160, 37711.07
994.3270, 36724.47
995.4380, 35168.77
996.5490, 33306.75
997.6600, 30987.38
998.7710, 27906.89
999.8810, 23862.03
1000.991, 20106.79
1002.102, 16482.50
1003.212, 13780.12
1004.322, 11715.54
1005.431, 9749.619
1006.541, 8580.390
1007.651, 7012.018
1008.760, 5723.089
1009.869, 4646.477
1010.978, 3714.936
1012.087, 3182.008
1013.195, 2761.934
1014.304, 2476.931
1015.412, 2015.980
1016.521, 1802.191
1017.629, 1727.447
1018.737, 1362.860
1019.844, 1419.082
1020.952, 1228.016
1022.059, 1132.953
1023.167, 1147.646
1024.274, 1010.859
1025.381, 860.4336
1026.488, 755.1113
1027.594, 764.8965
1028.701, 815.7852
1029.807, 842.7773
1030.913, 680.8809
1032.019, 901.0938
1033.125, 773.4316
1034.231, 706.8848
1035.337, 877.4707
1036.442, 820.1797
1037.548, 859.0137
1038.653, 857.9727
1039.758, 630.0527
1040.863, 856.2676
1041.967, 816.6074
1043.072, 1062.076
1044.176, 917.6836
1045.280, 1044.178
1046.384, 1038.551
1047.488, 971.9531
1048.592, 1140.383
1049.696, 1004.367
1050.799, 999.4590
1051.903, 1162.623
1053.006, 1233.104
1054.109, 1316.061
1055.212, 1304.379
1056.314, 1246.766
1057.417, 1240.557
1058.519, 1252.232
1059.621, 1264.354
1060.724, 1303.521
1061.826, 1271.568
1062.927, 1323.996
1064.029, 1233.250
1065.130, 1432.432
1066.232, 1288.414
1067.333, 1306.027
1068.434, 1394.645
1069.535, 1279.801
1070.636, 1499.625
1071.736, 1571.643
1072.837, 1210.072
1073.937, 1626.287
1075.037, 1402.684
1076.137, 1601.121
1077.237, 1650.996
1078.337, 1623.768
1079.436, 1723.283
1080.535, 1935.176
1081.635, 1822.836
1082.734, 1837.898
1083.833, 1890.441
1084.931, 1813.402
1086.030, 2026.133
1087.128, 2089.535
1088.227, 2110.945
1089.325, 2148.793
1090.423, 2181.580
1091.521, 2257.174
1092.618, 2241.705
1093.716, 2300.471
1094.813, 2349.469
1095.911, 2494.699
1097.008, 2397.164
1098.105, 2737.869
1099.202, 2636.812
1100.298, 2677.996
1101.395, 2527.420
1102.491, 2838.094
1103.587, 2572.012
1104.683, 2759.180
1105.779, 2862.596
1106.875, 2889.262
1107.971, 3133.180
1109.066, 3011.350
1110.161, 3227.773
1111.256, 3250.252
1112.351, 3071.387
1113.446, 3296.578
1114.541, 3386.029
1115.636, 3323.740
1116.730, 3530.709
1117.824, 3563.941
1118.918, 3549.441
1120.012, 3743.211
1121.106, 3571.248
1122.200, 3755.859
1123.293, 3630.123
1124.387, 3869.986
1125.480, 3898.123
1126.573, 3688.564
1127.666, 3767.293
1128.759, 3823.312
1129.851, 4046.656
1130.944, 3923.303
1132.036, 3955.246
1133.128, 4099.496
1134.220, 4096.072
1135.312, 4088.969
1136.404, 4332.184
1137.495, 4341.723
1138.587, 4210.578
1139.678, 4485.779
1140.769, 4479.312
1141.860, 4219.203
1142.951, 4268.441
1144.041, 4409.988
1145.132, 4471.885
1146.222, 4367.117
1147.313, 4494.713
1148.403, 4575.627
1149.493, 4387.854
1150.582, 4742.432
1151.672, 4731.314
1152.761, 4798.516
1153.851, 4962.051
1154.940, 4676.910
1156.029, 4755.104
1157.118, 4566.598
1158.207, 4959.443
1159.295, 4764.619
1160.384, 4970.113
1161.472, 4970.941
1162.560, 4821.070
1163.648, 4738.545
1164.736, 4924.355
1165.824, 4794.510
1166.911, 4727.980
1167.999, 4677.771
1169.086, 4896.879
1170.173, 4936.352
1171.260, 5005.160
1172.347, 5044.883
1173.434, 4994.777
1174.520, 5031.586
1175.606, 5013.719
1176.693, 5017.623
1177.779, 5001.025
1178.865, 4917.152
1179.951, 4964.652
1181.036, 4943.521
1182.122, 4961.744
1183.207, 5003.191
1184.292, 4926.297
1185.377, 5088.648
1186.462, 4944.383
1187.547, 4978.537
1188.632, 4884.068
1189.716, 4802.979
1190.800, 4965.248
1191.885, 4752.961
1192.969, 4929.070
1194.052, 5058.561
1195.136, 4888.514
1196.220, 4839.871
1197.303, 4901.617
1198.387, 4795.740
1199.470, 4904.289
1200.553, 4959.230
1201.636, 4711.553
1202.718, 4870.297
1203.801, 4695.430
1204.883, 4791.963
1205.966, 4808.885
1207.048, 4989.160
1208.130, 4681.824
1209.211, 4735.828
1210.293, 4652.219
1211.375, 4541.967
1212.456, 4602.104
1213.537, 4687.568
1214.618, 4530.348
1215.699, 4675.426
1216.780, 4697.832
1217.861, 4462.539
1218.941, 4504.553
1220.022, 4315.863
1221.102, 4236.477
1222.182, 4499.383
1223.262, 4231.576
1224.342, 4258.070
1225.422, 4099.859
1226.501, 4294.934
1227.580, 4188.309
1228.660, 4371.969
1229.739, 4330.916
1230.818, 4097.156
1231.896, 4029.389
1232.975, 4093.520
1234.054, 4110.393
1235.132, 4151.100
1236.210, 3973.787
1237.288, 3952.020
1238.366, 3740.275
1239.444, 3860.350
1240.521, 3790.160
1241.599, 3767.350
1242.676, 3573.715
1243.753, 3653.824
1244.830, 3774.730
1245.907, 3553.906
1246.984, 3660.373
1248.061, 3548.023
1249.137, 3432.332
1250.214, 3449.574
1251.290, 3356.182
1252.366, 3383.047
1253.442, 3313.998
1254.517, 3225.289
1255.593, 3227.125
1256.668, 3094.000
1257.744, 3078.580
1258.819, 3035.219
1259.894, 3075.881
1260.969, 2948.672
1262.044, 2935.105
1263.118, 2922.094
1264.193, 2779.453
1265.267, 2727.500
1266.341, 2725.396
1267.415, 2521.188
1268.489, 2726.332
1269.563, 2650.324
1270.636, 2576.957
1271.710, 2355.109
1272.783, 2501.215
1273.856, 2231.188
1274.929, 2269.955
1276.002, 2303.090
1277.075, 2220.420
1278.147, 2209.221
1279.220, 2158.824
1280.292, 2106.840
1281.364, 2079.059
1282.436, 2038.895
1283.508, 1959.662
1284.580, 1890.582
1285.652, 1795.320
1286.723, 1762.400
1287.794, 1706.230
1288.865, 1685.400
1289.936, 1645.693
1291.007, 1585.814
1292.078, 1573.176
1293.149, 1463.141
1294.219, 1535.994
1295.289, 1431.098
1296.360, 1419.221
1297.430, 1475.963
1298.499, 1428.168
1299.569, 1422.061
1300.639, 1468.830
1301.708, 1324.812
1302.778, 1322.928
1303.847, 1219.471
1304.916, 1181.959
1305.985, 1032.891
1307.053, 1011.750
1308.122, 1061.377
1309.190, 824.0898
1310.259, 945.6504
1311.327, 1075.043
1312.395, 1147.754
1313.463, 982.4219
1314.531, 1009.420
1315.598, 923.3867
1316.666, 857.8672
1317.733, 979.7090
1318.800, 637.2148
1319.867, 629.0000
1320.934, 761.0352
1322.001, 674.0117
1323.067, 700.2930
1324.134, 536.8965
1325.200, 468.9043
1326.266, 489.1230
1327.333, 658.4648
1328.398, 524.8242
1329.464, 606.1748
