##NAMES=Microcline
##RRUFFID=R050150
##IDEAL CHEMISTRY=KAlSi_3_O_8_
##LOCALITY=Crystal Peak area, Park/Teller Counties, Colorado, USA
##OWNER=RRUFF
##SOURCE=Dave Bunk Minerals
##DESCRIPTION=Pale blue prismatic crystals
##STATUS=The identification of this mineral has been confirmed by X-ray diffraction and chemical analysis
##URL=rruff.info/R050150
##MEASURED CHEMISTRY=(K_0.95_Na_0.05_)_Î£=1_Al_1.00_Si_3.00_O_8_
##PIN_ID=L01075
##ORIENTATION=Laser parallel to (0 1 1). Fiducial mark perpendicular to laser is parallel to a [1 0 0]
131.4920, 0.0000000E+00
132.7300, 113.6797
133.9690, 133.9756
135.2070, 15.24707
136.4450, 12.83398
137.6830, 214.2412
138.9210, 585.0156
140.1580, 1064.570
141.3950, 1480.398
142.6330, 2050.674
143.8690, 2904.350
145.1060, 4135.643
146.3430, 5315.209
147.5790, 6610.880
148.8150, 7240.943
150.0510, 7259.004
151.2870, 6590.531
152.5220, 5736.094
153.7580, 4706.461
154.9930, 3795.900
156.2280, 2875.355
157.4620, 2071.687
158.6970, 1600.793
159.9310, 1321.265
161.1660, 857.5957
162.4000, 673.9736
163.6330, 555.7319
164.8670, 530.1860
166.1000, 684.5718
167.3340, 851.0864
168.5670, 1178.907
169.8000, 1744.253
171.0320, 2286.826
172.2650, 2978.683
173.4970, 4196.089
174.7290, 5648.248
175.9610, 7185.815
177.1930, 8396.420
178.4240, 8418.794
179.6550, 7964.305
180.8870, 6878.510
182.1170, 5707.233
183.3480, 4680.129
184.5790, 3546.816
185.8090, 2907.648
187.0390, 2367.029
188.2690, 1931.270
189.4990, 1757.684
190.7290, 1769.031
191.9580, 1752.320
193.1870, 2050.541
194.4160, 2442.733
195.6450, 2817.151
196.8740, 3134.790
198.1020, 3223.368
199.3310, 3250.839
200.5590, 2729.212
201.7870, 2307.491
203.0140, 1817.683
204.2420, 1298.792
205.4690, 888.9243
206.6960, 464.2905
207.9230, 297.7661
209.1500, 207.3970
210.3760, 27.18701
211.6030, 27.12158
212.8290, 40.18750
214.0550, 13.62939
215.2810, 6.191895
216.5060, 104.9604
217.7320, 45.50293
218.9570, 95.98193
220.1820, 143.5962
221.4070, 123.4517
222.6320, 72.10889
223.8560, 24.41699
225.0800, 101.4351
226.3040, 65.81348
227.5280, 74.58984
228.7520, 14.65088
229.9760, 18.71729
231.1990, 41.69922
232.4220, 26.72510
233.6450, 100.2041
234.8680, 25.91016
236.0910, 132.9180
237.3130, 124.3804
238.5350, 146.7866
239.7570, 81.17822
240.9790, 161.5581
242.2010, 156.1650
243.4220, 243.6660
244.6430, 400.0615
245.8640, 530.3052
247.0850, 755.3696
248.3060, 1158.179
249.5270, 1350.704
250.7470, 1724.930
251.9670, 2202.991
253.1870, 3051.900
254.4070, 3669.692
255.6260, 4600.439
256.8460, 5231.942
258.0650, 5851.212
259.2840, 6421.034
260.5030, 7143.646
261.7220, 7600.409
262.9400, 8054.399
264.1580, 8583.396
265.3760, 8663.402
266.5940, 8175.417
267.8120, 7755.440
269.0290, 6966.469
270.2470, 6031.503
271.4640, 5260.543
272.6810, 4605.588
273.8980, 4117.639
275.1140, 3936.699
276.3310, 4033.765
277.5470, 4268.897
278.7630, 4785.102
279.9790, 5298.739
281.1940, 6359.382
282.4100, 7026.551
283.6250, 7841.469
284.8400, 8171.418
286.0550, 8081.463
287.2700, 7497.568
288.4850, 6699.442
289.6990, 5945.213
290.9130, 4769.862
292.1270, 4163.379
293.3410, 3629.756
294.5540, 3055.990
295.7680, 2718.085
296.9810, 2563.043
298.1940, 2159.862
299.4070, 1939.528
300.6200, 1575.016
301.8320, 1294.308
303.0450, 933.4014
304.2570, 824.2988
305.4690, 590.0073
306.6800, 469.5400
307.8920, 403.9146
309.1030, 232.1357
310.3150, 107.2192
311.5260, 110.1655
312.7360, 75.98340
313.9470, 8.302734
315.1580, 48.29248
316.3680, 38.27246
317.5780, 79.91895
318.7880, 124.8799
319.9980, 46.54346
321.2070, 160.8062
322.4170, 117.6372
323.6260, 127.0986
324.8350, 331.3755
326.0430, 365.4370
327.2520, 531.3140
328.4610, 566.9849
329.6690, 536.5127
330.8770, 803.9648
332.0850, 832.3403
333.2920, 664.6543
334.5000, 496.9321
335.7070, 569.1992
336.9140, 478.4585
338.1210, 320.7119
339.3280, 347.9570
340.5350, 243.1948
341.7410, 290.4224
342.9470, 176.6396
344.1540, 163.8442
345.3590, 278.0371
346.5650, 210.2207
347.7710, 253.3940
348.9760, 461.5586
350.1810, 376.7178
351.3860, 458.8696
352.5910, 534.8394
353.7950, 670.9775
355.0000, 736.3877
356.2040, 750.7959
357.4080, 812.2754
358.6120, 756.2422
359.8150, 711.6821
361.0190, 686.6636
362.2220, 529.5166
363.4250, 611.1719
364.6280, 422.7266
365.8310, 380.3574
367.0340, 429.2979
368.2360, 529.4995
369.4380, 601.6650
370.6400, 645.0518
371.8420, 617.5381
373.0440, 674.5337
374.2450, 484.0557
375.4470, 517.6631
376.6480, 292.8936
377.8490, 181.1299
379.0490, 21.32812
380.2500, 42.91602
381.4500, 82.91797
382.6510, 68.01514
383.8510, 69.90234
385.0500, 111.5205
386.2500, 99.28174
387.4500, 68.08447
388.6490, 52.14746
389.8480, 43.55273
391.0470, 188.5913
392.2460, 251.1343
393.4440, 477.6782
394.6430, 687.2231
395.8410, 919.7710
397.0390, 1321.321
398.2370, 1796.880
399.4340, 2450.442
400.6320, 3060.010
401.8290, 3480.564
403.0260, 3843.090
404.2230, 3666.577
405.4200, 3255.035
406.6170, 2793.478
407.8130, 2484.928
409.0090, 2172.388
410.2050, 2260.858
411.4010, 2096.336
412.5970, 1930.822
413.7920, 1705.332
414.9880, 1380.871
416.1830, 932.4541
417.3780, 654.0645
418.5730, 513.6855
419.7670, 145.3174
420.9620, 73.95703
422.1560, 39.61328
423.3500, 44.22754
424.5440, 11.80957
425.7380, 20.36914
426.9310, 15.91406
428.1240, 74.44043
429.3180, 81.94141
430.5110, 33.41797
431.7030, 211.8691
432.8960, 93.29688
434.0890, 207.7002
435.2810, 334.0820
436.4730, 446.4414
437.6650, 512.7793
438.8570, 767.0947
440.0480, 900.3916
441.2390, 1248.669
442.4310, 1695.927
443.6220, 2077.166
444.8120, 2945.389
446.0030, 3661.596
447.1940, 4524.784
448.3840, 5646.961
449.5740, 7084.121
450.7640, 8608.321
451.9540, 9948.074
453.1430, 10732.33
454.3330, 10778.78
455.5220, 10287.22
456.7110, 9162.398
457.9000, 7975.704
459.0890, 6801.646
460.2770, 6187.521
461.4650, 5645.682
462.6540, 5440.647
463.8420, 5757.619
465.0290, 6415.283
466.2170, 7640.937
467.4050, 9102.576
468.5920, 11067.08
469.7790, 13087.04
470.9660, 16065.67
472.1530, 18811.73
473.3390, 21745.79
474.5250, 23394.86
475.7120, 23810.94
476.8980, 22954.01
478.0840, 20746.10
479.2690, 17840.19
480.4550, 15040.29
481.6400, 12762.97
482.8250, 10889.79
484.0100, 9371.199
485.1950, 8113.825
486.3800, 6815.995
487.5640, 5680.135
488.7480, 4765.771
489.9320, 4015.927
491.1160, 3525.727
492.3000, 3115.893
493.4840, 2973.031
494.6670, 3050.214
495.8500, 3040.408
497.0330, 3383.619
498.2160, 3767.850
499.3990, 4380.114
500.5810, 5427.408
501.7630, 6718.734
502.9460, 8679.101
504.1280, 10948.51
505.3090, 14130.98
506.4910, 17886.51
507.6720, 21971.09
508.8540, 27328.74
510.0350, 32904.47
511.2160, 38253.25
512.3960, 41600.08
513.5770, 42033.93
514.7570, 39795.83
515.9380, 35315.75
517.1180, 29744.73
518.2970, 23712.73
519.4770, 18609.78
520.6570, 14327.78
521.8360, 11252.53
523.0150, 8717.638
524.1940, 7028.061
525.3730, 5676.213
526.5510, 4924.323
527.7300, 4023.345
528.9080, 3406.105
530.0860, 2949.433
531.2640, 2464.467
532.4420, 2174.863
533.6200, 1967.206
534.7970, 1709.562
535.9740, 1648.929
537.1510, 1427.888
538.3280, 1151.698
539.5050, 1118.674
540.6810, 956.0879
541.8580, 823.5146
543.0340, 829.9531
544.2100, 668.4043
545.3860, 745.8652
546.5610, 603.3398
547.7370, 499.8271
548.9120, 462.3262
550.0870, 335.8369
551.2620, 284.5459
552.4370, 484.0830
553.6120, 475.6309
554.7860, 444.4590
555.9600, 323.6670
557.1340, 379.4883
558.3080, 381.2373
559.4820, 228.0859
560.6560, 280.1357
561.8290, 398.7656
563.0020, 349.1270
564.1750, 170.5967
565.3480, 354.1152
566.5210, 162.5322
567.6930, 315.0059
568.8660, 152.4844
570.0380, 190.2197
571.2100, 195.9688
572.3820, 227.5889
573.5530, 216.3613
574.7250, 207.1484
575.8960, 293.9756
577.0670, 222.8145
578.2380, 305.6641
579.4090, 374.5361
580.5800, 501.4209
581.7500, 397.3340
582.9210, 400.2588
584.0910, 434.1953
585.2610, 423.1621
586.4300, 320.1416
587.6000, 276.1367
588.7690, 151.1455
589.9390, 150.2070
591.1080, 32.71582
592.2770, 54.36133
593.4450, 33.54590
594.6140, 1.561523
595.7820, 36.68848
596.9500, 94.16309
598.1190, 24.03027
599.2860, 58.12402
600.4540, 33.70117
601.6220, 128.4932
602.7890, 35.31641
603.9560, 43.86621
605.1230, 89.93164
606.2900, 92.72852
607.4570, 25.54297
608.6230, 36.68359
609.7890, 6.065430
610.9560, 81.80469
612.1220, 99.43750
613.2870, 170.7207
614.4530, 16.01855
615.6180, 42.32715
616.7840, 12.64941
617.9490, 104.9824
619.1140, 158.3281
620.2790, 195.6924
621.4430, 282.0674
622.6080, 329.8457
623.7720, 344.8857
624.9360, 448.3271
626.1000, 470.7812
627.2640, 515.2803
628.4270, 512.7959
629.5910, 535.3398
630.7540, 594.9111
631.9170, 715.4961
633.0800, 765.1172
634.2430, 853.7520
635.4050, 820.3975
636.5680, 870.0547
637.7300, 923.7227
638.8920, 1092.401
640.0540, 1288.090
641.2150, 1387.791
642.3770, 1497.502
643.5380, 1602.225
644.7000, 1731.959
645.8610, 1759.701
647.0210, 1954.454
648.1820, 2027.221
649.3430, 2236.996
650.5030, 2298.780
651.6630, 2437.571
652.8230, 2464.371
653.9830, 2261.177
655.1430, 2181.991
656.3020, 2127.812
657.4620, 1979.640
658.6210, 1650.476
659.7800, 1526.316
660.9390, 1204.164
662.0970, 1244.024
663.2560, 869.9004
664.4140, 727.7998
665.5720, 843.7197
666.7300, 602.6582
667.8880, 571.6260
669.0460, 414.6191
670.2030, 369.6299
671.3600, 322.6582
672.5180, 168.6992
673.6740, 115.7461
674.8310, 112.7959
675.9880, 95.85059
677.1440, 125.9102
678.3010, 2.025391
679.4570, 64.03516
680.6130, 59.09961
681.7690, 156.1680
682.9240, 66.23926
684.0800, 93.31641
685.2350, 54.39648
686.3900, 121.4795
687.5450, 102.5654
688.7000, 113.6279
689.8540, 10.74805
691.0090, 98.83984
692.1630, 25.93555
693.3170, 51.96680
694.4710, 74.89453
695.6250, 132.8623
696.7780, 65.89941
697.9320, 11.03027
699.0850, 6.086914
700.2380, 59.01172
701.3910, 20.53027
702.5440, 80.38184
703.6970, 227.3955
704.8490, 71.91406
706.0010, 175.8330
707.1530, 213.7539
708.3050, 165.1963
709.4570, 239.0332
710.6090, 383.0537
711.7600, 261.1836
712.9110, 316.9619
714.0620, 280.0479
715.2130, 365.9756
716.3640, 158.9043
717.5150, 203.1436
718.6650, 257.0713
719.8150, 152.7451
720.9650, 405.6709
722.1150, 216.5967
723.2650, 471.3867
724.4150, 229.3105
725.5640, 278.1162
726.7130, 365.0557
727.8630, 261.5527
729.0110, 430.9609
730.1600, 514.7119
731.3090, 562.6230
732.4570, 613.5049
733.6060, 687.7705
734.7540, 903.6738
735.9020, 1118.771
737.0490, 1237.785
738.1970, 1437.680
739.3440, 1663.145
740.4920, 1993.364
741.6390, 2413.603
742.7860, 2836.483
743.9320, 3375.420
745.0790, 3947.227
746.2250, 4424.793
747.3720, 4917.598
748.5180, 5302.168
749.6640, 5238.566
750.8100, 5048.422
751.9550, 4574.273
753.1010, 3914.120
754.2460, 3208.963
755.3910, 2582.799
756.5360, 2235.631
757.6810, 1902.606
758.8250, 1566.429
759.9700, 1320.129
761.1140, 1168.941
762.2580, 1022.983
763.4020, 867.7842
764.5460, 788.0723
765.6900, 596.9805
766.8330, 619.1621
767.9760, 635.6748
769.1200, 531.4414
770.2620, 511.1357
771.4050, 396.8896
772.5480, 319.7402
773.6900, 348.4775
774.8330, 309.2090
775.9750, 370.9316
777.1170, 198.6455
778.2590, 167.3525
779.4000, 308.0508
780.5420, 111.3154
781.6830, 251.9971
782.8240, 274.6709
783.9650, 118.3359
785.1060, 275.8916
786.2470, 262.5410
787.3870, 140.1797
788.5280, 195.8105
789.6680, 223.4326
790.8080, 291.0449
791.9480, 239.6494
793.0870, 159.2451
794.2270, 189.8320
795.3660, 168.5986
796.5060, 166.9971
797.6450, 237.5361
798.7830, 221.0859
799.9220, 324.6250
801.0610, 423.1572
802.1990, 376.6777
803.3370, 341.1895
804.4750, 582.6914
805.6130, 673.1826
806.7510, 811.6660
807.8890, 982.1387
809.0260, 1203.600
810.1630, 1318.051
811.3000, 1587.492
812.4370, 1837.923
813.5740, 1726.343
814.7110, 1687.752
815.8470, 1417.578
816.9830, 1125.967
818.1190, 932.3457
819.2550, 602.7139
820.3910, 599.0723
821.5270, 597.4199
822.6620, 357.7568
823.7970, 279.0830
824.9330, 401.3984
826.0670, 122.7031
827.2020, 183.8125
828.3370, 212.0957
829.4710, 183.3691
830.6060, 109.3643
831.7400, 143.9805
832.8740, 142.9863
834.0080, 146.0654
835.1410, 43.04590
836.2750, 55.82422
837.4080, 12.97363
838.5410, 55.42773
839.6740, 9.586914
840.8070, 15.27441
841.9400, 88.83203
843.0730, 74.67969
844.2050, 24.01660
845.3370, 142.0889
846.4690, 49.15234
847.6010, 36.20605
848.7330, 14.24707
849.8640, 72.72949
850.9960, 213.2305
852.1270, 80.18262
853.2580, 11.87598
854.3890, 107.0361
855.5200, 35.06055
856.6500, 141.7988
857.7810, 114.6504
858.9110, 37.50781
860.0410, 124.2900
861.1710, 11.07910
862.3010, 45.85059
863.4310, 129.3877
864.5600, 21.28418
865.6900, 137.9404
866.8190, 90.59375
867.9480, 12.76172
869.0770, 22.86035
870.2050, 62.46875
871.3340, 30.06934
872.4620, 121.6758
873.5900, 165.2793
874.7180, 9.125977
875.8460, 113.4492
876.9740, 51.04102
878.1010, 48.63086
879.2290, 43.78711
880.3560, 47.76953
881.4830, 103.6641
882.6100, 12.16797
883.7370, 132.3027
884.8630, 30.76660
885.9900, 93.76270
887.1160, 50.63867
888.2420, 107.0332
889.3680, 109.4180
890.4940, 57.79590
891.6200, 73.16602
892.7450, 2.470703
893.8700, 68.87305
894.9960, 30.79102
896.1210, 153.5117
897.2460, 21.19336
898.3700, 72.07520
899.4950, 91.66406
900.6190, 43.53125
901.7430, 41.27930
902.8670, 31.12891
903.9910, 60.99023
905.1150, 82.89648
906.2390, 134.1582
907.3620, 19.20410
908.4850, 110.2432
909.6080, 85.27539
910.7310, 81.30273
911.8540, 54.32129
912.9770, 57.33496
914.0990, 46.75293
915.2210, 1.656250
916.3440, 30.33301
917.4660, 80.31445
918.5870, 63.29102
919.7090, 8.738281
920.8310, 119.2168
921.9520, 225.1670
923.0730, 165.1104
924.1940, 163.0498
925.3150, 109.9834
926.4360, 70.91211
927.5560, 83.83594
928.6770, 93.75391
929.7970, 88.14746
930.9170, 99.07520
932.0370, 109.4785
933.1570, 111.3779
934.2760, 131.7412
935.3960, 147.1611
936.5150, 126.0469
937.6340, 163.9277
938.7530, 181.8027
939.8720, 127.6748
940.9910, 163.3926
942.1090, 80.40723
943.2280, 198.2676
944.3460, 140.1230
945.4640, 206.9766
946.5820, 163.8252
947.6990, 174.6787
948.8170, 108.5273
949.9340, 280.3740
951.0520, 270.2188
952.1690, 384.0625
953.2860, 225.9014
954.4030, 292.7393
955.5190, 134.5732
956.6360, 299.4053
957.7520, 130.2334
958.8680, 123.0625
959.9840, 186.8896
961.1000, 67.71387
962.2160, 99.53711
963.3310, 338.3604
964.4470, 231.1836
965.5620, 54.01953
966.6770, 293.8740
967.7920, 155.7637
968.9060, 218.6699
970.0210, 61.44629
971.1360, 205.3545
972.2500, 208.7275
973.3640, 121.6416
974.4780, 229.4561
975.5920, 371.7637
976.7050, 351.6758
977.8190, 419.5859
978.9320, 356.9795
980.0450, 444.8906
981.1580, 511.7979
982.2710, 459.5195
983.3840, 650.6152
984.4970, 618.4141
985.6090, 684.3711
986.7210, 936.3359
987.8330, 972.9902
988.9450, 1310.956
990.0570, 1434.179
991.1690, 1757.148
992.2800, 1730.120
993.3920, 2033.228
994.5030, 2052.203
995.6140, 1881.297
996.7250, 1935.268
997.8350, 1674.680
998.9460, 1545.181
1000.056, 1588.179
1001.167, 1562.181
1002.277, 1448.990
1003.387, 1175.596
1004.496, 1173.614
1005.606, 1056.426
1006.715, 967.4541
1007.825, 820.4863
1008.934, 627.6582
1010.043, 711.6973
1011.152, 728.7539
1012.260, 665.8174
1013.369, 504.9121
1014.477, 352.0010
1015.586, 584.3955
1016.694, 443.5625
1017.802, 489.6699
1018.909, 684.6699
1020.017, 625.7881
1021.124, 489.9121
1022.232, 648.0615
1023.339, 663.2275
1024.446, 715.3994
1025.553, 755.6035
1026.659, 930.6650
1027.766, 842.8818
1028.872, 813.2217
1029.979, 891.4512
1031.085, 772.4521
1032.191, 815.6953
1033.296, 675.3330
1034.402, 706.5918
1035.507, 798.4570
1036.613, 561.9932
1037.718, 702.2754
1038.823, 655.6367
1039.928, 794.9395
1041.032, 723.1504
1042.137, 578.4736
1043.241, 730.8057
1044.346, 663.1455
1045.450, 826.4971
1046.554, 939.8555
1047.657, 1014.224
1048.761, 1066.028
1049.864, 1112.416
1050.968, 1070.812
1052.071, 1145.219
1053.174, 1055.605
1054.277, 1012.161
1055.379, 858.5967
1056.482, 761.0420
1057.584, 586.6221
1058.687, 632.0869
1059.789, 475.5615
1060.891, 422.0479
1061.992, 244.5420
1063.094, 333.0479
1064.196, 173.5635
1065.297, 187.0889
1066.398, 22.62500
1067.499, 177.1719
1068.600, 172.7285
1069.701, 139.2949
1070.801, 125.8730
1071.902, 71.46094
1073.002, 167.0586
1074.102, 200.6680
1075.202, 179.2891
1076.302, 31.91992
1077.402, 192.5615
1078.501, 174.2148
1079.600, 145.3555
1080.700, 209.0293
1081.799, 222.7451
1082.898, 140.4121
1083.996, 297.1191
1085.095, 439.8369
1086.193, 429.5674
1087.292, 448.3076
1088.390, 482.0596
1089.488, 632.8223
1090.586, 577.1895
1091.683, 485.9756
1092.781, 762.7725
1093.878, 834.5801
1094.975, 840.5996
1096.073, 792.8359
1097.169, 881.6777
1098.266, 889.2812
1099.363, 1007.396
1100.459, 976.2725
1101.556, 1130.158
1102.652, 1166.065
1103.748, 1071.982
1104.844, 1265.923
1105.940, 1068.875
1107.035, 1165.843
1108.131, 1161.833
1109.226, 1331.836
1110.321, 1629.850
1111.416, 1791.877
1112.511, 2078.435
1113.605, 2441.094
1114.700, 2658.572
1115.794, 3346.148
1116.889, 3726.535
1117.983, 4556.701
1119.077, 5293.846
1120.170, 5966.012
1121.264, 6565.188
1122.357, 6832.409
1123.451, 6992.643
1124.544, 6688.889
1125.637, 6275.162
1126.730, 5739.443
1127.823, 5273.521
1128.915, 4744.832
1130.008, 4376.193
1131.100, 4134.568
1132.192, 3925.955
1133.284, 4054.352
1134.376, 3959.770
1135.467, 4033.756
1136.559, 4087.195
1137.650, 4165.787
1138.742, 4061.253
1139.833, 3826.728
1140.924, 3452.223
1142.014, 3007.410
1143.105, 2657.505
1144.195, 2271.032
1145.286, 1901.091
1146.376, 1645.655
1147.466, 1512.357
1148.556, 1138.983
1149.646, 1147.620
1150.735, 1048.270
1151.825, 879.9600
1152.914, 692.9932
1154.003, 607.9717
1155.092, 677.6914
1156.181, 471.2783
1157.270, 579.0166
1158.358, 455.7686
1159.447, 499.5312
1160.535, 412.3154
1161.623, 308.1084
1162.711, 305.9209
1163.799, 251.7412
1164.886, 177.6006
1165.974, 171.4688
1167.061, 262.3623
1168.148, 369.2744
1169.235, 266.9365
1170.322, 221.9463
1171.409, 74.32715
1172.496, 101.2842
1173.582, 116.2871
1174.669, 157.2803
1175.755, 82.28125
1176.841, 148.2900
1177.927, 109.3076
1179.012, 210.3340
1180.098, 106.4434
1181.183, 184.4883
1182.269, 161.5420
1183.354, 118.6543
1184.439, 237.6777
1185.524, 38.75879
1186.608, 47.84863
1187.693, 10.05469
1188.777, 206.0488
1189.862, 136.1602
1190.946, 178.2793
1192.030, 205.4053
1193.113, 109.5391
1194.197, 8.679688
1195.281, 49.82812
1196.364, 193.9834
1197.447, 96.14648
1198.530, 78.31641
1199.613, 8.494141
1200.696, 91.67871
1201.779, 238.8701
1202.861, 60.06836
1203.944, 63.27344
1205.026, 160.4844
1206.108, 96.70508
1207.190, 142.9297
1208.271, 47.16309
1209.353, 46.59863
1210.435, 3.633789
1211.516, 141.8721
1212.597, 109.1201
1213.678, 105.3760
1214.759, 88.63770
1215.840, 53.90625
1216.920, 125.1807
1218.001, 51.46094
1219.081, 38.74707
1220.161, 22.96094
1221.241, 114.3320
1222.321, 96.62988
1223.401, 201.9326
1224.480, 9.757813
1225.560, 16.44531
1226.639, 142.8672
1227.718, 6.187500
1228.797, 102.5107
1229.876, 124.8398
1230.955, 58.17578
1232.033, 119.2207
1233.112, 120.5635
1234.190, 102.9131
1235.268, 101.2676
1236.346, 30.62793
1237.424, 2.990234
1238.501, 144.3594
1239.579, 19.73242
1240.656, 125.1084
1241.733, 15.50977
1242.811, 54.13086
1243.888, 82.76953
1244.964, 51.44238
1246.041, 8.134766
1247.117, 24.82617
1248.194, 148.1211
1249.270, 10.42773
1250.346, 20.73828
1251.422, 22.75000
1252.498, 167.0674
1253.573, 15.41211
1254.649, 77.77051
1255.724, 94.14941
1256.800, 32.46973
1257.875, 188.9023
1258.950, 43.27832
1260.024, 57.65625
1261.099, 77.03711
1262.173, 87.41992
1263.248, 35.80469
1264.322, 25.80762
1265.396, 59.56738
1266.470, 0.9443360
1267.544, 91.32129
1268.617, 7.700195
1269.691, 74.08105
1270.764, 41.53711
1271.837, 6.053711
1272.910, 34.30176
1273.983, 53.34082
1275.056, 23.98828
1276.129, 13.68164
1277.201, 68.63867
1278.273, 65.95996
1279.346, 107.6475
1280.418, 212.9707
1281.489, 63.70410
1282.561, 30.41602
1283.633, 116.8525
1284.704, 86.87793
1285.776, 22.33984
1286.847, 164.5723
1287.918, 66.79004
1288.989, 100.0049
1290.059, 59.28027
1291.130, 42.49707
1292.200, 100.7109
1293.271, 183.9258
1294.341, 108.1387
1295.411, 82.35059
1296.481, 141.5596
1297.551, 1.231445
1298.620, 13.96680
1299.690, 5.161133
1300.759, 257.7236
1301.828, 115.9092
1302.897, 29.09180
1303.966, 215.2715
1305.035, 43.44922
1306.103, 152.6240
1307.172, 182.7969
