##NAMES=Microcline
##RRUFFID=R050193
##IDEAL CHEMISTRY=KAlSi_3_O_8_
##LOCALITY=Devil's Head, Douglas County, Colorado, USA
##OWNER=RRUFF
##SOURCE=Dave Bunk Minerals
##DESCRIPTION=White to colorless heterogeneous mixture of K and Na feldspar in a cluster of crystals. Crystal structure determined, presented below. This sample is known as an intermediate microcline in the literature.
##STATUS=The identification of this mineral has been confirmed by X-ray diffraction and chemical analysis
##URL=rruff.info/R050193
##MEASURED CHEMISTRY=(K_0.929_Na_0.071_)(Al_1.005_Si_2.994_Fe_0.001_)O_7.993_F_0.007_  ; Light Band :  (Na_0.973_K_0.007_Ca_0.020_)(Al_1.020_Si_2.980_)O_8_ ; Dark Band
##PIN_ID=L00660
##ORIENTATION=Laser parallel to c* (0 0 1). Fiducial mark perpendicular to laser is parallel to a [1 0 0]
127.7630, 0.0000000E+00
128.9970, 4.814453
130.2300, 16.30078
131.4640, 280.5059
132.6970, 741.6777
133.9300, 1086.152
135.1630, 2233.391
136.3950, 3163.830
137.6280, 4366.312
138.8600, 5091.234
140.0920, 5757.180
141.3240, 5997.504
142.5560, 6108.479
143.7880, 6489.475
145.0190, 6761.840
146.2510, 7445.143
147.4820, 8108.031
148.7130, 9264.533
149.9440, 10347.06
151.1750, 11873.51
152.4050, 13453.03
153.6360, 14863.39
154.8660, 16382.64
156.0960, 17226.45
157.3260, 17212.32
158.5560, 17056.76
159.7850, 15531.19
161.0150, 13505.97
162.2440, 11607.45
163.4730, 9761.871
164.7020, 8187.441
165.9310, 6841.365
167.1590, 5515.439
168.3880, 4784.957
169.6160, 3838.395
170.8440, 3621.693
172.0720, 3257.879
173.3000, 2729.074
174.5280, 2806.607
175.7550, 2629.225
176.9820, 2520.832
178.2100, 2389.904
179.4370, 2182.893
180.6630, 1987.734
181.8900, 1599.465
183.1170, 1575.053
184.3430, 1366.943
185.5690, 1177.102
186.7950, 1152.482
188.0210, 1115.045
189.2470, 1024.660
190.4720, 779.5742
191.6970, 886.6543
192.9230, 917.0684
194.1480, 766.9551
195.3730, 1015.045
196.5970, 895.1875
197.8220, 837.3867
199.0460, 799.6406
200.2700, 669.9492
201.4940, 598.9219
202.7180, 508.0137
203.9420, 342.0371
205.1660, 188.5195
206.3890, 55.40234
207.6120, 145.0156
208.8350, 214.1367
210.0580, 169.4941
211.2810, 220.3848
212.5040, 185.0625
213.7260, 110.5488
214.9480, 101.8633
216.1700, 258.0234
217.3920, 11.95508
218.6140, 148.9434
219.8360, 295.7285
221.0570, 184.4121
222.2790, 217.0176
223.5000, 129.5840
224.7210, 85.12891
225.9410, 71.33203
227.1620, 35.25195
228.3820, 22.84375
229.6030, 24.54688
230.8230, 31.91992
232.0430, 172.2773
233.2630, 59.62109
234.4820, 96.95312
235.7020, 310.2715
236.9210, 229.5820
238.1400, 379.8809
239.3590, 271.1719
240.5780, 533.3984
241.7970, 527.2832
243.0150, 543.7773
244.2340, 891.9141
245.4520, 691.7500
246.6700, 1107.355
247.8880, 1388.566
249.1060, 1576.447
250.3230, 2058.129
251.5400, 2294.684
252.7580, 2788.186
253.9750, 3230.355
255.1920, 3580.812
256.4080, 3941.105
257.6250, 4331.391
258.8410, 4747.395
260.0580, 5092.965
261.2740, 5548.520
262.4900, 5822.922
263.7050, 6072.367
264.9210, 6501.852
266.1360, 6932.377
267.3520, 7031.941
268.5670, 7376.543
269.7820, 7885.184
270.9960, 8452.859
272.2110, 9341.574
273.4250, 10236.06
274.6400, 11272.55
275.8540, 12368.41
277.0680, 13609.02
278.2810, 14387.11
279.4950, 14979.36
280.7090, 15196.32
281.9220, 15041.52
283.1350, 14384.95
284.3480, 13226.11
285.5610, 11675.09
286.7730, 10241.38
287.9860, 8829.430
289.1980, 7487.459
290.4100, 6190.445
291.6220, 5171.379
292.8340, 4391.250
294.0460, 3987.045
295.2570, 3059.715
296.4690, 2691.209
297.6800, 2087.502
298.8910, 1931.566
300.1020, 1686.408
301.3120, 1629.045
302.5230, 1377.496
303.7330, 1360.773
304.9440, 1031.900
306.1540, 1020.883
307.3630, 970.7363
308.5730, 821.4688
309.7830, 821.0918
310.9920, 977.6094
312.2010, 728.0352
313.4100, 640.2051
314.6190, 883.7617
315.8280, 692.7168
317.0370, 789.1855
318.2450, 670.1445
319.4530, 778.8086
320.6610, 957.9141
321.8690, 815.5957
323.0770, 837.0176
324.2850, 1114.273
325.4920, 1044.453
326.6990, 1140.621
327.9060, 1259.795
329.1130, 1176.998
330.3200, 1323.223
331.5270, 1314.469
332.7330, 1191.740
333.9390, 1079.029
335.1450, 1178.338
336.3510, 1139.664
337.5570, 692.0137
338.7630, 830.3750
339.9680, 776.7539
341.1740, 708.1426
342.3790, 840.5449
343.5840, 705.9590
344.7890, 628.3867
345.9930, 767.8242
347.1980, 637.2754
348.4020, 598.7070
349.6060, 635.2031
350.8100, 712.4355
352.0140, 834.8711
353.2180, 814.7207
354.4210, 841.9883
355.6250, 771.3223
356.8280, 762.5098
358.0310, 646.9570
359.2340, 652.9180
360.4360, 738.8535
361.6390, 553.8184
362.8410, 585.7539
364.0430, 397.6113
365.2450, 523.2734
366.4470, 420.9375
367.6490, 439.5684
368.8510, 394.6504
370.0520, 294.6328
371.2530, 302.4434
372.4540, 168.5332
373.6550, 212.4141
374.8560, 218.1855
376.0560, 94.32031
377.2570, 200.5879
378.4570, 82.19336
379.6570, 68.97656
380.8570, 62.41016
382.0570, 49.15430
383.2560, 15.74023
384.4560, 50.08398
385.6550, 59.94727
386.8540, 39.57812
388.0530, 66.22070
389.2520, 14.87891
390.4510, 130.5391
391.6490, 6.228516
392.8470, 107.0820
394.0450, 16.43555
395.2430, 88.80859
396.4410, 136.1934
397.6390, 204.5898
398.8360, 123.9688
400.0340, 223.3613
401.2310, 267.7637
402.4280, 394.1387
403.6250, 389.5117
404.8210, 456.8438
406.0180, 541.2227
407.2140, 446.5977
408.4100, 371.0215
409.6060, 168.4961
410.8020, 182.9453
411.9980, 170.5098
413.1930, 128.0488
414.3890, 139.6016
415.5840, 60.16602
416.7790, 31.22070
417.9740, 5.613281
419.1680, 73.49609
420.3630, 58.58594
421.5570, 105.8301
422.7510, 81.30469
423.9450, 52.84180
425.1390, 194.4258
426.3330, 194.1367
427.5270, 75.96875
428.7200, 24.13086
429.9130, 4.791016
431.1060, 126.7578
432.2990, 50.30078
433.4920, 253.3105
434.6840, 322.2988
435.8770, 305.2598
437.0690, 341.2031
438.2610, 435.1211
439.4530, 805.0156
440.6450, 936.8926
441.8360, 1175.748
443.0280, 1417.584
444.2190, 1596.402
445.4100, 1871.203
446.6010, 2072.988
447.7920, 2298.758
448.9820, 2816.514
450.1730, 2756.254
451.3630, 3201.980
452.5530, 3313.695
453.7430, 3455.400
454.9330, 3402.088
456.1230, 3294.646
457.3120, 3068.436
458.5010, 2884.098
459.6910, 2749.756
460.8800, 2532.721
462.0680, 2928.377
463.2570, 2755.035
464.4460, 3649.693
465.6340, 3869.363
466.8220, 4695.039
468.0100, 5199.719
469.1980, 6399.410
470.3860, 7266.111
471.5730, 8155.818
472.7600, 9254.539
473.9480, 10014.27
475.1350, 10299.00
476.3210, 9974.740
477.5080, 9226.488
478.6950, 8224.254
479.8810, 7463.021
481.0670, 6789.803
482.2530, 6237.588
483.4390, 5479.385
484.6250, 5181.191
485.8100, 4641.008
486.9960, 4170.832
488.1810, 3950.664
489.3660, 3429.508
490.5510, 3335.359
491.7360, 3480.223
492.9200, 3222.094
494.1050, 3329.977
495.2890, 3513.910
496.4730, 3856.920
497.6570, 4299.023
498.8400, 4895.209
500.0240, 5934.488
501.2070, 7156.854
502.3910, 8794.285
503.5740, 10926.78
504.7570, 13100.38
505.9400, 15471.01
507.1220, 18674.72
508.3050, 21710.54
509.4870, 24689.45
510.6690, 27341.45
511.8510, 29094.52
513.0330, 28905.65
514.2140, 27039.84
515.3960, 24333.07
516.5770, 20184.35
517.7580, 16831.65
518.9390, 13470.98
520.1200, 10679.33
521.3010, 8624.926
522.4810, 6724.312
523.6610, 5652.713
524.8420, 4779.510
526.0220, 3911.441
527.2010, 3290.443
528.3810, 2775.623
529.5610, 2330.045
530.7400, 2096.969
531.9190, 1816.154
533.0980, 1637.123
534.2770, 1467.932
535.4560, 1312.570
536.6340, 1304.836
537.8120, 1174.389
538.9910, 1163.953
540.1690, 1081.418
541.3460, 902.2480
542.5240, 898.2227
543.7020, 828.8379
544.8790, 646.7773
546.0560, 679.7754
547.2330, 671.4316
548.4100, 558.8848
549.5870, 620.6582
550.7630, 443.1973
551.9400, 386.9004
553.1160, 355.7129
554.2920, 445.4414
555.4680, 486.1797
556.6440, 469.7207
557.8190, 517.8027
558.9950, 450.8438
560.1700, 406.2930
561.3450, 362.9277
562.5200, 382.7324
563.6950, 364.8555
564.8690, 239.7910
566.0440, 392.6660
567.2180, 337.6914
568.3920, 352.4746
569.5660, 461.3242
570.7400, 320.2090
571.9130, 361.1680
573.0870, 457.0859
574.2600, 323.0176
575.4330, 478.9609
576.6060, 127.9219
577.7790, 332.8984
578.9520, 418.8867
580.1240, 348.8887
581.2960, 523.9082
582.4690, 476.9395
583.6410, 314.9844
584.8120, 248.0449
585.9840, 404.1211
587.1560, 447.2109
588.3270, 229.3145
589.4980, 511.4375
590.6690, 184.5723
591.8400, 427.7246
593.0110, 344.8906
594.1810, 164.0723
595.3510, 97.26953
596.5220, 250.4844
597.6920, 157.7168
598.8610, 123.9668
600.0310, 44.23242
601.2010, 16.48438
602.3700, 223.8066
603.5390, 196.1152
604.7080, 235.4512
605.8770, 135.8047
607.0460, 259.1738
608.2140, 411.5586
609.3830, 331.9551
610.5510, 443.3730
611.7190, 352.8047
612.8870, 372.2520
614.0550, 315.7129
615.2220, 344.2246
616.3900, 141.7773
617.5570, 226.3555
618.7240, 408.9727
619.8910, 677.6035
621.0580, 414.2793
622.2240, 498.9727
623.3910, 489.6914
624.5570, 752.4414
625.7230, 850.2090
626.8890, 840.0039
628.0550, 943.8145
629.2200, 949.6484
630.3860, 894.4824
631.5510, 905.3398
632.7160, 768.2383
633.8810, 578.1602
635.0460, 632.0957
636.2100, 552.0566
637.3750, 640.0352
638.5390, 471.0273
639.7030, 495.0312
640.8670, 458.0488
642.0310, 355.0898
643.1950, 503.1719
644.3580, 315.2910
645.5210, 563.4199
646.6850, 527.5605
647.8480, 554.7129
649.0100, 511.8750
650.1730, 589.0449
651.3350, 542.0840
652.4980, 525.6250
653.6600, 501.6113
654.8220, 487.8145
655.9840, 495.0273
657.1450, 545.2871
658.3070, 554.5684
659.4680, 281.8984
660.6300, 390.2539
661.7910, 357.6602
662.9510, 407.0840
664.1120, 387.5117
665.2730, 331.9648
666.4330, 325.4355
667.5930, 35.92969
668.7530, 226.4531
669.9130, 440.9961
671.0730, 64.57031
672.2320, 130.1582
673.3920, 24.79102
674.5510, 138.5645
675.7100, 19.98438
676.8690, 152.5938
678.0280, 15.17773
679.1860, 1.238281
680.3450, 33.34375
681.5030, 123.0586
682.6610, 102.4863
683.8190, 120.9668
684.9770, 71.47852
686.1340, 127.9844
687.2920, 12.55273
688.4490, 135.0918
689.6060, 158.6953
690.7630, 25.62695
691.9200, 98.04883
693.0760, 179.2344
694.2330, 111.1074
695.3890, 61.39062
696.5450, 144.2754
697.7010, 50.00586
698.8570, 37.26562
700.0130, 96.50391
701.1680, 190.7012
702.3230, 32.09766
703.4780, 143.1211
704.6330, 14.35742
705.7880, 105.6094
706.9430, 35.91211
708.0970, 48.26562
709.2520, 89.63672
710.4060, 25.59180
711.5600, 31.23047
712.7140, 135.5879
713.8670, 249.9395
715.0210, 106.6543
716.1740, 197.0020
717.3270, 460.3496
718.4800, 260.7988
719.6330, 283.1387
720.7860, 410.4746
721.9380, 273.8066
723.0910, 202.1348
724.2430, 48.46289
725.3950, 290.7832
726.5470, 434.1016
727.6980, 435.8418
728.8500, 396.2129
730.0010, 395.5176
731.1530, 575.2207
732.3040, 645.5156
733.4550, 532.0820
734.6050, 591.9609
735.7560, 550.5020
736.9060, 831.2852
738.0560, 705.9844
739.2060, 836.2441
740.3560, 650.2734
741.5060, 1136.600
742.6560, 880.9785
743.8050, 942.2109
744.9540, 1194.828
746.1030, 1146.064
747.2520, 1197.551
748.4010, 1242.779
749.5500, 1203.115
750.6980, 1183.771
751.8460, 1194.283
752.9950, 1076.641
754.1420, 1135.643
755.2900, 1095.828
756.4380, 951.3398
757.5850, 1105.684
758.7330, 1047.566
759.8800, 1099.293
761.0270, 1084.986
762.1730, 1106.777
763.3200, 886.0703
764.4670, 1170.896
765.6130, 1078.598
766.7590, 1114.885
767.9050, 1266.191
769.0510, 1076.637
770.1960, 1078.988
771.3420, 967.8262
772.4870, 968.3184
773.6320, 884.7051
774.7770, 832.3008
775.9220, 756.4219
777.0670, 731.5820
778.2110, 726.1602
779.3560, 699.2656
780.5000, 606.5938
781.6440, 579.6113
782.7880, 648.9238
783.9320, 461.5918
785.0750, 510.9648
786.2180, 458.0723
787.3620, 751.4766
788.5050, 592.2109
789.6480, 700.5547
790.7900, 574.1836
791.9330, 785.8613
793.0750, 699.5312
794.2170, 975.4648
795.3590, 696.7227
796.5010, 969.2188
797.6430, 877.2793
798.7850, 702.7500
799.9260, 727.6973
801.0670, 821.9707
802.2080, 1007.238
803.3490, 946.0176
804.4900, 1281.229
805.6310, 1182.373
806.7710, 1220.959
807.9110, 1686.891
809.0510, 1514.094
810.1910, 1743.975
811.3310, 1739.607
812.4710, 1744.799
813.6100, 1818.629
814.7490, 1576.883
815.8880, 1269.115
817.0270, 1213.197
818.1660, 912.0781
819.3050, 819.4395
820.4430, 698.5742
821.5820, 545.3750
822.7200, 645.1055
823.8580, 270.1719
824.9950, 512.1934
826.1330, 471.0234
827.2710, 330.5508
828.4080, 464.7891
829.5450, 247.6406
830.6820, 54.56250
831.8190, 338.6465
832.9560, 180.5176
834.0920, 169.7324
835.2280, 179.3242
836.3650, 348.1250
837.5010, 342.7148
838.6360, 338.5000
839.7720, 197.6797
840.9080, 192.3867
842.0430, 421.0703
843.1780, 212.7344
844.3130, 245.3711
845.4480, 195.9824
846.5830, 97.57031
847.7170, 81.81641
848.8520, 308.3457
849.9860, 388.8516
851.1200, 109.3359
852.2540, 349.7891
853.3870, 255.2188
854.5210, 173.6230
855.6540, 443.0039
856.7880, 309.3574
857.9210, 251.6895
859.0540, 344.9961
860.1860, 286.2754
861.3190, 222.5332
862.4510, 306.7637
863.5840, 105.9688
864.7160, 194.1465
865.8480, 358.2969
866.9790, 114.4238
868.1110, 349.5195
869.2420, 146.5918
870.3740, 71.63281
871.5050, 151.6445
872.6360, 93.63086
873.7660, 113.5859
874.8970, 307.5117
876.0280, 197.4121
877.1580, 201.2871
878.2880, 10.86523
879.4180, 325.9316
880.5480, 128.6992
881.6770, 218.4375
882.8070, 158.1484
883.9360, 103.8340
885.0650, 270.4883
886.1940, 196.1152
887.3230, 147.7168
888.4520, 90.70898
889.5800, 53.23633
890.7090, 1.162109
891.8370, 55.49023
892.9650, 179.7812
894.0930, 67.97656
895.2200, 84.18164
896.3480, 1.693359
897.4750, 29.47656
898.6020, 92.39258
899.7290, 4.626953
900.8560, 78.30078
901.9830, 174.1953
903.1090, 28.06445
904.2360, 130.8926
905.3620, 62.30859
906.4880, 10.41016
907.6140, 111.0820
908.7400, 6.275391
909.8650, 31.31250
910.9900, 170.8672
912.1160, 177.3945
913.2410, 73.89062
914.3660, 2.349609
915.4900, 97.23242
916.6150, 44.91406
917.7390, 122.3281
918.8640, 53.54102
919.9880, 99.75000
921.1120, 158.9023
922.2350, 84.02148
923.3590, 288.1133
924.4820, 90.18359
925.6060, 46.22656
926.7290, 255.2344
927.8520, 238.2188
928.9740, 128.8203
930.0970, 22.97656
931.2190, 122.9727
932.3420, 52.88672
933.4640, 28.26953
934.5860, 4.625000
935.7080, 64.58594
936.8290, 62.30859
937.9510, 167.3594
939.0720, 63.07031
940.1930, 69.64453
941.3140, 24.18750
942.4350, 108.5391
943.5560, 52.43359
944.6760, 109.7227
945.7960, 162.9805
946.9170, 383.2539
948.0370, 169.4922
949.1560, 496.7070
950.2760, 299.8984
951.3960, 562.0664
952.5150, 14.78906
953.6340, 98.30078
954.7530, 247.3906
955.8720, 289.4805
956.9910, 341.5703
958.1090, 329.7070
959.2280, 106.7148
960.3460, 197.7539
961.4640, 141.7969
962.5820, 9.859375
963.6990, 237.8945
964.8170, 252.9336
965.9340, 187.3594
967.0510, 335.3477
968.1690, 117.2656
969.2850, 51.17188
970.4020, 506.0820
971.5190, 363.0039
972.6350, 326.9258
973.7510, 264.8242
974.8670, 324.6992
975.9830, 424.5586
977.0990, 508.3906
978.2150, 324.1992
979.3300, 695.9805
980.4450, 519.7500
981.5600, 384.0898
982.6750, 473.3633
983.7900, 729.0781
984.9050, 673.7773
986.0190, 738.0859
987.1340, 525.8047
988.2480, 747.5273
989.3620, 768.1328
990.4750, 679.8359
991.5890, 850.5156
992.7020, 983.1719
993.8160, 875.8125
994.9290, 958.4297
996.0420, 963.0273
997.1550, 1018.598
998.2670, 1132.719
999.3800, 1116.184
1000.492, 1179.609
1001.604, 1223.766
1002.716, 1184.227
1003.828, 1137.387
1004.940, 1023.207
1006.051, 1263.344
1007.163, 975.2109
1008.274, 703.1328
1009.385, 901.4688
1010.496, 1055.695
1011.606, 912.9141
1012.717, 843.0469
1013.827, 841.3281
1014.937, 806.2031
1016.047, 855.4180
1017.157, 703.3633
1018.267, 624.0586
1019.377, 963.2656
1020.486, 835.3281
1021.595, 903.1641
1022.704, 870.1250
1023.813, 633.4102
1024.922, 642.0977
1026.030, 638.2070
1027.139, 698.0664
1028.247, 674.3594
1029.355, 724.6680
1030.463, 756.7695
1031.571, 812.8672
1032.678, 801.2617
1033.786, 871.4688
1034.893, 829.7656
1036.000, 781.4414
1037.107, 799.0703
1038.214, 629.5312
1039.321, 836.0586
1040.427, 571.0664
1041.533, 832.3867
1042.639, 444.4023
1043.745, 763.0156
1044.851, 414.5391
1045.957, 438.0664
1047.062, 538.1367
1048.168, 448.6914
1049.273, 337.9570
1050.378, 314.5000
1051.482, 431.7188
1052.587, 156.0234
1053.692, 382.3867
1054.796, 212.1055
1055.900, 233.1328
1057.004, 346.7617
1058.108, 370.5078
1059.212, 189.4375
1060.315, 296.3906
1061.418, 189.9531
1062.522, 248.8477
1063.625, 6.753906
1064.728, 132.4336
1065.830, 377.9219
1066.933, 112.5117
1068.035, 0.7500000
1069.137, 319.4609
1070.239, 388.1445
1071.341, 71.89062
1072.443, 59.56641
1073.545, 265.9492
1074.646, 349.8281
1075.747, 1.671875
1076.848, 421.4844
1077.949, 492.7148
1079.050, 125.7461
1080.150, 356.0742
1081.251, 453.4961
1082.351, 343.4648
1083.451, 396.8828
1084.551, 377.1680
1085.651, 452.7461
1086.750, 435.4609
1087.850, 463.6250
1088.949, 445.6523
1090.048, 508.1914
1091.147, 545.4219
1092.246, 602.7109
1093.345, 692.2109
1094.443, 663.2969
1095.541, 693.4219
1096.639, 719.9609
1097.737, 890.2383
1098.835, 804.8242
1099.933, 602.9609
1101.030, 746.4023
1102.128, 922.7422
1103.225, 643.8320
1104.322, 898.9180
1105.419, 773.9961
1106.515, 940.0781
1107.612, 1016.148
1108.708, 893.2266
1109.804, 1042.273
1110.900, 969.7891
1111.996, 1214.199
1113.092, 1118.543
1114.187, 1493.523
1115.283, 1286.977
1116.378, 1758.590
1117.473, 1678.926
1118.568, 1690.914
1119.662, 2230.199
1120.757, 2410.906
1121.851, 2304.336
1122.946, 2120.254
1124.040, 2070.668
1125.134, 1971.012
1126.227, 1957.629
1127.321, 2047.520
1128.414, 2004.367
1129.508, 2047.195
1130.601, 2102.012
1131.693, 1911.816
1132.786, 2125.953
1133.879, 2147.977
1134.971, 1892.742
1136.064, 2260.035
1137.156, 2116.281
1138.248, 1982.711
1139.339, 2078.426
1140.431, 1927.121
1141.522, 2060.770
1142.614, 1818.441
1143.705, 1809.227
1144.796, 1508.633
1145.887, 1516.207
1146.977, 1319.840
1148.068, 1233.891
1149.158, 1210.793
1150.248, 907.4023
1151.338, 914.0938
1152.428, 883.3516
1153.518, 750.8984
1154.607, 608.4688
1155.696, 670.0430
1156.785, 462.7578
1157.874, 635.3516
1158.963, 688.9258
1160.052, 616.0000
1161.141, 557.1914
1162.229, 621.4609
1163.317, 484.0391
1164.405, 497.1992
1165.493, 460.8672
1166.581, 364.5391
1167.668, 378.2539
1168.756, 283.9883
1169.843, 403.8125
1170.930, 499.4766
1172.017, 478.0000
1173.103, 515.9141
1174.190, 488.7734
1175.276, 422.8516
1176.363, 394.4336
1177.449, 236.0273
1178.535, 168.9531
1179.620, 348.5820
1180.706, 350.5547
1181.791, 212.2773
1182.877, 64.75781
1183.962, 112.2031
1185.047, 84.65234
1186.131, 171.0859
1187.216, 314.5078
1188.300, 24.08984
1189.385, 117.7969
1190.469, 92.15625
1191.553, 367.5000
1192.637, 29.83203
1193.720, 500.1797
1194.804, 169.9375
1195.887, 33.71875
1196.970, 272.6445
1198.053, 144.9219
1199.136, 187.7148
1200.219, 396.0625
1201.301, 98.60156
1202.383, 315.3867
1203.465, 19.68750
1204.547, 27.53906
1205.629, 307.7422
1206.711, 119.3633
1207.792, 86.54297
1208.874, 277.7109
1209.955, 358.8164
1211.036, 93.94922
1212.117, 30.20312
1213.198, 159.2969
1214.278, 295.3711
1215.359, 235.4297
1216.439, 157.7695
1217.519, 63.97656
1218.599, 11.02734
1219.678, 122.9883
1220.758, 227.8594
1221.837, 51.93359
1222.917, 90.83984
1223.996, 129.7266
1225.075, 53.39844
1226.153, 78.42578
1227.232, 349.2500
1228.310, 46.06250
1229.389, 252.8516
1230.467, 13.62109
1231.545, 325.3906
1232.622, 261.1406
1233.700, 262.9414
1234.777, 304.6602
1235.855, 272.2383
1236.932, 271.9336
1238.009, 199.6523
1239.086, 250.6562
1240.162, 89.28906
1241.239, 111.9023
1242.315, 125.9570
1243.391, 27.64062
1244.467, 95.88672
1245.543, 55.39453
1246.619, 116.8750
1247.694, 250.6602
1248.769, 64.35938
1249.844, 37.87891
1250.919, 17.69141
1251.994, 265.4570
1253.069, 85.58203
1254.144, 102.0703
1255.218, 29.15625
1256.292, 311.4727
1257.366, 555.5117
1258.440, 288.8906
1259.514, 228.8984
1260.587, 294.8906
1261.661, 127.3320
1262.734, 152.2891
1263.807, 215.2266
1264.880, 81.14453
1265.952, 90.04297
1267.025, 41.91406
1268.097, 265.7656
1269.170, 479.5977
1270.242, 11.41406
1271.314, 270.7227
1272.385, 181.4922
1273.457, 82.75391
1274.528, 14.92188
1275.600, 287.5742
1276.671, 108.2031
1277.742, 139.8125
1278.812, 86.59375
1279.883, 183.9180
1280.954, 45.41016
1282.024, 296.1250
1283.094, 373.7109
1284.164, 11.29688
1285.234, 178.7031
1286.303, 368.7070
1287.373, 298.0742
1288.442, 95.56250
