##NAMES=Microcline
##RRUFFID=R050054
##IDEAL CHEMISTRY=KAlSi_3_O_8_
##LOCALITY=Kenticha, Negele area, Sidamo Province, Ethiopia
##OWNER=RRUFF
##SOURCE=Rock Currier
##DESCRIPTION=Light blue single crystal
##STATUS=The identification of this mineral has been confirmed by X-ray diffraction and chemical analysis
##URL=rruff.info/R050054
##MEASURED CHEMISTRY=(K_0.96_Na_0.04_)Al_1.00_Si_3.00_O_8_
##PIN_ID=M00161
##ORIENTATION=Laser parallel to a* (1 0 0). Fiducial mark perpendicular to laser is parallel to -b [0 -1 0]
87.329, 0.000
88.728, 6.122
90.128, 203.850
91.527, 583.591
92.926, 854.392
94.324, 1131.151
95.723, 1107.965
97.121, 718.240
98.519, 414.221
99.917, 409.023
101.314, 390.491
102.712, 505.622
104.109, 858.398
105.505, 1175.430
106.902, 1912.949
108.298, 2773.795
109.694, 3532.741
111.090, 3379.190
112.486, 2893.809
113.881, 2821.997
115.277, 1067.360
116.672, 664.706
118.066, 253.076
119.461, 107.607
120.855, 145.222
122.249, 310.324
123.643, 693.525
125.036, 1136.963
126.430, 1423.324
127.823, 1639.137
129.216, 1521.995
130.608, 1180.664
132.001, 679.131
133.393, 528.378
134.785, 203.621
136.176, 164.045
137.568, 228.255
138.959, 479.879
140.350, 709.378
141.741, 820.864
143.131, 1114.578
144.521, 1533.460
145.911, 2423.790
147.301, 3786.935
148.691, 5161.279
150.080, 6018.726
151.469, 6051.856
152.858, 5323.820
154.247, 4303.217
155.635, 3484.415
157.024, 2983.778
158.411, 2443.088
159.799, 2091.039
161.187, 1693.794
162.574, 1351.924
163.961, 1127.522
165.348, 953.799
166.734, 849.209
168.121, 688.086
169.507, 714.533
170.893, 634.259
172.278, 773.073
173.664, 929.108
175.049, 1108.374
176.434, 1628.866
177.819, 2102.563
179.203, 2393.451
180.587, 2281.512
181.971, 1856.723
183.355, 1422.058
184.739, 1103.494
186.122, 787.013
187.505, 587.604
188.888, 453.954
190.271, 372.699
191.653, 413.664
193.035, 445.399
194.417, 632.140
195.799, 852.871
197.180, 1175.311
198.562, 1458.656
199.943, 1505.555
201.324, 1346.196
202.704, 980.418
204.084, 645.752
205.465, 419.677
206.844, 318.058
208.224, 224.300
209.603, 107.626
210.983, 60.141
212.362, 13.470
213.740, 16.123
215.119, 10.678
216.497, 18.285
217.875, 34.108
219.253, 89.499
220.631, 109.390
222.008, 112.204
223.385, 65.936
224.762, 114.775
226.139, 103.131
227.515, 95.633
228.891, 154.323
230.267, 133.575
231.643, 132.984
233.018, 133.609
234.394, 121.815
235.769, 105.635
237.144, 104.372
238.518, 34.214
239.893, 16.570
241.267, 6.613
242.641, 20.307
244.014, 23.489
245.388, 94.879
246.761, 93.047
248.134, 206.047
249.507, 324.919
250.879, 506.697
252.252, 726.419
253.624, 1042.885
254.996, 1493.593
256.367, 2116.133
257.739, 2578.138
259.110, 2704.650
260.481, 2643.301
261.852, 2494.848
263.222, 2632.577
264.592, 2890.244
265.962, 3159.583
267.332, 3240.716
268.702, 2855.908
270.071, 2436.857
271.440, 1897.696
272.809, 1546.243
274.178, 1361.457
275.546, 1248.518
276.915, 1210.050
278.283, 1357.218
279.650, 1783.114
281.018, 2185.755
282.385, 2936.227
283.752, 3668.533
285.119, 4358.659
286.486, 4805.594
287.852, 4453.322
289.218, 4011.832
290.584, 3188.110
291.950, 2703.155
293.316, 2350.955
294.681, 2022.510
296.046, 1801.854
297.411, 1658.006
298.775, 1601.974
300.140, 1344.667
301.504, 1196.961
302.868, 964.282
304.231, 742.520
305.595, 705.562
306.958, 533.451
308.321, 439.200
309.684, 405.810
311.047, 312.275
312.409, 315.554
313.771, 288.604
315.133, 295.349
316.495, 240.762
317.856, 243.840
319.217, 259.500
320.578, 250.774
321.939, 260.653
323.299, 294.132
324.660, 325.220
326.020, 427.939
327.380, 490.331
328.739, 635.500
330.099, 786.494
331.458, 920.187
332.817, 1000.102
334.176, 902.083
335.534, 772.708
336.892, 575.893
338.251, 518.480
339.608, 319.024
340.966, 347.522
342.323, 312.973
343.681, 314.375
345.037, 360.728
346.394, 267.031
347.751, 313.282
349.107, 366.483
350.463, 417.366
351.819, 503.764
353.174, 556.785
354.530, 691.510
355.885, 754.550
357.240, 856.810
358.594, 854.813
359.949, 733.635
361.303, 689.410
362.657, 565.126
364.011, 526.783
365.365, 515.370
366.718, 580.884
368.071, 699.570
369.424, 863.248
370.777, 1248.027
372.129, 1376.883
373.481, 1569.001
374.833, 1257.011
376.185, 1023.625
377.537, 744.092
378.888, 566.914
380.239, 443.264
381.590, 382.640
382.941, 282.543
384.291, 275.205
385.642, 234.707
386.992, 205.133
388.341, 216.514
389.691, 197.658
391.040, 177.288
392.389, 247.254
393.738, 255.548
395.087, 249.905
396.435, 330.251
397.784, 487.370
399.132, 683.535
400.479, 1098.812
401.827, 1625.529
403.174, 2329.399
404.521, 2617.946
405.868, 2866.035
407.215, 1443.308
408.561, 982.279
409.908, 910.261
411.254, 1821.700
412.599, 812.154
413.945, 852.430
415.290, 665.631
416.636, 535.828
417.980, 323.969
419.325, 238.050
420.670, 126.066
422.014, 90.014
423.358, 103.893
424.702, 42.702
426.045, 34.441
427.389, 85.108
428.732, 103.708
430.075, 56.239
431.417, 79.702
432.760, 68.125
434.102, 97.534
435.444, 133.898
436.786, 126.187
438.127, 207.783
439.469, 247.097
440.810, 267.274
442.151, 313.465
443.492, 401.824
444.832, 441.715
446.172, 617.635
447.512, 811.431
448.852, 1124.790
450.192, 1570.665
451.531, 2209.817
452.870, 2871.596
454.209, 3337.229
455.548, 3498.836
456.887, 2965.332
458.225, 2527.792
459.563, 2175.124
460.901, 1894.447
462.238, 1850.695
463.576, 1848.903
464.913, 2070.071
466.250, 2207.034
467.587, 2736.807
468.923, 3445.823
470.259, 4452.409
471.596, 6120.819
472.931, 8051.723
474.267, 11077.626
475.603, 12893.276
476.938, 13148.957
478.273, 12114.159
479.608, 9649.365
480.942, 7754.686
482.276, 6209.923
483.611, 5480.232
484.944, 4890.820
486.278, 4064.633
487.612, 3375.867
488.945, 2525.355
490.278, 2037.446
491.611, 1783.030
492.943, 1481.598
494.276, 1452.154
495.608, 1338.698
496.940, 1428.230
498.271, 1420.068
499.603, 1555.664
500.934, 1883.423
502.265, 2205.300
503.596, 2775.031
504.927, 3508.767
506.257, 4558.696
507.587, 6349.195
508.917, 8217.925
510.247, 11623.875
511.577, 15010.042
512.906, 18896.574
514.235, 20933.334
515.564, 18870.670
516.892, 16068.174
518.221, 11925.618
519.549, 9003.100
520.877, 6677.859
522.205, 4903.388
523.533, 3949.556
524.860, 2977.215
526.187, 2571.445
527.514, 2036.408
528.841, 1804.668
530.167, 1498.352
531.493, 1268.013
532.820, 1115.973
534.145, 960.353
535.471, 831.991
536.796, 837.383
538.122, 624.171
539.447, 684.325
540.771, 559.007
542.096, 501.751
543.420, 465.052
544.744, 358.537
546.068, 422.873
547.392, 335.266
548.715, 299.660
550.039, 285.173
551.362, 245.726
552.684, 223.188
554.007, 226.863
555.329, 183.137
556.652, 199.874
557.973, 204.133
559.295, 180.448
560.617, 187.820
561.938, 126.233
563.259, 147.677
564.580, 86.697
565.901, 144.204
567.221, 118.327
568.541, 118.087
569.861, 125.134
571.181, 103.699
572.501, 142.270
573.820, 102.840
575.139, 139.413
576.458, 177.983
577.777, 156.501
579.095, 217.665
580.414, 227.366
581.732, 258.924
583.049, 290.546
584.367, 309.920
585.685, 289.764
587.002, 240.833
588.319, 220.494
589.636, 111.965
590.952, 54.543
592.268, 41.083
593.585, 35.754
594.900, 37.586
596.216, 11.606
597.532, 2.550
598.847, 19.880
600.162, 37.697
601.477, 11.200
602.792, 31.709
604.106, 27.771
605.420, 31.752
606.734, 19.283
608.048, 36.816
609.361, 15.357
610.675, 1.096
611.988, 21.547
613.301, 15.996
614.614, 31.444
615.926, 28.891
617.238, 70.338
618.550, 39.785
619.862, 52.231
621.174, 82.679
622.485, 57.127
623.797, 150.576
625.108, 137.228
626.418, 162.680
627.729, 279.138
629.039, 275.604
630.349, 334.152
631.659, 308.226
632.969, 316.667
634.279, 250.172
635.588, 243.687
636.897, 289.262
638.206, 227.815
639.515, 234.534
640.823, 345.249
642.131, 377.948
643.439, 444.665
644.747, 499.263
646.055, 579.870
647.362, 748.484
648.669, 807.103
649.976, 946.723
651.283, 1049.346
652.589, 1109.971
653.896, 1084.598
655.202, 949.229
656.508, 847.864
657.814, 748.505
659.119, 560.156
660.424, 511.816
661.729, 348.485
663.034, 346.164
664.339, 267.852
665.643, 236.550
666.947, 131.258
668.251, 102.974
669.555, 125.698
670.859, 55.428
672.162, 81.163
673.465, 4.900
674.768, 17.872
676.071, 8.611
677.373, 4.648
678.676, 2.482
679.978, 47.791
681.280, 17.969
682.581, 8.252
683.883, 60.852
685.184, 39.158
686.485, 2.467
687.786, 46.410
689.087, 31.592
690.387, 39.725
691.687, 81.205
692.987, 37.615
694.287, 42.636
695.586, 11.693
696.886, 70.071
698.185, 17.366
699.484, 65.885
700.783, 25.553
702.081, 229.999
703.379, 31.301
704.677, 49.154
705.975, 51.406
707.273, 106.916
708.570, 123.383
709.868, 174.922
711.165, 164.641
712.462, 182.394
713.758, 189.995
715.055, 143.842
716.351, 158.989
717.647, 76.872
718.943, 82.584
720.238, 6.963
721.533, 132.851
722.829, 20.406
724.124, 40.811
725.418, 111.602
726.713, 104.071
728.007, 120.498
729.301, 131.419
730.595, 139.373
731.889, 179.274
733.182, 171.095
734.476, 180.548
735.769, 213.044
737.061, 268.207
738.354, 329.997
739.647, 433.685
740.939, 519.192
742.231, 632.668
743.523, 787.263
744.814, 1107.677
746.106, 1386.182
747.397, 1749.000
748.688, 2041.327
749.978, 2066.631
751.269, 2056.007
752.559, 1561.287
753.849, 1324.837
755.139, 1103.068
756.429, 821.223
757.719, 713.389
759.008, 492.724
760.297, 504.972
761.586, 457.763
762.875, 402.439
764.163, 412.698
765.451, 347.484
766.739, 326.590
768.027, 358.821
769.315, 299.990
770.602, 206.220
771.890, 211.435
773.177, 149.727
774.463, 167.978
775.750, 94.256
777.036, 111.528
778.323, 76.792
779.609, 33.051
780.894, 157.300
782.180, 105.542
783.465, 138.778
784.750, 59.006
786.035, 52.227
787.320, 24.439
788.605, 82.672
789.889, 97.867
791.173, 66.054
792.457, 74.233
793.741, 38.404
795.024, 41.605
796.307, 48.720
797.591, 46.865
798.873, 89.001
800.156, 108.129
801.439, 102.250
802.721, 97.362
804.003, 139.467
805.285, 140.563
806.566, 132.652
807.848, 171.732
809.129, 203.805
810.410, 344.870
811.691, 392.926
812.971, 478.974
814.252, 563.014
815.532, 539.046
816.812, 509.070
818.092, 388.085
819.371, 307.092
820.651, 225.090
821.930, 190.080
823.209, 134.062
824.488, 159.035
825.766, 152.999
827.045, 115.955
828.323, 38.757
829.601, 98.603
830.878, 81.400
832.156, 32.894
833.433, 77.599
834.710, 52.165
835.987, 78.073
837.264, 20.356
838.540, 76.171
839.817, 67.048
841.093, 26.490
842.369, 34.946
843.644, 30.099
844.920, 9.769
846.195, 68.314
847.470, 53.937
848.745, 5.578
850.020, 38.216
851.294, 0.028
852.568, 53.591
853.842, 39.279
855.116, 50.862
856.390, 14.465
857.663, 50.105
858.936, 38.834
860.209, 52.530
861.482, 1.935
862.755, 45.644
864.027, 71.785
865.299, 15.735
866.571, 30.246
867.843, 11.750
869.115, 3.244
870.386, 9.707
871.657, 16.187
872.928, 35.359
874.199, 8.527
875.470, 29.938
876.740, 19.847
878.010, 10.608
879.280, 52.797
880.550, 3.838
881.820, 5.511
883.089, 22.149
884.358, 3.835
885.627, 11.535
886.896, 37.747
888.164, 26.022
889.433, 16.290
890.701, 55.551
891.969, 11.806
893.236, 20.053
894.504, 26.293
895.771, 26.472
897.038, 45.736
898.305, 17.939
899.572, 3.136
900.838, 47.322
902.105, 46.502
903.371, 21.679
904.637, 4.849
905.902, 3.013
907.168, 59.168
908.433, 60.319
909.698, 7.469
910.963, 63.614
912.228, 47.758
913.492, 0.095
914.757, 8.954
916.021, 11.824
917.285, 45.295
918.548, 64.413
919.812, 23.526
921.075, 89.634
922.338, 73.738
923.601, 111.837
924.864, 35.931
926.126, 79.021
927.388, 103.106
928.650, 31.186
929.912, 99.261
931.174, 62.331
932.435, 149.196
933.697, 76.257
934.958, 58.313
936.218, 89.365
937.479, 51.339
938.739, 51.280
940.000, 16.443
941.260, 70.510
942.520, 103.096
943.779, 115.300
945.039, 46.347
946.298, 82.077
947.557, 75.801
948.816, 67.827
950.074, 118.332
951.333, 61.175
952.591, 110.874
953.849, 117.910
955.107, 144.467
956.365, 128.744
957.622, 126.067
958.879, 165.679
960.136, 181.870
961.393, 161.259
962.650, 189.029
963.906, 130.341
965.162, 147.509
966.418, 197.406
967.674, 178.906
968.930, 207.438
970.185, 218.047
971.441, 147.257
972.696, 184.016
973.950, 170.972
975.205, 176.925
976.459, 275.875
977.714, 256.823
978.968, 283.768
980.222, 251.478
981.475, 270.419
982.729, 296.358
983.982, 270.919
985.235, 366.856
986.488, 351.703
987.740, 402.653
988.993, 530.920
990.245, 647.882
991.497, 693.838
992.749, 940.426
994.000, 994.244
995.252, 1178.011
996.503, 1041.115
997.754, 966.130
999.005, 1002.747
1000.256, 809.387
1001.506, 835.347
1002.756, 749.476
1004.006, 708.543
1005.256, 766.568
1006.506, 612.644
1007.755, 560.956
1009.005, 452.029
1010.254, 373.078
1011.502, 422.189
1012.751, 311.349
1014.000, 344.442
1015.248, 305.375
1016.496, 321.279
1017.744, 342.348
1018.991, 326.033
1020.239, 304.687
1021.486, 333.470
1022.733, 327.420
1023.980, 355.700
1025.227, 403.463
1026.473, 419.555
1027.719, 542.792
1028.965, 556.638
1030.211, 587.802
1031.457, 583.016
1032.702, 491.730
1033.948, 485.892
1035.193, 454.141
1036.438, 485.949
1037.682, 502.121
1038.927, 542.248
1040.171, 503.299
1041.415, 503.497
1042.659, 476.508
1043.903, 469.621
1045.146, 510.765
1046.390, 584.847
1047.633, 621.053
1048.876, 691.167
1050.118, 757.940
1051.361, 819.157
1052.603, 800.592
1053.845, 812.746
1055.087, 751.627
1056.329, 636.464
1057.571, 643.690
1058.812, 479.940
1060.053, 451.932
1061.294, 414.166
1062.535, 354.079
1063.775, 288.838
1065.016, 239.093
1066.256, 202.194
1067.496, 217.436
1068.736, 213.684
1069.975, 177.900
1071.214, 187.244
1072.454, 140.537
1073.693, 255.793
1074.931, 170.058
1076.170, 211.324
1077.408, 191.594
1078.647, 147.868
1079.885, 175.143
1081.122, 140.420
1082.360, 188.712
1083.597, 244.001
1084.835, 232.498
1086.072, 270.801
1087.308, 243.106
1088.545, 263.482
1089.781, 316.764
1091.018, 282.130
1092.254, 299.521
1093.490, 418.838
1094.725, 398.158
1095.961, 474.480
1097.196, 425.805
1098.431, 466.210
1099.666, 514.621
1100.900, 428.054
1102.135, 617.457
1103.369, 595.829
1104.603, 586.172
1105.837, 639.519
1107.071, 653.565
1108.304, 680.217
1109.538, 732.568
1110.771, 843.922
1112.004, 868.354
1113.236, 1017.713
1114.469, 1110.076
1115.701, 1460.825
1116.933, 1730.206
1118.165, 1979.575
1119.397, 2439.292
1120.629, 2901.665
1121.860, 3598.040
1123.091, 3880.417
1124.322, 4042.891
1125.553, 4377.421
1126.783, 3805.803
1128.014, 3553.230
1129.244, 3021.616
1130.474, 2674.004
1131.704, 2502.557
1132.933, 2212.023
1134.163, 2067.546
1135.392, 2311.939
1136.621, 2136.531
1137.850, 2493.090
1139.079, 2427.504
1140.307, 2205.027
1141.535, 2249.591
1142.763, 1834.183
1143.991, 1678.590
1145.219, 1473.055
1146.446, 1118.470
1147.674, 1076.905
1148.901, 850.560
1150.128, 675.095
1151.354, 702.301
1152.581, 500.270
1153.807, 483.019
1155.033, 523.633
1156.259, 342.295
1157.485, 305.884
1158.710, 380.055
1159.936, 268.131
1161.161, 328.545
1162.386, 265.055
1163.611, 215.194
1164.835, 228.827
1166.060, 134.785
1167.284, 248.463
1168.508, 194.288
1169.732, 143.957
1170.955, 202.620
1172.179, 188.237
1173.402, 137.903
1174.625, 157.591
1175.848, 179.322
1177.070, 136.042
1178.293, 82.494
1179.515, 71.215
1180.737, 123.089
1181.959, 62.080
1183.181, 137.710
1184.402, 95.422
1185.624, 119.199
1186.845, 122.828
1188.066, 74.490
1189.286, 0.245
1190.507, 132.756
1191.727, 92.317
1192.947, 1.176
1194.167, 71.550
1195.387, 41.272
1196.607, 53.777
1197.826, 67.573
1199.045, 8.925
1200.264, 95.577
1201.483, 19.184
1202.702, 12.674
1203.920, 117.334
1205.138, 10.003
1206.356, 22.688
1207.574, 73.385
1208.792, 36.979
1210.009, 66.564
1211.227, 54.020
1212.444, 67.476
1213.661, 59.934
1214.877, 58.329
1216.094, 23.779
1217.310, 0.679
1218.526, 12.870
1219.742, 105.562
1220.958, 48.327
1222.173, 54.910
1223.389, 95.670
1224.604, 71.554
1225.819, 108.982
1227.034, 55.541
1228.248, 27.472
1229.463, 80.877
1230.677, 3.242
1231.891, 48.196
1233.105, 62.589
1234.318, 17.127
1235.532, 103.711
1236.745, 22.092
1237.958, 17.470
1239.171, 110.848
1240.384, 80.224
1241.596, 46.599
1242.809, 43.971
1244.021, 19.341
1245.233, 19.234
1246.444, 15.078
1247.656, 26.019
1248.867, 34.404
1250.079, 94.831
1251.290, 54.177
1252.500, 100.521
1253.711, 96.871
1254.921, 69.209
1256.132, 78.545
1257.342, 28.564
1258.552, 120.904
1259.761, 86.229
1260.971, 36.341
1262.180, 45.032
1263.389, 113.332
1264.598, 3.173
1265.807, 52.118
1267.015, 131.482
1268.223, 62.913
1269.432, 29.176
1270.640, 16.434
1271.847, 102.683
1273.055, 42.838
1274.262, 58.058
1275.470, 69.191
1276.677, 15.318
1277.883, 37.438
1279.090, 24.550
1280.296, 61.638
1281.503, 9.708
1282.709, 18.771
1283.915, 53.826
1285.120, 28.872
1286.326, 19.912
1287.531, 13.055
1288.736, 59.034
1289.941, 48.040
1291.146, 73.199
1292.350, 67.239
1293.555, 10.173
1294.759, 39.146
1295.963, 52.888
1297.167, 48.944
1298.370, 3.970
1299.574, 22.874
1300.777, 13.759
1301.980, 31.632
1303.183, 19.506
1304.386, 1.672
1305.588, 6.870
1306.790, 56.080
1307.993, 17.859
1309.195, 41.573
1310.396, 1.151
1311.598, 21.864
1312.799, 12.433
1314.000, 26.240
1315.201, 27.901
1316.402, 41.552
1317.603, 30.191
1318.803, 24.813
1320.003, 16.422
1321.203, 18.905
1322.403, 37.402
1323.603, 19.154
1324.802, 5.695
1326.002, 13.778
1327.201, 43.731
1328.400, 25.229
1329.599, 13.717
1330.797, 44.193
1331.995, 36.181
1333.194, 16.114
1334.392, 80.519
1335.589, 58.949
1336.787, 129.368
1337.985, 20.719
1339.182, 21.115
1340.379, 112.500
1341.576, 10.125
1342.772, 77.234
1343.969, 71.367
1345.165, 45.706
1346.361, 88.036
1347.557, 32.350
1348.753, 29.661
1349.949, 24.940
1351.144, 21.947
1352.339, 35.516
1353.534, 52.113
1354.729, 73.381
1355.924, 98.643
1357.118, 78.897
1358.312, 4.854
1359.506, 90.385
1360.700, 3.620
1361.894, 134.757
1363.088, 72.971
1364.281, 10.802
1365.474, 37.413
1366.667, 10.626
1367.860, 3.929
1369.052, 72.141
1370.245, 40.355
1371.437, 13.426
1372.629, 87.786
1373.821, 28.346
1375.013, 66.674
1376.204, 111.903
1377.395, 41.284
1378.586, 28.689
1379.777, 123.629
1380.968, 106.538
1382.159, 93.513
1383.349, 93.399
1384.539, 94.167
1385.729, 158.002
1386.919, 94.924
1388.109, 109.837
1389.298, 127.741
1390.487, 11.451
1391.676, 132.799
1392.865, 54.625
1394.054, 85.066
1395.242, 118.880
1396.431, 80.404
1397.619, 92.144
1398.807, 175.925
1399.995, 3.415
1401.182, 82.021
1402.370, 113.345
1403.557, 59.917
1404.744, 67.994
1405.931, 102.635
1407.118, 38.329
1408.304, 158.626
1409.490, 50.994
1410.676, 33.951
1411.862, 73.051
1413.048, 68.516
1414.234, 57.361
1415.419, 94.307
1416.604, 49.742
1417.789, 123.973
1418.974, 96.861
1420.159, 68.637
1421.343, 105.267
1422.528, 97.926
1423.712, 115.395
1424.896, 67.067
1426.079, 108.614
1427.263, 75.106
1428.446, 142.088
1429.629, 121.804
1430.812, 45.503
1431.995, 120.454
1433.178, 22.245
1434.360, 157.934
1435.543, 93.243
1436.725, 109.539
1437.907, 187.331
1439.088, 126.257
1440.270, 131.504
1441.451, 127.567
1442.632, 114.983
1443.813, 189.876
1444.994, 102.753
1446.175, 116.302
1447.355, 167.149
1448.535, 110.628
1449.715, 103.460
1450.895, 169.945
1452.075, 58.377
1453.255, 106.756
1454.434, 109.077
1455.613, 59.880
1456.792, 152.815
1457.971, 141.938
1459.149, 70.976
1460.328, 176.343
1461.506, 102.211
1462.684, 113.612
1463.862, 106.877
1465.040, 128.359
1466.217, 150.608
1467.395, 119.216
1468.572, 137.055
1469.749, 149.094
1470.925, 125.094
1472.102, 91.187
1473.278, 180.279
1474.455, 41.339
1475.631, 108.137
1476.807, 163.631
1477.982, 67.598
1479.158, 126.534
1480.333, 119.434
1481.508, 53.364
1482.683, 75.319
1483.858, 101.425
1485.033, 53.592
1486.207, 122.745
1487.381, 67.876
1488.555, 72.134
1489.729, 176.403
1490.903, 107.762
1492.076, 107.192
1493.250, 182.712
1494.423, 45.313
1495.596, 127.969
1496.769, 154.676
1497.941, 43.452
1499.114, 47.341
1500.286, 145.337
1501.458, 80.458
1502.630, 160.708
1503.802, 38.103
1504.973, 44.663
1506.145, 148.408
1507.316, 105.355
1508.487, 29.534
1509.657, 157.991
1510.828, 61.771
1511.999, 122.437
1513.169, 136.854
1514.339, 2.521
1515.509, 155.449
1516.678, 166.812
1517.848, 3.600
1519.017, 0.000
##END=



