##NAMES=Microcline
##RRUFFID=R050193
##IDEAL CHEMISTRY=KAlSi_3_O_8_
##LOCALITY=Devil's Head, Douglas County, Colorado, USA
##OWNER=RRUFF
##SOURCE=Dave Bunk Minerals
##DESCRIPTION=White to colorless heterogeneous mixture of K and Na feldspar in a cluster of crystals. Crystal structure determined, presented below. This sample is known as an intermediate microcline in the literature.
##STATUS=The identification of this mineral has been confirmed by X-ray diffraction and chemical analysis
##URL=rruff.info/R050193
##MEASURED CHEMISTRY=(K_0.929_Na_0.071_)(Al_1.005_Si_2.994_Fe_0.001_)O_7.993_F_0.007_  ; Light Band :  (Na_0.973_K_0.007_Ca_0.020_)(Al_1.020_Si_2.980_)O_8_ ; Dark Band
##PIN_ID=L01042
##ORIENTATION=Laser parallel to a* (1 0 0). Fiducial mark perpendicular to laser is parallel to -b [0 -1 0]
142.5560, 0.0000000E+00
143.7880, 3.362305
145.0190, 82.68457
146.2510, 532.3906
147.4820, 588.1152
148.7130, 818.5898
149.9440, 865.8213
151.1750, 973.2119
152.4050, 991.0430
153.6360, 906.7041
154.8660, 876.5469
156.0960, 843.3711
157.3260, 564.6387
158.5560, 504.0430
159.7850, 396.5029
161.0150, 337.2793
162.2440, 317.7275
163.4730, 187.4287
164.7020, 252.0195
165.9310, 90.26367
167.1590, 37.80371
168.3880, 64.31738
169.6160, 107.8447
170.8440, 110.5293
172.0720, 168.4834
173.3000, 194.8047
174.5280, 184.1934
175.7550, 272.0850
176.9820, 204.4062
178.2100, 147.3887
179.4370, 230.7832
180.6630, 74.98047
181.8900, 276.6602
183.1170, 185.7305
184.3430, 115.4971
185.5690, 80.31055
186.7950, 22.56348
188.0210, 206.0078
189.2470, 156.1611
190.4720, 110.7295
191.6970, 304.8057
192.9230, 238.4619
194.1480, 140.2119
195.3730, 402.0498
196.5970, 294.9717
197.8220, 282.9707
199.0460, 265.0410
200.2700, 252.1719
201.4940, 305.3574
202.7180, 326.6094
203.9420, 184.9219
205.1660, 82.27539
206.3890, 206.6738
207.6120, 26.88672
208.8350, 107.5938
210.0580, 83.11719
211.2810, 165.6816
212.5040, 131.3359
213.7260, 46.06836
214.9480, 81.92773
216.1700, 58.05469
217.3920, 13.03516
218.6140, 80.18359
219.8360, 131.6074
221.0570, 16.33594
222.2790, 1.003906
223.5000, 96.61133
224.7210, 229.8359
225.9410, 20.33398
227.1620, 107.8828
228.3820, 96.52539
229.6030, 90.89062
230.8230, 193.7773
232.0430, 23.51758
233.2630, 134.2188
234.4820, 76.01562
235.7020, 113.7773
236.9210, 51.58594
238.1400, 29.40234
239.3590, 12.77930
240.5780, 49.04883
241.7970, 175.8887
243.0150, 229.7402
244.2340, 61.60352
245.4520, 286.4785
246.6700, 281.3652
247.8880, 202.2695
249.1060, 466.1426
250.3230, 422.0293
251.5400, 440.9336
252.7580, 494.8242
253.9750, 524.6953
255.1920, 749.4629
256.4080, 727.1836
257.6250, 1033.885
258.8410, 1075.566
260.0580, 1333.168
261.2740, 1024.768
262.4900, 1219.822
263.7050, 1013.400
264.9210, 1267.988
266.1360, 1247.602
267.3520, 1296.244
268.5670, 1143.912
269.7820, 1205.607
270.9960, 1343.328
272.2110, 1499.074
273.4250, 1417.852
274.6400, 1424.656
275.8540, 1554.488
277.0680, 1685.348
278.2810, 1772.234
279.4950, 1799.150
280.7090, 2014.094
281.9220, 1924.750
283.1350, 1913.926
284.3480, 1966.895
285.5610, 1711.523
286.7730, 1738.828
287.9860, 1600.025
289.1980, 1413.572
290.4100, 1208.291
291.6220, 974.2480
292.8340, 836.3555
294.0460, 880.5684
295.2570, 566.8555
296.4690, 597.1934
297.6800, 457.5645
298.8910, 434.9570
300.1020, 424.3613
301.3120, 558.7656
302.5230, 391.1621
303.7330, 490.5527
304.9440, 385.9355
306.1540, 331.3047
307.3630, 234.6582
308.5730, 392.9902
309.7830, 129.2891
310.9920, 250.5195
312.2010, 279.7148
313.4100, 168.8789
314.6190, 104.0137
315.8280, 254.1445
317.0370, 246.2578
318.2450, 287.3535
319.4530, 420.4375
320.6610, 296.5117
321.8690, 342.5078
323.0770, 299.4961
324.2850, 256.4824
325.4920, 318.3848
326.6990, 373.2734
327.9060, 189.9766
329.1130, 220.5625
330.3200, 171.1562
331.5270, 235.6602
332.7330, 189.1445
333.9390, 193.3965
335.1450, 145.7520
336.3510, 141.1289
337.5570, 154.5078
338.7630, 256.9043
339.9680, 373.3203
341.1740, 347.3301
342.3790, 356.5664
343.5840, 306.6934
344.7890, 231.1895
345.9930, 149.7012
347.1980, 40.23438
348.4020, 152.7891
349.6060, 261.3574
350.8100, 396.9453
352.0140, 161.5488
353.2180, 226.6680
354.4210, 93.30664
355.6250, 254.9668
356.8280, 174.6426
358.0310, 324.3320
359.2340, 39.04297
360.4360, 119.7695
361.6390, 376.4824
362.8410, 214.6113
364.0430, 326.3828
365.2450, 412.6680
366.4470, 367.2480
367.6490, 466.8457
368.8510, 441.5000
370.0520, 467.9062
371.2530, 603.0469
372.4540, 495.9180
373.6550, 477.7930
374.8560, 453.0684
376.0560, 171.9844
377.2570, 339.5898
378.4570, 409.5352
379.6570, 19.93945
380.8570, 39.08984
382.0570, 24.88672
383.2560, 155.8828
384.4560, 60.39648
385.6550, 67.41406
386.8540, 237.4551
388.0530, 52.50977
389.2520, 37.57812
390.4510, 134.6602
391.6490, 52.75781
392.8470, 72.86719
394.0450, 311.9883
395.2430, 436.1270
396.4410, 400.2793
397.6390, 274.4453
398.8360, 395.6523
400.0340, 262.9062
401.2310, 504.2324
402.4280, 337.5898
403.6250, 480.9609
404.8210, 421.3477
406.0180, 526.7500
407.2140, 499.1621
408.4100, 344.5898
409.6060, 454.0352
410.8020, 369.4961
411.9980, 218.9707
413.1930, 273.4727
414.3890, 278.9941
415.5840, 253.5449
416.7790, 269.1250
417.9740, 26.30273
419.1680, 160.2910
420.3630, 104.9219
421.5570, 139.4316
422.7510, 36.20508
423.9450, 57.85547
425.1390, 16.52539
426.3330, 73.79492
427.5270, 111.8613
428.7200, 14.45703
429.9130, 32.77734
431.1060, 109.0859
432.2990, 88.04102
433.4920, 152.2227
434.6840, 51.88281
435.8770, 113.5508
437.0690, 311.2559
438.2610, 217.9688
439.4530, 424.6934
440.6450, 308.4746
441.8360, 260.2656
443.0280, 413.0664
444.2190, 772.8789
445.4100, 784.6992
446.6010, 1113.527
447.7920, 1130.365
448.9820, 1447.213
450.1730, 1388.068
451.3630, 1431.996
452.5530, 1583.869
453.7430, 1596.754
454.9330, 1418.648
456.1230, 1527.551
457.3120, 1547.467
458.5010, 1500.893
459.6910, 1534.826
460.8800, 1629.770
462.0680, 2021.721
463.2570, 1995.686
464.4460, 2490.660
465.6340, 2835.645
466.8220, 3198.641
468.0100, 3806.645
469.1980, 4527.660
470.3860, 4986.688
471.5730, 5885.096
472.7600, 6122.148
473.9480, 6617.213
475.1350, 6315.291
476.3210, 5913.387
477.5080, 5844.494
478.6950, 4758.617
479.8810, 4154.754
481.0670, 3574.902
482.2530, 3017.066
483.4390, 2637.912
484.6250, 2223.062
485.8100, 2006.635
486.9960, 1702.850
488.1810, 1484.078
489.3660, 1503.322
490.5510, 1260.578
491.7360, 1485.844
492.9200, 1190.125
494.1050, 1236.420
495.2890, 1383.725
496.4730, 1416.059
497.6570, 1732.406
498.8400, 1942.766
500.0240, 2500.135
501.2070, 3028.521
502.3910, 3668.918
503.5740, 4557.328
504.7570, 5486.770
505.9400, 6414.227
507.1220, 7090.699
508.3050, 8151.223
509.4870, 8901.771
510.6690, 9669.340
511.8510, 9604.949
513.0330, 9324.570
514.2140, 8830.211
515.3960, 7739.863
516.5770, 6394.555
517.7580, 5482.289
518.9390, 4481.035
520.1200, 3432.803
521.3010, 2777.584
522.4810, 2161.400
523.6610, 1884.002
524.8420, 1530.844
526.0220, 1359.695
527.2010, 1059.562
528.3810, 951.6035
529.5610, 951.5000
530.7400, 782.3125
531.9190, 788.3203
533.0980, 674.2441
534.2770, 480.1816
535.4560, 496.1484
536.6340, 505.1055
537.8120, 476.0723
538.9910, 461.0508
540.1690, 453.1191
541.3460, 446.9199
542.5240, 439.7676
543.7020, 437.6074
544.8790, 406.8535
546.0560, 374.3945
547.2330, 371.7070
548.4100, 286.7637
549.5870, 215.8320
550.7630, 121.9062
551.9400, 217.0039
553.1160, 75.11328
554.2920, 104.6211
555.4680, 13.46484
556.6440, 170.9531
557.8190, 236.0918
558.9950, 112.2363
560.1700, 267.7363
561.3450, 163.3965
562.5200, 323.0801
563.6950, 301.2754
564.8690, 55.46094
566.0440, 146.2832
567.2180, 259.4785
568.3920, 207.0977
569.5660, 229.4219
570.7400, 148.3438
571.9130, 210.7051
573.0870, 147.7012
574.2600, 189.6055
575.4330, 107.9629
576.6060, 67.20898
577.7790, 130.9277
578.9520, 259.1914
580.1240, 162.4570
581.2960, 270.0801
582.4690, 308.7461
583.6410, 266.2441
584.8120, 232.5293
585.9840, 236.5371
587.1560, 176.3105
588.3270, 198.7266
589.4980, 86.03125
590.6690, 38.47070
591.8400, 0.2187500
593.0110, 97.09375
594.1810, 153.4102
595.3510, 325.7305
596.5220, 22.04883
597.6920, 110.3770
598.8610, 85.29102
600.0310, 70.00391
601.2010, 210.3027
602.3700, 254.6055
603.5390, 105.9121
604.7080, 130.2188
605.8770, 81.52930
607.0460, 6.839844
608.2140, 69.15234
609.3830, 36.46875
610.5510, 111.7891
611.7190, 7.886719
612.8870, 78.44141
614.0550, 235.7871
615.2220, 88.13672
616.3900, 128.4863
617.5570, 33.83594
618.7240, 114.1914
619.8910, 173.5469
621.0580, 394.9062
622.2240, 220.2695
623.3910, 248.6367
624.5570, 287.0059
625.7230, 221.3926
626.8890, 236.7852
628.0550, 274.1797
629.2200, 90.57617
630.3860, 295.9707
631.5510, 309.3672
632.7160, 177.7695
633.8810, 215.1699
635.0460, 132.5703
636.2100, 155.9766
637.3750, 103.3789
638.5390, 251.7832
639.7030, 129.1875
640.8670, 232.6406
642.0310, 463.1641
643.1950, 290.5723
644.3580, 273.0215
645.5210, 568.4512
646.6850, 328.8809
647.8480, 284.4492
649.0100, 394.5723
650.1730, 228.9922
651.3350, 432.4512
652.4980, 108.8672
653.6600, 273.7500
654.8220, 373.1602
655.9840, 218.5918
657.1450, 466.0215
658.3070, 128.4863
659.4680, 368.0801
660.6300, 46.03711
661.7910, 419.6641
662.9510, 402.0059
664.1120, 278.7656
665.2730, 499.1133
666.4330, 159.7617
667.5930, 10.52734
668.7530, 91.94336
669.9130, 153.4082
671.0730, 348.8652
672.2320, 180.3164
673.3920, 185.7617
674.5510, 49.19922
675.7100, 273.6328
676.8690, 122.0566
678.0280, 310.4727
679.1860, 85.11719
680.3450, 98.76758
681.5030, 216.4863
682.6610, 37.16016
683.8190, 84.97852
684.9770, 70.12500
686.1340, 163.9512
687.2920, 175.8613
688.4490, 209.0645
689.6060, 139.2246
690.7630, 162.9492
691.9200, 137.3809
693.0760, 21.48047
694.2330, 5.656250
695.3890, 36.22070
696.5450, 235.2422
697.7010, 156.3145
698.8570, 143.3809
700.0130, 53.29492
701.1680, 12.78320
702.3230, 220.3613
703.4780, 382.6953
704.6330, 10.99805
705.7880, 334.2969
706.9430, 344.5176
708.0970, 13.32812
709.2520, 205.6777
710.4060, 339.7031
711.5600, 192.6250
712.7140, 292.7148
713.8670, 78.11523
715.0210, 298.0332
716.1740, 64.70312
717.3270, 245.2402
718.4800, 305.0762
719.6330, 163.8887
720.7860, 188.8223
721.9380, 63.03711
723.0910, 372.1973
724.2430, 55.19141
725.3950, 305.1426
726.5470, 105.7793
727.6980, 188.4629
728.8500, 90.09961
730.0010, 309.6953
731.1530, 282.2988
732.3040, 289.0234
733.4550, 352.5762
734.6050, 209.1113
735.7560, 256.8867
736.9060, 201.8906
738.0560, 161.9180
739.2060, 577.8965
740.3560, 251.5449
741.5060, 409.9922
742.6560, 751.4258
743.8050, 560.8438
744.9540, 814.2461
746.1030, 763.9023
747.2520, 804.2715
748.4010, 835.4707
749.5500, 816.9961
750.6980, 754.9473
751.8460, 605.7754
752.9950, 491.1660
754.1420, 447.4414
755.2900, 632.6973
756.4380, 575.6152
757.5850, 757.4355
758.7330, 702.2871
759.8800, 718.9062
761.0270, 599.9531
762.1730, 471.3457
763.3200, 535.4434
764.4670, 451.4395
765.6130, 430.0645
766.7590, 394.5879
767.9050, 295.0859
769.0510, 391.3730
770.1960, 339.3398
771.3420, 166.5137
772.4870, 272.0039
773.6320, 199.1641
774.7770, 410.1211
775.9220, 269.5977
777.0670, 208.7969
778.2110, 159.4023
779.3560, 143.2812
780.5000, 269.6855
781.6440, 164.7324
782.7880, 289.4609
783.9320, 211.4141
785.0750, 147.1934
786.2180, 45.75000
787.3620, 332.7383
788.5050, 175.7852
789.6480, 399.6523
790.7900, 15.66211
791.9330, 245.2930
793.0750, 457.8828
794.2170, 295.9531
795.3590, 486.8184
796.5010, 171.7188
797.6430, 84.83594
798.7850, 163.3301
799.9260, 301.4785
801.0670, 522.9219
802.2080, 297.8652
803.3490, 181.4961
804.4900, 166.7715
805.6310, 244.1309
806.7710, 323.4629
807.9110, 259.7715
809.0510, 285.0547
810.1910, 270.3164
811.3310, 432.6113
812.4710, 310.3066
813.6100, 362.9062
814.7490, 245.6621
815.8880, 390.9355
817.0270, 250.3730
818.1660, 339.5098
819.3050, 170.2461
820.4430, 216.5801
821.5820, 239.5293
822.7200, 105.0879
823.8580, 9.857422
824.9950, 206.3184
826.1330, 234.5820
827.2710, 15.05664
828.4080, 152.8184
829.5450, 265.1504
830.6820, 282.6035
831.8190, 371.3281
832.9560, 133.0898
834.0920, 414.1348
835.2280, 395.1055
836.3650, 161.7617
837.5010, 204.8906
838.6360, 83.20508
839.7720, 145.2129
840.9080, 151.0449
842.0430, 148.0059
843.1780, 164.5000
844.3130, 181.0762
845.4480, 207.8125
846.5830, 201.2285
847.7170, 224.9648
848.8520, 186.7402
849.9860, 114.4551
851.1200, 289.6523
852.2540, 142.1035
853.3870, 199.9004
854.5210, 375.5703
855.6540, 172.7773
856.7880, 404.2227
857.9210, 413.3809
859.0540, 240.3027
860.1860, 136.4160
861.3190, 143.1348
862.4510, 224.3027
863.5840, 201.2812
864.7160, 209.5547
865.8480, 387.4102
866.9790, 196.3730
868.1110, 179.7812
869.2420, 451.6914
870.3740, 297.5840
871.5050, 158.4512
872.6360, 100.2891
873.7660, 89.94922
874.8970, 333.9414
876.0280, 176.0527
877.1580, 236.8047
878.2880, 289.5312
879.4180, 260.2363
880.5480, 263.9160
881.6770, 157.5742
882.8070, 251.2031
883.9360, 99.80859
885.0650, 99.38477
886.1940, 0.7382810
887.3230, 25.13086
888.4520, 200.6016
889.5800, 270.0273
890.7090, 225.4590
891.8370, 65.83594
892.9650, 82.18164
894.0930, 71.18750
895.2200, 123.4766
896.3480, 42.73438
897.4750, 168.9629
898.6020, 48.64258
899.7290, 42.49219
900.8560, 101.5957
901.9830, 121.6719
903.1090, 123.5352
904.2360, 169.8242
905.3620, 37.17578
906.4880, 188.1387
907.6140, 108.5176
908.7400, 20.45898
909.8650, 322.7363
910.9900, 98.62305
912.1160, 160.4805
913.2410, 62.88281
914.3660, 348.6348
915.4900, 5.291016
916.6150, 179.0391
917.7390, 65.27734
918.8640, 191.3711
919.9880, 237.2598
921.1120, 51.71289
922.2350, 166.5840
923.3590, 148.1270
924.4820, 185.6035
925.6060, 147.0938
926.7290, 369.0898
927.8520, 67.46875
928.9740, 112.8965
930.0970, 120.6055
931.2190, 142.6387
932.3420, 85.72461
933.4640, 239.4160
934.5860, 65.48633
935.7080, 164.3027
936.8290, 103.7852
937.9510, 173.0137
939.0720, 37.18359
940.1930, 188.1641
941.3140, 263.5469
942.4350, 272.5391
943.5560, 315.4785
944.6760, 249.3965
945.7960, 213.2910
946.9170, 107.1621
948.0370, 251.0156
949.1560, 273.9023
950.2760, 195.1465
951.3960, 131.3730
952.5150, 353.2148
953.6340, 55.93945
954.7530, 125.7500
955.8720, 38.41992
956.9910, 94.35156
958.1090, 100.3359
959.2280, 99.32617
960.3460, 30.08789
961.4640, 111.4902
962.5820, 211.4746
963.6990, 95.71289
964.8170, 90.78320
965.9340, 56.64258
967.0510, 129.0449
968.1690, 140.0566
969.2850, 151.4258
970.4020, 226.7695
971.5190, 300.8242
972.6350, 166.0645
973.7510, 116.7812
974.8670, 151.7285
975.9830, 201.6738
977.0990, 271.5898
978.2150, 95.57031
979.3300, 347.5977
980.4450, 441.7305
981.5600, 135.8203
982.6750, 120.9766
983.7900, 128.9766
984.9050, 325.6484
986.0190, 178.7969
987.1340, 279.5703
988.2480, 113.6094
989.3620, 260.7266
990.4750, 306.6094
991.5890, 270.4102
992.7020, 433.8398
993.8160, 296.9258
994.9290, 378.6602
996.0420, 422.4062
997.1550, 304.4297
998.2670, 154.3711
999.3800, 433.3281
1000.492, 416.2891
1001.604, 105.1484
1002.716, 406.9023
1003.828, 335.7969
1004.940, 461.6758
1006.051, 219.2773
1007.163, 261.6133
1008.274, 206.8867
1009.385, 136.6797
1010.496, 424.2617
1011.606, 298.0078
1012.717, 451.7383
1013.827, 520.4414
1014.937, 215.1289
1016.047, 263.5273
1017.157, 327.1719
1018.267, 374.2852
1019.377, 136.3750
1020.486, 189.9648
1021.595, 144.0078
1022.704, 310.4531
1023.813, 203.9805
1024.922, 426.4922
1026.030, 393.3008
1027.139, 46.17969
1028.247, 356.9961
1029.355, 217.0195
1030.463, 364.5664
1031.571, 163.7305
1032.678, 326.1602
1033.786, 241.6445
1034.893, 204.4648
1036.000, 98.35547
1037.107, 320.2734
1038.214, 262.7383
1039.321, 280.0234
1040.427, 106.8906
1041.533, 583.5352
1042.639, 121.1016
1043.745, 258.9219
1044.851, 355.5391
1045.957, 72.39844
1047.062, 269.8086
1048.168, 240.1758
1049.273, 341.3398
1050.378, 343.2188
1051.482, 281.8711
1052.587, 141.7695
1053.692, 573.8008
1054.796, 400.0156
1055.900, 532.7539
1057.004, 283.3906
1058.108, 328.1758
1059.212, 353.7734
1060.315, 258.3242
1061.418, 217.2617
1062.522, 165.4375
1063.625, 210.2070
1064.728, 244.9336
1065.830, 238.2617
1066.933, 441.4336
1068.035, 218.5703
1069.137, 312.8438
1070.239, 157.1406
1071.341, 127.9805
1072.443, 149.9727
1073.545, 102.7344
1074.646, 189.5000
1075.747, 278.3906
1076.848, 369.3750
1077.949, 421.6758
1079.050, 347.1484
1080.150, 446.3281
1081.251, 286.9297
1082.351, 117.5039
1083.451, 114.9297
1084.551, 257.2969
1085.651, 298.4805
1086.750, 380.1914
1087.850, 356.5469
1088.949, 377.2539
1090.048, 271.6719
1091.147, 455.5273
1092.246, 478.6133
1093.345, 345.6641
1094.443, 275.5820
1095.541, 402.9219
1096.639, 376.7734
1097.737, 504.0586
1098.835, 509.7227
1099.933, 512.7852
1101.030, 580.4609
1102.128, 592.0195
1103.225, 637.2891
1104.322, 601.5508
1105.419, 611.0820
1106.515, 563.6055
1107.612, 812.5312
1108.708, 679.7305
1109.804, 985.8281
1110.900, 1054.512
1111.996, 1068.512
1113.092, 1061.102
1114.187, 1154.035
1115.283, 1463.254
1116.378, 1611.336
1117.473, 1960.238
1118.568, 2056.168
1119.662, 2119.625
1120.757, 2277.566
1121.851, 2295.578
1122.946, 2401.766
1124.040, 2395.742
1125.134, 2322.945
1126.227, 2149.203
1127.321, 2187.414
1128.414, 1807.793
1129.508, 1668.852
1130.601, 1589.945
1131.693, 1537.926
1132.786, 1692.777
1133.879, 1799.340
1134.971, 1627.340
1136.064, 1443.352
1137.156, 1569.156
1138.248, 1228.945
1139.339, 1273.719
1140.431, 1451.461
1141.522, 1158.945
1142.614, 1271.859
1143.705, 1040.793
1144.796, 1361.734
1145.887, 691.4062
1146.977, 1135.059
1148.068, 779.6992
1149.158, 1018.898
1150.248, 819.5039
1151.338, 646.3711
1152.428, 564.2617
1153.518, 406.2070
1154.607, 429.3516
1155.696, 499.8672
1156.785, 504.6406
1157.874, 331.5586
1158.963, 370.4805
1160.052, 200.9727
1161.141, 213.4414
1162.229, 245.9023
1163.317, 259.1484
1164.405, 253.5977
1165.493, 235.0312
1166.581, 198.9219
1167.668, 188.4297
1168.756, 99.83594
1169.843, 5.222656
1170.930, 40.10547
1172.017, 26.31641
1173.103, 67.75781
1174.190, 46.65234
1175.276, 230.9727
1176.363, 247.1992
1177.449, 614.8711
1178.535, 145.6133
1179.620, 18.21094
1180.706, 317.9297
1181.791, 86.05469
1182.877, 203.6680
1183.962, 246.5234
1185.047, 405.8203
1186.131, 337.9297
1187.216, 347.0273
1188.300, 417.1133
1189.385, 287.1797
1190.469, 54.22656
1191.553, 343.2578
1192.637, 20.44922
1193.720, 157.4023
1194.804, 481.4258
1195.887, 259.4297
1196.970, 257.5820
1198.053, 276.2500
1199.136, 87.06250
1200.219, 191.9062
1201.301, 139.5664
1202.383, 142.3047
1203.465, 158.6875
1204.547, 184.1602
1205.629, 149.8906
1206.711, 127.6328
1207.792, 203.3594
1208.874, 61.07422
1209.955, 9.234375
1211.036, 183.5820
1212.117, 262.4297
1213.198, 291.9648
1214.278, 144.0742
1215.359, 38.55469
1216.439, 139.0195
1217.519, 126.4883
1218.599, 157.9336
1219.678, 70.38672
1220.758, 143.4961
1221.837, 151.4062
1222.917, 238.9766
1223.996, 299.4531
1225.075, 341.8750
1226.153, 306.7891
1227.232, 503.6680
1228.310, 191.0742
1229.389, 163.4648
1230.467, 129.8438
1231.545, 373.2070
1232.622, 462.5586
1233.700, 223.8906
1234.777, 69.20703
1235.855, 21.50391
1236.932, 366.7852
1238.009, 174.0508
1239.086, 71.69922
1240.162, 183.8867
1241.239, 6.945313
1242.315, 81.19141
1243.391, 155.2578
1244.467, 64.63672
1245.543, 104.4062
1246.619, 117.5703
1247.694, 235.3672
1248.769, 84.28516
1249.844, 14.81250
1250.919, 276.0586
1251.994, 145.3867
1253.069, 203.2266
1254.144, 134.9766
1255.218, 113.7812
1256.292, 123.0781
1257.366, 76.73047
1258.440, 149.1016
1259.514, 73.84766
1260.587, 159.6719
1261.661, 256.3789
1262.734, 148.5195
1263.807, 151.2031
1264.880, 142.8633
1265.952, 246.5117
1267.025, 293.3672
1268.097, 236.9844
1269.170, 180.5859
1270.242, 169.2148
1271.314, 139.9531
1272.385, 131.3477
1273.457, 124.8984
1274.528, 258.4297
1275.600, 269.9414
1276.671, 504.4453
1277.742, 44.93750
1278.812, 223.4102
1279.883, 36.86328
1280.954, 84.30469
1282.024, 26.73438
1283.094, 43.31641
1284.164, 323.7305
1285.234, 122.1172
1286.303, 0.5156250
1287.373, 28.16406
1288.442, 320.1406
1289.511, 198.4375
1290.580, 618.7148
1291.649, 182.9805
1292.718, 210.4258
1293.786, 309.6992
1294.855, 239.6562
1295.923, 254.8672
1296.991, 281.0273
1298.059, 297.8086
1299.126, 389.0273
1300.194, 436.3242
1301.261, 350.5664
