##NAMES=Microcline
##RRUFFID=R050150
##IDEAL CHEMISTRY=KAlSi_3_O_8_
##LOCALITY=Crystal Peak area, Park/Teller Counties, Colorado, USA
##OWNER=RRUFF
##SOURCE=Dave Bunk Minerals
##DESCRIPTION=Pale blue prismatic crystals
##STATUS=The identification of this mineral has been confirmed by X-ray diffraction and chemical analysis
##URL=rruff.info/R050150
##MEASURED CHEMISTRY=(K_0.95_Na_0.05_)_Î£=1_Al_1.00_Si_3.00_O_8_
##PIN_ID=L01538
##ORIENTATION=Laser parallel to c* (0 0 1). Fiducial mark perpendicular to laser is parallel to a [1 0 0]
140.0900, 0.0000000E+00
141.3290, 106.5918
142.5680, 41.72266
143.8060, 15.73926
145.0440, 386.9307
146.2820, 569.8662
147.5200, 1146.775
148.7570, 1262.180
149.9950, 1451.864
151.2320, 1673.795
152.4690, 1927.471
153.7060, 1802.164
154.9420, 1881.482
156.1790, 1748.605
157.4150, 1790.078
158.6510, 1716.329
159.8870, 1363.102
161.1220, 1192.307
162.3570, 1072.550
163.5930, 762.8496
164.8280, 628.0576
166.0620, 484.2705
167.2970, 558.4590
168.5310, 861.9766
169.7650, 986.1133
170.9990, 1414.115
172.2330, 1840.207
173.4670, 2562.574
174.7000, 3351.730
175.9330, 3985.206
177.1660, 4518.039
178.3990, 4555.852
179.6310, 4162.750
180.8640, 3838.854
182.0960, 3290.932
183.3280, 2713.849
184.5600, 2233.381
185.7910, 1841.956
187.0220, 1709.502
188.2540, 1724.259
189.4840, 1815.273
190.7150, 1827.993
191.9460, 2214.877
193.1760, 2420.348
194.4060, 3005.716
195.6360, 3655.871
196.8660, 4114.817
198.0960, 4423.536
199.3250, 4377.027
200.5540, 3831.289
201.7830, 3280.393
203.0120, 2558.443
204.2400, 1962.346
205.4690, 1395.043
206.6970, 977.5430
207.9250, 592.8564
209.1530, 483.9941
210.3800, 318.9629
211.6080, 85.77344
212.8350, 96.94043
214.0620, 94.02344
215.2880, 41.70996
216.5150, 13.50391
217.7410, 118.6113
218.9680, 83.61719
220.1940, 153.5332
221.4190, 13.99316
222.6450, 77.46777
223.8700, 29.01270
225.0960, 40.19043
226.3210, 63.21582
227.5450, 9.000977
228.7700, 79.66895
229.9940, 75.06641
231.2190, 61.10254
232.4430, 128.4834
233.6660, 120.4033
234.8900, 49.08398
236.1140, 136.7295
237.3370, 239.3438
238.5600, 216.9189
239.7830, 281.0273
241.0050, 311.5830
242.2280, 476.2432
243.4500, 689.9453
244.6720, 668.4590
245.8940, 1036.569
247.1160, 1368.945
248.3370, 1873.854
249.5580, 2402.526
250.7790, 2932.700
252.0000, 3719.272
253.2210, 4548.452
254.4410, 5749.350
255.6620, 6920.046
256.8820, 7906.584
258.1020, 8510.955
259.3210, 9317.104
260.5410, 10037.18
261.7600, 10757.94
262.9790, 11175.31
264.1980, 11777.82
265.4170, 11860.09
266.6360, 11499.31
267.8540, 10934.09
269.0720, 9753.809
270.2900, 8531.521
271.5080, 7474.219
272.7260, 6656.908
273.9430, 5938.586
275.1600, 5636.254
276.3770, 5709.910
277.5940, 5905.559
278.8100, 6530.203
280.0270, 6915.842
281.2430, 7881.473
282.4590, 8653.103
283.6750, 9301.910
284.8910, 9473.927
286.1060, 8874.540
287.3210, 8017.515
288.5360, 7063.727
289.7510, 5686.990
290.9660, 4591.941
292.1800, 3641.357
293.3950, 2746.771
294.6090, 2070.146
295.8230, 1549.464
297.0360, 1098.705
298.2500, 946.8486
299.4630, 652.8779
300.6760, 502.7822
301.8890, 389.5576
303.1020, 300.2051
304.3150, 270.7207
305.5270, 99.10352
306.7390, 151.3262
307.9510, 62.36523
309.1630, 42.79492
310.3750, 22.82227
311.5860, 60.75977
312.7970, 67.54590
314.0080, 91.52734
315.2190, 83.69922
316.4300, 69.97363
317.6400, 66.45117
318.8510, 10.19531
320.0610, 16.98535
321.2710, 33.09473
322.4800, 99.00781
323.6900, 144.0488
324.8990, 239.1924
326.1080, 292.1982
327.3170, 430.8066
328.5260, 532.0996
329.7340, 641.1885
330.9430, 754.9688
332.1510, 732.4893
333.3590, 591.9082
334.5670, 626.2051
335.7740, 543.4355
336.9820, 262.6133
338.1890, 309.7549
339.3960, 102.8633
340.6030, 26.93555
341.8100, 23.96875
343.0160, 11.96484
344.2220, 38.07715
345.4280, 143.1680
346.6340, 82.66504
347.8400, 132.4668
349.0460, 42.23828
350.2510, 15.97852
351.4560, 150.6855
352.6610, 167.3662
353.8660, 350.0215
355.0700, 470.5684
356.2750, 386.4131
357.4790, 391.0400
358.6830, 312.9023
359.8870, 315.7334
361.0910, 339.3242
362.2940, 412.2119
363.4970, 440.5527
364.7000, 507.1367
365.9030, 500.3779
367.1060, 644.4189
368.3080, 839.5088
369.5110, 899.6543
370.7130, 1054.892
371.9150, 1081.849
373.1170, 978.1094
374.3180, 934.3203
375.5200, 749.4873
376.7210, 629.0391
377.9220, 486.8154
379.1230, 359.2168
380.3230, 175.3174
381.5240, 131.5547
382.7240, 26.82129
383.9240, 62.09180
385.1240, 5.537109
386.3240, 44.88770
387.5230, 16.59082
388.7230, 38.19531
389.9220, 3.830078
391.1210, 131.4990
392.3200, 195.5586
393.5180, 266.1104
394.7170, 470.4043
395.9150, 674.6885
397.1130, 876.9678
398.3110, 1019.242
399.5080, 1415.513
400.7060, 1752.782
401.9030, 2085.050
403.1000, 2293.317
404.2970, 2382.584
405.4940, 2334.851
406.6910, 2194.117
407.8870, 2148.393
409.0830, 2186.686
410.2790, 2441.016
411.4750, 2459.386
412.6710, 2482.787
413.8660, 2048.211
415.0610, 1757.657
416.2560, 1225.118
417.4510, 805.6006
418.6460, 643.0928
419.8410, 392.6006
421.0350, 220.1211
422.2290, 215.6436
423.4230, 164.1709
424.6170, 96.70117
425.8100, 99.23242
427.0040, 78.76953
428.1970, 156.3086
429.3900, 292.8477
430.5830, 192.3887
431.7760, 432.9023
432.9680, 481.3877
434.1610, 540.8438
435.3530, 607.2725
436.5450, 724.6709
437.7360, 941.0400
438.9280, 1349.379
440.1190, 1745.688
441.3110, 2257.968
442.5020, 2930.218
443.6930, 3843.439
444.8830, 5202.632
446.0740, 6672.590
447.2640, 8353.144
448.4540, 10124.54
449.6440, 12243.92
450.8340, 14477.71
452.0240, 16725.66
453.2130, 17687.27
454.4020, 17718.53
455.5910, 16575.00
456.7800, 14852.04
457.9690, 12978.57
459.1570, 10586.21
460.3460, 8914.494
461.5340, 7596.602
462.7220, 6617.325
463.9090, 6338.713
465.0970, 6302.634
466.2840, 6935.214
467.4720, 7691.030
468.6590, 8723.911
469.8460, 9999.103
471.0320, 11786.87
472.2190, 13437.51
473.4050, 14912.27
474.5910, 15854.04
475.7770, 15766.01
476.9630, 15236.93
478.1490, 14135.69
479.3340, 12521.44
480.5190, 10861.56
481.7040, 9767.877
482.8890, 8531.225
484.0740, 7993.869
485.2580, 6855.501
486.4430, 6038.978
487.6270, 5249.711
488.8110, 4554.904
489.9950, 4259.202
491.1780, 3794.860
492.3620, 3547.863
493.5450, 3504.586
494.7280, 3685.355
495.9110, 3888.210
497.0940, 4497.840
498.2760, 4995.607
499.4590, 5905.379
500.6410, 7512.168
501.8230, 9309.732
503.0050, 12109.34
504.1860, 15380.08
505.3680, 19677.95
506.5490, 24198.88
507.7300, 29777.86
508.9110, 35387.91
510.0920, 41959.99
511.2730, 46837.13
512.4530, 50678.29
513.6330, 50371.51
514.8130, 47275.71
515.9930, 42119.98
517.1730, 35465.31
518.3520, 28642.68
519.5320, 22581.08
520.7110, 17655.49
521.8900, 13736.93
523.0690, 11089.16
524.2470, 8622.230
525.4260, 7449.894
526.6040, 6252.508
527.7820, 5236.010
528.9600, 4589.461
530.1380, 3934.809
531.3150, 3383.586
532.4930, 3045.194
533.6700, 2787.450
534.8470, 2597.991
536.0240, 2290.579
537.2000, 1930.177
538.3770, 1787.783
539.5530, 1706.399
540.7290, 1495.025
541.9050, 1509.931
543.0810, 1336.574
544.2570, 1290.228
545.4320, 1085.892
546.6080, 1020.564
547.7830, 925.7305
548.9580, 885.3906
550.1320, 875.2363
551.3070, 868.6494
552.4810, 726.6201
553.6550, 697.1885
554.8300, 868.6201
556.0030, 699.6289
557.1770, 749.0469
558.3510, 639.2236
559.5240, 805.5840
560.6970, 569.0088
561.8700, 661.8545
563.0430, 650.7480
564.2160, 772.7842
565.3880, 698.6455
566.5600, 696.4873
567.7320, 543.5156
568.9040, 580.0801
570.0760, 635.8848
571.2480, 532.6953
572.4190, 491.5098
573.5900, 523.3291
574.7610, 562.1562
575.9320, 524.8896
577.1030, 579.8252
578.2740, 529.6689
579.4440, 623.5156
580.6140, 727.3711
581.7840, 462.2305
582.9540, 559.1104
584.1240, 493.9961
585.2930, 418.8887
586.4630, 384.7871
587.6320, 187.6953
588.8010, 249.6104
589.9700, 209.5381
591.1380, 122.4824
592.3070, 192.4395
593.4750, 35.41211
594.6430, 147.4287
595.8110, 79.46387
596.9790, 243.5391
598.1460, 28.65723
599.3140, 73.17578
600.4810, 18.98730
601.6480, 24.23926
602.8150, 3.493164
603.9820, 8.200195
605.1480, 68.88086
606.3150, 18.54980
607.4810, 41.19824
608.6470, 31.84180
609.8130, 36.53809
610.9790, 19.92578
612.1440, 29.67383
613.3100, 9.723633
614.4750, 88.13281
615.6400, 37.45020
616.8050, 7.023438
617.9690, 118.4082
619.1340, 98.84668
620.2980, 76.29395
621.4620, 95.75000
622.6260, 184.2256
623.7900, 133.7275
624.9540, 201.2705
626.1170, 363.8457
627.2810, 442.4551
628.4440, 331.0947
629.6070, 439.8086
630.7690, 485.5547
631.9320, 482.3105
633.0950, 686.0918
634.2570, 676.8906
635.4190, 803.7217
636.5810, 884.5625
637.7430, 1034.410
638.9040, 1131.279
640.0660, 1268.154
641.2270, 1382.049
642.3880, 1586.949
643.5490, 1878.859
644.7100, 1904.773
645.8700, 2313.718
647.0310, 2413.667
648.1910, 2452.621
649.3510, 2842.580
650.5110, 2785.543
651.6710, 2883.510
652.8300, 2836.491
653.9900, 2758.474
655.1490, 2483.461
656.3080, 2443.454
657.4670, 1963.453
658.6250, 1827.453
659.7840, 1595.470
660.9420, 1409.486
662.1010, 1263.506
663.2590, 1069.527
664.4170, 884.5537
665.5740, 713.5830
666.7320, 694.6279
667.8890, 557.6768
669.0460, 436.7363
670.2030, 444.8027
671.3600, 142.8760
672.5170, 322.9570
673.6740, 118.0381
674.8300, 145.1201
675.9860, 121.1992
677.1420, 88.29004
678.2980, 49.37988
679.4540, 70.45996
680.6090, 8.559570
681.7650, 119.6436
682.9200, 63.72754
684.0750, 89.83008
685.2300, 89.89355
686.3840, 5.973633
687.5390, 88.95410
688.6930, 122.9355
689.8470, 178.9902
691.0010, 155.2988
692.1550, 100.3965
693.3090, 65.70801
694.4620, 58.38379
695.6160, 31.28027
696.7690, 59.88379
697.9220, 11.34961
699.0750, 29.83398
700.2280, 19.34668
701.3800, 33.11816
702.5320, 19.57812
703.6850, 45.03320
704.8370, 120.4824
705.9880, 10.05762
707.1400, 293.4961
708.2920, 211.9316
709.4430, 240.3652
710.5940, 130.7949
711.7450, 214.2188
712.8960, 193.8359
714.0470, 174.3574
715.1970, 252.7715
716.3480, 331.1816
717.4980, 196.5859
718.6480, 387.9951
719.7980, 269.3916
720.9470, 186.9707
722.0970, 188.3584
723.2460, 442.7412
724.3960, 474.1201
725.5450, 491.8242
726.6940, 511.3838
727.8420, 671.9648
728.9910, 683.1250
730.1390, 959.4766
731.2870, 977.8232
732.4350, 1191.088
733.5830, 1520.423
734.7310, 1469.750
735.8790, 1898.299
737.0260, 2158.914
738.1730, 2684.664
739.3200, 3332.889
740.4670, 3932.182
741.6140, 4824.323
742.7610, 5504.581
743.9070, 6737.418
745.0530, 7796.861
746.1990, 8808.893
747.3450, 9767.200
748.4910, 9945.507
749.6370, 9804.537
750.7820, 9064.923
751.9270, 7942.877
753.0720, 7110.076
754.2170, 5955.715
755.3620, 5070.766
756.5070, 4216.053
757.6510, 3558.529
758.7950, 2983.680
759.9400, 2592.796
761.0840, 2284.451
762.2270, 1871.959
763.3710, 1846.186
764.5140, 1452.072
765.6580, 1433.157
766.8010, 1331.687
767.9440, 1210.754
769.0870, 1036.801
770.2290, 1102.512
771.3720, 953.8984
772.5140, 1049.084
773.6560, 866.0781
774.7990, 835.0586
775.9400, 691.5049
777.0820, 749.4961
778.2240, 644.6045
779.3650, 605.5283
780.5060, 673.8525
781.6470, 607.9014
782.7880, 732.0439
783.9290, 671.9316
785.0690, 694.1318
786.2100, 791.1807
787.3500, 915.9990
788.4900, 934.8936
789.6300, 935.8672
790.7700, 828.6387
791.9090, 997.1143
793.0490, 1099.183
794.1880, 1024.549
795.3270, 1130.256
796.4660, 1444.982
797.6050, 1478.655
798.7440, 1570.415
799.8820, 1572.055
801.0200, 1863.965
802.1590, 2330.572
803.2970, 2881.162
804.4340, 3469.733
805.5720, 4485.289
806.7100, 5391.828
807.8470, 6602.352
808.9840, 7682.031
810.1210, 8884.521
811.2580, 9818.987
812.3950, 10576.44
813.5310, 10465.01
814.6680, 9643.433
815.8040, 8404.831
816.9400, 6904.506
818.0760, 5257.598
819.2120, 4254.086
820.3470, 3165.412
821.4830, 2472.722
822.6180, 1930.016
823.7530, 1551.805
824.8880, 1346.092
826.0230, 1139.186
827.1580, 975.7041
828.2920, 875.6533
829.4270, 749.9990
830.5610, 684.4736
831.6950, 584.3789
832.8290, 560.8291
833.9620, 440.5312
835.0960, 404.0400
836.2290, 391.4766
837.3620, 305.4824
838.4950, 324.4316
839.6280, 300.2285
840.7610, 342.1924
841.8940, 101.2188
843.0260, 295.6084
844.1580, 151.6045
845.2910, 179.5859
846.4230, 226.5537
847.5540, 174.5078
848.6860, 85.44531
849.8170, 107.3672
850.9490, 153.2744
852.0800, 189.1680
853.2110, 157.0459
854.3420, 130.9102
855.4730, 141.7607
856.6030, 21.40430
857.7340, 169.3896
858.8640, 183.1680
859.9940, 251.9326
861.1240, 53.68359
862.2540, 87.41602
863.3830, 81.13379
864.5130, 21.83594
865.6420, 176.5146
866.7710, 228.1797
867.9000, 2.168945
869.0290, 165.4492
870.1570, 194.0537
871.2860, 78.64355
872.4140, 61.21777
873.5430, 116.7744
874.6710, 55.32910
875.7980, 154.8691
876.9260, 115.3955
878.0540, 208.9082
879.1810, 37.59277
880.3080, 14.13184
881.4360, 12.29492
882.5630, 52.29688
883.6890, 116.0596
884.8160, 19.39941
885.9420, 125.7188
887.0690, 21.02832
888.1950, 177.3174
889.3210, 32.40723
890.4470, 122.8271
891.5730, 103.0488
892.6980, 55.25586
893.8240, 205.4463
894.9490, 6.375977
896.0740, 31.23145
897.1990, 61.13184
898.3240, 41.09277
899.4480, 36.10352
900.5730, 135.8408
901.6970, 47.23047
902.8210, 40.35254
903.9450, 164.4756
905.0690, 19.70898
906.1930, 39.06836
907.3160, 60.16992
908.4400, 143.5342
909.5630, 198.2246
910.6860, 34.09961
911.8090, 114.5352
912.9320, 29.84473
914.0550, 215.7344
915.1770, 27.31055
916.2990, 83.86914
917.4210, 64.58398
918.5440, 114.0498
919.6650, 35.52441
920.7870, 66.98438
921.9090, 132.4297
923.0300, 94.86328
924.1510, 17.71582
925.2720, 136.6729
926.3930, 7.049805
927.5140, 35.40723
928.6350, 8.761719
929.7550, 141.0977
930.8760, 33.57812
931.9960, 171.7080
933.1160, 85.98438
934.2360, 156.2490
935.3550, 40.50098
936.4750, 111.7412
937.5940, 125.2334
938.7140, 127.4746
939.8330, 140.4346
940.9520, 185.6445
942.0710, 177.5127
943.1890, 61.03125
944.3080, 192.2070
945.4260, 227.3730
946.5440, 248.5742
947.6620, 25.31543
948.7800, 243.8066
949.8980, 127.9189
951.0160, 28.02051
952.1330, 119.1094
953.2500, 62.45996
954.3680, 172.2617
955.4850, 134.3223
956.6010, 130.3730
957.7180, 211.4150
958.8350, 196.4512
959.9510, 268.5029
961.0670, 215.5820
962.1830, 219.7021
963.2990, 242.8584
964.4150, 226.0352
965.5310, 199.2246
966.6460, 219.6943
967.7620, 217.6289
968.8770, 234.8438
969.9920, 198.0596
971.1070, 199.2783
972.2210, 264.4980
973.3360, 228.7119
974.4500, 437.9180
975.5650, 377.1162
976.6790, 469.1777
977.7930, 556.1133
978.9070, 409.5430
980.0200, 667.7129
981.1340, 725.8750
982.2470, 710.0293
983.3610, 991.9824
984.4740, 1022.033
985.5870, 1232.219
986.6990, 1348.412
987.8120, 1485.598
988.9250, 1788.795
990.0370, 1977.996
991.1490, 2219.006
992.2610, 2254.195
993.3730, 2339.545
994.4850, 2388.553
995.5960, 2288.387
996.7080, 2142.357
997.8190, 1968.295
998.9300, 1784.639
1000.041, 1442.779
1001.152, 1404.912
1002.263, 1346.117
1003.373, 1036.238
1004.484, 1064.355
1005.594, 871.2383
1006.704, 715.0430
1007.814, 626.0957
1008.924, 627.8828
1010.034, 548.9922
1011.143, 691.0195
1012.253, 501.1191
1013.362, 575.1367
1014.471, 308.6367
1015.580, 449.6641
1016.689, 393.7871
1017.797, 455.8145
1018.906, 303.0977
1020.014, 330.1543
1021.122, 351.4902
1022.230, 277.8652
1023.338, 273.9707
1024.446, 287.0039
1025.554, 363.9473
1026.661, 528.7168
1027.768, 364.7949
1028.875, 255.8926
1029.983, 88.43945
1031.089, 341.1191
1032.196, 342.0684
1033.303, 435.3555
1034.409, 446.4316
1035.515, 343.0527
1036.622, 442.1172
1037.728, 534.1875
1038.833, 448.5820
1039.939, 348.2871
1041.045, 139.1758
1042.150, 425.2402
1043.255, 413.3145
1044.360, 107.9082
1045.465, 319.9434
1046.570, 92.86523
1047.675, 320.8164
1048.779, 212.4727
1049.884, 302.3945
1050.988, 12.79492
1052.092, 95.25391
1053.196, 198.0039
1054.300, 155.8848
1055.404, 271.9844
1056.507, 176.9922
1057.610, 159.9023
1058.714, 157.0039
1059.817, 163.4004
1060.920, 124.4062
1062.022, 150.8652
1063.125, 166.9668
1064.228, 178.0605
1065.330, 222.3926
1066.432, 236.3926
1067.534, 193.5000
1068.636, 8.474609
1069.738, 76.48047
1070.840, 87.58984
1071.941, 324.6992
1073.042, 72.81055
1074.144, 39.92188
1075.245, 319.0332
1076.346, 213.9707
1077.446, 279.1680
1078.547, 202.4727
1079.647, 339.5898
1080.748, 301.7109
1081.848, 228.8301
1082.948, 379.9492
1084.048, 454.7812
1085.148, 628.0430
1086.247, 659.2500
1087.347, 651.1543
1088.446, 778.2812
1089.545, 828.4121
1090.644, 986.5449
1091.743, 950.6777
1092.842, 1311.811
1093.940, 1470.947
1095.039, 1641.084
1096.137, 1532.258
1097.235, 1558.430
1098.333, 1584.658
1099.431, 1592.799
1100.529, 1496.996
1101.627, 1433.137
1102.724, 1338.393
1103.822, 996.5371
1104.919, 971.6836
1106.016, 938.8281
1107.113, 996.9707
1108.209, 686.1172
1109.306, 769.2656
1110.402, 693.7188
1111.499, 737.8672
1112.595, 700.0156
1113.691, 819.1641
1114.787, 1049.316
1115.883, 988.7734
1116.978, 1234.982
1118.074, 1452.795
1119.169, 1811.176
1120.264, 1843.004
1121.359, 1910.439
1122.454, 2163.645
1123.549, 2088.822
1124.644, 2009.000
1125.738, 1780.178
1126.832, 1763.355
1127.927, 1639.537
1129.021, 1704.717
1130.115, 1626.896
1131.208, 1562.090
1132.302, 1565.279
1133.396, 1783.469
1134.489, 1922.668
1135.582, 2193.865
1136.675, 2260.064
1137.768, 2298.396
1138.861, 2174.371
1139.954, 1990.570
1141.046, 1889.771
1142.138, 1635.078
1143.231, 1419.320
1144.323, 1203.703
1145.415, 1044.658
1146.507, 990.8965
1147.598, 784.9102
1148.690, 782.3887
1149.781, 703.6426
1150.872, 444.9023
1151.964, 586.1621
1153.054, 450.4238
1154.145, 357.7305
1155.236, 291.0078
1156.327, 245.2832
1157.417, 217.2227
1158.507, 323.4668
1159.597, 229.7422
1160.687, 335.0254
1161.777, 433.3223
1162.867, 441.6445
1163.956, 453.6016
1165.046, 406.5820
1166.135, 359.6152
1167.224, 259.8691
1168.313, 210.2578
1169.402, 189.6465
1170.491, 121.0449
1171.580, 98.44336
1172.668, 157.8613
1173.756, 154.4395
1174.845, 205.8555
1175.933, 88.40820
1177.020, 21.83789
1178.108, 40.71680
1179.196, 226.7910
1180.283, 174.0586
1181.371, 185.5566
1182.458, 66.85547
1183.545, 190.0430
1184.632, 78.48828
1185.719, 52.93164
1186.805, 58.37109
1187.892, 104.8105
1188.978, 137.2578
1190.065, 32.70117
1191.151, 40.85352
1192.237, 133.5742
1193.323, 188.0000
1194.408, 32.42383
1195.494, 2.140625
1196.579, 149.2910
1197.664, 92.72070
1198.750, 3.148438
1199.835, 49.42773
1200.919, 127.9707
1202.004, 84.36523
1203.089, 190.7578
1204.173, 75.14648
1205.258, 102.5332
1206.342, 159.9199
1207.426, 23.33594
1208.510, 20.28516
1209.594, 137.0840
1210.677, 10.44727
1211.761, 183.8164
1212.844, 51.18359
1213.927, 51.54883
1215.010, 12.91406
1216.093, 55.27344
1217.176, 146.6289
1218.259, 49.98633
1219.341, 169.3398
1220.424, 204.6875
1221.506, 116.0352
1222.588, 175.3809
1223.670, 116.1484
1224.752, 131.1738
1225.834, 41.50781
1226.915, 42.84180
1227.997, 29.17188
1229.078, 180.4961
1230.159, 38.81836
1231.240, 170.1367
1232.321, 25.45117
1233.402, 125.7637
1234.483, 199.0703
1235.563, 194.3789
1236.644, 97.67969
1237.724, 111.9785
1238.804, 182.2754
1239.884, 1.568359
1240.964, 59.85547
1242.044, 132.1367
1243.123, 203.4180
1244.203, 64.69336
1245.282, 46.03516
1246.361, 136.1152
1247.440, 49.95508
1248.519, 9.169922
1249.598, 81.71289
1250.676, 11.64648
1251.755, 52.40625
1252.833, 148.4551
1253.911, 189.5137
1254.989, 183.5684
1256.067, 98.89258
1257.145, 215.9395
1258.223, 97.98438
1259.300, 115.0254
1260.378, 765.2734
1261.455, 708.3086
1262.532, 955.3359
1263.609, 831.3633
1264.686, 644.3887
1265.763, 195.4082
1266.840, 34.42383
1267.916, 64.56641
1268.992, 106.4004
1270.069, 136.4980
1271.145, 41.46680
1272.221, 57.42969
1273.296, 23.39062
1274.372, 15.58594
1275.448, 81.27930
1276.523, 31.78906
1277.598, 14.11328
1278.673, 95.01172
1279.749, 209.9102
1280.823, 207.8008
1281.898, 142.6934
1282.973, 57.58203
1284.047, 247.4668
1285.122, 150.3496
1286.196, 74.77148
1287.270, 46.05469
1288.344, 186.8770
1289.418, 94.69531
1290.491, 88.51172
1291.565, 141.3223
1292.638, 27.87500
1293.712, 5.015625
1294.785, 212.7461
1295.858, 88.50781
1296.931, 124.2617
1298.003, 183.0117
1299.076, 181.7578
1300.149, 82.50000
1301.221, 92.23828
1302.293, 20.02734
1303.365, 170.6797
1304.437, 42.38477
1305.509, 190.0859
1306.581, 258.7578
1307.652, 49.56836
1308.724, 0.2519530
1309.795, 51.92578
1310.866, 294.5938
1311.937, 77.73438
1313.008, 292.8809
1314.079, 142.4902
1315.150, 164.0938
