##NAMES=Microcline
##RRUFFID=R040154
##IDEAL CHEMISTRY=KAlSi_3_O_8_
##LOCALITY=Mitchell County, North Carolina, USA
##OWNER=RRUFF
##SOURCE=University of Arizona Mineral Museum
##DESCRIPTION=White cleavage fragment with some perthitic character
##STATUS=The identification of this mineral has been confirmed by X-ray diffraction and chemical analysis
##URL=rruff.info/R040154
##MEASURED CHEMISTRY=(K_0.90_Na_0.09_Ba_0.01_)Al_1.00_(Si_2.99_Al_0.01_)_Î£=3_O_8_
##PIN_ID=L00521
##ORIENTATION=Laser parallel to -c* (0 0 -1). Fiducial mark perpendicular to laser is parallel to a [1 0 0]
91.981, 0.000
93.375, 140.650
94.768, 19.184
96.161, 1.646
97.554, 68.548
98.947, 204.248
100.340, 329.704
101.732, 600.311
103.124, 886.884
104.516, 1275.023
105.908, 1934.883
107.300, 2094.087
108.691, 2210.611
110.082, 1811.717
111.473, 1619.767
112.864, 1531.100
114.254, 1903.145
115.644, 2351.416
117.034, 2992.508
118.424, 3580.081
119.813, 4684.876
121.203, 5714.930
122.592, 6937.106
123.981, 8093.156
125.369, 8740.096
126.758, 9047.030
128.146, 8629.871
129.534, 8378.132
130.922, 7062.423
132.309, 6008.629
133.696, 4720.637
135.083, 4142.343
136.470, 3453.658
137.857, 3211.521
139.243, 3171.874
140.630, 3082.679
142.016, 3063.898
143.401, 3353.504
144.787, 3595.465
146.172, 3988.764
147.557, 4255.357
148.942, 4582.648
150.327, 4853.331
151.711, 4913.041
153.096, 5087.694
154.480, 4976.380
155.863, 4998.624
157.247, 4959.482
158.630, 4603.328
160.013, 4284.445
161.396, 3840.841
162.779, 3362.621
164.161, 2960.251
165.544, 2501.539
166.926, 2465.756
168.308, 2520.206
169.689, 2827.508
171.070, 3388.664
172.452, 4166.685
173.833, 4978.570
175.213, 5827.279
176.594, 6111.695
177.974, 6634.907
179.354, 6456.992
180.734, 5970.977
182.114, 4996.887
183.493, 4231.749
184.872, 3550.580
186.251, 3151.396
187.630, 2675.208
189.008, 2518.024
190.387, 2682.852
191.765, 2997.693
193.143, 3405.556
194.520, 4034.439
195.898, 4647.346
197.275, 4809.273
198.652, 5138.229
200.029, 4664.207
201.405, 4209.314
202.782, 3452.142
204.158, 3046.468
205.534, 2720.950
206.909, 2122.422
208.285, 1952.328
209.660, 1570.215
211.035, 1020.147
212.410, 781.122
213.784, 479.135
215.159, 240.185
216.533, 211.321
217.907, 65.334
219.281, 16.935
220.654, 14.263
222.027, 49.029
223.400, 12.448
224.773, 64.950
226.146, 2.345
227.518, 56.414
228.891, 123.963
230.263, 4.393
231.634, 452.762
233.006, 109.862
234.377, 75.481
235.748, 208.905
237.119, 84.702
238.490, 166.441
239.860, 171.203
241.231, 177.068
242.601, 430.580
243.970, 501.436
245.340, 732.127
246.709, 964.785
248.079, 1611.421
249.448, 2088.056
250.816, 2999.685
252.185, 3801.309
253.553, 4676.926
254.921, 5553.727
256.289, 6564.141
257.657, 7311.200
259.024, 7992.018
260.391, 8873.884
261.758, 9465.915
263.125, 10312.735
264.492, 10654.387
265.858, 10148.402
267.224, 9723.887
268.590, 8337.779
269.956, 7359.028
271.321, 6194.592
272.687, 5323.438
274.052, 4677.531
275.416, 4842.855
276.781, 5124.377
278.146, 5691.081
279.510, 6878.947
280.874, 7936.954
282.237, 9106.105
283.601, 9394.378
284.964, 9601.757
286.327, 9246.228
287.690, 8189.787
289.053, 6717.418
290.416, 5723.117
291.778, 4354.876
293.140, 3528.688
294.502, 2567.555
295.863, 1996.460
297.225, 1390.397
298.586, 1036.361
299.947, 702.347
301.308, 446.354
302.668, 317.378
304.029, 248.416
305.389, 91.466
306.749, 102.525
308.108, 2.592
309.468, 135.341
310.827, 186.310
312.186, 294.334
313.545, 326.104
314.903, 204.685
316.262, 301.998
317.620, 244.418
318.978, 81.931
320.336, 163.498
321.693, 42.152
323.051, 113.125
324.408, 370.354
325.765, 745.512
327.121, 740.607
328.478, 952.654
329.834, 1030.648
331.190, 951.612
332.546, 731.544
333.902, 696.443
335.257, 349.312
336.612, 339.150
337.967, 196.957
339.322, 24.267
340.677, 62.460
342.031, 84.846
343.385, 7.783
344.739, 151.632
346.093, 154.131
347.446, 141.715
348.799, 71.381
350.153, 42.813
351.505, 63.097
352.858, 58.273
354.210, 107.415
355.563, 129.528
356.915, 166.613
358.267, 150.675
359.618, 63.710
360.969, 268.709
362.321, 135.682
363.672, 202.625
365.022, 441.478
366.373, 411.113
367.723, 775.507
369.073, 917.680
370.423, 1062.736
371.773, 1077.763
373.122, 963.768
374.471, 959.785
375.821, 625.784
377.169, 486.872
378.518, 273.938
379.866, 217.029
381.215, 25.041
382.563, 54.048
383.910, 25.545
385.258, 85.972
386.605, 58.702
387.952, 57.389
389.299, 3.962
390.646, 129.167
391.992, 174.009
393.339, 298.272
394.685, 509.538
396.031, 1072.819
397.376, 1083.300
398.722, 1656.517
400.067, 1966.619
401.412, 2165.726
402.757, 2524.714
404.101, 2331.585
405.446, 2291.403
406.790, 2183.201
408.134, 2374.979
409.478, 2471.743
410.821, 2523.486
412.165, 2326.211
413.508, 2413.916
414.851, 1850.604
416.193, 1293.273
417.536, 1003.923
418.878, 650.554
420.220, 638.193
421.562, 130.839
422.904, 301.471
424.245, 270.098
425.586, 153.715
426.927, 301.309
428.268, 308.885
429.609, 243.444
430.949, 337.983
432.289, 498.500
433.629, 502.730
434.969, 676.608
436.309, 710.729
437.648, 1128.439
438.987, 1302.531
440.326, 1527.268
441.665, 2019.638
443.003, 2650.991
444.342, 3791.854
445.680, 5038.083
447.018, 6956.363
448.355, 9287.523
449.693, 11647.739
451.030, 14154.909
452.367, 16107.151
453.704, 18013.201
455.041, 17326.916
456.377, 13273.851
457.713, 10753.170
459.049, 8778.157
460.385, 7232.992
461.721, 6345.053
463.056, 5692.220
464.391, 5657.938
465.726, 6022.617
467.061, 6838.258
468.395, 8210.030
469.730, 10469.749
471.064, 12185.729
472.398, 14590.538
473.731, 15829.359
475.065, 16471.982
476.398, 16035.028
477.731, 14917.773
479.064, 12965.939
480.397, 11310.869
481.729, 9856.740
483.062, 8684.688
484.394, 7374.846
485.725, 6414.970
487.057, 5330.059
488.389, 4521.115
489.720, 3829.137
491.051, 3809.126
492.382, 3509.081
493.712, 3609.003
495.043, 3853.893
496.373, 4265.748
497.703, 5118.570
499.032, 6125.359
500.362, 7542.531
501.691, 9752.647
503.020, 12677.787
504.349, 16646.445
505.678, 21845.078
507.007, 28142.418
508.335, 34504.387
509.663, 41043.621
510.991, 46175.508
512.319, 47556.832
513.646, 46115.164
514.973, 39920.480
516.300, 33585.867
517.627, 26012.482
518.954, 19526.242
520.280, 15418.310
521.607, 11684.207
522.933, 9321.826
524.259, 7262.262
525.584, 6039.912
526.910, 5184.758
528.235, 4201.394
529.560, 3714.601
530.885, 3093.211
532.209, 2706.250
533.534, 2575.206
534.858, 2143.941
536.182, 1982.027
537.506, 1812.479
538.829, 1651.984
540.152, 1377.861
541.476, 1544.754
542.799, 1043.923
544.121, 1183.332
545.444, 1095.373
546.766, 954.416
548.088, 927.674
549.410, 789.330
550.732, 766.230
552.053, 684.100
553.375, 559.783
554.696, 564.482
556.017, 415.148
557.337, 506.797
558.658, 615.420
559.978, 311.762
561.298, 552.342
562.618, 320.896
563.938, 405.883
565.257, 458.389
566.576, 306.871
567.895, 401.621
569.214, 572.070
570.533, 445.504
571.851, 353.914
573.170, 517.299
574.488, 432.660
575.805, 589.996
577.123, 608.332
578.440, 654.654
579.758, 865.949
581.075, 752.635
582.391, 709.928
583.708, 742.193
585.024, 467.254
586.341, 317.479
587.657, 529.680
588.972, 328.861
590.288, 328.021
591.603, 78.158
592.918, 110.268
594.233, 26.346
595.548, 134.385
596.863, 24.422
598.177, 114.416
599.491, 195.381
600.805, 24.678
602.119, 86.209
603.432, 215.066
604.746, 185.898
606.059, 223.346
607.372, 184.186
608.685, 187.244
609.997, 42.992
611.309, 51.707
612.621, 21.615
613.933, 53.004
615.245, 107.590
616.557, 177.148
617.868, 218.682
619.179, 141.191
620.490, 106.678
621.801, 261.135
623.111, 220.568
624.421, 284.238
625.731, 163.365
627.041, 357.537
628.351, 375.072
629.660, 382.436
630.970, 713.826
632.279, 655.277
633.588, 709.797
634.896, 649.352
636.205, 898.969
637.513, 811.637
638.821, 1128.309
640.129, 1387.012
641.437, 1572.715
642.744, 1631.396
644.051, 1937.053
645.358, 2172.691
646.665, 2548.305
647.972, 2857.900
649.278, 2863.473
650.584, 2993.023
651.890, 3208.553
653.196, 2934.061
654.502, 2587.549
655.807, 2097.016
657.113, 1946.461
658.418, 1701.908
659.722, 1397.340
661.027, 995.787
662.331, 737.229
663.636, 765.709
664.940, 466.229
666.244, 582.781
667.547, 312.355
668.851, 473.936
670.154, 145.504
671.457, 170.061
672.760, 202.596
674.062, 23.111
675.365, 104.596
676.667, 125.057
677.969, 69.502
679.271, 93.922
680.572, 24.320
681.874, 6.465
683.175, 62.012
684.476, 86.689
685.777, 32.475
687.077, 39.318
688.378, 334.779
689.678, 93.346
690.978, 55.643
692.278, 383.127
693.577, 87.729
694.877, 247.570
696.176, 267.959
697.475, 104.529
698.774, 44.910
700.072, 4.732
701.371, 41.795
702.669, 66.664
703.967, 124.635
705.265, 285.502
706.562, 172.213
707.860, 18.676
709.157, 288.676
710.454, 13.514
711.751, 364.928
713.047, 256.279
714.344, 361.611
715.640, 57.924
716.936, 228.297
718.232, 469.566
719.527, 106.818
720.823, 255.268
722.118, 321.660
723.413, 150.484
724.708, 417.658
726.002, 531.242
727.297, 353.379
728.591, 716.840
729.885, 811.939
731.179, 730.027
732.472, 814.676
733.766, 1083.146
735.059, 1250.176
736.352, 1634.902
737.645, 2027.906
738.937, 2419.895
740.230, 2710.457
741.522, 3550.549
742.814, 4567.865
744.106, 5919.846
745.397, 7106.707
746.689, 8210.590
747.980, 9423.840
749.271, 9419.281
750.562, 9001.438
751.853, 7620.197
753.143, 6559.289
754.433, 5452.691
755.723, 4463.414
757.013, 3949.115
758.303, 3406.398
759.592, 3377.111
760.881, 2967.727
762.170, 2932.408
763.459, 2723.984
764.748, 2313.098
766.036, 2395.545
767.325, 1875.133
768.613, 1698.010
769.901, 1499.607
771.188, 1191.771
772.476, 1348.215
773.763, 873.760
775.050, 1095.078
776.337, 936.184
777.624, 916.688
778.910, 621.174
780.196, 771.646
781.482, 639.936
782.768, 512.379
784.054, 701.812
785.339, 890.232
786.625, 723.637
787.910, 1017.027
789.195, 986.402
790.479, 991.766
791.764, 1105.111
793.048, 984.445
794.332, 1218.762
795.616, 1185.062
796.900, 1172.350
798.183, 1171.623
799.467, 1441.879
800.750, 1547.121
802.033, 2061.307
803.316, 2574.969
804.598, 3355.758
805.880, 4103.939
807.163, 5078.109
808.445, 6309.266
809.726, 7838.404
811.008, 9687.531
812.289, 10602.643
813.570, 11087.742
814.851, 10134.824
816.132, 8459.898
817.413, 6561.953
818.693, 5294.994
819.973, 3712.023
821.253, 2748.035
822.533, 2416.035
823.813, 1675.020
825.092, 1294.730
826.371, 1195.525
827.650, 962.445
828.929, 992.109
830.208, 877.586
831.486, 551.133
832.764, 591.385
834.042, 469.770
835.320, 523.400
836.598, 509.771
837.875, 364.906
839.152, 280.211
840.429, 471.902
841.706, 389.152
842.983, 15.939
844.259, 249.764
845.536, 103.770
846.812, 111.389
848.088, 174.604
849.363, 193.725
850.639, 170.439
851.914, 166.354
853.189, 30.582
854.464, 96.732
855.739, 12.635
857.013, 69.068
858.288, 12.168
859.562, 51.768
860.836, 141.188
862.110, 47.537
863.383, 10.018
864.656, 75.473
865.930, 113.033
867.203, 228.535
868.475, 124.033
869.748, 78.789
871.020, 153.275
872.292, 223.756
873.564, 44.781
874.836, 53.258
876.108, 71.270
877.379, 215.887
878.650, 48.678
879.922, 150.779
881.192, 12.234
882.463, 169.684
883.733, 92.135
885.004, 105.418
886.274, 50.025
887.544, 218.342
888.813, 188.289
890.083, 132.980
891.352, 121.252
892.621, 6.477
893.890, 22.213
895.159, 2.037
896.427, 20.719
897.695, 18.246
898.964, 116.740
900.232, 23.035
901.499, 165.188
902.767, 187.408
904.034, 106.363
905.301, 134.816
906.568, 222.037
907.835, 130.258
909.102, 46.525
910.368, 42.689
911.634, 122.943
912.900, 125.197
914.166, 342.451
915.432, 224.701
916.697, 80.045
917.962, 240.180
919.227, 152.412
920.492, 359.648
921.757, 98.902
923.021, 175.154
924.285, 207.414
925.550, 199.670
926.813, 57.943
928.077, 158.217
929.341, 230.492
930.604, 318.768
931.867, 139.082
933.130, 183.395
934.393, 435.707
935.655, 78.023
936.918, 239.342
938.180, 82.658
939.442, 194.971
940.703, 279.283
941.965, 356.592
943.226, 381.451
944.488, 122.211
945.749, 370.518
947.009, 284.824
948.270, 225.129
949.530, 401.438
950.791, 208.750
952.051, 275.055
953.311, 130.371
954.570, 232.684
955.830, 267.996
957.089, 261.311
958.348, 323.627
959.607, 407.943
960.866, 344.262
962.124, 129.586
963.383, 468.908
964.641, 264.227
965.899, 413.551
967.156, 501.871
968.414, 426.193
969.671, 439.516
970.928, 330.838
972.185, 624.156
973.442, 411.484
974.699, 865.809
975.955, 668.156
977.211, 562.502
978.468, 960.850
979.723, 724.193
980.979, 753.547
982.234, 1273.898
983.490, 699.295
984.745, 972.688
986.000, 1168.084
987.254, 1115.488
988.509, 1656.904
989.763, 1623.334
991.017, 2152.801
992.271, 2359.285
993.525, 2564.805
994.779, 2855.525
996.032, 2739.121
997.285, 2654.453
998.538, 1877.027
999.791, 2216.754
1001.044, 1604.553
1002.296, 1753.352
1003.548, 1398.227
1004.800, 1227.203
1006.052, 1285.018
1007.304, 1079.844
1008.555, 1193.785
1009.807, 1120.305
1011.058, 736.219
1012.309, 731.143
1013.559, 715.078
1014.810, 669.801
1016.060, 748.086
1017.310, 864.043
1018.560, 516.066
1019.810, 565.062
1021.060, 917.416
1022.309, 389.434
1023.558, 813.758
1024.807, 353.336
1026.056, 724.500
1027.305, 636.479
1028.553, 872.184
1029.801, 718.295
1031.049, 630.955
1032.297, 708.736
1033.545, 891.617
1034.793, 642.795
1036.040, 694.850
1037.287, 778.627
1038.534, 662.818
1039.781, 887.195
1041.027, 480.195
1042.274, 771.326
1043.520, 886.264
1044.766, 571.215
1046.012, 574.795
1047.257, 542.592
1048.503, 864.844
1049.748, 517.457
1050.993, 718.363
1052.238, 500.160
1053.483, 404.816
1054.727, 291.604
1055.971, 261.100
1057.216, 446.832
1058.459, 298.635
1059.703, 476.619
1060.947, 575.609
1062.190, 539.346
1063.433, 373.791
1064.676, 495.340
1065.919, 289.197
1067.162, 536.242
1068.404, 153.918
1069.646, 314.748
1070.888, 625.670
1072.130, 417.777
1073.372, 282.645
1074.613, 495.645
1075.855, 277.299
1077.096, 388.008
1078.337, 707.842
1079.578, 475.225
1080.818, 657.105
1082.059, 561.012
1083.299, 705.707
1084.539, 546.451
1085.779, 747.016
1087.018, 633.873
1088.258, 802.855
1089.497, 812.969
1090.736, 938.744
1091.975, 950.951
1093.213, 1233.354
1094.452, 1387.916
1095.690, 1506.977
1096.928, 1873.115
1098.166, 1994.494
1099.404, 2260.633
1100.642, 1777.154
1101.879, 2132.922
1103.116, 1632.426
1104.353, 1628.240
1105.590, 1230.621
1106.827, 1252.668
1108.063, 985.305
1109.299, 1054.303
1110.536, 906.939
1111.771, 793.367
1113.007, 970.189
1114.243, 999.578
1115.478, 834.570
1116.713, 1093.486
1117.948, 1322.523
1119.183, 1156.408
1120.418, 1496.176
1121.652, 2058.113
1122.886, 2422.797
1124.120, 2516.756
1125.354, 2183.428
1126.588, 1826.242
1127.821, 1431.184
1129.055, 1574.447
1130.288, 1509.211
1131.521, 1486.316
1132.753, 1435.318
1133.986, 1548.090
1135.218, 2084.105
1136.450, 1637.969
1137.682, 2300.121
1138.914, 2132.191
1140.146, 1949.098
1141.377, 1835.725
1142.609, 1486.195
1143.840, 1445.811
1145.071, 1396.697
1146.301, 946.668
1147.532, 1015.447
1148.762, 638.867
1149.992, 548.297
1151.222, 587.338
1152.452, 683.123
1153.682, 404.895
1154.911, 496.385
1156.140, 55.420
1157.369, 296.104
1158.598, 213.908
1159.827, 430.078
1161.055, 135.635
1162.284, 227.490
1163.512, 183.697
1164.740, 293.578
1165.967, 29.980
1167.195, 419.877
1168.422, 198.443
1169.650, 308.531
1170.877, 242.008
1172.103, 9.752
1173.330, 240.658
1174.557, 178.506
1175.783, 158.023
1177.009, 160.625
1178.235, 192.557
1179.461, 83.916
1180.686, 142.312
1181.912, 312.570
1183.137, 216.701
1184.362, 322.803
1185.587, 85.955
1186.811, 352.977
1188.036, 136.627
1189.260, 105.336
1190.484, 248.455
1191.708, 371.721
1192.932, 148.037
1194.155, 172.580
1195.378, 87.781
1196.602, 36.428
1197.825, 131.971
1199.047, 187.555
1200.270, 220.254
1201.492, 563.457
1202.715, 93.389
1203.937, 406.980
1205.159, 185.145
1206.380, 446.672
1207.602, 106.293
1208.823, 198.109
1210.044, 266.969
1211.265, 253.510
1212.486, 177.857
1213.707, 53.943
1214.927, 218.891
1216.147, 179.531
1217.367, 451.123
1218.587, 348.736
1219.807, 165.223
1221.027, 369.660
1222.246, 27.744
1223.465, 182.570
1224.684, 496.826
1225.903, 270.119
1227.121, 109.732
1228.340, 378.803
1229.558, 188.801
1230.776, 172.873
1231.994, 214.145
1233.212, 380.361
1234.429, 347.045
1235.646, 312.854
1236.864, 390.648
1238.081, 285.336
1239.297, 235.471
1240.514, 398.748
1241.730, 343.963
1242.947, 288.025
1244.163, 64.027
1245.378, 279.949
1246.594, 426.801
1247.810, 35.666
1249.025, 418.738
1250.240, 121.334
1251.455, 201.113
1252.670, 275.445
1253.885, 137.086
1255.099, 277.207
1256.313, 39.246
1257.527, 402.107
1258.741, 301.879
1259.955, 160.506
1261.168, 249.139
1262.382, 261.670
1263.595, 227.256
1264.808, 256.678
1266.021, 277.957
1267.233, 75.730
1268.446, 285.738
1269.658, 29.754
1270.870, 275.049
1272.082, 233.762
1273.294, 852.398
1274.505, 134.172
1275.716, 223.564
1276.928, 97.541
1278.139, 390.650
1279.349, 199.488
1280.560, 145.514
1281.770, 161.459
1282.981, 12.412
1284.191, 127.135
1285.401, 142.785
1286.610, 2.318
1287.820, 210.717
1289.029, 109.969
1290.239, 333.189
1291.448, 113.264
1292.656, 2.768
1293.865, 177.092
1295.073, 163.854
1296.282, 88.480
1297.490, 110.059
1298.698, 107.514
1299.906, 135.867
1301.113, 208.129
1302.320, 103.422
1303.528, 243.488
1304.735, 56.238
1305.942, 102.117
1307.148, 198.324
1308.355, 18.191
1309.561, 172.977
1310.767, 35.453
1311.973, 79.223
1313.179, 42.961
1314.384, 309.777
1315.590, 75.148
1316.795, 247.531
1318.000, 68.660
1319.205, 117.195
1320.410, 151.348
1321.614, 141.668
1322.819, 163.582
1324.023, 41.465
1325.227, 117.820
1326.431, 40.449
1327.634, 69.379
1328.838, 134.281
1330.041, 122.648
1331.244, 347.641
1332.447, 0.305
1333.650, 166.801
1334.852, 102.496
1336.055, 83.832
1337.257, 230.832
1338.459, 165.660
1339.661, 240.355
1340.862, 143.094
1342.064, 140.766
1343.265, 133.043
1344.466, 295.457
1345.667, 165.156
1346.868, 172.117
1348.068, 341.922
1349.269, 51.191
1350.469, 286.375
1351.669, 151.230
1352.869, 281.758
1354.069, 505.070
1355.268, 66.277
1356.468, 243.363
1357.667, 295.203
1358.866, 320.984
1360.065, 425.426
1361.263, 450.461
1362.462, 366.008
1363.660, 479.332
1364.858, 448.625
1366.056, 332.551
1367.254, 499.957
1368.451, 392.539
1369.649, 138.969
1370.846, 442.539
1372.043, 267.832
1373.240, 494.773
1374.436, 337.969
1375.633, 275.926
1376.829, 275.988
1378.025, 367.926
1379.221, 321.844
1380.417, 309.832
1381.613, 109.984
1382.808, 182.359
1384.003, 445.984
1385.199, 347.762
1386.393, 121.938
1387.588, 425.219
1388.783, 332.414
1389.977, 564.836
1391.171, 301.914
1392.365, 228.457
1393.559, 477.520
1394.753, 244.734
1395.946, 371.109
1397.140, 169.457
1398.333, 468.289
1399.526, 278.059
1400.719, 350.492
1401.911, 461.836
1403.104, 317.785
1404.296, 204.496
1405.488, 198.836
1406.680, 162.148
1407.872, 177.254
1409.063, 189.590
1410.255, 46.836
1411.446, 299.461
1412.637, 63.195
1413.828, 221.641
1415.018, 222.441
1416.209, 241.258
1417.399, 107.254
1418.589, 583.668
1419.779, 30.207
1420.969, 322.242
1422.159, 1.574
1423.348, 216.098
1424.537, 148.336
1425.726, 119.746
1426.915, 217.594
1428.104, 134.570
1429.293, 194.945
1430.481, 199.145
1431.669, 278.746
1432.857, 304.332
1434.045, 403.965
1435.233, 367.215
1436.420, 434.230
1437.608, 269.223
1438.795, 221.703
1439.982, 221.684
1441.169, 387.688
1442.355, 333.773
1443.542, 436.984
1444.728, 154.180
1445.914, 376.516
1447.100, 219.305
1448.286, 395.223
1449.472, 162.367
1450.657, 534.320
1451.842, 259.195
1453.027, 259.758
1454.212, 737.648
1455.397, 84.785
1456.581, 361.121
1457.766, 589.723
1458.950, 125.477
1460.134, 407.324
1461.318, 42.449
1462.501, 148.035
1463.685, 442.066
1464.868, 10.996
1466.051, 580.555
1467.234, 87.809
1468.417, 36.895
1469.600, 490.367
1470.782, 367.812
1471.965, 6.188
1473.147, 643.570
1474.329, 392.160
1475.510, 1.406
1476.692, 0.000
##END=



