##NAMES=Microcline
##RRUFFID=R050054
##IDEAL CHEMISTRY=KAlSi_3_O_8_
##LOCALITY=Kenticha, Negele area, Sidamo Province, Ethiopia
##OWNER=RRUFF
##SOURCE=Rock Currier
##DESCRIPTION=Light blue single crystal
##STATUS=The identification of this mineral has been confirmed by X-ray diffraction and chemical analysis
##URL=rruff.info/R050054
##MEASURED CHEMISTRY=(K_0.96_Na_0.04_)Al_1.00_Si_3.00_O_8_
##PIN_ID=M00118
##ORIENTATION=Laser parallel to (1 0 1). Fiducial mark perpendicular to laser is parallel to b [0 1 0]
88.728, 0.000
90.128, 5.517
91.527, 44.057
92.926, 129.132
94.324, 155.313
95.723, 210.237
97.121, 223.017
98.519, 164.202
99.917, 302.940
101.314, 415.016
102.712, 707.580
104.109, 1010.796
105.505, 1602.935
106.902, 2214.465
108.298, 2954.344
109.694, 3252.262
111.090, 3451.721
112.486, 3067.095
113.881, 2531.108
115.277, 1905.279
116.672, 1499.344
118.066, 1313.256
119.461, 1093.107
120.855, 1193.344
122.249, 1524.476
123.643, 2020.777
125.036, 2562.572
126.430, 2787.258
127.823, 3013.885
129.216, 2910.591
130.608, 2657.752
132.001, 2005.813
133.393, 1580.006
134.785, 1033.514
136.176, 651.500
137.568, 488.103
138.959, 289.538
140.350, 217.761
141.741, 104.725
143.131, 159.901
144.521, 149.870
145.911, 344.496
147.301, 525.845
148.691, 774.213
150.080, 987.312
151.469, 1163.898
152.858, 1200.659
154.247, 1232.317
155.635, 1094.033
157.024, 972.071
158.411, 891.958
159.799, 803.468
161.187, 719.808
162.574, 685.926
163.961, 569.503
165.348, 490.432
166.734, 483.744
168.121, 421.776
169.507, 420.334
170.893, 435.151
172.278, 573.665
173.664, 789.311
175.049, 1014.106
176.434, 1373.060
177.819, 1652.173
179.203, 1942.435
180.587, 2054.829
181.971, 1992.333
183.355, 1676.929
184.739, 1323.606
186.122, 986.350
187.505, 696.152
188.888, 518.722
190.271, 385.884
191.653, 293.792
193.035, 280.711
194.417, 272.632
195.799, 319.640
197.180, 516.223
198.562, 595.961
199.943, 634.128
201.324, 645.312
202.704, 575.037
204.084, 410.801
205.465, 315.269
206.844, 154.893
208.224, 63.690
209.603, 0.015
210.983, 11.562
212.362, 53.184
213.740, 50.592
215.119, 120.201
216.497, 91.045
217.875, 120.846
219.253, 125.497
220.631, 101.878
222.008, 71.582
223.385, 111.175
224.762, 51.552
226.139, 48.408
227.515, 85.369
228.891, 52.830
230.267, 116.487
231.643, 81.619
233.018, 77.944
234.394, 26.516
235.769, 40.636
237.144, 25.773
238.518, 4.444
239.893, 28.368
241.267, 58.671
242.641, 38.507
244.014, 96.711
245.388, 111.218
246.761, 127.315
248.134, 187.277
249.507, 280.150
250.879, 394.952
252.252, 594.699
253.624, 876.409
254.996, 1231.248
256.367, 1650.031
257.739, 2060.295
259.110, 2353.698
260.481, 2782.444
261.852, 3012.404
263.222, 3413.500
264.592, 3717.620
265.962, 4095.840
267.332, 4314.902
268.702, 4141.683
270.071, 3785.341
271.440, 3322.751
272.809, 2739.855
274.178, 2446.739
275.546, 1962.354
276.915, 1741.826
278.283, 1639.153
279.650, 1729.338
281.018, 1862.375
282.385, 2190.267
283.752, 2515.025
285.119, 2760.638
286.486, 3010.097
287.852, 2933.384
289.218, 2668.486
290.584, 2300.397
291.950, 1862.112
293.316, 1468.615
294.681, 1174.914
296.046, 974.026
297.411, 744.980
298.775, 617.781
300.140, 540.440
301.504, 441.958
302.868, 402.340
304.231, 327.584
305.595, 291.668
306.958, 241.406
308.321, 211.188
309.684, 165.778
311.047, 150.320
312.409, 129.723
313.771, 113.969
315.133, 114.870
316.495, 107.482
317.856, 104.709
319.217, 121.545
320.578, 90.051
321.939, 120.247
323.299, 121.164
324.660, 126.791
326.020, 159.146
327.380, 162.294
328.739, 237.103
330.099, 252.389
331.458, 370.533
332.817, 393.335
334.176, 383.077
335.534, 415.848
336.892, 287.172
338.251, 288.657
339.608, 235.099
340.966, 205.499
342.323, 169.854
343.681, 160.164
345.037, 185.426
346.394, 120.641
347.751, 186.807
349.107, 169.926
350.463, 182.997
351.819, 186.019
353.174, 174.659
354.530, 243.700
355.885, 238.244
357.240, 308.644
358.594, 286.942
359.949, 335.533
361.303, 318.894
362.657, 336.513
364.011, 308.067
365.365, 342.549
366.718, 372.897
368.071, 429.483
369.424, 502.085
370.777, 578.291
372.129, 666.402
373.481, 724.009
374.833, 789.887
376.185, 633.177
377.537, 506.635
378.888, 417.735
380.239, 306.669
381.590, 251.738
382.941, 237.513
384.291, 192.765
385.642, 123.922
386.992, 183.595
388.341, 129.014
389.691, 98.641
391.040, 152.955
392.389, 65.322
393.738, 129.705
395.087, 121.291
396.435, 109.125
397.784, 153.207
399.132, 154.427
400.479, 344.424
401.827, 412.532
403.174, 591.619
404.521, 694.485
405.868, 713.929
407.215, 704.438
408.561, 763.728
409.908, 749.065
411.254, 806.524
412.599, 928.568
413.945, 940.091
415.290, 1058.194
416.636, 853.282
417.980, 483.320
419.325, 346.307
420.670, 256.240
422.014, 180.118
423.358, 131.940
424.702, 94.703
426.045, 77.406
427.389, 37.049
428.732, 54.178
430.075, 98.149
431.417, 101.610
432.760, 133.012
434.102, 175.358
435.444, 194.648
436.786, 234.930
438.127, 241.208
439.469, 348.502
440.810, 425.739
442.151, 561.953
443.492, 676.138
444.832, 878.995
446.172, 1148.068
447.512, 1482.104
448.852, 2081.881
450.192, 2836.970
451.531, 3729.348
452.870, 4787.267
454.209, 5546.922
455.548, 6063.468
456.887, 5883.535
458.225, 5273.792
459.563, 4402.324
460.901, 3470.192
462.238, 2910.422
463.576, 2361.271
464.913, 2136.947
466.250, 1933.144
467.587, 1892.153
468.923, 2014.913
470.259, 2260.409
471.596, 2855.491
472.931, 3545.409
474.267, 4342.124
475.603, 5183.625
476.938, 5431.111
478.273, 5505.481
479.608, 5072.796
480.942, 4426.307
482.276, 3757.412
483.611, 3427.885
484.944, 3047.358
486.278, 2767.869
487.612, 2443.644
488.945, 2054.442
490.278, 1727.787
491.611, 1593.188
492.943, 1354.076
494.276, 1333.053
495.608, 1207.981
496.940, 1309.041
498.271, 1326.555
499.603, 1444.066
500.934, 1696.344
502.265, 1898.490
503.596, 2356.354
504.927, 2956.137
506.257, 3867.132
507.587, 5136.584
508.917, 6821.592
510.247, 9152.456
511.577, 12268.433
512.906, 15054.436
514.235, 17440.340
515.564, 17266.586
516.892, 16152.801
518.221, 13799.311
519.549, 10895.793
520.877, 8562.416
522.205, 6461.195
523.533, 5099.769
524.860, 3995.267
526.187, 3084.302
527.514, 2576.583
528.841, 2131.822
530.167, 1738.782
531.493, 1459.146
532.820, 1258.385
534.145, 1105.753
535.471, 1011.969
536.796, 914.474
538.122, 790.854
539.447, 689.566
540.771, 579.519
542.096, 588.312
543.420, 498.352
544.744, 471.982
546.068, 487.148
547.392, 403.108
548.715, 316.412
550.039, 326.574
551.362, 277.296
552.684, 307.992
554.007, 295.056
555.329, 212.169
556.652, 257.308
557.973, 206.683
559.295, 195.120
560.617, 208.150
561.938, 179.194
563.259, 155.259
564.580, 163.334
565.901, 156.425
567.221, 121.518
568.541, 145.621
569.861, 142.725
571.181, 112.827
572.501, 135.938
573.820, 97.044
575.139, 119.141
576.458, 117.229
577.777, 104.309
579.095, 158.387
580.414, 133.467
581.732, 188.274
583.049, 193.880
584.367, 218.336
585.685, 170.721
587.002, 147.938
588.319, 136.228
589.636, 140.704
590.952, 111.937
592.268, 79.823
593.585, 64.636
594.900, 42.434
596.216, 30.500
597.532, 13.587
598.847, 14.602
600.162, 7.611
601.477, 2.613
602.792, 27.390
604.106, 4.594
605.420, 34.428
606.734, 28.626
608.048, 7.515
609.361, 19.567
610.675, 3.630
611.988, 35.302
613.301, 27.771
614.614, 14.855
615.926, 21.947
617.238, 21.951
618.550, 39.155
619.862, 38.724
621.174, 21.601
622.485, 12.478
623.797, 50.354
625.108, 65.234
626.418, 84.116
627.729, 77.004
629.039, 107.897
630.349, 91.797
631.659, 105.705
632.969, 101.622
634.279, 111.687
635.588, 142.485
636.897, 130.432
638.206, 188.390
639.515, 186.356
640.823, 232.335
642.131, 273.323
643.439, 320.321
644.747, 452.328
646.055, 476.344
647.362, 537.368
648.669, 697.398
649.976, 762.433
651.283, 818.472
652.589, 873.514
653.896, 905.560
655.202, 905.608
656.508, 857.661
657.814, 755.719
659.119, 588.783
660.424, 552.854
661.729, 480.932
663.034, 346.018
664.339, 272.111
665.643, 217.213
666.947, 195.323
668.251, 150.440
669.555, 99.564
670.859, 128.695
672.162, 90.834
673.465, 91.978
674.768, 124.128
676.071, 20.282
677.373, 35.442
678.676, 22.395
679.978, 16.238
681.280, 35.913
682.581, 24.931
683.883, 5.784
685.184, 1.362
686.485, 29.493
687.786, 15.638
689.087, 34.230
690.387, 19.885
691.687, 83.737
692.987, 16.663
694.287, 50.956
695.586, 39.855
696.886, 50.837
698.185, 31.701
699.484, 6.278
700.783, 28.635
702.081, 3.669
703.379, 24.742
704.677, 22.293
705.975, 0.339
707.273, 4.838
708.570, 39.108
709.868, 109.058
711.165, 94.954
712.462, 49.024
713.758, 108.977
715.055, 82.931
716.351, 101.884
717.647, 97.842
718.943, 61.800
720.238, 86.572
721.533, 91.322
722.829, 141.377
724.124, 151.154
725.418, 149.133
726.713, 158.062
728.007, 171.037
729.301, 187.080
730.595, 204.998
731.889, 266.912
733.182, 336.823
734.476, 387.897
735.769, 512.312
737.061, 547.259
738.354, 673.156
739.647, 809.231
740.939, 936.126
742.231, 1242.020
743.523, 1417.913
744.814, 1782.824
746.106, 2253.715
747.397, 2656.606
748.688, 3187.938
749.978, 3436.414
751.269, 3409.251
752.559, 3165.038
753.849, 2700.763
755.139, 2432.480
756.429, 1960.166
757.719, 1654.980
759.008, 1386.916
760.297, 1135.585
761.586, 998.239
762.875, 836.172
764.163, 801.479
765.451, 677.661
766.739, 561.213
768.027, 547.001
769.315, 481.851
770.602, 481.135
771.890, 457.182
773.177, 378.909
774.463, 432.260
775.750, 313.055
777.036, 336.776
778.323, 296.459
779.609, 281.266
780.894, 328.071
782.180, 291.872
783.465, 284.670
784.750, 308.619
786.035, 298.331
787.320, 331.046
788.605, 335.831
789.889, 331.614
791.173, 384.393
792.457, 403.168
793.741, 467.940
795.024, 513.709
796.307, 488.474
797.591, 547.247
798.873, 582.005
800.156, 546.760
801.439, 595.510
802.721, 585.257
804.003, 674.000
805.285, 782.740
806.566, 897.477
807.848, 1178.208
809.129, 1461.937
810.410, 1909.662
811.691, 2462.382
812.971, 2831.100
814.252, 3225.812
815.532, 3142.522
816.812, 2854.227
818.092, 2285.929
819.371, 1821.626
820.651, 1337.320
821.930, 1034.010
823.209, 806.695
824.488, 597.377
825.766, 436.054
827.045, 410.728
828.323, 269.398
829.601, 292.063
830.878, 260.666
832.156, 174.323
833.433, 212.750
834.710, 116.445
835.987, 192.090
837.264, 119.332
838.540, 127.448
839.817, 112.838
841.093, 126.795
842.369, 50.344
843.644, 94.020
844.920, 19.421
846.195, 121.296
847.470, 5.751
848.745, 21.356
850.020, 67.545
851.294, 14.113
852.568, 69.708
853.842, 7.900
855.116, 29.797
856.390, 2.744
857.663, 28.238
858.936, 36.909
860.209, 17.716
861.482, 33.086
862.755, 48.608
864.027, 9.871
865.299, 73.638
866.571, 76.145
867.843, 19.649
869.115, 82.152
870.386, 15.652
871.657, 15.150
872.928, 6.353
874.199, 23.182
875.470, 8.602
876.740, 23.933
878.010, 11.514
879.280, 32.959
880.550, 44.598
881.820, 7.817
883.089, 59.229
884.358, 16.640
885.627, 20.049
886.896, 21.544
888.164, 28.153
889.433, 28.593
890.701, 23.571
891.969, 14.077
893.236, 19.266
894.504, 48.609
895.771, 49.950
897.038, 11.290
898.305, 66.629
899.572, 52.966
900.838, 19.697
902.105, 22.375
903.371, 35.932
904.637, 39.239
905.902, 10.544
907.168, 31.850
908.433, 33.155
909.698, 2.460
910.963, 14.764
912.228, 25.072
913.492, 52.380
914.757, 4.693
916.021, 10.991
917.285, 66.319
918.548, 15.631
919.812, 11.945
921.075, 24.258
922.338, 46.575
923.601, 31.895
924.864, 45.217
926.126, 7.540
927.388, 104.869
928.650, 78.198
929.912, 50.526
931.174, 40.856
932.435, 12.185
933.697, 58.514
934.958, 36.843
936.218, 39.171
937.479, 120.500
938.739, 64.829
940.000, 75.158
941.260, 25.487
942.520, 52.816
943.779, 42.146
945.039, 39.476
946.298, 56.805
947.557, 98.136
948.816, 1.466
950.074, 91.796
951.333, 112.127
952.591, 27.458
953.849, 52.790
955.107, 90.122
956.365, 85.455
957.622, 117.788
958.879, 66.122
960.136, 117.456
961.393, 103.791
962.650, 138.127
963.906, 101.463
965.162, 125.801
966.418, 137.138
967.674, 92.483
968.930, 85.829
970.185, 107.176
971.441, 122.529
972.696, 134.882
973.950, 139.237
975.205, 146.593
976.459, 129.949
977.714, 134.307
978.968, 215.666
980.222, 221.026
981.475, 204.387
982.729, 319.750
983.982, 247.121
985.235, 348.500
986.488, 437.885
987.740, 450.273
988.993, 520.668
990.245, 618.068
991.497, 747.470
992.749, 894.881
994.000, 968.294
995.252, 1017.474
996.503, 1082.881
997.754, 1008.329
999.005, 981.141
1000.256, 893.549
1001.506, 807.036
1002.756, 770.396
1004.006, 682.910
1005.256, 628.319
1006.506, 631.847
1007.755, 540.932
1009.005, 517.469
1010.254, 382.016
1011.502, 363.029
1012.751, 363.598
1014.000, 300.169
1015.248, 296.705
1016.496, 253.305
1017.744, 220.907
1018.991, 207.512
1020.239, 181.120
1021.486, 202.190
1022.733, 260.345
1023.980, 248.143
1025.227, 231.973
1026.473, 236.498
1027.719, 200.300
1028.965, 285.917
1030.211, 275.584
1031.457, 257.203
1032.702, 242.755
1033.948, 183.431
1035.193, 189.114
1036.438, 196.800
1037.682, 212.839
1038.927, 236.515
1040.171, 226.177
1041.415, 251.896
1042.659, 254.386
1043.903, 152.113
1045.146, 262.842
1046.390, 149.574
1047.633, 195.293
1048.876, 245.033
1050.118, 232.791
1051.361, 245.094
1052.603, 190.254
1053.845, 232.007
1055.087, 243.777
1056.329, 159.601
1057.571, 249.371
1058.812, 212.156
1060.053, 144.814
1061.294, 219.607
1062.535, 110.551
1063.775, 115.351
1065.016, 108.083
1066.256, 137.142
1067.496, 143.953
1068.736, 162.767
1069.975, 154.585
1071.214, 135.406
1072.454, 94.231
1073.693, 124.059
1074.931, 159.891
1076.170, 134.723
1077.408, 175.561
1078.647, 155.407
1079.885, 160.263
1081.122, 143.128
1082.360, 157.818
1083.597, 211.884
1084.835, 209.768
1086.072, 234.655
1087.308, 303.545
1088.545, 250.438
1089.781, 341.336
1091.018, 358.236
1092.254, 324.140
1093.490, 448.046
1094.725, 457.957
1095.961, 529.872
1097.196, 586.791
1098.431, 598.702
1099.666, 639.627
1100.900, 622.556
1102.135, 638.488
1103.369, 625.423
1104.603, 573.360
1105.837, 476.302
1107.071, 429.246
1108.304, 425.193
1109.538, 436.143
1110.771, 437.096
1112.004, 348.052
1113.236, 372.011
1114.469, 360.974
1115.701, 433.261
1116.933, 504.370
1118.165, 521.346
1119.397, 591.348
1120.629, 646.765
1121.860, 662.307
1123.091, 777.291
1124.322, 859.277
1125.553, 942.266
1126.783, 817.258
1128.014, 824.252
1129.244, 798.248
1130.474, 752.338
1131.704, 696.846
1132.933, 738.094
1134.163, 707.285
1135.392, 825.380
1136.621, 786.426
1137.850, 825.448
1139.079, 903.460
1140.307, 840.475
1141.535, 862.492
1142.763, 755.510
1143.991, 705.529
1145.219, 651.561
1146.446, 561.324
1147.674, 512.669
1148.901, 421.784
1150.128, 347.823
1151.354, 310.021
1152.581, 319.185
1153.807, 225.308
1155.033, 261.397
1156.259, 141.792
1157.485, 162.065
1158.710, 181.545
1159.936, 127.641
1161.161, 128.671
1162.386, 106.717
1163.611, 82.782
1164.835, 88.877
1166.060, 77.054
1167.284, 96.118
1168.508, 104.576
1169.732, 93.865
1170.955, 90.795
1172.179, 93.434
1173.402, 51.507
1174.625, 79.580
1175.848, 36.859
1177.070, 75.939
1178.293, 135.046
1179.515, 53.299
1180.737, 71.388
1181.959, 73.189
1183.181, 90.390
1184.402, 26.476
1185.624, 68.674
1186.845, 41.773
1188.066, 131.574
1189.286, 23.249
1190.507, 34.850
1191.727, 74.947
1192.947, 20.148
1194.167, 28.354
1195.387, 37.521
1196.607, 2.609
1197.826, 36.766
1199.045, 13.857
1200.264, 46.952
1201.483, 5.094
1202.702, 1.615
1203.920, 129.472
1205.138, 26.501
1206.356, 8.738
1207.574, 109.819
1208.792, 4.103
1210.009, 25.971
1211.227, 64.041
1212.444, 2.337
1213.661, 81.406
1214.877, 52.598
1216.094, 42.724
1217.310, 59.785
1218.526, 25.843
1219.742, 92.910
1220.958, 104.962
1222.173, 60.011
1223.389, 45.170
1224.604, 24.370
1225.819, 92.811
1227.034, 90.266
1228.248, 94.133
1229.463, 71.300
1230.677, 90.512
1231.891, 82.407
1233.105, 74.671
1234.318, 59.697
1235.532, 60.594
1236.745, 51.863
1237.958, 70.904
1239.171, 45.968
1240.384, 73.991
1241.596, 60.577
1242.809, 90.599
1244.021, 53.620
1245.233, 74.797
1246.444, 89.816
1247.656, 94.827
1248.867, 100.832
1250.079, 95.835
1251.290, 93.722
1252.500, 56.838
1253.711, 80.838
1254.921, 68.828
1256.132, 63.813
1257.342, 94.798
1258.552, 63.839
1259.761, 128.820
1260.971, 15.189
1262.180, 9.853
1263.389, 42.815
1264.598, 9.894
1265.807, 102.072
1267.015, 98.020
1268.223, 88.039
1269.432, 138.966
1270.640, 87.857
1271.847, 154.746
1273.055, 59.617
1274.262, 82.484
1275.470, 27.333
1276.677, 15.848
1277.883, 6.961
1279.090, 10.630
1280.296, 29.911
1281.503, 42.286
1282.709, 48.918
1283.915, 66.895
1285.120, 66.830
1286.326, 75.568
1287.531, 89.429
1288.736, 62.031
1289.941, 115.746
1291.146, 88.436
1292.350, 45.120
1293.555, 7.201
1294.759, 60.532
1295.963, 18.193
1297.167, 26.848
1298.370, 38.669
1299.574, 47.312
1300.777, 6.940
1301.980, 13.537
1303.183, 27.891
1304.386, 12.662
1305.588, 53.208
1306.790, 80.255
1307.993, 114.251
1309.195, 51.744
1310.396, 32.229
1311.598, 88.729
1312.799, 26.804
1314.000, 38.645
1315.201, 59.084
1316.402, 29.485
1317.603, 69.925
1318.803, 63.327
1320.003, 55.282
1321.203, 91.078
1322.403, 54.427
1323.603, 22.766
1324.802, 150.095
1326.002, 0.416
1327.201, 34.724
1328.400, 78.021
1329.599, 37.689
1330.797, 62.577
1331.995, 15.167
1333.194, 45.074
1334.392, 67.358
1335.589, 75.582
1336.787, 36.796
1337.985, 34.998
1339.182, 44.192
1340.379, 69.378
1341.576, 45.542
1342.772, 76.714
1343.969, 113.877
1345.165, 51.035
1346.361, 7.828
1347.557, 66.242
1348.753, 35.625
1349.949, 25.689
1351.144, 212.638
1352.339, 85.741
1353.534, 90.691
1354.729, 79.785
1355.924, 16.876
1357.118, 126.904
1358.312, 33.045
1359.506, 48.128
1360.700, 132.210
1361.894, 111.293
1363.088, 60.377
1364.281, 114.460
1365.474, 74.548
1366.667, 36.641
1367.860, 7.263
1369.052, 11.137
1370.245, 11.363
1371.437, 17.938
1372.629, 32.195
1373.821, 23.933
1375.013, 58.574
1376.204, 46.317
1377.395, 83.053
1378.586, 38.783
1379.777, 125.505
1380.968, 63.217
1382.159, 57.920
1383.349, 146.617
1384.539, 4.307
1385.729, 134.990
1386.919, 74.667
1388.109, 32.336
1389.298, 129.998
1390.487, 89.011
1391.676, 112.473
1392.865, 94.082
1394.054, 107.683
1395.242, 122.277
1396.431, 124.307
1397.619, 97.544
1398.807, 135.583
1399.995, 75.976
1401.182, 56.499
1402.370, 93.028
1403.557, 68.552
1404.744, 55.070
1405.931, 124.156
1407.118, 15.446
1408.304, 68.674
1409.490, 100.646
1410.676, 48.575
1411.862, 82.643
1413.048, 95.234
1414.234, 84.357
1415.419, 90.325
1416.604, 73.461
1417.789, 93.044
1418.974, 97.174
1420.159, 56.267
1421.343, 37.153
1422.528, 78.029
1423.712, 58.395
1424.896, 146.811
1426.079, 54.692
1427.263, 5.518
1428.446, 91.199
1429.629, 78.057
1430.812, 61.022
1431.995, 71.892
1433.178, 67.768
1434.360, 154.401
1435.543, 121.232
1436.725, 24.655
1437.907, 102.236
1439.088, 102.915
1440.270, 1.672
1441.451, 135.441
1442.632, 90.771
1443.813, 39.997
1444.994, 48.708
1446.175, 93.794
1447.355, 134.092
1448.535, 177.264
1449.715, 28.500
1450.895, 97.593
1452.075, 76.822
1453.255, 20.644
1454.434, 63.796
1455.613, 81.901
1456.792, 105.945
1457.971, 127.970
1459.149, 111.826
1460.328, 97.657
1461.506, 77.316
1462.684, 71.196
1463.862, 66.700
1465.040, 76.497
1466.217, 67.360
1467.395, 59.819
1468.572, 68.245
1469.749, 49.015
1470.925, 68.102
1472.102, 93.569
1473.278, 111.587
1474.455, 86.581
1475.631, 79.702
1476.807, 67.552
1477.982, 132.596
1479.158, 19.938
1480.333, 104.036
1481.508, 37.338
1482.683, 52.643
1483.858, 171.965
1485.033, 40.214
1486.207, 59.595
1487.381, 54.999
1488.555, 47.443
1489.729, 164.966
1490.903, 95.587
1492.076, 0.721
1493.250, 174.045
1494.423, 102.903
1495.596, 20.866
1496.769, 214.934
1497.941, 97.153
1499.114, 3.535
1500.286, 140.061
1501.458, 24.764
1502.630, 49.670
1503.802, 102.813
1504.973, 36.431
1506.145, 140.074
1507.316, 78.077
1508.487, 71.456
1509.657, 160.210
1510.828, 45.613
1511.999, 83.876
1513.169, 151.617
1514.339, 0.562
1515.509, 0.000
##END=



