##NAMES=Microcline
##RRUFFID=R050150
##IDEAL CHEMISTRY=KAlSi_3_O_8_
##LOCALITY=Crystal Peak area, Park/Teller Counties, Colorado, USA
##OWNER=RRUFF
##SOURCE=Dave Bunk Minerals
##DESCRIPTION=Pale blue prismatic crystals
##STATUS=The identification of this mineral has been confirmed by X-ray diffraction and chemical analysis
##URL=rruff.info/R050150
##MEASURED CHEMISTRY=(K_0.95_Na_0.05_)_Î£=1_Al_1.00_Si_3.00_O_8_
##PIN_ID=L01075
##ORIENTATION=Laser parallel to (0 1 1). Fiducial mark perpendicular to laser is parallel to a [1 0 0]
131.4920, 0.0000000E+00
132.7300, 81.20020
133.9690, 21.43848
135.2070, 31.51074
136.4450, 452.5127
137.6830, 1176.131
138.9210, 2001.496
140.1580, 2804.017
141.3950, 3390.586
142.6330, 4308.893
143.8690, 5729.774
145.1060, 7384.143
146.3430, 9254.380
147.5790, 10627.02
148.8150, 11310.49
150.0510, 11475.85
151.2870, 10884.50
152.5220, 10426.15
153.7580, 9925.862
154.9930, 9272.804
156.2280, 8587.518
157.4620, 7731.301
158.6970, 6615.507
159.9310, 5694.516
161.1660, 4606.568
162.4000, 3902.141
163.6330, 2955.752
164.8670, 2218.860
166.1000, 1970.843
167.3340, 1668.021
168.5670, 1742.674
169.8000, 2061.473
171.0320, 2532.941
172.2650, 2922.233
173.4970, 4235.805
174.7290, 5497.619
175.9610, 6921.092
177.1930, 7549.130
178.4240, 7470.924
179.6550, 6775.115
180.8870, 5867.482
182.1170, 4911.214
183.3480, 4067.227
184.5790, 3430.031
185.8090, 2674.214
187.0390, 2389.875
188.2690, 2097.566
189.4990, 2046.151
190.7290, 2135.855
191.9580, 2406.639
193.1870, 2871.468
194.4160, 3527.322
195.6450, 4082.246
196.8740, 4440.461
198.1020, 4658.696
199.3310, 4381.916
200.5590, 3894.129
201.7870, 3175.332
203.0140, 2577.535
204.2420, 1802.737
205.4690, 1303.116
206.6960, 798.8975
207.9230, 554.0244
209.1500, 334.5215
210.3760, 122.0947
211.6030, 117.6143
212.8290, 21.93848
214.0550, 11.25000
215.2810, 79.53027
216.5060, 95.22559
217.7320, 138.9287
218.9570, 188.4727
220.1820, 136.4609
221.4070, 167.9590
222.6320, 75.32910
223.8560, 208.8242
225.0800, 81.46582
226.3040, 170.2646
227.5280, 124.4590
228.7520, 117.6416
229.9760, 86.83496
231.1990, 115.0557
232.4220, 35.31641
233.6450, 19.61816
234.8680, 92.96094
236.0910, 35.34082
237.3130, 32.21680
238.5350, 37.73926
239.7570, 129.9365
240.9790, 42.75391
242.2010, 239.1631
243.4220, 262.5400
244.6430, 515.8359
245.8640, 755.9746
247.0850, 1002.856
248.3060, 1167.402
249.5270, 1646.544
250.7470, 2227.332
251.9670, 2802.770
253.1870, 3786.881
254.4070, 4709.709
255.6260, 5662.291
256.8460, 6177.699
258.0650, 6825.221
259.2840, 7366.365
260.5030, 7613.899
261.7220, 7712.087
262.9400, 8026.940
264.1580, 8254.940
265.3760, 8068.974
266.5940, 7557.043
267.8120, 6719.146
269.0290, 6036.279
270.2470, 5522.446
271.4640, 4968.643
272.6810, 4590.869
273.8980, 4192.129
275.1140, 4455.415
276.3310, 4559.734
277.5470, 5377.435
278.7630, 6169.951
279.9790, 7261.036
281.1940, 8677.902
282.4100, 9718.936
283.6250, 10399.58
284.8400, 10765.41
286.0550, 10324.70
287.2700, 9480.748
288.4850, 8215.655
289.6990, 7124.423
290.9130, 6170.105
292.1270, 4936.686
293.3410, 4128.140
294.5540, 3566.451
295.7680, 3062.617
296.9810, 2834.635
298.1940, 2572.500
299.4070, 2248.191
300.6200, 1869.665
301.8320, 1522.891
303.0450, 1336.844
304.2570, 1006.520
305.4690, 879.9229
306.6800, 672.0723
307.8920, 513.9893
309.1030, 375.6914
310.3150, 363.1973
311.5260, 297.5205
312.7360, 183.6895
313.9470, 260.6934
315.1580, 132.5674
316.3680, 213.2812
317.5780, 262.7588
318.7880, 358.9082
319.9980, 260.6123
321.2070, 446.7939
322.4170, 536.4141
323.6260, 840.5713
324.8350, 1075.080
326.0430, 1265.465
327.2520, 1665.311
328.4610, 2039.859
329.6690, 2320.141
330.8770, 2366.455
332.0850, 2430.178
333.2920, 2190.081
334.5000, 1870.969
335.7070, 1545.864
336.9140, 1168.771
338.1210, 925.6846
339.3280, 740.6084
340.5350, 677.5400
341.7410, 423.4795
342.9470, 481.4238
344.1540, 470.3750
345.3590, 298.3301
346.5650, 413.2881
347.7710, 312.2510
348.9760, 442.2178
350.1810, 503.1895
351.3860, 593.1660
352.5910, 775.1465
353.7950, 809.2354
355.0000, 892.6270
356.2040, 929.8984
357.4080, 958.0996
358.6120, 942.1572
359.8150, 912.9912
361.0190, 914.6416
362.2220, 892.4023
363.4250, 873.5107
364.6280, 899.5967
365.8310, 1054.029
367.0340, 1230.552
368.2360, 1614.942
369.4380, 1898.003
370.6400, 2159.108
371.8420, 2186.696
373.0440, 2120.223
374.2450, 1698.245
375.4470, 1654.266
376.6480, 1170.581
377.8490, 817.9688
379.0490, 479.4072
380.2500, 299.3086
381.4500, 133.8916
382.6510, 3.733398
383.8510, 85.46289
385.0500, 47.00098
386.2500, 192.0391
387.4500, 51.59082
388.6490, 18.43848
389.8480, 65.53809
391.0470, 0.8017580
392.2460, 319.8535
393.4440, 416.5117
394.6430, 677.1729
395.8410, 882.8398
397.0390, 1258.513
398.2370, 1633.193
399.4340, 2376.885
400.6320, 2908.586
401.8290, 3161.297
403.0260, 3267.023
404.2230, 2842.748
405.4200, 2603.430
406.6170, 2128.119
407.8130, 2005.817
409.0090, 1709.528
410.2050, 1673.253
411.4010, 1594.996
412.5970, 1356.751
413.7920, 1198.520
414.9880, 996.3008
416.1830, 596.1055
417.3780, 364.9238
418.5730, 215.7715
419.7670, 28.32910
420.9620, 77.42090
422.1560, 39.53906
423.3500, 150.6982
424.5440, 37.94043
425.7380, 76.21875
426.9310, 24.44629
428.1240, 81.91992
429.3180, 41.34863
430.5110, 122.8262
431.7030, 28.38379
432.8960, 81.01270
434.0890, 101.3760
435.2810, 130.7090
436.4730, 182.0088
437.6650, 395.2783
438.8570, 519.5156
440.0480, 637.7266
441.2390, 1162.908
442.4310, 1227.060
443.6220, 1807.184
444.8120, 2469.281
446.0030, 3057.352
447.1940, 4024.396
448.3840, 5048.420
449.5740, 6286.420
450.7640, 7810.396
451.9540, 8787.101
453.1430, 9267.008
454.3330, 8847.462
455.5220, 8110.326
456.7110, 7442.346
457.9000, 6302.615
459.0890, 5720.178
460.2770, 4860.145
461.4650, 4550.979
462.6540, 4679.933
463.8420, 4826.830
465.0290, 5446.921
466.2170, 6540.086
467.4050, 7978.233
468.5920, 9858.823
469.7790, 11994.14
470.9660, 14441.85
472.1530, 16953.81
473.3390, 19533.37
474.5250, 20633.16
475.7120, 20378.94
476.8980, 19068.74
478.0840, 16976.55
479.2690, 14649.35
480.4550, 12905.17
481.6400, 11037.98
482.8250, 9617.808
484.0100, 8451.636
485.1950, 7015.080
486.3800, 6001.783
487.5640, 5066.460
488.7480, 4117.438
489.9320, 3556.915
491.1160, 3135.987
492.3000, 2801.624
493.4840, 2607.497
494.6670, 2741.376
495.8500, 2585.262
497.0330, 3183.155
498.2160, 3434.064
499.3990, 4198.000
500.5810, 5097.960
501.7630, 6277.970
502.9460, 8080.027
504.1280, 10287.15
505.3090, 13306.34
506.4910, 17190.62
507.6720, 21250.97
508.8540, 26136.42
510.0350, 31370.95
511.2160, 36172.54
512.3960, 38204.23
513.5770, 37377.98
514.7570, 34443.81
515.9380, 30059.72
517.1180, 25397.71
518.2970, 20269.76
519.4770, 15979.87
520.6570, 12411.04
521.8360, 9939.247
523.0150, 7628.521
524.1940, 6003.553
525.3730, 4983.094
526.5510, 4214.058
527.7300, 3529.282
528.9080, 2871.251
530.0860, 2462.188
531.2640, 2201.013
532.4420, 2019.058
533.6200, 1592.765
534.7970, 1550.271
535.9740, 1263.785
537.1510, 1203.307
538.3280, 1082.834
539.5050, 876.3711
540.6810, 877.9141
541.8580, 765.4658
543.0340, 518.0244
544.2100, 520.4492
545.3860, 554.0215
546.5610, 696.5996
547.7370, 508.1865
548.9120, 523.7803
550.0870, 449.3809
551.2620, 384.9883
552.4370, 359.8916
553.6120, 302.4424
554.7860, 319.1396
555.9600, 252.7744
557.1340, 264.6494
558.3080, 305.7734
559.4820, 341.2793
560.6560, 317.8799
561.8290, 321.9033
563.0020, 213.4600
564.1750, 245.5684
565.3480, 51.15625
566.5210, 130.3467
567.6930, 270.0146
568.8660, 152.4346
570.0380, 155.8887
571.2100, 215.0596
572.3820, 247.5361
573.5530, 287.1826
574.7250, 332.0479
575.8960, 397.4922
577.0670, 412.6641
578.2380, 500.5234
579.4090, 549.3916
580.5800, 515.7100
581.7500, 555.5537
582.9210, 536.2061
584.0910, 527.3906
585.2610, 509.3037
586.4300, 455.2441
587.6000, 457.2012
588.7690, 247.1660
589.9390, 186.1387
591.1080, 58.12305
592.2770, 33.11523
593.4450, 16.88281
594.6140, 6.875977
595.7820, 82.86426
596.9500, 54.12695
598.1190, 92.86523
599.2860, 136.1338
600.4540, 13.84570
601.6220, 101.8184
602.7890, 41.82422
603.9560, 119.6270
605.1230, 125.8770
606.2900, 103.9521
607.4570, 84.06348
608.6230, 36.20410
609.7890, 30.45020
610.9560, 75.46289
612.1220, 2.375977
613.2870, 12.75391
614.4530, 13.14355
615.6180, 89.05273
616.7840, 93.59961
617.9490, 153.9521
619.1140, 152.9346
620.2790, 259.9258
621.4430, 276.9248
622.6080, 245.9336
623.7720, 386.9502
624.9360, 340.9873
626.1000, 550.0361
627.2640, 443.1064
628.4270, 612.2148
629.5910, 743.3359
630.7540, 763.4658
631.9170, 909.6133
633.0800, 850.7705
634.2430, 795.9355
635.4050, 895.1348
636.5680, 1113.343
637.7300, 1002.570
638.8920, 1165.815
640.0540, 1142.067
641.2150, 1363.327
642.3770, 1253.597
643.5380, 1494.874
644.7000, 1693.156
645.8610, 1758.445
647.0210, 1869.739
648.1820, 1950.037
649.3430, 2212.344
650.5030, 2279.654
651.6630, 2274.021
652.8230, 2406.338
653.9830, 2162.658
655.1430, 2116.981
656.3020, 1935.306
657.4620, 1770.981
658.6210, 1635.959
659.7800, 1437.288
660.9390, 1224.618
662.0970, 1039.947
663.2560, 870.2764
664.4140, 740.6074
665.5720, 505.9414
666.7300, 652.2773
667.8880, 435.6230
669.0460, 317.0146
670.2030, 148.4082
671.3600, 231.8008
672.5180, 207.1963
673.6740, 205.5938
674.8310, 261.9902
675.9880, 257.3838
677.1440, 84.77637
678.3010, 135.1680
679.4570, 25.55664
680.6130, 107.9414
681.7690, 197.3262
682.9240, 19.29199
684.0800, 123.0693
685.2350, 72.42773
686.3900, 45.78418
687.5450, 288.1387
688.7000, 92.49023
689.8540, 111.8398
691.0090, 6.814453
692.1630, 129.5146
693.3170, 43.84082
694.4710, 60.16406
695.6250, 22.19238
696.7780, 10.10352
697.9320, 48.61035
699.0850, 129.3633
700.2380, 9.985352
701.3910, 52.14844
702.5440, 242.3672
703.6970, 90.54590
704.8490, 241.7520
706.0010, 68.96289
707.1530, 297.6807
708.3050, 209.7275
709.4570, 177.3203
710.6090, 264.5518
711.7600, 174.8037
712.9110, 54.20703
714.0620, 350.9229
715.2130, 174.3545
716.3640, 604.3994
717.5150, 190.6289
718.6650, 26.85156
719.8150, 236.0625
720.9650, 273.2676
722.1150, 166.9971
723.2650, 54.37500
724.4150, 95.72949
725.5640, 163.3848
726.7130, 361.5547
727.8630, 208.7188
729.0110, 350.0479
730.1600, 298.1973
731.3090, 433.3389
732.4570, 498.6709
733.6060, 540.3711
734.7540, 657.1582
735.9020, 824.6885
737.0490, 887.5811
738.1970, 1227.831
739.3440, 1446.176
740.4920, 1624.947
741.6390, 1906.981
742.7860, 2510.014
743.9320, 2788.320
745.0790, 3372.736
746.2250, 3803.410
747.3720, 4434.868
748.5180, 4522.354
749.6640, 4396.439
750.8100, 3949.751
751.9550, 3461.596
753.1010, 3127.732
754.2460, 2635.114
755.3910, 2250.535
756.5360, 1775.507
757.6810, 1504.537
758.8250, 1354.490
759.9700, 1064.583
761.1140, 1050.519
762.2580, 920.0762
763.4020, 702.9932
764.5460, 850.0908
765.6900, 698.5361
766.8330, 648.4766
767.9760, 659.3535
769.1200, 670.6572
770.2620, 497.5137
771.4050, 553.3594
772.5480, 593.3789
773.6900, 284.2012
774.8330, 323.8232
775.9750, 304.7812
777.1170, 346.5703
778.2590, 282.3477
779.4000, 235.8223
780.5420, 154.5762
781.6830, 203.3164
782.8240, 195.0459
783.9650, 178.7637
785.1060, 177.4688
786.2470, 141.3184
787.3870, 99.25000
788.5280, 79.91895
789.6680, 97.57422
790.8080, 95.16699
791.9480, 266.8486
793.0870, 211.4668
794.2270, 368.0732
795.3660, 421.6660
796.5060, 330.2471
797.6450, 315.8154
798.7830, 322.3711
799.9220, 284.9141
801.0610, 525.4453
802.1990, 462.9629
803.3370, 464.4678
804.4750, 792.9609
805.6130, 734.4414
806.7510, 872.9082
807.8890, 1342.362
809.0260, 1514.804
810.1630, 1694.232
811.3000, 1992.647
812.4370, 2217.050
813.5740, 1905.440
814.7110, 1901.817
815.8470, 1655.181
816.9830, 1330.531
818.1190, 1141.869
819.2550, 839.1943
820.3910, 836.6465
821.5270, 528.9453
822.6620, 395.2324
823.7970, 365.5059
824.9330, 436.7666
826.0670, 258.0156
827.2020, 306.2510
828.3370, 280.1836
829.4710, 109.3936
830.6060, 162.5918
831.7400, 50.77734
832.8740, 92.71191
834.0080, 140.3945
835.1410, 158.6865
836.2750, 22.12207
837.4080, 257.4043
838.5410, 65.48438
839.6740, 130.5527
840.8070, 263.6104
841.9400, 125.6553
843.0730, 12.31152
844.2050, 17.68750
845.3370, 58.33301
846.4690, 75.58789
847.6010, 243.4961
848.7330, 39.60645
849.8640, 76.75879
850.9960, 220.0225
852.1270, 136.7920
853.2580, 101.5488
854.3890, 90.29590
855.5200, 115.5879
856.6500, 104.3125
857.7810, 23.02441
858.9110, 38.30176
860.0410, 42.59570
861.1710, 4.0038999E-02
862.3010, 82.64941
863.4310, 74.24805
864.5600, 36.83691
865.6900, 144.1426
866.8190, 233.9775
867.9480, 218.5322
869.0770, 198.0820
870.2050, 39.62402
871.3340, 40.17285
872.4620, 51.29004
873.5900, 34.21973
874.7180, 106.7158
875.8460, 129.2080
876.9740, 146.7129
878.1010, 34.78223
879.2290, 30.28906
880.3560, 4.197266
881.4830, 93.68945
882.6100, 65.80762
883.7370, 105.6475
884.8630, 85.10254
885.9900, 70.43555
887.1160, 89.02734
888.2420, 28.31738
889.3680, 22.34863
890.4940, 119.0459
891.6200, 197.1748
892.7450, 33.38574
893.8700, 51.58789
894.9960, 23.78125
896.1210, 58.96387
897.2460, 28.86133
898.3700, 69.28125
899.4950, 38.58691
900.6190, 92.49121
901.7430, 29.53809
902.8670, 105.5605
903.9910, 12.42578
905.1150, 80.56543
906.2390, 137.5479
907.3620, 89.47656
908.4850, 226.4365
909.6080, 36.65723
910.7310, 26.78516
911.8540, 220.0596
912.9770, 168.8975
914.0990, 5.271484
915.2210, 43.54395
916.3440, 68.35156
917.4660, 88.15332
918.5870, 33.94727
919.7090, 110.7354
920.8310, 3.483398
921.9520, 198.2861
923.0730, 96.04785
924.1940, 131.7529
925.3150, 236.5039
926.4360, 110.2480
927.5560, 162.9883
928.6770, 201.7031
929.7970, 142.2383
930.9170, 351.1719
932.0370, 104.8887
933.1570, 265.6016
934.2760, 264.3066
935.3960, 135.0098
936.5150, 204.7070
937.6340, 192.4004
938.7530, 199.0859
939.8720, 142.7988
940.9910, 108.5059
942.1090, 138.2090
943.2280, 208.9082
944.3460, 121.6016
945.4640, 198.2930
946.5820, 269.9805
947.6990, 152.6641
948.8170, 189.3457
949.9340, 444.0195
951.0520, 339.6914
952.1690, 185.3613
953.2860, 314.0293
954.4030, 189.6914
955.5190, 196.3594
956.6360, 115.0273
957.7520, 78.69141
958.8680, 156.3516
959.9840, 178.0098
961.1000, 258.6660
962.2160, 270.3242
963.3310, 205.7148
964.4470, 300.6426
965.5620, 127.3008
966.6770, 159.6348
967.7920, 343.3008
968.9060, 272.9688
970.0210, 173.6562
971.1360, 139.2031
972.2500, 368.9531
973.3640, 189.6562
974.4780, 427.4102
975.5920, 285.1641
976.7050, 282.9141
977.8190, 332.1699
978.9320, 467.0918
980.0450, 449.9395
981.1580, 435.2363
982.2710, 555.0176
983.3840, 587.6562
984.4970, 733.9883
985.6090, 948.7930
986.7210, 1083.607
987.8330, 1301.645
988.9450, 1411.240
990.0570, 1728.061
991.1690, 1816.885
992.2800, 2035.205
993.3920, 2141.898
994.5030, 2207.607
995.6140, 2055.014
996.7250, 2053.898
997.8350, 1952.789
998.9460, 2039.508
1000.056, 2016.420
1001.167, 1970.334
1002.277, 1779.254
1003.387, 1929.176
1004.496, 1629.994
1005.606, 1561.826
1006.715, 1281.256
1007.825, 1121.041
1008.934, 1089.982
1010.043, 893.9316
1011.152, 1000.883
1012.260, 728.4883
1013.369, 665.4004
1014.477, 790.5020
1015.586, 587.4902
1016.694, 705.2422
1017.802, 527.2422
1018.909, 529.2461
1020.017, 763.7812
1021.124, 651.1777
1022.232, 794.0605
1023.339, 704.6973
1024.446, 961.2949
1025.553, 770.3418
1026.659, 996.3281
1027.766, 912.3887
1028.872, 909.3105
1029.979, 959.3887
1031.085, 882.3789
1032.191, 927.9297
1033.296, 778.8379
1034.402, 873.3965
1035.507, 777.4590
1036.613, 911.5840
1037.718, 859.2793
1038.823, 1025.422
1039.928, 924.5723
1041.032, 998.5469
1042.137, 968.7168
1043.241, 783.0879
1044.346, 717.1309
1045.450, 933.3438
1046.554, 904.5684
1047.657, 960.0898
1048.761, 1203.334
1049.864, 1235.590
1050.968, 1121.854
1052.071, 1167.127
1053.174, 1095.412
1054.277, 923.3027
1055.379, 897.6113
1056.482, 798.9277
1057.584, 827.2578
1058.687, 541.5977
1059.789, 455.9492
1060.891, 268.3125
1061.992, 400.6855
1063.094, 182.0703
1064.196, 292.4648
1065.297, 370.8730
1066.398, 259.2910
1067.499, 183.7227
1068.600, 287.1641
1069.701, 213.6484
1070.801, 212.1133
1071.902, 125.2734
1073.002, 368.7617
1074.102, 65.26367
1075.202, 276.7734
1076.302, 185.2988
1077.402, 181.8320
1078.501, 360.3828
1079.600, 210.9395
1080.700, 397.5098
1081.799, 210.0918
1082.898, 257.6875
1083.996, 313.2930
1085.095, 300.0820
1086.193, 385.5410
1087.292, 396.1836
1088.390, 462.8379
1089.488, 458.5039
1090.586, 567.5723
1091.683, 717.8730
1092.781, 766.5762
1093.878, 952.8574
1094.975, 1027.586
1096.073, 949.3262
1097.169, 854.0801
1098.266, 1023.844
1099.363, 1007.623
1100.459, 1140.641
1101.556, 1047.059
1102.652, 1024.141
1103.748, 867.6094
1104.844, 973.6699
1105.940, 1148.350
1107.035, 1189.246
1108.131, 1323.150
1109.226, 1443.070
1110.321, 1594.012
1111.416, 1702.969
1112.511, 2297.770
1113.605, 2445.506
1114.700, 3034.799
1115.794, 3663.752
1116.889, 4054.842
1117.983, 4835.311
1119.077, 5608.430
1120.170, 6525.562
1121.264, 6949.703
1122.357, 7416.857
1123.451, 7434.938
1124.544, 7056.352
1125.637, 6768.543
1126.730, 6115.762
1127.823, 5409.000
1128.915, 4837.268
1130.008, 4515.545
1131.100, 4341.479
1132.192, 4168.779
1133.284, 4306.090
1134.376, 4496.412
1135.467, 4636.744
1136.559, 4663.088
1137.650, 4618.824
1138.742, 4465.828
1139.833, 4264.227
1140.924, 3918.629
1142.014, 3505.045
1143.105, 3116.602
1144.195, 2553.055
1145.286, 2232.531
1146.376, 1920.023
1147.466, 1790.525
1148.556, 1351.062
1149.646, 1209.605
1150.735, 920.1621
1151.825, 1123.504
1152.914, 935.1328
1154.003, 863.7715
1155.092, 588.4355
1156.181, 679.8691
1157.270, 669.5938
1158.358, 755.3262
1159.447, 667.3594
1160.535, 639.9629
1161.623, 501.5879
1162.711, 463.3730
1163.799, 441.1680
1164.886, 295.9883
1165.974, 253.8477
1167.061, 371.7148
1168.148, 419.5938
1169.235, 132.4863
1170.322, 417.3906
1171.409, 196.3047
1172.496, 292.2559
1173.582, 226.2148
1174.669, 169.4121
1175.755, 167.4121
1176.841, 172.4238
1177.927, 214.4434
1179.012, 232.4785
1180.098, 127.5195
1181.183, 233.5703
1182.269, 223.6289
1183.354, 239.6992
1184.439, 100.7773
1185.524, 259.8672
1186.608, 117.9629
1187.693, 214.0703
1188.777, 179.1836
1189.862, 33.30664
1190.946, 68.43555
1192.030, 55.36328
1193.113, 172.7227
1194.197, 88.87891
1195.281, 77.04297
1196.364, 17.21680
1197.447, 74.40430
1198.530, 22.60156
1199.613, 1.191406
1200.696, 79.02148
1201.779, 135.7559
1202.861, 128.4121
1203.944, 180.5918
1205.026, 155.7754
1206.108, 23.96875
1207.190, 229.1719
1208.271, 69.38086
1209.353, 26.59766
1210.435, 261.8203
1211.516, 183.0527
1212.597, 173.2910
1213.678, 92.53711
1214.759, 102.5703
1215.840, 153.0469
1216.920, 77.31445
1218.001, 166.5859
1219.081, 66.86523
1220.161, 117.1504
1221.241, 227.4453
1222.321, 140.7461
1223.401, 17.94922
1224.480, 239.3574
1225.560, 77.66992
1226.639, 7.990234
1227.718, 33.31641
1228.797, 24.65039
1229.876, 7.013672
1230.955, 16.91406
1232.033, 30.31641
1233.112, 70.84766
1234.190, 4.539063
1235.268, 18.90234
1236.346, 86.40430
1237.424, 164.7188
1238.501, 304.0352
1239.579, 114.3574
1240.656, 189.6836
1241.733, 16.98438
1242.811, 100.6543
1243.888, 25.37109
1244.964, 54.09180
1246.041, 4.164063
1247.117, 25.01953
1248.194, 126.2363
1249.270, 56.49609
1250.346, 66.75977
1251.422, 133.0273
1252.498, 98.70117
1253.573, 87.47656
1254.649, 52.71289
1255.724, 244.9082
1256.800, 247.1035
1257.875, 43.47266
1258.950, 116.6777
1260.024, 58.11523
1261.099, 32.06055
1262.173, 148.2422
1263.248, 136.4277
1264.322, 148.6172
1265.396, 145.8066
1266.470, 143.0020
1267.544, 135.1992
1268.617, 56.39844
1269.691, 130.6035
1270.764, 178.8105
1271.837, 61.97852
1272.910, 66.19727
1273.983, 99.37695
1275.056, 258.5566
1276.129, 146.7422
1277.201, 78.92969
1278.273, 99.11719
1279.346, 192.3047
1280.418, 3.501953
1281.489, 179.7051
1282.561, 214.9121
1283.633, 181.1309
1284.704, 1.658203
1285.776, 118.5449
1286.847, 29.75000
1287.918, 77.95508
1288.989, 60.16211
1290.059, 109.3711
1291.130, 93.58008
1292.200, 30.79102
1293.271, 186.0000
1294.341, 159.2129
1295.411, 37.42578
1296.481, 92.63867
1297.551, 119.8574
1298.620, 135.0762
1299.690, 94.29297
1300.759, 156.5078
1301.828, 36.72656
1302.897, 38.05859
1303.966, 192.1289
1305.035, 82.31250
1306.103, 212.4961
