##NAMES=Microcline
##RRUFFID=R040154
##IDEAL CHEMISTRY=KAlSi_3_O_8_
##LOCALITY=Mitchell County, North Carolina, USA
##OWNER=RRUFF
##SOURCE=University of Arizona Mineral Museum
##DESCRIPTION=White cleavage fragment with some perthitic character
##STATUS=The identification of this mineral has been confirmed by X-ray diffraction and chemical analysis
##URL=rruff.info/R040154
##MEASURED CHEMISTRY=(K_0.90_Na_0.09_Ba_0.01_)Al_1.00_(Si_2.99_Al_0.01_)_Î£=3_O_8_
##PIN_ID=L00336
##ORIENTATION=Laser parallel to (-1 0 -1). Fiducial mark perpendicular to laser is parallel to a [1 0 0]
104.516, 0.000
105.908, 314.259
107.300, 226.325
108.691, 274.316
110.082, 33.038
111.473, 18.969
112.864, 220.099
114.254, 507.903
115.644, 924.251
117.034, 1518.252
118.424, 2107.426
119.813, 3180.160
121.203, 4109.624
122.592, 5199.887
123.981, 6286.824
125.369, 7153.649
126.758, 7670.795
128.146, 7370.836
129.534, 6904.437
130.922, 5959.344
132.309, 5562.404
133.696, 5514.328
135.083, 6654.618
136.470, 7781.857
137.857, 9879.787
139.243, 11820.242
140.630, 13144.066
142.016, 12682.485
143.401, 11725.588
144.787, 10973.423
146.172, 10920.061
147.557, 11784.535
148.942, 13351.842
150.327, 15556.002
151.711, 18376.023
153.096, 21722.928
154.480, 25257.719
155.863, 28920.426
157.247, 31459.053
158.630, 31843.602
160.013, 29285.875
161.396, 24935.426
162.779, 20221.676
164.161, 15667.367
165.544, 12275.029
166.926, 9701.999
168.308, 7853.146
169.689, 6370.601
171.070, 5780.217
172.452, 5259.157
173.833, 4913.284
175.213, 4823.941
176.594, 4842.685
177.974, 5123.627
179.354, 4800.006
180.734, 4542.350
182.114, 3967.664
183.493, 3710.017
184.872, 3258.839
186.251, 3008.946
187.630, 2620.250
189.008, 2504.479
190.387, 2423.592
191.765, 2622.605
193.143, 3072.587
194.520, 3291.559
195.898, 3966.535
197.275, 4483.525
198.652, 4946.533
200.029, 4661.566
201.405, 3861.625
202.782, 3002.712
204.158, 2268.823
205.534, 1913.957
206.909, 1270.110
208.285, 1143.280
209.660, 888.467
211.035, 589.666
212.410, 418.877
213.784, 109.100
215.159, 3.671
216.533, 40.438
217.907, 14.214
219.281, 168.013
220.654, 192.838
222.027, 176.692
223.400, 188.576
224.773, 141.489
226.146, 82.402
227.518, 275.291
228.891, 114.288
230.263, 147.313
231.634, 56.367
233.006, 165.450
234.377, 50.528
235.748, 45.669
237.119, 50.838
238.490, 147.966
239.860, 248.740
241.231, 365.771
242.601, 606.345
243.970, 932.438
245.340, 1293.529
246.709, 1744.271
248.079, 2690.403
249.448, 3629.811
250.816, 5102.203
252.185, 6715.601
253.553, 8382.726
254.921, 10549.528
256.289, 12034.807
257.657, 12541.113
259.024, 11560.960
260.391, 10500.055
261.758, 9692.102
263.125, 9504.327
264.492, 9546.210
265.858, 9391.005
267.224, 8927.767
268.590, 7800.811
269.956, 7397.029
271.321, 6971.775
272.687, 7096.771
274.052, 7771.461
275.416, 9474.426
276.781, 11698.409
278.146, 14583.221
279.510, 18769.344
280.874, 22643.727
282.237, 27044.346
283.601, 29370.152
284.964, 30342.117
286.327, 29252.213
287.690, 24346.424
289.053, 19225.727
290.416, 15053.097
291.778, 11055.533
293.140, 8404.020
294.502, 6278.549
295.863, 4999.116
297.225, 3920.710
298.586, 3248.320
299.947, 2673.920
301.308, 2115.488
302.668, 1774.018
304.029, 1579.507
305.389, 1220.963
306.749, 918.384
308.108, 924.771
309.468, 706.128
310.827, 627.453
312.186, 516.746
313.545, 573.010
314.903, 498.242
316.262, 465.445
317.620, 506.619
318.978, 519.765
320.336, 660.879
321.693, 875.965
323.051, 1266.021
324.408, 1642.041
325.765, 2467.990
327.121, 3189.655
328.478, 4021.043
329.834, 4858.264
331.190, 5161.205
332.546, 4513.006
333.902, 3867.658
335.257, 2700.246
336.612, 2049.828
337.967, 1401.406
339.322, 917.973
340.677, 852.527
342.031, 508.062
343.385, 538.574
344.739, 423.065
346.093, 336.534
347.446, 328.980
348.799, 450.402
350.153, 555.798
351.505, 669.166
352.858, 794.507
354.210, 984.821
355.563, 1107.108
356.915, 998.370
358.267, 1036.605
359.618, 721.813
360.969, 723.994
362.321, 358.151
363.672, 464.281
365.022, 497.410
366.373, 463.512
367.723, 625.584
369.073, 613.633
370.423, 658.652
371.773, 720.672
373.122, 642.663
374.471, 614.628
375.821, 326.563
377.169, 339.576
378.518, 139.294
379.866, 97.719
381.215, 56.107
382.563, 23.114
383.910, 86.983
385.258, 84.944
386.605, 20.736
387.952, 263.614
389.299, 91.934
390.646, 153.463
391.992, 126.005
393.339, 81.713
394.685, 147.917
396.031, 47.341
397.376, 1.046
398.722, 110.075
400.067, 114.887
401.412, 190.981
402.757, 286.047
404.101, 215.082
405.446, 161.101
406.790, 131.060
408.134, 240.894
409.478, 110.612
410.821, 160.145
412.165, 32.522
413.508, 133.760
414.851, 32.923
416.193, 47.050
417.536, 51.852
418.878, 71.808
420.220, 4.825
421.562, 272.886
422.904, 10.067
424.245, 117.691
425.586, 44.639
426.927, 132.872
428.268, 64.662
429.609, 24.279
430.949, 102.004
432.289, 93.258
433.629, 107.483
434.969, 283.685
436.309, 240.066
437.648, 433.238
438.987, 456.902
440.326, 505.325
441.665, 734.434
443.003, 1045.411
444.342, 1267.645
445.680, 1844.654
447.018, 2522.631
448.355, 3115.574
449.693, 4064.829
451.030, 5158.703
452.367, 6268.840
453.704, 6336.646
455.041, 6352.416
456.377, 5407.150
457.713, 4566.846
459.049, 3869.508
460.385, 3586.131
461.721, 3394.719
463.056, 3505.268
464.391, 3855.781
465.726, 4714.258
467.061, 5822.698
468.395, 7187.102
469.730, 9416.466
471.064, 11539.799
472.398, 14390.090
473.731, 16135.346
475.065, 16962.570
476.398, 16487.752
477.731, 14563.896
479.064, 12597.007
480.397, 11319.083
481.729, 10562.122
483.062, 9899.121
484.394, 9292.090
485.725, 7865.018
487.057, 6367.911
488.389, 4959.770
489.720, 4124.594
491.051, 3705.387
492.382, 3442.146
493.712, 3412.876
495.043, 3338.574
496.373, 3715.242
497.703, 4325.883
499.032, 5150.491
500.362, 6175.070
501.691, 7782.617
503.020, 9797.136
504.349, 13230.621
505.678, 17296.078
507.007, 22886.488
508.335, 29258.820
509.663, 36188.188
510.991, 43081.523
512.319, 46622.828
513.646, 46061.102
514.973, 39581.352
516.300, 32483.559
517.627, 24744.750
518.954, 18094.904
520.280, 14120.024
521.607, 10615.553
522.933, 8425.108
524.259, 6763.961
525.584, 5509.273
526.910, 4724.465
528.235, 3869.894
529.560, 3484.218
530.885, 2865.809
532.209, 2483.691
533.534, 2265.216
534.858, 2157.578
536.182, 1982.536
537.506, 1814.309
538.829, 1583.609
540.152, 1422.397
541.476, 1420.857
542.799, 1076.381
544.121, 1234.662
545.444, 1162.695
546.766, 936.890
548.088, 877.385
549.410, 832.719
550.732, 686.772
552.053, 757.367
553.375, 564.511
554.696, 646.961
556.017, 713.380
557.337, 581.493
558.658, 649.401
559.978, 450.145
561.298, 623.928
562.618, 439.713
563.938, 521.116
565.257, 434.711
566.576, 342.329
567.895, 429.202
569.214, 568.117
570.533, 520.117
571.851, 610.699
573.170, 634.636
574.488, 541.165
575.805, 579.118
577.123, 595.941
578.440, 634.485
579.758, 882.208
581.075, 756.107
582.391, 794.478
583.708, 861.986
585.024, 580.142
586.341, 557.743
587.657, 566.620
588.972, 501.016
590.288, 324.292
591.603, 272.475
592.918, 258.756
594.233, 180.870
595.548, 299.778
596.863, 106.083
598.177, 157.363
599.491, 225.621
600.805, 18.857
602.119, 181.066
603.432, 246.253
604.746, 314.418
606.059, 315.563
607.372, 143.689
608.685, 353.791
609.997, 154.874
611.309, 275.936
612.621, 292.976
613.933, 308.997
615.245, 352.999
616.557, 430.980
617.868, 609.943
619.179, 588.886
620.490, 606.811
621.801, 949.716
623.111, 827.602
624.421, 1223.467
625.731, 1177.315
627.041, 1667.144
628.351, 1480.954
629.660, 1597.745
630.970, 1734.519
632.279, 1487.271
633.588, 1375.008
634.896, 1112.725
636.205, 1285.424
637.513, 1221.105
638.821, 1328.771
640.129, 1473.416
641.437, 1632.045
642.744, 1777.504
644.051, 1776.248
645.358, 2142.822
646.665, 2352.381
647.972, 2622.921
649.278, 2649.444
650.584, 2690.951
651.890, 2994.439
653.196, 2706.912
654.502, 2567.367
655.807, 1989.805
657.113, 1869.227
658.418, 1804.632
659.722, 1313.020
661.027, 1053.393
662.331, 815.749
663.636, 857.087
664.940, 542.410
666.244, 576.717
667.547, 323.008
668.851, 456.282
670.154, 283.541
671.457, 237.784
672.760, 402.012
674.062, 306.223
675.365, 281.850
676.667, 217.600
677.969, 100.933
679.271, 80.173
680.572, 74.701
681.874, 129.357
683.175, 150.398
684.476, 86.422
685.777, 103.427
687.077, 88.586
688.378, 193.324
689.678, 32.231
690.978, 63.105
692.278, 386.802
693.577, 142.825
694.877, 156.562
696.176, 146.229
697.475, 144.215
698.774, 124.753
700.072, 20.759
701.371, 45.385
702.669, 153.930
703.967, 149.842
705.265, 176.750
706.562, 169.033
707.860, 36.346
709.157, 132.580
710.454, 35.143
711.751, 186.096
713.047, 18.307
714.344, 276.148
715.640, 45.291
716.936, 102.475
718.232, 187.959
719.527, 46.572
720.823, 94.891
722.118, 58.639
723.413, 107.674
724.708, 181.176
726.002, 266.512
727.297, 248.555
728.591, 195.344
729.885, 250.758
731.179, 184.246
732.472, 249.617
733.766, 268.637
735.059, 380.104
736.352, 603.945
737.645, 661.455
738.937, 861.854
740.230, 924.375
741.522, 1068.076
742.814, 1399.461
744.106, 1647.910
745.397, 2106.318
746.689, 2393.777
747.980, 2779.391
749.271, 2710.934
750.562, 2922.266
751.853, 2244.631
753.143, 1893.449
754.433, 1660.467
755.723, 1259.754
757.013, 1289.131
758.303, 947.203
759.592, 1038.453
760.881, 818.689
762.170, 891.912
763.459, 966.773
764.748, 873.041
766.036, 1197.922
767.325, 999.252
768.613, 1075.398
769.901, 907.645
771.188, 741.762
772.476, 801.865
773.763, 501.953
775.050, 573.025
776.337, 344.084
777.624, 495.129
778.910, 409.160
780.196, 497.178
781.482, 297.180
782.768, 318.168
784.054, 244.143
785.339, 399.104
786.625, 250.051
787.910, 489.986
789.195, 217.906
790.479, 240.812
791.764, 453.768
793.048, 305.648
794.332, 333.514
795.616, 410.367
796.900, 492.209
798.183, 342.035
799.467, 564.850
800.750, 462.652
802.033, 599.441
803.316, 881.217
804.598, 644.979
805.880, 1433.730
807.163, 1701.469
808.445, 2003.193
809.726, 2719.910
811.008, 3421.672
812.289, 3868.361
813.570, 4030.039
814.851, 3699.705
816.132, 3010.355
817.413, 2170.998
818.693, 1911.629
819.973, 1306.246
821.253, 956.854
822.533, 869.449
823.813, 621.033
825.092, 444.605
826.371, 525.170
827.650, 527.721
828.929, 410.260
830.208, 382.789
831.486, 141.309
832.764, 158.385
834.042, 185.361
835.320, 206.031
836.598, 302.199
837.875, 204.447
839.152, 254.420
840.429, 231.598
841.706, 173.189
842.983, 163.588
844.259, 170.307
845.536, 108.148
846.812, 155.119
848.088, 156.281
849.363, 61.693
850.639, 116.859
851.914, 47.955
853.189, 9.072
854.464, 24.656
855.739, 184.902
857.013, 10.340
858.288, 149.549
859.562, 41.445
860.836, 80.586
862.110, 71.066
863.383, 95.754
864.656, 10.160
865.930, 108.193
867.203, 160.516
868.475, 101.498
869.748, 105.293
871.020, 110.182
872.292, 101.010
873.564, 35.111
874.836, 77.699
876.108, 99.490
877.379, 43.850
878.650, 141.498
879.922, 210.312
881.192, 31.131
882.463, 49.846
883.733, 29.662
885.004, 54.326
886.274, 8.865
887.544, 38.283
888.813, 117.273
890.083, 43.459
891.352, 155.199
892.621, 36.934
893.890, 64.336
895.159, 74.363
896.427, 56.057
897.695, 118.750
898.964, 51.441
900.232, 10.127
901.499, 23.811
902.767, 21.141
904.034, 57.012
905.301, 74.846
906.568, 160.533
907.835, 173.221
909.102, 225.238
910.368, 96.596
911.634, 279.285
912.900, 184.971
914.166, 329.656
915.432, 83.344
916.697, 35.033
917.962, 256.725
919.227, 11.457
920.492, 142.146
921.757, 22.834
923.021, 197.521
924.285, 141.211
925.550, 263.896
926.813, 55.586
928.077, 72.373
929.341, 136.057
930.604, 129.742
931.867, 56.434
933.130, 214.125
934.393, 276.811
935.655, 70.500
936.918, 437.191
938.180, 132.879
939.442, 49.566
940.703, 192.254
941.965, 168.939
943.226, 23.625
944.488, 183.307
945.749, 326.990
947.009, 248.670
948.270, 168.352
949.530, 254.031
950.791, 194.713
952.051, 164.391
953.311, 129.084
954.570, 129.512
955.830, 200.461
957.089, 152.154
958.348, 233.846
959.607, 247.539
960.866, 123.234
962.124, 14.934
963.383, 183.627
964.641, 147.320
965.899, 331.033
967.156, 355.748
968.414, 277.469
969.671, 328.188
970.928, 306.186
972.185, 252.705
973.442, 271.467
974.699, 254.148
975.955, 262.996
977.211, 295.764
978.468, 356.535
979.723, 456.322
980.979, 320.111
982.234, 673.896
983.490, 182.561
984.745, 588.301
986.000, 649.141
987.254, 502.008
988.509, 898.879
989.763, 780.768
991.017, 1042.656
992.271, 1089.551
993.525, 1329.473
994.779, 1497.389
996.032, 1519.318
997.285, 1764.012
998.538, 1857.664
999.791, 2339.104
1001.044, 2077.910
1002.296, 2374.955
1003.548, 2382.566
1004.800, 2275.162
1006.052, 2346.941
1007.304, 1809.152
1008.555, 1899.018
1009.807, 1637.820
1011.058, 1174.287
1012.309, 1119.457
1013.559, 909.572
1014.810, 773.850
1016.060, 749.773
1017.310, 838.068
1018.560, 701.047
1019.810, 813.379
1021.060, 808.588
1022.309, 745.984
1023.558, 733.775
1024.807, 760.855
1026.056, 984.291
1027.305, 842.082
1028.553, 1227.543
1029.801, 1138.227
1031.049, 892.621
1032.297, 1089.621
1033.545, 1485.775
1034.793, 1238.318
1036.040, 1453.824
1037.287, 1591.867
1038.534, 1670.725
1039.781, 1785.807
1041.027, 1703.059
1042.274, 1412.400
1043.520, 1445.975
1044.766, 1136.381
1046.012, 908.014
1047.257, 814.424
1048.503, 1012.061
1049.748, 734.650
1050.993, 936.885
1052.238, 874.555
1053.483, 543.898
1054.727, 557.514
1055.971, 725.654
1057.216, 604.828
1058.459, 336.146
1059.703, 545.023
1060.947, 318.018
1062.190, 202.260
1063.433, 347.330
1064.676, 286.889
1065.919, 123.980
1067.162, 375.807
1068.404, 0.621
1069.646, 19.924
1070.888, 488.805
1072.130, 56.215
1073.372, 129.336
1074.613, 319.281
1075.855, 139.979
1077.096, 2.164
1078.337, 391.385
1079.578, 124.373
1080.818, 192.928
1082.059, 214.654
1083.299, 284.168
1084.539, 146.402
1085.779, 296.893
1087.018, 235.381
1088.258, 219.859
1089.497, 253.078
1090.736, 207.539
1091.975, 216.762
1093.213, 425.143
1094.452, 563.781
1095.690, 476.199
1096.928, 463.121
1098.166, 588.184
1099.404, 692.568
1100.642, 462.336
1101.879, 581.785
1103.116, 501.133
1104.353, 730.340
1105.590, 575.490
1106.827, 570.400
1108.063, 628.623
1109.299, 803.670
1110.536, 629.857
1111.771, 828.148
1113.007, 874.506
1114.243, 1146.820
1115.478, 1303.775
1116.713, 1624.643
1117.948, 1862.090
1119.183, 2040.785
1120.418, 2514.016
1121.652, 3057.023
1122.886, 3354.488
1124.120, 3724.428
1125.354, 3453.523
1126.588, 3222.389
1127.821, 2894.947
1129.055, 2974.439
1130.288, 2748.053
1131.521, 2727.215
1132.753, 2596.379
1133.986, 2775.867
1135.218, 3514.672
1136.450, 3308.617
1137.682, 3857.520
1138.914, 3812.398
1140.146, 3742.867
1141.377, 3327.545
1142.609, 2933.070
1143.840, 2659.729
1145.071, 2289.299
1146.301, 1912.381
1147.532, 1587.367
1148.762, 1325.826
1149.992, 906.721
1151.222, 888.688
1152.452, 742.615
1153.682, 564.934
1154.911, 664.740
1156.140, 423.516
1157.369, 469.867
1158.598, 197.297
1159.827, 471.178
1161.055, 97.033
1162.284, 318.918
1163.512, 186.434
1164.740, 205.480
1165.967, 32.912
1167.195, 329.693
1168.422, 153.727
1169.650, 207.516
1170.877, 85.352
1172.103, 9.449
1173.330, 100.436
1174.557, 251.828
1175.783, 150.096
1177.009, 150.982
1178.235, 36.605
1179.461, 38.592
1180.686, 23.480
1181.912, 153.088
1183.137, 194.430
1184.362, 172.170
1185.587, 130.203
1186.811, 292.000
1188.036, 28.527
1189.260, 119.059
1190.484, 213.818
1191.708, 223.125
1192.932, 291.906
1194.155, 49.281
1195.378, 282.412
1196.602, 246.186
1197.825, 52.223
1199.047, 203.707
1200.270, 41.689
1201.492, 359.225
1202.715, 28.111
1203.937, 128.754
1205.159, 96.227
1206.380, 202.361
1207.602, 174.686
1208.823, 116.107
1210.044, 156.107
1211.265, 51.936
1212.486, 163.834
1213.707, 5.686
1214.927, 230.676
1216.147, 73.383
1217.367, 214.637
1218.587, 60.826
1219.807, 156.438
1221.027, 199.004
1222.246, 35.521
1223.465, 217.986
1224.684, 314.648
1225.903, 186.330
1227.121, 6.139
1228.340, 247.352
1229.558, 378.648
1230.776, 125.043
1231.994, 63.193
1233.212, 320.768
1234.429, 351.312
1235.646, 125.965
1236.864, 320.975
1238.081, 122.609
1239.297, 389.537
1240.514, 260.428
1241.730, 339.279
1242.947, 190.266
1244.163, 155.039
1245.378, 372.752
1246.594, 222.420
1247.810, 12.988
1249.025, 348.539
1250.240, 112.016
1251.455, 124.484
1252.670, 179.852
1253.885, 103.121
1255.099, 142.338
1256.313, 107.488
1257.527, 304.586
1258.741, 300.641
1259.955, 39.355
1261.168, 153.576
1262.382, 29.451
1263.595, 269.238
1264.808, 108.049
1266.021, 89.570
1267.233, 126.131
1268.446, 253.637
1269.658, 26.418
1270.870, 101.781
1272.082, 148.029
1273.294, 24.791
1274.505, 230.449
1275.716, 196.416
1276.928, 129.695
1278.139, 297.084
1279.349, 51.729
1280.560, 134.262
1281.770, 106.701
1282.981, 13.951
1284.191, 110.309
1285.401, 195.500
1286.610, 139.631
1287.820, 170.686
1289.029, 134.396
1290.239, 149.604
1291.448, 72.471
1292.656, 81.227
1293.865, 130.922
1295.073, 101.553
1296.282, 47.885
1297.490, 79.594
1298.698, 173.014
1299.906, 29.629
1301.113, 89.645
1302.320, 145.854
1303.528, 130.000
1304.735, 76.072
1305.942, 76.074
1307.148, 246.785
1308.355, 110.656
1309.561, 194.461
1310.767, 24.799
1311.973, 76.322
1313.179, 114.094
1314.384, 240.303
1315.590, 20.715
1316.795, 149.666
1318.000, 18.773
1319.205, 102.059
1320.410, 116.170
1321.614, 87.951
1322.819, 46.795
1324.023, 7.762
1325.227, 143.859
1326.431, 61.822
1327.634, 3.252
1328.838, 99.232
1330.041, 72.594
1331.244, 128.027
1332.447, 0.648
1333.650, 49.602
1334.852, 118.305
1336.055, 16.662
1337.257, 107.311
1338.459, 53.301
1339.661, 209.408
1340.862, 92.277
1342.064, 211.074
1343.265, 115.998
1344.466, 201.492
1345.667, 33.244
1346.868, 254.824
1348.068, 189.844
1349.269, 85.773
1350.469, 339.506
1351.669, 214.629
1352.869, 317.582
1354.069, 547.238
1355.268, 52.965
1356.468, 394.271
1357.667, 472.145
1358.866, 93.945
1360.065, 457.855
1361.263, 203.102
1362.462, 206.947
1363.660, 486.762
1364.858, 406.350
1366.056, 404.908
1367.254, 345.660
1368.451, 247.062
1369.649, 254.574
1370.846, 276.959
1372.043, 268.666
1373.240, 308.018
1374.436, 276.943
1375.633, 414.156
1376.829, 218.711
1378.025, 218.152
1379.221, 185.646
1380.417, 384.957
1381.613, 173.557
1382.808, 467.166
1384.003, 448.162
1385.199, 372.244
1386.393, 288.051
1387.588, 562.400
1388.783, 423.314
1389.977, 589.480
1391.171, 315.523
1392.365, 439.199
1393.559, 523.855
1394.753, 301.451
1395.946, 511.943
1397.140, 309.848
1398.333, 638.371
1399.526, 427.502
1400.719, 513.701
1401.911, 372.850
1403.104, 448.740
1404.296, 384.301
1405.488, 449.527
1406.680, 339.195
1407.872, 465.824
1409.063, 529.453
1410.255, 299.674
1411.446, 561.424
1412.637, 206.160
1413.828, 455.082
1415.018, 494.027
1416.209, 453.797
1417.399, 220.639
1418.589, 684.896
1419.779, 361.510
1420.969, 497.742
1422.159, 323.258
1423.348, 400.576
1424.537, 266.242
1425.726, 389.312
1426.915, 373.572
1428.104, 366.400
1429.293, 213.422
1430.481, 209.299
1431.669, 428.055
1432.857, 528.201
1434.045, 272.408
1435.233, 498.227
1436.420, 580.143
1437.608, 322.770
1438.795, 325.443
1439.982, 360.002
1441.169, 548.461
1442.355, 513.525
1443.542, 589.887
1444.728, 583.373
1445.914, 400.248
1447.100, 462.555
1448.286, 512.412
1449.472, 317.457
1450.657, 806.875
1451.842, 487.467
1453.027, 547.947
1454.212, 897.338
1455.397, 329.453
1456.581, 477.729
1457.766, 567.891
1458.950, 382.830
1460.134, 597.586
1461.318, 396.367
1462.501, 495.031
1463.685, 660.566
1464.868, 315.141
1466.051, 722.371
1467.234, 392.359
1468.417, 598.555
1469.600, 541.293
1470.782, 595.273
1471.965, 201.277
1473.147, 618.324
1474.329, 282.328
1475.510, 186.602
1476.692, 369.871
1477.873, 370.078
1479.055, 208.254
1480.236, 716.414
1481.416, 250.660
1482.597, 340.945
1483.778, 448.281
1484.958, 262.688
1486.138, 255.180
1487.318, 245.020
1488.498, 261.582
1489.678, 235.609
1490.857, 266.879
1492.037, 330.348
1493.216, 380.961
1494.395, 287.738
1495.574, 366.688
1496.752, 53.832
1497.931, 459.223
1499.109, 10.902
1500.287, 122.910
1501.465, 46.301
1502.643, 11.910
1503.820, 30.121
1504.998, 2.945
1506.175, 26.973
1507.352, 63.246
1508.529, 22.902
1509.706, 6.535
1510.882, 171.902
1512.059, 96.527
1513.235, 0.000
##END=



