##NAMES=Microcline
##RRUFFID=R050150
##IDEAL CHEMISTRY=KAlSi_3_O_8_
##LOCALITY=Crystal Peak area, Park/Teller Counties, Colorado, USA
##OWNER=RRUFF
##SOURCE=Dave Bunk Minerals
##DESCRIPTION=Pale blue prismatic crystals
##STATUS=The identification of this mineral has been confirmed by X-ray diffraction and chemical analysis
##URL=rruff.info/R050150
##MEASURED CHEMISTRY=(K_0.95_Na_0.05_)_Î£=1_Al_1.00_Si_3.00_O_8_
##PIN_ID=L01538
##ORIENTATION=Laser parallel to c* (0 0 1). Fiducial mark perpendicular to laser is parallel to a [1 0 0]
131.4130, 0.0000000E+00
132.6530, 32.21289
133.8930, 71.85059
135.1330, 815.3545
136.3730, 2402.033
137.6120, 4154.070
138.8510, 5334.281
140.0900, 5709.439
141.3290, 5715.584
142.5680, 5484.527
143.8060, 5742.186
145.0440, 6117.323
146.2820, 7547.502
147.5200, 8924.503
148.7570, 10681.26
149.9950, 12892.31
151.2320, 15531.51
152.4690, 18831.18
153.7060, 22469.09
154.9420, 25739.19
156.1790, 27861.01
157.4150, 28509.52
158.6510, 26912.01
159.8870, 23704.36
161.1220, 19834.42
162.3570, 15763.80
163.5930, 11953.17
164.8280, 9029.197
166.0620, 6503.738
167.2970, 4707.592
168.5310, 3316.583
169.7650, 2499.064
170.9990, 2137.664
172.2330, 1854.863
173.4670, 1851.414
174.7000, 1906.360
175.9330, 1771.480
177.1660, 2024.641
178.3990, 1955.728
179.6310, 2088.269
180.8640, 1961.079
182.0960, 1905.110
183.3280, 1597.332
184.5600, 1511.692
185.7910, 1325.306
187.0220, 1189.146
188.2540, 1242.604
189.4840, 1320.015
190.7150, 1292.603
191.9460, 1392.336
193.1760, 1435.166
194.4060, 1708.114
195.6360, 2075.369
196.8660, 2090.114
198.0960, 2226.990
199.3250, 2245.829
200.5540, 2091.516
201.7830, 1755.082
203.0120, 1446.602
204.2400, 1056.208
205.4690, 680.0879
206.6970, 437.1724
207.9250, 194.0591
209.1530, 7.425781
210.3800, 124.5898
211.6080, 197.9185
212.8350, 294.6396
214.0620, 324.2310
215.2880, 383.5122
216.5150, 325.7744
217.7410, 317.6694
218.9680, 263.2568
220.1940, 304.5991
221.4190, 235.3711
222.6450, 220.9990
223.8700, 181.3154
225.0960, 161.7734
226.3210, 205.2529
227.5450, 187.3096
228.7700, 173.4722
229.9940, 83.78320
231.2190, 89.29297
232.4430, 26.94482
233.6660, 79.09229
234.8900, 80.61426
236.1140, 156.0815
237.3370, 168.1411
238.5600, 280.6641
239.7830, 505.3569
241.0050, 596.2354
242.2280, 746.8164
243.4500, 1095.910
244.6720, 1480.412
245.8940, 2110.068
247.1160, 2567.416
248.3370, 3383.134
249.5580, 4146.306
250.7790, 5198.573
252.0000, 6433.855
253.2210, 7638.629
254.4410, 9586.738
255.6620, 10915.61
256.8820, 11721.77
258.1020, 12174.23
259.3210, 12022.83
260.5410, 11967.19
261.7600, 11567.95
262.9790, 11530.98
264.1980, 11644.39
265.4170, 11395.35
266.6360, 10687.71
267.8540, 10205.87
269.0720, 9412.830
270.2900, 9085.745
271.5080, 9035.370
272.7260, 9501.032
273.9430, 10423.08
275.1600, 11861.82
276.3770, 14117.91
277.5940, 16153.72
278.8100, 18647.39
280.0270, 21383.37
281.2430, 24634.79
282.4590, 27268.91
283.6750, 29121.26
284.8910, 29423.22
286.1060, 27074.40
287.3210, 24180.59
288.5360, 20198.24
289.7510, 16627.55
290.9660, 13066.79
292.1800, 10132.56
293.3950, 7646.774
294.6090, 6097.428
295.8230, 4838.525
297.0360, 4269.076
298.2500, 3474.046
299.4630, 3102.345
300.6760, 2716.896
301.8890, 2488.663
303.1020, 2103.631
304.3150, 1985.757
305.5270, 1761.019
306.7390, 1684.449
307.9510, 1574.134
309.1630, 1313.150
310.3750, 1231.619
311.5860, 1235.599
312.7970, 1200.121
314.0080, 1073.168
315.2190, 1067.646
316.4300, 1147.395
317.6400, 1206.030
318.8510, 1314.098
320.0610, 1329.029
321.2710, 1549.434
322.4800, 1735.638
323.6900, 1797.802
324.8990, 2092.074
326.1080, 2554.461
327.3170, 2788.918
328.5260, 3250.361
329.7340, 3508.853
330.9430, 3877.663
332.1510, 3803.520
333.3590, 3581.733
334.5670, 3162.172
335.7740, 2578.974
336.9820, 2229.693
338.1890, 1816.864
339.3960, 1582.244
340.6030, 1400.797
341.8100, 1247.588
343.0160, 1162.943
344.2220, 1158.063
345.4280, 1120.746
346.6340, 1102.393
347.8400, 1186.257
349.0460, 1110.848
350.2510, 1175.823
351.4560, 1274.032
352.6610, 1345.711
353.8660, 1319.373
355.0700, 1335.200
356.2750, 1314.737
357.4790, 1277.922
358.6830, 1199.185
359.8870, 1219.725
361.0910, 980.6660
362.2940, 918.3418
363.4970, 801.6255
364.7000, 825.4160
365.9030, 686.6963
367.1060, 661.0952
368.3080, 541.0239
369.5110, 572.1929
370.7130, 564.6309
371.9150, 518.3867
373.1170, 463.3242
374.3180, 390.6616
375.5200, 287.7280
376.7210, 209.9805
377.9220, 124.5322
379.1230, 17.53418
380.3230, 87.52441
381.5240, 56.58301
382.7240, 91.07422
383.9240, 191.8311
385.1240, 24.14453
386.3240, 177.7158
387.5230, 32.06934
388.7230, 123.9180
389.9220, 122.2002
391.1210, 45.20312
392.3200, 53.56543
393.5180, 16.11816
394.7170, 82.15430
395.9150, 77.38574
397.1130, 167.5811
398.3110, 375.7432
399.5080, 401.8750
400.7060, 487.9736
401.9030, 603.0420
403.1000, 572.0615
404.2970, 644.0127
405.4940, 486.9258
406.6910, 308.7734
407.8870, 220.5967
409.0830, 154.4092
410.2790, 179.1992
411.4750, 152.9990
412.6710, 136.7988
413.8660, 26.38965
415.0610, 66.40430
416.2560, 126.7959
417.4510, 35.03418
418.6460, 57.29688
419.8410, 18.58203
421.0350, 95.89746
422.2290, 48.26855
423.4230, 37.77148
424.6170, 56.62402
425.8100, 89.10352
427.0040, 18.99023
428.1970, 22.00000
429.3900, 196.8516
430.5830, 155.5996
431.7760, 0.2236330
432.9680, 216.7129
434.1610, 127.0938
435.3530, 485.3447
436.5450, 377.4746
437.7360, 566.5059
438.9280, 625.4297
440.1190, 926.2393
441.3110, 1077.938
442.5020, 1414.535
443.6930, 1953.040
444.8830, 2389.452
446.0740, 3052.765
447.2640, 3842.983
448.4540, 4654.109
449.6440, 5475.146
450.8340, 6540.100
452.0240, 7350.971
453.2130, 7839.898
454.4020, 7906.406
455.5910, 7246.857
456.7800, 6583.086
457.9690, 5980.712
459.1570, 5266.252
460.3460, 4718.062
461.5340, 4279.065
462.7220, 4525.477
463.9090, 4983.006
465.0970, 5714.180
466.2840, 6783.363
467.4720, 8096.471
468.6590, 9383.553
469.8460, 11144.61
471.0320, 12881.65
472.2190, 15131.68
473.4050, 16644.71
474.5910, 17900.73
475.7770, 18197.75
476.9630, 17043.78
478.1490, 15514.81
479.3340, 13972.84
480.5190, 12397.88
481.7040, 11450.92
482.8890, 10734.96
484.0740, 9763.990
485.2580, 8855.441
486.4430, 7543.562
487.6270, 6390.685
488.8110, 5339.675
489.9950, 4728.611
491.1780, 4025.923
492.3620, 3527.949
493.5450, 3583.287
494.7280, 3726.090
495.9110, 3821.127
497.0940, 4161.213
498.2760, 4804.379
499.4590, 5746.660
500.6410, 7190.074
501.8230, 8970.646
503.0050, 11411.38
504.1860, 14740.77
505.3680, 18718.22
506.5490, 22678.50
507.7300, 27539.16
508.9110, 32416.56
510.0920, 37795.11
511.2730, 42853.43
512.4530, 46030.14
513.6330, 45434.04
514.8130, 41892.99
515.9930, 36556.97
517.1730, 30451.89
518.3520, 24378.55
519.5320, 18907.09
520.7110, 14715.41
521.8900, 11507.46
523.0690, 9090.925
524.2470, 7425.353
525.4260, 5995.490
526.6040, 4961.805
527.7820, 4237.531
528.9600, 3693.808
530.1380, 3277.416
531.3150, 2910.496
532.4930, 2464.723
533.6700, 2141.547
534.8470, 1822.439
536.0240, 1725.677
537.2000, 1610.753
538.3770, 1388.860
539.5530, 1185.360
540.7290, 1324.764
541.9050, 1155.308
543.0810, 1013.467
544.2570, 940.6074
545.4320, 828.5225
546.6080, 754.0283
547.7830, 698.2256
548.9580, 656.5771
550.1320, 788.4648
551.3070, 650.3340
552.4810, 384.0879
553.6550, 518.4160
554.8300, 525.4912
556.0030, 404.0664
557.1770, 663.4648
558.3510, 546.7178
559.5240, 427.2783
560.6970, 449.5254
561.8700, 451.5576
563.0430, 514.0479
564.2160, 378.0918
565.3880, 408.7324
566.5600, 465.3232
567.7320, 474.5137
568.9040, 540.4219
570.0760, 526.1387
571.2480, 499.1719
572.4190, 503.6016
573.5900, 570.3232
574.7610, 607.5645
575.9320, 751.8945
577.1030, 794.2148
578.2740, 971.7285
579.4440, 1105.698
580.6140, 1035.057
581.7840, 1126.428
582.9540, 1145.291
584.1240, 1185.446
585.2930, 1002.145
586.4630, 829.5908
587.6320, 598.0674
588.8010, 562.5586
589.9700, 346.0801
591.1380, 312.6152
592.3070, 279.1719
593.4750, 213.7480
594.6430, 63.34863
595.8110, 138.9727
596.9790, 118.6201
598.1460, 44.28906
599.3140, 142.9854
600.4810, 144.7090
601.6480, 143.4619
602.8150, 97.25000
603.9820, 4.926758
605.1480, 54.93457
606.3150, 1.186523
607.4810, 23.71094
608.6470, 148.6533
609.8130, 77.61328
610.9790, 239.6006
612.1440, 37.63867
613.3100, 271.7041
614.4750, 198.7900
615.6400, 201.9053
616.8050, 306.0400
617.9690, 251.1934
619.1340, 295.3643
620.2980, 444.5518
621.4620, 514.7578
622.6260, 700.9824
623.7900, 890.2256
624.9540, 906.5068
626.1170, 1092.817
627.2810, 1241.166
628.4440, 1240.559
629.6070, 1254.971
630.7690, 1236.423
631.9320, 1309.902
633.0950, 1168.404
634.2570, 1002.926
635.4190, 1054.465
636.5810, 1170.021
637.7430, 1025.594
638.9040, 1191.213
640.0660, 1146.849
641.2270, 1394.499
642.3880, 1438.164
643.5490, 1645.843
644.7100, 1685.536
645.8700, 1852.243
647.0310, 1984.965
648.1910, 2095.700
649.3510, 2151.619
650.5110, 2388.211
651.6710, 2200.987
652.8300, 2190.776
653.9900, 2203.577
655.1490, 1980.390
656.3080, 1686.214
657.4670, 1630.048
658.6250, 1301.895
659.7840, 1272.754
660.9420, 1124.626
662.1010, 897.5137
663.2590, 721.4150
664.4170, 707.3281
665.5740, 492.2725
666.7320, 449.2656
667.8890, 321.2764
669.0460, 292.3330
670.2030, 258.4062
671.3600, 140.5107
672.5170, 115.6504
673.6740, 114.8008
674.8300, 101.9609
675.9860, 78.13379
677.1420, 9.316406
678.2980, 42.53516
679.4540, 90.70117
680.6090, 84.90039
681.7650, 4.102539
682.9200, 21.29883
684.0750, 30.50391
685.2300, 135.3242
686.3840, 36.20996
687.5390, 22.88281
688.6930, 87.01953
689.8470, 13.03711
691.0010, 84.90332
692.1550, 19.88281
693.3090, 72.87207
694.4620, 83.10352
695.6160, 99.91113
696.7690, 16.02930
697.9220, 29.00684
699.0750, 109.0527
700.2280, 27.14160
701.3800, 42.75977
702.5320, 1.321289
703.6850, 81.39355
704.8370, 0.6484380
705.9880, 14.87988
707.1400, 73.00879
708.2920, 38.85254
709.4430, 103.2451
710.5940, 21.43848
711.7450, 0.6513670
712.8960, 65.86914
714.0470, 43.87109
715.1970, 112.6104
716.3480, 56.73047
717.4980, 9.034180
718.6480, 174.6865
719.7980, 80.58008
720.9470, 4.752930
722.0970, 26.35059
723.2460, 17.03223
724.3960, 90.57715
725.5450, 80.11914
726.6940, 145.8076
727.8420, 200.8662
728.9910, 211.4375
730.1390, 264.2920
731.2870, 354.0801
732.4350, 343.5625
733.5830, 475.6895
734.7310, 590.6367
735.8790, 594.3291
737.0260, 735.2422
738.1730, 924.3428
739.3200, 1154.152
740.4670, 1349.322
741.6140, 1653.825
742.7610, 1953.646
743.9070, 2273.336
745.0530, 2646.756
746.1990, 2899.370
747.3450, 3320.909
748.4910, 3276.252
749.6370, 3232.586
750.7820, 3062.614
751.9270, 2779.772
753.0720, 2445.623
754.2170, 2016.391
755.3620, 1717.830
756.5070, 1515.188
757.6510, 1296.533
758.7950, 1132.867
759.9400, 1059.272
761.0840, 1096.998
762.2270, 945.0986
763.3710, 1058.165
764.5140, 983.4717
765.6580, 1065.614
766.8010, 1075.857
767.9440, 1107.863
769.0870, 879.9082
770.2290, 849.2129
771.3720, 764.3965
772.5140, 778.6162
773.6560, 596.9092
774.7990, 593.1338
775.9400, 391.2578
777.0820, 421.4316
778.2240, 514.7070
779.3650, 297.8936
780.5060, 365.1025
781.6470, 447.1436
782.7880, 537.1670
783.9290, 406.1738
785.0690, 330.1621
786.2100, 429.1348
787.3500, 316.0898
788.4900, 411.0283
789.6300, 232.9492
790.7700, 449.8525
791.9090, 398.9766
793.0490, 533.8457
794.1880, 472.6953
795.3270, 403.5283
796.4660, 415.3418
797.6050, 491.1396
798.7440, 656.1533
799.8820, 624.0352
801.0200, 792.9062
802.1590, 893.8145
803.2970, 1218.520
804.4340, 1186.206
805.5720, 1649.875
806.7100, 1846.523
807.8470, 2240.152
808.9840, 2632.996
810.1210, 3077.587
811.2580, 3291.197
812.3950, 3427.748
813.5310, 3367.279
814.6680, 3180.774
815.8040, 2633.266
816.9400, 2297.738
818.0760, 1840.191
819.2120, 1378.401
820.3470, 1012.813
821.4830, 829.4375
822.6180, 736.4541
823.7530, 577.6729
824.8880, 448.0059
826.0230, 443.4482
827.1580, 421.6426
828.2920, 353.5195
829.4270, 301.8262
830.5610, 273.7812
831.6950, 294.0010
832.8290, 252.3604
833.9620, 277.0391
835.0960, 253.9258
836.2290, 227.7881
837.3620, 206.1660
838.4950, 177.2734
839.6280, 137.4990
840.7610, 97.45117
841.8940, 76.67578
843.0260, 87.47559
844.1580, 155.6475
845.2910, 120.6416
846.4230, 145.0664
847.5540, 141.9385
848.6860, 137.8105
849.8170, 122.1611
850.9490, 140.0674
852.0800, 34.95605
853.2110, 125.6416
854.3420, 101.8652
855.4730, 65.69531
856.6030, 120.5078
857.7340, 26.17969
858.8640, 24.82324
859.9940, 32.27344
861.1240, 32.03027
862.2540, 81.61621
863.3830, 24.75391
864.5130, 107.8271
865.6420, 12.39355
866.7710, 13.93262
867.9000, 23.44336
869.0290, 37.93066
870.1570, 46.39746
871.2860, 67.84375
872.4140, 47.27246
873.5430, 37.00293
874.6710, 10.07227
875.7980, 13.56543
876.9260, 19.24414
878.0540, 41.96484
879.1810, 58.25977
880.3080, 117.4678
881.4360, 70.33887
882.5630, 81.78516
883.6890, 3.107422
884.8160, 99.03125
885.9420, 0.9609380
887.0690, 24.92188
888.1950, 13.13867
889.3210, 42.76270
890.4470, 83.64648
891.5730, 126.5146
892.6980, 126.6484
893.8240, 100.1670
894.9490, 78.03223
896.0740, 37.84180
897.1990, 53.36816
898.3240, 5.632813
899.4480, 41.93066
900.5730, 55.88770
901.6970, 94.31836
902.8210, 39.09766
903.9450, 8.562500
905.0690, 66.94238
906.1930, 202.4316
907.3160, 77.90723
908.4400, 56.36914
909.5630, 67.81641
910.6860, 93.75000
911.8090, 70.60938
912.9320, 43.95703
914.0550, 58.28809
915.1770, 47.60547
916.2990, 89.79883
917.4210, 185.1992
918.5440, 177.4785
919.6650, 302.7441
920.7870, 325.9980
921.9090, 121.2393
923.0300, 256.4678
924.1510, 172.6846
925.2720, 228.8936
926.3930, 29.09180
927.5140, 166.2754
928.6350, 87.44824
929.7550, 167.6084
930.8760, 155.7578
931.9960, 167.9170
933.1160, 24.06738
934.2360, 38.21289
935.3550, 35.91699
936.4750, 25.46875
937.5940, 98.58008
938.7140, 86.68164
939.8330, 154.7725
940.9520, 147.8525
942.0710, 138.8174
943.1890, 16.04590
944.3080, 132.1328
945.4260, 48.20898
946.5440, 110.2754
947.6620, 141.3320
948.7800, 108.3789
949.8980, 106.4180
951.0160, 108.4482
952.1330, 302.4688
953.2500, 180.4805
954.3680, 332.4854
955.4850, 331.4814
956.6010, 197.4795
957.7180, 367.5000
958.8350, 236.5215
959.9510, 339.5361
961.0670, 177.5645
962.1830, 297.5859
963.2990, 308.6211
964.4150, 322.6562
965.5310, 234.7031
966.6460, 319.7520
967.7620, 222.8193
968.8770, 388.8867
969.9920, 199.9561
971.1070, 312.0479
972.2210, 399.1426
973.3360, 358.2324
974.4500, 351.3125
975.5650, 532.2695
976.6790, 389.0283
977.7930, 520.9180
978.9070, 487.0371
980.0200, 641.1113
981.1340, 661.1377
982.2470, 804.4590
983.3610, 756.5488
984.4740, 1060.725
985.5870, 1158.895
986.6990, 1166.144
987.8120, 1138.328
988.9250, 1561.472
990.0370, 1785.434
991.1490, 2021.613
992.2610, 2182.045
993.3730, 2374.254
994.4850, 2528.716
995.5960, 2637.964
996.7080, 2491.055
997.8190, 2440.794
998.9300, 2313.015
1000.041, 2341.945
1001.152, 2373.934
1002.263, 2280.219
1003.373, 2155.848
1004.484, 2125.650
1005.594, 2002.698
1006.704, 1560.516
1007.814, 1412.134
1008.924, 1266.042
1010.034, 1228.580
1011.143, 920.7734
1012.253, 889.5527
1013.362, 769.5400
1014.471, 817.7412
1015.580, 740.7832
1016.689, 701.8916
1017.797, 599.1855
1018.906, 513.4785
1020.014, 685.0664
1021.122, 780.5137
1022.230, 748.7129
1023.338, 768.0840
1024.446, 721.2217
1025.554, 691.4316
1026.661, 616.6562
1027.768, 999.8828
1028.875, 879.0273
1029.983, 975.8428
1031.089, 913.2734
1032.196, 1043.727
1033.303, 1087.930
1034.409, 1326.284
1035.515, 1345.527
1036.622, 1431.008
1037.728, 1494.436
1038.833, 1377.595
1039.939, 1376.863
1041.045, 1271.082
1042.150, 1195.132
1043.255, 1126.414
1044.360, 992.6992
1045.465, 955.9189
1046.570, 810.0293
1047.675, 765.2158
1048.779, 779.3672
1049.884, 809.6758
1050.988, 747.9951
1052.092, 726.3184
1053.196, 629.6465
1054.300, 527.9795
1055.404, 438.3193
1056.507, 355.6631
1057.610, 241.8340
1058.714, 262.1885
1059.817, 271.3213
1060.920, 267.6992
1062.022, 205.0820
1063.125, 107.4717
1064.228, 153.6035
1065.330, 319.3770
1066.432, 74.36426
1067.534, 331.6523
1068.636, 81.94238
1069.738, 215.5410
1070.840, 269.9707
1071.941, 208.4053
1073.042, 276.8467
1074.144, 113.8486
1075.245, 339.4131
1076.346, 166.6396
1077.446, 263.1035
1078.547, 180.5361
1079.647, 347.0137
1080.748, 363.5029
1081.848, 258.9990
1082.948, 158.5020
1084.048, 313.0098
1085.148, 423.5244
1086.247, 501.0439
1087.347, 422.5703
1088.446, 394.1035
1089.545, 411.6426
1090.644, 527.1875
1091.743, 424.7383
1092.842, 642.2969
1093.940, 794.8613
1095.039, 661.4316
1096.137, 1046.007
1097.235, 589.5889
1098.333, 907.3301
1099.431, 913.9238
1100.529, 925.6426
1101.627, 915.2891
1102.724, 737.9004
1103.822, 774.5166
1104.919, 712.1377
1106.016, 872.7656
1107.113, 965.9600
1108.209, 863.5996
1109.306, 1010.246
1110.402, 1129.898
1111.499, 1126.558
1112.595, 1515.221
1113.691, 1535.890
1114.787, 1896.428
1115.883, 2315.105
1116.978, 2830.791
1118.074, 3279.850
1119.169, 3621.584
1120.264, 3966.277
1121.359, 4227.881
1122.454, 4418.157
1123.549, 4518.894
1124.644, 4541.665
1125.738, 4362.445
1126.832, 4114.834
1127.927, 3959.650
1129.021, 3666.932
1130.115, 3818.826
1131.208, 3820.818
1132.302, 3895.674
1133.396, 4145.540
1134.489, 4338.414
1135.582, 4587.295
1136.675, 4703.183
1137.768, 4660.074
1138.861, 4555.973
1139.954, 4529.172
1141.046, 3872.088
1142.138, 3505.020
1143.231, 3168.971
1144.323, 2684.945
1145.415, 2296.926
1146.507, 1935.909
1147.598, 1662.923
1148.690, 1494.941
1149.781, 1284.974
1150.872, 1106.043
1151.964, 1010.126
1153.054, 864.7598
1154.145, 820.8643
1155.236, 663.9971
1156.327, 809.1133
1157.417, 748.4033
1158.507, 458.5254
1159.597, 707.6533
1160.687, 422.3164
1161.777, 456.4531
1162.867, 360.6152
1163.956, 422.7881
1165.046, 404.4639
1166.135, 308.2031
1167.224, 403.5479
1168.313, 323.7979
1169.402, 280.0596
1170.491, 198.3262
1171.580, 170.4443
1172.668, 181.0605
1173.756, 191.3408
1174.845, 175.6240
1175.933, 350.9414
1177.020, 111.2627
1178.108, 122.5859
1179.196, 185.9141
1180.283, 37.33008
1181.371, 200.4365
1182.458, 90.77148
1183.545, 91.11133
1184.632, 159.4512
1185.719, 190.7959
1186.805, 49.18457
1187.892, 30.46680
1188.978, 64.87598
1190.065, 151.8682
1191.151, 179.2178
1192.237, 175.5684
1193.323, 84.92188
1194.408, 92.72363
1195.494, 16.37402
1196.579, 45.02637
1197.664, 33.30762
1198.750, 22.64355
1199.835, 15.00195
1200.919, 128.3350
1202.004, 287.6729
1203.089, 90.01172
1204.173, 102.4492
1205.258, 63.15527
1206.342, 130.1123
1207.426, 209.3818
1208.510, 197.6523
1209.594, 108.9258
1210.677, 155.8945
1211.761, 263.1709
1212.844, 40.61133
1213.927, 148.8896
1215.010, 58.16895
1216.093, 85.44824
1217.176, 28.72852
1218.259, 219.0088
1219.341, 119.2910
1220.424, 182.5732
1221.506, 48.85547
1222.588, 38.33789
1223.670, 48.62109
1224.752, 88.90527
1225.834, 253.1904
1226.915, 13.48438
1227.997, 40.23047
1229.078, 114.0352
1230.159, 22.70020
1231.240, 2.553711
1232.321, 173.8076
1233.402, 36.08398
1234.483, 125.3389
1235.563, 34.59180
1236.644, 28.15527
1237.724, 52.08203
1238.804, 160.3203
1239.884, 105.5586
1240.964, 43.79492
1242.044, 146.0322
1243.123, 80.26758
1244.203, 78.49805
1245.282, 63.69434
1246.361, 146.8867
1247.440, 21.92285
1248.519, 15.25293
1249.598, 69.42969
1250.676, 89.46582
1251.755, 3.361328
1252.833, 36.80566
1253.911, 186.3086
1254.989, 138.4941
1256.067, 20.32227
1257.145, 60.96191
1258.223, 96.87305
1259.300, 24.23438
1260.378, 11.66113
1261.455, 123.4316
1262.532, 164.5215
1263.609, 97.60938
1264.686, 65.69336
1265.763, 119.7773
1266.840, 70.85742
1267.916, 99.93457
1268.992, 11.93750
1270.069, 108.1211
1271.145, 202.1787
1272.221, 76.40625
1273.296, 80.45703
1274.372, 63.50488
1275.448, 91.55176
1276.523, 131.5947
1277.598, 173.6348
1278.673, 51.67090
1279.749, 169.7041
1280.823, 128.7998
1281.898, 3.034180
1282.973, 72.05078
1284.047, 47.06348
1285.122, 182.0723
1286.196, 37.92480
1287.270, 124.0479
1288.344, 153.0146
1289.418, 4.978516
1290.491, 111.9307
1291.565, 134.8799
1292.638, 178.8223
1293.712, 178.8525
1294.785, 101.7871
1295.858, 19.28418
1296.931, 226.9805
1298.003, 150.1748
1299.076, 215.0703
1300.149, 129.9600
1301.221, 17.84473
1302.293, 244.6943
1303.365, 80.56641
1304.437, 148.4336
1305.509, 113.2959
1306.581, 184.1523
