##NAMES=Microcline
##RRUFFID=R050150
##IDEAL CHEMISTRY=KAlSi_3_O_8_
##LOCALITY=Crystal Peak area, Park/Teller Counties, Colorado, USA
##OWNER=RRUFF
##SOURCE=Dave Bunk Minerals
##DESCRIPTION=Pale blue prismatic crystals
##STATUS=The identification of this mineral has been confirmed by X-ray diffraction and chemical analysis
##URL=rruff.info/R050150
##MEASURED CHEMISTRY=(K_0.95_Na_0.05_)_Î£=1_Al_1.00_Si_3.00_O_8_
##PIN_ID=L00961
##ORIENTATION=Laser parallel to b* (0 1 0). Fiducial mark perpendicular to laser is parallel to c [0 0 1]
131.4920, 0.0000000E+00
132.7300, 104.9844
133.9690, 49.74414
135.2070, 534.0898
136.4450, 1887.689
137.6830, 3777.855
138.9210, 5873.188
140.1580, 7538.076
141.3950, 8178.344
142.6330, 8344.006
143.8690, 8999.738
145.1060, 10474.77
146.3430, 12719.04
147.5790, 15548.62
148.8150, 18377.47
150.0510, 20892.92
151.2870, 22279.59
152.5220, 23180.93
153.7580, 24739.95
154.9930, 26457.77
156.2280, 27778.41
157.4620, 27867.78
158.6970, 26122.63
159.9310, 22828.80
161.1660, 19095.79
162.4000, 14961.74
163.6330, 11570.69
164.8670, 8807.559
166.1000, 6417.111
167.3340, 4768.998
168.5670, 3562.061
169.8000, 2879.510
171.0320, 2701.863
172.2650, 2501.432
173.4970, 2493.887
174.7290, 2867.797
175.9610, 3174.635
177.1930, 3813.875
178.4240, 3858.416
179.6550, 3741.795
180.8870, 3563.931
182.1170, 3135.883
183.3480, 2743.646
184.5790, 2332.712
185.8090, 2057.695
187.0390, 1885.387
188.2690, 1788.580
189.4990, 1823.891
190.7290, 1957.053
191.9580, 2186.874
193.1870, 2551.814
194.4160, 2933.829
195.6450, 3320.048
196.8740, 4099.547
198.1020, 4409.221
199.3310, 4694.939
200.5590, 4284.672
201.7870, 3494.424
203.0140, 2668.191
204.2420, 1815.019
205.4690, 1207.356
206.6960, 678.5947
207.9230, 299.8535
209.1500, 136.0781
210.3760, 100.8652
211.6030, 88.15430
212.8290, 253.8809
214.0550, 330.1016
215.2810, 251.8721
216.5060, 268.2324
217.7320, 304.2324
218.9570, 469.9248
220.1820, 558.3486
221.4070, 397.9297
222.6320, 243.4219
223.8560, 53.00684
225.0800, 129.9365
226.3040, 17.04004
227.5280, 153.7676
228.7520, 96.53027
229.9760, 241.3652
231.1990, 172.2969
232.4220, 11.65918
233.6450, 19.50000
234.8680, 49.77246
236.0910, 59.85059
237.3130, 68.37012
238.5350, 176.7949
239.7570, 190.4521
240.9790, 441.0430
242.2010, 668.1777
243.4220, 864.1328
244.6430, 1303.705
245.8640, 1610.646
247.0850, 2652.776
248.3060, 3067.143
249.5270, 4007.547
250.7470, 4674.089
251.9670, 5843.152
253.1870, 7212.807
254.4070, 8817.980
255.6260, 10726.70
256.8460, 12430.28
258.0650, 13253.21
259.2840, 13677.06
260.5030, 12823.50
261.7220, 11199.38
262.9400, 10932.26
264.1580, 10726.33
265.3760, 10813.40
266.5940, 10512.36
267.8120, 9763.359
269.0290, 9240.398
270.2470, 8296.480
271.4640, 7917.598
272.6810, 8103.754
273.8980, 8343.945
275.1140, 9638.176
276.3310, 10996.16
277.5470, 12633.32
278.7630, 14722.69
279.9790, 17128.73
281.1940, 19937.48
282.4100, 22884.97
283.6250, 25106.97
284.8400, 26630.44
286.0550, 26022.12
287.2700, 23563.49
288.4850, 20310.09
289.6990, 16885.04
290.9130, 13114.79
292.1270, 10251.30
293.3410, 8114.184
294.5540, 6753.703
295.7680, 5443.213
296.9810, 4833.369
298.1940, 4164.176
299.4070, 3719.545
300.6200, 3302.381
301.8320, 2981.629
303.0450, 2473.277
304.2570, 2315.332
305.4690, 1887.816
306.6800, 1793.773
307.8920, 1470.248
309.1030, 1436.277
310.3150, 1194.895
311.5260, 1058.139
312.7360, 992.0312
313.9470, 911.6055
315.1580, 1017.861
316.3680, 1096.650
317.5780, 1045.641
318.7880, 1084.555
319.9980, 1240.246
321.2070, 1337.799
322.4170, 1781.879
323.6260, 2078.898
324.8350, 2529.281
326.0430, 2914.080
327.2520, 3344.191
328.4610, 4203.789
329.6690, 5005.965
330.8770, 5340.873
332.0850, 5558.611
333.2920, 5343.275
334.5000, 4454.926
335.7070, 3685.586
336.9140, 2992.250
338.1210, 2415.320
339.3280, 1979.596
340.5350, 1578.277
341.7410, 1418.961
342.9470, 1311.648
344.1540, 1359.336
345.3590, 1115.023
346.5650, 1209.711
347.7710, 1098.398
348.9760, 1169.086
350.1810, 1345.770
351.3860, 1167.111
352.5910, 1518.846
353.7950, 1565.766
355.0000, 1668.578
356.2040, 1713.439
357.4080, 1538.266
358.6120, 1534.842
359.8150, 1375.777
361.0190, 1539.752
362.2220, 1380.816
363.4250, 1328.732
364.6280, 1500.352
365.8310, 1504.516
367.0340, 1891.832
368.2360, 2011.914
369.4380, 2595.008
370.6400, 2780.332
371.8420, 3183.801
373.0440, 3063.756
374.2450, 2850.367
375.4470, 2329.951
376.6480, 1785.936
377.8490, 1205.529
379.0490, 819.2344
380.2500, 543.1055
381.4500, 467.2734
382.6510, 90.78906
383.8510, 5.115234
385.0500, 68.76562
386.2500, 229.4844
387.4500, 12.53320
388.6490, 21.74609
389.8480, 171.8652
391.0470, 130.5820
392.2460, 35.27734
393.4440, 142.9570
394.6430, 173.6230
395.8410, 460.2793
397.0390, 502.9355
398.2370, 777.5938
399.4340, 848.2578
400.6320, 952.9258
401.8290, 1347.602
403.0260, 1418.273
404.2230, 1569.910
405.4200, 1880.533
406.6170, 1048.141
407.8130, 762.7441
409.0090, 779.3379
410.2050, 858.9453
411.4010, 690.5684
412.5970, 662.1992
413.7920, 668.8613
414.9880, 460.5312
416.1830, 471.2129
417.3780, 9.056641
418.5730, 27.67188
419.7670, 21.59961
420.9620, 169.8887
422.1560, 173.2715
423.3500, 274.7695
424.5440, 71.45898
425.7380, 346.2520
426.9310, 113.2969
428.1240, 231.4766
429.3180, 166.8574
430.5110, 123.5059
431.7030, 86.71875
432.8960, 19.73438
434.0890, 84.26367
435.2810, 81.30078
436.4730, 155.2871
437.6650, 164.1875
438.8570, 323.0469
440.0480, 414.8496
441.2390, 690.5762
442.4310, 1036.234
443.6220, 1245.816
444.8120, 1686.324
446.0030, 2405.764
447.1940, 2817.135
448.3840, 3576.443
449.5740, 4346.686
450.7640, 5236.879
451.9540, 6144.010
453.1430, 6653.086
454.3330, 6906.387
455.5220, 6680.334
456.7110, 5959.924
457.9000, 5117.994
459.0890, 4752.025
460.2770, 4170.600
461.4650, 3887.643
462.6540, 3729.730
463.8420, 4230.797
465.0290, 4719.424
466.2170, 5474.031
467.4050, 6660.621
468.5920, 7719.197
469.7790, 9476.762
470.9660, 11325.32
472.1530, 13148.87
473.3390, 15593.41
474.5250, 17093.96
475.7120, 17805.50
476.8980, 17551.04
478.0840, 15835.58
479.2690, 13934.12
480.4550, 12436.65
481.6400, 10947.18
482.8250, 10264.72
484.0100, 9522.254
485.1950, 8714.783
486.3800, 7281.314
487.5640, 6291.842
488.7480, 5181.125
489.9320, 4575.652
491.1160, 3755.910
492.3000, 3259.436
493.4840, 3259.959
494.6670, 3317.486
495.8500, 3318.031
497.0330, 3607.611
498.2160, 4200.238
499.3990, 5088.967
500.5810, 6039.789
501.7630, 7632.758
502.9460, 9665.881
504.1280, 12290.68
505.3090, 15592.56
506.4910, 19154.12
507.6720, 23387.87
508.8540, 28194.85
510.0350, 33744.99
511.2160, 38886.28
512.3960, 42833.64
513.5770, 43844.12
514.7570, 41841.66
515.9380, 37317.33
517.1180, 30847.08
518.2970, 24921.96
519.4770, 19535.96
520.6570, 15019.03
521.8360, 12021.16
523.0150, 9308.246
524.1940, 7350.107
525.3730, 6271.486
526.5510, 4966.230
527.7300, 4365.555
528.9080, 3623.232
530.0860, 3087.945
531.2640, 2724.891
532.4420, 2415.893
533.6200, 2142.748
534.7970, 1851.230
535.9740, 1697.189
537.1510, 1471.303
538.3280, 1492.639
539.5050, 1178.451
540.6810, 1196.943
541.8580, 1080.439
543.0340, 885.9414
544.2100, 619.4473
545.3860, 963.9570
546.5610, 726.4746
547.7370, 702.9961
548.9120, 763.5215
550.0870, 651.0527
551.2620, 442.8516
552.4370, 587.2812
553.6120, 596.8262
554.7860, 620.8750
555.9600, 405.1445
557.1340, 444.7031
558.3080, 278.0840
559.4820, 347.5488
560.6560, 423.5488
561.8290, 387.1680
563.0020, 312.3086
564.1750, 282.2363
565.3480, 301.8867
566.5210, 398.4375
567.6930, 352.6953
568.8660, 374.0059
570.0380, 391.7910
571.2100, 303.4531
572.3820, 310.5781
573.5530, 222.6426
574.7250, 333.1777
575.8960, 373.8086
577.0670, 385.9551
578.2380, 499.9316
579.4090, 590.3477
580.5800, 578.0703
581.7500, 789.8574
582.9210, 755.2500
584.0910, 836.0879
585.2610, 610.9375
586.4300, 548.9629
587.6000, 395.8398
588.7690, 314.7480
589.9390, 301.6699
591.1080, 163.9258
592.2770, 143.8809
593.4450, 69.85156
594.6140, 49.16406
595.7820, 30.17969
596.9500, 98.18555
598.1190, 95.20703
599.2860, 106.2031
600.4540, 111.1016
601.6220, 63.21680
602.7890, 61.22461
603.9560, 46.23047
605.1230, 31.75977
606.2900, 192.7656
607.4570, 169.7910
608.6230, 40.83398
609.7890, 206.8965
610.9560, 110.9863
612.1220, 29.09180
613.2870, 49.23633
614.4530, 181.4160
615.6180, 224.6074
616.7840, 294.3555
617.9490, 308.9375
619.1140, 376.9141
620.2790, 444.4199
621.4430, 524.8418
622.6080, 619.1562
623.7720, 772.4863
624.9360, 916.8340
626.1000, 913.2012
627.2640, 1145.586
628.4270, 1339.984
629.5910, 1143.402
630.7540, 1092.832
631.9170, 1088.277
633.0800, 1089.766
634.2430, 873.2715
635.4050, 1123.789
636.5680, 838.3730
637.7300, 1053.975
638.8920, 1152.586
640.0540, 1106.215
641.2150, 1220.855
642.3770, 1271.521
643.5380, 1555.264
644.7000, 1679.023
645.8610, 1704.799
647.0210, 2123.582
648.1820, 2312.373
649.3430, 2224.172
650.5030, 2131.977
651.6630, 2466.812
652.8230, 2556.650
653.9830, 2223.494
655.1430, 2272.342
656.3020, 2065.195
657.4620, 1907.074
658.6210, 1813.934
659.7800, 1455.797
660.9390, 1125.664
662.0970, 1166.533
663.2560, 913.4004
664.4140, 661.2734
665.5720, 601.1562
666.7300, 703.0508
667.8880, 615.9727
669.0460, 462.8984
670.2030, 248.8379
671.3600, 328.7949
672.5180, 156.7578
673.6740, 184.7266
674.8310, 143.7031
675.9880, 112.6855
677.1440, 297.6738
678.3010, 5.660156
679.4570, 65.64062
680.6130, 25.62109
681.7690, 192.6016
682.9240, 100.5801
684.0800, 329.5547
685.2350, 455.5312
686.3900, 116.5078
687.5450, 318.4785
688.7000, 111.4512
689.8540, 11.41992
691.0090, 2.615234
692.1630, 141.3340
693.3170, 69.71680
694.4710, 2.189453
695.6250, 237.0840
696.7780, 157.0215
697.9320, 154.7832
699.0850, 51.64453
700.2380, 11.45898
701.3910, 74.71875
702.5440, 138.4219
703.6970, 32.40430
704.8490, 22.74414
706.0010, 157.6504
707.1530, 108.6426
708.3050, 107.6621
709.4570, 242.7344
710.6090, 154.8477
711.7600, 215.0137
712.9110, 251.4199
714.0620, 38.24609
715.2130, 153.7109
716.3640, 73.12500
717.5150, 149.9258
718.6650, 79.06836
719.8150, 165.7305
720.9650, 1.476563
722.1150, 161.7715
723.2650, 218.5391
724.4150, 39.29883
725.5640, 63.05078
726.7130, 163.7832
727.8630, 300.5215
729.0110, 10.56836
730.1600, 184.2793
731.3090, 226.9863
732.4570, 493.6816
733.6060, 557.7188
734.7540, 549.7559
735.9020, 640.5234
737.0490, 751.9805
738.1970, 915.0742
739.3440, 1109.207
740.4920, 1326.648
741.6390, 1575.033
742.7860, 1965.057
743.9320, 2234.680
745.0790, 2538.293
746.2250, 2804.078
747.3720, 3425.676
748.5180, 3377.439
749.6640, 3297.486
750.8100, 3169.324
751.9550, 2753.838
753.1010, 2220.539
754.2460, 1881.771
755.3910, 1558.736
756.5360, 1367.945
757.6810, 1083.461
758.8250, 911.9668
759.9700, 791.1895
761.1140, 916.6738
762.2580, 942.6406
763.4020, 889.7676
764.5460, 858.2188
765.6900, 708.6562
766.8330, 801.0840
767.9760, 784.5000
769.1200, 672.9043
770.2620, 768.2656
771.4050, 525.6465
772.5480, 452.0137
773.6900, 666.1875
774.8330, 517.5273
775.9750, 329.8574
777.1170, 376.1719
778.2590, 413.4766
779.4000, 309.9336
780.5420, 168.7773
781.6830, 398.5820
782.8240, 134.8281
783.9650, 204.0566
785.1060, 287.2715
786.2470, 446.4707
787.3870, 308.6543
788.5280, 263.1074
789.6680, 231.2617
790.8080, 161.1875
791.9480, 144.7090
793.0870, 192.6270
794.2270, 133.7168
795.3660, 371.7910
796.5060, 461.8477
797.6450, 388.8906
798.7830, 514.9141
799.9220, 802.9238
801.0610, 776.9180
802.1990, 640.8945
803.3370, 937.8555
804.4750, 1063.805
805.6130, 1158.734
806.7510, 1429.645
807.8890, 1922.541
809.0260, 2279.420
810.1630, 2994.281
811.3000, 2944.125
812.4370, 3320.953
813.5740, 3325.764
814.7110, 3175.559
815.8470, 2642.010
816.9830, 1998.771
818.1190, 1446.514
819.2550, 1434.242
820.3910, 1259.951
821.5270, 728.6445
822.6620, 547.3223
823.7970, 402.9844
824.9330, 530.6289
826.0670, 428.2559
827.2020, 520.6055
828.3370, 506.2129
829.4710, 459.7402
830.6060, 474.9570
831.7400, 363.7871
832.8740, 313.3164
834.0080, 227.0156
835.1410, 22.48633
836.2750, 137.9492
837.4080, 81.92773
838.5410, 198.3281
839.6740, 282.7598
840.8070, 74.12695
841.9400, 164.3223
843.0730, 123.6582
844.2050, 176.9766
845.3370, 171.2793
846.4690, 160.5664
847.6010, 248.8359
848.7330, 64.96875
849.8640, 30.79883
850.9960, 246.3555
852.1270, 35.99805
853.2580, 175.1328
854.3890, 113.8828
855.5200, 243.0117
856.6500, 109.0996
857.7810, 72.42188
858.9110, 138.5820
860.0410, 242.5723
861.1710, 169.9570
862.3010, 33.65039
863.4310, 175.2617
864.5600, 9.160156
865.6900, 84.72070
866.8190, 177.5781
867.9480, 323.4219
869.0770, 113.2539
870.2050, 42.08203
871.3340, 267.8984
872.4620, 125.2832
873.5900, 1.541016
874.7180, 63.80664
875.8460, 26.88281
876.9740, 175.5664
878.1010, 117.1973
879.2290, 267.9258
880.3560, 164.5918
881.4830, 6.242188
882.6100, 138.8691
883.7370, 10.51562
884.8630, 27.06641
885.9900, 60.36914
887.1160, 23.86328
888.2420, 42.60156
889.3680, 16.05469
890.4940, 61.48633
891.6200, 3.908203
892.7450, 170.3066
893.8700, 52.69531
894.9960, 38.92969
896.1210, 112.3984
897.2460, 18.72070
898.3700, 12.02344
899.4950, 131.3066
900.6190, 65.58203
901.7430, 258.8457
902.8670, 85.09961
903.9910, 161.3418
905.1150, 78.42578
906.2390, 92.74219
907.3620, 205.9004
908.4850, 172.9512
909.6080, 125.0859
910.7310, 60.11328
911.8540, 164.1328
912.9770, 78.14062
914.0990, 21.86133
915.2210, 235.8945
916.3440, 13.06641
917.4660, 105.7344
918.5870, 207.5254
919.7090, 133.3086
920.8310, 252.0820
921.9520, 89.84766
923.0730, 60.39648
924.1940, 249.3164
925.3150, 107.0176
926.4360, 193.7109
927.5560, 217.3965
928.6770, 51.07422
929.7970, 178.7227
930.9170, 185.3848
932.0370, 176.0391
933.1570, 178.6875
934.2760, 132.3281
935.3960, 27.96094
936.5150, 24.73828
937.6340, 19.68945
938.7530, 16.82227
939.8720, 102.4297
940.9910, 93.45703
942.1090, 92.88281
943.2280, 137.2109
944.3460, 109.7910
945.4640, 119.3672
946.5820, 238.9375
947.6990, 185.5039
948.8170, 224.5234
949.9340, 167.6191
951.0520, 239.1719
952.1690, 231.7578
953.2860, 263.3516
954.4030, 248.8926
955.5190, 256.4102
956.6360, 188.1113
957.7520, 248.6973
958.8680, 212.2773
959.9840, 186.8535
961.1000, 83.44531
962.2160, 250.0352
963.3310, 426.6289
964.4470, 184.2168
965.5620, 206.8242
966.6770, 45.43164
967.7920, 349.0371
968.9060, 341.6816
970.0210, 206.2773
971.1360, 441.9180
972.2500, 372.1230
973.3640, 317.7676
974.4780, 359.4629
975.5920, 376.7129
976.7050, 345.4141
977.8190, 578.1133
978.9320, 482.8125
980.0450, 519.5098
981.1580, 544.2070
982.2710, 508.9043
983.3840, 793.2676
984.4970, 778.2422
985.6090, 984.0000
986.7210, 1070.922
987.8330, 965.7383
988.9450, 1634.611
990.0570, 1384.510
991.1690, 1859.408
992.2800, 2077.846
993.3920, 2168.756
994.5030, 2551.668
995.6140, 2647.584
996.7250, 2446.518
997.8350, 2571.436
998.9460, 2648.047
1000.056, 2894.982
1001.167, 2996.922
1002.277, 2893.865
1003.387, 2882.811
1004.496, 2725.477
1005.606, 2441.428
1006.715, 2250.822
1007.825, 1937.002
1008.934, 1830.318
1010.043, 1468.764
1011.152, 1413.758
1012.260, 1285.762
1013.369, 1177.781
1014.477, 1152.807
1015.586, 1045.662
1016.694, 773.6973
1017.802, 881.5645
1018.909, 757.1484
1020.017, 1045.973
1021.124, 845.1172
1022.232, 1125.105
1023.339, 993.5820
1024.446, 832.7520
1025.553, 860.8145
1026.659, 1110.998
1027.766, 1215.189
1028.872, 1015.660
1029.979, 1531.867
1031.085, 1316.586
1032.191, 1575.145
1033.296, 1317.377
1034.402, 1411.617
1035.507, 1681.867
1036.613, 1737.123
1037.718, 1682.393
1038.823, 1639.695
1039.928, 1644.980
1041.032, 1772.273
1042.137, 1356.762
1043.241, 1249.072
1044.346, 1389.398
1045.450, 1197.732
1046.554, 1084.076
1047.657, 1060.262
1048.761, 918.0586
1049.864, 966.8906
1050.968, 1079.281
1052.071, 1255.684
1053.174, 754.0957
1054.277, 651.5234
1055.379, 839.9609
1056.482, 523.1270
1057.584, 616.5918
1058.687, 439.0703
1059.789, 196.5586
1060.891, 256.0605
1061.992, 396.5762
1063.094, 309.1074
1064.196, 260.6484
1065.297, 413.2051
1066.398, 253.7734
1067.499, 437.3574
1068.600, 233.9551
1069.701, 206.5645
1070.801, 317.1895
1071.902, 233.8242
1073.002, 273.4766
1074.102, 481.1426
1075.202, 293.8262
1076.302, 372.5215
1077.402, 173.2344
1078.501, 342.9590
1079.600, 297.6973
1080.700, 275.4512
1081.799, 267.2207
1082.898, 188.1699
1083.996, 183.5156
1085.095, 477.6016
1086.193, 323.2832
1087.292, 551.1250
1088.390, 572.9785
1089.488, 617.7715
1090.586, 490.6543
1091.683, 646.5547
1092.781, 571.7676
1093.878, 691.6953
1094.975, 630.6367
1096.073, 837.5938
1097.169, 658.5664
1098.266, 785.5527
1099.363, 569.5527
1100.459, 757.5684
1101.556, 833.5996
1102.652, 861.6660
1103.748, 878.7480
1104.844, 892.7129
1105.940, 1040.297
1107.035, 1076.877
1108.131, 1206.021
1109.226, 1348.178
1110.321, 1296.354
1111.416, 1596.541
1112.511, 1511.744
1113.605, 2057.961
1114.700, 2245.408
1115.794, 2892.656
1116.889, 3185.943
1117.983, 3495.242
1119.077, 4306.762
1120.170, 4616.098
1121.264, 5338.445
1122.357, 5752.809
1123.451, 5756.191
1124.544, 5664.621
1125.637, 5415.064
1126.730, 4975.523
1127.823, 4696.992
1128.915, 4236.496
1130.008, 4153.012
1131.100, 4062.391
1132.192, 4079.943
1133.284, 4294.508
1134.376, 4517.088
1135.467, 4685.682
1136.559, 4721.291
1137.650, 4808.918
1138.742, 5001.596
1139.833, 4561.318
1140.924, 3901.059
1142.014, 3536.814
1143.105, 3292.012
1144.195, 2841.461
1145.286, 2345.473
1146.376, 2145.283
1147.466, 1830.119
1148.556, 1505.963
1149.646, 1431.834
1150.735, 1244.695
1151.825, 1002.625
1152.914, 897.2832
1154.003, 539.3418
1155.092, 813.3281
1156.181, 889.3262
1157.270, 843.3398
1158.358, 585.3691
1159.447, 723.4102
1160.535, 1226.480
1161.623, 484.8125
1162.711, 775.9082
1163.799, 443.0234
1164.886, 397.1484
1165.974, 429.2871
1167.061, 472.4375
1168.148, 532.6016
1169.235, 458.8770
1170.322, 416.1016
1171.409, 327.2168
1172.496, 257.4570
1173.582, 246.7598
1174.669, 262.0742
1175.755, 276.3984
1176.841, 148.7363
1177.927, 163.0859
1179.012, 111.4590
1180.098, 194.9121
1181.183, 152.3809
1182.269, 161.8633
1183.354, 102.3574
1184.439, 93.86523
1185.524, 199.3828
1186.608, 450.9121
1187.693, 77.47266
1188.777, 181.0449
1189.862, 275.6289
1190.946, 126.2246
1192.030, 47.83008
1193.113, 102.4492
1194.197, 73.07812
1195.281, 24.72070
1196.364, 51.47461
1197.447, 18.94531
1198.530, 49.71094
1199.613, 41.39844
1200.696, 41.09375
1201.779, 139.8027
1202.861, 130.5234
1203.944, 115.2559
1205.026, 244.9961
1206.108, 264.7480
1207.190, 239.5137
1208.271, 74.28711
1209.353, 124.0723
1210.435, 54.86914
1211.516, 64.67383
1212.597, 7.507813
1213.678, 167.6836
1214.759, 56.92383
1215.840, 27.17188
1216.920, 72.57812
1218.001, 362.3398
1219.081, 27.88672
1220.161, 87.89258
1221.241, 188.6816
1222.321, 91.51953
1223.401, 121.2676
1224.480, 68.06445
1225.560, 279.8770
1226.639, 301.9883
1227.718, 35.53125
1228.797, 337.3711
1229.876, 204.2227
1230.955, 107.0840
1232.033, 69.95312
1233.112, 124.8301
1234.190, 22.26758
1235.268, 53.36328
1236.346, 33.67188
1237.424, 138.4102
1238.501, 28.30273
1239.579, 74.20703
1240.656, 170.1172
1241.733, 113.0449
1242.811, 174.9805
1243.888, 3.847656
1244.964, 111.1055
1246.041, 15.66602
1247.117, 65.03906
1248.194, 43.98438
1249.270, 40.01758
1250.346, 48.93750
1251.422, 159.9043
1252.498, 239.5781
1253.573, 80.55859
1254.649, 32.54883
1255.724, 149.5449
1256.800, 115.5508
1257.875, 134.5625
1258.950, 119.5820
1260.024, 13.39062
1261.099, 23.63672
1262.173, 95.66797
1263.248, 238.7109
1264.322, 156.7617
1265.396, 45.81641
1266.470, 79.88281
1267.544, 118.9531
1268.617, 85.94531
1269.691, 75.09375
1270.764, 116.1484
1271.837, 1.789063
1272.910, 43.73047
1273.983, 3.316406
1275.056, 341.3633
1276.129, 318.4180
1277.201, 72.47656
1278.273, 342.5430
1279.346, 130.2773
1280.418, 194.7305
1281.489, 141.2578
1282.561, 65.31250
1283.633, 143.5977
1284.704, 75.51953
1285.776, 89.44141
1286.847, 137.3711
1287.918, 108.3047
1288.989, 51.24219
1290.059, 6.195313
1291.130, 87.14062
1292.200, 194.0977
1293.271, 142.0977
1294.341, 115.0195
1295.411, 103.9883
1296.481, 157.9609
1297.551, 136.9375
1298.620, 69.91797
1299.690, 241.9023
1300.759, 394.8906
1301.828, 112.8867
1302.897, 239.8789
1303.966, 301.8789
1305.035, 317.8828
1306.103, 566.8906
1307.172, 143.9102
