##NAMES=Microcline
##RRUFFID=R050054
##IDEAL CHEMISTRY=KAlSi_3_O_8_
##LOCALITY=Kenticha, Negele area, Sidamo Province, Ethiopia
##OWNER=RRUFF
##SOURCE=Rock Currier
##DESCRIPTION=Light blue single crystal
##STATUS=The identification of this mineral has been confirmed by X-ray diffraction and chemical analysis
##URL=rruff.info/R050054
##MEASURED CHEMISTRY=(K_0.96_Na_0.04_)Al_1.00_Si_3.00_O_8_
##PIN_ID=M00082
##ORIENTATION=Laser parallel to b* (0 1 0). Fiducial mark perpendicular to laser is parallel to c [0 0 1]
97.121, 0.000
98.519, 0.592
99.917, 81.923
101.314, 56.734
102.712, 24.837
104.109, 23.143
105.505, 25.293
106.902, 113.741
108.298, 196.437
109.694, 645.360
111.090, 599.395
112.486, 552.518
113.881, 747.421
115.277, 319.042
116.672, 366.310
118.066, 493.200
119.461, 817.021
120.855, 1211.570
122.249, 1907.466
123.643, 2512.409
125.036, 2993.904
126.430, 3181.161
127.823, 2922.308
129.216, 2448.921
130.608, 1909.240
132.001, 1467.050
133.393, 1415.110
134.785, 1665.883
136.176, 2525.780
137.568, 3618.920
138.959, 4997.576
140.350, 5552.007
141.741, 5370.451
143.131, 5164.877
144.521, 5071.046
145.911, 5611.835
147.301, 6613.889
148.691, 7904.721
150.080, 8934.432
151.469, 10318.065
152.858, 12119.310
154.247, 13916.425
155.635, 15989.398
157.024, 16458.330
158.411, 15762.997
159.799, 13549.032
161.187, 11017.286
162.574, 8594.413
163.961, 6687.831
165.348, 5170.595
166.734, 4081.303
168.121, 3333.407
169.507, 2757.655
170.893, 2267.374
172.278, 2092.557
173.664, 1933.625
175.049, 1866.460
176.434, 1904.182
177.819, 1983.822
179.203, 1954.462
180.587, 1713.281
181.971, 1646.369
183.355, 1417.696
184.739, 1187.214
186.122, 983.915
187.505, 912.783
188.888, 774.793
190.271, 734.915
191.653, 755.132
193.035, 857.433
194.417, 1102.805
195.799, 1392.236
197.180, 1815.713
198.562, 2137.222
199.943, 1912.751
201.324, 1625.289
202.704, 1203.135
204.084, 819.230
205.465, 529.060
206.844, 468.845
208.224, 316.419
209.603, 208.894
210.983, 81.780
212.362, 77.945
213.740, 13.101
215.119, 43.242
216.497, 90.485
217.875, 102.831
219.253, 93.206
220.631, 105.197
222.008, 67.928
223.385, 57.725
224.762, 94.046
226.139, 61.372
227.515, 45.103
228.891, 107.363
230.267, 62.453
231.643, 34.410
233.018, 76.011
234.394, 23.650
235.769, 6.409
237.144, 38.663
238.518, 3.508
239.893, 92.996
241.267, 173.168
242.641, 181.677
244.014, 320.432
245.388, 341.402
246.761, 520.253
248.134, 664.690
249.507, 963.920
250.879, 1289.316
252.252, 1852.231
253.624, 2736.260
254.996, 3675.565
256.367, 4726.009
257.739, 5007.956
259.110, 4949.866
260.481, 4564.809
261.852, 4268.450
263.222, 4317.448
264.592, 4336.518
265.962, 4527.676
267.332, 4142.544
268.702, 3796.798
270.071, 3352.002
271.440, 3061.943
272.809, 2948.604
274.178, 3045.155
275.546, 3442.498
276.915, 4031.582
278.283, 5277.284
279.650, 6821.641
281.018, 8569.489
282.385, 10922.179
283.752, 12394.709
285.119, 13537.078
286.486, 13099.280
287.852, 11181.327
289.218, 9063.216
290.584, 6888.951
291.950, 5386.521
293.316, 4024.907
294.681, 3072.089
296.046, 2575.054
297.411, 2132.795
298.775, 1887.315
300.140, 1565.624
301.504, 1447.733
302.868, 1160.654
304.231, 988.397
305.595, 886.972
306.958, 732.386
308.321, 635.639
309.684, 523.726
311.047, 546.667
312.409, 481.471
313.771, 443.140
315.133, 412.679
316.495, 438.070
317.856, 426.282
319.217, 454.247
320.578, 398.895
321.939, 518.114
323.299, 565.883
324.660, 744.238
326.020, 871.216
327.380, 1266.864
328.739, 1686.155
330.099, 2153.144
331.458, 2413.891
332.817, 2317.448
334.176, 2036.882
335.534, 1604.224
336.892, 1232.500
338.251, 960.739
339.608, 719.944
340.966, 657.115
342.323, 520.251
343.681, 482.352
345.037, 430.413
346.394, 436.435
347.751, 446.415
349.107, 454.125
350.463, 483.938
351.819, 520.100
353.174, 565.412
354.530, 617.527
355.885, 694.695
357.240, 748.262
358.594, 748.904
359.949, 644.505
361.303, 675.063
362.657, 541.581
364.011, 527.055
365.365, 514.489
366.718, 645.877
368.071, 780.020
369.424, 963.901
370.777, 1219.492
372.129, 1383.797
373.481, 1330.844
374.833, 1154.482
376.185, 867.033
377.537, 630.581
378.888, 470.273
380.239, 347.030
381.590, 283.042
382.941, 246.688
384.291, 183.606
385.642, 138.875
386.992, 128.797
388.341, 67.455
389.691, 110.184
391.040, 84.957
392.389, 42.847
393.738, 76.579
395.087, 35.090
396.435, 52.018
397.784, 71.266
399.132, 112.634
400.479, 234.251
401.827, 278.311
403.174, 384.391
404.521, 403.786
405.868, 262.288
407.215, 237.146
408.561, 200.170
409.908, 205.116
411.254, 187.644
412.599, 158.820
413.945, 118.649
415.290, 85.620
416.636, 56.565
417.980, 16.518
419.325, 40.369
420.670, 106.774
422.014, 57.974
423.358, 90.236
424.702, 39.570
426.045, 34.987
427.389, 28.482
428.732, 25.054
430.075, 2.298
431.417, 30.582
432.760, 43.976
434.102, 87.952
435.444, 88.115
436.786, 108.243
438.127, 139.523
439.469, 197.603
440.810, 244.439
442.151, 335.335
443.492, 361.171
444.832, 520.112
446.172, 689.730
447.512, 958.408
448.852, 1346.995
450.192, 1851.459
451.531, 2527.034
452.870, 2820.445
454.209, 3157.761
455.548, 2993.030
456.887, 2588.251
458.225, 2237.425
459.563, 1778.554
460.901, 1561.639
462.238, 1458.680
463.576, 1393.678
464.913, 1580.635
466.250, 1695.550
467.587, 2101.424
468.923, 2560.060
470.259, 3313.254
471.596, 4467.944
472.931, 5716.696
474.267, 7271.141
475.603, 7724.392
476.938, 7742.483
478.273, 6994.648
479.608, 5961.734
480.942, 5276.908
482.276, 4785.824
483.611, 4797.213
484.944, 4397.781
486.278, 3797.078
487.612, 3113.439
488.945, 2422.776
490.278, 1977.090
491.611, 1738.384
492.943, 1487.656
494.276, 1498.911
495.608, 1416.146
496.940, 1596.364
498.271, 1689.563
499.603, 1949.745
500.934, 2242.854
502.265, 2707.697
503.596, 3571.962
504.927, 4527.063
506.257, 5976.945
507.587, 8073.848
508.917, 10891.788
510.247, 14589.757
511.577, 18327.852
512.906, 21586.086
514.235, 21814.512
515.564, 18953.156
516.892, 15792.121
518.221, 11861.095
519.549, 9060.097
520.877, 6880.006
522.205, 5230.090
523.533, 4113.804
524.860, 3213.197
526.187, 2711.568
527.514, 2241.809
528.841, 1846.949
530.167, 1617.635
531.493, 1326.180
532.820, 1235.180
534.145, 1093.936
535.471, 958.854
536.796, 851.325
538.122, 775.488
539.447, 701.424
540.771, 689.188
542.096, 609.802
543.420, 565.514
544.744, 527.388
546.068, 467.862
547.392, 442.128
548.715, 382.497
550.039, 335.336
551.362, 308.035
552.684, 304.609
554.007, 274.611
555.329, 306.504
556.652, 262.119
557.973, 242.286
559.295, 207.644
560.617, 232.078
561.938, 229.431
563.259, 215.846
564.580, 200.337
565.901, 201.041
567.221, 166.276
568.541, 163.422
569.861, 166.195
571.181, 173.542
572.501, 193.534
573.820, 201.220
575.139, 240.783
576.458, 214.148
577.777, 210.843
579.095, 274.159
580.414, 291.809
581.732, 310.143
583.049, 320.893
584.367, 318.126
585.685, 319.212
587.002, 278.684
588.319, 279.271
589.636, 211.459
590.952, 119.781
592.268, 117.166
593.585, 64.741
594.900, 56.322
596.216, 3.992
597.532, 35.802
598.847, 81.865
600.162, 50.131
601.477, 50.749
602.792, 12.362
604.106, 78.969
605.420, 48.574
606.734, 57.174
608.048, 78.769
609.361, 34.360
610.675, 60.947
611.988, 107.529
613.301, 128.108
614.614, 118.684
615.926, 83.258
617.238, 173.828
618.550, 112.403
619.862, 177.976
621.174, 203.545
622.485, 235.113
623.797, 354.678
625.108, 406.243
626.418, 423.806
627.729, 563.367
629.039, 607.930
630.349, 628.495
631.659, 557.063
632.969, 536.635
634.279, 533.212
635.588, 454.795
636.897, 445.382
638.206, 431.974
639.515, 483.571
640.823, 541.174
642.131, 480.781
643.439, 606.390
644.747, 567.000
646.055, 661.608
647.362, 745.217
648.669, 812.825
649.976, 914.432
651.283, 954.307
652.589, 967.526
653.896, 968.984
655.202, 918.861
656.508, 868.468
657.814, 777.075
659.119, 651.682
660.424, 567.290
661.729, 488.901
663.034, 428.518
664.339, 295.138
665.643, 299.765
666.947, 219.396
668.251, 176.031
669.555, 185.671
670.859, 118.314
672.162, 101.960
673.465, 79.607
674.768, 47.308
676.071, 35.674
677.373, 12.550
678.676, 2.197
679.978, 5.157
681.280, 24.513
682.581, 9.168
683.883, 32.139
685.184, 1.514
686.485, 59.850
687.786, 13.252
689.087, 7.359
690.387, 17.998
691.687, 21.296
692.987, 53.578
694.287, 46.553
695.586, 32.148
696.886, 36.712
698.185, 36.184
699.484, 38.694
700.783, 6.867
702.081, 8.257
703.379, 13.717
704.677, 20.666
705.975, 11.417
707.273, 26.901
708.570, 12.444
709.868, 15.014
711.165, 20.350
712.462, 28.767
713.758, 34.443
715.055, 56.869
716.351, 21.982
717.647, 15.238
718.943, 33.309
720.238, 2.934
721.533, 7.461
722.829, 26.870
724.124, 16.968
725.418, 33.350
726.713, 37.885
728.007, 15.260
729.301, 50.967
730.595, 49.179
731.889, 71.667
733.182, 104.278
734.476, 136.758
735.769, 171.456
737.061, 174.016
738.354, 261.086
739.647, 307.645
740.939, 389.635
742.231, 482.596
743.523, 560.393
744.814, 738.968
746.106, 830.595
747.397, 1058.089
748.688, 1205.739
749.978, 1272.202
751.269, 1152.524
752.559, 984.579
753.849, 842.215
755.139, 719.635
756.429, 622.024
757.719, 534.321
759.008, 422.580
760.297, 446.570
761.586, 421.849
762.875, 291.276
764.163, 412.653
765.451, 344.863
766.739, 430.311
768.027, 495.668
769.315, 414.075
770.602, 391.527
771.890, 320.920
773.177, 296.837
774.463, 263.162
775.750, 182.589
777.036, 220.903
778.323, 169.207
779.609, 167.860
780.894, 122.151
782.180, 132.456
783.465, 128.857
784.750, 96.023
786.035, 142.379
787.320, 114.635
788.605, 113.884
789.889, 152.252
791.173, 139.487
792.457, 141.715
793.741, 191.936
795.024, 199.150
796.307, 212.356
797.591, 179.555
798.873, 200.747
800.156, 214.931
801.439, 250.108
802.721, 331.278
804.003, 325.440
805.285, 411.594
806.566, 477.742
807.848, 627.882
809.129, 893.014
810.410, 1138.139
811.691, 1420.256
812.971, 1696.366
814.252, 1659.468
815.532, 1580.562
816.812, 1275.649
818.092, 968.728
819.371, 729.799
820.651, 511.863
821.930, 447.918
823.209, 338.966
824.488, 212.006
825.766, 254.038
827.045, 162.062
828.323, 112.079
829.601, 157.072
830.878, 128.008
832.156, 142.841
833.433, 94.618
834.710, 131.197
835.987, 72.024
837.264, 69.811
838.540, 98.269
839.817, 71.910
841.093, 79.988
842.369, 74.194
843.644, 66.480
844.920, 49.913
846.195, 42.738
847.470, 30.014
848.745, 15.380
850.020, 4.853
851.294, 1.843
852.568, 70.820
853.842, 17.651
855.116, 35.893
856.390, 0.935
857.663, 10.022
858.936, 7.533
860.209, 17.899
861.482, 49.701
862.755, 35.766
864.027, 28.732
865.299, 2.903
866.571, 11.989
867.843, 28.584
869.115, 47.804
870.386, 13.261
871.657, 27.641
872.928, 9.916
874.199, 63.973
875.470, 54.242
876.740, 16.376
878.010, 64.936
879.280, 21.311
880.550, 58.697
881.820, 10.018
883.089, 1.606
884.358, 32.782
885.627, 8.759
886.896, 23.318
888.164, 4.902
889.433, 34.499
890.701, 46.892
891.969, 23.278
893.236, 14.343
894.504, 4.015
895.771, 9.365
897.038, 22.705
898.305, 17.327
899.572, 41.362
900.838, 15.678
902.105, 29.987
903.371, 62.287
904.637, 4.417
905.902, 12.136
907.168, 73.127
908.433, 32.384
909.698, 54.634
910.963, 23.878
912.228, 1.120
913.492, 88.350
914.757, 25.573
916.021, 56.790
917.285, 59.001
918.548, 21.218
919.812, 92.427
921.075, 38.630
922.338, 25.827
923.601, 38.017
924.864, 16.800
926.126, 53.364
927.388, 24.522
928.650, 49.673
929.912, 84.818
931.174, 5.957
932.435, 75.088
933.697, 44.220
934.958, 44.345
936.218, 93.465
937.479, 26.579
938.739, 77.687
940.000, 97.788
941.260, 17.884
942.520, 121.974
943.779, 80.059
945.039, 123.137
946.298, 104.213
947.557, 65.287
948.816, 152.356
950.074, 90.418
951.333, 94.475
952.591, 108.527
953.849, 56.573
955.107, 123.613
956.365, 66.648
957.622, 135.678
958.879, 119.703
960.136, 151.730
961.393, 78.751
962.650, 101.768
963.906, 50.779
965.162, 115.786
966.418, 92.790
967.674, 96.790
968.930, 106.784
970.185, 136.774
971.441, 120.759
972.696, 129.740
973.950, 119.716
975.205, 159.687
976.459, 134.653
977.714, 141.620
978.968, 184.582
980.222, 144.541
981.475, 172.496
982.729, 147.448
983.982, 199.396
985.235, 223.785
986.488, 213.281
987.740, 306.179
988.993, 357.063
990.245, 398.004
991.497, 493.901
992.749, 564.849
994.000, 618.707
995.252, 692.275
996.503, 734.500
997.754, 809.302
999.005, 870.032
1000.256, 923.875
1001.506, 1074.926
1002.756, 1093.878
1004.006, 1160.860
1005.256, 1117.498
1006.506, 1021.351
1007.755, 915.272
1009.005, 683.680
1010.254, 693.053
1011.502, 683.026
1012.751, 478.943
1014.000, 493.843
1015.248, 370.689
1016.496, 440.584
1017.744, 437.000
1018.991, 336.879
1020.239, 376.189
1021.486, 347.893
1022.733, 364.783
1023.980, 364.456
1025.227, 391.479
1026.473, 379.482
1027.719, 430.790
1028.965, 429.809
1030.211, 535.671
1031.457, 534.688
1032.702, 460.370
1033.948, 561.543
1035.193, 574.453
1036.438, 681.209
1037.682, 628.113
1038.927, 690.096
1040.171, 666.009
1041.415, 611.980
1042.659, 589.852
1043.903, 523.295
1045.146, 434.658
1046.390, 462.300
1047.633, 425.167
1048.876, 421.981
1050.118, 463.926
1051.361, 397.713
1052.603, 386.610
1053.845, 374.738
1055.087, 303.912
1056.329, 311.513
1057.571, 255.521
1058.812, 211.533
1060.053, 166.534
1061.294, 179.333
1062.535, 211.772
1063.775, 90.770
1065.016, 109.651
1066.256, 164.773
1067.496, 83.512
1068.736, 79.375
1069.975, 97.365
1071.214, 55.467
1072.454, 104.378
1073.693, 100.418
1074.931, 88.919
1076.170, 180.904
1077.408, 105.917
1078.647, 92.937
1079.885, 143.919
1081.122, 122.893
1082.360, 177.417
1083.597, 126.375
1084.835, 132.384
1086.072, 191.427
1087.308, 155.313
1088.545, 190.433
1089.781, 171.410
1091.018, 222.489
1092.254, 272.507
1093.490, 211.480
1094.725, 291.095
1095.961, 326.921
1097.196, 239.892
1098.431, 340.861
1099.666, 368.830
1100.900, 288.797
1102.135, 414.763
1103.369, 360.728
1104.603, 410.869
1105.837, 404.831
1107.071, 386.895
1108.304, 462.503
1109.538, 433.462
1110.771, 480.547
1112.004, 550.504
1113.236, 616.612
1114.469, 706.279
1115.701, 830.336
1116.933, 1003.290
1118.165, 1155.373
1119.397, 1340.325
1120.629, 1665.551
1121.860, 1888.526
1123.091, 1989.474
1124.322, 2120.602
1125.553, 2152.580
1126.783, 1962.641
1128.014, 1952.177
1129.244, 1665.124
1130.474, 1637.292
1131.704, 1651.375
1132.933, 1602.317
1134.163, 1716.303
1135.392, 1920.244
1136.621, 1937.278
1137.850, 2171.264
1139.079, 2149.257
1140.307, 1969.468
1141.535, 1940.954
1142.763, 1665.098
1143.991, 1468.239
1145.219, 1275.483
1146.446, 1007.688
1147.674, 983.500
1148.901, 737.731
1150.128, 679.961
1151.354, 583.059
1152.581, 484.057
1153.807, 492.045
1155.033, 403.999
1156.259, 303.978
1157.485, 340.992
1158.710, 293.273
1159.936, 243.415
1161.161, 255.764
1162.386, 156.613
1163.611, 252.721
1164.835, 164.897
1166.060, 103.886
1167.284, 173.997
1168.508, 121.150
1169.732, 139.146
1170.955, 140.156
1172.179, 99.273
1173.402, 152.420
1174.625, 50.442
1175.848, 127.429
1177.070, 128.696
1178.293, 78.837
1179.515, 89.148
1180.737, 92.128
1181.959, 103.426
1183.181, 99.425
1184.402, 59.519
1185.624, 98.504
1186.845, 35.490
1188.066, 72.260
1189.286, 65.241
1190.507, 119.374
1191.727, 18.646
1192.947, 76.325
1194.167, 35.572
1195.387, 41.537
1196.607, 111.499
1197.826, 43.807
1199.045, 45.762
1200.264, 3.713
1201.483, 4.658
1202.702, 36.602
1203.920, 32.918
1205.138, 9.859
1206.356, 79.884
1207.574, 17.169
1208.792, 28.750
1210.009, 56.751
1211.227, 37.715
1212.444, 7.622
1213.661, 45.469
1214.877, 52.447
1216.094, 51.316
1217.310, 0.320
1218.526, 32.177
1219.742, 14.029
1220.958, 15.911
1222.173, 90.758
1223.389, 7.802
1224.604, 31.686
1225.819, 115.515
1227.034, 5.610
1228.248, 24.698
1229.463, 43.099
1230.677, 31.854
1231.891, 28.640
1233.105, 45.421
1234.318, 10.321
1235.532, 49.095
1236.745, 1.134
1237.958, 34.628
1239.171, 98.387
1240.384, 8.771
1241.596, 12.019
1242.809, 78.725
1244.021, 157.661
1245.233, 154.806
1246.444, 344.118
1247.656, 155.894
1248.867, 63.610
1250.079, 5.379
1251.290, 92.088
1252.500, 23.787
1253.711, 23.300
1254.921, 62.381
1256.132, 19.057
1257.342, 72.827
1258.552, 13.496
1259.761, 7.754
1260.971, 26.207
1262.180, 55.852
1263.389, 19.616
1264.598, 55.333
1265.807, 0.956
1267.015, 45.611
1268.223, 57.224
1269.432, 8.831
1270.640, 10.984
1271.847, 27.576
1273.055, 3.756
1274.262, 107.893
1275.470, 7.433
1276.677, 22.035
1277.883, 83.562
1279.090, 45.080
1280.296, 93.668
1281.503, 33.173
1282.709, 44.673
1283.915, 45.838
1285.120, 7.337
1286.326, 1.195
1287.531, 12.270
1288.736, 12.721
1289.941, 5.818
1291.146, 8.370
1292.350, 5.940
1293.555, 8.815
1294.759, 9.217
1295.963, 25.612
1297.167, 49.001
1298.370, 51.383
1299.574, 71.736
1300.777, 57.636
1301.980, 50.925
1303.183, 9.843
1304.386, 22.181
1305.588, 27.487
1306.790, 35.173
1307.993, 32.123
1309.195, 19.411
1310.396, 62.692
1311.598, 32.964
1312.799, 26.229
1314.000, 63.486
1315.201, 59.736
1316.402, 35.031
1317.603, 27.263
1318.803, 56.487
1320.003, 88.699
1321.203, 14.903
1322.403, 28.097
1323.603, 12.283
1324.802, 73.442
1326.002, 13.592
1327.201, 61.731
1328.400, 39.863
1329.599, 85.986
1330.797, 95.079
1331.995, 15.836
1333.194, 91.643
1334.392, 30.703
1335.589, 85.734
1336.787, 101.870
1337.985, 16.884
1339.182, 83.855
1340.379, 67.816
1341.576, 12.767
1342.772, 98.776
1343.969, 76.704
1345.165, 81.494
1346.361, 85.276
1347.557, 12.168
1348.753, 85.039
1349.949, 4.159
1351.144, 63.690
1352.339, 99.603
1353.534, 46.393
1354.729, 54.206
1355.924, 87.993
1357.118, 64.656
1358.312, 53.674
1359.506, 92.486
1360.700, 30.224
1361.894, 110.784
1363.088, 67.469
1364.281, 55.062
1365.474, 137.651
1366.667, 21.330
1367.860, 51.860
1369.052, 72.474
1370.245, 51.117
1371.437, 40.404
1372.629, 119.486
1373.821, 3.819
1375.013, 72.749
1376.204, 62.224
1377.395, 32.499
1378.586, 76.675
1379.777, 74.029
1380.968, 62.870
1382.159, 94.239
1383.349, 41.598
1384.539, 69.950
1385.729, 83.104
1386.919, 20.545
1388.109, 121.715
1389.298, 69.845
1390.487, 48.226
1391.676, 106.346
1392.865, 48.290
1394.054, 72.505
1395.242, 123.340
1396.431, 19.725
1397.619, 101.646
1398.807, 87.651
1399.995, 38.757
1401.182, 88.732
1402.370, 41.461
1403.557, 14.638
1404.744, 97.085
1405.931, 30.704
1407.118, 40.014
1408.304, 140.776
1409.490, 52.717
1410.676, 81.588
1411.862, 119.889
1413.048, 15.265
1414.234, 61.130
1415.419, 28.771
1416.604, 31.357
1417.789, 102.952
1418.974, 39.460
1420.159, 56.831
1421.343, 80.871
1422.528, 37.144
1423.712, 99.667
1424.896, 148.379
1426.079, 16.679
1427.263, 47.727
1428.446, 89.933
1429.629, 51.562
1430.812, 66.611
1431.995, 76.212
1433.178, 43.187
1434.360, 120.917
1435.543, 11.563
1436.725, 140.743
1437.907, 123.262
1439.088, 69.751
1440.270, 105.052
1441.451, 21.464
1442.632, 44.701
1443.813, 155.144
1444.994, 61.394
1446.175, 111.046
1447.355, 139.563
1448.535, 49.809
1449.715, 109.285
1450.895, 81.561
1452.075, 79.981
1453.255, 165.959
1454.434, 71.227
1455.613, 84.467
1456.792, 112.816
1457.971, 34.640
1459.149, 127.713
1460.328, 126.773
1461.506, 56.260
1462.684, 126.958
1463.862, 122.084
1465.040, 69.280
1466.217, 131.183
1467.395, 82.796
1468.572, 123.784
1469.749, 160.956
1470.925, 54.886
1472.102, 99.832
1473.278, 134.805
1474.455, 0.809
1475.631, 154.683
1476.807, 75.054
1477.982, 39.917
1479.158, 105.741
1480.333, 92.933
1481.508, 63.431
1482.683, 78.927
1483.858, 8.356
1485.033, 44.714
1486.207, 123.007
1487.381, 43.218
1488.555, 99.090
1489.729, 81.148
1490.903, 9.138
1492.076, 109.113
1493.250, 125.104
1494.423, 80.976
1495.596, 132.000
1496.769, 57.107
1497.941, 7.999
1499.114, 91.009
1500.286, 0.803
1501.458, 38.716
1502.630, 72.771
1503.802, 26.820
1504.973, 75.388
1506.145, 78.377
1507.316, 61.522
1508.487, 16.660
1509.657, 81.975
1510.828, 27.323
1511.999, 57.850
1513.169, 67.509
1514.339, 0.291
1515.509, 92.423
1516.678, 0.000
##END=



