##NAMES=Microcline
##RRUFFID=R050054
##IDEAL CHEMISTRY=KAlSi_3_O_8_
##LOCALITY=Kenticha, Negele area, Sidamo Province, Ethiopia
##OWNER=RRUFF
##SOURCE=Rock Currier
##DESCRIPTION=Light blue single crystal
##STATUS=The identification of this mineral has been confirmed by X-ray diffraction and chemical analysis
##URL=rruff.info/R050054
##MEASURED CHEMISTRY=(K_0.96_Na_0.04_)Al_1.00_Si_3.00_O_8_
##PIN_ID=M00082
##ORIENTATION=Laser parallel to b* (0 1 0). Fiducial mark perpendicular to laser is parallel to c [0 0 1]
98.519, 0.000
99.917, 44.132
101.314, 37.722
102.712, 10.025
104.109, 45.805
105.505, 28.159
106.902, 26.607
108.298, 100.593
109.694, 639.951
111.090, 687.990
112.486, 621.205
113.881, 1111.738
115.277, 377.104
116.672, 468.894
118.066, 578.221
119.461, 817.186
120.855, 1181.195
122.249, 1903.949
123.643, 2416.149
125.036, 2821.662
126.430, 2916.038
127.823, 2696.841
129.216, 2375.336
130.608, 1859.383
132.001, 1426.018
133.393, 1390.156
134.785, 1622.351
136.176, 2432.389
137.568, 3481.944
138.959, 4612.225
140.350, 5130.458
141.741, 5001.865
143.131, 4864.639
144.521, 4934.983
145.911, 5535.042
147.301, 6541.789
148.691, 7696.440
150.080, 8740.091
151.469, 10062.825
152.858, 11649.683
154.247, 13176.137
155.635, 14771.539
157.024, 15052.548
158.411, 14598.973
159.799, 12567.387
161.187, 10250.952
162.574, 8102.714
163.961, 6135.694
165.348, 4829.853
166.734, 3784.381
168.121, 2963.490
169.507, 2490.208
170.893, 2130.550
172.278, 1862.780
173.664, 1772.455
175.049, 1753.052
176.434, 2289.556
177.819, 2568.984
179.203, 2434.364
180.587, 2138.763
181.971, 2037.348
183.355, 1758.215
184.739, 1457.824
186.122, 1123.515
187.505, 931.907
188.888, 673.444
190.271, 689.103
191.653, 704.862
193.035, 834.710
194.417, 1092.636
195.799, 1397.630
197.180, 1819.683
198.562, 1966.782
199.943, 1824.917
201.324, 1624.075
202.704, 1094.250
204.084, 778.963
205.465, 522.236
206.844, 476.203
208.224, 278.599
209.603, 192.262
210.983, 94.595
212.362, 5.513
213.740, 0.343
215.119, 45.892
216.497, 83.202
217.875, 72.592
219.253, 122.062
220.631, 70.553
222.008, 90.310
223.385, 37.387
224.762, 67.240
226.139, 70.241
227.515, 89.905
228.891, 89.003
230.267, 35.169
231.643, 70.003
233.018, 55.030
234.394, 27.599
235.769, 13.848
237.144, 18.599
238.518, 2.117
239.893, 99.122
241.267, 89.325
242.641, 163.378
244.014, 240.757
245.388, 319.998
246.761, 415.142
248.134, 645.492
249.507, 937.015
250.879, 1371.437
252.252, 1757.188
253.624, 2537.795
254.996, 3420.594
256.367, 4275.375
257.739, 4564.603
259.110, 4576.019
260.481, 4261.594
261.852, 4395.769
263.222, 4018.868
264.592, 3970.382
265.962, 4035.533
267.332, 3850.948
268.702, 3459.427
270.071, 3102.350
271.440, 2749.363
272.809, 2702.195
274.178, 2835.678
275.546, 3266.290
276.915, 3781.498
278.283, 4898.556
279.650, 6314.287
281.018, 7869.537
282.385, 10008.645
283.752, 11197.632
285.119, 12306.492
286.486, 11885.228
287.852, 10133.836
289.218, 8372.319
290.584, 6338.684
291.950, 4825.924
293.316, 3611.031
294.681, 2780.985
296.046, 2412.769
297.411, 1955.371
298.775, 1715.789
300.140, 1447.026
301.504, 1303.092
302.868, 1105.996
304.231, 848.749
305.595, 752.357
306.958, 644.831
308.321, 552.176
309.684, 504.391
311.047, 436.333
312.409, 456.467
313.771, 364.336
315.133, 369.097
316.495, 368.753
317.856, 322.286
319.217, 354.656
320.578, 315.780
321.939, 393.587
323.299, 458.017
324.660, 669.061
326.020, 805.786
327.380, 1163.198
328.739, 1590.284
330.099, 1997.107
331.458, 2279.725
332.817, 2162.169
334.176, 1864.476
335.534, 1448.690
336.892, 1093.850
338.251, 896.976
339.608, 684.077
340.966, 587.154
342.323, 415.208
343.681, 437.234
345.037, 347.234
346.394, 351.204
347.751, 344.145
349.107, 279.054
350.463, 392.930
351.819, 407.773
353.174, 527.402
354.530, 553.076
355.885, 648.795
357.240, 714.515
358.594, 664.204
359.949, 596.862
361.303, 545.492
362.657, 496.091
364.011, 501.656
365.365, 557.897
366.718, 640.700
368.071, 786.175
369.424, 976.894
370.777, 1199.385
372.129, 1386.597
373.481, 1321.863
374.833, 1090.521
376.185, 833.162
377.537, 644.517
378.888, 469.997
380.239, 379.165
381.590, 301.036
382.941, 228.823
384.291, 149.869
385.642, 125.701
386.992, 92.865
388.341, 91.179
389.691, 69.329
391.040, 64.270
392.389, 27.289
393.738, 56.709
395.087, 51.964
396.435, 87.179
397.784, 81.236
399.132, 121.085
400.479, 218.827
401.827, 326.468
403.174, 401.361
404.521, 337.099
405.868, 330.934
407.215, 187.533
408.561, 175.784
409.908, 167.414
411.254, 178.940
412.599, 143.442
413.945, 81.923
415.290, 89.389
416.636, 72.840
417.980, 0.272
419.325, 16.317
420.670, 78.931
422.014, 5.416
423.358, 87.267
424.702, 49.007
426.045, 67.805
427.389, 78.680
428.732, 16.639
430.075, 25.658
431.417, 0.737
432.760, 1.870
434.102, 3.945
435.444, 73.786
436.786, 26.496
438.127, 103.234
439.469, 118.046
440.810, 171.743
442.151, 260.386
443.492, 302.043
444.832, 424.729
446.172, 628.128
447.512, 912.677
448.852, 1245.056
450.192, 1685.359
451.531, 2218.776
452.870, 2553.994
454.209, 2899.168
455.548, 2726.278
456.887, 2374.370
458.225, 2063.421
459.563, 1739.409
460.901, 1518.362
462.238, 1360.279
463.576, 1264.162
464.913, 1461.010
466.250, 1575.827
467.587, 1963.609
468.923, 2440.360
470.259, 3130.740
471.596, 4253.889
472.931, 5424.726
474.267, 6787.618
475.603, 7236.096
476.938, 7233.569
478.273, 6471.013
479.608, 5564.237
480.942, 4885.572
482.276, 4451.720
483.611, 4438.175
484.944, 4034.879
486.278, 3490.268
487.612, 2939.636
488.945, 2242.985
490.278, 1862.317
491.611, 1623.631
492.943, 1396.931
494.276, 1342.215
495.608, 1340.485
496.940, 1403.740
498.271, 1560.983
499.603, 1800.210
500.934, 2063.425
502.265, 2430.583
503.596, 3215.020
504.927, 4082.546
506.257, 5446.691
507.587, 7304.852
508.917, 9991.979
510.247, 13408.832
511.577, 16836.164
512.906, 19783.545
514.235, 19841.432
515.564, 17469.424
516.892, 14587.484
518.221, 11075.633
519.549, 8473.669
520.877, 6417.800
522.205, 4804.817
523.533, 3965.628
524.860, 2929.153
526.187, 2505.297
527.514, 1978.536
528.841, 1785.494
530.167, 1472.673
531.493, 1262.745
532.820, 1144.714
534.145, 939.371
535.471, 848.577
536.796, 770.019
538.122, 761.214
539.447, 694.570
540.771, 583.030
542.096, 545.464
543.420, 443.040
544.744, 446.371
546.068, 465.576
547.392, 394.333
548.715, 327.728
550.039, 293.023
551.362, 272.212
552.684, 317.209
554.007, 232.494
555.329, 309.798
556.652, 240.421
557.973, 221.955
559.295, 207.730
560.617, 144.992
561.938, 231.929
563.259, 212.931
564.580, 125.859
565.901, 193.639
567.221, 183.919
568.541, 128.604
569.861, 180.734
571.181, 122.975
572.501, 143.019
573.820, 138.812
575.139, 216.672
576.458, 200.433
577.777, 228.802
579.095, 246.807
580.414, 314.044
581.732, 327.502
583.049, 333.261
584.367, 354.132
585.685, 265.117
587.002, 225.501
588.319, 188.573
589.636, 103.379
590.952, 97.831
592.268, 92.274
593.585, 62.784
594.900, 84.592
596.216, 61.207
597.532, 31.151
598.847, 46.160
600.162, 47.398
601.477, 33.010
602.792, 15.645
604.106, 73.273
605.420, 26.896
606.734, 57.513
608.048, 65.125
609.361, 27.736
610.675, 65.342
611.988, 65.943
613.301, 71.541
614.614, 66.139
615.926, 66.733
617.238, 176.325
618.550, 103.912
619.862, 207.497
621.174, 152.078
622.485, 216.656
623.797, 270.231
625.108, 333.803
626.418, 388.374
627.729, 486.940
629.039, 558.507
630.349, 597.136
631.659, 508.746
632.969, 532.314
634.279, 466.923
635.588, 416.497
636.897, 476.073
638.206, 394.653
639.515, 403.236
640.823, 502.823
642.131, 458.412
643.439, 558.002
644.747, 563.591
646.055, 606.177
647.362, 719.763
648.669, 710.346
649.976, 845.928
651.283, 841.509
652.589, 879.087
653.896, 938.665
655.202, 847.241
656.508, 816.815
657.814, 731.388
659.119, 644.960
660.424, 571.530
661.729, 461.102
663.034, 413.675
664.339, 292.251
665.643, 238.830
666.947, 217.411
668.251, 168.997
669.555, 205.584
670.859, 81.173
672.162, 184.761
673.465, 112.349
674.768, 38.935
676.071, 67.519
677.373, 20.899
678.676, 46.672
679.978, 46.247
681.280, 12.102
682.581, 21.542
683.883, 2.420
685.184, 74.964
686.485, 8.507
687.786, 32.295
689.087, 56.831
690.387, 51.499
691.687, 78.871
692.987, 46.354
694.287, 19.863
695.586, 25.759
696.886, 70.154
698.185, 49.404
699.484, 22.798
700.783, 60.405
702.081, 6.644
703.379, 69.050
704.677, 42.607
705.975, 22.272
707.273, 11.317
708.570, 15.597
709.868, 29.391
711.165, 47.428
712.462, 38.950
713.758, 67.349
715.055, 62.810
716.351, 54.539
717.647, 13.814
718.943, 13.438
720.238, 12.136
721.533, 69.121
722.829, 54.568
724.124, 3.775
725.418, 80.061
726.713, 68.043
728.007, 94.834
729.301, 103.197
730.595, 76.660
731.889, 148.025
733.182, 95.827
734.476, 138.163
735.769, 161.654
737.061, 266.934
738.354, 280.210
739.647, 331.908
740.939, 377.679
742.231, 441.730
743.523, 557.358
744.814, 700.778
746.106, 774.008
747.397, 1030.318
748.688, 1075.612
749.978, 1143.755
751.269, 1125.307
752.559, 938.572
753.849, 823.683
755.139, 682.904
756.429, 539.971
757.719, 485.066
759.008, 365.990
760.297, 428.153
761.586, 371.112
762.875, 296.321
764.163, 429.009
765.451, 383.954
766.739, 425.255
768.027, 466.349
769.315, 406.434
770.602, 306.516
771.890, 317.641
773.177, 290.737
774.463, 260.825
775.750, 253.905
777.036, 206.977
778.323, 195.041
779.609, 203.142
780.894, 167.189
782.180, 131.228
783.465, 112.369
784.750, 75.392
786.035, 80.575
787.320, 133.521
788.605, 81.518
789.889, 135.507
791.173, 111.487
792.457, 187.553
793.741, 195.590
795.024, 169.545
796.307, 155.492
797.591, 158.430
798.873, 170.359
800.156, 167.280
801.439, 240.192
802.721, 300.095
804.003, 284.991
805.285, 408.877
806.566, 512.755
807.848, 621.624
809.129, 804.485
810.410, 1074.336
811.691, 1271.180
812.971, 1461.013
814.252, 1543.839
815.532, 1415.656
816.812, 1230.464
818.092, 956.264
819.371, 642.054
820.651, 499.835
821.930, 346.608
823.209, 316.372
824.488, 274.127
825.766, 220.872
827.045, 155.609
828.323, 211.337
829.601, 114.957
830.878, 144.666
832.156, 181.265
833.433, 88.890
834.710, 70.504
835.987, 91.419
837.264, 24.918
838.540, 117.302
839.817, 134.945
841.093, 33.352
842.369, 97.847
843.644, 56.436
844.920, 58.330
846.195, 71.674
847.470, 2.796
848.745, 10.177
850.020, 0.885
851.294, 33.941
852.568, 6.598
853.842, 0.478
855.116, 3.631
856.390, 18.148
857.663, 36.339
858.936, 55.289
860.209, 10.729
861.482, 76.443
862.755, 3.625
864.027, 17.147
865.299, 10.872
866.571, 24.655
867.843, 19.648
869.115, 4.924
870.386, 28.847
871.657, 62.188
872.928, 18.202
874.199, 53.290
875.470, 15.478
876.740, 51.331
878.010, 40.344
879.280, 20.464
880.550, 17.349
881.820, 10.199
883.089, 12.067
884.358, 15.015
885.627, 0.880
886.896, 20.214
888.164, 6.299
889.433, 36.375
890.701, 36.444
891.969, 16.495
893.236, 0.454
894.504, 5.425
895.771, 2.590
897.038, 11.484
898.305, 77.591
899.572, 35.580
900.838, 38.561
902.105, 65.542
903.371, 3.517
904.637, 11.518
905.902, 28.431
907.168, 16.373
908.433, 54.307
909.698, 30.236
910.963, 74.158
912.228, 51.077
913.492, 79.989
914.757, 20.896
916.021, 3.203
917.285, 77.687
918.548, 6.571
919.812, 53.447
921.075, 10.683
922.338, 65.172
923.601, 38.021
924.864, 94.864
926.126, 74.701
927.388, 151.533
928.650, 85.359
929.912, 90.179
931.174, 35.993
932.435, 83.807
933.697, 69.616
934.958, 19.419
936.218, 61.215
937.479, 18.943
938.739, 104.685
940.000, 112.463
941.260, 67.198
942.520, 149.970
943.779, 20.737
945.039, 25.497
946.298, 78.258
947.557, 54.013
948.816, 88.266
950.074, 101.540
951.333, 112.249
952.591, 125.985
953.849, 105.716
955.107, 107.442
956.365, 110.163
957.622, 96.880
958.879, 45.592
960.136, 158.298
961.393, 89.000
962.650, 129.697
963.906, 40.389
965.162, 143.076
966.418, 106.758
967.674, 60.437
968.930, 104.110
970.185, 95.780
971.441, 67.445
972.696, 133.109
973.950, 115.769
975.205, 114.425
976.459, 134.076
977.714, 186.722
978.968, 170.365
980.222, 171.003
981.475, 167.638
982.729, 258.270
983.982, 168.910
985.235, 240.541
986.488, 183.104
987.740, 254.761
988.993, 309.005
990.245, 445.662
991.497, 537.316
992.749, 530.720
994.000, 605.369
995.252, 649.983
996.503, 622.421
997.754, 745.050
999.005, 816.690
1000.256, 861.716
1001.506, 1030.229
1002.756, 1020.771
1004.006, 1053.071
1005.256, 1035.770
1006.506, 889.797
1007.755, 841.566
1009.005, 673.179
1010.254, 569.894
1011.502, 580.348
1012.751, 459.111
1014.000, 424.371
1015.248, 385.460
1016.496, 389.916
1017.744, 415.564
1018.991, 311.148
1020.239, 368.458
1021.486, 290.844
1022.733, 323.612
1023.980, 372.196
1025.227, 307.946
1026.473, 357.216
1027.719, 426.281
1028.965, 408.979
1030.211, 479.975
1031.457, 456.158
1032.702, 460.763
1033.948, 508.263
1035.193, 503.857
1036.438, 573.010
1037.682, 576.633
1038.927, 617.100
1040.171, 649.792
1041.415, 606.487
1042.659, 575.774
1043.903, 463.993
1045.146, 445.985
1046.390, 442.408
1047.633, 383.000
1048.876, 348.780
1050.118, 425.478
1051.361, 342.592
1052.603, 366.470
1053.845, 344.019
1055.087, 331.681
1056.329, 248.353
1057.571, 243.975
1058.812, 175.750
1060.053, 126.432
1061.294, 105.613
1062.535, 102.466
1063.775, 85.428
1065.016, 66.162
1066.256, 90.449
1067.496, 71.226
1068.736, 85.861
1069.975, 81.640
1071.214, 67.455
1072.454, 128.234
1073.693, 105.016
1074.931, 113.006
1076.170, 115.783
1077.408, 96.711
1078.647, 55.488
1079.885, 86.274
1081.122, 66.230
1082.360, 143.259
1083.597, 159.039
1084.835, 122.714
1086.072, 201.499
1087.308, 133.174
1088.545, 209.958
1089.781, 125.742
1091.018, 195.651
1092.254, 153.434
1093.490, 213.121
1094.725, 205.320
1095.961, 222.724
1097.196, 308.880
1098.431, 262.846
1099.666, 284.625
1100.900, 302.605
1102.135, 366.492
1103.369, 300.270
1104.603, 330.256
1105.837, 341.035
1107.071, 354.872
1108.304, 383.655
1109.538, 389.434
1110.771, 461.218
1112.004, 532.027
1113.236, 548.806
1114.469, 635.583
1115.701, 829.502
1116.933, 865.278
1118.165, 1095.266
1119.397, 1282.199
1120.629, 1566.532
1121.860, 1853.479
1123.091, 1997.270
1124.322, 2098.059
1125.553, 2151.867
1126.783, 1989.661
1128.014, 1893.609
1129.244, 1640.401
1130.474, 1507.343
1131.704, 1582.057
1132.933, 1502.846
1134.163, 1643.668
1135.392, 1838.981
1136.621, 1783.876
1137.850, 2035.854
1139.079, 1956.855
1140.307, 1928.997
1141.535, 1810.778
1142.763, 1517.558
1143.991, 1477.721
1145.219, 1214.834
1146.446, 928.610
1147.674, 938.777
1148.901, 721.965
1150.128, 650.747
1151.354, 609.483
1152.581, 469.323
1153.807, 456.312
1155.033, 364.100
1156.259, 266.894
1157.485, 302.095
1158.710, 219.968
1159.936, 201.181
1161.161, 259.725
1162.386, 164.943
1163.611, 334.735
1164.835, 192.760
1166.060, 167.560
1167.284, 220.357
1168.508, 149.368
1169.732, 79.299
1170.955, 180.198
1172.179, 132.308
1173.402, 126.211
1174.625, 80.260
1175.848, 95.069
1177.070, 90.326
1178.293, 50.355
1179.515, 100.175
1180.737, 104.201
1181.959, 65.023
1183.181, 91.953
1184.402, 71.291
1185.624, 55.160
1186.845, 82.223
1188.066, 91.747
1189.286, 59.554
1190.507, 47.694
1191.727, 28.553
1192.947, 29.358
1194.167, 52.488
1195.387, 48.287
1196.607, 74.131
1197.826, 28.011
1199.045, 17.761
1200.264, 16.793
1201.483, 38.360
1202.702, 59.122
1203.920, 44.013
1205.138, 49.765
1206.356, 49.884
1207.574, 9.747
1208.792, 24.985
1210.009, 48.868
1211.227, 4.470
1212.444, 25.242
1213.661, 70.110
1214.877, 33.501
1216.094, 51.217
1217.310, 46.149
1218.526, 101.899
1219.742, 37.580
1220.958, 0.254
1222.173, 96.920
1223.389, 14.579
1224.604, 105.538
1225.819, 49.258
1227.034, 20.136
1228.248, 1.367
1229.463, 142.289
1230.677, 130.339
1231.891, 87.936
1233.105, 170.527
1234.318, 428.116
1235.532, 126.696
1236.745, 16.725
1237.958, 232.839
1239.171, 68.399
1240.384, 21.962
1241.596, 72.615
1242.809, 96.159
1244.021, 14.840
1245.233, 111.377
1246.444, 11.917
1247.656, 34.446
1248.867, 65.971
1250.079, 12.142
1251.290, 76.700
1252.500, 48.209
1253.711, 62.104
1254.921, 139.604
1256.132, 62.091
1257.342, 56.956
1258.552, 205.404
1259.761, 82.845
1260.971, 31.358
1262.180, 114.780
1263.389, 15.186
1264.598, 28.583
1265.807, 3.032
1267.015, 33.916
1268.223, 135.279
1269.432, 77.634
1270.640, 70.688
1271.847, 102.013
1273.055, 37.333
1274.262, 84.643
1275.470, 38.934
1276.677, 20.784
1277.883, 135.605
1279.090, 38.137
1280.296, 29.900
1281.503, 50.309
1282.709, 30.509
1283.915, 24.716
1285.120, 10.894
1286.326, 78.061
1287.531, 106.221
1288.736, 10.627
1289.941, 13.513
1291.146, 104.683
1292.350, 26.194
1293.555, 9.916
1294.759, 136.004
1295.963, 2.916
1297.167, 66.420
1298.370, 31.473
1299.574, 85.517
1300.777, 122.554
1301.980, 9.420
1303.183, 60.583
1304.386, 11.566
1305.588, 30.462
1306.790, 11.491
1307.993, 143.434
1309.195, 28.367
1310.396, 98.292
1311.598, 120.206
1312.799, 31.110
1314.000, 51.774
1315.201, 58.877
1316.402, 22.259
1317.603, 56.582
1318.803, 27.413
1320.003, 84.232
1321.203, 13.042
1322.403, 31.791
1323.603, 163.380
1324.802, 36.086
1326.002, 92.780
1327.201, 58.464
1328.400, 7.865
1329.599, 71.788
1330.797, 30.429
1331.995, 6.059
1333.194, 100.053
1334.392, 24.656
1335.589, 74.247
1336.787, 153.782
1337.985, 25.303
1339.182, 115.852
1340.379, 74.389
1341.576, 69.914
1342.772, 126.024
1343.969, 89.425
1345.165, 67.810
1346.361, 91.269
1347.557, 52.732
1348.753, 137.183
1349.949, 96.869
1351.144, 92.254
1352.339, 171.220
1353.534, 47.499
1354.729, 2.848
1355.924, 129.867
1357.118, 46.055
1358.312, 8.317
1359.506, 79.501
1360.700, 32.729
1361.894, 68.931
1363.088, 108.125
1364.281, 93.239
1365.474, 160.175
1366.667, 104.308
1367.860, 26.276
1369.052, 64.383
1370.245, 2.467
1371.437, 45.331
1372.629, 70.164
1373.821, 5.750
1375.013, 119.346
1376.204, 112.725
1377.395, 101.604
1378.586, 178.623
1379.777, 102.743
1380.968, 80.311
1382.159, 129.204
1383.349, 61.068
1384.539, 74.018
1385.729, 167.845
1386.919, 47.812
1388.109, 139.827
1389.298, 80.803
1390.487, 96.645
1391.676, 205.395
1392.865, 11.559
1394.054, 72.297
1395.242, 214.181
1396.431, 23.879
1397.619, 111.569
1398.807, 117.136
1399.995, 17.279
1401.182, 173.658
1402.370, 83.680
1403.557, 59.393
1404.744, 191.940
1405.931, 85.587
1407.118, 84.690
1408.304, 167.990
1409.490, 56.694
1410.676, 98.011
1411.862, 220.870
1413.048, 12.918
1414.234, 170.223
1415.419, 148.662
1416.604, 107.612
1417.789, 216.610
1418.974, 105.448
1420.159, 36.132
1421.343, 149.114
1422.528, 70.089
1423.712, 123.900
1424.896, 99.651
1426.079, 58.737
1427.263, 150.299
1428.446, 144.920
1429.629, 155.957
1430.812, 198.958
1431.995, 104.951
1433.178, 52.825
1434.360, 241.908
1435.543, 60.982
1436.725, 93.134
1437.907, 96.887
1439.088, 16.637
1440.270, 158.081
1441.451, 77.062
1442.632, 145.042
1443.813, 158.284
1444.994, 196.077
1446.175, 112.071
1447.355, 189.955
1448.535, 54.811
1449.715, 68.646
1450.895, 115.280
1452.075, 75.980
1453.255, 178.386
1454.434, 132.033
1455.613, 123.167
1456.792, 211.612
1457.971, 206.188
1459.149, 86.737
1460.328, 242.291
1461.506, 57.634
1462.684, 90.208
1463.862, 130.771
1465.040, 21.927
1466.217, 220.701
1467.395, 81.902
1468.572, 90.140
1469.749, 260.980
1470.925, 167.165
1472.102, 141.294
1473.278, 180.465
1474.455, 16.409
1475.631, 166.533
1476.807, 178.531
1477.982, 61.540
1479.158, 123.536
1480.333, 186.444
1481.508, 43.341
1482.683, 154.305
1483.858, 231.202
1485.033, 149.037
1486.207, 206.813
1487.381, 82.583
1488.555, 105.349
1489.729, 186.069
1490.903, 0.017
1492.076, 59.945
1493.250, 89.816
1494.423, 86.665
1495.596, 141.473
1496.769, 146.827
1497.941, 26.988
1499.114, 136.101
1500.286, 31.090
1501.458, 71.932
1502.630, 193.604
1503.802, 51.069
1504.973, 30.913
1506.145, 137.527
1507.316, 11.396
1508.487, 82.754
1509.657, 141.175
1510.828, 40.799
1511.999, 191.499
1513.169, 115.065
1514.339, 0.058
1515.509, 155.507
1516.678, 0.000
##END=



