##NAMES=Microcline
##RRUFFID=R050193
##IDEAL CHEMISTRY=KAlSi_3_O_8_
##LOCALITY=Devil's Head, Douglas County, Colorado, USA
##OWNER=RRUFF
##SOURCE=Dave Bunk Minerals
##DESCRIPTION=White to colorless heterogeneous mixture of K and Na feldspar in a cluster of crystals. Crystal structure determined, presented below. This sample is known as an intermediate microcline in the literature.
##STATUS=The identification of this mineral has been confirmed by X-ray diffraction and chemical analysis
##URL=rruff.info/R050193
##MEASURED CHEMISTRY=(K_0.929_Na_0.071_)(Al_1.005_Si_2.994_Fe_0.001_)O_7.993_F_0.007_  ; Light Band :  (Na_0.973_K_0.007_Ca_0.020_)(Al_1.020_Si_2.980_)O_8_ ; Dark Band
##PIN_ID=L01707
##ORIENTATION=Laser parallel to (-1 0 -1). Fiducial mark perpendicular to laser is parallel to b [0 1 0]
148.7130, 0.0000000E+00
149.9440, 175.5098
151.1750, 408.7656
152.4050, 510.5215
153.6360, 351.2910
154.8660, 188.2246
156.0960, 119.6016
157.3260, 115.2129
158.5560, 63.43945
159.7850, 55.38281
161.0150, 76.34766
162.2440, 15.27344
163.4730, 95.94922
164.7020, 133.7188
165.9310, 22.90430
167.1590, 4.587891
168.3880, 2.859375
169.6160, 88.19141
170.8440, 268.9219
172.0720, 182.8262
173.3000, 282.0703
174.5280, 349.5977
175.7550, 247.5605
176.9820, 526.1738
178.2100, 355.6113
179.4370, 550.0195
180.6630, 614.5332
181.8900, 639.2441
183.1170, 713.4375
184.3430, 764.7793
185.5690, 895.3418
186.7950, 997.9102
188.0210, 964.6250
189.2470, 715.7598
190.4720, 881.2656
191.6970, 872.2539
192.9230, 688.0742
194.1480, 697.0566
195.3730, 792.5430
196.5970, 652.4531
197.8220, 547.2246
199.0460, 595.9277
200.2700, 543.1855
201.4940, 612.4766
202.7180, 641.8164
203.9420, 550.2598
205.1660, 745.7598
206.3890, 763.2637
207.6120, 873.7969
208.8350, 764.3516
210.0580, 1071.168
211.2810, 907.0391
212.5040, 737.8535
213.7260, 739.6074
214.9480, 459.3066
216.1700, 405.6289
217.3920, 335.5645
218.6140, 222.1289
219.8360, 177.6680
221.0570, 161.1953
222.2790, 0.2675780
223.5000, 294.3711
224.7210, 1.091797
225.9410, 266.8867
227.1620, 88.39453
228.3820, 110.7734
229.6030, 29.34375
230.8230, 38.56445
232.0430, 56.23242
233.2630, 34.31836
234.4820, 79.38086
235.7020, 16.60742
236.9210, 55.42578
238.1400, 49.55273
239.3590, 27.46094
240.5780, 97.52734
241.7970, 137.5156
243.0150, 173.4980
244.2340, 165.5586
245.4520, 209.5664
246.6700, 207.0195
247.8880, 284.2246
249.1060, 293.8730
250.3230, 376.9609
251.5400, 393.9570
252.7580, 425.6055
253.9750, 460.3672
255.1920, 501.3359
256.4080, 483.8320
257.6250, 573.9492
258.8410, 546.8477
260.0580, 590.8145
261.2740, 560.3750
262.4900, 720.1855
263.7050, 618.2637
264.9210, 825.9277
266.1360, 740.2383
267.3520, 983.6719
268.5670, 1168.182
269.7820, 1064.199
270.9960, 951.7344
272.2110, 1179.029
273.4250, 988.5039
274.6400, 883.9785
275.8540, 899.4629
277.0680, 1032.957
278.2810, 776.4492
279.4950, 999.9492
280.7090, 877.4492
281.9220, 1093.955
283.1350, 1279.463
284.3480, 1126.973
285.5610, 1252.486
286.7730, 1410.010
287.9860, 1505.162
289.1980, 1537.930
290.4100, 1552.266
291.6220, 1668.955
292.8340, 1380.461
294.0460, 1325.801
295.2570, 1046.701
296.4690, 1058.525
297.6800, 617.2090
298.8910, 576.7207
300.1020, 486.0469
301.3120, 431.2051
302.5230, 502.1172
303.7330, 422.9082
304.9440, 186.3711
306.1540, 332.7090
307.3630, 206.0469
308.5730, 351.8398
309.7830, 303.0840
310.9920, 204.3574
312.2010, 219.0098
313.4100, 235.3242
314.6190, 244.0469
315.8280, 296.8594
317.0370, 359.7969
318.2450, 278.6445
319.4530, 369.4375
320.6610, 262.1562
321.8690, 393.8086
323.0770, 432.4043
324.2850, 353.9414
325.4920, 569.4238
326.6990, 589.8750
327.9060, 574.2793
329.1130, 463.6387
330.3200, 515.9395
331.5270, 600.1152
332.7330, 323.1934
333.9390, 457.2148
335.1450, 403.1055
336.3510, 479.7715
337.5570, 389.2109
338.7630, 242.5000
339.9680, 195.6836
341.1740, 79.83594
342.3790, 290.9688
343.5840, 231.0898
344.7890, 221.2031
345.9930, 64.31445
347.1980, 149.4277
348.4020, 214.5352
349.6060, 186.6406
350.8100, 92.74023
352.0140, 98.83203
353.2180, 182.9180
354.4210, 210.0000
355.6250, 216.0762
356.8280, 300.1484
358.0310, 304.2129
359.2340, 319.2734
360.4360, 81.32812
361.6390, 154.3730
362.8410, 18.36328
364.0430, 1.457031
365.2450, 62.17188
366.4470, 4.341797
367.6490, 97.08203
368.8510, 122.8926
370.0520, 8.804688
371.2530, 270.4961
372.4540, 227.9824
373.6550, 128.7598
374.8560, 263.9180
376.0560, 135.5293
377.2570, 104.0703
378.4570, 48.02344
379.6570, 20.19922
380.8570, 4.234375
382.0570, 83.97852
383.2560, 159.9883
384.4560, 21.43555
385.6550, 277.2988
386.8540, 12.37109
388.0530, 92.34375
389.2520, 48.11914
390.4510, 119.0586
391.6490, 27.37500
392.8470, 28.28711
394.0450, 139.9863
395.2430, 180.7070
396.4410, 226.5352
397.6390, 327.3184
398.8360, 335.1230
400.0340, 516.2891
401.2310, 242.0781
402.4280, 494.8672
403.6250, 276.9355
404.8210, 321.6992
406.0180, 427.4629
407.2140, 313.2246
408.4100, 405.9766
409.6060, 600.7188
410.8020, 431.4551
411.9980, 424.2305
413.1930, 602.9688
414.3890, 588.6660
415.5840, 482.5391
416.7790, 497.6797
417.9740, 385.5566
419.1680, 357.8203
420.3630, 246.9473
421.5570, 214.6211
422.7510, 274.5430
423.9450, 27.21680
425.1390, 124.8867
426.3330, 89.55859
427.5270, 226.2461
428.7200, 41.93750
429.9130, 45.62500
431.1060, 139.3125
432.2990, 22.00586
433.4920, 162.6719
434.6840, 179.3438
435.8770, 34.02148
437.0690, 51.68750
438.2610, 145.3457
439.4530, 224.9824
440.6450, 217.6016
441.8360, 346.1992
443.0280, 266.9941
444.2190, 312.9473
445.4100, 429.1523
446.6010, 533.6855
447.7920, 572.0977
448.9820, 684.2715
450.1730, 615.1738
451.3630, 907.8086
452.5530, 1112.625
453.7430, 1116.555
454.9330, 1029.969
456.1230, 1285.484
457.3120, 1224.707
458.5010, 1482.055
459.6910, 1176.480
460.8800, 1022.893
462.0680, 890.8223
463.2570, 867.3750
464.4460, 989.3633
465.6340, 976.5332
466.8220, 1137.877
468.0100, 1222.396
469.1980, 1499.783
470.3860, 1762.090
471.5730, 1709.824
472.7600, 2160.391
473.9480, 2408.656
475.1350, 2745.471
476.3210, 3187.363
477.5080, 3531.684
478.6950, 3699.205
479.8810, 3959.412
481.0670, 3425.611
482.2530, 2869.740
483.4390, 2411.670
484.6250, 1984.299
485.8100, 1679.557
486.9960, 1285.941
488.1810, 859.9629
489.3660, 732.8594
490.5510, 881.1914
491.7360, 639.1738
492.9200, 715.2090
494.1050, 1069.676
495.2890, 1186.582
496.4730, 1426.139
497.6570, 1396.082
498.8400, 1792.393
500.0240, 2081.457
501.2070, 2474.779
502.3910, 3060.826
503.5740, 3611.211
504.7570, 4442.895
505.9400, 5221.906
507.1220, 5885.771
508.3050, 6458.562
509.4870, 7362.469
510.6690, 5473.936
511.8510, 4643.508
513.0330, 4192.676
514.2140, 3603.688
515.3960, 2951.855
516.5770, 2593.473
517.7580, 1990.492
518.9390, 1660.883
520.1200, 1275.861
521.3010, 1220.654
522.4810, 991.2402
523.6610, 931.5840
524.8420, 668.8145
526.0220, 560.5430
527.2010, 688.7773
528.3810, 472.9141
529.5610, 381.3770
530.7400, 444.4766
531.9190, 505.0996
533.0980, 234.0547
534.2770, 539.9375
535.4560, 219.9121
536.6340, 323.4258
537.8120, 275.4961
538.9910, 185.5371
540.1690, 264.1406
541.3460, 50.83594
542.5240, 317.3496
543.7020, 392.6523
544.8790, 73.10742
546.0560, 216.8203
547.2330, 340.5508
548.4100, 184.1191
549.5870, 306.0742
550.7630, 309.5234
551.9400, 241.7148
553.1160, 139.0312
554.2920, 179.7871
555.4680, 246.5625
556.6440, 102.4961
557.8190, 206.1270
558.9950, 374.7227
560.1700, 90.58008
561.3450, 44.90234
562.5200, 209.1113
563.6950, 93.93359
564.8690, 231.2637
566.0440, 278.4121
567.2180, 223.1055
568.3920, 243.8301
569.5660, 277.1973
570.7400, 302.1680
571.9130, 434.3516
573.0870, 335.0488
574.2600, 210.1562
575.4330, 355.3672
576.6060, 158.9570
577.7790, 229.6055
578.9520, 305.9180
580.1240, 293.6191
581.2960, 246.5469
582.4690, 191.7051
583.6410, 113.3301
584.8120, 70.94531
585.9840, 7.136719
587.1560, 286.0117
588.3270, 3.982422
589.4980, 390.1387
590.6690, 81.97461
591.8400, 77.23047
593.0110, 97.73438
594.1810, 67.35156
595.3510, 122.8184
596.5220, 110.2715
597.6920, 45.28906
598.8610, 173.1055
600.0310, 345.8672
601.2010, 225.5820
602.3700, 102.0703
603.5390, 126.2070
604.7080, 38.46680
605.8770, 0.2929690
607.0460, 332.9238
608.2140, 135.1191
609.3830, 61.69922
610.5510, 312.4297
611.7190, 75.54492
612.8870, 113.6445
614.0550, 214.7227
615.2220, 48.80859
616.3900, 27.87109
617.5570, 162.9141
618.7240, 112.9707
619.8910, 255.0117
621.0580, 266.0410
622.2240, 231.5547
623.3910, 298.0527
624.5570, 142.0371
625.7230, 166.0039
626.8890, 111.9551
628.0550, 299.8887
629.2200, 25.19336
630.3860, 159.7246
631.5510, 348.6270
632.7160, 149.5176
633.8810, 273.3906
635.0460, 92.26172
636.2100, 20.11523
637.3750, 518.9590
638.5390, 111.7891
639.7030, 340.5996
640.8670, 131.3945
642.0310, 352.1719
643.1950, 271.9336
644.3580, 306.6797
645.5210, 210.7715
646.6850, 230.9160
647.8480, 80.65234
649.0100, 342.7539
650.1730, 425.4785
651.3350, 276.1816
652.4980, 165.8848
653.6600, 360.5566
654.8220, 165.2109
655.9840, 437.8438
657.1450, 290.4590
658.3070, 47.27148
659.4680, 127.0430
660.6300, 40.40430
661.7910, 162.1016
662.9510, 320.5898
664.1120, 88.05664
665.2730, 12.40234
666.4330, 119.0039
667.5930, 507.3887
668.7530, 215.7559
669.9130, 149.1016
671.0730, 250.4473
672.2320, 30.78125
673.3920, 157.1152
674.5510, 103.4395
675.7100, 88.24805
676.8690, 285.9863
678.0280, 62.80078
679.1860, 87.65625
680.3450, 62.40820
681.5030, 102.0762
682.6610, 50.91797
683.8190, 112.0273
684.9770, 47.66016
686.1340, 41.54883
687.2920, 78.41406
688.4490, 224.3008
689.6060, 102.1621
690.7630, 162.0078
691.9200, 35.15430
693.0760, 22.57617
694.2330, 15.38672
695.3890, 44.89648
696.5450, 46.43164
697.7010, 7.556641
698.8570, 288.1250
700.0130, 114.0703
701.1680, 139.2402
702.3230, 237.2383
703.4780, 106.3008
704.6330, 26.49414
705.7880, 256.3359
706.9430, 61.28320
708.0970, 88.29492
709.2520, 76.57422
710.4060, 26.91406
711.5600, 242.1348
712.7140, 121.8477
713.8670, 112.0156
715.0210, 19.48438
716.1740, 135.4453
717.3270, 230.5195
718.4800, 226.4375
719.6330, 171.9902
720.7860, 113.4004
721.9380, 314.8809
723.0910, 265.9531
724.2430, 101.4648
725.3950, 173.6445
726.5470, 93.64844
727.6980, 107.3594
728.8500, 172.2773
730.0010, 69.10742
731.1530, 323.9629
732.3040, 214.6348
733.4550, 281.4766
734.6050, 472.4922
735.7560, 265.8906
736.9060, 255.4766
738.0560, 154.9375
739.2060, 163.2344
740.3560, 358.2148
741.5060, 272.5586
742.6560, 474.0859
743.8050, 609.8242
744.9540, 350.3047
746.1030, 361.6719
747.2520, 553.7617
748.4010, 423.2266
749.5500, 457.4609
750.6980, 488.7617
751.8460, 482.2773
752.9950, 434.7891
754.1420, 563.8867
755.2900, 499.5430
756.4380, 838.0977
757.5850, 818.5898
758.7330, 792.1133
759.8800, 1151.246
761.0270, 1271.688
762.1730, 1572.816
763.3200, 1231.008
764.4670, 1266.445
765.6130, 1034.020
766.7590, 1360.812
767.9050, 1018.871
769.0510, 936.5000
770.1960, 821.1445
771.3420, 638.2305
772.4870, 416.7227
773.6320, 685.2188
774.7770, 608.7148
775.9220, 308.9180
777.0670, 563.7656
778.2110, 329.9219
779.3560, 282.9258
780.5000, 450.4023
781.6440, 308.7656
782.7880, 187.1289
783.9320, 185.1914
785.0750, 339.9453
786.2180, 189.3867
787.3620, 280.2227
788.5050, 336.2500
789.6480, 279.5117
790.7900, 371.8594
791.9330, 288.7422
793.0750, 301.8398
794.2170, 522.8242
795.3590, 232.8750
796.5010, 236.6367
797.6430, 522.1406
798.7850, 300.5352
799.9260, 394.3086
801.0670, 364.0938
802.2080, 261.7188
803.3490, 330.7500
804.4900, 436.1016
805.6310, 293.6836
806.7710, 653.3984
807.9110, 729.7070
809.0510, 595.7188
810.1910, 884.4609
811.3310, 979.3008
812.4710, 1069.906
813.6100, 1619.879
814.7490, 1497.480
815.8880, 1545.828
817.0270, 1300.562
818.1660, 1027.379
819.3050, 970.1094
820.4430, 755.2812
821.5820, 685.0352
822.7200, 403.4297
823.8580, 485.7891
824.9950, 343.5117
826.1330, 404.9727
827.2710, 645.4844
828.4080, 283.2188
829.5450, 552.7227
830.6820, 271.5898
831.8190, 495.2539
832.9560, 76.51172
834.0920, 192.5156
835.2280, 32.58594
836.3650, 130.2812
837.5010, 33.43359
838.6360, 165.6484
839.7720, 84.19922
840.9080, 106.1914
842.0430, 182.8008
843.1780, 312.2305
844.3130, 219.4336
845.4480, 345.4844
846.5830, 261.4102
847.7170, 316.1914
848.8520, 158.5156
849.9860, 308.2734
851.1200, 204.6719
852.2540, 0.1015630
853.3870, 314.5625
854.5210, 76.94922
855.6540, 5.906250
856.7880, 183.5781
857.9210, 10.41016
859.0540, 11.90234
860.1860, 374.7188
861.3190, 52.90625
862.4510, 78.79688
863.5840, 248.1953
864.7160, 232.3281
865.8480, 154.6523
866.9790, 135.5039
868.1110, 191.0586
869.2420, 114.4414
870.3740, 118.9219
871.5050, 247.3555
872.6360, 321.8711
873.7660, 364.2539
874.8970, 279.5820
876.0280, 179.5469
877.1580, 162.8281
878.2880, 185.8125
879.4180, 283.3242
880.5480, 299.5234
881.6770, 254.6953
882.8070, 270.8281
883.9360, 201.9258
885.0650, 34.37500
886.1940, 138.1406
887.3230, 118.6055
888.4520, 43.59766
889.5800, 140.0781
890.7090, 217.6055
891.8370, 94.74219
892.9650, 88.08594
894.0930, 1.832031
895.2200, 230.5742
896.3480, 151.2852
897.4750, 216.9570
898.6020, 149.5898
899.7290, 108.1875
900.8560, 251.4961
901.9830, 36.01562
903.1090, 90.50391
904.2360, 33.31641
905.3620, 43.68359
906.4880, 128.1602
907.6140, 19.33984
908.7400, 193.8867
909.8650, 31.92188
910.9900, 111.2070
912.1160, 105.2930
913.2410, 106.3438
914.3660, 70.64062
915.4900, 28.96484
916.6150, 316.5508
917.7390, 47.46484
918.8640, 93.02734
919.9880, 172.3438
921.1120, 121.0742
922.2350, 11.61719
923.3590, 82.50391
924.4820, 34.17188
925.6060, 191.6367
926.7290, 92.48438
927.8520, 232.9648
928.9740, 315.8672
930.0970, 265.8008
931.2190, 169.4492
932.3420, 61.98438
933.4640, 77.41016
934.5860, 254.1133
935.7080, 295.9219
936.8290, 198.2422
937.9510, 350.4297
939.0720, 275.6094
940.1930, 64.78516
941.3140, 263.8594
942.4350, 350.3516
943.5560, 175.4102
944.6760, 385.7891
945.7960, 4.722656
946.9170, 28.39453
948.0370, 259.4297
949.1560, 231.2461
950.2760, 305.0234
951.3960, 289.8320
952.5150, 237.7031
953.6340, 456.4727
954.7530, 223.2109
955.8720, 42.92969
956.9910, 288.6055
958.1090, 46.25391
959.2280, 166.1367
960.3460, 179.3359
961.4640, 3.226563
962.5820, 43.16406
963.6990, 350.4922
964.8170, 16.17578
965.9340, 117.0273
967.0510, 163.2656
968.1690, 379.6094
969.2850, 264.4102
970.4020, 280.4727
971.5190, 372.9570
972.6350, 302.9648
973.7510, 348.5352
974.8670, 353.7422
975.9830, 317.3008
977.0990, 332.6797
978.2150, 285.6367
979.3300, 210.6797
980.4450, 220.3750
981.5600, 225.0625
982.6750, 234.9336
983.7900, 277.2461
984.9050, 105.0586
986.0190, 361.5000
987.1340, 303.3984
988.2480, 191.1328
989.3620, 301.9648
990.4750, 479.1055
991.5890, 131.3320
992.7020, 169.4453
993.8160, 380.6875
994.9290, 544.2500
996.0420, 170.8164
997.1550, 244.4570
998.2670, 37.83203
999.3800, 384.1016
1000.492, 330.0195
1001.604, 370.8945
1002.716, 491.9062
1003.828, 307.5625
1004.940, 465.2148
1006.051, 249.3672
1007.163, 316.6250
1008.274, 187.8594
1009.385, 369.7891
1010.496, 433.7461
1011.606, 390.7422
1012.717, 424.1953
1013.827, 391.3164
1014.937, 359.6992
1016.047, 406.6758
1017.157, 350.6953
1018.267, 185.3945
1019.377, 98.33203
1020.486, 161.7812
1021.595, 72.01172
1022.704, 81.26953
1023.813, 137.1328
1024.922, 97.68750
1026.030, 265.4492
1027.139, 281.3945
1028.247, 572.7344
1029.355, 391.2109
1030.463, 375.3281
1031.571, 365.6836
1032.678, 719.7305
1033.786, 104.5742
1034.893, 408.7109
1036.000, 487.5391
1037.107, 183.7305
1038.214, 339.0938
1039.321, 244.6719
1040.427, 230.1562
1041.533, 395.6016
1042.639, 331.8633
1043.745, 436.4609
1044.851, 559.0117
1045.957, 587.3086
1047.062, 207.3203
1048.168, 350.7188
1049.273, 126.7383
1050.378, 293.3789
1051.482, 417.3594
1052.587, 426.1719
1053.692, 281.1250
1054.796, 333.3398
1055.900, 147.5898
1057.004, 272.9805
1058.108, 453.2930
1059.212, 186.4727
1060.315, 328.5195
1061.418, 156.7695
1062.522, 140.8633
1063.625, 148.4648
1064.728, 168.6328
1065.830, 234.4336
1066.933, 160.1602
1068.035, 127.5938
1069.137, 235.7344
1070.239, 234.3281
1071.341, 253.8320
1072.443, 247.1719
1073.545, 316.2227
1074.646, 151.7812
1075.747, 247.1719
1076.848, 161.0586
1077.949, 288.3945
1079.050, 271.0898
1080.150, 511.7305
1081.251, 464.8633
1082.351, 524.1094
1083.451, 482.1562
1084.551, 244.6719
1085.651, 286.6406
1086.750, 383.7930
1087.850, 353.6523
1088.949, 513.7383
1090.048, 363.8125
1091.147, 686.9609
1092.246, 512.7148
1093.345, 518.0039
1094.443, 737.9414
1095.541, 627.8477
1096.639, 636.7734
1097.737, 588.8359
1098.835, 726.0078
1099.933, 982.3477
1101.030, 966.1836
1102.128, 692.9062
1103.225, 910.3203
1104.322, 576.0938
1105.419, 742.3125
1106.515, 700.0469
1107.612, 223.7578
1108.708, 227.2266
1109.804, 295.8945
1110.900, 689.7188
1111.996, 394.0391
1113.092, 707.2812
1114.187, 507.6133
1115.283, 847.9688
1116.378, 396.8398
1117.473, 610.8672
1118.568, 391.8828
1119.662, 277.4375
1120.757, 553.9492
1121.851, 278.8633
1122.946, 565.9648
1124.040, 447.0117
1125.134, 443.3867
1126.227, 538.8242
1127.321, 520.1602
1128.414, 243.0352
1129.508, 531.2031
1130.601, 263.4961
1131.693, 415.7578
1132.786, 223.0039
1133.879, 539.6914
1134.971, 506.2266
1136.064, 532.3984
1137.156, 544.5547
1138.248, 383.5781
1139.339, 297.6914
1140.431, 60.78906
1141.522, 184.8477
1142.614, 464.3086
1143.705, 407.3281
1144.796, 312.5039
1145.887, 185.6328
1146.977, 378.5938
1148.068, 312.5312
1149.158, 304.4453
1150.248, 379.9766
1151.338, 224.1211
1152.428, 381.5586
1153.518, 257.5547
1154.607, 210.3984
1155.696, 273.6797
1156.785, 94.57031
1157.874, 283.1914
1158.963, 160.1523
1160.052, 393.3789
1161.141, 307.8945
1162.229, 449.3906
1163.317, 289.8672
1164.405, 279.3242
1165.493, 61.00781
1166.581, 143.4180
1167.668, 32.19141
1168.756, 313.7734
1169.843, 193.1250
1170.930, 52.31250
1172.017, 301.4141
1173.103, 156.1406
1174.190, 287.4258
1175.276, 411.7031
1176.363, 42.96484
1177.449, 98.20703
1178.535, 200.1445
1179.620, 24.65234
1180.706, 197.5117
1181.791, 359.6523
1182.877, 70.78125
1183.962, 95.91406
1185.047, 237.0273
1186.131, 237.1250
1187.216, 117.7188
1188.300, 64.78906
1189.385, 30.84766
1190.469, 10.16797
1191.553, 35.55078
1192.637, 120.3281
1193.720, 206.7773
1194.804, 449.2383
1195.887, 177.7656
1196.970, 259.5625
1198.053, 380.0312
1199.136, 61.35156
1200.219, 93.10156
1201.301, 366.8281
1202.383, 166.6211
1203.465, 118.3711
1204.547, 140.1641
1205.629, 196.4844
1206.711, 380.1875
1207.792, 311.7031
1208.874, 524.2539
1209.955, 250.9688
1211.036, 192.6875
1212.117, 143.3164
1213.198, 119.9961
1214.278, 284.5938
1215.359, 270.1016
1216.439, 271.6641
1217.519, 200.2148
1218.599, 182.7461
1219.678, 210.2656
1220.758, 160.7734
1221.837, 200.0039
1222.917, 20.79297
1223.996, 269.3047
1225.075, 210.8125
1226.153, 269.8555
1227.232, 580.7891
1228.310, 346.2656
1229.389, 308.7305
1230.467, 428.2188
1231.545, 282.6953
1232.622, 28.15234
1233.700, 263.5938
1234.777, 66.02344
1235.855, 195.4336
1236.932, 199.7656
1238.009, 38.85547
1239.086, 230.4141
1240.162, 131.7383
1241.239, 176.0430
1242.315, 25.66406
1243.391, 364.5898
1244.467, 352.8281
1245.543, 83.05859
1246.619, 107.2695
1247.694, 52.53125
1248.769, 146.6211
1249.844, 61.76172
1250.919, 49.87891
1251.994, 8.019531
1253.069, 17.47266
1254.144, 54.41016
1255.218, 1.132813
1256.292, 260.1406
1257.366, 339.1367
1258.440, 492.1250
1259.514, 143.1016
1260.587, 309.0664
1261.661, 152.0234
1262.734, 40.90234
1263.807, 71.82812
1264.880, 167.7461
1265.952, 212.6523
1267.025, 268.5430
1268.097, 168.4297
1269.170, 58.29688
1270.242, 274.4258
1271.314, 150.9375
1272.385, 429.8125
1273.457, 100.5508
1274.528, 83.72266
1275.600, 280.0977
1276.671, 205.7539
1277.742, 160.3945
1278.812, 352.0273
1279.883, 298.6602
1280.954, 128.1992
1282.024, 182.8164
1283.094, 302.4219
1284.164, 260.6562
1285.234, 340.2539
1286.303, 442.2383
1287.373, 343.7227
1288.442, 321.2148
1289.511, 194.7852
1290.580, 273.3555
1291.649, 255.9180
1292.718, 131.4766
1293.786, 185.0234
1294.855, 353.8477
1295.923, 363.0156
1296.991, 441.4688
1298.059, 183.0078
1299.126, 142.3672
1300.194, 345.1367
1301.261, 0.3515630
1302.328, 211.8398
1303.395, 367.3359
1304.462, 117.8242
1305.529, 284.5078
1306.596, 110.4453
