##NAMES=Microcline
##RRUFFID=R050054
##IDEAL CHEMISTRY=KAlSi_3_O_8_
##LOCALITY=Kenticha, Negele area, Sidamo Province, Ethiopia
##OWNER=RRUFF
##SOURCE=Rock Currier
##DESCRIPTION=Light blue single crystal
##STATUS=The identification of this mineral has been confirmed by X-ray diffraction and chemical analysis
##URL=rruff.info/R050054
##MEASURED CHEMISTRY=(K_0.96_Na_0.04_)Al_1.00_Si_3.00_O_8_
##PIN_ID=M00118
##ORIENTATION=Laser parallel to (1 0 1). Fiducial mark perpendicular to laser is parallel to b [0 1 0]
73.319, 0.000
74.721, 129.979
76.123, 279.728
77.525, 296.958
78.926, 394.809
80.327, 513.609
81.728, 535.831
83.128, 419.512
84.529, 380.016
85.929, 362.155
87.329, 179.771
88.728, 125.873
90.128, 246.677
91.527, 566.752
92.926, 754.352
94.324, 947.649
95.723, 1234.363
97.121, 1238.832
98.519, 1092.484
99.917, 957.915
101.314, 1031.832
102.712, 1079.026
104.109, 1127.342
105.505, 1321.684
106.902, 1462.979
108.298, 1735.725
109.694, 1630.955
111.090, 1611.319
112.486, 1278.037
113.881, 965.377
115.277, 769.148
116.672, 590.075
118.066, 474.270
119.461, 435.370
120.855, 428.436
122.249, 492.279
123.643, 649.015
125.036, 815.742
126.430, 958.545
127.823, 1087.499
129.216, 1043.670
130.608, 995.116
132.001, 756.889
133.393, 624.053
134.785, 469.664
136.176, 420.863
137.568, 469.722
138.959, 420.132
140.350, 586.077
141.741, 814.037
143.131, 1087.257
144.521, 1564.051
145.911, 2295.400
147.301, 3325.538
148.691, 4117.930
150.080, 4756.955
151.469, 5283.500
152.858, 5035.476
154.247, 4634.432
155.635, 3876.388
157.024, 3214.486
158.411, 2422.562
159.799, 1968.969
161.187, 1582.013
162.574, 1220.532
163.961, 941.454
165.348, 771.494
166.734, 675.647
168.121, 575.918
169.507, 519.304
170.893, 555.512
172.278, 642.405
173.664, 766.101
175.049, 930.874
176.434, 1203.715
177.819, 1563.607
179.203, 1772.538
180.587, 1839.501
181.971, 1677.489
183.355, 1473.494
184.739, 1091.512
186.122, 882.538
187.505, 695.566
188.888, 514.593
190.271, 410.615
191.653, 358.729
193.035, 420.057
194.417, 534.232
195.799, 681.425
197.180, 862.654
198.562, 1091.028
199.943, 1094.401
201.324, 1104.252
202.704, 1027.015
204.084, 688.794
205.465, 493.604
206.844, 327.109
208.224, 245.340
209.603, 63.049
210.983, 31.282
212.362, 19.467
213.740, 52.792
215.119, 37.305
216.497, 94.694
217.875, 130.140
219.253, 85.641
220.631, 97.213
222.008, 96.933
223.385, 131.173
224.762, 84.933
226.139, 74.803
227.515, 98.366
228.891, 108.332
230.267, 164.001
231.643, 152.401
233.018, 109.959
234.394, 154.358
235.769, 99.795
237.144, 94.259
238.518, 61.339
239.893, 75.431
241.267, 52.586
242.641, 26.196
244.014, 0.560
245.388, 2.426
246.761, 39.769
248.134, 115.100
249.507, 181.532
250.879, 299.035
252.252, 518.585
253.624, 811.161
254.996, 1024.745
256.367, 1392.326
257.739, 1586.890
259.110, 1761.656
260.481, 1989.594
261.852, 2031.693
263.222, 2031.665
264.592, 2217.566
265.962, 2327.460
267.332, 2420.422
268.702, 2209.796
270.071, 2023.371
271.440, 1751.986
272.809, 1460.542
274.178, 1273.656
275.546, 1037.739
276.915, 1022.689
278.283, 1071.521
279.650, 1296.000
281.018, 1562.226
282.385, 1981.332
283.752, 2367.308
285.119, 2713.164
286.486, 3132.901
287.852, 3067.526
289.218, 2923.042
290.584, 2592.455
291.950, 2214.773
293.316, 1939.994
294.681, 1689.121
296.046, 1583.157
297.411, 1454.107
298.775, 1377.971
300.140, 1232.751
301.504, 1150.450
302.868, 987.067
304.231, 696.605
305.595, 633.065
306.958, 538.425
308.321, 445.642
309.684, 404.634
311.047, 294.330
312.409, 521.760
313.771, 427.152
315.133, 280.832
316.495, 426.499
317.856, 242.862
319.217, 184.957
320.578, 144.828
321.939, 190.510
323.299, 153.038
324.660, 166.453
326.020, 223.800
327.380, 188.110
328.739, 315.386
330.099, 357.633
331.458, 376.850
332.817, 476.037
334.176, 412.195
335.534, 404.322
336.892, 353.418
338.251, 312.482
339.608, 291.782
340.966, 230.509
342.323, 220.469
343.681, 220.391
345.037, 152.278
346.394, 150.124
347.751, 151.929
349.107, 223.695
350.463, 222.424
351.819, 300.115
353.174, 341.770
354.530, 394.391
355.885, 460.977
357.240, 551.524
358.594, 612.039
359.949, 505.515
361.303, 517.944
362.657, 457.323
364.011, 345.649
365.365, 333.929
366.718, 287.175
368.071, 404.388
369.424, 353.567
370.777, 431.717
372.129, 488.502
373.481, 466.663
374.833, 526.775
376.185, 453.311
377.537, 424.393
378.888, 311.425
380.239, 315.831
381.590, 192.990
382.941, 222.916
384.291, 147.085
385.642, 99.239
386.992, 157.210
388.341, 119.064
389.691, 84.529
391.040, 149.490
392.389, 89.804
393.738, 144.603
395.087, 181.114
396.435, 189.278
397.784, 350.654
399.132, 481.465
400.479, 894.645
401.827, 1269.918
403.174, 1638.283
404.521, 1837.027
405.868, 1732.381
407.215, 1483.310
408.561, 1138.960
409.908, 902.616
411.254, 806.655
412.599, 745.166
413.945, 683.114
415.290, 569.239
416.636, 480.323
417.980, 311.366
419.325, 232.367
420.670, 146.327
422.014, 94.244
423.358, 42.116
424.702, 56.941
426.045, 56.720
427.389, 40.454
428.732, 11.142
430.075, 13.217
431.417, 59.372
432.760, 29.924
434.102, 24.424
435.444, 110.034
436.786, 94.546
438.127, 100.176
439.469, 99.646
440.810, 152.036
442.151, 212.830
443.492, 233.496
444.832, 294.835
446.172, 417.718
447.512, 433.962
448.852, 674.235
450.192, 922.387
451.531, 1300.774
452.870, 1606.088
454.209, 1960.028
455.548, 2131.066
456.887, 2151.044
458.225, 1905.300
459.563, 1780.306
460.901, 1489.150
462.238, 1475.957
463.576, 1444.464
464.913, 1570.367
466.250, 1692.028
467.587, 2026.661
468.923, 2495.266
470.259, 3065.771
471.596, 4075.075
472.931, 5305.890
474.267, 7018.396
475.603, 8504.720
476.938, 8970.403
478.273, 8966.689
479.608, 7982.109
480.942, 6687.021
482.276, 5513.383
483.611, 4721.350
484.944, 3987.845
486.278, 3463.505
487.612, 2955.729
488.945, 2393.647
490.278, 1836.368
491.611, 1580.254
492.943, 1293.208
494.276, 1220.509
495.608, 1112.596
496.940, 1075.638
498.271, 1063.454
499.603, 1168.088
500.934, 1265.622
502.265, 1493.813
503.596, 1788.911
504.927, 2286.000
506.257, 2857.400
507.587, 3916.767
508.917, 5213.151
510.247, 7162.239
511.577, 9647.309
512.906, 12082.776
514.235, 13868.470
515.564, 14024.313
516.892, 12970.478
518.221, 10956.662
519.549, 8512.755
520.877, 6588.844
522.205, 5112.274
523.533, 3875.283
524.860, 2902.046
526.187, 2379.561
527.514, 1874.297
528.841, 1617.268
530.167, 1318.434
531.493, 1222.660
532.820, 990.863
534.145, 880.477
535.471, 697.051
536.796, 684.592
538.122, 569.141
539.447, 463.442
540.771, 496.716
542.096, 378.072
543.420, 468.250
544.744, 325.573
546.068, 387.521
547.392, 538.706
548.715, 247.588
550.039, 227.058
551.362, 181.684
552.684, 225.152
554.007, 183.919
555.329, 200.978
556.652, 139.122
557.973, 178.704
559.295, 123.325
560.617, 94.982
561.938, 104.665
563.259, 172.379
564.580, 57.117
565.901, 105.961
567.221, 118.727
568.541, 61.505
569.861, 120.394
571.181, 92.187
572.501, 142.069
573.820, 95.893
575.139, 72.737
576.458, 130.486
577.777, 70.226
579.095, 160.959
580.414, 140.455
581.732, 108.730
583.049, 174.785
584.367, 184.900
585.685, 169.016
587.002, 173.062
588.319, 132.960
589.636, 89.369
590.952, 52.496
592.268, 55.498
593.585, 16.476
594.900, 29.811
596.216, 1.921
597.532, 19.369
598.847, 28.655
600.162, 14.841
601.477, 77.223
602.792, 13.358
604.106, 21.067
605.420, 18.500
606.734, 3.060
608.048, 23.615
609.361, 8.824
610.675, 36.272
611.988, 60.263
613.301, 17.795
614.614, 24.321
615.926, 10.125
617.238, 2.317
618.550, 32.922
619.862, 34.427
621.174, 74.928
622.485, 100.483
623.797, 80.169
625.108, 102.875
626.418, 81.707
627.729, 208.750
629.039, 247.535
630.349, 184.985
631.659, 247.555
632.969, 238.446
634.279, 234.327
635.588, 204.131
636.897, 199.117
638.206, 243.406
639.515, 275.780
640.823, 296.458
642.131, 302.823
643.439, 371.548
644.747, 440.414
646.055, 465.117
647.362, 544.786
648.669, 580.406
649.976, 740.075
651.283, 790.949
652.589, 833.420
653.896, 810.998
655.202, 794.476
656.508, 760.952
657.814, 714.427
659.119, 476.901
660.424, 503.377
661.729, 382.854
663.034, 357.331
664.339, 279.813
665.643, 245.299
666.947, 211.789
668.251, 130.281
669.555, 107.772
670.859, 43.264
672.162, 60.753
673.465, 34.305
674.768, 26.838
676.071, 45.598
677.373, 44.241
678.676, 4.106
679.978, 85.393
681.280, 13.895
682.581, 16.763
683.883, 3.244
685.184, 21.357
686.485, 25.527
687.786, 1.070
689.087, 3.484
690.387, 7.191
691.687, 25.496
692.987, 5.115
694.287, 40.481
695.586, 26.558
696.886, 24.231
698.185, 14.958
699.484, 7.459
700.783, 4.794
702.081, 13.729
703.379, 25.985
704.677, 5.717
705.975, 1.456
707.273, 57.913
708.570, 21.165
709.868, 148.415
711.165, 57.788
712.462, 108.212
713.758, 151.450
715.055, 77.359
716.351, 203.581
717.647, 82.844
718.943, 94.068
720.238, 68.317
721.533, 45.533
722.829, 106.716
724.124, 66.914
725.418, 41.196
726.713, 63.355
728.007, 40.514
729.301, 52.652
730.595, 45.946
731.889, 109.117
733.182, 77.229
734.476, 164.499
735.769, 96.646
737.061, 182.734
738.354, 263.921
739.647, 276.997
740.939, 289.182
742.231, 464.246
743.523, 507.305
744.814, 718.349
746.106, 914.629
747.397, 1048.668
748.688, 1362.728
749.978, 1447.609
751.269, 1396.540
752.559, 1281.304
753.849, 1107.182
755.139, 983.092
756.429, 726.553
757.719, 603.097
759.008, 476.924
760.297, 362.133
761.586, 349.969
762.875, 286.734
764.163, 242.506
765.451, 257.073
766.739, 115.673
768.027, 144.604
769.315, 112.518
770.602, 60.332
771.890, 129.853
773.177, 61.560
774.463, 101.034
775.750, 68.906
777.036, 54.783
778.323, 22.651
779.609, 17.162
780.894, 8.361
782.180, 3.200
783.465, 10.025
784.750, 4.159
786.035, 46.639
787.320, 11.571
788.605, 7.199
789.889, 26.043
791.173, 4.687
792.457, 49.597
793.741, 34.920
795.024, 20.723
796.307, 18.644
797.591, 13.966
798.873, 8.564
800.156, 17.287
801.439, 25.730
802.721, 37.298
804.003, 24.857
805.285, 8.407
806.566, 20.055
807.848, 44.458
809.129, 132.962
810.410, 68.458
811.691, 184.945
812.971, 192.425
814.252, 265.954
815.532, 175.418
816.812, 280.875
818.092, 131.322
819.371, 140.762
820.651, 141.194
821.930, 97.618
823.209, 83.034
824.488, 81.441
825.766, 70.782
827.045, 50.163
828.323, 53.459
829.601, 11.706
830.878, 25.020
832.156, 21.317
833.433, 56.252
834.710, 54.588
835.987, 2.268
837.264, 5.943
838.540, 24.944
839.817, 47.930
841.093, 19.757
842.369, 72.693
843.644, 4.326
844.920, 8.229
846.195, 63.818
847.470, 11.563
848.745, 0.945
850.020, 132.483
851.294, 23.027
852.568, 90.057
853.842, 89.457
855.116, 4.661
856.390, 98.242
857.663, 83.582
858.936, 72.000
860.209, 21.609
861.482, 49.670
862.755, 88.570
864.027, 17.650
865.299, 3.688
866.571, 46.752
867.843, 7.190
869.115, 55.854
870.386, 34.621
871.657, 41.922
872.928, 33.953
874.199, 33.977
875.470, 58.906
876.740, 39.102
878.010, 16.921
879.280, 43.811
880.550, 41.789
881.820, 99.664
883.089, 4.584
884.358, 31.469
885.627, 58.434
886.896, 3.394
888.164, 30.347
889.433, 57.293
890.701, 17.235
891.969, 54.169
893.236, 16.875
894.504, 73.063
895.771, 64.997
897.038, 15.056
898.305, 1.120
899.572, 82.808
900.838, 35.731
902.105, 95.649
903.371, 115.588
904.637, 123.523
905.902, 89.454
907.168, 76.389
908.433, 40.319
909.698, 52.246
910.963, 83.184
912.228, 15.883
913.492, 108.046
914.757, 46.971
916.021, 48.109
917.285, 62.782
918.548, 86.670
919.812, 50.560
921.075, 8.451
922.338, 51.336
923.601, 31.184
924.864, 40.063
926.126, 11.089
927.388, 26.127
928.650, 70.635
929.912, 81.433
931.174, 129.090
932.435, 155.720
933.697, 102.216
934.958, 86.494
936.218, 108.021
937.479, 113.877
938.739, 147.609
940.000, 51.013
941.260, 115.418
942.520, 68.899
943.779, 116.189
945.039, 105.175
946.298, 70.074
947.557, 117.672
948.816, 83.582
950.074, 120.134
951.333, 79.547
952.591, 86.123
953.849, 124.731
955.107, 50.385
956.365, 76.985
957.622, 77.376
958.879, 108.164
960.136, 129.839
961.393, 150.609
962.650, 99.377
963.906, 31.143
965.162, 2.906
966.418, 119.667
967.674, 55.436
968.930, 64.204
970.185, 73.970
971.441, 50.733
972.696, 68.496
973.950, 107.255
975.205, 36.013
976.459, 107.769
977.714, 97.523
978.968, 61.211
980.222, 68.913
981.475, 30.381
982.729, 80.919
983.982, 58.526
985.235, 156.239
986.488, 204.943
987.740, 172.804
988.993, 268.479
990.245, 335.068
991.497, 386.139
992.749, 560.717
994.000, 591.472
995.252, 607.415
996.503, 650.129
997.754, 548.535
999.005, 640.037
1000.256, 564.234
1001.506, 572.018
1002.756, 616.682
1004.006, 545.477
1005.256, 519.274
1006.506, 417.425
1007.755, 375.224
1009.005, 395.031
1010.254, 215.841
1011.502, 260.541
1012.751, 140.351
1014.000, 146.162
1015.248, 150.848
1016.496, 135.474
1017.744, 222.332
1018.991, 138.466
1020.239, 105.279
1021.486, 226.052
1022.733, 273.143
1023.980, 177.915
1025.227, 339.688
1026.473, 267.509
1027.719, 382.306
1028.965, 482.016
1030.211, 428.879
1031.457, 461.788
1032.702, 373.608
1033.948, 421.264
1035.193, 368.033
1036.438, 363.934
1037.682, 344.586
1038.927, 332.908
1040.171, 331.338
1041.415, 331.051
1042.659, 334.005
1043.903, 336.013
1045.146, 370.767
1046.390, 412.778
1047.633, 425.376
1048.876, 515.105
1050.118, 567.152
1051.361, 589.946
1052.603, 690.054
1053.845, 733.865
1055.087, 667.828
1056.329, 560.705
1057.571, 526.512
1058.812, 527.347
1060.053, 370.314
1061.294, 414.117
1062.535, 306.510
1063.775, 318.311
1065.016, 269.201
1066.256, 215.296
1067.496, 248.093
1068.736, 195.053
1069.975, 161.240
1071.214, 205.071
1072.454, 133.870
1073.693, 246.903
1074.931, 131.739
1076.170, 97.897
1077.408, 181.819
1078.647, 116.623
1079.885, 182.425
1081.122, 123.227
1082.360, 140.388
1083.597, 204.199
1084.835, 113.011
1086.072, 197.021
1087.308, 147.857
1088.545, 138.704
1089.781, 187.568
1091.018, 200.433
1092.254, 195.308
1093.490, 187.183
1094.725, 167.073
1095.961, 214.974
1097.196, 232.931
1098.431, 248.844
1099.666, 327.242
1100.900, 333.505
1102.135, 336.095
1103.369, 392.231
1104.603, 411.157
1105.837, 448.075
1107.071, 403.993
1108.304, 375.918
1109.538, 460.920
1110.771, 536.842
1112.004, 572.921
1113.236, 599.841
1114.469, 703.701
1115.701, 839.400
1116.933, 1070.315
1118.165, 1153.229
1119.397, 1492.318
1120.629, 1790.229
1121.860, 2084.203
1123.091, 2522.187
1124.322, 2659.096
1125.553, 2889.256
1126.783, 2682.160
1128.014, 2533.209
1129.244, 2209.111
1130.474, 1945.012
1131.704, 1818.223
1132.933, 1697.121
1134.163, 1495.018
1135.392, 1615.030
1136.621, 1499.927
1137.850, 1579.825
1139.079, 1736.873
1140.307, 1442.783
1141.535, 1544.797
1142.763, 1404.783
1143.991, 1257.692
1145.219, 1120.599
1146.446, 898.674
1147.674, 757.582
1148.901, 683.881
1150.128, 513.838
1151.354, 442.741
1152.581, 338.887
1153.807, 342.847
1155.033, 303.909
1156.259, 291.922
1157.485, 198.813
1158.710, 292.718
1159.936, 145.603
1161.161, 200.483
1162.386, 148.636
1163.611, 88.510
1164.835, 39.896
1166.060, 86.322
1167.284, 53.188
1168.508, 129.206
1169.732, 20.937
1170.955, 110.904
1172.179, 60.072
1173.402, 71.958
1174.625, 78.786
1175.848, 55.611
1177.070, 46.431
1178.293, 34.247
1179.515, 63.090
1180.737, 86.895
1181.959, 117.716
1183.181, 40.513
1184.402, 63.304
1185.624, 40.096
1186.845, 41.877
1188.066, 64.755
1189.286, 95.286
1190.507, 70.428
1191.727, 5.441
1192.947, 63.852
1194.167, 9.187
1195.387, 30.475
1196.607, 9.127
1197.826, 74.772
1199.045, 96.587
1200.264, 83.993
1201.483, 29.569
1202.702, 28.863
1203.920, 173.682
1205.138, 60.222
1206.356, 28.756
1207.574, 125.285
1208.792, 20.191
1210.009, 124.367
1211.227, 46.871
1212.444, 15.556
1213.661, 102.057
1214.877, 30.582
1216.094, 16.776
1217.310, 32.785
1218.526, 69.617
1219.742, 8.201
1220.958, 60.653
1222.173, 122.001
1223.389, 35.575
1224.604, 78.645
1225.819, 90.079
1227.034, 137.704
1228.248, 4.863
1229.463, 106.559
1230.677, 110.048
1231.891, 40.538
1233.105, 110.971
1234.318, 105.604
1235.532, 117.315
1236.745, 108.696
1237.958, 98.074
1239.171, 100.332
1240.384, 137.823
1241.596, 101.188
1242.809, 76.545
1244.021, 88.896
1245.233, 11.414
1246.444, 90.870
1247.656, 109.216
1248.867, 42.567
1250.079, 92.877
1251.290, 167.181
1252.500, 127.479
1253.711, 105.771
1254.921, 77.094
1256.132, 129.374
1257.342, 58.774
1258.552, 197.146
1259.761, 165.407
1260.971, 27.338
1262.180, 210.003
1263.389, 179.232
1264.598, 55.724
1265.807, 168.938
1267.015, 83.146
1268.223, 82.308
1269.432, 184.503
1270.640, 39.690
1271.847, 175.964
1273.055, 66.119
1274.262, 109.267
1275.470, 114.532
1276.677, 32.665
1277.883, 141.790
1279.090, 106.938
1280.296, 74.051
1281.503, 159.235
1282.709, 120.333
1283.915, 67.423
1285.120, 137.543
1286.326, 78.618
1287.531, 84.688
1288.736, 156.750
1289.941, 124.808
1291.146, 63.859
1292.350, 170.905
1293.555, 27.944
1294.759, 92.976
1295.963, 165.001
1297.167, 47.019
1298.370, 91.027
1299.574, 67.007
1300.777, 77.973
1301.980, 125.931
1303.183, 102.866
1304.386, 123.751
1305.588, 133.609
1306.790, 43.431
1307.993, 151.243
1309.195, 22.047
1310.396, 19.793
1311.598, 167.545
1312.799, 12.712
1314.000, 146.013
1315.201, 162.441
1316.402, 37.148
1317.603, 94.842
1318.803, 110.526
1320.003, 117.199
1321.203, 230.854
1322.403, 195.994
1323.603, 99.977
1324.802, 195.595
1326.002, 103.202
1327.201, 109.799
1328.400, 162.303
1329.599, 106.877
1330.797, 108.353
1331.995, 83.823
1333.194, 63.363
1334.392, 136.753
1335.589, 37.268
1336.787, 208.528
1337.985, 176.822
1339.182, 97.526
1340.379, 217.850
1341.576, 150.073
1342.772, 125.520
1343.969, 269.663
1345.165, 142.092
1346.361, 95.361
1347.557, 172.738
1348.753, 130.145
1349.949, 134.514
1351.144, 115.328
1352.339, 161.713
1353.534, 78.530
1354.729, 202.903
1355.924, 45.180
1357.118, 168.318
1358.312, 83.768
1359.506, 53.960
1360.700, 67.940
1361.894, 18.133
1363.088, 59.476
1364.281, 96.625
1365.474, 33.108
1366.667, 58.190
1367.860, 4.111
1369.052, 90.392
1370.245, 42.661
1371.437, 14.073
1372.629, 28.670
1373.821, 69.834
1375.013, 67.439
1376.204, 80.319
1377.395, 21.790
1378.586, 38.923
1379.777, 197.934
1380.968, 139.722
1382.159, 88.036
1383.349, 192.816
1384.539, 90.358
1385.729, 140.128
1386.919, 163.801
1388.109, 35.626
1389.298, 64.105
1390.487, 83.704
1391.676, 81.182
1392.865, 179.771
1394.054, 152.329
1395.242, 175.663
1396.431, 167.106
1397.619, 81.335
1398.807, 132.919
1399.995, 60.347
1401.182, 65.720
1402.370, 156.134
1403.557, 121.562
1404.744, 65.862
1405.931, 195.862
1407.118, 33.277
1408.304, 137.340
1409.490, 111.415
1410.676, 0.175
1411.862, 254.247
1413.048, 100.280
1414.234, 67.191
1415.419, 149.546
1416.604, 123.877
1417.789, 58.658
1418.974, 213.970
1420.159, 168.273
1421.343, 81.519
1422.528, 225.774
1423.712, 70.042
1424.896, 149.155
1426.079, 123.161
1427.263, 80.019
1428.446, 253.396
1429.629, 180.785
1430.812, 150.215
1431.995, 263.689
1433.178, 98.196
1434.360, 169.699
1435.543, 154.127
1436.725, 176.320
1437.907, 268.799
1439.088, 313.902
1440.270, 182.544
1441.451, 226.628
1442.632, 184.633
1443.813, 229.681
1444.994, 290.121
1446.175, 217.102
1447.355, 277.628
1448.535, 328.799
1449.715, 187.711
1450.895, 363.615
1452.075, 310.494
1453.255, 275.000
1454.434, 317.598
1455.613, 242.295
1456.792, 275.961
1457.971, 321.503
1459.149, 212.529
1460.328, 305.073
1461.506, 309.313
1462.684, 181.077
1463.862, 287.917
1465.040, 232.230
1466.217, 260.287
1467.395, 306.246
1468.572, 272.511
1469.749, 173.628
1470.925, 224.535
1472.102, 174.508
1473.278, 212.529
1474.455, 173.464
1475.631, 184.303
1476.807, 206.041
1477.982, 196.675
1479.158, 155.307
1480.333, 194.958
1481.508, 151.810
1482.683, 144.072
1483.858, 149.332
1485.033, 113.717
1486.207, 143.217
1487.381, 141.695
1488.555, 38.181
1489.729, 141.683
1490.903, 131.327
1492.076, 7.986
1493.250, 123.742
1494.423, 90.539
1495.596, 94.412
1496.769, 225.396
1497.941, 104.533
1499.114, 26.848
1500.286, 174.311
1501.458, 45.915
1502.630, 95.345
1503.802, 170.268
1504.973, 27.053
1506.145, 140.569
1507.316, 133.141
1508.487, 3.993
1509.657, 215.678
1510.828, 115.423
1511.999, 72.666
1513.169, 111.079
1514.339, 1.284
1515.509, 0.000
##END=



