##NAMES=Microcline
##RRUFFID=R050054
##IDEAL CHEMISTRY=KAlSi_3_O_8_
##LOCALITY=Kenticha, Negele area, Sidamo Province, Ethiopia
##OWNER=RRUFF
##SOURCE=Rock Currier
##DESCRIPTION=Light blue single crystal
##STATUS=The identification of this mineral has been confirmed by X-ray diffraction and chemical analysis
##URL=rruff.info/R050054
##MEASURED CHEMISTRY=(K_0.96_Na_0.04_)Al_1.00_Si_3.00_O_8_
##PIN_ID=M00118
##ORIENTATION=Laser parallel to (1 0 1). Fiducial mark perpendicular to laser is parallel to b [0 1 0]
90.128, 0.000
91.527, 12.256
92.926, 160.808
94.324, 329.043
95.723, 571.149
97.121, 684.118
98.519, 602.553
99.917, 705.050
101.314, 1153.476
102.712, 1949.211
104.109, 2744.768
105.505, 4306.300
106.902, 6028.183
108.298, 7734.894
109.694, 8826.269
111.090, 9411.513
112.486, 8278.232
113.881, 6485.425
115.277, 4542.720
116.672, 2968.982
118.066, 2070.665
119.461, 1393.579
120.855, 1129.518
122.249, 1278.220
123.643, 1615.618
125.036, 2101.897
126.430, 2474.598
127.823, 2748.931
129.216, 2826.550
130.608, 2606.912
132.001, 1988.479
133.393, 1512.436
134.785, 1030.330
136.176, 577.478
137.568, 288.146
138.959, 156.570
140.350, 228.239
141.741, 207.812
143.131, 421.634
144.521, 734.740
145.911, 1354.690
147.301, 2060.154
148.691, 2817.140
150.080, 3642.191
151.469, 4272.806
152.858, 4462.169
154.247, 4158.730
155.635, 3616.898
157.024, 3028.447
158.411, 2301.256
159.799, 1854.030
161.187, 1437.142
162.574, 1067.936
163.961, 894.957
165.348, 847.945
166.734, 696.319
168.121, 667.874
169.507, 642.742
170.893, 644.596
172.278, 771.633
173.664, 992.359
175.049, 1226.316
176.434, 1660.559
177.819, 2110.110
179.203, 2543.968
180.587, 2759.119
181.971, 2613.537
183.355, 2226.201
184.739, 1778.083
186.122, 1370.145
187.505, 974.366
188.888, 608.730
190.271, 508.218
191.653, 321.810
193.035, 308.485
194.417, 298.224
195.799, 511.010
197.180, 716.828
198.562, 837.200
199.943, 902.159
201.324, 998.758
202.704, 887.872
204.084, 639.733
205.465, 517.926
206.844, 338.860
208.224, 184.718
209.603, 38.003
210.983, 0.298
212.362, 58.592
213.740, 60.989
215.119, 180.184
216.497, 111.265
217.875, 169.807
219.253, 191.899
220.631, 163.570
222.008, 124.887
223.385, 157.999
224.762, 131.842
226.139, 137.840
227.515, 186.638
228.891, 152.760
230.267, 105.056
231.643, 123.362
233.018, 117.044
234.394, 121.021
235.769, 173.410
237.144, 77.700
238.518, 51.680
239.893, 57.843
241.267, 80.777
242.641, 0.483
244.014, 71.026
245.388, 80.893
246.761, 120.117
248.134, 212.082
249.507, 299.803
250.879, 521.389
252.252, 740.878
253.624, 1178.309
254.996, 1606.715
256.367, 2134.583
257.739, 2743.511
259.110, 3175.855
260.481, 3532.977
261.852, 3566.594
263.222, 3669.729
264.592, 3790.915
265.962, 3849.287
267.332, 3937.762
268.702, 3751.018
270.071, 3490.018
271.440, 3045.793
272.809, 2683.560
274.178, 2261.015
275.546, 1979.186
276.915, 1888.111
278.283, 1824.440
279.650, 2091.242
281.018, 2275.841
282.385, 2794.238
283.752, 3305.432
285.119, 3827.427
286.486, 4188.208
287.852, 4146.751
289.218, 3906.031
290.584, 3507.032
291.950, 3021.740
293.316, 2578.146
294.681, 2144.224
296.046, 1904.981
297.411, 1678.465
298.775, 1475.699
300.140, 1414.696
301.504, 1185.468
302.868, 1091.025
304.231, 897.376
305.595, 774.494
306.958, 670.343
308.321, 552.950
309.684, 471.729
311.047, 357.618
312.409, 361.682
313.771, 296.531
315.133, 336.069
316.495, 327.173
317.856, 334.738
319.217, 364.757
320.578, 247.206
321.939, 282.150
323.299, 291.619
324.660, 298.589
326.020, 389.147
327.380, 394.305
328.739, 452.073
330.099, 556.431
331.458, 736.773
332.817, 748.827
334.176, 689.666
335.534, 771.455
336.892, 606.753
338.251, 595.550
339.608, 520.302
340.966, 434.005
342.323, 418.659
343.681, 387.260
345.037, 328.808
346.394, 365.299
347.751, 344.733
349.107, 384.109
350.463, 440.427
351.819, 548.687
353.174, 590.831
354.530, 695.506
355.885, 800.777
357.240, 911.900
358.594, 1029.900
359.949, 936.409
361.303, 850.733
362.657, 709.518
364.011, 677.287
365.365, 637.975
366.718, 517.585
368.071, 592.244
369.424, 582.323
370.777, 687.156
372.129, 793.203
373.481, 783.591
374.833, 834.926
376.185, 717.625
377.537, 688.182
378.888, 496.267
380.239, 418.699
381.590, 363.460
382.941, 273.841
384.291, 251.990
385.642, 221.573
386.992, 171.084
388.341, 177.248
389.691, 214.044
391.040, 179.326
392.389, 203.669
393.738, 170.546
395.087, 233.283
396.435, 242.432
397.784, 381.351
399.132, 536.008
400.479, 882.701
401.827, 1306.063
403.174, 1759.081
404.521, 1989.713
405.868, 2011.446
407.215, 1823.105
408.561, 1527.045
409.908, 1337.780
411.254, 1257.801
412.599, 1103.586
413.945, 1105.556
415.290, 992.451
416.636, 804.634
417.980, 583.614
419.325, 402.531
420.670, 279.385
422.014, 193.166
423.358, 136.870
424.702, 49.495
426.045, 56.035
427.389, 15.490
428.732, 4.140
430.075, 20.141
431.417, 58.337
432.760, 84.449
434.102, 53.477
435.444, 89.453
436.786, 114.753
438.127, 124.709
439.469, 217.634
440.810, 333.688
442.151, 310.332
443.492, 417.123
444.832, 591.899
446.172, 745.514
447.512, 947.947
448.852, 1247.496
450.192, 1707.809
451.531, 2315.851
452.870, 2989.055
454.209, 3540.012
455.548, 3929.053
456.887, 3878.016
458.225, 3698.792
459.563, 3311.697
460.901, 2788.477
462.238, 2521.117
463.576, 2232.781
464.913, 2339.281
466.250, 2421.725
467.587, 2729.769
468.923, 3320.322
470.259, 4228.720
471.596, 5251.944
472.931, 6786.860
474.267, 8680.760
475.603, 10514.064
476.938, 11477.654
478.273, 11541.122
479.608, 10584.618
480.942, 8988.335
482.276, 7701.038
483.611, 6614.011
484.944, 5832.043
486.278, 4982.125
487.612, 4369.953
488.945, 3727.788
490.278, 2979.852
491.611, 2624.343
492.943, 2075.583
494.276, 1981.870
495.608, 1754.906
496.940, 1694.282
498.271, 1839.963
499.603, 1860.591
500.934, 2069.898
502.265, 2476.836
503.596, 2919.705
504.927, 3695.435
506.257, 4751.815
507.587, 6309.443
508.917, 8362.967
510.247, 11326.664
511.577, 15200.590
512.906, 18854.961
514.235, 22259.533
515.564, 22474.521
516.892, 21469.914
518.221, 18465.301
519.549, 14682.829
520.877, 11678.694
522.205, 8936.000
523.533, 6921.168
524.860, 5349.231
526.187, 4105.233
527.514, 3437.243
528.841, 2802.409
530.167, 2278.367
531.493, 1978.480
532.820, 1647.264
534.145, 1399.870
535.471, 1192.659
536.796, 1067.463
538.122, 982.144
539.447, 846.256
540.771, 781.744
542.096, 666.701
543.420, 706.885
544.744, 550.214
546.068, 527.939
547.392, 500.950
548.715, 431.364
550.039, 357.825
551.362, 347.562
552.684, 348.791
554.007, 247.751
555.329, 308.127
556.652, 241.643
557.973, 186.865
559.295, 192.440
560.617, 225.062
561.938, 100.740
563.259, 120.458
564.580, 160.282
565.901, 142.103
567.221, 178.936
568.541, 87.788
569.861, 155.649
571.181, 107.514
572.501, 154.378
573.820, 128.238
575.139, 25.087
576.458, 135.947
577.777, 136.797
579.095, 214.656
580.414, 140.269
581.732, 162.524
583.049, 222.554
584.367, 301.221
585.685, 274.921
587.002, 228.462
588.319, 213.875
589.636, 177.446
590.952, 94.182
592.268, 150.032
593.585, 52.759
594.900, 10.358
596.216, 17.632
597.532, 5.669
598.847, 9.900
600.162, 36.850
601.477, 40.405
602.792, 6.672
604.106, 38.947
605.420, 18.762
606.734, 5.534
608.048, 14.163
609.361, 29.144
610.675, 8.537
611.988, 73.214
613.301, 16.888
614.614, 20.559
615.926, 89.226
617.238, 5.892
618.550, 21.554
619.862, 41.214
621.174, 21.873
622.485, 57.529
623.797, 114.185
625.108, 148.840
626.418, 204.481
627.729, 243.155
629.039, 288.820
630.349, 257.491
631.659, 240.172
632.969, 296.863
634.279, 304.567
635.588, 291.282
636.897, 259.009
638.206, 287.747
639.515, 299.388
640.823, 295.258
642.131, 371.036
643.439, 437.826
644.747, 486.629
646.055, 567.442
647.362, 595.265
648.669, 633.097
649.976, 694.935
651.283, 808.777
652.589, 905.623
653.896, 1003.473
655.202, 905.327
656.508, 847.186
657.814, 880.050
659.119, 662.923
660.424, 601.805
661.729, 507.695
663.034, 404.595
664.339, 332.506
665.643, 323.428
666.947, 249.360
668.251, 173.302
669.555, 93.252
670.859, 38.208
672.162, 46.172
673.465, 42.139
674.768, 62.107
676.071, 40.921
677.373, 3.967
678.676, 36.016
679.978, 22.920
681.280, 14.858
682.581, 40.201
683.883, 8.275
685.184, 46.350
686.485, 22.443
687.786, 18.629
689.087, 61.469
690.387, 4.404
691.687, 94.419
692.987, 20.594
694.287, 56.304
695.586, 123.647
696.886, 66.921
698.185, 91.323
699.484, 7.669
700.783, 47.480
702.081, 15.948
703.379, 2.327
704.677, 52.329
705.975, 1.047
707.273, 96.367
708.570, 14.992
709.868, 125.615
711.165, 52.335
712.462, 154.962
713.758, 188.589
715.055, 97.212
716.351, 210.832
717.647, 109.085
718.943, 112.694
720.238, 54.589
721.533, 114.497
722.829, 141.089
724.124, 92.116
725.418, 136.695
726.713, 157.619
728.007, 127.186
729.301, 258.781
730.595, 130.334
731.889, 295.559
733.182, 264.395
734.476, 284.250
735.769, 433.778
737.061, 480.300
738.354, 598.706
739.647, 742.220
740.939, 802.368
742.231, 1030.157
743.523, 1220.714
744.814, 1593.494
746.106, 1973.133
747.397, 2394.636
748.688, 2837.136
749.978, 3042.603
751.269, 3177.662
752.559, 3147.981
753.849, 2767.250
755.139, 2428.308
756.429, 2018.699
757.719, 1689.935
759.008, 1371.041
760.297, 1131.232
761.586, 958.532
762.875, 816.642
764.163, 704.933
765.451, 591.405
766.739, 541.645
768.027, 450.762
769.315, 459.329
770.602, 330.606
771.890, 348.004
773.177, 317.212
774.463, 336.480
775.750, 275.827
777.036, 247.087
778.323, 265.454
779.609, 216.815
780.894, 191.169
782.180, 174.518
783.465, 221.860
784.750, 162.196
786.035, 234.525
787.320, 135.848
788.605, 289.165
789.889, 207.475
791.173, 208.778
792.457, 219.075
793.741, 209.366
795.024, 222.353
796.307, 184.927
797.591, 229.197
798.873, 254.460
800.156, 235.716
801.439, 329.966
802.721, 238.209
804.003, 316.445
805.285, 407.674
806.566, 403.896
807.848, 533.110
809.129, 729.317
810.410, 839.518
811.691, 1110.711
812.971, 1230.897
814.252, 1606.076
815.532, 1585.248
816.812, 1620.413
818.092, 1275.570
819.371, 1030.721
820.651, 800.864
821.930, 556.000
823.209, 526.128
824.488, 377.249
825.766, 263.345
827.045, 318.451
828.323, 221.549
829.601, 154.640
830.878, 212.580
832.156, 192.160
833.433, 116.285
834.710, 79.263
835.987, 120.201
837.264, 183.024
838.540, 58.330
839.817, 135.785
841.093, 13.405
842.369, 106.306
843.644, 149.813
844.920, 34.513
846.195, 90.050
847.470, 23.607
848.745, 11.254
850.020, 55.817
851.294, 30.202
852.568, 44.214
853.842, 8.187
855.116, 17.935
856.390, 92.536
857.663, 21.349
858.936, 76.508
860.209, 67.397
861.482, 30.411
862.755, 53.967
864.027, 6.233
865.299, 33.530
866.571, 83.311
867.843, 51.088
869.115, 33.861
870.386, 33.368
871.657, 52.375
872.928, 60.886
874.199, 11.225
875.470, 39.458
876.740, 13.863
878.010, 34.800
879.280, 5.459
880.550, 39.111
881.820, 17.761
883.089, 43.406
884.358, 71.951
885.627, 5.647
886.896, 63.761
888.164, 37.791
889.433, 119.339
890.701, 24.114
891.969, 58.413
893.236, 3.063
894.504, 14.548
895.771, 12.953
897.038, 3.458
898.305, 7.958
899.572, 41.454
900.838, 44.948
902.105, 64.439
903.371, 54.945
904.637, 55.451
905.902, 78.955
907.168, 26.458
908.433, 112.962
909.698, 14.536
910.963, 80.961
912.228, 21.458
913.492, 43.959
914.757, 26.459
916.021, 8.960
917.285, 30.734
918.548, 73.963
919.812, 47.465
921.075, 57.966
922.338, 44.467
923.601, 58.968
924.864, 64.814
926.126, 66.967
927.388, 78.467
928.650, 46.965
929.912, 33.835
931.174, 40.727
932.435, 41.459
933.697, 48.956
934.958, 50.726
936.218, 52.350
937.479, 49.444
938.739, 62.940
940.000, 50.436
941.260, 72.931
942.520, 122.427
943.779, 116.922
945.039, 98.418
946.298, 35.914
947.557, 163.410
948.816, 85.906
950.074, 116.719
951.333, 79.900
952.591, 114.397
953.849, 114.896
955.107, 82.395
956.365, 118.821
957.622, 176.395
958.879, 127.896
960.136, 147.398
961.393, 96.902
962.650, 180.406
963.906, 140.912
965.162, 99.418
966.418, 199.926
967.674, 110.435
968.930, 242.946
970.185, 225.458
971.441, 156.972
972.696, 172.487
973.950, 218.004
975.205, 113.523
976.459, 348.044
977.714, 269.567
978.968, 303.092
980.222, 363.619
981.475, 353.849
982.729, 489.689
983.982, 441.235
985.235, 498.792
986.488, 594.354
987.740, 639.921
988.993, 808.503
990.245, 969.090
991.497, 1242.692
992.749, 1442.131
994.000, 1622.755
995.252, 1799.397
996.503, 1882.739
997.754, 1670.413
999.005, 1704.622
1000.256, 1565.454
1001.506, 1483.191
1002.756, 1316.048
1004.006, 1154.851
1005.256, 1215.125
1006.506, 1097.053
1007.755, 901.902
1009.005, 857.724
1010.254, 682.589
1011.502, 622.682
1012.751, 538.572
1014.000, 463.478
1015.248, 416.320
1016.496, 381.262
1017.744, 397.208
1018.991, 410.174
1020.239, 409.341
1021.486, 444.485
1022.733, 442.469
1023.980, 450.168
1025.227, 487.864
1026.473, 404.875
1027.719, 473.452
1028.965, 532.475
1030.211, 493.152
1031.457, 591.187
1032.702, 552.199
1033.948, 545.252
1035.193, 561.950
1036.438, 524.505
1037.682, 506.004
1038.927, 501.097
1040.171, 489.433
1041.415, 409.413
1042.659, 504.573
1043.903, 458.058
1045.146, 498.913
1046.390, 543.569
1047.633, 553.452
1048.876, 606.483
1050.118, 701.653
1051.361, 704.831
1052.603, 696.585
1053.845, 802.777
1055.087, 839.975
1056.329, 710.180
1057.571, 584.394
1058.812, 604.618
1060.053, 523.782
1061.294, 529.021
1062.535, 380.266
1063.775, 407.518
1065.016, 323.777
1066.256, 248.026
1067.496, 328.302
1068.736, 248.587
1069.975, 196.878
1071.214, 247.176
1072.454, 215.481
1073.693, 232.793
1074.931, 168.111
1076.170, 251.437
1077.408, 347.770
1078.647, 140.109
1079.885, 286.456
1081.122, 257.809
1082.360, 240.169
1083.597, 276.536
1084.835, 287.911
1086.072, 298.291
1087.308, 413.678
1088.545, 310.073
1089.781, 306.474
1091.018, 457.883
1092.254, 369.298
1093.490, 447.720
1094.725, 455.149
1095.961, 566.585
1097.196, 577.027
1098.431, 589.478
1099.666, 703.937
1100.900, 598.401
1102.135, 673.873
1103.369, 742.351
1104.603, 682.836
1105.837, 613.328
1107.071, 628.827
1108.304, 652.333
1109.538, 701.845
1110.771, 729.363
1112.004, 790.890
1113.236, 889.423
1114.469, 872.964
1115.701, 1170.511
1116.933, 1351.065
1118.165, 1440.625
1119.397, 1760.201
1120.629, 2016.784
1121.860, 2349.373
1123.091, 2879.969
1124.322, 2848.571
1125.553, 3143.209
1126.783, 3094.824
1128.014, 2815.446
1129.244, 2579.073
1130.474, 2330.707
1131.704, 2155.390
1132.933, 2129.037
1134.163, 1924.688
1135.392, 2063.465
1136.621, 1875.128
1137.850, 1957.797
1139.079, 2062.623
1140.307, 1948.341
1141.535, 2072.891
1142.763, 1805.645
1143.991, 1611.430
1145.219, 1485.143
1146.446, 1269.281
1147.674, 1049.617
1148.901, 961.370
1150.128, 816.108
1151.354, 732.634
1152.581, 627.693
1153.807, 536.557
1155.033, 537.215
1156.259, 380.116
1157.485, 293.740
1158.710, 411.354
1159.936, 215.177
1161.161, 350.337
1162.386, 282.308
1163.611, 240.146
1164.835, 194.072
1166.060, 204.355
1167.284, 211.201
1168.508, 282.755
1169.732, 123.747
1170.955, 246.613
1172.179, 188.166
1173.402, 122.061
1174.625, 235.958
1175.848, 140.864
1177.070, 101.772
1178.293, 150.728
1179.515, 117.473
1180.737, 135.388
1181.959, 172.371
1183.181, 101.311
1184.402, 117.253
1185.624, 141.561
1186.845, 201.525
1188.066, 138.810
1189.286, 4.523
1190.507, 80.452
1191.727, 101.553
1192.947, 44.157
1194.167, 94.043
1195.387, 152.607
1196.607, 86.583
1197.826, 164.579
1199.045, 75.416
1200.264, 141.533
1201.483, 82.537
1202.702, 10.800
1203.920, 141.750
1205.138, 69.039
1206.356, 91.092
1207.574, 85.046
1208.792, 26.000
1210.009, 65.103
1211.227, 118.056
1212.444, 9.609
1213.661, 128.562
1214.877, 178.179
1216.094, 19.130
1217.310, 122.081
1218.526, 83.090
1219.742, 114.039
1220.958, 138.988
1222.173, 74.044
1223.389, 41.084
1224.604, 68.129
1225.819, 56.199
1227.034, 105.176
1228.248, 71.197
1229.463, 108.138
1230.677, 103.104
1231.891, 85.043
1233.105, 111.981
1234.318, 58.167
1235.532, 109.103
1236.745, 72.039
1237.958, 45.115
1239.171, 54.056
1240.384, 73.998
1241.596, 66.021
1242.809, 84.655
1244.021, 91.220
1245.233, 99.358
1246.444, 97.309
1247.656, 83.261
1248.867, 60.215
1250.079, 54.170
1251.290, 84.126
1252.500, 71.084
1253.711, 100.042
1254.921, 61.001
1256.132, 47.961
1257.342, 47.027
1258.552, 72.113
1259.761, 155.069
1260.971, 125.454
1262.180, 137.975
1263.389, 140.920
1264.598, 125.519
1265.807, 71.820
1267.015, 114.743
1268.223, 98.739
1269.432, 115.645
1270.640, 16.533
1271.847, 66.488
1273.055, 65.325
1274.262, 43.141
1275.470, 83.002
1276.677, 16.792
1277.883, 108.620
1279.090, 139.406
1280.296, 14.822
1281.503, 32.923
1282.709, 52.665
1283.915, 2.402
1285.120, 25.524
1286.326, 24.708
1287.531, 21.984
1288.736, 16.478
1289.941, 51.362
1291.146, 38.038
1292.350, 29.708
1293.555, 33.363
1294.759, 69.043
1295.963, 53.311
1297.167, 2.310
1298.370, 16.919
1299.574, 22.477
1300.777, 13.114
1301.980, 5.302
1303.183, 36.729
1304.386, 77.826
1305.588, 28.623
1306.790, 89.089
1307.993, 89.579
1309.195, 25.073
1310.396, 45.439
1311.598, 47.027
1312.799, 1.519
1314.000, 16.927
1315.201, 49.364
1316.402, 32.206
1317.603, 74.204
1318.803, 72.606
1320.003, 75.998
1321.203, 143.381
1322.403, 40.733
1323.603, 17.923
1324.802, 142.402
1326.002, 37.283
1327.201, 91.012
1328.400, 78.297
1329.599, 8.575
1330.797, 83.843
1331.995, 10.104
1333.194, 1.336
1334.392, 95.515
1335.589, 5.272
1336.787, 8.071
1337.985, 14.559
1339.182, 2.737
1340.379, 58.905
1341.576, 51.197
1342.772, 49.350
1343.969, 164.386
1345.165, 40.520
1346.361, 8.645
1347.557, 79.761
1348.753, 10.131
1349.949, 29.963
1351.144, 72.049
1352.339, 104.129
1353.534, 21.202
1354.729, 74.268
1355.924, 2.328
1357.118, 143.397
1358.312, 1.444
1359.506, 117.484
1360.700, 86.515
1361.894, 43.524
1363.088, 107.528
1364.281, 77.744
1365.474, 32.741
1366.667, 36.733
1367.860, 35.722
1369.052, 29.707
1370.245, 51.689
1371.437, 41.565
1372.629, 80.637
1373.821, 54.667
1375.013, 65.634
1376.204, 109.606
1377.395, 18.038
1378.586, 62.531
1379.777, 74.299
1380.968, 31.060
1382.159, 152.815
1383.349, 148.562
1384.539, 47.302
1385.729, 175.035
1386.919, 17.761
1388.109, 31.480
1389.298, 87.193
1390.487, 74.898
1391.676, 153.595
1392.865, 146.283
1394.054, 73.946
1395.242, 120.600
1396.431, 154.214
1397.619, 90.852
1398.807, 211.483
1399.995, 51.058
1401.182, 44.345
1402.370, 172.945
1403.557, 76.310
1404.744, 75.544
1405.931, 191.990
1407.118, 12.514
1408.304, 151.992
1409.490, 113.313
1410.676, 52.222
1411.862, 243.412
1413.048, 81.104
1414.234, 32.149
1415.419, 188.259
1416.604, 65.777
1417.789, 43.778
1418.974, 184.181
1420.159, 44.256
1421.343, 92.320
1422.528, 155.659
1423.712, 95.177
1424.896, 87.120
1426.079, 96.536
1427.263, 17.087
1428.446, 33.821
1429.629, 109.540
1430.812, 41.438
1431.995, 116.167
1433.178, 68.914
1434.360, 115.216
1435.543, 172.605
1436.725, 36.363
1437.907, 190.849
1439.088, 165.528
1440.270, 59.049
1441.451, 136.609
1442.632, 115.260
1443.813, 54.520
1444.994, 184.712
1446.175, 44.087
1447.355, 90.607
1448.535, 210.158
1449.715, 6.186
1450.895, 206.389
1452.075, 167.816
1453.255, 113.025
1454.434, 191.281
1455.613, 157.523
1456.792, 90.705
1457.971, 191.824
1459.149, 77.878
1460.328, 233.618
1461.506, 205.243
1462.684, 83.125
1463.862, 108.916
1465.040, 201.631
1466.217, 177.176
1467.395, 214.779
1468.572, 231.551
1469.749, 162.767
1470.925, 223.748
1472.102, 175.914
1473.278, 126.099
1474.455, 171.815
1475.631, 175.937
1476.807, 194.076
1477.982, 146.224
1479.158, 81.269
1480.333, 187.429
1481.508, 70.575
1482.683, 1.299
1483.858, 275.805
1485.033, 10.796
1486.207, 168.240
1487.381, 158.270
1488.555, 94.297
1489.729, 212.311
1490.903, 112.336
1492.076, 29.484
1493.250, 198.781
1494.423, 161.125
1495.596, 88.495
1496.769, 146.879
1497.941, 22.527
1499.114, 52.220
1500.286, 162.971
1501.458, 52.763
1502.630, 161.780
1503.802, 168.467
1504.973, 3.763
1506.145, 140.105
1507.316, 160.055
1508.487, 51.088
1509.657, 165.922
1510.828, 156.075
1511.999, 59.972
1513.169, 213.471
1514.339, 24.048
1515.509, 135.767
1516.678, 210.034
1517.848, 0.336
1519.017, 0.000
##END=



