##NAMES=Microcline
##RRUFFID=R050150
##IDEAL CHEMISTRY=KAlSi_3_O_8_
##LOCALITY=Crystal Peak area, Park/Teller Counties, Colorado, USA
##OWNER=RRUFF
##SOURCE=Dave Bunk Minerals
##DESCRIPTION=Pale blue prismatic crystals
##STATUS=The identification of this mineral has been confirmed by X-ray diffraction and chemical analysis
##URL=rruff.info/R050150
##MEASURED CHEMISTRY=(K_0.95_Na_0.05_)_Î£=1_Al_1.00_Si_3.00_O_8_
##PIN_ID=L01075
##ORIENTATION=Laser parallel to (0 1 1). Fiducial mark perpendicular to laser is parallel to a [1 0 0]
131.4920, 0.0000000E+00
132.7300, 38.78418
133.9690, 338.6865
135.2070, 1223.977
136.4450, 2789.846
137.6830, 4347.342
138.9210, 5431.288
140.1580, 5875.004
141.3950, 5639.254
142.6330, 5595.096
143.8690, 5671.308
145.1060, 6206.639
146.3430, 7380.398
147.5790, 8214.191
148.8150, 10098.44
150.0510, 12559.49
151.2870, 15862.59
152.5220, 19393.85
153.7580, 23375.96
154.9930, 26280.39
156.2280, 27568.32
157.4620, 27263.24
158.6970, 25171.13
159.9310, 22295.09
161.1660, 18868.94
162.4000, 15563.12
163.6330, 12162.00
164.8670, 9116.522
166.1000, 6688.507
167.3340, 4717.611
168.5670, 3426.736
169.8000, 2462.529
171.0320, 1957.650
172.2650, 1754.776
173.4970, 1850.407
174.7290, 1852.910
175.9610, 1982.512
177.1930, 2351.033
178.4240, 2399.771
179.6550, 2304.326
180.8870, 2339.526
182.1170, 2059.524
183.3480, 2024.822
184.5790, 1844.487
185.8090, 1530.405
187.0390, 1338.128
188.2690, 1330.069
189.4990, 1352.741
190.7290, 1407.198
191.9580, 1533.626
193.1870, 1794.206
194.4160, 2281.854
195.6450, 2705.698
196.8740, 2954.939
198.1020, 3123.483
199.3310, 3123.057
200.5590, 2676.581
201.7870, 2318.054
203.0140, 1916.526
204.2420, 1426.039
205.4690, 914.9844
206.6960, 483.7207
207.9230, 361.2773
209.1500, 63.62891
210.3760, 110.3057
211.6030, 207.6260
212.8290, 234.3877
214.0550, 148.6475
215.2810, 325.4531
216.5060, 373.8506
217.7320, 303.8867
218.9570, 405.6162
220.1820, 219.0840
221.4070, 303.0566
222.6320, 330.5137
223.8560, 280.0605
225.0800, 141.8975
226.3040, 223.6406
227.5280, 163.0254
228.7520, 200.0000
229.9760, 85.06055
231.1990, 176.2402
232.4220, 146.5576
233.6450, 201.0420
234.8680, 3.685547
236.0910, 90.47168
237.3130, 8.611328
238.5350, 14.70703
239.7570, 72.76953
240.9790, 248.9287
242.2010, 333.9736
243.4220, 593.2676
244.6430, 866.1582
245.8640, 1131.353
247.0850, 1523.842
248.3060, 2030.482
249.5270, 2575.313
250.7470, 3535.422
251.9670, 4615.867
253.1870, 6006.757
254.4070, 7279.141
255.6260, 8643.555
256.8460, 9377.920
258.0650, 9622.694
259.2840, 9672.943
260.5030, 9774.103
261.7220, 9527.198
262.9400, 9404.120
264.1580, 9149.379
265.3760, 8927.532
266.5940, 8630.103
267.8120, 8077.695
269.0290, 7563.035
270.2470, 7126.471
271.4640, 7065.934
272.6810, 7045.111
273.8980, 7561.578
275.1140, 8611.570
276.3310, 10229.77
277.5470, 12021.22
278.7630, 14926.88
279.9790, 17984.88
281.1940, 21367.48
282.4100, 24065.63
283.6250, 26447.37
284.8400, 26748.70
286.0550, 25550.14
287.2700, 23152.78
288.4850, 20154.10
289.6990, 16659.02
290.9130, 13400.71
292.1270, 10377.55
293.3410, 7952.281
294.5540, 6177.908
295.7680, 4999.178
296.9810, 4375.078
298.1940, 3532.592
299.4070, 3202.629
300.6200, 2760.111
301.8320, 2451.986
303.0450, 2179.235
304.2570, 1848.857
305.4690, 1623.859
306.6800, 1541.241
307.8920, 1308.063
309.1030, 1290.400
310.3150, 1092.284
311.5260, 1083.746
312.7360, 944.8145
313.9470, 962.5098
315.1580, 947.8184
316.3680, 920.6211
317.5780, 890.5713
318.7880, 1012.358
319.9980, 1088.025
321.2070, 1208.460
322.4170, 1295.779
323.6260, 1562.038
324.8350, 1667.462
326.0430, 2130.123
327.2520, 2697.134
328.4610, 3234.500
329.6690, 3543.337
330.8770, 3897.761
332.0850, 3688.641
333.2920, 3485.598
334.5000, 3113.510
335.7070, 2797.548
336.9140, 2310.848
338.1210, 1897.708
339.3280, 1716.554
340.5350, 1435.382
341.7410, 1333.193
342.9470, 1115.984
344.1540, 1171.751
345.3590, 960.4951
346.5650, 884.2148
347.7710, 902.9062
348.9760, 1106.570
350.1810, 1094.198
351.3860, 1164.702
352.5910, 1264.471
353.7950, 1377.049
355.0000, 1431.046
356.2040, 1437.954
357.4080, 1344.859
358.6120, 1255.180
359.8150, 1245.961
361.0190, 1177.717
362.2220, 1058.492
363.4250, 1043.705
364.6280, 1093.574
365.8310, 960.1816
367.0340, 1111.539
368.2360, 1189.175
369.4380, 1383.973
370.6400, 1388.430
371.8420, 1397.747
373.0440, 1316.869
374.2450, 1039.672
375.4470, 937.6904
376.6480, 714.9902
377.8490, 549.1553
379.0490, 401.9043
380.2500, 243.0439
381.4500, 184.7363
382.6510, 31.64844
383.8510, 16.90527
385.0500, 17.07910
386.2500, 49.01367
387.4500, 49.04980
388.6490, 175.7627
389.8480, 56.50879
391.0470, 27.81445
392.2460, 36.31543
393.4440, 65.50977
394.6430, 128.3018
395.8410, 133.0684
397.0390, 273.8115
398.2370, 266.5361
399.4340, 464.2441
400.6320, 435.9385
401.8290, 613.6123
403.0260, 617.2588
404.2230, 481.8633
405.4200, 594.4502
406.6170, 454.9453
407.8130, 364.4062
409.0090, 319.8672
410.2050, 279.3311
411.4010, 220.4131
412.5970, 263.2285
413.7920, 147.6738
414.9880, 133.1162
416.1830, 131.5742
417.3780, 34.03711
418.5730, 6.519531
419.7670, 67.10352
420.9620, 150.7217
422.1560, 134.4268
423.3500, 175.2822
424.5440, 154.2627
425.7380, 86.41406
426.9310, 120.6807
428.1240, 104.0898
429.3180, 1.341797
430.5110, 82.34668
431.7030, 30.83496
432.8960, 97.89746
434.0890, 106.0859
435.2810, 241.6992
436.4730, 185.4443
437.6650, 385.0801
438.8570, 421.6172
440.0480, 586.0586
441.2390, 679.4033
442.4310, 897.6650
443.6220, 1265.833
444.8120, 1738.908
446.0030, 2246.896
447.1940, 2828.795
448.3840, 3650.613
449.5740, 4377.348
450.7640, 5428.006
451.9540, 6318.588
453.1430, 6856.096
454.3330, 6823.748
455.5220, 6553.282
456.7110, 5912.156
457.9000, 5388.028
459.0890, 4595.764
460.2770, 4072.325
461.4650, 3773.688
462.6540, 3538.503
463.8420, 3749.589
465.0290, 4138.139
466.2170, 4927.006
467.4050, 5894.712
468.5920, 6950.646
469.7790, 8729.427
470.9660, 10640.18
472.1530, 12839.28
473.3390, 14909.00
474.5250, 16238.71
475.7120, 16079.40
476.8980, 15628.08
478.0840, 14474.76
479.2690, 13359.42
480.4550, 11963.08
481.6400, 11119.72
482.8250, 10158.36
484.0100, 9210.974
485.1950, 8093.582
486.3800, 6921.785
487.5640, 5883.230
488.7480, 5039.801
489.9320, 4244.061
491.1160, 3540.408
492.3000, 3121.619
493.4840, 2927.787
494.6670, 2825.270
495.8500, 2891.805
497.0330, 3429.356
498.2160, 3744.950
499.3990, 4263.631
500.5810, 5335.424
501.7630, 6529.334
502.9460, 8220.342
504.1280, 10498.49
505.3090, 13501.79
506.4910, 17272.23
507.6720, 21977.83
508.8540, 27670.54
510.0350, 33860.39
511.2160, 39200.39
512.3960, 42206.51
513.5770, 42055.71
514.7570, 39389.05
515.9380, 34937.47
517.1180, 29479.00
518.2970, 24051.62
519.4770, 18879.33
520.6570, 14666.72
521.8360, 11219.70
523.0150, 8996.118
524.1940, 7136.451
525.3730, 5724.242
526.5510, 4760.137
527.7300, 4064.123
528.9080, 3346.812
530.0860, 2946.964
531.2640, 2579.442
532.4420, 2290.939
533.6200, 1901.077
534.7970, 1654.568
535.9740, 1634.899
537.1510, 1498.514
538.3280, 1208.165
539.5050, 1187.492
540.6810, 995.7402
541.8580, 920.8340
543.0340, 712.8447
544.2100, 715.0986
545.3860, 758.3525
546.5610, 704.2939
547.7370, 602.5459
548.9120, 555.7119
550.0870, 535.9121
551.2620, 643.9600
552.4370, 348.4482
553.6120, 441.9590
554.7860, 528.8652
555.9600, 367.2480
557.1340, 446.2734
558.3080, 476.7871
559.4820, 245.3535
560.6560, 288.4609
561.8290, 266.2529
563.0020, 121.4150
564.1750, 285.8818
565.3480, 339.3115
566.5210, 186.7139
567.6930, 186.2178
568.8660, 239.6855
570.0380, 135.9932
571.2100, 239.4902
572.3820, 296.2324
573.5530, 243.0420
574.7250, 251.1631
575.8960, 363.6104
577.0670, 328.3857
578.2380, 612.9570
579.4090, 558.5186
580.5800, 607.6104
581.7500, 746.9688
582.9210, 713.5947
584.0910, 692.9766
585.2610, 735.3652
586.4300, 597.7646
587.6000, 458.2285
588.7690, 391.6709
589.9390, 262.1250
591.1080, 137.6123
592.2770, 79.11035
593.4450, 89.64844
594.6140, 83.19824
595.7820, 20.76465
596.9500, 12.34570
598.1190, 24.94727
599.2860, 30.56543
600.4540, 4.205078
601.6220, 8.886719
602.7890, 21.58984
603.9560, 11.36426
605.1230, 56.15723
606.2900, 71.98438
607.4570, 83.84668
608.6230, 28.72461
609.7890, 31.55566
610.9560, 109.5410
612.1220, 17.52930
613.2870, 29.41016
614.4530, 10.37012
615.6180, 250.3428
616.7840, 333.3311
617.9490, 256.3350
619.1140, 369.3711
620.2790, 283.4219
621.4430, 537.4883
622.6080, 483.5791
623.7720, 491.6836
624.9360, 918.8223
626.1000, 971.9766
627.2640, 1053.149
628.4270, 1176.337
629.5910, 1117.546
630.7540, 1180.777
631.9170, 1087.027
633.0800, 979.2939
634.2430, 1121.577
635.4050, 1018.884
636.5680, 990.2041
637.7300, 1033.544
638.8920, 1052.184
640.0540, 1140.577
641.2150, 1200.754
642.3770, 1363.184
643.5380, 1437.623
644.7000, 1556.074
645.8610, 1562.537
647.0210, 1565.009
648.1820, 1839.489
649.3430, 1959.979
650.5030, 1841.475
651.6630, 2076.979
652.8230, 2191.487
653.9830, 2127.003
655.1430, 2114.523
656.3020, 1919.048
657.4620, 1756.188
658.6210, 1635.111
659.7800, 1341.648
660.9390, 1248.190
662.0970, 1159.738
663.2560, 925.2939
664.4140, 786.8584
665.5720, 635.4346
666.7300, 622.0283
667.8880, 520.6377
669.0460, 446.2705
670.2030, 383.9111
671.3600, 318.5566
672.5180, 251.9756
673.6740, 194.0518
674.8310, 145.7969
675.9880, 34.54980
677.1440, 25.19141
678.3010, 5.078125
679.4570, 40.84668
680.6130, 35.61914
681.7690, 8.392578
682.9240, 91.16602
684.0800, 172.9385
685.2350, 87.29102
686.3900, 27.43848
687.5450, 73.16602
688.7000, 98.10645
689.8540, 79.42480
691.0090, 110.2168
692.1630, 3.862305
693.3170, 21.49219
694.4710, 19.85938
695.6250, 123.2373
696.7780, 78.67090
697.9320, 56.93066
699.0850, 81.46484
700.2380, 27.99121
701.3910, 60.44629
702.5440, 19.10352
703.6970, 107.3115
704.8490, 99.26074
706.0010, 106.1279
707.1530, 65.54980
708.3050, 60.68945
709.4570, 36.28711
710.6090, 66.55957
711.7600, 78.02539
712.9110, 104.2012
714.0620, 64.20703
715.2130, 122.3486
716.3640, 79.12109
717.5150, 15.67676
718.6650, 3.226563
719.8150, 74.08008
720.9650, 42.37109
722.1150, 80.29297
723.2650, 57.79199
724.4150, 53.28613
725.5640, 28.16895
726.7130, 44.23535
727.8630, 57.15625
729.0110, 97.11133
730.1600, 130.9521
731.3090, 217.4668
732.4570, 299.2324
733.6060, 363.7637
734.7540, 398.2129
735.9020, 510.8115
737.0490, 598.2500
738.1970, 748.7354
739.3440, 874.7256
740.4920, 1016.654
741.6390, 1211.312
742.7860, 1394.234
743.9320, 1628.316
745.0790, 1884.471
746.2250, 2146.851
747.3720, 2404.393
748.5180, 2536.756
749.6640, 2560.111
750.8100, 2523.096
751.9550, 2393.635
753.1010, 2185.841
754.2460, 1561.278
755.3910, 1588.586
756.5360, 1267.313
757.6810, 903.6006
758.8250, 835.9590
759.9700, 956.6035
761.1140, 793.8604
762.2580, 839.1777
763.4020, 858.0332
764.5460, 917.5342
765.6900, 925.7461
766.8330, 958.5381
767.9760, 944.2021
769.1200, 860.3828
770.2620, 719.5889
771.4050, 763.7432
772.5480, 609.0049
773.6900, 517.1357
774.8330, 580.1299
775.9750, 491.8086
777.1170, 357.9004
778.2590, 392.9805
779.4000, 204.0723
780.5420, 369.1250
781.6830, 366.1631
782.8240, 295.1895
783.9650, 233.1992
785.1060, 377.1982
786.2470, 141.1826
787.3870, 288.1514
788.5280, 268.1084
789.6680, 158.0508
790.8080, 246.9795
791.9480, 319.8936
793.0870, 335.7939
794.2270, 323.6797
795.3660, 403.5518
796.5060, 354.4082
797.6450, 404.2520
798.7830, 519.0801
799.9220, 576.8936
801.0610, 523.6943
802.1990, 684.4805
803.3370, 784.2520
804.4750, 1092.007
805.6130, 1216.748
806.7510, 1494.475
807.8890, 1853.187
809.0260, 2305.882
810.1630, 2678.562
811.3000, 3080.229
812.4370, 3349.879
813.5740, 3502.513
814.7110, 3191.133
815.8470, 2695.669
816.9830, 2225.256
818.1190, 1756.827
819.2550, 1430.597
820.3910, 1095.037
821.5270, 874.4316
822.6620, 647.2412
823.7970, 464.7344
824.9330, 438.2129
826.0670, 345.2852
827.2020, 403.3223
828.3370, 251.7559
829.4710, 374.9209
830.6060, 406.8750
831.7400, 298.8701
832.8740, 231.1670
834.0080, 98.97070
835.1410, 242.3154
836.2750, 278.6465
837.4080, 246.0488
838.5410, 279.8662
839.6740, 205.9629
840.8070, 207.8467
841.9400, 242.1074
843.0730, 164.9600
844.2050, 41.09766
845.3370, 276.3105
846.4690, 18.49121
847.6010, 359.3721
848.7330, 11.51172
849.8640, 175.6221
850.9960, 159.4531
852.1270, 16.53711
853.2580, 212.5957
854.3890, 139.4141
855.5200, 4.305664
856.6500, 81.69238
857.7810, 14.41797
858.9110, 138.3789
860.0410, 112.3271
861.1710, 41.26270
862.3010, 51.87109
863.4310, 77.98926
864.5600, 55.16113
865.6900, 155.6270
866.8190, 75.59570
867.9480, 55.11035
869.0770, 60.80371
870.2050, 232.4834
871.3340, 52.15039
872.4620, 90.80273
873.5900, 63.44434
874.7180, 60.92773
875.8460, 12.35938
876.9740, 90.82715
878.1010, 10.37012
879.2290, 47.94531
880.3560, 49.57520
881.4830, 109.7422
882.6100, 8.952148
883.7370, 103.3213
884.8630, 68.58398
885.9900, 139.8369
887.1160, 5.079102
888.2420, 129.2988
889.3680, 83.50781
890.4940, 92.70410
891.6200, 48.11035
892.7450, 87.02637
893.8700, 47.15039
894.9960, 16.73535
896.1210, 150.3447
897.2460, 44.58496
898.3700, 15.43848
899.4950, 30.44531
900.6190, 121.4395
901.7430, 14.42383
902.8670, 18.39258
903.9910, 52.34570
905.1150, 43.29004
906.2390, 130.2246
907.3620, 17.85254
908.4850, 125.0410
909.6080, 0.9267580
910.7310, 122.2080
911.8540, 105.5752
912.9770, 67.34863
914.0990, 37.11328
915.2210, 275.8682
916.3440, 132.6152
917.4660, 120.3525
918.5870, 139.0830
919.7090, 145.8037
920.8310, 208.5156
921.9520, 92.21973
923.0730, 194.9160
924.1940, 31.60352
925.3150, 45.28320
926.4360, 176.9561
927.5560, 250.6201
928.6770, 124.2764
929.7970, 310.9258
930.9170, 230.5674
932.0370, 302.2021
933.1570, 150.8301
934.2760, 148.6016
935.3960, 191.0645
936.5150, 90.67188
937.6340, 66.27148
938.7530, 100.8662
939.8720, 131.4551
940.9910, 105.0352
942.1090, 62.61230
943.2280, 203.1846
944.3460, 114.7646
945.4640, 132.3379
946.5820, 128.9072
947.6990, 10.47070
948.8170, 254.0283
949.9340, 198.5811
951.0520, 369.1289
952.1690, 197.6738
953.2860, 117.2139
954.4030, 250.7480
955.5190, 102.2793
956.6360, 211.8047
957.7520, 225.3486
958.8680, 221.8877
959.9840, 189.4219
961.1000, 229.9766
962.2160, 30.54785
963.3310, 372.1143
964.4470, 111.6787
965.5620, 157.2480
966.6770, 194.8203
967.7920, 116.4199
968.9060, 171.8662
970.0210, 170.6240
971.1360, 195.2578
972.2500, 219.8984
973.3640, 230.5527
974.4780, 299.2129
975.5920, 328.9004
976.7050, 387.5850
977.8190, 355.2939
978.9320, 463.3535
980.0450, 351.0781
981.1580, 289.2520
982.2710, 305.0137
983.3840, 332.1963
984.4970, 528.0029
985.6090, 566.8066
986.7210, 720.4131
987.8330, 981.2363
988.9450, 1013.061
990.0570, 1113.592
991.1690, 1440.423
992.2800, 1411.127
993.3920, 1687.992
994.5030, 1682.859
995.6140, 1772.332
996.7250, 1888.048
997.8350, 1909.906
998.9460, 1963.438
1000.056, 2072.309
1001.167, 2170.584
1002.277, 2232.336
1003.387, 2082.141
1004.496, 2000.023
1005.606, 1819.754
1006.715, 1661.648
1007.825, 1531.502
1008.934, 1445.853
1010.043, 1271.283
1011.152, 1051.810
1012.260, 1096.410
1013.369, 776.6758
1014.477, 820.8652
1015.586, 695.8252
1016.694, 733.6211
1017.802, 614.5918
1018.909, 626.5645
1020.017, 603.5469
1021.124, 635.3281
1022.232, 509.3193
1023.339, 667.3174
1024.446, 482.3281
1025.553, 611.9160
1026.659, 618.9395
1027.766, 698.8896
1028.872, 848.5479
1029.979, 685.5898
1031.085, 669.5693
1032.191, 899.0195
1033.296, 1029.820
1034.402, 1007.906
1035.507, 1008.408
1036.613, 1344.034
1037.718, 1354.140
1038.823, 1263.217
1039.928, 1220.341
1041.032, 1167.354
1042.137, 1178.497
1043.241, 928.7715
1044.346, 819.3584
1045.450, 656.5273
1046.554, 778.7070
1047.657, 578.8682
1048.761, 751.0664
1049.864, 515.2725
1050.968, 649.4893
1052.071, 652.7168
1053.174, 596.9521
1054.277, 485.1973
1055.379, 452.4521
1056.482, 466.7178
1057.584, 201.9922
1058.687, 261.2773
1059.789, 243.5732
1060.891, 123.8779
1061.992, 250.1924
1063.094, 242.5186
1064.196, 301.8545
1065.297, 124.2012
1066.398, 309.5586
1067.499, 64.92480
1068.600, 78.30371
1069.701, 246.6924
1070.801, 78.09082
1071.902, 45.50195
1073.002, 245.9238
1074.102, 93.87793
1075.202, 243.3213
1076.302, 93.94727
1077.402, 86.41211
1078.501, 168.8896
1079.600, 33.37598
1080.700, 241.8740
1081.799, 257.3838
1082.898, 274.9062
1083.996, 331.6416
1085.095, 335.6250
1086.193, 367.7402
1087.292, 362.3066
1088.390, 338.8848
1089.488, 331.4746
1090.586, 421.0742
1091.683, 296.6875
1092.781, 497.3115
1093.878, 460.9463
1094.975, 616.5947
1096.073, 498.2549
1097.169, 505.9258
1098.266, 581.6094
1099.363, 505.3037
1100.459, 698.2471
1101.556, 558.9639
1102.652, 737.6934
1103.748, 779.4326
1104.844, 578.1836
1105.940, 525.7861
1107.035, 687.5586
1108.131, 1079.344
1109.226, 1067.139
1110.321, 1135.946
1111.416, 1200.768
1112.511, 1483.600
1113.605, 1571.232
1114.700, 1908.527
1115.794, 2386.413
1116.889, 2592.312
1117.983, 3218.568
1119.077, 3819.491
1120.170, 4248.426
1121.264, 4758.776
1122.357, 5117.742
1123.451, 5204.670
1124.544, 5003.660
1125.637, 4701.661
1126.730, 4421.670
1127.823, 3851.693
1128.915, 3769.748
1130.008, 3727.812
1131.100, 3619.910
1132.192, 3732.019
1133.284, 3848.901
1134.376, 4247.061
1135.467, 4590.234
1136.559, 4623.562
1137.650, 4790.279
1138.742, 4518.502
1139.833, 4272.414
1140.924, 4213.006
1142.014, 3547.279
1143.105, 3136.592
1144.195, 2783.926
1145.286, 2125.289
1146.376, 1987.684
1147.466, 1783.086
1148.556, 1370.512
1149.646, 1306.943
1150.735, 1184.385
1151.825, 873.8359
1152.914, 740.3027
1154.003, 744.7793
1155.092, 655.9316
1156.181, 650.4277
1157.270, 642.9551
1158.358, 590.4883
1159.447, 597.0352
1160.535, 479.6035
1161.623, 416.1797
1162.711, 365.7461
1163.799, 293.3613
1164.886, 352.0000
1165.974, 451.6348
1167.061, 262.2793
1168.148, 275.9375
1169.235, 92.60352
1170.322, 272.2793
1171.409, 124.3574
1172.496, 152.0586
1173.582, 204.9004
1174.669, 102.6250
1175.755, 343.3945
1176.841, 240.1738
1177.927, 79.07422
1179.012, 114.8711
1180.098, 235.6758
1181.183, 132.4863
1182.269, 180.3105
1183.354, 206.1406
1184.439, 225.9766
1185.524, 151.8203
1186.608, 173.6133
1187.693, 169.0273
1188.777, 171.4062
1189.862, 152.2852
1190.946, 209.1719
1192.030, 133.0645
1193.113, 115.9648
1194.197, 105.8750
1195.281, 17.79102
1196.364, 56.71680
1197.447, 41.78906
1198.530, 27.23633
1199.613, 96.57031
1200.696, 53.54297
1201.779, 127.5215
1202.861, 198.5059
1203.944, 21.49805
1205.026, 176.4961
1206.108, 74.50195
1207.190, 137.4805
1208.271, 51.47070
1209.353, 197.4668
1210.435, 31.47070
1211.516, 117.4805
1212.597, 273.4980
1213.678, 9.476563
1214.759, 220.5508
1215.840, 226.5859
1216.920, 227.6289
1218.001, 239.6777
1219.081, 162.7324
1220.161, 117.7949
1221.241, 237.8613
1222.321, 51.93750
1223.401, 89.02148
1224.480, 214.3750
1225.560, 29.46875
1226.639, 85.56836
1227.718, 21.67578
1228.797, 126.7891
1229.876, 100.0918
1230.955, 309.9863
1232.033, 61.07227
1233.112, 56.16406
1234.190, 128.2617
1235.268, 40.63477
1236.346, 7.458984
1237.424, 141.5586
1238.501, 63.66211
1239.579, 110.7734
1240.656, 103.8906
1241.733, 151.0117
1242.811, 87.86133
1243.888, 113.7695
1244.964, 105.2695
1246.041, 178.3184
1247.117, 79.63281
1248.194, 24.39453
1249.270, 190.4277
1250.346, 79.53320
1251.422, 150.5156
1252.498, 19.47461
1253.573, 62.52930
1254.649, 141.5391
1255.724, 59.55273
1256.800, 227.5723
1257.875, 122.6465
1258.950, 197.7246
1260.024, 72.80859
1261.099, 77.29492
1262.173, 13.01367
1263.248, 25.07422
1264.322, 55.62109
1265.396, 0.7187500
1266.470, 26.18359
1267.544, 35.09570
1268.617, 62.02344
1269.691, 40.25781
1270.764, 35.04688
1271.837, 18.07617
1272.910, 42.10938
1273.983, 89.14648
1275.056, 21.18555
1276.129, 101.2285
1277.201, 278.2754
1278.273, 128.3242
1279.346, 127.3770
1280.418, 21.43164
1281.489, 99.49219
1282.561, 83.55859
1283.633, 25.37500
1284.704, 47.68164
1285.776, 98.32031
1286.847, 83.38086
1287.918, 180.4414
1288.989, 76.50195
1290.059, 209.5684
1291.130, 44.36719
1292.200, 87.67188
1293.271, 9.714844
1294.341, 144.7598
1295.411, 77.80469
1296.481, 88.85156
1297.551, 56.89844
1298.620, 20.94922
1299.690, 0.9980470
1300.759, 149.0410
1301.828, 7.085938
1302.897, 107.1289
1303.966, 75.17188
1305.035, 302.2148
1306.103, 8.255859
1307.172, 142.2949
