##NAMES=Microcline
##RRUFFID=R050054
##IDEAL CHEMISTRY=KAlSi_3_O_8_
##LOCALITY=Kenticha, Negele area, Sidamo Province, Ethiopia
##OWNER=RRUFF
##SOURCE=Rock Currier
##DESCRIPTION=Light blue single crystal
##STATUS=The identification of this mineral has been confirmed by X-ray diffraction and chemical analysis
##URL=rruff.info/R050054
##MEASURED CHEMISTRY=(K_0.96_Na_0.04_)Al_1.00_Si_3.00_O_8_
##PIN_ID=M00161
##ORIENTATION=Laser parallel to a* (1 0 0). Fiducial mark perpendicular to laser is parallel to -b [0 -1 0]
98.519, 0.000
99.917, 4.240
101.314, 199.187
102.712, 236.006
104.109, 713.928
105.505, 1219.809
106.902, 2008.581
108.298, 2979.331
109.694, 3749.865
111.090, 3780.940
112.486, 3315.828
113.881, 3403.422
115.277, 1581.778
116.672, 900.713
118.066, 497.257
119.461, 193.751
120.855, 131.618
122.249, 325.222
123.643, 446.210
125.036, 749.813
126.430, 950.082
127.823, 1039.484
129.216, 928.095
130.608, 667.004
132.001, 307.458
133.393, 147.771
134.785, 0.237
136.176, 25.570
137.568, 30.953
138.959, 49.133
140.350, 192.888
141.741, 188.546
143.131, 294.004
144.521, 482.767
145.911, 832.606
147.301, 1438.718
148.691, 1910.216
150.080, 2228.899
151.469, 2258.138
152.858, 2101.130
154.247, 1760.577
155.635, 1481.582
157.024, 1222.680
158.411, 1001.371
159.799, 868.542
161.187, 653.539
162.574, 593.699
163.961, 456.998
165.348, 447.371
166.734, 357.038
168.121, 324.474
169.507, 395.640
170.893, 377.527
172.278, 439.215
173.664, 630.863
175.049, 859.531
176.434, 1065.769
177.819, 1296.924
179.203, 1494.915
180.587, 1353.771
181.971, 1243.609
183.355, 954.675
184.739, 750.964
186.122, 561.460
187.505, 413.144
188.888, 305.991
190.271, 252.122
191.653, 331.072
193.035, 271.263
194.417, 354.536
195.799, 468.877
197.180, 565.272
198.562, 781.709
199.943, 736.231
201.324, 750.768
202.704, 549.092
204.084, 395.084
205.465, 301.567
206.844, 233.608
208.224, 183.840
209.603, 103.107
210.983, 91.130
212.362, 19.660
213.740, 16.368
215.119, 28.497
216.497, 14.816
217.875, 34.518
219.253, 13.777
220.631, 57.175
222.008, 59.238
223.385, 65.660
224.762, 75.684
226.139, 20.957
227.515, 69.913
228.891, 40.016
230.267, 72.983
231.643, 62.685
233.018, 117.085
234.394, 52.751
235.769, 60.052
237.144, 20.484
238.518, 27.077
239.893, 5.595
241.267, 28.879
242.641, 36.036
244.014, 33.638
245.388, 49.201
246.761, 107.519
248.134, 100.154
249.507, 158.677
250.879, 306.823
252.252, 403.796
253.624, 628.598
254.996, 798.272
256.367, 1096.858
257.739, 1214.376
259.110, 1394.855
260.481, 1450.055
261.852, 1419.831
263.222, 1499.930
264.592, 1628.030
265.962, 1779.133
267.332, 1798.295
268.702, 1629.510
270.071, 1371.866
271.440, 1149.678
272.809, 934.579
274.178, 805.176
275.546, 700.615
276.915, 764.739
278.283, 773.547
279.650, 986.935
281.018, 1211.062
282.385, 1561.985
283.752, 1918.600
285.119, 2221.013
286.486, 2452.243
287.852, 2350.297
289.218, 2169.172
290.584, 1694.875
291.950, 1454.407
293.316, 1189.763
294.681, 1020.931
296.046, 955.906
297.411, 726.656
298.775, 730.140
300.140, 608.687
301.504, 592.244
302.868, 477.227
304.231, 377.184
305.595, 414.505
306.958, 287.585
308.321, 238.686
309.684, 271.572
311.047, 197.260
312.409, 205.777
313.771, 190.155
315.133, 200.404
316.495, 249.506
317.856, 138.439
319.217, 207.170
320.578, 148.665
321.939, 197.885
323.299, 206.805
324.660, 252.422
326.020, 319.713
327.380, 337.713
328.739, 476.919
330.099, 502.635
331.458, 579.503
332.817, 579.725
334.176, 537.147
335.534, 463.141
336.892, 390.306
338.251, 334.170
339.608, 288.238
340.966, 246.861
342.323, 234.651
343.681, 203.729
345.037, 218.766
346.394, 239.763
347.751, 275.720
349.107, 252.637
350.463, 266.909
351.819, 266.528
353.174, 380.448
354.530, 421.895
355.885, 483.981
357.240, 495.545
358.594, 502.756
359.949, 417.413
361.303, 450.439
362.657, 388.939
364.011, 364.396
365.365, 386.807
366.718, 433.617
368.071, 543.737
369.424, 586.282
370.777, 772.216
372.129, 933.627
373.481, 974.858
374.833, 883.842
376.185, 647.760
377.537, 544.592
378.888, 441.885
380.239, 347.841
381.590, 268.576
382.941, 270.618
384.291, 230.939
385.642, 233.130
386.992, 200.917
388.341, 213.075
389.691, 142.669
391.040, 169.198
392.389, 142.615
393.738, 163.977
395.087, 194.995
396.435, 234.611
397.784, 258.281
399.132, 371.544
400.479, 580.284
401.827, 780.688
403.174, 1014.412
404.521, 1002.705
405.868, 908.565
407.215, 767.125
408.561, 571.075
409.908, 548.013
411.254, 501.863
412.599, 544.416
413.945, 504.120
415.290, 460.183
416.636, 331.097
417.980, 208.997
419.325, 207.970
420.670, 122.840
422.014, 139.694
423.358, 125.528
424.702, 39.341
426.045, 109.129
427.389, 49.854
428.732, 104.511
430.075, 87.104
431.417, 35.631
432.760, 139.090
434.102, 86.486
435.444, 120.970
436.786, 116.323
438.127, 150.986
439.469, 183.404
440.810, 240.668
442.151, 268.254
443.492, 300.921
444.832, 361.251
446.172, 485.132
447.512, 647.276
448.852, 906.949
450.192, 1124.918
451.531, 1693.715
452.870, 1981.067
454.209, 2288.675
455.548, 2497.254
456.887, 2043.674
458.225, 1772.624
459.563, 1442.254
460.901, 1253.848
462.238, 1207.224
463.576, 1090.503
464.913, 1160.156
466.250, 1252.481
467.587, 1454.786
468.923, 1826.523
470.259, 2327.003
471.596, 3119.599
472.931, 3979.665
474.267, 5386.772
475.603, 6264.717
476.938, 6294.719
478.273, 6008.055
479.608, 4966.479
480.942, 4058.455
482.276, 3347.914
483.611, 3007.762
484.944, 2534.666
486.278, 2108.850
487.612, 1850.297
488.945, 1452.800
490.278, 1097.870
491.611, 1018.037
492.943, 868.518
494.276, 837.997
495.608, 813.293
496.940, 808.277
498.271, 819.954
499.603, 975.390
500.934, 1163.627
502.265, 1280.685
503.596, 1688.684
504.927, 2153.534
506.257, 2791.454
507.587, 3713.455
508.917, 4811.601
510.247, 6556.645
511.577, 8371.744
512.906, 10126.838
514.235, 11122.418
515.564, 9948.216
516.892, 8644.274
518.221, 6550.459
519.549, 5015.708
520.877, 3698.570
522.205, 2802.888
523.533, 2295.641
524.860, 1722.877
526.187, 1414.542
527.514, 1148.503
528.841, 1036.783
530.167, 893.355
531.493, 756.784
532.820, 647.147
534.145, 567.698
535.471, 493.065
536.796, 426.121
538.122, 416.462
539.447, 337.663
540.771, 333.942
542.096, 336.525
543.420, 295.271
544.744, 240.349
546.068, 300.220
547.392, 229.815
548.715, 204.445
550.039, 207.794
551.362, 156.337
552.684, 199.833
554.007, 167.498
555.329, 184.367
556.652, 169.598
557.973, 90.906
559.295, 113.747
560.617, 82.573
561.938, 104.603
563.259, 91.476
564.580, 103.969
565.901, 100.983
567.221, 114.931
568.541, 103.339
569.861, 91.891
571.181, 88.929
572.501, 70.920
573.820, 80.907
575.139, 99.939
576.458, 116.912
577.777, 62.506
579.095, 175.096
580.414, 147.330
581.732, 224.638
583.049, 189.888
584.367, 220.778
585.685, 213.961
587.002, 159.897
588.319, 167.064
589.636, 114.159
590.952, 104.040
592.268, 130.364
593.585, 37.471
594.900, 52.723
596.216, 38.042
597.532, 21.324
598.847, 7.828
600.162, 12.427
601.477, 65.604
602.792, 36.804
604.106, 50.688
605.420, 2.259
606.734, 23.505
608.048, 5.244
609.361, 33.994
610.675, 18.261
611.988, 54.474
613.301, 49.205
614.614, 24.068
615.926, 38.354
617.238, 2.344
618.550, 1.036
619.862, 28.277
621.174, 30.397
622.485, 57.070
623.797, 25.742
625.108, 97.485
626.418, 102.159
627.729, 141.864
629.039, 124.547
630.349, 153.234
631.659, 152.951
632.969, 131.759
634.279, 118.465
635.588, 109.178
636.897, 115.896
638.206, 145.623
639.515, 169.357
640.823, 189.535
642.131, 161.912
643.439, 252.668
644.747, 262.450
646.055, 323.217
647.362, 395.987
648.669, 375.760
649.976, 452.533
651.283, 516.307
652.589, 568.081
653.896, 570.855
655.202, 447.632
656.508, 414.413
657.814, 419.198
659.119, 213.988
660.424, 312.784
661.729, 229.586
663.034, 173.395
664.339, 136.210
665.643, 107.031
666.947, 79.436
668.251, 85.887
669.555, 84.080
670.859, 74.460
672.162, 33.612
673.465, 33.103
674.768, 16.432
676.071, 7.841
677.373, 14.823
678.676, 5.326
679.978, 10.523
681.280, 11.996
682.581, 40.148
683.883, 41.827
685.184, 28.988
686.485, 45.197
687.786, 2.513
689.087, 9.307
690.387, 0.718
691.687, 10.399
692.987, 23.961
694.287, 5.168
695.586, 18.773
696.886, 27.001
698.185, 18.281
699.484, 19.015
700.783, 6.358
702.081, 0.479
703.379, 12.881
704.677, 37.498
705.975, 75.063
707.273, 62.688
708.570, 69.455
709.868, 68.235
711.165, 52.040
712.462, 25.085
713.758, 51.125
715.055, 37.960
716.351, 55.867
717.647, 9.758
718.943, 48.484
720.238, 0.719
721.533, 29.994
722.829, 49.133
724.124, 82.496
725.418, 68.195
726.713, 41.890
728.007, 97.363
729.301, 122.979
730.595, 42.660
731.889, 115.335
733.182, 64.005
734.476, 80.609
735.769, 138.273
737.061, 212.734
738.354, 217.395
739.647, 283.054
740.939, 326.987
742.231, 434.645
743.523, 580.363
744.814, 737.019
746.106, 862.672
747.397, 1093.255
748.688, 1244.906
749.978, 1339.404
751.269, 1256.966
752.559, 1014.178
753.849, 895.917
755.139, 694.293
756.429, 518.429
757.719, 413.975
759.008, 376.193
760.297, 380.308
761.586, 322.600
762.875, 298.134
764.163, 325.196
765.451, 263.671
766.739, 300.641
768.027, 287.199
769.315, 187.749
770.602, 143.392
771.890, 167.454
773.177, 109.788
774.463, 118.109
775.750, 97.565
777.036, 96.267
778.323, 134.825
779.609, 33.250
780.894, 79.808
782.180, 43.362
783.465, 67.911
784.750, 60.457
786.035, 43.998
787.320, 23.536
788.605, 84.067
789.889, 58.596
791.173, 54.120
792.457, 93.639
793.741, 49.154
795.024, 52.666
796.307, 34.172
797.591, 65.674
798.873, 44.171
800.156, 144.664
801.439, 75.152
802.721, 138.636
804.003, 168.115
805.285, 142.589
806.566, 227.059
807.848, 228.525
809.129, 297.986
810.410, 435.580
811.691, 523.032
812.971, 628.479
814.252, 791.921
815.532, 698.358
816.812, 628.792
818.092, 435.220
819.371, 356.644
820.651, 252.062
821.930, 253.477
823.209, 169.886
824.488, 62.290
825.766, 119.688
827.045, 62.042
828.323, 118.390
829.601, 28.664
830.878, 23.898
832.156, 56.155
833.433, 62.088
834.710, 7.319
835.987, 126.953
837.264, 9.242
838.540, 116.424
839.817, 43.702
841.093, 19.322
842.369, 39.781
843.644, 15.943
844.920, 15.917
846.195, 40.072
847.470, 34.015
848.745, 15.242
850.020, 33.866
851.294, 16.551
852.568, 32.341
853.842, 3.351
855.116, 14.208
856.390, 18.949
857.663, 0.103
858.936, 12.247
860.209, 5.575
861.482, 24.592
862.755, 21.755
864.027, 16.662
865.299, 6.068
866.571, 6.124
867.843, 12.265
869.115, 10.363
870.386, 11.506
871.657, 34.437
872.928, 26.450
874.199, 34.056
875.470, 2.062
876.740, 84.859
878.010, 81.169
879.280, 33.195
880.550, 4.836
881.820, 31.175
883.089, 22.184
884.358, 31.139
885.627, 48.141
886.896, 21.141
888.164, 52.138
889.433, 5.868
890.701, 75.116
891.969, 40.096
893.236, 4.074
894.504, 48.045
895.771, 13.015
897.038, 52.980
898.305, 33.943
899.572, 26.097
900.838, 38.843
902.105, 59.781
903.371, 35.718
904.637, 53.652
905.902, 1.593
907.168, 76.529
908.433, 11.463
909.698, 21.604
910.963, 113.326
912.228, 2.741
913.492, 114.193
914.757, 25.874
916.021, 23.955
917.285, 46.948
918.548, 6.849
919.812, 53.750
921.075, 15.649
922.338, 57.545
923.601, 58.444
924.864, 24.347
926.126, 73.250
927.388, 92.150
928.650, 0.054
929.912, 42.953
931.174, 33.850
932.435, 55.675
933.697, 56.568
934.958, 64.432
936.218, 51.321
937.479, 122.208
938.739, 87.070
940.000, 123.845
941.260, 65.728
942.520, 65.609
943.779, 113.488
945.039, 44.365
946.298, 95.240
947.557, 42.114
948.816, 75.924
950.074, 138.795
951.333, 70.645
952.591, 100.513
953.849, 78.378
955.107, 60.244
956.365, 112.107
957.622, 89.970
958.879, 113.832
960.136, 96.693
961.393, 1.448
962.650, 77.409
963.906, 39.267
965.162, 160.122
966.418, 139.976
967.674, 111.831
968.930, 108.683
970.185, 93.535
971.441, 148.385
972.696, 114.235
973.950, 74.084
975.205, 190.932
976.459, 128.779
977.714, 77.625
978.968, 207.471
980.222, 202.317
981.475, 164.083
982.729, 213.795
983.982, 212.585
985.235, 294.487
986.488, 280.702
987.740, 275.570
988.993, 346.958
990.245, 382.847
991.497, 482.736
992.749, 648.728
994.000, 646.637
995.252, 725.370
996.503, 581.105
997.754, 642.023
999.005, 600.929
1000.256, 511.230
1001.506, 565.149
1002.756, 475.982
1004.006, 466.425
1005.256, 384.591
1006.506, 419.456
1007.755, 366.758
1009.005, 317.148
1010.254, 202.003
1011.502, 312.109
1012.751, 188.077
1014.000, 221.035
1015.248, 202.971
1016.496, 175.668
1017.744, 211.376
1018.991, 189.258
1020.239, 181.097
1021.486, 254.904
1022.733, 194.927
1023.980, 236.868
1025.227, 259.899
1026.473, 240.500
1027.719, 316.875
1028.965, 270.914
1030.211, 302.952
1031.457, 400.211
1032.702, 250.255
1033.948, 381.277
1035.193, 287.326
1036.438, 259.641
1037.682, 338.675
1038.927, 293.734
1040.171, 232.997
1041.415, 296.070
1042.659, 306.175
1043.903, 253.975
1045.146, 299.052
1046.390, 266.111
1047.633, 321.192
1048.876, 361.356
1050.118, 338.687
1051.361, 418.598
1052.603, 333.122
1053.845, 396.212
1055.087, 414.681
1056.329, 256.603
1057.571, 367.707
1058.812, 263.757
1060.053, 282.400
1061.294, 211.510
1062.535, 215.118
1063.775, 233.232
1065.016, 61.566
1066.256, 126.978
1067.496, 111.096
1068.736, 190.113
1069.975, 144.235
1071.214, 95.402
1072.454, 175.528
1073.693, 159.655
1074.931, 123.783
1076.170, 116.913
1077.408, 129.044
1078.647, 83.925
1079.885, 136.061
1081.122, 108.199
1082.360, 158.372
1083.597, 128.532
1084.835, 134.696
1086.072, 196.861
1087.308, 190.028
1088.545, 157.425
1089.781, 261.596
1091.018, 186.789
1092.254, 183.962
1093.490, 217.136
1094.725, 290.312
1095.961, 392.488
1097.196, 357.683
1098.431, 419.041
1099.666, 466.221
1100.900, 404.403
1102.135, 442.585
1103.369, 456.769
1104.603, 495.134
1105.837, 436.353
1107.071, 364.595
1108.304, 449.000
1109.538, 430.188
1110.771, 486.445
1112.004, 447.898
1113.236, 582.090
1114.469, 692.282
1115.701, 786.699
1116.933, 943.893
1118.165, 1110.086
1119.397, 1378.283
1120.629, 1566.613
1121.860, 1982.951
1123.091, 2046.152
1124.322, 2133.453
1125.553, 2309.660
1126.783, 1916.869
1128.014, 1850.212
1129.244, 1520.422
1130.474, 1348.632
1131.704, 1353.077
1132.933, 1169.289
1134.163, 1127.500
1135.392, 1299.239
1136.621, 1250.548
1137.850, 1352.624
1139.079, 1258.842
1140.307, 1232.791
1141.535, 1337.899
1142.763, 955.291
1143.991, 978.530
1145.219, 822.757
1146.446, 571.986
1147.674, 628.365
1148.901, 531.770
1150.128, 409.003
1151.354, 333.802
1152.581, 311.221
1153.807, 295.474
1155.033, 262.851
1156.259, 240.242
1157.485, 153.374
1158.710, 242.226
1159.936, 111.556
1161.161, 206.063
1162.386, 120.568
1163.611, 173.811
1164.835, 92.443
1166.060, 57.875
1167.284, 123.113
1168.508, 118.893
1169.732, 20.131
1170.955, 153.792
1172.179, 68.279
1173.402, 130.546
1174.625, 143.582
1175.848, 67.133
1177.070, 114.388
1178.293, 32.061
1179.515, 87.314
1180.737, 64.025
1181.959, 37.368
1183.181, 9.144
1184.402, 98.742
1185.624, 45.045
1186.845, 145.271
1188.066, 59.905
1189.286, 19.126
1190.507, 189.517
1191.727, 91.951
1192.947, 18.159
1194.167, 41.814
1195.387, 10.139
1196.607, 126.332
1197.826, 34.921
1199.045, 11.669
1200.264, 188.525
1201.483, 9.351
1202.702, 3.818
1203.920, 145.331
1205.138, 47.688
1206.356, 2.080
1207.574, 58.544
1208.792, 60.894
1210.009, 75.296
1211.227, 27.481
1212.444, 47.742
1213.661, 87.886
1214.877, 40.222
1216.094, 103.354
1217.310, 26.945
1218.526, 70.086
1219.742, 75.199
1220.958, 91.425
1222.173, 113.768
1223.389, 102.269
1224.604, 153.361
1225.819, 67.523
1227.034, 93.917
1228.248, 46.458
1229.463, 121.692
1230.677, 87.374
1231.891, 68.636
1233.105, 94.906
1234.318, 0.207
1235.532, 102.277
1236.745, 49.305
1237.958, 54.398
1239.171, 127.456
1240.384, 60.481
1241.596, 91.701
1242.809, 52.706
1244.021, 15.026
1245.233, 69.024
1246.444, 74.058
1247.656, 123.085
1248.867, 62.071
1250.079, 17.052
1251.290, 53.029
1252.500, 48.002
1253.711, 10.154
1254.921, 112.299
1256.132, 14.404
1257.342, 1.426
1258.552, 173.482
1259.761, 163.407
1260.971, 12.376
1262.180, 145.336
1263.389, 100.222
1264.598, 104.620
1265.807, 36.496
1267.015, 36.039
1268.223, 105.999
1269.432, 46.833
1270.640, 91.231
1271.847, 122.057
1273.055, 40.845
1274.262, 100.903
1275.470, 80.671
1276.677, 18.429
1277.883, 98.414
1279.090, 100.138
1280.296, 64.146
1281.503, 53.846
1282.709, 5.476
1283.915, 109.666
1285.120, 18.844
1286.326, 5.225
1287.531, 9.614
1288.736, 76.976
1289.941, 128.558
1291.146, 125.860
1292.350, 45.410
1293.555, 40.949
1294.759, 105.566
1295.963, 46.917
1297.167, 40.575
1298.370, 5.943
1299.574, 51.526
1300.777, 50.098
1301.980, 35.455
1303.183, 15.018
1304.386, 66.497
1305.588, 23.855
1306.790, 24.196
1307.993, 142.523
1309.195, 11.161
1310.396, 41.420
1311.598, 241.426
1312.799, 29.297
1314.000, 106.956
1315.201, 6.197
1316.402, 30.427
1317.603, 82.644
1318.803, 1.154
1320.003, 20.031
1321.203, 118.203
1322.403, 7.361
1323.603, 90.500
1324.802, 5.621
1326.002, 67.726
1327.201, 32.800
1328.400, 14.407
1329.599, 74.632
1330.797, 104.655
1331.995, 26.337
1333.194, 135.673
1334.392, 51.596
1335.589, 40.537
1336.787, 142.455
1337.985, 7.316
1339.182, 64.205
1340.379, 99.009
1341.576, 11.868
1342.772, 42.711
1343.969, 92.352
1345.165, 18.834
1346.361, 102.689
1347.557, 17.343
1348.753, 48.108
1349.949, 38.904
1351.144, 22.500
1352.339, 48.037
1353.534, 35.027
1354.729, 85.722
1355.924, 68.360
1357.118, 105.029
1358.312, 49.687
1359.506, 146.353
1360.700, 7.989
1361.894, 92.555
1363.088, 141.161
1364.281, 69.756
1365.474, 141.340
1366.667, 92.916
1367.860, 2.523
1369.052, 80.077
1370.245, 24.723
1371.437, 58.737
1372.629, 58.877
1373.821, 2.914
1375.013, 50.422
1376.204, 46.921
1377.395, 38.708
1378.586, 91.860
1379.777, 120.979
1380.968, 83.115
1382.159, 91.627
1383.349, 99.129
1384.539, 52.419
1385.729, 151.896
1386.919, 29.363
1388.109, 113.592
1389.298, 95.743
1390.487, 96.950
1391.676, 142.079
1392.865, 135.234
1394.054, 110.619
1395.242, 143.841
1396.431, 65.037
1397.619, 66.257
1398.807, 75.197
1399.995, 94.712
1401.182, 85.725
1402.370, 117.670
1403.557, 93.742
1404.744, 91.842
1405.931, 131.500
1407.118, 8.588
1408.304, 187.485
1409.490, 2.341
1410.676, 74.661
1411.862, 213.193
1413.048, 15.749
1414.234, 90.961
1415.419, 174.150
1416.604, 29.151
1417.789, 129.716
1418.974, 92.053
1420.159, 35.886
1421.343, 137.465
1422.528, 106.761
1423.712, 22.848
1424.896, 154.707
1426.079, 0.576
1427.263, 6.922
1428.446, 167.055
1429.629, 89.994
1430.812, 114.821
1431.995, 137.129
1433.178, 6.348
1434.360, 144.985
1435.543, 94.844
1436.725, 68.532
1437.907, 153.066
1439.088, 147.918
1440.270, 91.061
1441.451, 114.047
1442.632, 62.504
1443.813, 155.585
1444.994, 87.822
1446.175, 63.780
1447.355, 143.010
1448.535, 138.570
1449.715, 123.760
1450.895, 110.167
1452.075, 170.979
1453.255, 114.789
1454.434, 172.222
1455.613, 121.357
1456.792, 177.933
1457.971, 168.621
1459.149, 131.246
1460.328, 236.981
1461.506, 121.973
1462.684, 145.178
1463.862, 218.386
1465.040, 115.590
1466.217, 143.286
1467.395, 174.388
1468.572, 110.594
1469.749, 140.180
1470.925, 115.479
1472.102, 86.123
1473.278, 118.559
1474.455, 66.362
1475.631, 140.053
1476.807, 149.207
1477.982, 124.004
1479.158, 171.101
1480.333, 151.861
1481.508, 67.864
1482.683, 118.395
1483.858, 157.222
1485.033, 10.768
1486.207, 172.855
1487.381, 45.915
1488.555, 148.924
1489.729, 210.907
1490.903, 58.836
1492.076, 120.754
1493.250, 242.649
1494.423, 46.591
1495.596, 115.638
1496.769, 228.787
1497.941, 71.970
1499.114, 194.113
1500.286, 66.590
1501.458, 102.183
1502.630, 139.782
1503.802, 107.669
1504.973, 74.614
1506.145, 127.415
1507.316, 80.909
1508.487, 67.950
1509.657, 212.065
1510.828, 58.351
1511.999, 119.516
1513.169, 60.211
1514.339, 1.616
1515.509, 149.116
1516.678, 165.585
1517.848, 34.875
1519.017, 125.983
1520.187, 0.328
1521.356, 0.000
##END=



