##NAMES=Microcline
##RRUFFID=R040154
##IDEAL CHEMISTRY=KAlSi_3_O_8_
##LOCALITY=Mitchell County, North Carolina, USA
##OWNER=RRUFF
##SOURCE=University of Arizona Mineral Museum
##DESCRIPTION=White cleavage fragment with some perthitic character
##STATUS=The identification of this mineral has been confirmed by X-ray diffraction and chemical analysis
##URL=rruff.info/R040154
##MEASURED CHEMISTRY=(K_0.90_Na_0.09_Ba_0.01_)Al_1.00_(Si_2.99_Al_0.01_)_Î£=3_O_8_
##PIN_ID=L00079
##ORIENTATION=Laser parallel to a* (1 0 0). Fiducial mark perpendicular to laser is parallel to -b [0 -1 0]
75.239, 0.000
76.635, 20.490
78.031, 92.713
79.427, 173.832
80.823, 51.101
82.218, 200.296
83.614, 171.608
85.009, 136.421
86.404, 289.622
87.798, 476.911
89.193, 721.514
90.587, 904.036
91.981, 924.394
93.375, 1061.729
94.768, 1128.354
96.161, 1180.686
97.554, 1442.219
98.947, 1753.500
100.340, 2096.131
101.732, 2608.766
103.124, 3122.108
104.516, 3834.903
105.908, 4535.973
107.300, 4826.211
108.691, 4997.428
110.082, 4624.525
111.473, 4221.455
112.864, 3999.067
114.254, 4060.201
115.644, 4393.777
117.034, 4643.700
118.424, 4989.820
119.813, 5798.004
121.203, 6399.146
122.592, 7350.164
123.981, 8143.990
125.369, 8811.570
126.758, 9256.850
128.146, 9129.792
129.534, 8709.346
130.922, 7499.486
132.309, 6157.182
133.696, 4967.400
135.083, 4388.410
136.470, 3582.735
137.857, 3512.929
139.243, 3425.455
140.630, 3518.299
142.016, 3573.496
143.401, 4265.824
144.787, 4635.618
146.172, 5163.097
147.557, 5474.910
148.942, 5753.840
150.327, 5789.879
151.711, 5594.027
153.096, 5256.368
154.480, 4336.577
155.863, 3793.320
157.247, 3326.115
158.630, 3079.857
160.013, 2873.312
161.396, 2763.557
162.779, 2583.662
164.161, 2404.690
165.544, 2421.680
166.926, 2526.657
168.308, 2679.650
169.689, 2811.675
171.070, 3070.758
172.452, 3330.916
173.833, 3534.145
175.213, 3787.447
176.594, 3988.834
177.974, 4500.307
179.354, 4536.867
180.734, 4387.523
182.114, 4133.276
183.493, 3951.126
184.872, 3710.075
186.251, 3452.122
187.630, 3156.272
189.008, 2915.523
190.387, 2791.872
191.765, 2618.737
193.143, 2589.356
194.520, 2421.553
195.898, 2688.743
197.275, 2606.720
198.652, 2777.927
200.029, 2778.198
201.405, 2656.562
202.782, 2644.017
204.158, 2758.561
205.534, 2769.192
206.909, 2617.906
208.285, 2650.166
209.660, 2634.984
211.035, 2076.619
212.410, 1926.390
213.784, 1445.876
215.159, 1324.120
216.533, 995.730
217.907, 731.006
219.281, 553.458
220.654, 504.643
222.027, 427.898
223.400, 398.225
224.773, 297.620
226.146, 367.083
227.518, 262.605
228.891, 237.186
230.263, 365.193
231.634, 370.781
233.006, 414.050
234.377, 388.965
235.748, 488.304
237.119, 326.581
238.490, 520.908
239.860, 539.283
241.231, 715.105
242.601, 715.658
243.970, 936.331
245.340, 1220.075
246.709, 1481.467
248.079, 2170.867
249.448, 2594.930
250.816, 3409.576
252.185, 4050.743
253.553, 4880.377
254.921, 5927.434
256.289, 6911.873
257.657, 7921.666
259.024, 8548.781
260.391, 9205.191
261.758, 9884.881
263.125, 10787.821
264.492, 11544.077
265.858, 11838.693
267.224, 11542.297
268.590, 10159.380
269.956, 8967.359
271.321, 7483.512
272.687, 6249.821
274.052, 5356.288
275.416, 5171.906
276.781, 5005.656
278.146, 5024.538
279.510, 5690.545
280.874, 6293.662
282.237, 7141.910
283.601, 7608.268
284.964, 7922.715
286.327, 7819.236
287.690, 7659.878
289.053, 6908.613
290.416, 5994.428
291.778, 5080.352
293.140, 4258.363
294.502, 3212.463
295.863, 2613.635
297.225, 1856.867
298.586, 1323.156
299.947, 1110.503
301.308, 736.897
302.668, 508.338
304.029, 432.821
305.389, 254.346
306.749, 245.908
308.108, 246.513
309.468, 46.856
310.827, 118.210
312.186, 198.563
313.545, 148.936
314.903, 112.316
316.262, 215.699
317.620, 141.108
318.978, 120.530
320.336, 36.968
321.693, 15.601
323.051, 207.179
324.408, 208.770
325.765, 559.375
327.121, 622.994
328.478, 798.628
329.834, 955.276
331.190, 980.939
332.546, 614.616
333.902, 596.309
335.257, 301.014
336.612, 204.732
337.967, 66.464
339.322, 41.792
340.677, 73.051
342.031, 239.320
343.385, 163.638
344.739, 266.987
346.093, 274.396
347.446, 203.864
348.799, 104.376
350.153, 184.913
351.505, 89.491
352.858, 52.091
354.210, 53.297
355.563, 25.308
356.915, 57.934
358.267, 10.346
359.618, 44.560
360.969, 94.683
362.321, 101.769
363.672, 160.872
365.022, 328.027
366.373, 580.187
367.723, 677.354
369.073, 958.526
370.423, 1259.708
371.773, 1217.936
373.122, 1202.073
374.471, 1133.095
375.821, 624.990
377.169, 571.877
378.518, 111.716
379.866, 164.596
381.215, 44.443
382.563, 62.672
383.910, 211.806
385.258, 93.001
386.605, 3.225
387.952, 290.426
389.299, 122.711
390.646, 38.960
391.992, 83.624
393.339, 88.273
394.685, 278.812
396.031, 595.244
397.376, 648.624
398.722, 925.998
400.067, 1192.376
401.412, 1301.759
402.757, 1517.312
404.101, 1757.574
405.446, 1850.050
406.790, 2044.566
408.134, 2296.117
409.478, 2551.703
410.821, 2936.314
412.165, 2960.950
413.508, 2783.604
414.851, 2479.277
416.193, 1861.965
417.536, 1490.665
418.878, 1116.375
420.220, 788.096
421.562, 549.214
422.904, 346.557
424.245, 234.296
425.586, 165.038
426.927, 101.332
428.268, 196.513
429.609, 150.244
430.949, 210.971
432.289, 395.693
433.629, 388.415
434.969, 729.426
436.309, 821.109
437.648, 1158.815
438.987, 1276.844
440.326, 1549.482
441.665, 2018.373
443.003, 2914.230
444.342, 3958.587
445.680, 5137.242
447.018, 6963.887
448.355, 8750.763
449.693, 11072.614
451.030, 13546.425
452.367, 16146.673
453.704, 16165.770
455.041, 16043.780
456.377, 14182.361
457.713, 11882.902
459.049, 9899.420
460.385, 8446.139
461.721, 7312.619
463.056, 6683.194
464.391, 6148.850
465.726, 6764.447
467.061, 7261.853
468.395, 8525.854
469.730, 10838.219
471.064, 12702.197
472.398, 15554.991
473.731, 17285.686
475.065, 18808.744
476.398, 19269.484
477.731, 18599.924
479.064, 17113.994
480.397, 15193.967
481.729, 12935.700
483.062, 11204.869
484.394, 9436.016
485.725, 7799.143
487.057, 6496.252
488.389, 5538.181
489.720, 4715.408
491.051, 4423.454
492.382, 4262.480
493.712, 4381.484
495.043, 4610.470
496.373, 5187.430
497.703, 6053.371
499.032, 7626.287
500.362, 9577.393
501.691, 12468.804
503.020, 15671.187
504.349, 20288.547
505.678, 25374.150
507.007, 31104.209
508.335, 35917.984
509.663, 40725.027
510.991, 45016.574
512.319, 45841.188
513.646, 44069.148
514.973, 38107.461
516.300, 31854.068
517.627, 25090.473
518.954, 18889.156
520.280, 14990.163
521.607, 11476.734
522.933, 9195.004
524.259, 7243.188
525.584, 5917.719
526.910, 5050.594
528.235, 4245.773
529.560, 3848.507
530.885, 3165.203
532.209, 2815.251
533.534, 2619.443
534.858, 2145.613
536.182, 1950.401
537.506, 1887.949
538.829, 1726.512
540.152, 1438.799
541.476, 1447.469
542.799, 1119.594
544.121, 1309.996
545.444, 1134.250
546.766, 781.219
548.088, 954.350
549.410, 888.137
550.732, 843.689
552.053, 710.199
553.375, 613.850
554.696, 608.688
556.017, 561.807
557.337, 592.904
558.658, 430.980
559.978, 332.037
561.298, 677.076
562.618, 377.094
563.938, 388.092
565.257, 497.068
566.576, 336.023
567.895, 420.992
569.214, 572.938
570.533, 516.859
571.851, 408.762
573.170, 644.658
574.488, 531.533
575.805, 688.398
577.123, 719.236
578.440, 750.053
579.758, 907.846
581.075, 675.617
582.391, 830.367
583.708, 739.090
585.024, 385.719
586.341, 612.184
587.657, 493.867
588.972, 398.242
590.288, 329.879
591.603, 184.494
592.918, 73.082
594.233, 48.633
595.548, 189.141
596.863, 72.635
598.177, 50.088
599.491, 140.498
600.805, 17.119
602.119, 28.191
603.432, 195.451
604.746, 262.686
606.059, 136.895
607.372, 49.926
608.685, 142.164
609.997, 72.771
611.309, 9.189
612.621, 21.910
613.933, 87.918
615.245, 168.707
616.557, 188.473
617.868, 139.213
619.179, 183.926
620.490, 128.609
621.801, 209.266
623.111, 143.896
624.421, 351.498
625.731, 61.074
627.041, 404.611
628.351, 333.121
629.660, 248.617
630.970, 630.109
632.279, 552.615
633.588, 637.123
634.896, 420.631
636.205, 771.152
637.513, 616.680
638.821, 913.207
640.129, 1163.719
641.437, 1358.203
642.744, 1574.422
644.051, 1669.098
645.358, 1960.508
646.665, 2200.891
647.972, 2473.252
649.278, 2407.592
650.584, 2446.902
651.890, 2692.191
653.196, 2406.453
654.502, 2179.689
655.807, 1725.902
657.113, 1473.090
658.418, 1193.328
659.722, 1019.441
661.027, 746.648
662.331, 662.877
663.636, 607.145
664.940, 302.457
666.244, 449.801
667.547, 217.146
668.851, 205.520
670.154, 121.898
671.457, 110.266
672.760, 204.605
674.062, 55.934
675.365, 60.248
676.667, 49.533
677.969, 193.779
679.271, 16.004
680.572, 112.824
681.874, 187.232
683.175, 135.266
684.476, 108.268
685.777, 70.242
687.077, 170.820
688.378, 51.969
689.678, 12.721
690.978, 4.576
692.278, 253.934
693.577, 72.521
694.877, 140.012
696.176, 390.275
697.475, 98.459
698.774, 52.000
700.072, 131.354
701.371, 52.551
702.669, 81.250
703.967, 181.213
705.265, 386.838
706.562, 161.043
707.860, 38.766
709.157, 360.859
710.454, 119.955
711.751, 318.287
713.047, 226.330
714.344, 349.348
715.640, 428.021
716.936, 333.064
718.232, 539.012
719.527, 382.932
720.823, 298.312
722.118, 454.188
723.413, 434.875
724.708, 338.705
726.002, 707.656
727.297, 527.930
728.591, 818.838
729.885, 913.574
731.179, 791.020
732.472, 1070.711
733.766, 1192.379
735.059, 1497.023
736.352, 1821.504
737.645, 2160.277
738.937, 2813.854
740.230, 3262.598
741.522, 4274.223
742.814, 5085.941
744.106, 6559.551
745.397, 7796.543
746.689, 8699.148
747.980, 9484.578
749.271, 9614.848
750.562, 9182.262
751.853, 7762.844
753.143, 6827.857
754.433, 5867.230
755.723, 4991.367
757.013, 4988.465
758.303, 4732.031
759.592, 4583.268
760.881, 4763.484
762.170, 5013.436
763.459, 4742.383
764.748, 4219.492
766.036, 4123.977
767.325, 3087.580
768.613, 2823.236
769.901, 2254.301
771.188, 1995.355
772.476, 1860.406
773.763, 1262.221
775.050, 1414.236
776.337, 1197.912
777.624, 1158.895
778.910, 939.689
780.196, 950.641
781.482, 884.959
782.768, 879.877
784.054, 922.137
785.339, 1048.021
786.625, 803.893
787.910, 1168.746
789.195, 940.586
790.479, 1166.406
791.764, 1295.215
793.048, 1142.006
794.332, 1470.783
795.616, 1382.541
796.900, 1622.285
798.183, 1595.012
799.467, 1652.727
800.750, 1887.422
802.033, 2008.873
803.316, 2702.539
804.598, 2818.193
805.880, 4000.830
807.163, 5163.457
808.445, 6172.062
809.726, 7807.658
811.008, 9211.238
812.289, 10167.807
813.570, 10789.359
814.851, 10029.896
816.132, 8600.424
817.413, 6600.934
818.693, 5416.432
819.973, 4024.912
821.253, 2963.381
822.533, 2342.832
823.813, 1857.271
825.092, 1489.197
826.371, 1256.957
827.650, 959.354
828.929, 956.160
830.208, 959.047
831.486, 558.689
832.764, 625.031
834.042, 435.643
835.320, 399.303
836.598, 410.592
837.875, 427.500
839.152, 296.076
840.429, 428.062
841.706, 296.055
842.983, 230.662
844.259, 338.098
845.536, 205.521
846.812, 277.299
848.088, 105.287
849.363, 315.230
850.639, 287.420
851.914, 24.994
853.189, 46.607
854.464, 169.350
855.739, 258.984
857.013, 27.311
858.288, 116.266
859.562, 134.809
860.836, 178.650
862.110, 216.234
863.383, 189.717
864.656, 8.965
865.930, 78.902
867.203, 163.838
868.475, 164.779
869.748, 15.281
871.020, 133.646
872.292, 74.572
873.564, 6.502
874.836, 111.424
876.108, 147.650
877.379, 142.203
878.650, 28.053
879.922, 8.043
881.192, 91.145
882.463, 79.715
883.733, 66.428
885.004, 153.404
886.274, 78.232
887.544, 189.066
888.813, 22.104
890.083, 12.717
891.352, 148.535
892.621, 32.645
893.890, 30.166
895.159, 130.025
896.427, 22.736
897.695, 12.592
898.964, 11.277
900.232, 73.053
901.499, 8.834
902.767, 133.617
904.034, 61.557
905.301, 160.244
906.568, 231.070
907.835, 31.906
909.102, 55.742
910.368, 74.602
911.634, 110.475
912.900, 69.350
914.166, 252.229
915.432, 91.107
916.697, 3.023
917.962, 206.938
919.227, 60.893
920.492, 64.865
921.757, 31.863
923.021, 104.873
924.285, 163.887
925.550, 137.902
926.813, 182.924
928.077, 120.951
929.341, 130.977
930.604, 270.008
931.867, 91.049
933.130, 100.090
934.393, 327.141
935.655, 11.805
936.918, 188.250
938.180, 39.305
939.442, 28.363
940.703, 279.428
941.965, 395.490
943.226, 398.848
944.488, 199.629
945.749, 401.701
947.009, 229.775
948.270, 181.848
949.530, 195.930
950.791, 264.010
952.051, 143.092
953.311, 29.818
954.570, 301.260
955.830, 328.346
957.089, 204.434
958.348, 378.527
959.607, 347.625
960.866, 194.723
962.124, 136.836
963.383, 300.955
964.641, 208.074
965.899, 320.230
967.156, 233.387
968.414, 383.547
969.671, 505.711
970.928, 339.881
972.185, 506.055
973.442, 539.238
974.699, 792.424
975.955, 735.666
977.211, 685.912
978.468, 815.166
979.723, 802.422
980.979, 647.689
982.234, 1167.969
983.490, 664.258
984.745, 1102.549
986.000, 1343.854
987.254, 1122.205
988.509, 1713.564
989.763, 1775.945
991.017, 2139.334
992.271, 2498.732
993.525, 2649.203
994.779, 2601.688
996.032, 2755.270
997.285, 2541.875
998.538, 1908.572
999.791, 2119.230
1001.044, 1620.990
1002.296, 1768.758
1003.548, 1511.328
1004.800, 1487.010
1006.052, 1391.893
1007.304, 1381.781
1008.555, 1306.371
1009.807, 1241.562
1011.058, 946.262
1012.309, 1133.219
1013.559, 939.006
1014.810, 901.004
1016.060, 1051.836
1017.310, 906.887
1018.560, 595.592
1019.810, 731.682
1021.060, 863.543
1022.309, 658.619
1023.558, 869.025
1024.807, 754.631
1026.056, 749.402
1027.305, 657.684
1028.553, 616.938
1029.801, 777.510
1031.049, 640.592
1032.297, 703.854
1033.545, 903.969
1034.793, 604.402
1036.040, 666.742
1037.287, 775.152
1038.534, 819.613
1039.781, 869.092
1041.027, 870.883
1042.274, 806.344
1043.520, 877.174
1044.766, 721.787
1046.012, 820.438
1047.257, 740.020
1048.503, 797.512
1049.748, 522.637
1050.993, 910.039
1052.238, 767.051
1053.483, 451.482
1054.727, 604.426
1055.971, 632.475
1057.216, 488.783
1058.459, 548.279
1059.703, 572.586
1060.947, 361.891
1062.190, 329.576
1063.433, 490.289
1064.676, 565.092
1065.919, 264.516
1067.162, 662.945
1068.404, 270.314
1069.646, 230.902
1070.888, 575.545
1072.130, 621.189
1073.372, 495.660
1074.613, 602.205
1075.855, 479.730
1077.096, 399.127
1078.337, 840.156
1079.578, 368.449
1080.818, 637.686
1082.059, 603.850
1083.299, 933.336
1084.539, 799.076
1085.779, 859.930
1087.018, 989.715
1088.258, 1163.020
1089.497, 1181.191
1090.736, 1374.086
1091.975, 1706.629
1093.213, 1730.010
1094.452, 2400.932
1095.690, 2433.070
1096.928, 2862.316
1098.166, 3069.852
1099.404, 3236.902
1100.642, 2719.658
1101.879, 2845.725
1103.116, 2450.701
1104.353, 2275.395
1105.590, 1756.920
1106.827, 1716.982
1108.063, 1461.406
1109.299, 1441.896
1110.536, 1165.877
1111.771, 1255.838
1113.007, 1033.943
1114.243, 1247.559
1115.478, 1243.771
1116.713, 1376.850
1117.948, 1606.871
1119.183, 1404.787
1120.418, 1841.789
1121.652, 2367.500
1122.886, 2391.762
1124.120, 2298.984
1125.354, 1921.660
1126.588, 1891.000
1127.821, 1512.145
1129.055, 1584.377
1130.288, 1587.381
1131.521, 1455.250
1132.753, 1407.629
1133.986, 1409.373
1135.218, 2010.066
1136.450, 1595.465
1137.682, 2048.355
1138.914, 1637.166
1140.146, 1901.512
1141.377, 1653.404
1142.609, 1299.008
1143.840, 1319.303
1145.071, 1184.900
1146.301, 1101.025
1147.532, 869.096
1148.762, 674.324
1149.992, 510.064
1151.222, 484.055
1152.452, 607.266
1153.682, 394.078
1154.911, 482.297
1156.140, 361.986
1157.369, 135.168
1158.598, 319.771
1159.827, 494.746
1161.055, 180.139
1162.284, 306.264
1163.512, 256.229
1164.740, 342.961
1165.967, 31.201
1167.195, 266.617
1168.422, 148.867
1169.650, 336.605
1170.877, 12.006
1172.103, 14.883
1173.330, 133.410
1174.557, 334.393
1175.783, 180.348
1177.009, 188.137
1178.235, 206.195
1179.461, 251.334
1180.686, 83.621
1181.912, 322.404
1183.137, 275.865
1184.362, 55.859
1185.587, 251.412
1186.811, 282.553
1188.036, 169.299
1189.260, 220.736
1190.484, 125.221
1191.708, 202.359
1192.932, 19.535
1194.155, 207.373
1195.378, 58.682
1196.602, 310.209
1197.825, 76.613
1199.047, 370.652
1200.270, 78.178
1201.492, 432.535
1202.715, 22.852
1203.937, 311.695
1205.159, 256.111
1206.380, 312.484
1207.602, 314.053
1208.823, 223.105
1210.044, 217.357
1211.265, 195.639
1212.486, 286.760
1213.707, 248.818
1214.927, 299.648
1216.147, 246.410
1217.367, 233.244
1218.587, 228.771
1219.807, 86.246
1221.027, 253.652
1222.246, 79.963
1223.465, 287.191
1224.684, 505.246
1225.903, 308.873
1227.121, 25.762
1228.340, 336.564
1229.558, 257.227
1230.776, 194.705
1231.994, 318.086
1233.212, 178.400
1234.429, 290.609
1235.646, 117.742
1236.864, 413.791
1238.081, 224.746
1239.297, 260.641
1240.514, 366.426
1241.730, 312.115
1242.947, 281.717
1244.163, 209.236
1245.378, 321.982
1246.594, 456.322
1247.810, 117.775
1249.025, 383.932
1250.240, 158.998
1251.455, 186.973
1252.670, 293.855
1253.885, 202.648
1255.099, 182.338
1256.313, 10.936
1257.527, 298.438
1258.741, 258.857
1259.955, 63.807
1261.168, 222.418
1262.382, 248.559
1263.595, 264.656
1264.808, 111.625
1266.021, 256.504
1267.233, 50.748
1268.446, 183.467
1269.658, 135.891
1270.870, 310.629
1272.082, 164.084
1273.294, 185.469
1274.505, 170.535
1275.716, 204.443
1276.928, 229.369
1278.139, 338.895
1279.349, 243.414
1280.560, 247.820
1281.770, 128.141
1282.981, 5.570
1284.191, 204.332
1285.401, 134.184
1286.610, 39.900
1287.820, 256.484
1289.029, 261.979
1290.239, 258.453
1291.448, 78.779
1292.656, 175.068
1293.865, 346.807
1295.073, 108.617
1296.282, 124.400
1297.490, 158.592
1298.698, 206.793
1299.906, 339.059
1301.113, 221.691
1302.320, 161.699
1303.528, 217.203
1304.735, 17.984
1305.942, 124.895
1307.148, 156.109
1308.355, 108.902
1309.561, 452.426
1310.767, 186.508
1311.973, 178.277
1313.179, 37.176
1314.384, 372.406
1315.590, 106.742
1316.795, 266.285
1318.000, 22.949
1319.205, 286.676
1320.410, 296.414
1321.614, 72.590
1322.819, 694.902
1324.023, 68.020
1325.227, 502.055
1326.431, 299.277
1327.634, 100.332
1328.838, 237.945
1330.041, 336.984
1331.244, 483.656
1332.447, 279.215
1333.650, 346.820
1334.852, 329.605
1336.055, 206.102
1337.257, 392.992
1338.459, 240.117
1339.661, 522.359
1340.862, 466.617
1342.064, 302.625
1343.265, 382.133
1344.466, 319.910
1345.667, 414.766
1346.868, 537.922
1348.068, 626.891
1349.269, 605.762
1350.469, 589.875
1351.669, 561.805
1352.869, 581.355
1354.069, 546.277
1355.268, 385.160
1356.468, 734.859
1357.667, 595.402
1358.866, 439.535
1360.065, 554.004
1361.263, 338.598
1362.462, 445.379
1363.660, 406.574
1364.858, 351.352
1366.056, 468.258
1367.254, 545.375
1368.451, 520.258
1369.649, 156.637
1370.846, 497.812
1372.043, 359.879
1373.240, 348.242
1374.436, 426.492
1375.633, 397.898
1376.829, 465.160
1378.025, 446.906
1379.221, 533.273
1380.417, 368.422
1381.613, 338.070
1382.808, 212.535
1384.003, 361.719
1385.199, 406.613
1386.393, 299.031
1387.588, 520.656
1388.783, 116.320
1389.977, 429.262
1391.171, 131.090
1392.365, 238.801
1393.559, 363.383
1394.753, 442.352
1395.946, 335.777
1397.140, 241.008
1398.333, 371.598
1399.526, 357.219
1400.719, 303.812
1401.911, 248.953
1403.104, 364.168
1404.296, 178.359
1405.488, 367.438
1406.680, 49.125
1407.872, 205.969
1409.063, 330.879
1410.255, 23.672
1411.446, 227.824
1412.637, 97.527
1413.828, 204.848
1415.018, 360.547
1416.209, 132.730
1417.399, 36.320
1418.589, 234.504
1419.779, 184.930
1420.969, 184.148
1422.159, 44.758
1423.348, 35.414
1424.537, 190.496
1425.726, 0.000
##END=



