##NAMES=Microcline
##RRUFFID=R040154
##IDEAL CHEMISTRY=KAlSi_3_O_8_
##LOCALITY=Mitchell County, North Carolina, USA
##OWNER=RRUFF
##SOURCE=University of Arizona Mineral Museum
##DESCRIPTION=White cleavage fragment with some perthitic character
##STATUS=The identification of this mineral has been confirmed by X-ray diffraction and chemical analysis
##URL=rruff.info/R040154
##MEASURED CHEMISTRY=(K_0.90_Na_0.09_Ba_0.01_)Al_1.00_(Si_2.99_Al_0.01_)_Î£=3_O_8_
##PIN_ID=L00079
##ORIENTATION=Laser parallel to a* (1 0 0). Fiducial mark perpendicular to laser is parallel to -b [0 -1 0]
86.404, 0.000
87.798, 1.474
89.193, 12.193
90.587, 96.561
91.981, 132.073
93.375, 151.290
94.768, 219.075
96.161, 297.410
97.554, 478.629
98.947, 656.748
100.340, 915.326
101.732, 1237.807
103.124, 1552.606
104.516, 1957.908
105.908, 2370.371
107.300, 2579.601
108.691, 2729.045
110.082, 2541.259
111.473, 2567.879
112.864, 2632.608
114.254, 2660.201
115.644, 2819.462
117.034, 2835.273
118.424, 2987.454
119.813, 3021.021
121.203, 3347.815
122.592, 3442.175
123.981, 3783.869
125.369, 4067.801
126.758, 4324.312
128.146, 4205.338
129.534, 4163.819
130.922, 3516.708
132.309, 3163.982
133.696, 2525.617
135.083, 2124.592
136.470, 1833.885
137.857, 1779.479
139.243, 1554.364
140.630, 1656.523
142.016, 1697.944
143.401, 1796.618
144.787, 1975.891
146.172, 2191.783
147.557, 2315.893
148.942, 2486.164
150.327, 2520.674
151.711, 2579.053
153.096, 2664.347
154.480, 2669.553
155.863, 2729.084
157.247, 2760.013
158.630, 2707.979
160.013, 2643.133
161.396, 2567.863
162.779, 2462.827
164.161, 2142.471
165.544, 2007.546
166.926, 1849.670
168.308, 1824.847
169.689, 1696.006
171.070, 1998.991
172.452, 2006.885
173.833, 2000.822
175.213, 2284.824
176.594, 2375.963
177.974, 2645.198
179.354, 2837.508
180.734, 2711.866
182.114, 2473.283
183.493, 2442.764
184.872, 2328.312
186.251, 2077.930
187.630, 1869.624
189.008, 1716.393
190.387, 1672.237
191.765, 1448.159
193.143, 1428.155
194.520, 1252.227
195.898, 1321.372
197.275, 1269.590
198.652, 1383.880
200.029, 1506.240
201.405, 1431.672
202.782, 1498.972
204.158, 1715.035
205.534, 1886.824
206.909, 1725.153
208.285, 1905.537
209.660, 1808.978
211.035, 1428.471
212.410, 1217.018
213.784, 856.096
215.159, 674.890
216.533, 592.553
217.907, 472.575
219.281, 262.360
220.654, 208.505
222.027, 57.623
223.400, 62.834
224.773, 2.902
226.146, 19.198
227.518, 42.227
228.891, 101.818
230.263, 131.365
231.634, 123.867
233.006, 127.326
234.377, 169.741
235.748, 158.117
237.119, 236.129
238.490, 143.748
239.860, 17.279
241.231, 40.558
242.601, 25.871
243.970, 129.134
245.340, 177.314
246.709, 158.508
248.079, 500.738
249.448, 530.006
250.816, 785.312
252.185, 953.813
253.553, 1097.969
254.921, 1407.418
256.289, 1669.844
257.657, 1969.950
259.024, 2385.547
260.391, 2697.277
261.758, 3093.191
263.125, 3473.126
264.492, 3747.707
265.858, 3987.606
267.224, 4054.142
268.590, 3589.260
269.956, 3520.522
271.321, 3219.978
272.687, 2961.607
274.052, 3027.396
275.416, 3498.331
276.781, 4019.400
278.146, 4670.603
279.510, 5625.923
280.874, 6719.352
282.237, 8066.893
283.601, 8610.537
284.964, 9342.266
286.327, 9902.082
287.690, 9533.966
289.053, 8773.928
290.416, 8169.943
291.778, 6909.010
293.140, 5774.129
294.502, 4395.309
295.863, 3416.530
297.225, 2559.793
298.586, 1810.094
299.947, 1469.433
301.308, 1071.806
302.668, 761.214
304.029, 610.654
305.389, 504.127
306.749, 331.630
308.108, 283.159
309.468, 178.717
310.827, 100.496
312.186, 50.826
313.545, 30.482
314.903, 22.852
316.262, 100.216
317.620, 75.594
318.978, 53.981
320.336, 1.378
321.693, 28.787
323.051, 217.735
324.408, 112.195
325.765, 544.564
327.121, 562.821
328.478, 544.086
329.834, 701.362
331.190, 589.650
332.546, 387.949
333.902, 387.260
335.257, 136.584
336.612, 137.920
337.967, 27.268
339.322, 53.376
340.677, 93.029
342.031, 137.701
343.385, 68.403
344.739, 117.869
346.093, 97.873
347.446, 108.629
348.799, 61.420
350.153, 8.773
351.505, 76.967
352.858, 121.167
354.210, 172.205
355.563, 190.592
356.915, 260.814
358.267, 212.045
359.618, 270.299
360.969, 295.559
362.321, 459.826
363.672, 819.111
365.022, 1148.385
366.373, 1509.596
367.723, 1945.782
369.073, 2479.966
370.423, 3010.162
371.773, 3176.402
373.122, 3198.646
374.471, 2553.927
375.821, 2015.221
377.169, 1557.555
378.518, 1114.102
379.866, 737.089
381.215, 463.387
382.563, 180.608
383.910, 36.836
385.258, 16.062
386.605, 39.294
387.952, 109.536
389.299, 69.628
390.646, 107.246
391.992, 34.741
393.339, 29.612
394.685, 161.694
396.031, 350.752
397.376, 507.389
398.722, 802.548
400.067, 979.136
401.412, 1201.637
402.757, 1228.239
404.101, 1387.220
405.446, 1097.163
406.790, 1058.111
408.134, 778.064
409.478, 825.024
410.821, 621.990
412.165, 427.959
413.508, 531.935
414.851, 514.945
416.193, 410.990
417.536, 293.062
418.878, 151.159
420.220, 16.273
421.562, 50.615
422.904, 75.461
424.245, 16.545
425.586, 61.381
426.927, 78.646
428.268, 25.676
429.609, 21.305
430.949, 186.680
432.289, 256.670
433.629, 420.661
434.969, 269.655
436.309, 370.649
437.648, 570.645
438.987, 629.535
440.326, 805.893
441.665, 1105.126
443.003, 1597.847
444.342, 2060.504
445.680, 2763.762
447.018, 3507.738
448.355, 4347.709
449.693, 5451.344
451.030, 6550.305
452.367, 7332.354
453.704, 7555.336
455.041, 7645.581
456.377, 7664.515
457.713, 6500.439
459.049, 6019.356
460.385, 5816.266
461.721, 6057.166
463.056, 6775.066
464.391, 7726.947
465.726, 9943.822
467.061, 12234.685
468.395, 15579.539
469.730, 20183.381
471.064, 24152.217
472.398, 29838.039
473.731, 33538.852
475.065, 36187.406
476.398, 36451.258
477.731, 34603.191
479.064, 30654.301
480.397, 26533.406
481.729, 21802.988
483.062, 17585.215
484.394, 14130.941
485.725, 11102.666
487.057, 9046.393
488.389, 7454.111
489.720, 6240.824
491.051, 5578.526
492.382, 5265.217
493.712, 5129.928
495.043, 5307.627
496.373, 5845.317
497.703, 6724.996
499.032, 8570.094
500.362, 10832.308
501.691, 14014.291
503.020, 17992.775
504.349, 22958.953
505.678, 28581.371
507.007, 34098.812
508.335, 38037.602
509.663, 41253.891
510.991, 43850.777
512.319, 43788.348
513.646, 42079.902
514.973, 36425.742
516.300, 30329.279
517.627, 23699.062
518.954, 18149.229
520.280, 14328.139
521.607, 11140.089
522.933, 8786.131
524.259, 7012.892
525.584, 5821.391
526.910, 4925.679
528.235, 4252.191
529.560, 3675.847
530.885, 2893.969
532.209, 2700.829
533.534, 2480.130
534.858, 2108.805
536.182, 1829.104
537.506, 1839.439
538.829, 1575.782
540.152, 1412.478
541.476, 1456.387
542.799, 971.967
544.121, 1081.021
545.444, 1046.464
546.766, 1017.211
548.088, 980.262
549.410, 864.569
550.732, 783.408
552.053, 637.560
553.375, 581.114
554.696, 522.472
556.017, 585.838
557.337, 522.215
558.658, 396.599
559.978, 264.006
561.298, 460.421
562.618, 302.822
563.938, 342.211
565.257, 439.588
566.576, 323.951
567.895, 332.951
569.214, 350.618
570.533, 408.670
571.851, 394.354
573.170, 486.676
574.488, 568.009
575.805, 686.323
577.123, 725.653
578.440, 861.965
579.758, 1109.339
581.075, 839.076
582.391, 1102.029
583.708, 807.314
585.024, 680.257
586.341, 654.156
587.657, 605.661
588.972, 582.801
590.288, 241.990
591.603, 296.171
592.918, 175.332
594.233, 217.477
595.548, 131.603
596.863, 10.710
598.177, 75.781
599.491, 85.830
600.805, 5.141
602.119, 18.846
603.432, 83.797
604.746, 194.728
606.059, 117.639
607.372, 3.468
608.685, 293.381
609.997, 42.236
611.309, 45.062
612.621, 13.140
613.933, 222.607
615.245, 162.335
616.557, 167.043
617.868, 131.730
619.179, 229.400
620.490, 116.051
621.801, 341.680
623.111, 184.289
624.421, 432.879
625.731, 167.450
627.041, 617.001
628.351, 440.532
629.660, 468.043
630.970, 620.535
632.279, 395.882
633.588, 666.359
634.896, 442.877
636.205, 667.510
637.513, 584.100
638.821, 889.570
640.129, 977.154
641.437, 1110.604
642.744, 1318.361
644.051, 1343.943
645.358, 1624.332
646.665, 1708.848
647.972, 1784.588
649.278, 1900.910
650.584, 1805.438
651.890, 1998.719
653.196, 1882.977
654.502, 1829.217
655.807, 1781.434
657.113, 1191.629
658.418, 1193.826
659.722, 954.029
661.027, 714.254
662.331, 565.480
663.636, 648.721
664.940, 193.971
666.244, 471.232
667.547, 227.498
668.851, 373.750
670.154, 177.979
671.457, 115.186
672.760, 272.463
674.062, 120.656
675.365, 11.898
676.667, 108.488
677.969, 104.984
679.271, 6.215
680.572, 5.631
681.874, 165.297
683.175, 78.309
684.476, 20.621
685.777, 15.664
687.077, 91.551
688.378, 108.402
689.678, 62.846
690.978, 13.732
692.278, 206.336
693.577, 143.486
694.877, 220.779
696.176, 19.699
697.475, 23.512
698.774, 154.445
700.072, 159.820
701.371, 19.986
702.669, 39.857
703.967, 164.697
705.265, 532.619
706.562, 310.607
707.860, 251.715
709.157, 564.299
710.454, 370.162
711.751, 673.740
713.047, 422.875
714.344, 636.920
715.640, 279.975
716.936, 369.008
718.232, 425.887
719.527, 286.031
720.823, 334.377
722.118, 490.373
723.413, 122.354
724.708, 262.932
726.002, 433.484
727.297, 152.078
728.591, 341.963
729.885, 468.832
731.179, 259.277
732.472, 262.445
733.766, 484.172
735.059, 531.535
736.352, 669.668
737.645, 797.180
738.937, 1021.574
740.230, 1080.879
741.522, 1281.551
742.814, 1483.994
744.106, 1964.566
745.397, 2389.820
746.689, 2473.432
747.980, 2818.719
749.271, 2744.895
750.562, 2778.043
751.853, 2328.164
753.143, 2227.365
754.433, 1922.072
755.723, 1618.875
757.013, 1800.670
758.303, 1765.990
759.592, 1945.682
760.881, 1987.625
762.170, 2240.543
763.459, 2323.852
764.748, 1973.719
766.036, 2159.465
767.325, 1694.246
768.613, 1584.730
769.901, 1453.498
771.188, 1171.240
772.476, 1192.959
773.763, 881.650
775.050, 1105.320
776.337, 863.955
777.624, 819.574
778.910, 761.170
780.196, 613.742
781.482, 423.393
782.768, 271.916
784.054, 432.457
785.339, 470.932
786.625, 91.645
787.910, 443.066
789.195, 226.461
790.479, 199.836
791.764, 210.184
793.048, 258.508
794.332, 206.805
795.616, 249.080
796.900, 338.330
798.183, 0.557
799.467, 255.729
800.750, 198.875
802.033, 139.998
803.316, 475.096
804.598, 44.832
805.880, 433.166
807.163, 452.137
808.445, 463.086
809.726, 464.014
811.008, 794.918
812.289, 753.799
813.570, 873.660
814.851, 902.498
816.132, 752.316
817.413, 501.111
818.693, 671.881
819.973, 454.633
821.253, 339.363
822.533, 511.068
823.813, 389.752
825.092, 279.416
826.371, 198.768
827.650, 213.389
828.929, 146.277
830.208, 142.793
831.486, 109.803
832.764, 165.877
834.042, 169.828
835.320, 231.029
836.598, 181.461
837.875, 101.072
839.152, 154.428
840.429, 269.607
841.706, 130.289
842.983, 171.203
844.259, 208.643
845.536, 8.682
846.812, 146.055
848.088, 74.639
849.363, 195.607
850.639, 96.471
851.914, 183.910
853.189, 64.041
854.464, 68.779
855.739, 186.270
857.013, 176.566
858.288, 76.848
859.562, 93.064
860.836, 66.965
862.110, 41.148
863.383, 144.699
864.656, 26.467
865.930, 40.338
867.203, 54.133
868.475, 44.908
869.748, 43.041
871.020, 72.424
872.292, 4.162
873.564, 5.115
874.836, 22.588
876.108, 138.721
877.379, 134.271
878.650, 116.867
879.922, 87.453
881.192, 9.684
882.463, 110.752
883.733, 141.748
885.004, 117.764
886.274, 17.658
887.544, 169.068
888.813, 120.531
890.083, 53.801
891.352, 74.123
892.621, 192.438
893.890, 3.742
895.159, 49.033
896.427, 13.318
897.695, 200.594
898.964, 32.139
900.232, 62.107
901.499, 183.354
902.767, 196.592
904.034, 247.363
905.301, 86.090
906.568, 180.342
907.835, 213.594
909.102, 8.162
910.368, 152.084
911.634, 197.332
912.900, 161.578
914.166, 302.816
915.432, 46.053
916.697, 124.707
917.962, 402.477
919.227, 152.664
920.492, 179.852
921.757, 129.049
923.021, 147.244
924.285, 182.436
925.550, 210.621
926.813, 200.801
928.077, 213.977
929.341, 288.146
930.604, 284.314
931.867, 115.477
933.130, 23.633
934.393, 412.787
935.655, 36.941
936.918, 440.092
938.180, 89.758
939.442, 130.494
940.703, 190.607
941.965, 234.666
943.226, 53.611
944.488, 256.604
945.749, 143.705
947.009, 251.680
948.270, 270.781
949.530, 176.885
950.791, 251.477
952.051, 81.572
953.311, 106.521
954.570, 297.225
955.830, 292.322
957.089, 260.193
958.348, 265.287
959.607, 305.385
960.866, 212.484
962.124, 268.635
963.383, 320.830
964.641, 250.061
965.899, 391.336
967.156, 281.611
968.414, 176.889
969.671, 383.164
970.928, 258.441
972.185, 381.725
973.442, 341.010
974.699, 572.301
975.955, 457.643
977.211, 410.992
978.468, 583.250
979.723, 537.574
980.979, 395.633
982.234, 896.715
983.490, 268.666
984.745, 661.861
986.000, 625.102
987.254, 390.541
988.509, 799.871
989.763, 770.912
991.017, 997.193
992.271, 937.699
993.525, 1144.992
994.779, 1182.459
996.032, 1150.086
997.285, 1127.330
998.538, 725.949
999.791, 1187.914
1001.044, 682.801
1002.296, 961.547
1003.548, 902.533
1004.800, 737.088
1006.052, 829.842
1007.304, 729.865
1008.555, 934.908
1009.807, 801.889
1011.058, 740.824
1012.309, 889.660
1013.559, 518.029
1014.810, 649.111
1016.060, 776.475
1017.310, 779.264
1018.560, 483.123
1019.810, 595.955
1021.060, 861.816
1022.309, 638.816
1023.558, 988.537
1024.807, 461.039
1026.056, 860.873
1027.305, 860.697
1028.553, 1295.910
1029.801, 1225.506
1031.049, 1076.660
1032.297, 1182.506
1033.545, 1086.795
1034.793, 1307.594
1036.040, 1065.115
1037.287, 1173.240
1038.534, 1201.539
1039.781, 1343.057
1041.027, 1074.420
1042.274, 1304.662
1043.520, 1160.990
1044.766, 1118.961
1046.012, 1175.195
1047.257, 1219.625
1048.503, 1504.994
1049.748, 1250.990
1050.993, 1488.914
1052.238, 1577.303
1053.483, 1304.648
1054.727, 1139.047
1055.971, 1335.775
1057.216, 976.184
1058.459, 895.994
1059.703, 804.916
1060.947, 868.344
1062.190, 708.248
1063.433, 680.684
1064.676, 567.260
1065.919, 372.986
1067.162, 893.045
1068.404, 476.725
1069.646, 559.475
1070.888, 887.270
1072.130, 715.107
1073.372, 504.750
1074.613, 831.199
1075.855, 709.650
1077.096, 440.100
1078.337, 1081.551
1079.578, 760.002
1080.818, 934.451
1082.059, 1091.900
1083.299, 1143.459
1084.539, 1137.723
1085.779, 1209.725
1087.018, 1387.170
1088.258, 1585.598
1089.497, 1838.367
1090.736, 2066.807
1091.975, 2611.914
1093.213, 2853.346
1094.452, 3583.773
1095.690, 3815.742
1096.928, 4652.705
1098.166, 5149.957
1099.404, 5438.369
1100.642, 5077.924
1101.879, 5096.637
1103.116, 4791.051
1104.353, 4585.969
1105.590, 4299.373
1106.827, 4437.088
1108.063, 4146.148
1109.299, 4319.766
1110.536, 4481.521
1111.771, 4901.523
1113.007, 5490.617
1114.243, 6204.842
1115.478, 6605.008
1116.713, 7615.902
1117.948, 8650.371
1119.183, 9328.820
1120.418, 10779.887
1121.652, 11935.961
1122.886, 12645.777
1124.120, 12853.574
1125.354, 12033.672
1126.588, 11153.375
1127.821, 9805.057
1129.055, 8973.047
1130.288, 8180.234
1131.521, 7372.717
1132.753, 6754.768
1133.986, 6646.273
1135.218, 7002.561
1136.450, 6450.645
1137.682, 6929.980
1138.914, 6468.301
1140.146, 6123.816
1141.377, 5390.311
1142.609, 4704.381
1143.840, 4541.527
1145.071, 3864.201
1146.301, 3274.070
1147.532, 2899.879
1148.762, 2382.605
1149.992, 2023.955
1151.222, 1696.979
1152.452, 1785.146
1153.682, 1318.633
1154.911, 1458.453
1156.140, 1161.219
1157.369, 982.457
1158.598, 741.670
1159.827, 665.004
1161.055, 596.939
1162.284, 652.496
1163.512, 534.672
1164.740, 698.598
1165.967, 426.795
1167.195, 573.746
1168.422, 344.658
1169.650, 670.850
1170.877, 378.592
1172.103, 280.859
1173.330, 247.201
1174.557, 414.025
1175.783, 429.094
1177.009, 85.969
1178.235, 296.602
1179.461, 279.533
1180.686, 185.904
1181.912, 342.715
1183.137, 363.117
1184.362, 150.738
1185.587, 194.123
1186.811, 263.064
1188.036, 147.037
1189.260, 277.732
1190.484, 276.504
1191.708, 321.254
1192.932, 197.930
1194.155, 121.027
1195.378, 250.201
1196.602, 358.291
1197.825, 23.982
1199.047, 310.969
1200.270, 84.049
1201.492, 418.436
1202.715, 12.764
1203.937, 298.885
1205.159, 139.020
1206.380, 321.559
1207.602, 307.539
1208.823, 125.736
1210.044, 246.104
1211.265, 208.811
1212.486, 156.105
1213.707, 98.363
1214.927, 192.613
1216.147, 177.771
1217.367, 169.900
1218.587, 160.986
1219.807, 210.969
1221.027, 294.990
1222.246, 282.926
1223.465, 310.627
1224.684, 307.113
1225.903, 295.051
1227.121, 304.658
1228.340, 279.033
1229.558, 219.422
1230.776, 76.754
1231.994, 130.961
1233.212, 331.143
1234.429, 217.258
1235.646, 199.293
1236.864, 363.268
1238.081, 121.188
1239.297, 299.980
1240.514, 436.701
1241.730, 156.350
1242.947, 158.197
1244.163, 89.670
1245.378, 294.062
1246.594, 260.387
1247.810, 24.031
1249.025, 424.713
1250.240, 174.791
1251.455, 410.158
1252.670, 229.098
1253.885, 145.967
1255.099, 42.764
1256.313, 168.512
1257.527, 140.234
1258.741, 109.359
1259.955, 127.057
1261.168, 115.830
1262.382, 179.020
1263.595, 279.910
1264.808, 281.775
1266.021, 4.949
1267.233, 128.859
1268.446, 20.693
1269.658, 165.424
1270.870, 118.213
1272.082, 29.773
1273.294, 32.252
1274.505, 8.662
1275.716, 90.006
1276.928, 53.889
1278.139, 114.480
1279.349, 49.578
1280.560, 74.609
1281.770, 98.570
1282.981, 91.529
1284.191, 273.281
1285.401, 44.389
1286.610, 3.264
1287.820, 350.318
1289.029, 102.059
1290.239, 176.797
1291.448, 127.461
1292.656, 112.320
1293.865, 30.320
1295.073, 66.871
1296.282, 175.672
1297.490, 99.756
1298.698, 66.146
1299.906, 170.494
1301.113, 46.785
1302.320, 103.023
1303.528, 111.197
1304.735, 45.293
1305.942, 97.342
1307.148, 78.348
1308.355, 6.107
1309.561, 171.814
1310.767, 128.678
1311.973, 169.258
1313.179, 45.262
1314.384, 46.943
1315.590, 77.994
1316.795, 130.104
1318.000, 121.648
1319.205, 195.027
1320.410, 153.740
1321.614, 191.393
1322.819, 249.762
1324.023, 178.357
1325.227, 312.852
1326.431, 213.855
1327.634, 11.928
1328.838, 105.330
1330.041, 133.326
1331.244, 190.303
1332.447, 191.254
1333.650, 256.885
1334.852, 237.797
1336.055, 107.311
1337.257, 114.689
1338.459, 179.547
1339.661, 171.627
1340.862, 398.305
1342.064, 247.891
1343.265, 452.672
1344.466, 421.641
1345.667, 294.914
1346.868, 539.922
1348.068, 428.990
1349.269, 38.498
1350.469, 580.217
1351.669, 346.883
1352.869, 563.740
1354.069, 627.225
1355.268, 285.547
1356.468, 381.010
1357.667, 505.422
1358.866, 383.137
1360.065, 454.154
1361.263, 387.027
1362.462, 445.270
1363.660, 624.910
1364.858, 305.096
1366.056, 512.041
1367.254, 485.533
1368.451, 392.180
1369.649, 228.957
1370.846, 612.145
1372.043, 879.316
1373.240, 525.086
1374.436, 668.029
1375.633, 381.037
1376.829, 280.598
1378.025, 280.613
1379.221, 414.789
1380.417, 426.326
1381.613, 424.344
1382.808, 366.232
1384.003, 323.246
1385.199, 354.100
1386.393, 196.941
1387.588, 392.676
1388.783, 370.895
1389.977, 368.002
1391.171, 154.762
1392.365, 125.801
1393.559, 533.451
1394.753, 150.385
1395.946, 459.682
1397.140, 309.820
1398.333, 563.656
1399.526, 249.141
1400.719, 406.273
1401.911, 346.328
1403.104, 306.895
1404.296, 68.715
1405.488, 342.457
1406.680, 48.402
1407.872, 213.199
1409.063, 431.922
1410.255, 256.191
1411.446, 316.934
1412.637, 169.672
1413.828, 402.023
1415.018, 309.609
1416.209, 312.180
1417.399, 251.309
1418.589, 483.625
1419.779, 306.160
1420.969, 366.008
1422.159, 230.559
1423.348, 301.578
1424.537, 371.309
1425.726, 298.789
1426.915, 269.777
1428.104, 124.750
1429.293, 13.645
1430.481, 126.652
1431.669, 324.664
1432.857, 289.734
1434.045, 11.090
1435.233, 0.000
##END=



