##NAMES=Microcline
##RRUFFID=R050150
##IDEAL CHEMISTRY=KAlSi_3_O_8_
##LOCALITY=Crystal Peak area, Park/Teller Counties, Colorado, USA
##OWNER=RRUFF
##SOURCE=Dave Bunk Minerals
##DESCRIPTION=Pale blue prismatic crystals
##STATUS=The identification of this mineral has been confirmed by X-ray diffraction and chemical analysis
##URL=rruff.info/R050150
##MEASURED CHEMISTRY=(K_0.95_Na_0.05_)_Î£=1_Al_1.00_Si_3.00_O_8_
##PIN_ID=L00945
##ORIENTATION=Laser parallel to a* (1 0 0). Fiducial mark perpendicular to laser is parallel to b [0 1 0]
137.6830, 0.0000000E+00
138.9210, 1.007813
140.1580, 164.2500
141.3950, 163.1768
142.6330, 229.3506
143.8690, 260.6660
145.1060, 374.4805
146.3430, 650.4160
147.5790, 834.6230
148.8150, 1001.231
150.0510, 1029.776
151.2870, 1082.586
152.5220, 1029.097
153.7580, 960.3877
154.9930, 796.2305
156.2280, 553.1914
157.4620, 375.0459
158.6970, 267.9268
159.9310, 254.9980
161.1660, 197.9824
162.4000, 219.8125
163.6330, 247.3682
164.8670, 185.8799
166.1000, 236.5977
167.3340, 560.7080
168.5670, 835.3662
169.8000, 1485.708
171.0320, 1662.853
172.2650, 1841.324
173.4970, 1945.848
174.7290, 2279.789
175.9610, 2463.166
177.1930, 2863.981
178.4240, 2855.979
179.6550, 2816.623
180.8870, 2693.627
182.1170, 2363.610
183.3480, 2052.678
184.5790, 1649.924
185.8090, 1311.010
187.0390, 1275.021
188.2690, 1292.561
189.4990, 1351.397
190.7290, 1355.258
191.9580, 1392.199
193.1870, 1315.971
194.4160, 1398.538
195.6450, 1480.883
196.8740, 1543.008
198.1020, 1412.924
199.3310, 1533.644
200.5590, 1532.188
201.7870, 1422.569
203.0140, 1105.783
204.2420, 924.8379
205.4690, 722.7432
206.6960, 304.5068
207.9230, 356.1367
209.1500, 102.6377
210.3760, 14.01953
211.6030, 36.67090
212.8290, 29.30273
214.0550, 98.24219
215.2810, 101.4463
216.5060, 149.7578
217.7320, 126.1055
218.9570, 98.39453
220.1820, 102.6318
221.4070, 69.74023
222.6320, 13.93359
223.8560, 31.51172
225.0800, 122.5156
226.3040, 104.6484
227.5280, 245.2061
228.7520, 188.3154
229.9760, 158.0234
231.1990, 126.4707
232.4220, 298.3672
233.6450, 321.2578
234.8680, 489.1377
236.0910, 259.0059
237.3130, 477.8623
238.5350, 352.1113
239.7570, 412.6270
240.9790, 711.5049
242.2010, 670.4121
243.4220, 903.4365
244.6430, 1258.358
245.8640, 1782.046
247.0850, 2040.171
248.3060, 2716.789
249.5270, 3455.287
250.7470, 3968.173
251.9670, 4747.795
253.1870, 5777.205
254.4070, 6821.643
255.6260, 8100.008
256.8460, 9285.352
258.0650, 10635.66
259.2840, 11383.94
260.5030, 12089.22
261.7220, 12119.79
262.9400, 12189.47
264.1580, 12620.28
265.3760, 12533.53
266.5940, 12159.78
267.8120, 11413.02
269.0290, 10575.25
270.2470, 9801.486
271.4640, 8672.719
272.6810, 8151.946
273.8980, 7336.174
275.1140, 7122.402
276.3310, 7039.630
277.5470, 6943.859
278.7630, 7143.090
279.9790, 7337.322
281.1940, 7480.559
282.4100, 7494.797
283.6250, 7460.098
284.8400, 7255.232
286.0550, 6890.235
287.2700, 6453.666
288.4850, 5802.637
289.6990, 4871.678
290.9130, 4052.741
292.1270, 3085.797
293.3410, 2394.826
294.5540, 1768.812
295.7680, 1427.732
296.9810, 1114.574
298.1940, 881.3311
299.4070, 604.0000
300.6200, 467.4619
301.8320, 374.0752
303.0450, 241.4785
304.2570, 174.7559
305.4690, 69.88184
306.6800, 14.85547
307.8920, 8.677734
309.1030, 68.36523
310.3150, 100.0654
311.5260, 34.65039
312.7360, 141.3398
313.9470, 108.1729
315.1580, 115.1377
316.3680, 188.2227
317.5780, 91.45020
318.7880, 20.79590
319.9980, 54.74316
321.2070, 77.04199
322.4170, 82.00488
323.6260, 227.5332
324.8350, 323.6855
326.0430, 347.6348
327.2520, 394.4814
328.4610, 438.6748
329.6690, 526.9980
330.8770, 461.6543
332.0850, 512.2871
333.2920, 440.8936
334.5000, 496.4746
335.7070, 319.0361
336.9140, 280.5752
338.1210, 97.09082
339.3280, 121.5811
340.5350, 170.0479
341.7410, 110.4922
342.9470, 11.91211
344.1540, 29.30566
345.3590, 10.67383
346.5650, 62.01562
347.7710, 42.93652
348.9760, 51.36328
350.1810, 66.89648
351.3860, 55.13867
352.5910, 140.2617
353.7950, 139.4717
355.0000, 267.3125
356.2040, 203.8428
357.4080, 334.2939
358.6120, 344.2500
359.8150, 167.9170
361.0190, 421.4199
362.2220, 372.9248
363.4250, 576.9473
364.6280, 637.7432
365.8310, 813.3027
367.0340, 851.7520
368.2360, 954.5410
369.4380, 1025.999
370.6400, 984.6885
371.8420, 1144.615
373.0440, 1128.452
374.2450, 933.5967
375.4470, 733.3760
376.6480, 615.8770
377.8490, 367.5811
379.0490, 310.5576
380.2500, 230.9053
381.4500, 147.6377
382.6510, 139.9805
383.8510, 74.11133
385.0500, 214.4375
386.2500, 43.74219
387.4500, 11.02051
388.6490, 186.2812
389.8480, 250.5000
391.0470, 137.7080
392.2460, 194.9150
393.4440, 322.1211
394.6430, 548.3281
395.8410, 739.5371
397.0390, 837.7500
398.2370, 993.9697
399.4340, 1220.193
400.6320, 1332.430
401.8290, 1530.703
403.0260, 1894.986
404.2230, 2269.276
405.4200, 2459.575
406.6170, 2376.914
407.8130, 2430.270
409.0090, 2411.289
410.2050, 2224.996
411.4010, 2279.382
412.5970, 2084.775
413.7920, 1945.181
414.9880, 1938.594
416.1830, 1316.025
417.3780, 994.4785
418.5730, 764.9688
419.7670, 489.4648
420.9620, 420.9824
422.1560, 142.5088
423.3500, 199.0459
424.5440, 107.5908
425.7380, 107.1426
426.9310, 42.71094
428.1240, 376.2852
429.3180, 345.8457
430.5110, 478.3926
431.7030, 507.9229
432.8960, 507.4346
434.0890, 834.9307
435.2810, 972.4102
436.4730, 1209.871
437.6650, 1504.315
438.8570, 1961.741
440.0480, 2450.151
441.2390, 3270.545
442.4310, 4585.923
443.6220, 6098.285
444.8120, 8204.634
446.0030, 10253.96
447.1940, 12206.97
448.3840, 13791.69
449.5740, 15015.51
450.7640, 16290.96
451.9540, 17018.75
453.1430, 17307.56
454.3330, 17285.87
455.5220, 16679.72
456.7110, 15411.44
457.9000, 13432.89
459.0890, 11499.36
460.2770, 9665.397
461.4650, 8164.249
462.6540, 7466.540
463.8420, 7352.497
465.0290, 7683.348
466.2170, 8650.271
467.4050, 9865.108
468.5920, 10989.29
469.7790, 12157.49
470.9660, 12700.68
472.1530, 13647.15
473.3390, 14535.40
474.5250, 14889.95
475.7120, 15025.24
476.8980, 14673.46
478.0840, 13623.04
479.2690, 12470.26
480.4550, 11192.45
481.6400, 9444.768
482.8250, 8277.302
484.0100, 7395.072
485.1950, 6582.559
486.3800, 5795.694
487.5640, 5281.349
488.7480, 4556.527
489.9320, 4386.695
491.1160, 3965.656
492.3000, 3646.155
493.4840, 3713.430
494.6670, 4026.627
495.8500, 4405.424
497.0330, 5073.234
498.2160, 5967.576
499.3990, 7316.722
500.5810, 9413.125
501.7630, 12344.56
502.9460, 16202.79
504.1280, 20726.34
505.3090, 26048.96
506.4910, 31020.63
507.6720, 35209.36
508.8540, 38484.14
510.0350, 40957.95
511.2160, 43345.77
512.3960, 44070.62
513.5770, 43145.48
514.7570, 41158.36
515.9380, 37054.25
517.1180, 32112.17
518.2970, 26641.09
519.4770, 21145.05
520.6570, 16423.02
521.8360, 12829.99
523.0150, 10253.99
524.1940, 8142.001
525.3730, 6757.024
526.5510, 5685.811
527.7300, 4773.861
528.9080, 4072.566
530.0860, 3534.158
531.2640, 3287.248
532.4420, 2663.352
533.6200, 2390.469
534.7970, 2225.601
535.9740, 1815.745
537.1510, 1780.902
538.3280, 1700.075
539.5050, 1453.262
540.6810, 1478.461
541.8580, 1216.103
543.0340, 1102.270
544.2100, 983.5205
545.3860, 950.7734
546.5610, 863.3828
547.7370, 942.7988
548.9120, 864.9111
550.0870, 758.2158
551.2620, 654.5322
552.4370, 610.5820
553.6120, 527.1543
554.7860, 522.6934
555.9600, 480.5693
557.1340, 449.1592
558.3080, 471.5273
559.4820, 469.0830
560.6560, 453.4951
561.8290, 380.6924
563.0020, 323.4160
564.1750, 350.8193
565.3480, 297.2754
566.5210, 280.7402
567.6930, 336.9863
568.8660, 281.4160
570.0380, 257.9131
571.2100, 275.4209
572.3820, 305.9395
573.5530, 303.6602
574.7250, 321.0498
575.8960, 315.5615
577.0670, 351.1240
578.2380, 325.6963
579.4090, 368.2803
580.5800, 331.8750
581.7500, 447.4805
582.9210, 325.0977
584.0910, 386.7256
585.2610, 329.3730
586.4300, 69.03125
587.6000, 126.7031
588.7690, 215.3867
589.9390, 331.0840
591.1080, 153.7998
592.2770, 54.45996
593.4450, 38.68359
594.6140, 114.1016
595.7820, 129.0586
596.9500, 37.22949
598.1190, 27.34277
599.2860, 63.40527
600.4540, 13.36719
601.6220, 3.745117
602.7890, 22.91016
603.9560, 68.89160
605.1230, 20.32129
606.2900, 11.94629
607.4570, 24.88477
608.6230, 73.21484
609.7890, 51.55957
610.9560, 70.91504
612.1220, 11.71680
613.2870, 0.3408200
614.4530, 63.94336
615.6180, 34.55566
616.7840, 79.83594
617.9490, 13.75488
619.1140, 137.6777
620.2790, 160.1221
621.4430, 42.59277
622.6080, 404.0791
623.7720, 107.5791
624.9360, 246.0938
626.1000, 392.6279
627.2640, 528.1836
628.4270, 615.4980
629.5910, 590.3545
630.7540, 728.9678
631.9170, 793.5977
633.0800, 756.2627
634.2430, 1051.943
635.4050, 1021.660
636.5680, 1191.404
637.7300, 1411.163
638.8920, 1349.932
640.0540, 1607.711
641.2150, 1327.502
642.3770, 1883.302
643.5380, 1711.113
644.7000, 2088.934
645.8610, 2110.762
647.0210, 2253.600
648.1820, 2434.446
649.3430, 2602.309
650.5030, 2470.178
651.6630, 2552.078
652.8230, 2690.012
653.9830, 2455.952
655.1430, 2443.902
656.3020, 2355.858
657.4620, 2257.823
658.6210, 1889.793
659.7800, 1646.771
660.9390, 1409.764
662.0970, 1406.785
663.2560, 1068.820
664.4140, 1148.861
665.5720, 734.9082
666.7300, 698.9629
667.8880, 519.0234
669.0460, 503.0918
670.2030, 398.1680
671.3600, 306.2500
672.5180, 233.3398
673.6740, 250.4316
674.8310, 290.5312
675.9880, 227.6367
677.1440, 209.4160
678.3010, 168.8613
679.4570, 84.98242
680.6130, 20.89258
681.7690, 113.7773
682.9240, 11.71875
684.0800, 87.33594
685.2350, 3.392578
686.3900, 130.5488
687.5450, 44.55859
688.7000, 124.4082
689.8540, 128.3809
691.0090, 45.64258
692.1630, 93.31250
693.3170, 11.73047
694.4710, 131.2168
695.6250, 39.83008
696.7780, 43.90039
697.9320, 109.9980
699.0850, 34.84961
700.2380, 39.30078
701.3910, 9.525391
702.5440, 4.650391
703.6970, 103.1660
704.8490, 240.9863
706.0010, 19.18945
707.1530, 141.6211
708.3050, 153.4316
709.4570, 293.2480
710.6090, 131.0645
711.7600, 274.8848
712.9110, 318.7051
714.0620, 81.52930
715.2130, 343.3555
716.3640, 102.1836
717.5150, 361.0137
718.6650, 387.8457
719.8150, 295.6777
720.9650, 530.5156
722.1150, 443.3516
723.2650, 522.7441
724.4150, 593.5840
725.5640, 674.4238
726.7130, 704.2637
727.8630, 822.1074
729.0110, 990.9512
730.1600, 1193.795
731.3090, 1306.055
732.4570, 1608.758
733.6060, 1896.703
734.7540, 2159.100
735.9020, 2894.602
737.0490, 3145.889
738.1970, 3685.070
739.3440, 4269.637
740.4920, 5167.475
741.6390, 6240.316
742.7860, 7362.443
743.9320, 7896.389
745.0790, 9100.754
746.2250, 9367.434
747.3720, 9869.977
748.5180, 9981.797
749.6640, 9930.617
750.8100, 9460.154
751.9550, 8587.307
753.1010, 7349.770
754.2460, 6504.986
755.3910, 5523.318
756.5360, 4674.441
757.6810, 4000.227
758.8250, 3372.490
759.9700, 2899.059
761.1140, 2509.832
762.2580, 2205.602
763.4020, 2057.311
764.5460, 1558.322
765.6900, 1466.074
766.8330, 1419.844
767.9760, 1127.584
769.1200, 1021.318
770.2620, 959.0469
771.4050, 1051.770
772.5480, 944.9492
773.6900, 860.1387
774.8330, 803.8418
775.9750, 672.5371
777.1170, 831.3984
778.2590, 675.0801
779.4000, 784.7539
780.5420, 849.4219
781.6830, 675.0801
782.8240, 862.7324
783.9650, 938.3750
785.1060, 890.0117
786.2470, 781.1016
787.3870, 747.7227
788.5280, 919.3613
789.6680, 870.1230
790.8080, 1028.680
791.9480, 1008.266
793.0870, 1175.846
794.2270, 1373.416
795.3660, 1388.975
796.5060, 1373.525
797.6450, 1534.553
798.7830, 1728.617
799.9220, 2018.998
801.0610, 2147.514
802.1990, 2717.018
803.3370, 3479.512
804.4750, 4265.996
805.6130, 5325.473
806.7510, 6517.941
807.8890, 7424.395
809.0260, 8405.848
810.1630, 8903.285
811.3000, 9282.711
812.4370, 9178.123
813.5740, 9153.529
814.7110, 8313.926
815.8470, 7270.312
816.9830, 6208.688
818.1190, 5054.627
819.2550, 4013.043
820.3910, 3048.381
821.5270, 2298.717
822.6620, 1806.701
823.7970, 1508.883
824.9330, 1092.369
826.0670, 876.6719
827.2020, 799.9629
828.3370, 776.2949
829.4710, 605.5664
830.6060, 657.6445
831.7400, 505.9004
832.8740, 447.4238
834.0080, 340.6855
835.1410, 246.7598
836.2750, 493.9805
837.4080, 390.4199
838.5410, 321.3379
839.6740, 192.5762
840.8070, 536.7676
841.9400, 127.9492
843.0730, 336.3555
844.2050, 236.5234
845.3370, 75.68164
846.4690, 272.8320
847.6010, 260.9746
848.7330, 105.1094
849.8640, 100.2383
850.9960, 83.38867
852.1270, 195.4727
853.2580, 132.5781
854.3890, 59.67578
855.5200, 145.7656
856.6500, 116.8477
857.7810, 152.9199
858.9110, 2.986328
860.0410, 96.02930
861.1710, 93.06445
862.3010, 147.0918
863.4310, 156.1152
864.5600, 209.1289
865.6900, 98.13477
866.8190, 69.86719
867.9480, 192.0781
869.0770, 72.02148
870.2050, 175.9551
871.3340, 19.90625
872.4620, 40.84961
873.5900, 204.2129
874.7180, 94.60547
875.8460, 157.4160
876.9740, 137.2207
878.1010, 33.98047
879.2290, 104.2168
880.3560, 31.52734
881.4830, 36.87500
882.6100, 15.73242
883.7370, 169.3262
884.8630, 165.9121
885.9900, 192.1621
887.1160, 14.93359
888.2420, 164.6113
889.3680, 20.16211
890.4940, 2.292969
891.6200, 36.77344
892.7450, 146.7090
893.8700, 30.81445
894.9960, 161.6270
896.1210, 158.0625
897.2460, 91.49023
898.3700, 4.912109
899.4950, 24.22852
900.6190, 68.71289
901.7430, 37.10156
902.8670, 98.48633
903.9910, 129.8633
905.1150, 123.2324
906.2390, 99.59766
907.3620, 54.04492
908.4850, 38.73242
909.6080, 127.5430
910.7310, 189.8125
911.8540, 21.07617
912.9770, 140.3320
914.0990, 36.58398
915.2210, 53.82812
916.3440, 82.06641
917.4660, 58.30078
918.5870, 314.5312
919.7090, 184.7520
920.8310, 11.02930
921.9520, 140.1699
923.0730, 68.63672
924.1940, 86.49219
925.3150, 141.5938
926.4360, 97.67578
927.5560, 47.75195
928.6770, 181.8262
929.7970, 110.8926
930.9170, 114.9570
932.0370, 15.90625
933.1570, 80.86328
934.2760, 6.871094
935.3960, 24.10938
936.5150, 133.0840
937.6340, 176.0547
938.7530, 139.0215
939.8720, 223.9844
940.9910, 347.9434
942.1090, 37.89844
943.2280, 12.85352
944.3460, 154.8047
945.4640, 126.7520
946.5820, 156.6953
947.6990, 276.6738
948.8170, 208.6523
949.9340, 212.6504
951.0520, 218.6406
952.1690, 293.6328
953.2860, 259.6270
954.4030, 40.64844
955.5190, 221.6758
956.6360, 88.70117
957.7520, 87.72656
958.8680, 202.7852
959.9840, 202.8555
961.1000, 243.9238
962.2160, 195.9883
963.3310, 218.0664
964.4470, 97.14453
965.5620, 236.2266
966.6770, 352.3066
967.7920, 267.3965
968.9060, 245.5000
970.0210, 382.6348
971.1360, 393.7695
972.2500, 305.9141
973.3640, 364.0605
974.4780, 211.2129
975.5920, 466.3652
976.7050, 580.5137
977.8190, 475.6719
978.9320, 606.8301
980.0450, 611.9863
981.1580, 586.1426
982.2710, 687.2988
983.3840, 1067.457
984.4970, 911.6172
985.6090, 1263.775
986.7210, 1371.934
987.8330, 1597.092
988.9450, 1723.262
990.0570, 2062.443
991.1690, 2402.625
992.2800, 2345.809
993.3920, 2531.451
994.5030, 2375.654
995.6140, 2335.854
996.7250, 2273.057
997.8350, 2079.258
998.9460, 1729.465
1000.056, 1670.670
1001.167, 1440.805
1002.277, 1336.012
1003.387, 1260.225
1004.496, 1086.947
1005.606, 1074.980
1006.715, 848.1035
1007.825, 840.8945
1008.934, 787.1406
1010.043, 815.3926
1011.152, 764.6484
1012.260, 588.1914
1013.369, 523.3418
1014.477, 684.0762
1015.586, 501.4941
1016.694, 449.0527
1017.802, 581.3418
1018.909, 376.6348
1020.017, 389.9336
1021.124, 541.8516
1022.232, 404.1602
1023.339, 562.0020
1024.446, 250.8027
1025.553, 251.4629
1026.659, 542.8145
1027.766, 396.9004
1028.872, 385.2637
1029.979, 535.6289
1031.085, 330.0039
1032.191, 345.4375
1033.296, 554.5684
1034.402, 353.9609
1035.507, 454.3398
1036.613, 306.7441
1037.718, 513.1582
1038.823, 362.5781
1039.928, 373.0039
1041.032, 326.9746
1042.137, 386.9355
1043.241, 297.3828
1044.346, 274.8555
1045.450, 382.1621
1046.554, 207.6523
1047.657, 378.1465
1048.761, 297.6504
1049.864, 348.1641
1050.968, 213.6836
1052.071, 293.2129
1053.174, 274.3379
1054.277, 187.8496
1055.379, 277.4238
1056.482, 245.9785
1057.584, 191.4473
1058.687, 295.0469
1059.789, 352.6562
1060.891, 164.2754
1061.992, 230.9023
1063.094, 223.5391
1064.196, 9.564453
1065.297, 204.6055
1066.398, 113.0762
1067.499, 269.9102
1068.600, 286.6094
1069.701, 214.3184
1070.801, 312.0410
1071.902, 172.7715
1073.002, 119.5156
1074.102, 377.2676
1075.202, 253.0293
1076.302, 396.7949
1077.402, 227.5801
1078.501, 338.3730
1079.600, 491.6543
1080.700, 272.5098
1081.799, 572.5684
1082.898, 479.4062
1083.996, 642.2520
1085.095, 672.1074
1086.193, 709.9727
1087.292, 871.8477
1088.390, 862.7344
1089.488, 898.6309
1090.586, 1108.537
1091.683, 1415.453
1092.781, 1379.381
1093.878, 1758.316
1094.975, 1617.264
1096.073, 1776.217
1097.169, 1858.184
1098.266, 1920.158
1099.363, 1970.145
1100.459, 1716.141
1101.556, 1560.148
1102.652, 1350.164
1103.748, 1179.191
1104.844, 1172.229
1105.940, 1018.275
1107.035, 1140.332
1108.131, 968.3984
1109.226, 758.4746
1110.321, 768.5625
1111.416, 1071.658
1112.511, 986.7637
1113.605, 1016.879
1114.700, 1046.004
1115.794, 1136.580
1116.889, 1345.725
1117.983, 1655.881
1119.077, 1794.049
1120.170, 1909.914
1121.264, 2148.221
1122.357, 2107.420
1123.451, 2251.625
1124.544, 2118.535
1125.637, 1924.770
1126.730, 1963.016
1127.823, 1612.270
1128.915, 1668.533
1130.008, 1559.812
1131.100, 1685.102
1132.192, 1843.400
1133.284, 1871.736
1134.376, 1875.080
1135.467, 1989.438
1136.559, 2080.809
1137.650, 2315.826
1138.742, 2006.225
1139.833, 2003.109
1140.924, 1731.609
1142.014, 1604.117
1143.105, 1364.637
1144.195, 1030.184
1145.286, 1161.777
1146.376, 1013.662
1147.466, 697.3066
1148.556, 622.8789
1149.646, 558.5449
1150.735, 433.2207
1151.825, 430.9062
1152.914, 405.6133
1154.003, 220.0215
1155.092, 179.2031
1156.181, 233.9688
1157.270, 364.7578
1158.358, 286.5586
1159.447, 227.3828
1160.535, 146.2168
1161.623, 295.0586
1162.711, 244.9082
1163.799, 14.77344
1164.886, 167.6504
1165.974, 298.5352
1167.061, 164.4316
1168.148, 19.33398
1169.235, 149.2461
1170.322, 69.16602
1171.409, 113.0957
1172.496, 27.05664
1173.582, 65.51953
1174.669, 81.76367
1175.755, 121.7676
1176.841, 142.7773
1177.927, 147.7949
1179.012, 247.8203
1180.098, 210.8574
1181.183, 203.9004
1182.269, 213.9531
1183.354, 96.01172
1184.439, 211.3652
1185.524, 116.4492
1186.608, 139.5430
1187.693, 108.6660
1188.777, 71.84961
1189.862, 77.01562
1190.946, 36.18750
1192.030, 25.36719
1193.113, 17.92578
1194.197, 13.85742
1195.281, 17.87305
1196.364, 16.91211
1197.447, 16.27930
1198.530, 112.1543
1199.613, 56.41797
1200.696, 74.68750
1201.779, 31.96484
1202.861, 81.25000
1203.944, 224.5410
1205.026, 36.83984
1206.108, 151.1445
1207.190, 69.45703
1208.271, 181.7793
1209.353, 158.8945
1210.435, 31.63281
1211.516, 89.37500
1212.597, 442.8535
1213.678, 65.08594
1214.759, 176.3262
1215.840, 25.57227
1216.920, 132.8262
1218.001, 106.0840
1219.081, 236.3496
1220.161, 68.62305
1221.241, 218.9023
1222.321, 132.1914
1223.401, 206.4824
1224.480, 85.78320
1225.560, 115.0879
1226.639, 139.4004
1227.718, 99.71680
1228.797, 311.0391
1229.876, 253.4180
1230.955, 212.7012
1232.033, 282.0410
1233.112, 207.3867
1234.190, 225.7383
1235.268, 111.0957
1236.346, 167.4570
1237.424, 272.8262
1238.501, 308.2129
1239.579, 27.60352
1240.656, 175.0000
1241.733, 121.3984
1242.811, 81.80469
1243.888, 200.2188
1244.964, 10.36328
1246.041, 87.05664
1247.117, 49.48438
1248.194, 137.9180
1249.270, 33.64453
1250.346, 58.21875
1251.422, 118.1855
1252.498, 178.5938
1253.573, 66.99219
1254.649, 84.39258
1255.724, 23.78320
1256.800, 147.1777
1257.875, 125.5762
1258.950, 134.9277
1260.024, 52.35547
1261.099, 96.78711
1262.173, 80.22656
1263.248, 5.666016
1264.322, 138.1133
1265.396, 204.2422
1266.470, 77.30664
1267.544, 289.1094
1268.617, 20.16602
1269.691, 92.24414
1270.764, 12.65625
1271.837, 37.07227
1272.910, 194.4922
1273.983, 316.9160
1275.056, 2.341797
1276.129, 140.7676
1277.201, 26.80469
1278.273, 140.6113
1279.346, 329.0254
1280.418, 45.44531
1281.489, 199.8672
1282.561, 38.71094
1283.633, 17.30664
1284.704, 99.71680
1285.776, 79.10742
1286.847, 150.5000
1287.918, 121.8945
1288.989, 246.2910
1290.059, 116.6895
1291.130, 131.0898
1292.200, 111.4902
1293.271, 40.89062
1294.341, 57.29492
1295.411, 88.69727
1296.481, 253.1016
1297.551, 96.50586
1298.620, 75.91406
1299.690, 333.3223
1300.759, 389.7324
1301.828, 327.3418
1302.897, 48.44727
1303.966, 181.9316
1305.035, 64.31055
1306.103, 39.68945
1307.172, 95.07031
1308.240, 136.4512
1309.308, 260.8320
1310.376, 264.2148
1311.444, 160.6035
1312.512, 55.00977
