##NAMES=Microcline
##RRUFFID=R040154
##IDEAL CHEMISTRY=KAlSi_3_O_8_
##LOCALITY=Mitchell County, North Carolina, USA
##OWNER=RRUFF
##SOURCE=University of Arizona Mineral Museum
##DESCRIPTION=White cleavage fragment with some perthitic character
##STATUS=The identification of this mineral has been confirmed by X-ray diffraction and chemical analysis
##URL=rruff.info/R040154
##MEASURED CHEMISTRY=(K_0.90_Na_0.09_Ba_0.01_)Al_1.00_(Si_2.99_Al_0.01_)_Î£=3_O_8_
##PIN_ID=L00168
##ORIENTATION=Laser parallel to (0 1 1). Fiducial mark perpendicular to laser is parallel to -a [-1 0 0]
94.768, 0.000
96.161, 20.885
97.554, 24.955
98.947, 543.473
100.340, 1258.329
101.732, 2343.408
103.124, 3471.024
104.516, 4655.208
105.908, 5852.125
107.300, 6782.842
108.691, 7560.314
110.082, 6486.309
111.473, 4581.954
112.864, 2933.040
114.254, 1918.294
115.644, 1589.160
117.034, 1659.455
118.424, 1732.283
119.813, 2764.974
121.203, 3561.016
122.592, 4719.055
123.981, 6006.014
125.369, 7078.044
126.758, 8002.635
128.146, 8176.604
129.534, 8034.355
130.922, 6757.481
132.309, 5441.762
133.696, 3874.230
135.083, 3012.954
136.470, 2101.988
137.857, 1829.376
139.243, 1676.174
140.630, 1848.441
142.016, 1983.236
143.401, 2347.613
144.787, 2688.617
146.172, 3264.293
147.557, 3654.672
148.942, 4002.882
150.327, 4052.645
151.711, 4152.822
153.096, 3810.183
154.480, 3329.133
155.863, 2961.674
157.247, 2767.010
158.630, 2390.676
160.013, 2264.991
161.396, 1980.214
162.779, 1768.278
164.161, 1589.082
165.544, 1419.524
166.926, 1397.172
168.308, 1391.732
169.689, 1734.933
171.070, 2211.070
172.452, 2739.067
173.833, 3228.923
175.213, 3928.648
176.594, 4321.244
177.974, 4902.691
179.354, 4886.939
180.734, 4171.139
182.114, 3345.352
183.493, 2768.609
184.872, 2130.934
186.251, 1596.345
187.630, 1239.849
189.008, 1049.453
190.387, 1190.158
191.765, 1335.965
193.143, 1516.869
194.520, 1821.871
195.898, 2384.962
197.275, 2494.133
198.652, 2983.379
200.029, 3002.693
201.405, 2432.193
202.782, 1969.599
204.158, 1617.596
205.534, 1157.925
206.909, 775.270
208.285, 669.461
209.660, 632.933
211.035, 361.088
212.410, 201.812
213.784, 85.545
215.159, 9.277
216.533, 112.911
217.907, 164.042
219.281, 235.585
220.654, 257.701
222.027, 217.547
223.400, 265.638
224.773, 215.614
226.146, 238.751
227.518, 238.888
228.891, 227.757
230.263, 216.169
231.634, 225.313
233.006, 159.468
234.377, 145.639
235.748, 128.829
237.119, 197.040
238.490, 2.043
239.860, 86.974
241.231, 101.745
242.601, 159.240
243.970, 451.974
245.340, 545.084
246.709, 806.898
248.079, 1304.561
249.448, 1672.082
250.816, 2515.552
252.185, 3193.021
253.553, 4127.490
254.921, 5169.959
256.289, 6271.426
257.657, 7160.891
259.024, 7554.353
260.391, 7997.279
261.758, 8144.303
263.125, 8757.023
264.492, 9176.341
265.858, 9301.331
267.224, 8902.629
268.590, 7597.455
269.956, 6640.385
271.321, 5501.742
272.687, 4586.457
274.052, 4005.472
275.416, 3870.744
276.781, 3992.227
278.146, 4444.881
279.510, 5251.673
280.874, 6165.574
282.237, 7259.562
283.601, 7946.629
284.964, 8260.750
286.327, 8401.919
287.690, 7280.116
289.053, 6094.367
290.416, 4992.629
291.778, 3672.893
293.140, 2858.116
294.502, 2013.271
295.863, 1875.352
297.225, 1349.357
298.586, 1021.286
299.947, 859.141
301.308, 621.925
302.668, 393.642
304.029, 461.291
305.389, 270.879
306.749, 126.403
308.108, 110.867
309.468, 38.268
310.827, 79.405
312.186, 108.182
313.545, 19.070
314.903, 74.051
316.262, 153.149
317.620, 56.387
318.978, 69.738
320.336, 116.274
321.693, 99.169
323.051, 34.525
324.408, 86.845
325.765, 333.813
327.121, 401.475
328.478, 494.871
329.834, 745.074
331.190, 765.121
332.546, 689.085
333.902, 559.017
335.257, 373.914
336.612, 304.779
337.967, 119.611
339.322, 79.402
340.677, 73.146
342.031, 38.158
343.385, 18.464
344.739, 88.974
346.093, 86.499
347.446, 21.886
348.799, 165.213
350.153, 175.502
351.505, 325.752
352.858, 389.971
354.210, 499.156
355.563, 587.309
356.915, 664.426
358.267, 591.509
359.618, 494.558
360.969, 369.572
362.321, 320.551
363.672, 401.508
365.022, 538.476
366.373, 526.384
367.723, 796.106
369.073, 826.688
370.423, 983.072
371.773, 1091.305
373.122, 1089.394
374.471, 1029.491
375.821, 601.560
377.169, 683.680
378.518, 319.733
379.866, 298.029
381.215, 270.610
382.563, 33.044
383.910, 11.359
385.258, 32.497
386.605, 211.696
387.952, 92.210
389.299, 119.405
390.646, 73.935
391.992, 133.036
393.339, 268.742
394.685, 278.843
396.031, 932.743
397.376, 988.355
398.722, 1488.827
400.067, 1843.320
401.412, 2183.092
402.757, 2227.612
404.101, 2587.577
405.446, 2215.551
406.790, 1866.485
408.134, 2012.397
409.478, 2025.295
410.821, 2073.176
412.165, 2031.042
413.508, 2109.893
414.851, 1705.729
416.193, 1121.549
417.536, 712.354
418.878, 625.144
420.220, 481.918
421.562, 132.677
422.904, 237.432
424.245, 277.186
425.586, 76.926
426.927, 238.634
428.268, 138.315
429.609, 151.962
430.949, 249.572
432.289, 431.146
433.629, 411.053
434.969, 519.759
436.309, 633.790
437.648, 826.809
438.987, 893.392
440.326, 1156.406
441.665, 1589.949
443.003, 2061.527
444.342, 2782.078
445.680, 3849.379
447.018, 5207.205
448.355, 6779.511
449.693, 8886.644
451.030, 10805.653
452.367, 12736.316
453.704, 13196.717
455.041, 13061.736
456.377, 11211.708
457.713, 9334.725
459.049, 7812.380
460.385, 6378.988
461.721, 5953.845
463.056, 5306.822
464.391, 5651.289
465.726, 6250.705
467.061, 7231.076
468.395, 8916.652
469.730, 11305.556
471.064, 13592.892
472.398, 16578.891
473.731, 18283.875
475.065, 19619.256
476.398, 18867.984
477.731, 17000.557
479.064, 14331.015
480.397, 12230.448
481.729, 10348.783
483.062, 9170.025
484.394, 8113.330
485.725, 6989.687
487.057, 5656.420
488.389, 4797.118
489.720, 3937.787
491.051, 3578.424
492.382, 3417.031
493.712, 3401.608
495.043, 3379.156
496.373, 3755.674
497.703, 4283.162
499.032, 5168.591
500.362, 6094.645
501.691, 7825.375
503.020, 9904.927
504.349, 13349.913
505.678, 17673.109
507.007, 23444.373
508.335, 29784.309
509.663, 36789.211
510.991, 43501.270
512.319, 47386.445
513.646, 48299.613
514.973, 42544.984
516.300, 36012.094
517.627, 27934.168
518.954, 20548.439
520.280, 16189.720
521.607, 12181.124
522.933, 9872.420
524.259, 7484.729
525.584, 6144.793
526.910, 5365.359
528.235, 4452.266
529.560, 3804.973
530.885, 3089.756
532.209, 2664.770
533.534, 2435.688
534.858, 2270.002
536.182, 1935.937
537.506, 1823.779
538.829, 1509.919
540.152, 1474.687
541.476, 1429.021
542.799, 1049.143
544.121, 1082.420
545.444, 1144.709
546.766, 905.973
548.088, 978.949
549.410, 721.273
550.732, 828.857
552.053, 503.363
553.375, 504.447
554.696, 499.551
556.017, 590.689
557.337, 432.848
558.658, 505.023
559.978, 380.453
561.298, 420.658
562.618, 384.867
563.938, 289.340
565.257, 381.516
566.576, 289.674
567.895, 408.949
569.214, 451.068
570.533, 395.166
571.851, 295.242
573.170, 435.299
574.488, 366.332
575.805, 481.346
577.123, 353.342
578.440, 544.350
579.758, 619.332
581.075, 529.801
582.391, 635.760
583.708, 616.699
585.024, 409.307
586.341, 483.211
587.657, 510.570
588.972, 439.027
590.288, 211.885
591.603, 88.723
592.918, 127.535
594.233, 44.326
595.548, 40.750
596.863, 126.838
598.177, 30.568
599.491, 115.273
600.805, 95.955
602.119, 29.387
603.432, 140.227
604.746, 24.820
606.059, 116.387
607.372, 89.068
608.685, 163.420
609.997, 51.102
611.309, 47.324
612.621, 125.725
613.933, 126.104
615.245, 8.537
616.557, 247.793
617.868, 289.102
619.179, 107.391
620.490, 66.660
621.801, 317.908
623.111, 226.139
624.421, 453.352
625.731, 97.547
627.041, 433.723
628.351, 337.885
629.660, 468.045
630.970, 693.232
632.279, 479.461
633.588, 585.701
634.896, 650.975
636.205, 778.295
637.513, 891.176
638.821, 1050.027
640.129, 1199.451
641.437, 1360.918
642.744, 1628.939
644.051, 1670.857
645.358, 2132.311
646.665, 2287.746
647.972, 2602.166
649.278, 2478.572
650.584, 2709.959
651.890, 2961.334
653.196, 2620.695
654.502, 2508.037
655.807, 2064.367
657.113, 1793.691
658.418, 1786.018
659.722, 1361.346
661.027, 1138.703
662.331, 995.072
663.636, 747.488
664.940, 358.945
666.244, 632.418
667.547, 219.883
668.851, 357.336
670.154, 292.779
671.457, 126.207
672.760, 337.617
674.062, 249.014
675.365, 134.396
676.667, 126.762
677.969, 92.109
679.271, 32.557
680.572, 160.270
681.874, 2.904
683.175, 36.049
684.476, 10.822
685.777, 16.275
687.077, 104.652
688.378, 140.336
689.678, 186.680
690.978, 57.166
692.278, 282.828
693.577, 158.943
694.877, 160.234
696.176, 134.348
697.475, 103.146
698.774, 143.195
700.072, 166.646
701.371, 83.258
702.669, 130.254
703.967, 287.715
705.265, 374.299
706.562, 248.354
707.860, 87.771
709.157, 346.266
710.454, 2.652
711.751, 443.559
713.047, 246.059
714.344, 416.627
715.640, 31.076
716.936, 303.756
718.232, 470.979
719.527, 146.184
720.823, 342.908
722.118, 256.102
723.413, 184.586
724.708, 377.744
726.002, 478.059
727.297, 404.158
728.591, 505.471
729.885, 780.551
731.179, 631.711
732.472, 758.539
733.766, 989.688
735.059, 1050.682
736.352, 1487.662
737.645, 1668.623
738.937, 2073.568
740.230, 2375.217
741.522, 3059.805
742.814, 4084.980
744.106, 5219.234
745.397, 6470.734
746.689, 7351.588
747.980, 8414.186
749.271, 8843.797
750.562, 8416.023
751.853, 7145.730
753.143, 6050.012
754.433, 5159.072
755.723, 3971.547
757.013, 3474.922
758.303, 2790.262
759.592, 2447.787
760.881, 2071.924
762.170, 2033.320
763.459, 1927.799
764.748, 1404.006
766.036, 1766.854
767.325, 1375.961
768.613, 1264.320
769.901, 1283.666
771.188, 972.902
772.476, 1028.432
773.763, 668.951
775.050, 876.158
776.337, 684.180
777.624, 644.873
778.910, 426.332
780.196, 608.775
781.482, 346.873
782.768, 456.289
784.054, 453.691
785.339, 645.076
786.625, 438.451
787.910, 575.812
789.195, 455.158
790.479, 534.486
791.764, 596.955
793.048, 541.256
794.332, 691.541
795.616, 794.809
796.900, 833.062
798.183, 570.301
799.467, 793.521
800.750, 892.730
802.033, 990.920
803.316, 1459.098
804.598, 1372.258
805.880, 2147.402
807.163, 2629.533
808.445, 3359.648
809.726, 4229.746
811.008, 5233.832
812.289, 5799.902
813.570, 5994.957
814.851, 5640.998
816.132, 4738.021
817.413, 3639.031
818.693, 3204.027
819.973, 2164.008
821.253, 1563.971
822.533, 1415.920
823.813, 1049.854
825.092, 632.770
826.371, 750.422
827.650, 573.309
828.929, 719.182
830.208, 505.816
831.486, 354.400
832.764, 379.824
834.042, 204.316
835.320, 212.754
836.598, 361.396
837.875, 281.498
839.152, 182.219
840.429, 410.104
841.706, 218.873
842.983, 172.379
844.259, 396.939
845.536, 120.072
846.812, 115.549
848.088, 99.082
849.363, 119.211
850.639, 258.619
851.914, 102.701
853.189, 219.641
854.464, 91.191
855.739, 279.146
857.013, 4.805
858.288, 77.332
859.562, 56.152
860.836, 135.326
862.110, 159.678
863.383, 279.697
864.656, 18.920
865.930, 69.424
867.203, 33.242
868.475, 238.080
869.748, 75.830
871.020, 113.436
872.292, 151.697
873.564, 41.334
874.836, 10.094
876.108, 22.137
877.379, 94.223
878.650, 52.439
879.922, 98.691
881.192, 42.883
882.463, 94.098
883.733, 69.307
885.004, 6.488
886.274, 121.299
887.544, 203.822
888.813, 72.057
890.083, 135.023
891.352, 119.104
892.621, 5.820
893.890, 4.758
895.159, 24.293
896.427, 62.656
897.695, 4.510
898.964, 104.367
900.232, 56.371
901.499, 97.377
902.767, 138.381
904.034, 48.615
905.301, 8.639
906.568, 84.357
907.835, 311.352
909.102, 97.348
910.368, 103.338
911.634, 285.371
912.900, 32.402
914.166, 342.436
915.432, 79.535
916.697, 54.512
917.962, 341.484
919.227, 61.500
920.492, 307.516
921.757, 172.531
923.021, 357.547
924.285, 183.568
925.550, 192.586
926.813, 168.604
928.077, 135.621
929.341, 19.641
930.604, 253.654
931.867, 207.662
933.130, 119.670
934.393, 325.676
935.655, 239.680
936.918, 346.686
938.180, 191.686
939.442, 67.684
940.703, 272.684
941.965, 263.680
943.226, 29.676
944.488, 167.664
945.749, 114.793
947.009, 209.639
948.270, 157.623
949.530, 295.605
950.791, 277.588
952.051, 233.564
953.311, 122.543
954.570, 387.521
955.830, 440.494
957.089, 410.471
958.348, 384.445
959.607, 177.418
960.866, 295.393
962.124, 198.369
963.383, 383.357
964.641, 203.352
965.899, 447.385
967.156, 321.418
968.414, 435.451
969.671, 443.480
970.928, 281.512
972.185, 548.541
973.442, 306.576
974.699, 793.605
975.955, 674.633
977.211, 453.658
978.468, 781.701
979.723, 561.742
980.979, 697.779
982.234, 1075.816
983.490, 506.875
984.745, 1011.932
986.000, 1065.008
987.254, 1297.131
988.509, 1703.266
989.763, 1767.404
991.017, 2341.553
992.271, 2861.705
993.525, 3206.895
994.779, 3246.072
996.032, 3153.348
997.285, 3005.449
998.538, 2235.688
999.791, 2565.887
1001.044, 1904.262
1002.296, 1842.711
1003.548, 1654.326
1004.800, 1380.391
1006.052, 1622.252
1007.304, 1137.787
1008.555, 1109.787
1009.807, 1101.207
1011.058, 731.154
1012.309, 858.998
1013.559, 750.510
1014.810, 544.234
1016.060, 753.402
1017.310, 582.861
1018.560, 450.807
1019.810, 619.436
1021.060, 788.963
1022.309, 558.625
1023.558, 788.090
1024.807, 437.414
1026.056, 771.107
1027.305, 591.877
1028.553, 777.152
1029.801, 725.398
1031.049, 553.338
1032.297, 590.406
1033.545, 585.998
1034.793, 732.523
1036.040, 675.613
1037.287, 815.258
1038.534, 829.781
1039.781, 949.170
1041.027, 882.805
1042.274, 608.234
1043.520, 735.279
1044.766, 568.391
1046.012, 522.406
1047.257, 398.115
1048.503, 767.139
1049.748, 462.223
1050.993, 819.191
1052.238, 841.969
1053.483, 605.555
1054.727, 570.773
1055.971, 763.463
1057.216, 444.234
1058.459, 278.787
1059.703, 387.512
1060.947, 340.807
1062.190, 480.477
1063.433, 359.584
1064.676, 336.297
1065.919, 173.533
1067.162, 540.062
1068.404, 71.705
1069.646, 176.381
1070.888, 443.453
1072.130, 339.150
1073.372, 368.445
1074.613, 500.219
1075.855, 133.590
1077.096, 283.041
1078.337, 630.924
1079.578, 434.631
1080.818, 491.424
1082.059, 414.963
1083.299, 523.670
1084.539, 247.098
1085.779, 545.645
1087.018, 395.443
1088.258, 551.906
1089.497, 735.324
1090.736, 740.758
1091.975, 784.164
1093.213, 1020.639
1094.452, 1215.291
1095.690, 1110.277
1096.928, 1394.357
1098.166, 1524.998
1099.404, 1643.609
1100.642, 1254.908
1101.879, 1477.881
1103.116, 1118.143
1104.353, 1174.104
1105.590, 981.744
1106.827, 1135.160
1108.063, 764.277
1109.299, 857.354
1110.536, 937.059
1111.771, 1029.203
1113.007, 1026.359
1114.243, 1151.102
1115.478, 1427.381
1116.713, 1328.162
1117.948, 1795.561
1119.183, 1844.076
1120.418, 2366.854
1121.652, 2929.236
1122.886, 3413.164
1124.120, 3599.785
1125.354, 3298.604
1126.588, 3202.930
1127.821, 2504.854
1129.055, 2554.279
1130.288, 2430.859
1131.521, 2228.926
1132.753, 2163.816
1133.986, 2160.539
1135.218, 2873.074
1136.450, 2319.580
1137.682, 2898.322
1138.914, 2661.477
1140.146, 2625.543
1141.377, 2357.365
1142.609, 1982.410
1143.840, 1710.021
1145.071, 1496.234
1146.301, 1368.691
1147.532, 1113.465
1148.762, 850.482
1149.992, 649.791
1151.222, 710.230
1152.452, 694.340
1153.682, 363.441
1154.911, 453.008
1156.140, 255.008
1157.369, 216.598
1158.598, 242.195
1159.827, 166.008
1161.055, 311.627
1162.284, 198.477
1163.512, 207.779
1164.740, 338.982
1165.967, 66.012
1167.195, 317.562
1168.422, 133.820
1169.650, 372.414
1170.877, 53.691
1172.103, 56.096
1173.330, 0.990
1174.557, 146.328
1175.783, 100.439
1177.009, 58.105
1178.235, 209.121
1179.461, 135.367
1180.686, 90.514
1181.912, 265.824
1183.137, 260.016
1184.362, 307.570
1185.587, 116.344
1186.811, 147.592
1188.036, 74.748
1189.260, 154.662
1190.484, 357.730
1191.708, 486.871
1192.932, 0.541
1194.155, 239.910
1195.378, 103.861
1196.602, 241.186
1197.825, 22.408
1199.047, 314.305
1200.270, 121.246
1201.492, 470.803
1202.715, 83.684
1203.937, 314.289
1205.159, 133.797
1206.380, 368.104
1207.602, 95.182
1208.823, 102.961
1210.044, 187.045
1211.265, 352.914
1212.486, 25.895
1213.707, 228.830
1214.927, 116.082
1216.147, 89.939
1217.367, 249.359
1218.587, 98.156
1219.807, 192.846
1221.027, 316.414
1222.246, 170.998
1223.465, 150.521
1224.684, 283.986
1225.903, 272.250
1227.121, 301.756
1228.340, 418.354
1229.558, 318.596
1230.776, 143.795
1231.994, 112.953
1233.212, 289.066
1234.429, 457.648
1235.646, 136.680
1236.864, 485.971
1238.081, 134.512
1239.297, 318.410
1240.514, 310.266
1241.730, 228.076
1242.947, 201.859
1244.163, 304.553
1245.378, 308.223
1246.594, 474.768
1247.810, 43.312
1249.025, 422.752
1250.240, 212.145
1251.455, 78.471
1252.670, 335.740
1253.885, 163.936
1255.099, 170.074
1256.313, 66.154
1257.527, 15.148
1258.741, 27.670
1259.955, 104.061
1261.168, 111.674
1262.382, 217.316
1263.595, 303.818
1264.808, 78.258
1266.021, 204.629
1267.233, 89.936
1268.446, 477.139
1269.658, 227.326
1270.870, 175.516
1272.082, 1.521
1273.294, 139.359
1274.505, 253.170
1275.716, 210.912
1276.928, 29.480
1278.139, 364.004
1279.349, 43.338
1280.560, 197.574
1281.770, 55.746
1282.981, 38.828
1284.191, 83.801
1285.401, 282.682
1286.610, 117.490
1287.820, 274.236
1289.029, 72.088
1290.239, 107.461
1291.448, 100.941
1292.656, 59.639
1293.865, 243.629
1295.073, 5.168
1296.282, 135.045
1297.490, 62.965
1298.698, 197.898
1299.906, 111.770
1301.113, 204.566
1302.320, 101.293
1303.528, 95.949
1304.735, 45.461
1305.942, 73.781
1307.148, 210.195
1308.355, 8.582
1309.561, 128.578
1310.767, 147.762
1311.973, 74.301
1313.179, 27.660
1314.384, 211.836
1315.590, 93.711
1316.795, 280.707
1318.000, 29.234
1319.205, 222.832
1320.410, 87.969
1321.614, 132.160
1322.819, 206.484
1324.023, 52.434
1325.227, 202.211
1326.431, 150.598
1327.634, 165.355
1328.838, 12.508
1330.041, 253.387
1331.244, 365.469
1332.447, 143.617
1333.650, 184.398
1334.852, 8.445
1336.055, 41.973
1337.257, 227.531
1338.459, 78.461
1339.661, 40.547
1340.862, 252.984
1342.064, 85.941
1343.265, 327.816
1344.466, 303.961
1345.667, 145.234
1346.868, 462.293
1348.068, 242.625
1349.269, 12.453
1350.469, 527.637
1351.669, 264.504
1352.869, 372.754
1354.069, 376.578
1355.268, 74.156
1356.468, 465.539
1357.667, 534.695
1358.866, 277.855
1360.065, 525.770
1361.263, 219.180
1362.462, 354.352
1363.660, 507.871
1364.858, 142.773
1366.056, 476.188
1367.254, 375.516
1368.451, 368.562
1369.649, 157.000
1370.846, 460.172
1372.043, 250.312
1373.240, 375.633
1374.436, 436.562
1375.633, 492.125
1376.829, 521.871
1378.025, 236.758
1379.221, 504.945
1380.417, 287.148
1381.613, 218.043
1382.808, 441.676
1384.003, 602.262
1385.199, 625.766
1386.393, 355.922
1387.588, 568.812
1388.783, 331.637
1389.977, 632.180
1391.171, 337.672
1392.365, 414.660
1393.559, 518.289
1394.753, 471.480
1395.946, 467.703
1397.140, 488.523
1398.333, 657.891
1399.526, 460.473
1400.719, 568.707
1401.911, 625.148
1403.104, 530.762
1404.296, 334.559
1405.488, 604.430
1406.680, 355.441
1407.872, 398.688
1409.063, 606.457
1410.255, 352.059
1411.446, 677.176
1412.637, 247.406
1413.828, 361.305
1415.018, 425.285
1416.209, 584.883
1417.399, 574.344
1418.589, 706.832
1419.779, 504.590
1420.969, 411.465
1422.159, 246.871
1423.348, 286.090
1424.537, 458.930
1425.726, 470.277
1426.915, 372.684
1428.104, 497.820
1429.293, 385.457
1430.481, 360.426
1431.669, 472.555
1432.857, 460.277
1434.045, 317.094
1435.233, 486.727
1436.420, 658.184
1437.608, 414.785
1438.795, 522.719
1439.982, 477.582
1441.169, 732.652
1442.355, 507.383
1443.542, 870.340
1444.728, 504.949
1445.914, 571.262
1447.100, 670.281
1448.286, 674.453
1449.472, 671.324
1450.657, 882.031
1451.842, 692.094
1453.027, 733.070
1454.212, 960.891
1455.397, 387.617
1456.581, 631.203
1457.766, 934.641
1458.950, 425.926
1460.134, 902.195
1461.318, 485.660
1462.501, 531.191
1463.685, 724.699
1464.868, 277.734
1466.051, 841.363
1467.234, 412.914
1468.417, 507.883
1469.600, 793.488
1470.782, 879.160
1471.965, 429.164
1473.147, 654.242
1474.329, 691.395
1475.510, 258.598
1476.692, 494.172
1477.873, 550.750
1479.055, 386.367
1480.236, 809.047
1481.416, 454.777
1482.597, 491.633
1483.778, 511.621
1484.958, 370.762
1486.138, 192.086
1487.318, 228.340
1488.498, 224.078
1489.678, 270.625
1490.857, 346.117
1492.037, 502.980
1493.216, 468.184
1494.395, 330.730
1495.574, 633.652
1496.752, 81.977
1497.931, 500.762
1499.109, 312.078
1500.287, 226.016
1501.465, 61.336
1502.643, 21.121
1503.820, 428.477
1504.998, 410.863
1506.175, 366.496
1507.352, 210.277
1508.529, 95.414
