##NAMES=Microcline
##RRUFFID=R050193
##IDEAL CHEMISTRY=KAlSi_3_O_8_
##LOCALITY=Devil's Head, Douglas County, Colorado, USA
##OWNER=RRUFF
##SOURCE=Dave Bunk Minerals
##DESCRIPTION=White to colorless heterogeneous mixture of K and Na feldspar in a cluster of crystals. Crystal structure determined, presented below. This sample is known as an intermediate microcline in the literature.
##STATUS=The identification of this mineral has been confirmed by X-ray diffraction and chemical analysis
##URL=rruff.info/R050193
##MEASURED CHEMISTRY=(K_0.929_Na_0.071_)(Al_1.005_Si_2.994_Fe_0.001_)O_7.993_F_0.007_  ; Light Band :  (Na_0.973_K_0.007_Ca_0.020_)(Al_1.020_Si_2.980_)O_8_ ; Dark Band
##PIN_ID=L00422
##ORIENTATION=Laser parallel to b* (0 1 0). Fiducial mark perpendicular to laser is parallel to c [0 0 1]
130.2300, 0.0000000E+00
131.4640, 0.7099610
132.6970, 57.23682
133.9300, 18.40576
135.1630, 173.5210
136.3950, 233.5239
137.6280, 347.9121
138.8600, 581.9502
140.0920, 768.0933
141.3240, 946.1470
142.5560, 1171.378
143.7880, 1277.925
145.0190, 1536.538
146.2510, 1625.337
147.4820, 1988.718
148.7130, 2263.276
149.9440, 2580.720
151.1750, 2818.846
152.4050, 3126.508
153.6360, 3359.916
154.8660, 3411.098
156.0960, 3475.655
157.3260, 3577.841
158.5560, 3688.722
159.7850, 3705.803
161.0150, 3608.202
162.2440, 3454.021
163.4730, 3156.362
164.7020, 2937.291
165.9310, 2555.848
167.1590, 2192.078
168.3880, 1998.013
169.6160, 1881.697
170.8440, 1777.171
172.0720, 1704.467
173.3000, 1646.604
174.5280, 1677.603
175.7550, 1796.323
176.9820, 1782.915
178.2100, 1869.109
179.4370, 1953.305
180.6630, 2010.324
181.8900, 2126.283
183.1170, 2198.915
184.3430, 2200.848
185.5690, 2073.961
186.7950, 1957.196
188.0210, 1965.547
189.2470, 1732.078
190.4720, 1597.709
191.6970, 1310.434
192.9230, 1120.267
194.1480, 1097.478
195.3730, 1054.879
196.5970, 1016.412
197.8220, 1043.960
199.0460, 1077.524
200.2700, 1067.105
201.4940, 1135.701
202.7180, 1070.312
203.9420, 1102.935
205.1660, 1101.065
206.3890, 1075.289
207.6120, 1085.232
208.8350, 989.3711
210.0580, 948.5850
211.2810, 882.9126
212.5040, 642.3149
213.7260, 547.7637
214.9480, 548.2578
216.1700, 258.7974
217.3920, 149.3789
218.6140, 55.00098
219.8360, 84.65869
221.0570, 1.649414
222.2790, 19.92627
223.5000, 11.82617
224.7210, 44.39355
225.9410, 8.587402
227.1620, 1.243164
228.3820, 120.9067
229.6030, 36.04492
230.8230, 116.1821
232.0430, 175.3198
233.2630, 126.4585
234.4820, 83.59766
235.7020, 189.7383
236.9210, 91.87842
238.1400, 47.01855
239.3590, 59.84229
240.5780, 130.7041
241.7970, 75.56592
243.0150, 142.4282
244.2340, 182.2910
245.4520, 162.1548
246.6700, 362.9155
247.8880, 407.9375
249.1060, 533.7651
250.3230, 575.5684
251.5400, 622.3301
252.7580, 701.5806
253.9750, 646.0015
255.1920, 738.2144
256.4080, 813.7896
257.6250, 851.9390
258.8410, 764.0425
260.0580, 849.0186
261.2740, 864.6182
262.4900, 879.6846
263.7050, 988.3174
264.9210, 933.5903
266.1360, 1047.179
267.3520, 1098.078
268.5670, 1182.296
269.7820, 1204.368
270.9960, 1249.752
272.2110, 1363.742
273.4250, 1444.685
274.6400, 1472.005
275.8540, 1577.225
277.0680, 1810.747
278.2810, 1943.338
279.4950, 2327.510
280.7090, 2747.850
281.9220, 3050.679
283.1350, 3331.699
284.3480, 3495.723
285.5610, 3719.632
286.7730, 3816.430
287.9860, 3858.964
289.1980, 3837.717
290.4100, 3710.271
291.6220, 3554.636
292.8340, 3204.397
294.0460, 2830.188
295.2570, 2293.001
296.4690, 1797.833
297.6800, 1421.680
298.8910, 1133.538
300.1020, 847.4053
301.3120, 842.2705
302.5230, 703.1226
303.7330, 543.9424
304.9440, 427.7295
306.1540, 495.4893
307.3630, 309.2227
308.5730, 516.9336
309.7830, 300.6230
310.9920, 323.2939
312.2010, 382.9473
313.4100, 250.5840
314.6190, 238.2070
315.8280, 143.8154
317.0370, 343.4102
318.2450, 410.9927
319.4530, 423.5630
320.6610, 426.1211
321.8690, 448.6558
323.0770, 497.1523
324.2850, 593.5806
325.4920, 706.8911
326.6990, 667.0674
327.9060, 709.0054
329.1130, 770.7354
330.3200, 698.3613
331.5270, 675.9971
332.7330, 629.6416
333.9390, 350.2949
335.1450, 265.9556
336.3510, 271.6230
337.5570, 318.2969
338.7630, 85.97656
339.9680, 113.6611
341.1740, 110.3491
342.3790, 90.03906
343.5840, 114.7319
344.7890, 114.4268
345.9930, 109.1436
347.1980, 90.82373
348.4020, 101.5254
349.6060, 105.2285
350.8100, 99.93359
352.0140, 103.6406
353.2180, 176.3472
354.4210, 130.0542
355.6250, 127.7607
356.8280, 199.4658
358.0310, 149.1694
359.2340, 98.87061
360.4360, 7.569824
361.6390, 105.2554
362.8410, 73.93896
364.0430, 79.61816
365.2450, 258.2944
366.4470, 141.3877
367.6490, 190.5151
368.8510, 137.1528
370.0520, 115.9033
371.2530, 129.6079
372.4540, 109.8369
373.6550, 43.75684
374.8560, 66.93945
376.0560, 26.13428
377.2570, 55.60400
378.4570, 52.13135
379.6570, 129.6602
380.8570, 22.16309
382.0570, 43.45605
383.2560, 54.11768
384.4560, 40.42334
385.6550, 3.038574
386.8540, 71.50879
388.0530, 29.00537
389.2520, 4.517090
390.4510, 52.96387
391.6490, 111.4287
392.8470, 51.88916
394.0450, 105.3467
395.2430, 155.8013
396.4410, 220.2549
397.6390, 324.7031
398.8360, 424.1450
400.0340, 512.5854
401.2310, 542.5210
402.4280, 524.3462
403.6250, 594.7119
404.8210, 615.0391
406.0180, 687.3687
407.2140, 744.6997
408.4100, 746.0591
409.6060, 728.4443
410.8020, 626.8311
411.9980, 591.2285
413.1930, 401.0654
414.3890, 357.4702
415.5840, 267.8984
416.7790, 235.3262
417.9740, 186.7700
419.1680, 138.2153
420.3630, 103.6611
421.5570, 59.10938
422.7510, 159.5625
423.9450, 24.97461
425.1390, 101.4033
426.3330, 95.89697
427.5270, 16.43945
428.7200, 110.2305
429.9130, 42.97266
431.1060, 62.26855
432.2990, 32.50293
433.4920, 26.27051
434.6840, 42.04248
435.8770, 97.14844
437.0690, 164.3335
438.2610, 140.5112
439.4530, 200.1650
440.6450, 84.84424
441.8360, 171.9985
443.0280, 255.1455
444.2190, 183.2842
445.4100, 382.0693
446.6010, 437.1987
447.7920, 446.3125
448.9820, 622.4180
450.1730, 604.5146
451.3630, 605.6045
452.5530, 822.7305
453.7430, 690.8843
454.9330, 768.9565
456.1230, 797.0146
457.3120, 773.3848
458.5010, 867.4258
459.6910, 877.4600
460.8800, 909.5156
462.0680, 887.5332
463.2570, 910.5430
464.4460, 1230.545
465.6340, 1463.540
466.8220, 1586.526
468.0100, 1933.506
469.1980, 2255.479
470.3860, 2699.446
471.5730, 3011.406
472.7600, 3388.365
473.9480, 3768.318
475.1350, 4044.269
476.3210, 4335.215
477.5080, 4526.156
478.6950, 4409.094
479.8810, 4284.027
481.0670, 3691.959
482.2530, 3266.885
483.4390, 2621.807
484.6250, 2240.725
485.8100, 1708.639
486.9960, 1521.547
488.1810, 1357.453
489.3660, 1253.354
490.5510, 1147.251
491.7360, 1172.143
492.9200, 1174.031
494.1050, 1324.914
495.2890, 1594.793
496.4730, 2076.669
497.6570, 2447.538
498.8400, 3031.404
500.0240, 3765.266
501.2070, 4425.123
502.3910, 5052.976
503.5740, 5884.508
504.7570, 6661.352
505.9400, 7324.100
507.1220, 7650.875
508.3050, 7668.705
509.4870, 7470.537
510.6690, 7059.370
511.8510, 6498.199
513.0330, 5672.041
514.2140, 4945.882
515.3960, 4398.721
516.5770, 3528.137
517.7580, 3027.952
518.9390, 2437.109
520.1200, 1941.021
521.3010, 1611.979
522.4810, 1227.533
523.6610, 1009.241
524.8420, 830.6719
526.0220, 756.3389
527.2010, 637.4248
528.3810, 571.6416
529.5610, 542.5576
530.7400, 501.1387
531.9190, 472.8105
533.0980, 393.7529
534.2770, 408.8447
535.4560, 361.9062
536.6340, 275.2109
537.8120, 342.4199
538.9910, 216.6484
540.1690, 211.9209
541.3460, 142.9648
542.5240, 115.3701
543.7020, 138.5830
544.8790, 83.61719
546.0560, 84.85254
547.2330, 75.37012
548.4100, 110.3955
549.5870, 131.9375
550.7630, 56.76270
551.9400, 144.9629
553.1160, 53.32324
554.2920, 24.14551
555.4680, 168.9180
556.6440, 65.01465
557.8190, 102.9932
558.9950, 164.5410
560.1700, 111.9072
561.3450, 136.4961
562.5200, 130.8818
563.6950, 98.09473
564.8690, 82.14844
566.0440, 38.17383
567.2180, 36.24512
568.3920, 184.6465
569.5660, 90.41602
570.7400, 120.7588
571.9130, 272.8799
573.0870, 88.80078
574.2600, 144.6396
575.4330, 200.3115
576.6060, 303.1758
577.7790, 254.3799
578.9520, 192.6396
580.1240, 251.6143
581.2960, 100.9258
582.4690, 176.8232
583.6410, 170.8994
584.8120, 143.7881
585.9840, 13.02148
587.1560, 58.94141
588.3270, 74.80762
589.4980, 81.83008
590.6690, 128.6924
591.8400, 130.5518
593.0110, 51.66602
594.1810, 43.51562
595.3510, 61.45508
596.5220, 254.2949
597.6920, 1.867188
598.8610, 123.9697
600.0310, 134.8018
601.2010, 57.62891
602.3700, 206.4521
603.5390, 166.2695
604.7080, 84.08301
605.8770, 163.8926
607.0460, 142.6973
608.2140, 67.49805
609.3830, 133.2930
610.5510, 102.0830
611.7190, 111.8691
612.8870, 125.6494
614.0550, 86.42480
615.2220, 122.2207
616.3900, 168.0117
617.5570, 82.80273
618.7240, 113.5879
619.8910, 237.3691
621.0580, 166.1465
622.2240, 118.9180
623.3910, 182.7031
624.5570, 158.4854
625.7230, 258.2617
626.8890, 351.0322
628.0550, 199.7979
629.2200, 283.5586
630.3860, 275.3135
631.5510, 247.0645
632.7160, 256.8096
633.8810, 235.5527
635.0460, 305.2910
636.2100, 307.0225
637.3750, 316.7510
638.5390, 198.4951
639.7030, 317.2344
640.8670, 221.9834
642.0310, 327.7256
643.1950, 252.4619
644.3580, 457.2041
645.5210, 364.9404
646.6850, 378.6699
647.8480, 272.3955
649.0100, 260.1152
650.1730, 314.8311
651.3350, 228.5381
652.4980, 322.2412
653.6600, 317.9385
654.8220, 144.6807
655.9840, 129.3662
657.1450, 223.8369
658.3070, 158.9033
659.4680, 173.5771
660.6300, 171.2451
661.7910, 169.0332
662.9510, 207.7461
664.1120, 196.4639
665.2730, 192.1865
666.4330, 196.9199
667.5930, 171.6445
668.7530, 106.3672
669.9130, 110.1221
671.0730, 51.88086
672.2320, 24.63770
673.3920, 84.38281
674.5510, 126.1191
675.7100, 32.84668
676.8690, 55.56543
678.0280, 50.27344
679.1860, 39.97266
680.3450, 157.6631
681.5030, 33.64648
682.6610, 101.0127
683.8190, 104.6631
684.9770, 47.30566
686.1340, 16.06250
687.2920, 101.5469
688.4490, 95.81348
689.6060, 84.27637
690.7630, 54.22363
691.9200, 16.83691
693.0760, 47.41016
694.2330, 81.59570
695.3890, 72.97656
696.5450, 113.3975
697.7010, 48.17188
698.8570, 12.15234
700.0130, 89.50195
701.1680, 108.0488
702.3230, 40.57227
703.4780, 24.14648
704.6330, 26.45117
705.7880, 24.39160
706.9430, 25.22266
708.0970, 103.0293
709.2520, 103.2734
710.4060, 62.31055
711.5600, 114.1367
712.7140, 118.7979
713.8670, 101.7168
715.0210, 50.58789
716.1740, 36.02539
717.3270, 22.16992
718.4800, 89.53223
719.6330, 17.07422
720.7860, 182.3701
721.9380, 65.46875
723.0910, 223.5557
724.2430, 36.63184
725.3950, 88.04004
726.5470, 201.2119
727.6980, 72.25488
728.8500, 119.2471
730.0010, 136.5762
731.1530, 49.78027
732.3040, 211.9678
733.4550, 90.02637
734.6050, 177.0547
735.7560, 188.3896
736.9060, 243.8730
738.0560, 222.8154
739.2060, 284.7500
740.3560, 213.6426
741.5060, 213.7676
742.6560, 462.6670
743.8050, 307.9004
744.9540, 275.8965
746.1030, 467.8330
747.2520, 306.6895
748.4010, 489.5342
749.5500, 471.4375
750.6980, 318.3359
751.8460, 364.3330
752.9950, 470.7734
754.1420, 413.7256
755.2900, 364.4717
756.4380, 494.2744
757.5850, 487.4150
758.7330, 332.1582
759.8800, 529.1143
761.0270, 679.3291
762.1730, 721.0361
763.3200, 593.8486
764.4670, 708.6768
765.6130, 632.3486
766.7590, 520.0088
767.9050, 549.6562
769.0510, 600.7607
770.1960, 477.6162
771.3420, 462.5635
772.4870, 404.4434
773.6320, 383.2188
774.7770, 380.4443
775.9220, 349.6934
777.0670, 349.6016
778.2110, 327.4111
779.3560, 212.9365
780.5000, 318.5000
781.6440, 269.0000
782.7880, 317.4863
783.9320, 183.0371
785.0750, 210.4980
786.2180, 194.1768
787.3620, 250.6953
788.5050, 149.1182
789.6480, 213.6484
790.7900, 202.1250
791.9330, 129.7256
793.0750, 199.2793
794.2170, 16.89258
795.3590, 49.47461
796.5010, 244.7998
797.6430, 241.4395
798.7850, 112.7383
799.9260, 295.2793
801.0670, 218.0361
802.2080, 288.2041
803.3490, 354.4492
804.4900, 419.7207
805.6310, 435.9502
806.7710, 476.3379
807.9110, 583.7451
809.0510, 572.0615
810.1910, 795.9473
811.3310, 736.0684
812.4710, 855.2012
813.6100, 768.0723
814.7490, 705.0781
815.8880, 796.3223
817.0270, 736.4434
818.1660, 702.6006
819.3050, 568.2578
820.4430, 558.2910
821.5820, 353.3105
822.7200, 209.1357
823.8580, 232.6367
824.9950, 144.0840
826.1330, 208.5264
827.2710, 224.9854
828.4080, 117.7344
829.5450, 79.30469
830.6820, 245.6855
831.8190, 232.5098
832.9560, 164.2832
834.0920, 124.1562
835.2280, 167.4424
836.3650, 127.7412
837.5010, 78.67578
838.6360, 81.49414
839.7720, 172.0400
840.9080, 52.72852
842.0430, 127.1855
843.1780, 125.8164
844.3130, 274.3750
845.4480, 265.1104
846.5830, 1.833008
847.7170, 76.97949
848.8520, 28.66699
849.9860, 63.33789
851.1200, 85.94238
852.2540, 54.99023
853.3870, 174.6816
854.5210, 66.94141
855.6540, 7.530273
856.7880, 76.63574
857.9210, 188.1982
859.0540, 249.5664
860.1860, 208.1045
861.3190, 289.3252
862.4510, 90.75195
863.5840, 129.2568
864.7160, 0.4101560
865.8480, 47.06250
866.9790, 74.52051
868.1110, 64.70508
869.2420, 84.13672
870.3740, 106.4609
871.5050, 31.86816
872.6360, 14.74121
873.7660, 126.6240
874.8970, 119.9766
876.0280, 209.3193
877.1580, 68.64941
878.2880, 157.9658
879.4180, 37.27148
880.5480, 91.56348
881.6770, 102.8428
882.8070, 166.1104
883.9360, 192.3652
885.0650, 102.6104
886.1940, 100.8438
887.3230, 74.73340
888.4520, 75.72852
889.5800, 79.41895
890.7090, 1.445313
891.8370, 109.6689
892.9650, 25.77148
894.0930, 244.8604
895.2200, 63.93848
896.3480, 57.99707
897.4750, 156.0186
898.6020, 89.03906
899.7290, 82.04785
900.8560, 245.0449
901.9830, 128.0312
903.1090, 204.0068
904.2360, 12.97070
905.3620, 59.92090
906.4880, 34.85645
907.6140, 47.78027
908.7400, 69.69043
909.8650, 199.5928
910.9900, 72.51465
912.1160, 28.32227
913.2410, 39.84277
914.3660, 196.9521
915.4900, 100.7588
916.6150, 170.5547
917.7390, 119.3389
918.8640, 93.82520
919.9880, 113.8789
921.1120, 56.63281
922.2350, 91.37598
923.3590, 114.2344
924.4820, 81.98535
925.6060, 91.69727
926.7290, 58.77832
927.8520, 66.60547
928.9740, 49.31152
930.0970, 51.33008
931.2190, 236.6357
932.3420, 30.32227
933.4640, 135.0205
934.5860, 57.44043
935.7080, 4.177734
936.8290, 36.21777
937.9510, 129.3516
939.0720, 96.91113
940.1930, 103.4609
941.3140, 56.99707
942.4350, 53.50000
943.5560, 33.98438
944.6760, 198.4570
945.7960, 187.9229
946.9170, 192.3779
948.0370, 147.8252
949.1560, 90.26953
950.2760, 23.70703
951.3960, 38.13281
952.5150, 27.45215
953.6340, 136.9414
954.7530, 269.3369
955.8720, 158.7227
956.9910, 95.10059
958.1090, 175.4707
959.2280, 0.8378910
960.3460, 199.1543
961.4640, 77.47266
962.5820, 166.8721
963.6990, 116.0850
964.8170, 165.1309
965.9340, 111.4668
967.0510, 274.7949
968.1690, 234.1367
969.2850, 323.4043
970.4020, 228.7432
971.5190, 309.0381
972.6350, 215.1191
973.7510, 340.2051
974.8670, 246.5137
975.9830, 461.4785
977.0990, 310.7471
978.2150, 247.0195
979.3300, 281.3350
980.4450, 432.6436
981.5600, 235.7959
982.6750, 272.8936
983.7900, 161.7607
984.9050, 289.7861
986.0190, 135.9551
987.1340, 278.9883
988.2480, 386.2939
989.3620, 200.3652
990.4750, 471.2383
991.5890, 184.3389
992.7020, 171.6260
993.8160, 237.9062
994.9290, 369.1875
996.0420, 317.4648
997.1550, 349.6084
998.2670, 346.8906
999.3800, 267.2051
1000.492, 385.1641
1001.604, 353.2305
1002.716, 280.2529
1003.828, 268.3652
1004.940, 294.5664
1006.051, 311.4492
1007.163, 452.8477
1008.274, 334.0869
1009.385, 248.3203
1010.496, 424.5469
1011.606, 318.5537
1012.717, 469.7764
1013.827, 447.6465
1014.937, 307.7393
1016.047, 272.8730
1017.157, 338.0693
1018.267, 225.2607
1019.377, 369.3760
1020.486, 381.4795
1021.595, 323.4688
1022.704, 367.9941
1023.813, 224.9912
1024.922, 410.1777
1026.030, 371.2920
1027.139, 372.0498
1028.247, 498.1875
1029.355, 490.0957
1030.463, 618.7285
1031.571, 546.6836
1032.678, 493.9180
1033.786, 432.8848
1034.893, 369.9912
1036.000, 367.9922
1037.107, 326.9561
1038.214, 382.8076
1039.321, 283.6729
1040.427, 306.4160
1041.533, 267.4463
1042.639, 384.9395
1043.745, 288.1045
1044.851, 247.3672
1045.957, 306.3809
1047.062, 128.1582
1048.168, 210.4678
1049.273, 239.1982
1050.378, 260.3467
1051.482, 138.5391
1052.587, 150.4893
1053.692, 280.5107
1054.796, 248.5215
1055.900, 39.58301
1057.004, 156.4551
1058.108, 63.33691
1059.212, 10.33398
1060.315, 36.50879
1061.418, 105.9102
1062.522, 53.92480
1063.625, 111.6582
1064.728, 204.6318
1065.830, 71.53125
1066.933, 121.4932
1068.035, 153.4424
1069.137, 117.9111
1070.239, 136.1592
1071.341, 208.1260
1072.443, 136.0234
1073.545, 181.1611
1074.646, 148.0908
1075.747, 315.7998
1076.848, 214.4238
1077.949, 221.3848
1079.050, 145.2988
1080.150, 214.2100
1081.251, 164.8008
1082.351, 336.6484
1083.451, 267.3291
1084.551, 513.9541
1085.651, 231.1689
1086.750, 351.0664
1087.850, 411.9492
1088.949, 493.8281
1090.048, 670.8691
1091.147, 756.7402
1092.246, 874.7207
1093.345, 1009.416
1094.443, 1043.628
1095.541, 1233.611
1096.639, 1233.465
1097.737, 1304.315
1098.835, 1202.161
1099.933, 1418.006
1101.030, 1199.845
1102.128, 1155.681
1103.225, 1254.513
1104.322, 1124.340
1105.419, 1132.167
1106.515, 914.9902
1107.612, 929.8115
1108.708, 952.6445
1109.804, 825.4746
1110.900, 910.2803
1111.996, 910.1035
1113.092, 750.0645
1114.187, 983.8877
1115.283, 799.7090
1116.378, 931.5273
1117.473, 898.3447
1118.568, 914.1562
1119.662, 985.9785
1120.757, 788.7959
1121.851, 829.8301
1122.946, 1079.656
1124.040, 782.9219
1125.134, 796.7402
1126.227, 737.2793
1127.321, 659.2822
1128.414, 663.2979
1129.508, 550.4141
1130.601, 631.2119
1131.693, 447.0088
1132.786, 502.8047
1133.879, 453.7539
1134.971, 473.4121
1136.064, 455.2275
1137.156, 348.0068
1138.248, 480.7832
1139.339, 326.5645
1140.431, 498.4805
1141.522, 584.2520
1142.614, 511.0186
1143.705, 380.5615
1144.796, 294.3203
1145.887, 394.0771
1146.977, 258.8291
1148.068, 329.5889
1149.158, 393.3438
1150.248, 170.0938
1151.338, 113.8389
1152.428, 212.5791
1153.518, 329.3320
1154.607, 146.0898
1155.696, 237.8438
1156.785, 105.5996
1157.874, 288.3525
1158.963, 293.1025
1160.052, 159.8486
1161.141, 155.5918
1162.229, 55.65039
1163.317, 13.06934
1164.405, 160.7842
1165.493, 214.4941
1166.581, 118.2051
1167.668, 217.9131
1168.756, 142.6162
1169.843, 66.31641
1170.930, 217.0137
1172.017, 12.70801
1173.103, 3.597656
1174.190, 45.08691
1175.276, 2.232422
1176.363, 30.54004
1177.449, 84.12891
1178.535, 73.19336
1179.620, 88.43750
1180.706, 42.06543
1181.791, 30.68652
1182.877, 110.3027
1183.962, 109.9160
1185.047, 15.52344
1186.131, 37.12598
1187.216, 102.4014
1188.300, 91.13379
1189.385, 49.61426
1190.469, 187.8691
1191.553, 117.2305
1192.637, 45.24902
1193.720, 96.14062
1194.804, 86.62695
1195.887, 6.108398
1196.970, 124.5605
1198.053, 9.032227
1199.136, 79.51758
1200.219, 18.00098
1201.301, 62.49023
1202.383, 104.9766
1203.465, 16.45801
1204.547, 23.93457
1205.629, 75.42285
1206.711, 181.9082
1207.792, 57.39062
1208.874, 136.8701
1209.955, 95.34473
1211.036, 19.18457
1212.117, 86.26660
1213.198, 39.71484
1214.278, 69.15820
1215.359, 17.23926
1216.439, 64.39453
1217.519, 112.8320
1218.599, 129.8574
1219.678, 21.36719
1220.758, 74.93359
1221.837, 63.54395
1222.917, 49.50293
1223.996, 125.8496
1225.075, 35.61328
1226.153, 110.5215
1227.232, 119.5146
1228.310, 158.6572
1229.389, 132.4746
1230.467, 126.4570
1231.545, 185.7852
1232.622, 208.9111
1233.700, 88.61035
1234.777, 95.20898
1235.855, 175.5928
1236.932, 183.9717
1238.009, 237.8887
1239.086, 185.5986
1240.162, 21.36914
1241.239, 94.97949
1242.315, 34.32422
1243.391, 89.60742
1244.467, 131.9434
1245.543, 105.2744
1246.619, 68.60156
1247.694, 73.92480
1248.769, 118.0928
1249.844, 108.4082
1250.919, 18.71875
1251.994, 199.7803
1253.069, 9.918945
1254.144, 96.36328
1255.218, 14.35742
1256.292, 25.90039
1257.366, 22.15332
1258.440, 55.60059
1259.514, 151.6045
1260.587, 188.8350
1261.661, 93.03223
1262.734, 33.22559
1263.807, 48.53906
1264.880, 63.61035
1265.952, 193.7637
1267.025, 305.9121
1268.097, 86.05762
1269.170, 37.20020
1270.242, 73.33594
1271.314, 244.4668
1272.385, 15.40430
1273.457, 165.7031
1274.528, 119.9004
1275.600, 330.0020
1276.671, 119.5898
1277.742, 205.6836
1278.812, 200.7715
1279.883, 227.8555
1280.954, 240.9355
1282.024, 67.01367
1283.094, 179.0879
1284.164, 83.15625
1285.234, 168.9629
1286.303, 356.0254
1287.373, 117.0820
1288.442, 337.2461
1289.511, 195.2988
1290.580, 179.3457
