##NAMES=Microcline
##RRUFFID=R050193
##IDEAL CHEMISTRY=KAlSi_3_O_8_
##LOCALITY=Devil's Head, Douglas County, Colorado, USA
##OWNER=RRUFF
##SOURCE=Dave Bunk Minerals
##DESCRIPTION=White to colorless heterogeneous mixture of K and Na feldspar in a cluster of crystals. Crystal structure determined, presented below. This sample is known as an intermediate microcline in the literature.
##STATUS=The identification of this mineral has been confirmed by X-ray diffraction and chemical analysis
##URL=rruff.info/R050193
##MEASURED CHEMISTRY=(K_0.929_Na_0.071_)(Al_1.005_Si_2.994_Fe_0.001_)O_7.993_F_0.007_  ; Light Band :  (Na_0.973_K_0.007_Ca_0.020_)(Al_1.020_Si_2.980_)O_8_ ; Dark Band
##PIN_ID=L00422
##ORIENTATION=Laser parallel to b* (0 1 0). Fiducial mark perpendicular to laser is parallel to c [0 0 1]
127.7630, 0.0000000E+00
128.9970, 165.0820
130.2300, 15.88184
131.4640, 60.31885
132.6970, 102.9053
133.9300, 197.1240
135.1630, 633.0742
136.3950, 915.1514
137.6280, 1294.862
138.8600, 1642.263
140.0920, 1991.542
141.3240, 2261.224
142.5560, 2559.699
143.7880, 2982.401
145.0190, 3583.241
146.2510, 4158.502
147.4820, 4546.702
148.7130, 5038.518
149.9440, 5489.754
151.1750, 6111.127
152.4050, 6434.745
153.6360, 6724.467
154.8660, 6927.520
156.0960, 6892.325
157.3260, 6883.598
158.5560, 6492.735
159.7850, 6054.257
161.0150, 5509.391
162.2440, 4965.320
163.4730, 4298.172
164.7020, 3813.056
165.9310, 3247.071
167.1590, 2725.331
168.3880, 2465.925
169.6160, 2318.935
170.8440, 2163.423
172.0720, 2205.209
173.3000, 2191.375
174.5280, 2287.676
175.7550, 2422.344
176.9820, 2544.189
178.2100, 2673.927
179.4370, 2712.008
180.6630, 2672.228
181.8900, 2740.125
183.1170, 2729.785
184.3430, 2574.627
185.5690, 2561.206
186.7950, 2383.938
188.0210, 2279.812
189.2470, 2049.806
190.4720, 1980.895
191.6970, 1730.205
192.9230, 1725.903
194.1480, 1680.952
195.3730, 1717.154
196.5970, 1724.358
197.8220, 1772.564
199.0460, 1762.773
200.2700, 1615.987
201.4940, 1588.221
202.7180, 1503.554
203.9420, 1240.126
205.1660, 1199.960
206.3890, 1179.006
207.6120, 976.1943
208.8350, 973.5391
210.0580, 818.0703
211.2810, 825.7383
212.5040, 608.4990
213.7260, 527.3467
214.9480, 383.2734
216.1700, 119.2705
217.3920, 113.3306
218.6140, 117.4468
219.8360, 83.38525
221.0570, 157.1729
222.2790, 148.9175
223.5000, 118.6240
224.7210, 37.29932
225.9410, 126.9580
227.1620, 154.6143
228.3820, 17.28320
229.6030, 124.9722
230.8230, 158.6816
232.0430, 148.4092
233.2630, 125.1533
234.4820, 156.9150
235.7020, 131.5400
236.9210, 3.193848
238.1400, 3.518555
239.3590, 138.6504
240.5780, 212.8047
241.7970, 306.9448
243.0150, 400.0718
244.2340, 530.1855
245.4520, 732.2842
246.6700, 933.3628
247.8880, 1129.453
249.1060, 1382.913
250.3230, 1617.380
251.5400, 1872.635
252.7580, 2227.966
253.9750, 2497.231
255.1920, 2769.598
256.4080, 2882.875
257.6250, 2901.003
258.8410, 3169.031
260.0580, 3218.676
261.2740, 2961.549
262.4900, 2806.771
263.7050, 2831.902
264.9210, 2648.050
266.1360, 2699.210
267.3520, 2660.383
268.5670, 2589.566
269.7820, 2782.760
270.9960, 2926.963
272.2110, 2860.178
273.4250, 3286.402
274.6400, 3573.015
275.8540, 4145.250
277.0680, 4515.443
278.2810, 5384.946
279.4950, 6046.039
280.7090, 6628.737
281.9220, 7174.259
283.1350, 7481.896
284.3480, 7644.510
285.5610, 7478.487
286.7730, 7318.544
287.9860, 6984.108
289.1980, 6494.304
290.4100, 5966.085
291.6220, 5308.939
292.8340, 4441.786
294.0460, 3871.510
295.2570, 3103.020
296.4690, 2506.508
297.6800, 1908.963
298.8910, 1486.358
300.1020, 1231.673
301.3120, 1039.888
302.5230, 847.0010
303.7330, 738.0225
304.9440, 615.9604
306.1540, 526.8203
307.3630, 490.6094
308.5730, 596.3315
309.7830, 375.9922
310.9920, 361.5991
312.2010, 494.1519
313.4100, 406.6528
314.6190, 334.1060
315.8280, 477.5127
317.0370, 576.8760
318.2450, 618.1934
319.4530, 746.4624
320.6610, 786.4033
321.8690, 1038.011
323.0770, 1044.383
324.2850, 1267.523
325.4920, 1554.360
326.6990, 1576.914
327.9060, 1745.188
329.1130, 1803.393
330.3200, 1698.603
331.5270, 1579.821
332.7330, 1239.044
333.9390, 1139.274
335.1450, 808.5083
336.3510, 611.7471
337.5570, 570.9893
338.7630, 532.2319
339.9680, 500.4746
341.1740, 347.7163
342.3790, 260.9561
343.5840, 250.1943
344.7890, 230.4307
345.9930, 268.6641
347.1980, 314.8950
348.4020, 362.1240
349.6060, 379.8467
350.8100, 363.5718
352.0140, 354.7876
353.2180, 381.9976
354.4210, 365.3701
355.6250, 392.3950
356.8280, 344.5825
358.0310, 370.7598
359.2340, 325.9282
360.4360, 362.0864
361.6390, 336.0015
362.8410, 361.8818
364.0430, 289.7686
365.2450, 404.7002
366.4470, 374.0010
367.6490, 493.8179
368.8510, 522.5327
370.0520, 413.3472
371.2530, 307.5293
372.4540, 380.9702
373.6550, 302.0239
374.8560, 178.3140
376.0560, 168.4819
377.2570, 26.29053
378.4570, 133.5469
379.6570, 56.19385
380.8570, 44.37158
382.0570, 44.88086
383.2560, 26.29395
384.4560, 60.56592
385.6550, 107.7075
386.8540, 11.10645
388.0530, 6.907715
389.2520, 40.28516
390.4510, 113.4971
391.6490, 32.24561
392.8470, 105.9824
394.0450, 122.7114
395.2430, 148.4341
396.4410, 263.1650
397.6390, 241.8896
398.8360, 320.6128
400.0340, 465.2842
401.2310, 581.9395
402.4280, 597.5273
403.6250, 630.1035
404.8210, 633.0991
406.0180, 525.1299
407.2140, 532.6426
408.4100, 538.1665
409.6060, 386.6904
410.8020, 486.2134
411.9980, 268.7358
413.1930, 310.2578
414.3890, 299.8076
415.5840, 142.3687
416.7790, 149.9302
417.9740, 54.49609
419.1680, 83.05127
420.3630, 71.38330
421.5570, 37.87207
422.7510, 89.39355
423.9450, 30.98633
425.1390, 88.62158
426.3330, 8.332520
427.5270, 22.07617
428.7200, 13.14062
429.9130, 12.33447
431.1060, 2.479492
432.2990, 28.32373
433.4920, 5.894531
434.6840, 55.13574
435.8770, 58.89209
437.0690, 83.89795
438.2610, 176.8833
439.4530, 200.8560
440.6450, 266.8101
441.8360, 351.7451
443.0280, 533.6611
444.2190, 451.5576
445.4100, 550.4355
446.6010, 716.2959
447.7920, 948.1372
448.9820, 981.9614
450.1730, 1272.773
451.3630, 1255.568
452.5530, 1314.346
453.7430, 1381.034
454.9330, 1251.780
456.1230, 1259.509
457.3120, 1307.271
458.5010, 1231.969
459.6910, 1102.776
460.8800, 1177.520
462.0680, 1366.249
463.2570, 1309.915
464.4460, 1679.536
465.6340, 1821.173
466.8220, 2227.772
468.0100, 2614.358
469.1980, 3159.937
470.3860, 3759.508
471.5730, 4316.184
472.7600, 4854.742
473.9480, 5034.357
475.1350, 5506.903
476.3210, 5684.444
477.5080, 5514.977
478.6950, 5195.506
479.8810, 4814.027
481.0670, 4618.543
482.2530, 4022.052
483.4390, 3499.555
484.6250, 2982.051
485.8100, 2617.429
486.9960, 2257.754
488.1810, 1844.994
489.3660, 1790.387
490.5510, 1661.853
491.7360, 1477.312
492.9200, 1689.766
494.1050, 1874.213
495.2890, 2273.653
496.4730, 2601.088
497.6570, 3174.518
498.8400, 3912.939
500.0240, 4862.356
501.2070, 5639.769
502.3910, 6699.175
503.5740, 7898.576
504.7570, 9110.969
505.9400, 10306.36
507.1220, 11659.75
508.3050, 12191.17
509.4870, 12780.63
510.6690, 12917.15
511.8510, 12864.71
513.0330, 11856.29
514.2140, 10675.91
515.3960, 9126.579
516.5770, 7710.264
517.7580, 6326.871
518.9390, 5120.535
520.1200, 3931.278
521.3010, 3222.975
522.4810, 2536.658
523.6610, 2150.417
524.8420, 1757.922
526.0220, 1431.282
527.2010, 1321.146
528.3810, 1156.054
529.5610, 964.2490
530.7400, 1011.129
531.9190, 806.9424
533.0980, 699.5479
534.2770, 624.8096
535.4560, 429.5898
536.6340, 489.4375
537.8120, 472.2910
538.9910, 565.3848
540.1690, 405.9795
541.3460, 438.0889
542.5240, 255.6924
543.7020, 271.6982
544.8790, 254.6152
546.0560, 294.5303
547.2330, 272.5879
548.4100, 201.6973
549.5870, 236.3057
550.7630, 205.2041
551.9400, 153.1016
553.1160, 176.1904
554.2920, 204.0342
555.4680, 171.4600
556.6440, 201.1406
557.8190, 169.3281
558.9950, 201.2617
560.1700, 199.7812
561.3450, 201.3984
562.5200, 189.0840
563.6950, 148.1152
564.8690, 121.8848
566.0440, 278.6807
567.2180, 77.04004
568.3920, 193.4180
569.5660, 261.2676
570.7400, 196.7520
571.9130, 281.9482
573.0870, 335.0879
574.2600, 264.2881
575.4330, 300.1621
576.6060, 304.2207
577.7790, 336.4805
578.9520, 322.3926
580.1240, 326.9453
581.2960, 315.1191
582.4690, 398.9541
583.6410, 201.0820
584.8120, 359.9209
585.9840, 158.8252
587.1560, 284.6953
588.3270, 124.5283
589.4980, 82.35938
590.6690, 238.4072
591.8400, 84.23242
593.0110, 112.0586
594.1810, 24.11719
595.3510, 134.9297
596.5220, 214.7422
597.6920, 35.55469
598.8610, 69.36523
600.0310, 17.17676
601.2010, 28.98340
602.3700, 28.78809
603.5390, 40.59473
604.7080, 103.3984
605.8770, 41.20117
607.0460, 184.0029
608.2140, 53.80273
609.3830, 105.6035
610.5510, 172.4072
611.7190, 22.21680
612.8870, 202.0264
614.0550, 33.84375
615.2220, 186.6582
616.3900, 91.48438
617.5570, 152.3086
618.7240, 173.1309
619.8910, 89.95215
621.0580, 193.7725
622.2240, 248.5908
623.3910, 417.4072
624.5570, 512.2217
625.7230, 441.0674
626.8890, 539.9121
628.0550, 520.7627
629.2200, 471.6113
630.3860, 618.4600
631.5510, 462.3184
632.7160, 604.1748
633.8810, 470.0371
635.0460, 415.8965
636.2100, 384.7637
637.3750, 344.6523
638.5390, 322.5508
639.7030, 274.4473
640.8670, 494.3516
642.0310, 438.2559
643.1950, 436.1582
644.3580, 539.0586
645.5210, 469.9570
646.6850, 662.8525
647.8480, 608.7451
649.0100, 657.6348
650.1730, 673.5205
651.3350, 641.4023
652.4980, 517.2793
653.6600, 521.3232
654.8220, 425.1982
655.9840, 313.0693
657.1450, 325.9336
658.3070, 272.7949
659.4680, 227.6514
660.6300, 209.5068
661.7910, 195.3564
662.9510, 358.2256
664.1120, 165.1230
665.2730, 40.98242
666.4330, 184.8965
667.5930, 90.79395
668.7530, 143.7188
669.9130, 78.35645
671.0730, 28.47461
672.2320, 58.40234
673.3920, 12.69141
674.5510, 114.2021
675.7100, 76.08984
676.8690, 47.02734
678.0280, 32.82227
679.1860, 26.57715
680.3450, 28.47949
681.5030, 7.712891
682.6610, 52.07910
683.8190, 126.8633
684.9770, 77.63965
686.1340, 87.40918
687.2920, 1.169922
688.4490, 41.08105
689.6060, 77.63574
690.7630, 105.6650
691.9200, 47.36719
693.0760, 70.28809
694.2330, 100.9219
695.3890, 41.08887
696.5450, 4.682617
697.7010, 12.53711
698.8570, 79.15430
700.0130, 59.12012
701.1680, 7.535156
702.3230, 35.77148
703.4780, 42.83301
704.6330, 31.51758
705.7880, 74.23730
706.9430, 99.08398
708.0970, 5.968750
709.2520, 30.44336
710.4060, 55.29980
711.5600, 7.196289
712.7140, 121.9678
713.8670, 26.45996
715.0210, 24.93164
716.1740, 54.54785
717.3270, 26.15527
718.4800, 18.38574
719.6330, 10.04688
720.7860, 113.5137
721.9380, 23.57715
723.0910, 166.3213
724.2430, 77.09082
725.3950, 85.46875
726.5470, 107.8350
727.6980, 202.2080
728.8500, 8.216797
730.0010, 128.2090
731.1530, 149.7939
732.3040, 263.2109
733.4550, 41.28418
734.6050, 248.6113
735.7560, 128.0469
736.9060, 212.8779
738.0560, 362.3965
739.2060, 337.5088
740.3560, 478.8105
741.5060, 600.8750
742.6560, 545.0508
743.8050, 554.4502
744.9540, 490.8916
746.1030, 761.3906
747.2520, 804.0078
748.4010, 788.4316
749.5500, 728.1309
750.6980, 529.1211
751.8460, 671.3174
752.9950, 586.4521
754.1420, 678.8438
755.2900, 571.9238
756.4380, 547.1348
757.5850, 579.2998
758.7330, 622.7217
759.8800, 542.9805
761.0270, 568.2500
762.1730, 534.2559
763.3200, 649.2754
764.4670, 669.2559
765.6130, 677.1465
766.7590, 616.1006
767.9050, 633.4883
769.0510, 482.1426
770.1960, 417.4082
771.3420, 379.0908
772.4870, 357.9980
773.6320, 417.3447
774.7770, 372.8174
775.9220, 333.4551
777.0670, 370.4512
778.2110, 313.0117
779.3560, 219.3711
780.5000, 355.4385
781.6440, 247.5908
782.7880, 218.4023
783.9320, 376.2900
785.0750, 296.0176
786.2180, 242.7295
787.3620, 265.4268
788.5050, 346.1094
789.6480, 240.7773
790.7900, 105.6846
791.9330, 236.4248
793.0750, 265.4141
794.2170, 320.0195
795.3590, 235.7148
796.5010, 311.3027
797.6430, 284.8613
798.7850, 308.4834
799.9260, 305.0117
801.0670, 355.5498
802.2080, 491.2051
803.3490, 552.3330
804.4900, 448.9033
805.6310, 652.3525
806.7710, 817.1631
807.9110, 710.8115
809.0510, 968.9229
810.1910, 938.2695
811.3310, 1169.798
812.4710, 1113.448
813.6100, 1149.114
814.7490, 1126.623
815.8880, 1010.771
817.0270, 896.3975
818.1660, 752.4902
819.3050, 604.0703
820.4430, 460.2275
821.5820, 392.4531
822.7200, 489.6621
823.8580, 228.9941
824.9950, 277.8232
826.1330, 261.2822
827.2710, 64.67090
828.4080, 159.8008
829.5450, 86.79297
830.6820, 115.9883
831.8190, 84.53027
832.9560, 89.03613
834.0920, 84.26660
835.2280, 100.5078
836.3650, 90.52344
837.5010, 94.02246
838.6360, 88.22168
839.7720, 103.6484
840.9080, 89.15039
842.0430, 81.39844
843.1780, 56.05664
844.3130, 46.95801
845.4480, 7.523438
846.5830, 21.83789
847.7170, 184.0605
848.8520, 57.53711
849.9860, 173.3281
851.1200, 1.850586
852.2540, 168.5195
853.3870, 90.11426
854.5210, 237.5713
855.6540, 126.5664
856.7880, 110.9248
857.9210, 8.395508
859.0540, 38.96680
860.1860, 30.59961
861.3190, 122.1494
862.4510, 127.7178
863.5840, 117.5557
864.7160, 66.87988
865.8480, 96.21973
866.9790, 55.76367
868.1110, 93.29102
869.2420, 6.803711
870.3740, 109.0713
871.5050, 80.55469
872.6360, 9.022461
873.7660, 55.46973
874.8970, 130.9033
876.0280, 83.32324
877.1580, 1.727539
878.2880, 128.1104
879.4180, 70.48047
880.5480, 50.83496
881.6770, 41.17383
882.8070, 15.24707
883.9360, 4.279297
885.0650, 8.917969
886.1940, 0.3349610
887.3230, 17.43555
888.4520, 95.76367
889.5800, 37.05078
890.7090, 171.0918
891.8370, 83.22168
892.9650, 91.33789
894.0930, 26.43945
895.2200, 62.52441
896.3480, 56.59668
897.4750, 117.6514
898.6020, 113.3047
899.7290, 128.6572
900.8560, 16.39355
901.9830, 137.5244
903.1090, 12.43066
904.2360, 29.67969
905.3620, 30.17383
906.4880, 14.97949
907.6140, 108.8389
908.7400, 26.35547
909.8650, 76.58398
910.9900, 31.87109
912.1160, 72.80566
913.2410, 31.53223
914.3660, 4.093750
915.4900, 43.70117
916.6150, 19.29590
917.7390, 96.87402
918.8640, 74.44043
919.9880, 186.9941
921.1120, 243.5352
922.2350, 170.0654
923.3590, 132.5830
924.4820, 118.0898
925.6060, 10.41602
926.7290, 80.88965
927.8520, 17.34863
928.9740, 184.7939
930.0970, 79.22656
931.2190, 100.6494
932.3420, 174.0596
933.4640, 84.45996
934.5860, 222.8477
935.7080, 56.77539
936.8290, 63.55566
937.9510, 162.8770
939.0720, 75.19824
940.1930, 119.5088
941.3140, 8.809570
942.4350, 170.0967
943.5560, 10.39355
944.6760, 232.6865
945.7960, 237.9688
946.9170, 25.24316
948.0370, 17.50488
949.1560, 71.75488
950.2760, 160.0508
951.3960, 100.3428
952.5150, 99.63281
953.6340, 289.9141
954.7530, 164.1875
955.8720, 185.4678
956.9910, 206.7354
958.1090, 58.99512
959.2280, 176.2441
960.3460, 111.4854
961.4640, 32.73145
962.5820, 157.6475
963.6990, 94.87305
964.8170, 58.86328
965.9340, 137.9658
967.0510, 166.9824
968.1690, 140.0332
969.2850, 159.0547
970.4020, 183.6826
971.5190, 314.1807
972.6350, 299.2578
973.7510, 282.3018
974.8670, 457.4219
975.9830, 380.4736
977.0990, 404.5137
978.2150, 259.4365
979.3300, 406.3438
980.4450, 337.6514
981.5600, 328.1641
982.6750, 277.4033
983.7900, 323.3574
984.9050, 378.5889
986.0190, 382.7012
987.1340, 276.9434
988.2480, 334.0479
989.3620, 383.2852
990.4750, 478.5215
991.5890, 444.7070
992.7020, 468.2773
993.8160, 500.1484
994.9290, 562.9775
996.0420, 593.0713
997.1550, 542.3760
998.2670, 649.5488
999.3800, 655.5020
1000.492, 614.5811
1001.604, 761.4854
1002.716, 725.5391
1003.828, 594.9961
1004.940, 681.1074
1006.051, 592.0938
1007.163, 523.6172
1008.274, 667.5166
1009.385, 642.6777
1010.496, 458.6807
1011.606, 543.9023
1012.717, 480.0439
1013.827, 531.9756
1014.937, 356.8193
1016.047, 361.6172
1017.157, 395.2773
1018.267, 557.1133
1019.377, 316.6582
1020.486, 447.7949
1021.595, 535.8262
1022.704, 537.8408
1023.813, 588.6475
1024.922, 527.7500
1026.030, 461.7031
1027.139, 513.6855
1028.247, 690.3945
1029.355, 783.2490
1030.463, 616.0762
1031.571, 754.1504
1032.678, 661.1943
1033.786, 745.2588
1034.893, 670.3945
1036.000, 664.4502
1037.107, 576.0547
1038.214, 537.9766
1039.321, 592.1191
1040.427, 444.3770
1041.533, 461.4600
1042.639, 419.1182
1043.745, 269.8203
1044.851, 480.0527
1045.957, 422.9102
1047.062, 410.1846
1048.168, 272.6445
1049.273, 261.3779
1050.378, 276.0068
1051.482, 189.9609
1052.587, 176.8203
1053.692, 104.8232
1054.796, 139.3740
1055.900, 47.82031
1057.004, 212.8594
1058.108, 237.8535
1059.212, 244.6973
1060.315, 224.5820
1061.418, 238.1992
1062.522, 193.3281
1063.625, 122.2041
1064.728, 102.1699
1065.830, 104.3340
1066.933, 40.23047
1068.035, 85.20215
1069.137, 87.31250
1070.239, 86.28613
1071.341, 42.39941
1072.443, 165.5811
1073.545, 105.7295
1074.646, 133.4541
1075.747, 202.4121
1076.848, 224.0010
1077.949, 59.95508
1079.050, 244.9072
1080.150, 73.58203
1081.251, 235.4277
1082.351, 239.5586
1083.451, 148.5918
1084.551, 275.6748
1085.651, 240.6133
1086.750, 275.5498
1087.850, 394.6562
1088.949, 375.5859
1090.048, 493.7803
1091.147, 480.5732
1092.246, 597.5010
1093.345, 717.9277
1094.443, 784.7275
1095.541, 909.5283
1096.639, 955.5908
1097.737, 1042.595
1098.835, 1042.259
1099.933, 976.3438
1101.030, 962.2529
1102.128, 847.2021
1103.225, 834.1387
1104.322, 780.5254
1105.419, 693.4258
1106.515, 635.4814
1107.612, 711.4668
1108.708, 921.6914
1109.804, 674.5820
1110.900, 550.3350
1111.996, 797.4111
1113.092, 877.2969
1114.187, 803.1924
1115.283, 867.1865
1116.378, 905.2852
1117.473, 851.3154
1118.568, 1072.610
1119.662, 997.0352
1120.757, 1049.167
1121.851, 1030.074
1122.946, 1021.769
1124.040, 1029.900
1125.134, 984.7705
1126.227, 986.6553
1127.321, 885.5371
1128.414, 872.3975
1129.508, 920.3516
1130.601, 804.2109
1131.693, 842.2041
1132.786, 780.2041
1133.879, 801.0459
1134.971, 762.5869
1136.064, 883.4229
1137.156, 814.3223
1138.248, 776.1514
1139.339, 1008.321
1140.431, 702.1445
1141.522, 955.0498
1142.614, 825.8652
1143.705, 688.6797
1144.796, 739.4902
1145.887, 551.3252
1146.977, 382.1553
1148.068, 397.9844
1149.158, 424.8086
1150.248, 465.6357
1151.338, 364.9697
1152.428, 235.9443
1153.518, 271.7773
1154.607, 355.6895
1155.696, 226.5615
1156.785, 260.3945
1157.874, 179.2217
1158.963, 133.3281
1160.052, 286.1641
1161.141, 266.3057
1162.229, 270.1338
1163.317, 309.1357
1164.405, 231.8066
1165.493, 273.6514
1166.581, 210.5010
1167.668, 121.3584
1168.756, 217.2002
1169.843, 29.94531
1170.930, 113.8867
1172.017, 58.87305
1173.103, 51.70312
1174.190, 6.537109
1175.276, 171.5078
1176.363, 118.3643
1177.449, 190.2168
1178.535, 176.0781
1179.620, 86.93555
1180.706, 146.7900
1181.791, 119.6387
1182.877, 165.6367
1183.962, 93.47754
1185.047, 176.3115
1186.131, 167.1396
1187.216, 67.98438
1188.300, 145.0479
1189.385, 52.85840
1190.469, 162.6689
1191.553, 142.4746
1192.637, 45.27539
1193.720, 168.0703
1194.804, 97.85938
1195.887, 35.64355
1196.970, 130.4189
1198.053, 220.1895
1199.136, 41.95508
1200.219, 42.72949
1201.301, 46.49805
1202.383, 5.260742
1203.465, 37.72266
1204.547, 48.75781
1205.629, 91.53809
1206.711, 103.2725
1207.792, 157.0625
1208.874, 177.7881
1209.955, 78.50488
1211.036, 30.21582
1212.117, 154.0781
1213.198, 7.454102
1214.278, 51.15527
1215.359, 266.7559
1216.439, 94.35059
1217.519, 40.06055
1218.599, 173.4941
1219.678, 24.07812
1220.758, 130.6182
1221.837, 141.1533
1222.917, 3.681641
1223.996, 109.1973
1225.075, 145.7080
1226.153, 53.21387
1227.232, 36.71191
1228.310, 0.2021480
1229.389, 46.67871
1230.467, 121.1475
1231.545, 78.60938
1232.622, 81.24219
1233.700, 5.690430
1234.777, 153.1279
1235.855, 51.55859
1236.932, 67.98047
1238.009, 87.60449
1239.086, 102.7490
1240.162, 95.90332
1241.239, 44.37891
1242.315, 112.6523
1243.391, 97.91992
1244.467, 65.28613
1245.543, 5.460938
1246.619, 4.378906
1247.694, 24.42285
1248.769, 10.61426
1249.844, 29.55371
1250.919, 81.82910
1251.994, 84.39062
1253.069, 74.13184
1254.144, 103.2773
1255.218, 85.41504
1256.292, 85.54590
1257.366, 90.28027
1258.440, 66.19727
1259.514, 87.89648
1260.587, 55.16504
1261.661, 52.25879
1262.734, 107.3457
1263.807, 3.425781
1264.880, 157.5293
1265.952, 73.58887
1267.025, 223.6543
1268.097, 102.2871
1269.170, 270.7031
1270.242, 68.68457
1271.314, 101.6602
1272.385, 130.6299
1273.457, 135.5908
1274.528, 119.3242
1275.600, 145.3154
1276.671, 217.2559
1277.742, 153.1895
1278.812, 115.1162
1279.883, 21.96387
1280.954, 16.25293
1282.024, 190.7920
1283.094, 0.6484380
1284.164, 85.48828
1285.234, 210.3213
1286.303, 127.1475
1287.373, 32.49805
1288.442, 154.4697
