##NAMES=Microcline
##RRUFFID=R050193
##IDEAL CHEMISTRY=KAlSi_3_O_8_
##LOCALITY=Devil's Head, Douglas County, Colorado, USA
##OWNER=RRUFF
##SOURCE=Dave Bunk Minerals
##DESCRIPTION=White to colorless heterogeneous mixture of K and Na feldspar in a cluster of crystals. Crystal structure determined, presented below. This sample is known as an intermediate microcline in the literature.
##STATUS=The identification of this mineral has been confirmed by X-ray diffraction and chemical analysis
##URL=rruff.info/R050193
##MEASURED CHEMISTRY=(K_0.929_Na_0.071_)(Al_1.005_Si_2.994_Fe_0.001_)O_7.993_F_0.007_  ; Light Band :  (Na_0.973_K_0.007_Ca_0.020_)(Al_1.020_Si_2.980_)O_8_ ; Dark Band
##PIN_ID=L00660
##ORIENTATION=Laser parallel to c* (0 0 1). Fiducial mark perpendicular to laser is parallel to a [1 0 0]
142.5560, 0.0000000E+00
143.7880, 5.8594000E-02
145.0190, 23.11719
146.2510, 276.9785
147.4820, 582.5332
148.7130, 390.0430
149.9440, 756.6836
151.1750, 710.4199
152.4050, 837.1250
153.6360, 994.7793
154.8660, 939.3438
156.0960, 957.6641
157.3260, 856.0410
158.5560, 760.2227
159.7850, 661.2344
161.0150, 434.2305
162.2440, 527.7480
163.4730, 479.7207
164.7020, 523.5762
165.9310, 317.8789
167.1590, 366.9512
168.3880, 539.6719
169.6160, 387.1172
170.8440, 611.3262
172.0720, 670.3320
173.3000, 680.1543
174.5280, 1062.828
175.7550, 1112.363
176.9820, 1068.781
178.2100, 936.0918
179.4370, 942.1543
180.6630, 811.0000
181.8900, 912.9551
183.1170, 826.8145
184.3430, 577.1445
185.5690, 611.7363
186.7950, 515.2793
188.0210, 258.1582
189.2470, 384.3086
190.4720, 370.9531
191.6970, 652.2363
192.9230, 479.9766
194.1480, 441.7617
195.3730, 596.6875
196.5970, 613.6367
197.8220, 590.5996
199.0460, 695.5605
200.2700, 626.5156
201.4940, 499.4609
202.7180, 375.4336
203.9420, 327.5078
205.1660, 289.5449
206.3890, 197.6172
207.6120, 152.6895
208.8350, 50.76367
210.0580, 85.84375
211.2810, 178.9316
212.5040, 92.03320
213.7260, 92.19727
214.9480, 43.62500
216.1700, 78.55469
217.3920, 37.72266
218.6140, 81.09766
219.8360, 71.88867
221.0570, 190.6445
222.2790, 135.3574
223.5000, 40.58984
224.7210, 41.04688
225.9410, 41.17773
227.1620, 81.53516
228.3820, 17.68555
229.6030, 121.8867
230.8230, 122.3184
232.0430, 119.0859
233.2630, 94.07031
234.4820, 95.45117
235.7020, 99.58398
236.9210, 38.15625
238.1400, 7.6172002E-02
239.3590, 143.1289
240.5780, 132.6875
241.7970, 315.0762
243.0150, 344.7832
244.2340, 537.4043
245.4520, 452.1094
246.6700, 595.7305
247.8880, 670.6016
249.1060, 799.8125
250.3230, 912.9961
251.5400, 1119.613
252.7580, 1413.834
253.9750, 1595.066
255.1920, 1570.205
256.4080, 2132.242
257.6250, 2129.279
258.8410, 2667.340
260.0580, 3184.439
261.2740, 3083.576
262.4900, 3333.211
263.7050, 3231.393
264.9210, 3446.516
266.1360, 3370.725
267.3520, 3257.969
268.5670, 3343.250
269.7820, 3355.566
270.9960, 3192.920
272.2110, 3429.309
273.4250, 3358.736
274.6400, 3261.201
275.8540, 3347.705
277.0680, 3500.244
278.2810, 3736.820
279.4950, 3503.434
280.7090, 3711.086
281.9220, 3573.777
283.1350, 3518.418
284.3480, 3392.820
285.5610, 3063.938
286.7730, 2969.756
287.9860, 2471.613
289.1980, 2227.215
290.4100, 1783.473
291.6220, 1438.141
292.8340, 1363.096
294.0460, 914.2695
295.2570, 1113.617
296.4690, 674.1016
297.6800, 550.6992
298.8910, 539.3945
300.1020, 326.1641
301.3120, 108.9961
302.5230, 141.8809
303.7330, 16.81055
304.9440, 225.7773
306.1540, 37.78516
307.3630, 86.82227
308.5730, 81.12695
309.7830, 38.09375
310.9920, 78.07812
312.2010, 126.9219
313.4100, 54.92188
314.6190, 60.92969
315.8280, 42.94531
317.0370, 30.96680
318.2450, 92.00000
319.4530, 72.01367
320.6610, 3.960938
321.8690, 84.06836
323.0770, 15.88867
324.2850, 51.84570
325.4920, 82.14844
326.6990, 94.08203
327.9060, 165.8008
329.1130, 5.429688
330.3200, 95.00195
331.5270, 165.5996
332.7330, 18.21875
333.9390, 86.87305
335.1450, 136.5488
336.3510, 59.76953
337.5570, 69.91406
338.7630, 62.61914
339.9680, 147.6562
341.1740, 6.050781
342.3790, 54.77148
343.5840, 43.51172
344.7890, 31.27148
345.9930, 1.949219
347.1980, 60.84570
348.4020, 17.66211
349.6060, 24.50391
350.8100, 5.662109
352.0140, 86.19531
353.2180, 27.84375
354.4210, 45.97266
355.6250, 38.88867
356.8280, 40.82812
358.0310, 160.7891
359.2340, 13.76758
360.4360, 265.2559
361.6390, 331.2754
362.8410, 199.3164
364.0430, 232.8926
365.2450, 236.9961
366.4470, 68.47461
367.6490, 275.1777
368.8510, 365.3242
370.0520, 221.1406
371.2530, 205.7383
372.4540, 255.8418
373.6550, 312.8887
374.8560, 319.8398
376.0560, 335.7266
377.2570, 311.3086
378.4570, 265.4551
379.6570, 129.5996
380.8570, 43.22852
382.0570, 4.947266
383.2560, 33.01758
384.4560, 69.76172
385.6550, 87.43945
386.8540, 86.63281
388.0530, 159.8438
389.2520, 217.8379
390.4510, 231.3359
391.6490, 256.6211
392.8470, 272.9258
394.0450, 201.2559
395.2430, 293.6387
396.4410, 595.0449
397.6390, 353.4746
398.8360, 770.9531
400.0340, 680.4648
401.2310, 970.0371
402.4280, 1038.637
403.6250, 1075.266
404.8210, 909.9219
406.0180, 1041.604
407.2140, 957.3027
408.4100, 1017.027
409.6060, 947.7324
410.8020, 866.5234
411.9980, 750.3145
413.1930, 565.1387
414.3890, 404.0000
415.5840, 555.9082
416.7790, 288.8457
417.9740, 401.8086
419.1680, 82.80078
420.3630, 87.81836
421.5570, 70.13477
422.7510, 130.9238
423.9450, 156.0176
425.1390, 119.1387
426.3330, 72.28711
427.5270, 59.44922
428.7200, 173.6367
429.9130, 235.8535
431.1060, 73.09570
432.2990, 261.3652
433.4920, 530.6680
434.6840, 260.0000
435.8770, 508.3613
437.0690, 560.7500
438.2610, 916.1660
439.4530, 847.6094
440.6450, 1194.076
441.8360, 1469.568
443.0280, 1816.084
444.2190, 2372.625
445.4100, 2482.193
446.6010, 3093.783
447.7920, 3394.055
448.9820, 3790.691
450.1730, 4273.352
451.3630, 4731.039
452.5530, 4702.326
453.7430, 4840.967
454.9330, 4829.445
456.1230, 4464.230
457.3120, 4032.039
458.5010, 3955.873
459.6910, 3410.732
460.8800, 3132.525
462.0680, 3162.350
463.2570, 2946.285
464.4460, 2952.867
465.6340, 3023.852
466.8220, 3501.881
468.0100, 3588.998
469.1980, 3915.062
470.3860, 4823.156
471.5730, 5031.279
472.7600, 5193.518
473.9480, 5583.699
475.1350, 5627.906
476.3210, 5589.930
477.5080, 5228.195
478.6950, 5208.494
479.8810, 4605.561
481.0670, 3952.918
482.2530, 3542.303
483.4390, 3197.717
484.6250, 3008.387
485.8100, 2745.863
486.9960, 2207.369
488.1810, 2366.869
489.3660, 2187.316
490.5510, 2010.912
491.7360, 2338.266
492.9200, 2322.709
494.1050, 2152.143
495.2890, 2153.863
496.4730, 2720.568
497.6570, 3107.350
498.8400, 3628.160
500.0240, 4342.004
501.2070, 5296.881
502.3910, 6485.492
503.5740, 7583.441
504.7570, 9278.420
505.9400, 10802.43
507.1220, 12660.49
508.3050, 14572.60
509.4870, 16502.79
510.6690, 17836.04
511.8510, 18491.32
513.0330, 18347.65
514.2140, 17296.02
515.3960, 15672.42
516.5770, 13719.85
517.7580, 11431.31
518.9390, 9092.809
520.1200, 7571.338
521.3010, 5854.896
522.4810, 4852.492
523.6610, 3993.092
524.8420, 3314.752
526.0220, 2800.449
527.2010, 2482.891
528.3810, 1897.422
529.5610, 1755.219
530.7400, 1512.047
531.9190, 1308.461
533.0980, 1129.539
534.2770, 1057.467
535.4560, 889.4277
536.6340, 925.8984
537.8120, 888.9258
538.9910, 967.9844
540.1690, 816.0723
541.3460, 682.6934
542.5240, 771.6250
543.7020, 878.8105
544.8790, 382.2812
546.0560, 706.5332
547.2330, 320.8164
548.4100, 423.1309
549.5870, 360.4785
550.7630, 553.8555
551.9400, 488.2656
553.1160, 463.7070
554.2920, 589.7539
555.4680, 281.9805
556.6440, 360.5566
557.8190, 292.1230
558.9950, 338.7227
560.1700, 369.3516
561.3450, 406.0137
562.5200, 273.7051
563.6950, 172.6309
564.8690, 400.7324
566.0440, 279.5195
567.2180, 457.3379
568.3920, 336.1855
569.5660, 532.0664
570.7400, 280.9766
571.9130, 471.9219
573.0870, 357.8945
574.2600, 471.8984
575.4330, 472.9668
576.6060, 483.0664
577.7790, 444.1992
578.9520, 228.3574
580.1240, 399.5469
581.2960, 335.7871
582.4690, 30.05664
583.6410, 224.3574
584.8120, 20.68750
585.9840, 163.0469
587.1560, 195.4355
588.3270, 148.8574
589.4980, 172.3105
590.6690, 95.79297
591.8400, 104.3262
593.0110, 181.8477
594.1810, 64.44336
595.3510, 189.0840
596.5220, 124.7734
597.6920, 182.4961
598.8610, 234.2480
600.0310, 152.0273
601.2010, 30.83789
602.3700, 313.6797
603.5390, 291.5762
604.7080, 214.5020
605.8770, 150.4668
607.0460, 258.4570
608.2140, 150.4902
609.3830, 141.5684
610.5510, 69.68945
611.7190, 81.85742
612.8870, 284.0508
614.0550, 35.28125
615.2220, 261.5391
616.3900, 69.17773
617.5570, 290.1328
618.7240, 147.4961
619.8910, 198.8906
621.0580, 107.3301
622.2240, 145.5859
623.3910, 137.2930
624.5570, 233.8574
625.7230, 326.4863
626.8890, 356.1426
628.0550, 454.8262
629.2200, 320.5371
630.3860, 466.2812
631.5510, 212.0547
632.7160, 207.8574
633.8810, 229.6973
635.0460, 186.5703
636.2100, 117.4688
637.3750, 224.3652
638.5390, 249.3477
639.7030, 335.3262
640.8670, 331.4023
642.0310, 320.3652
643.1950, 301.4297
644.3580, 329.2910
645.5210, 344.8223
646.6850, 414.7891
647.8480, 408.9805
649.0100, 514.1973
650.1730, 541.4375
651.3350, 506.1641
652.4980, 522.6641
653.6600, 432.3105
654.8220, 413.6719
655.9840, 413.0527
657.1450, 273.4609
658.3070, 466.8965
659.4680, 34.36914
660.6300, 458.8848
661.7910, 218.4277
662.9510, 204.0059
664.1120, 343.6152
665.2730, 223.2637
666.4330, 110.9375
667.5930, 111.3359
668.7530, 32.37109
669.9130, 113.0977
671.0730, 44.15234
672.2320, 98.39844
673.3920, 158.3398
674.5510, 139.0977
675.7100, 141.1230
676.8690, 25.61719
678.0280, 131.3809
679.1860, 112.8379
680.3450, 41.08203
681.5030, 163.3203
682.6610, 152.4004
683.8190, 7.804688
684.9770, 23.01367
686.1340, 5.851563
687.2920, 147.7266
688.4490, 9.623047
689.6060, 87.56641
690.7630, 213.5254
691.9200, 29.50781
693.0760, 40.49219
694.2330, 43.45898
695.3890, 109.3945
696.5450, 159.6484
697.7010, 37.70312
698.8570, 148.7793
700.0130, 96.86914
701.1680, 46.97656
702.3230, 3.099609
703.4780, 33.74609
704.6330, 222.4121
705.7880, 232.5859
706.9430, 271.3320
708.0970, 182.9746
709.2520, 286.1934
710.4060, 275.8105
711.5600, 236.0566
712.7140, 221.3184
713.8670, 251.7910
715.0210, 426.4805
716.1740, 265.7812
717.3270, 315.0977
718.4800, 223.4238
719.6330, 503.9277
720.7860, 116.2812
721.9380, 299.6445
723.0910, 226.0195
724.2430, 514.4082
725.3950, 483.8086
726.5470, 480.2188
727.6980, 416.6387
728.8500, 427.0703
730.0010, 690.5137
731.1530, 896.9648
732.3040, 820.4297
733.4550, 751.9023
734.6050, 1111.385
735.7560, 1280.877
736.9060, 1032.375
738.0560, 1385.887
739.2060, 1502.588
740.3560, 1597.115
741.5060, 1743.039
742.6560, 1841.584
743.8050, 1937.656
744.9540, 2206.887
746.1030, 2077.455
747.2520, 2130.223
748.4010, 2115.807
749.5500, 2461.320
750.6980, 2307.016
751.8460, 2320.615
752.9950, 2009.217
754.1420, 1752.826
755.2900, 1879.797
756.4380, 1501.936
757.5850, 1767.822
758.7330, 1868.451
759.8800, 1483.082
761.0270, 1293.740
762.1730, 1230.330
763.3200, 1487.326
764.4670, 1167.971
765.6130, 1160.637
766.7590, 1186.283
767.9050, 1053.520
769.0510, 1024.508
770.1960, 953.1602
771.3420, 1117.158
772.4870, 962.8164
773.6320, 935.4727
774.7770, 864.2070
775.9220, 687.1309
777.0670, 762.2012
778.2110, 918.0527
779.3560, 749.9160
780.5000, 813.3789
781.6440, 793.7207
782.7880, 677.4707
783.9320, 968.1250
785.0750, 833.5352
786.2180, 869.1836
787.3620, 767.8340
788.5050, 910.2031
789.6480, 849.8652
790.7900, 914.0254
791.9330, 1081.250
793.0750, 1059.887
794.2170, 1138.910
795.3590, 1246.758
796.5010, 1187.492
797.6430, 1245.330
798.7850, 1220.611
799.9260, 1362.543
801.0670, 1303.906
802.2080, 1559.295
803.3490, 1645.645
804.4900, 1930.045
805.6310, 1787.865
806.7710, 1997.445
807.9110, 2223.266
809.0510, 2407.281
810.1910, 2626.740
811.3310, 2430.295
812.4710, 2432.914
813.6100, 2484.982
814.7490, 2206.520
815.8880, 1781.051
817.0270, 1838.576
818.1660, 1440.750
819.3050, 1241.863
820.4430, 1102.072
821.5820, 799.8730
822.7200, 623.3574
823.8580, 456.4473
824.9950, 459.0605
826.1330, 354.4688
827.2710, 303.9219
828.4080, 255.2422
829.5450, 275.6738
830.6820, 216.4668
831.8190, 217.7422
832.9560, 207.0039
834.0920, 93.39453
835.2280, 188.7695
836.3650, 60.13672
837.5010, 237.4922
838.6360, 222.2227
839.7720, 239.2734
840.9080, 222.2500
842.0430, 287.5547
843.1780, 234.8516
844.3130, 54.13281
845.4480, 124.4062
846.5830, 22.66406
847.7170, 110.9062
848.8520, 186.1367
849.9860, 97.65234
851.1200, 382.4844
852.2540, 318.6055
853.3870, 204.7188
854.5210, 106.8164
855.6540, 41.09766
856.7880, 318.9297
857.9210, 167.9492
859.0540, 356.9531
860.1860, 182.9414
861.3190, 336.9180
862.4510, 132.8789
863.5840, 247.8281
864.7160, 67.76172
865.8480, 210.6797
866.9790, 246.5820
868.1110, 343.4727
869.2420, 223.3438
870.3740, 287.1992
871.5050, 303.0430
872.6360, 162.8711
873.7660, 334.6797
874.8970, 58.47656
876.0280, 223.2578
877.1580, 47.01562
878.2880, 238.7539
879.4180, 276.4805
880.5480, 64.19141
881.6770, 94.88281
882.8070, 66.55469
883.9360, 14.79297
885.0650, 29.18750
886.1940, 80.37109
887.3230, 112.9102
888.4520, 291.4336
889.5800, 320.9414
890.7090, 21.57422
891.8370, 53.12500
892.9650, 72.25781
894.0930, 321.6172
895.2200, 218.9609
896.3480, 116.2852
897.4750, 33.59375
898.6020, 81.10547
899.7290, 210.0938
900.8560, 125.2773
901.9830, 194.4414
903.1090, 56.82031
904.2360, 76.94141
905.3620, 278.0430
906.4880, 78.60156
907.6140, 172.6641
908.7400, 210.7070
909.8650, 126.9336
910.9900, 92.74219
912.1160, 77.86719
913.2410, 104.8320
914.3660, 103.7734
915.4900, 51.70312
916.6150, 59.60547
917.7390, 37.48438
918.8640, 400.3281
919.9880, 36.84375
921.1120, 258.9219
922.2350, 164.8086
923.3590, 61.68750
924.4820, 165.2344
925.6060, 79.92188
926.7290, 33.41797
927.8520, 243.2148
928.9740, 297.2812
930.0970, 20.89062
931.2190, 9.535156
932.3420, 43.00000
933.4640, 69.48047
934.5860, 4.156250
935.7080, 67.63672
936.8290, 19.90234
937.9510, 69.50000
939.0720, 20.11719
940.1930, 228.2070
941.3140, 234.5352
942.4350, 134.8398
943.5560, 217.1211
944.6760, 177.2383
945.7960, 238.6523
946.9170, 182.9258
948.0370, 314.1445
949.1560, 338.7695
950.2760, 420.5859
951.3960, 294.7734
952.5150, 168.9648
953.6340, 37.14062
954.7530, 176.6836
955.8720, 29.36328
956.9910, 215.3789
958.1090, 31.62891
959.2280, 180.3008
960.3460, 68.78906
961.4640, 217.0352
962.5820, 72.83984
963.6990, 251.6133
964.8170, 84.62891
965.9340, 62.94922
967.0510, 72.65625
968.1690, 237.2539
969.2850, 233.2578
970.4020, 387.3828
971.5190, 264.9102
972.6350, 135.4180
973.7510, 89.90234
974.8670, 282.3594
975.9830, 240.8164
977.0990, 403.2461
978.2150, 314.6562
979.3300, 645.0469
980.4450, 476.4531
981.5600, 548.4531
982.6750, 424.8086
983.7900, 487.1172
984.9050, 331.8984
986.0190, 647.2266
987.1340, 598.5312
988.2480, 736.8164
989.3620, 842.0742
990.4750, 692.1484
991.5890, 712.3672
992.7020, 541.5625
993.8160, 540.7383
994.9290, 786.8867
996.0420, 938.0352
997.1550, 768.1562
998.2670, 667.2656
999.3800, 1028.352
1000.492, 738.4219
1001.604, 704.4688
1002.716, 507.4922
1003.828, 628.4961
1004.940, 613.4766
1006.051, 632.4297
1007.163, 702.3672
1008.274, 642.4727
1009.385, 565.0117
1010.496, 573.8945
1011.606, 624.3672
1012.717, 621.2031
1013.827, 352.0273
1014.937, 483.6289
1016.047, 279.4062
1017.157, 428.9609
1018.267, 452.6914
1019.377, 250.4805
1020.486, 281.0664
1021.595, 298.8359
1022.704, 489.3984
1023.813, 366.0273
1024.922, 500.1133
1026.030, 444.1797
1027.139, 270.5000
1028.247, 525.0625
1029.355, 669.8984
1030.463, 249.3867
1031.571, 240.4414
1032.678, 327.5586
1033.786, 681.0195
1034.893, 333.4297
1036.000, 183.8438
1037.107, 443.6445
1038.214, 384.1484
1039.321, 126.8320
1040.427, 286.8281
1041.533, 276.6523
1042.639, 404.9375
1043.745, 376.0508
1044.851, 208.1055
1045.957, 316.3125
1047.062, 305.9453
1048.168, 309.2422
1049.273, 364.5977
1050.378, 340.9570
1051.482, 336.2305
1052.587, 302.6992
1053.692, 296.0469
1054.796, 208.0977
1055.900, 206.4648
1057.004, 67.93359
1058.108, 552.0742
1059.212, 268.7344
1060.315, 406.9609
1061.418, 144.7148
1062.522, 395.5938
1063.625, 356.1602
1064.728, 413.6211
1065.830, 307.8750
1066.933, 209.8828
1068.035, 271.1836
1069.137, 349.8867
1070.239, 295.1250
1071.341, 613.2930
1072.443, 432.7617
1073.545, 420.4219
1074.646, 263.0508
1075.747, 465.4141
1076.848, 481.0039
1077.949, 303.7109
1079.050, 53.37109
1080.150, 315.0977
1081.251, 320.2305
1082.351, 441.6953
1083.451, 337.4414
1084.551, 476.0938
1085.651, 396.2188
1086.750, 485.9453
1087.850, 393.7500
1088.949, 429.3125
1090.048, 738.6250
1091.147, 625.4648
1092.246, 670.7891
1093.345, 916.9102
1094.443, 752.1914
1095.541, 916.6602
1096.639, 986.3984
1097.737, 963.8711
1098.835, 932.1211
1099.933, 915.3750
1101.030, 789.0078
1102.128, 772.1055
1103.225, 831.1836
1104.322, 664.2578
1105.419, 624.0820
1106.515, 730.2188
1107.612, 572.6758
1108.708, 728.6484
1109.804, 447.5938
1110.900, 488.7148
1111.996, 596.7812
1113.092, 958.7422
1114.187, 654.6133
1115.283, 830.2344
1116.378, 906.2461
1117.473, 704.3945
1118.568, 815.2148
1119.662, 1172.418
1120.757, 833.1875
1121.851, 984.1602
1122.946, 890.6211
1124.040, 922.3438
1125.134, 880.3086
1126.227, 891.9883
1127.321, 870.8555
1128.414, 1012.805
1129.508, 1057.707
1130.601, 607.6836
1131.693, 989.2148
1132.786, 804.9648
1133.879, 936.9961
1134.971, 1046.930
1136.064, 1088.480
1137.156, 1085.160
1138.248, 1107.535
1139.339, 924.9297
1140.431, 865.3398
1141.522, 650.0156
1142.614, 580.3789
1143.705, 691.1680
1144.796, 595.3281
1145.887, 803.7148
1146.977, 593.2812
1148.068, 545.0117
1149.158, 463.8320
1150.248, 675.6211
1151.338, 465.5625
1152.428, 463.3594
1153.518, 555.1641
1154.607, 328.3242
1155.696, 320.5156
1156.785, 373.1211
1157.874, 296.2148
1158.963, 550.7617
1160.052, 179.8438
1161.141, 458.5156
1162.229, 129.5469
1163.317, 438.0117
1164.405, 254.5977
1165.493, 300.5898
1166.581, 335.6602
1167.668, 264.3711
1168.756, 138.4102
1169.843, 169.6094
1170.930, 277.0898
1172.017, 129.9336
1173.103, 374.8086
1174.190, 378.6055
1175.276, 314.9570
1176.363, 159.8711
1177.449, 104.5938
1178.535, 8.421875
1179.620, 252.0898
1180.706, 131.7383
1181.791, 246.3633
1182.877, 390.9727
1183.962, 244.5547
1185.047, 346.8750
1186.131, 171.2891
1187.216, 18.66406
1188.300, 210.3633
1189.385, 199.8320
1190.469, 101.7188
1191.553, 37.34766
1192.637, 319.6875
1193.720, 179.9883
1194.804, 3.734375
1195.887, 2.480469
1196.970, 150.2266
1198.053, 84.48438
1199.136, 81.83984
1200.219, 7.863281
1201.301, 200.8750
1202.383, 108.8633
1203.465, 262.8359
1204.547, 475.7891
1205.629, 274.7148
1206.711, 273.6250
1207.792, 197.5195
1208.874, 221.3828
1209.955, 182.2031
1211.036, 96.02344
1212.117, 256.8164
1213.198, 177.5938
1214.278, 193.3438
1215.359, 50.07031
1216.439, 73.76562
1217.519, 16.68359
1218.599, 61.69141
1219.678, 316.3633
1220.758, 210.0078
1221.837, 201.8516
1222.917, 55.47266
1223.996, 235.0977
1225.075, 213.6953
1226.153, 1.457031
1227.232, 186.0859
1228.310, 284.3555
1229.389, 272.8477
1230.467, 195.8438
1231.545, 438.6875
1232.622, 292.3281
1233.700, 245.7852
1234.777, 208.2227
1235.855, 52.63281
1236.932, 29.98438
1238.009, 316.3438
1239.086, 509.6445
1240.162, 12.92578
1241.239, 120.7031
1242.315, 230.5742
1243.391, 447.9609
1244.467, 34.64453
1245.543, 206.7344
1246.619, 43.25000
1247.694, 416.7109
1248.769, 150.6445
1249.844, 251.6016
1250.919, 195.4766
1251.994, 77.33203
1253.069, 249.2383
1254.144, 184.0391
1255.218, 370.8125
1256.292, 42.01562
1257.366, 171.6719
1258.440, 5.332031
1259.514, 152.9570
1260.587, 35.55469
1261.661, 195.1250
1262.734, 122.6680
1263.807, 140.5430
1264.880, 225.2227
1265.952, 206.6875
1267.025, 333.5820
1268.097, 22.00391
1269.170, 267.6367
1270.242, 7.296875
1271.314, 297.5977
1272.385, 139.0781
1273.457, 155.5898
1274.528, 114.3359
1275.600, 176.5312
1276.671, 133.2461
1277.742, 79.39062
1278.812, 136.5078
1279.883, 71.86328
1280.954, 100.9219
1282.024, 92.39844
1283.094, 313.9492
1284.164, 20.96094
1285.234, 126.9062
1286.303, 21.17578
1287.373, 133.6953
1288.442, 382.9375
1289.511, 91.94922
1290.580, 376.7422
1291.649, 126.0039
1292.718, 101.7422
1293.786, 367.4492
1294.855, 213.1406
1295.923, 445.8086
1296.991, 208.4492
1298.059, 163.6562
1299.126, 24.09375
1300.194, 241.5938
1301.261, 221.9453
