##NAMES=Microcline
##RRUFFID=R050054
##IDEAL CHEMISTRY=KAlSi_3_O_8_
##LOCALITY=Kenticha, Negele area, Sidamo Province, Ethiopia
##OWNER=RRUFF
##SOURCE=Rock Currier
##DESCRIPTION=Light blue single crystal
##STATUS=The identification of this mineral has been confirmed by X-ray diffraction and chemical analysis
##URL=rruff.info/R050054
##MEASURED CHEMISTRY=(K_0.96_Na_0.04_)Al_1.00_Si_3.00_O_8_
##PIN_ID=M00128
##ORIENTATION=Laser parallel to (-1 -1 0). Fiducial mark perpendicular to laser is parallel to -c [0 0 -1]
98.519, 0.000
99.917, 5.466
101.314, 53.814
102.712, 191.275
104.109, 828.016
105.505, 1635.024
106.902, 2708.052
108.298, 4094.806
109.694, 5088.872
111.090, 5555.810
112.486, 4426.868
113.881, 3043.596
115.277, 1786.100
116.672, 944.729
118.066, 644.188
119.461, 385.945
120.855, 254.437
122.249, 463.938
123.643, 903.089
125.036, 1503.994
126.430, 2050.075
127.823, 2493.533
129.216, 2484.427
130.608, 2268.715
132.001, 1451.499
133.393, 875.065
134.785, 435.150
136.176, 117.971
137.568, 54.662
138.959, 105.612
140.350, 57.348
141.741, 169.528
143.131, 325.225
144.521, 402.998
145.911, 740.261
147.301, 1146.193
148.691, 1760.943
150.080, 2304.165
151.469, 2613.133
152.858, 2611.763
154.247, 2344.506
155.635, 2176.563
157.024, 2115.106
158.411, 1989.044
159.799, 1864.809
161.187, 1597.257
162.574, 1362.033
163.961, 1163.184
165.348, 982.871
166.734, 813.423
168.121, 708.782
169.507, 820.710
170.893, 914.328
172.278, 1095.786
173.664, 1550.679
175.049, 1871.477
176.434, 2772.177
177.819, 3639.152
179.203, 4642.891
180.587, 5077.407
181.971, 4873.885
183.355, 4029.694
184.739, 3166.818
186.122, 2436.227
187.505, 1811.882
188.888, 1436.744
190.271, 1106.781
191.653, 1021.967
193.035, 887.263
194.417, 1010.645
195.799, 1168.101
197.180, 1427.615
198.562, 1801.175
199.943, 2177.762
201.324, 2173.403
202.704, 1953.427
204.084, 1475.118
205.465, 1076.364
206.844, 803.586
208.224, 711.991
209.603, 518.901
210.983, 509.193
212.362, 349.470
213.740, 291.490
215.119, 248.641
216.497, 95.546
217.875, 42.370
219.253, 37.408
220.631, 49.172
222.008, 65.295
223.385, 45.336
224.762, 93.782
226.139, 104.519
227.515, 98.673
228.891, 103.080
230.267, 99.705
231.643, 92.088
233.018, 94.475
234.394, 86.905
235.769, 103.703
237.144, 92.025
238.518, 77.497
239.893, 47.896
241.267, 68.776
242.641, 57.981
244.014, 2.002
245.388, 5.648
246.761, 127.808
248.134, 194.026
249.507, 241.677
250.879, 431.126
252.252, 579.269
253.624, 832.130
254.996, 1140.774
256.367, 1542.276
257.739, 1951.685
259.110, 2335.036
260.481, 2640.355
261.852, 2751.394
263.222, 3071.544
264.592, 3519.042
265.962, 4129.979
267.332, 4469.113
268.702, 4369.204
270.071, 3989.122
271.440, 3361.513
272.809, 2611.552
274.178, 2170.214
275.546, 1710.373
276.915, 1516.994
278.283, 1463.171
279.650, 1589.069
281.018, 1904.702
282.385, 2374.059
283.752, 3051.834
285.119, 3802.918
286.486, 4286.595
287.852, 4462.146
289.218, 4387.496
290.584, 3832.649
291.950, 3155.608
293.316, 2615.369
294.681, 2236.923
296.046, 1898.251
297.411, 1582.338
298.775, 1386.117
300.140, 1207.528
301.504, 1050.935
302.868, 900.990
304.231, 703.302
305.595, 552.844
306.958, 507.212
308.321, 463.253
309.684, 399.357
311.047, 318.010
312.409, 300.472
313.771, 287.754
315.133, 327.864
316.495, 219.807
317.856, 243.569
319.217, 236.119
320.578, 166.437
321.939, 252.491
323.299, 251.209
324.660, 301.525
326.020, 364.397
327.380, 426.786
328.739, 581.712
330.099, 644.152
331.458, 736.263
332.817, 826.331
334.176, 802.376
335.534, 729.345
336.892, 591.781
338.251, 508.453
339.608, 428.019
340.966, 375.513
342.323, 333.098
343.681, 330.346
345.037, 294.686
346.394, 293.974
347.751, 307.210
349.107, 294.391
350.463, 290.517
351.819, 305.587
353.174, 344.600
354.530, 457.468
355.885, 472.943
357.240, 510.816
358.594, 568.167
359.949, 432.903
361.303, 445.581
362.657, 408.213
364.011, 413.785
365.365, 417.309
366.718, 451.772
368.071, 535.160
369.424, 668.436
370.777, 765.497
372.129, 969.115
373.481, 1139.772
374.833, 1136.289
376.185, 983.437
377.537, 820.978
378.888, 662.976
380.239, 576.614
381.590, 414.217
382.941, 438.916
384.291, 303.669
385.642, 268.442
386.992, 292.507
388.341, 241.564
389.691, 235.987
391.040, 232.818
392.389, 188.418
393.738, 203.276
395.087, 265.657
396.435, 294.933
397.784, 368.736
399.132, 511.440
400.479, 675.156
401.827, 867.745
403.174, 1164.258
404.521, 1416.521
405.868, 1385.521
407.215, 1135.347
408.561, 1024.468
409.908, 922.795
411.254, 920.029
412.599, 975.849
413.945, 1038.251
415.290, 991.280
416.636, 836.375
417.980, 613.957
419.325, 519.524
420.670, 415.078
422.014, 210.620
423.358, 159.145
424.702, 153.650
426.045, 110.131
427.389, 119.523
428.732, 139.829
430.075, 119.048
431.417, 113.179
432.760, 181.223
434.102, 204.184
435.444, 226.172
436.786, 259.971
438.127, 308.756
439.469, 401.690
440.810, 391.302
442.151, 565.569
443.492, 588.202
444.832, 814.137
446.172, 1079.576
447.512, 1465.934
448.852, 2072.788
450.192, 2738.790
451.531, 3996.295
452.870, 5263.986
454.209, 6443.160
455.548, 7221.972
456.887, 6760.408
458.225, 5836.077
459.563, 4642.694
460.901, 3683.753
462.238, 3140.526
463.576, 2602.155
464.913, 2470.628
466.250, 2349.363
467.587, 2432.385
468.923, 2753.196
470.259, 3148.774
471.596, 4015.050
472.931, 5155.860
474.267, 6658.495
475.603, 8372.995
476.938, 9347.804
478.273, 9341.686
479.608, 8695.734
480.942, 7449.703
482.276, 6233.067
483.611, 5339.130
484.944, 4543.164
486.278, 3848.604
487.612, 3270.355
488.945, 2693.350
490.278, 2160.976
491.611, 1922.854
492.943, 1525.111
494.276, 1560.745
495.608, 1441.280
496.940, 1480.511
498.271, 1544.167
499.603, 1680.475
500.934, 2002.445
502.265, 2371.196
503.596, 2892.771
504.927, 3800.334
506.257, 4938.750
507.587, 6551.164
508.917, 8385.633
510.247, 11080.050
511.577, 14444.453
512.906, 17688.922
514.235, 20403.553
515.564, 20448.662
516.892, 18573.840
518.221, 15189.280
519.549, 11595.451
520.877, 8830.474
522.205, 6547.904
523.533, 5149.977
524.860, 4045.925
526.187, 3169.535
527.514, 2599.644
528.841, 2216.924
530.167, 1788.116
531.493, 1636.702
532.820, 1311.223
534.145, 1168.806
535.471, 997.479
536.796, 956.391
538.122, 787.989
539.447, 765.580
540.771, 712.517
542.096, 628.387
543.420, 589.757
544.744, 535.955
546.068, 473.079
547.392, 423.909
548.715, 359.919
550.039, 331.723
551.362, 276.166
552.684, 266.613
554.007, 235.898
555.329, 252.786
556.652, 242.825
557.973, 227.296
559.295, 222.491
560.617, 208.745
561.938, 146.061
563.259, 168.422
564.580, 152.836
565.901, 114.323
567.221, 171.821
568.541, 92.529
569.861, 157.083
571.181, 108.648
572.501, 155.229
573.820, 166.812
575.139, 132.403
576.458, 150.993
577.777, 165.575
579.095, 195.155
580.414, 208.728
581.732, 202.551
583.049, 246.181
584.367, 318.803
585.685, 289.273
587.002, 239.791
588.319, 213.401
589.636, 109.934
590.952, 87.450
592.268, 102.261
593.585, 49.178
594.900, 78.196
596.216, 58.365
597.532, 41.251
598.847, 63.279
600.162, 23.193
601.477, 23.324
602.792, 15.154
604.106, 36.362
605.420, 39.873
606.734, 19.619
608.048, 27.121
609.361, 9.633
610.675, 20.152
611.988, 9.321
613.301, 28.210
614.614, 16.751
615.926, 55.298
617.238, 26.864
618.550, 7.438
619.862, 21.982
621.174, 45.400
622.485, 87.817
623.797, 46.234
625.108, 63.654
626.418, 56.080
627.729, 119.512
629.039, 101.952
630.349, 84.402
631.659, 178.863
632.969, 128.340
634.279, 141.835
635.588, 148.340
636.897, 229.860
638.206, 198.393
639.515, 149.940
640.823, 303.504
642.131, 307.081
643.439, 421.672
644.747, 564.275
646.055, 651.888
647.362, 915.511
648.669, 926.140
649.976, 1250.774
651.283, 1293.412
652.589, 1373.052
653.896, 1426.695
655.202, 1391.342
656.508, 1230.996
657.814, 1043.657
659.119, 856.328
660.424, 727.008
661.729, 585.698
663.034, 500.399
664.339, 379.110
665.643, 308.833
666.947, 234.566
668.251, 172.310
669.555, 141.065
670.859, 84.830
672.162, 125.605
673.465, 53.387
674.768, 29.177
676.071, 7.027
677.373, 74.768
678.676, 47.430
679.978, 18.359
681.280, 38.845
682.581, 52.059
683.883, 15.289
685.184, 33.521
686.485, 16.235
687.786, 61.973
689.087, 40.241
690.387, 19.527
691.687, 81.614
692.987, 103.817
694.287, 40.047
695.586, 43.324
696.886, 35.912
698.185, 46.073
699.484, 32.408
700.783, 9.865
702.081, 25.509
703.379, 16.176
704.677, 8.416
705.975, 0.879
707.273, 18.420
708.570, 31.627
709.868, 94.190
711.165, 42.167
712.462, 126.854
713.758, 153.786
715.055, 100.288
716.351, 161.061
717.647, 124.716
718.943, 138.330
720.238, 85.376
721.533, 62.935
722.829, 116.820
724.124, 31.611
725.418, 126.308
726.713, 74.032
728.007, 89.038
729.301, 89.595
730.595, 123.363
731.889, 147.603
733.182, 203.133
734.476, 195.763
735.769, 236.351
737.061, 304.898
738.354, 373.092
739.647, 484.095
740.939, 625.027
742.231, 768.534
743.523, 1100.998
744.814, 1421.660
746.106, 1853.092
747.397, 2331.577
748.688, 2786.131
749.978, 2997.487
751.269, 3069.941
752.559, 2638.367
753.849, 2185.062
755.139, 1838.789
756.429, 1468.487
757.719, 1223.153
759.008, 1001.310
760.297, 855.656
761.586, 773.896
762.875, 708.573
764.163, 780.034
765.451, 815.954
766.739, 664.591
768.027, 655.797
769.315, 589.298
770.602, 496.278
771.890, 448.716
773.177, 360.229
774.463, 364.114
775.750, 288.228
777.036, 270.434
778.323, 270.697
779.609, 232.991
780.894, 231.288
782.180, 218.560
783.465, 171.923
784.750, 116.248
786.035, 166.642
787.320, 187.872
788.605, 149.266
789.889, 221.485
791.173, 290.717
792.457, 262.901
793.741, 330.071
795.024, 302.232
796.307, 307.385
797.591, 339.637
798.873, 391.772
800.156, 377.899
801.439, 399.052
802.721, 410.161
804.003, 566.261
805.285, 647.351
806.566, 768.433
807.848, 964.506
809.129, 1284.569
810.410, 1681.874
811.691, 2262.920
812.971, 2704.955
814.252, 3262.980
815.532, 3330.999
816.812, 3066.007
818.092, 2441.004
819.371, 1984.992
820.651, 1539.000
821.930, 1081.969
823.209, 774.928
824.488, 612.878
825.766, 544.817
827.045, 410.747
828.323, 302.667
829.601, 198.480
830.878, 245.796
832.156, 204.686
833.433, 197.218
834.710, 188.943
835.987, 136.809
837.264, 121.022
838.540, 135.875
839.817, 151.898
841.093, 84.563
842.369, 130.143
843.644, 180.771
844.920, 43.325
846.195, 52.778
847.470, 42.986
848.745, 4.506
850.020, 9.811
851.294, 0.554
852.568, 43.518
853.842, 27.753
855.116, 0.667
856.390, 31.588
857.663, 4.039
858.936, 66.688
860.209, 5.642
861.482, 8.057
862.755, 61.510
864.027, 40.919
865.299, 33.519
866.571, 5.958
867.843, 1.543
869.115, 24.028
870.386, 18.497
871.657, 47.950
872.928, 12.390
874.199, 58.815
875.470, 5.792
876.740, 21.395
878.010, 25.804
879.280, 24.164
880.550, 8.486
881.820, 49.842
883.089, 21.838
884.358, 6.454
885.627, 33.732
886.896, 2.999
888.164, 34.252
889.433, 32.494
890.701, 46.272
891.969, 10.079
893.236, 74.907
894.504, 48.210
895.771, 57.319
897.038, 22.420
898.305, 64.513
899.572, 49.597
900.838, 31.673
902.105, 51.742
903.371, 52.805
904.637, 42.860
905.902, 12.091
907.168, 13.942
908.433, 43.965
909.698, 28.017
910.963, 13.974
912.228, 31.957
913.492, 92.936
914.757, 81.489
916.021, 90.993
917.285, 50.842
918.548, 76.803
919.812, 29.760
921.075, 29.710
922.338, 14.658
923.601, 47.600
924.864, 27.543
926.126, 81.483
927.388, 85.418
928.650, 67.211
929.912, 92.270
931.174, 32.186
932.435, 43.095
933.697, 43.996
934.958, 22.891
936.218, 29.777
937.479, 17.657
938.739, 7.472
940.000, 10.616
941.260, 46.222
942.520, 41.053
943.779, 49.879
945.039, 53.699
946.298, 82.513
947.557, 91.322
948.816, 24.124
950.074, 79.919
951.333, 50.708
952.591, 40.491
953.849, 118.276
955.107, 108.054
956.365, 127.827
957.622, 174.595
958.879, 94.356
960.136, 154.112
961.393, 6.863
962.650, 104.605
963.906, 76.343
965.162, 48.075
966.418, 99.801
967.674, 85.533
968.930, 121.259
970.185, 144.980
971.441, 36.707
972.696, 156.427
973.950, 125.146
975.205, 160.860
976.459, 226.569
977.714, 194.274
978.968, 214.975
980.222, 147.670
981.475, 138.364
982.729, 153.445
983.982, 142.745
985.235, 211.439
986.488, 182.130
987.740, 255.825
988.993, 260.528
990.245, 336.231
991.497, 419.938
992.749, 562.608
994.000, 614.322
995.252, 744.042
996.503, 648.557
997.754, 663.167
999.005, 685.777
1000.256, 582.422
1001.506, 540.369
1002.756, 604.880
1004.006, 491.560
1005.256, 546.626
1006.506, 523.345
1007.755, 458.916
1009.005, 460.373
1010.254, 344.799
1011.502, 395.878
1012.751, 329.065
1014.000, 315.896
1015.248, 242.321
1016.496, 232.037
1017.744, 248.516
1018.991, 262.425
1020.239, 238.059
1021.486, 242.816
1022.733, 258.609
1023.980, 347.963
1025.227, 257.810
1026.473, 247.323
1027.719, 316.923
1028.965, 404.598
1030.211, 322.248
1031.457, 458.609
1032.702, 351.465
1033.948, 382.048
1035.193, 381.230
1036.438, 345.968
1037.682, 362.670
1038.927, 352.607
1040.171, 379.171
1041.415, 350.346
1042.659, 288.668
1043.903, 277.057
1045.146, 283.543
1046.390, 408.723
1047.633, 346.369
1048.876, 406.284
1050.118, 476.242
1051.361, 475.984
1052.603, 462.244
1053.845, 530.075
1055.087, 500.049
1056.329, 369.446
1057.571, 405.951
1058.812, 400.752
1060.053, 300.262
1061.294, 292.787
1062.535, 232.121
1063.775, 130.992
1065.016, 205.862
1066.256, 128.951
1067.496, 110.787
1068.736, 137.653
1069.975, 186.401
1071.214, 117.391
1072.454, 67.101
1073.693, 258.925
1074.931, 133.666
1076.170, 170.575
1077.408, 162.434
1078.647, 133.292
1079.885, 161.150
1081.122, 214.911
1082.360, 234.719
1083.597, 219.533
1084.835, 286.257
1086.072, 281.483
1087.308, 274.714
1088.545, 316.559
1089.781, 386.229
1091.018, 421.067
1092.254, 384.051
1093.490, 445.060
1094.725, 567.978
1095.961, 715.032
1097.196, 813.923
1098.431, 815.671
1099.666, 943.539
1100.900, 896.400
1102.135, 789.820
1103.369, 899.679
1104.603, 806.535
1105.837, 833.715
1107.071, 740.569
1108.304, 628.421
1109.538, 738.297
1110.771, 755.896
1112.004, 729.869
1113.236, 830.717
1114.469, 904.562
1115.701, 1096.923
1116.933, 1162.766
1118.165, 1200.661
1119.397, 1595.961
1120.629, 1844.773
1121.860, 2301.424
1123.091, 2632.261
1124.322, 2716.375
1125.553, 2888.423
1126.783, 2746.253
1128.014, 2544.402
1129.244, 2289.652
1130.474, 2074.610
1131.704, 1964.916
1132.933, 1807.750
1134.163, 1741.431
1135.392, 1816.665
1136.621, 1708.554
1137.850, 1804.445
1139.079, 1913.380
1140.307, 1816.295
1141.535, 1875.379
1142.763, 1629.461
1143.991, 1417.475
1145.219, 1277.785
1146.446, 982.900
1147.674, 905.978
1148.901, 761.306
1150.128, 662.424
1151.354, 585.450
1152.581, 449.797
1153.807, 437.580
1155.033, 389.965
1156.259, 320.035
1157.485, 232.127
1158.710, 401.333
1159.936, 222.310
1161.161, 242.222
1162.386, 265.591
1163.611, 142.376
1164.835, 153.979
1166.060, 154.546
1167.284, 148.454
1168.508, 148.660
1169.732, 155.993
1170.955, 131.727
1172.179, 103.671
1173.402, 94.040
1174.625, 133.439
1175.848, 84.446
1177.070, 128.215
1178.293, 125.274
1179.515, 33.124
1180.737, 149.880
1181.959, 212.610
1183.181, 95.438
1184.402, 114.187
1185.624, 79.194
1186.845, 152.936
1188.066, 134.932
1189.286, 109.995
1190.507, 102.690
1191.727, 87.424
1192.947, 54.202
1194.167, 63.228
1195.387, 47.320
1196.607, 24.310
1197.826, 115.049
1199.045, 9.023
1200.264, 114.680
1201.483, 17.609
1202.702, 36.423
1203.920, 120.312
1205.138, 65.139
1206.356, 34.523
1207.574, 117.562
1208.792, 10.751
1210.009, 109.137
1211.227, 67.878
1212.444, 12.512
1213.661, 79.135
1214.877, 96.052
1216.094, 92.658
1217.310, 9.415
1218.526, 36.259
1219.742, 73.838
1220.958, 148.480
1222.173, 57.239
1223.389, 118.792
1224.604, 89.574
1225.819, 111.202
1227.034, 120.851
1228.248, 118.021
1229.463, 131.486
1230.677, 130.152
1231.891, 147.004
1233.105, 152.337
1234.318, 130.007
1235.532, 118.682
1236.745, 78.158
1237.958, 37.706
1239.171, 41.406
1240.384, 64.864
1241.596, 32.652
1242.809, 72.093
1244.021, 89.667
1245.233, 80.587
1246.444, 143.012
1247.656, 19.568
1248.867, 86.828
1250.079, 170.219
1251.290, 6.725
1252.500, 89.160
1253.711, 146.514
1254.921, 79.927
1256.132, 118.265
1257.342, 56.863
1258.552, 116.186
1259.761, 145.503
1260.971, 32.099
1262.180, 121.417
1263.389, 76.802
1264.598, 30.641
1265.807, 142.608
1267.015, 4.030
1268.223, 105.160
1269.432, 24.339
1270.640, 40.470
1271.847, 109.580
1273.055, 15.666
1274.262, 6.736
1275.470, 60.774
1276.677, 3.784
1277.883, 91.969
1279.090, 141.957
1280.296, 28.933
1281.503, 77.940
1282.709, 76.883
1283.915, 65.790
1285.120, 70.375
1286.326, 29.673
1287.531, 29.544
1288.736, 45.398
1289.941, 5.242
1291.146, 20.063
1292.350, 28.871
1293.555, 4.680
1294.759, 20.581
1295.963, 6.649
1297.167, 3.095
1298.370, 3.177
1299.574, 60.467
1300.777, 33.212
1301.980, 27.877
1303.183, 57.472
1304.386, 37.830
1305.588, 69.758
1306.790, 12.208
1307.993, 110.833
1309.195, 31.653
1310.396, 0.833
1311.598, 71.301
1312.799, 42.261
1314.000, 34.208
1315.201, 62.603
1316.402, 37.019
1317.603, 88.506
1318.803, 58.838
1320.003, 45.155
1321.203, 161.293
1322.403, 33.571
1323.603, 83.831
1324.802, 137.019
1326.002, 16.751
1327.201, 87.456
1328.400, 117.649
1329.599, 53.187
1330.797, 141.944
1331.995, 42.062
1333.194, 75.164
1334.392, 69.251
1335.589, 104.324
1336.787, 157.384
1337.985, 37.420
1339.182, 24.449
1340.379, 42.422
1341.576, 100.281
1342.772, 53.267
1343.969, 138.841
1345.165, 5.200
1346.361, 73.562
1347.557, 55.387
1348.753, 68.298
1349.949, 3.197
1351.144, 22.863
1352.339, 98.754
1353.534, 46.992
1354.729, 79.798
1355.924, 138.592
1357.118, 178.156
1358.312, 30.929
1359.506, 113.691
1360.700, 65.656
1361.894, 42.156
1363.088, 120.757
1364.281, 86.481
1365.474, 56.199
1366.667, 113.864
1367.860, 46.577
1369.052, 81.289
1370.245, 62.990
1371.437, 19.694
1372.629, 63.405
1373.821, 64.232
1375.013, 37.028
1376.204, 119.727
1377.395, 59.413
1378.586, 56.284
1379.777, 187.084
1380.968, 86.542
1382.159, 49.050
1383.349, 160.768
1384.539, 30.486
1385.729, 151.515
1386.919, 72.852
1388.109, 8.483
1389.298, 164.141
1390.487, 107.638
1391.676, 110.487
1392.865, 131.006
1394.054, 71.805
1395.242, 86.402
1396.431, 108.330
1397.619, 88.435
1398.807, 164.242
1399.995, 41.091
1401.182, 142.172
1402.370, 154.382
1403.557, 84.474
1404.744, 52.148
1405.931, 80.907
1407.118, 37.886
1408.304, 142.345
1409.490, 74.332
1410.676, 102.369
1411.862, 245.766
1413.048, 91.850
1414.234, 100.561
1415.419, 199.726
1416.604, 107.396
1417.789, 127.063
1418.974, 88.210
1420.159, 15.384
1421.343, 79.989
1422.528, 166.123
1423.712, 64.900
1424.896, 167.410
1426.079, 87.607
1427.263, 46.525
1428.446, 179.775
1429.629, 129.796
1430.812, 96.262
1431.995, 218.301
1433.178, 125.689
1434.360, 120.496
1435.543, 64.379
1436.725, 36.014
1437.907, 114.712
1439.088, 187.969
1440.270, 103.672
1441.451, 175.142
1442.632, 149.204
1443.813, 127.008
1444.994, 138.534
1446.175, 60.573
1447.355, 179.004
1448.535, 181.711
1449.715, 90.827
1450.895, 183.504
1452.075, 94.783
1453.255, 97.782
1454.434, 105.919
1455.613, 41.421
1456.792, 80.897
1457.971, 220.887
1459.149, 12.126
1460.328, 150.824
1461.506, 138.068
1462.684, 37.539
1463.862, 165.564
1465.040, 152.259
1466.217, 67.387
1467.395, 177.684
1468.572, 128.041
1469.749, 126.523
1470.925, 182.589
1472.102, 54.826
1473.278, 146.276
1474.455, 96.439
1475.631, 113.899
1476.807, 159.357
1477.982, 153.762
1479.158, 93.756
1480.333, 255.178
1481.508, 75.581
1482.683, 57.955
1483.858, 285.230
1485.033, 34.803
1486.207, 181.382
1487.381, 173.051
1488.555, 81.522
1489.729, 163.474
1490.903, 95.278
1492.076, 93.822
1493.250, 269.421
1494.423, 54.044
1495.596, 95.766
1496.769, 242.612
1497.941, 94.505
1499.114, 147.439
1500.286, 218.449
1501.458, 3.479
1502.630, 178.384
1503.802, 150.576
1504.973, 97.871
1506.145, 205.675
1507.316, 224.123
1508.487, 59.886
1509.657, 255.030
1510.828, 127.292
1511.999, 131.118
1513.169, 220.681
1514.339, 45.994
1515.509, 186.665
1516.678, 169.552
1517.848, 0.861
1519.017, 0.000
##END=



