##NAMES=Microcline
##RRUFFID=R050193
##IDEAL CHEMISTRY=KAlSi_3_O_8_
##LOCALITY=Devil's Head, Douglas County, Colorado, USA
##OWNER=RRUFF
##SOURCE=Dave Bunk Minerals
##DESCRIPTION=White to colorless heterogeneous mixture of K and Na feldspar in a cluster of crystals. Crystal structure determined, presented below. This sample is known as an intermediate microcline in the literature.
##STATUS=The identification of this mineral has been confirmed by X-ray diffraction and chemical analysis
##URL=rruff.info/R050193
##MEASURED CHEMISTRY=(K_0.929_Na_0.071_)(Al_1.005_Si_2.994_Fe_0.001_)O_7.993_F_0.007_  ; Light Band :  (Na_0.973_K_0.007_Ca_0.020_)(Al_1.020_Si_2.980_)O_8_ ; Dark Band
##PIN_ID=L01042
##ORIENTATION=Laser parallel to a* (1 0 0). Fiducial mark perpendicular to laser is parallel to -b [0 -1 0]
142.5560, 0.0000000E+00
143.7880, 164.2119
145.0190, 3.262695
146.2510, 143.3438
147.4820, 307.2148
148.7130, 459.8672
149.9440, 670.2871
151.1750, 635.0703
152.4050, 749.2812
153.6360, 788.5723
154.8660, 661.0469
156.0960, 791.7285
157.3260, 690.0273
158.5560, 596.6641
159.7850, 535.4238
161.0150, 490.1680
162.2440, 359.3086
163.4730, 434.2891
164.7020, 527.0762
165.9310, 346.6875
167.1590, 470.6738
168.3880, 261.8711
169.6160, 388.2891
170.8440, 235.9219
172.0720, 247.7676
173.3000, 267.8242
174.5280, 354.0957
175.7550, 347.5703
176.9820, 588.2480
178.2100, 326.1230
179.4370, 516.4277
180.6630, 369.2148
181.8900, 460.3906
183.1170, 328.7969
184.3430, 296.2383
185.5690, 300.7051
186.7950, 185.8438
188.0210, 247.6875
189.2470, 214.7227
190.4720, 284.0879
191.6970, 206.6250
192.9230, 379.3398
194.1480, 240.2285
195.3730, 447.2676
196.5970, 405.4531
197.8220, 574.7793
199.0460, 416.2402
200.2700, 392.8340
201.4940, 221.5488
202.7180, 252.4102
203.9420, 219.4043
205.1660, 345.5723
206.3890, 133.8516
207.6120, 9.228516
208.8350, 238.7012
210.0580, 80.27148
211.2810, 123.9336
212.5040, 167.7285
213.7260, 178.6914
214.9480, 198.8125
216.1700, 1.931641
217.3920, 187.3809
218.6140, 73.29492
219.8360, 18.05469
221.0570, 161.4258
222.2790, 33.17188
223.5000, 68.26562
224.7210, 38.74023
225.9410, 51.25977
227.1620, 127.8242
228.3820, 178.5664
229.6030, 206.0898
230.8230, 71.79297
232.0430, 67.45312
233.2630, 84.34570
234.4820, 61.80469
235.7020, 113.0918
236.9210, 50.03516
238.1400, 37.02539
239.3590, 89.06055
240.5780, 145.1426
241.7970, 136.2676
243.0150, 220.0977
244.2340, 169.3145
245.4520, 173.5547
246.6700, 121.8477
247.8880, 205.1895
249.1060, 277.5742
250.3230, 311.6191
251.5400, 387.7227
252.7580, 450.9883
253.9750, 508.5332
255.1920, 581.1094
256.4080, 649.8281
257.6250, 866.3691
258.8410, 725.0273
260.0580, 863.6934
261.2740, 890.5078
262.4900, 704.1328
263.7050, 967.8672
264.9210, 881.6445
266.1360, 864.0586
267.3520, 717.7773
268.5670, 737.5781
269.7820, 798.5566
270.9960, 748.5117
272.2110, 792.5078
273.4250, 825.5430
274.6400, 878.6230
275.8540, 962.6680
277.0680, 1016.375
278.2810, 1143.111
279.4950, 1124.383
280.7090, 1187.689
281.9220, 1168.514
283.1350, 1327.170
284.3480, 1195.320
285.5610, 1225.916
286.7730, 983.3633
287.9860, 1124.920
289.1980, 864.2617
290.4100, 907.9492
291.6220, 739.1016
292.8340, 777.5762
294.0460, 604.8496
295.2570, 542.7422
296.4690, 460.8008
297.6800, 308.0020
298.8910, 277.5527
300.1020, 159.7891
301.3120, 178.3594
302.5230, 125.0215
303.7330, 106.3906
304.9440, 116.5859
306.1540, 180.5000
307.3630, 148.4688
308.5730, 147.5176
309.7830, 200.6289
310.9920, 146.7871
312.2010, 248.9941
313.4100, 286.2480
314.6190, 217.5410
315.8280, 286.9531
317.0370, 97.26172
318.2450, 319.6875
319.4530, 334.1504
320.6610, 366.6523
321.8690, 197.1953
323.0770, 297.7734
324.2850, 344.3887
325.4920, 125.0371
326.6990, 276.6816
327.9060, 104.3594
329.1130, 161.0684
330.3200, 249.8125
331.5270, 206.5176
332.7330, 180.2598
333.9390, 287.0059
335.1450, 262.7617
336.3510, 231.5488
337.5570, 40.37109
338.7630, 33.22461
339.9680, 190.1094
341.1740, 5.974609
342.3790, 50.97070
343.5840, 55.94336
344.7890, 18.55664
345.9930, 59.97852
347.1980, 76.04102
348.4020, 32.12891
349.6060, 111.2441
350.8100, 102.8750
352.0140, 208.5508
353.2180, 132.7441
354.4210, 132.9609
355.6250, 117.2363
356.8280, 40.53516
358.0310, 172.8574
359.2340, 122.2031
360.4360, 161.5703
361.6390, 102.9004
362.8410, 131.1602
364.0430, 51.49414
365.2450, 189.9473
366.4470, 205.4219
367.6490, 277.0625
368.8510, 376.5801
370.0520, 219.1270
371.2530, 395.7129
372.4540, 109.3184
373.6550, 302.1543
374.8560, 201.8027
376.0560, 229.4707
377.2570, 2.109375
378.4570, 20.81836
379.6570, 37.29492
380.8570, 82.44336
382.0570, 68.19727
383.2560, 142.9707
384.4560, 134.7656
385.6550, 9.578125
386.8540, 177.4102
388.0530, 50.74414
389.2520, 15.89062
390.4510, 29.97852
391.6490, 20.86133
392.8470, 29.76367
394.0450, 178.6855
395.2430, 17.62305
396.4410, 263.7188
397.6390, 82.71289
398.8360, 305.7441
400.0340, 428.7949
401.2310, 286.8574
402.4280, 280.9395
403.6250, 393.0352
404.8210, 278.1465
406.0180, 455.3047
407.2140, 310.4746
408.4100, 155.6582
409.6060, 278.8594
410.8020, 318.0645
411.9980, 178.1777
413.1930, 309.4082
414.3890, 198.6504
415.5840, 218.9102
416.7790, 168.1836
417.9740, 216.4746
419.1680, 87.22266
420.3630, 58.07617
421.5570, 0.3925780
422.7510, 74.27734
423.9450, 100.0508
425.1390, 178.6523
426.3330, 42.01172
427.5270, 97.37109
428.7200, 65.70703
429.9130, 138.0469
431.1060, 98.59961
432.2990, 206.7168
433.4920, 93.93555
434.6840, 57.39258
435.8770, 220.7461
437.0690, 25.87891
438.2610, 90.50195
439.4530, 180.9004
440.6450, 231.3203
441.8360, 193.7578
443.0280, 320.2812
444.2190, 646.0410
445.4100, 548.5293
446.6010, 705.0410
447.7920, 705.5645
448.9820, 730.2832
450.1730, 1013.836
451.3630, 1275.061
452.5530, 1148.641
453.7430, 1217.463
454.9330, 1318.232
456.1230, 1210.854
457.3120, 1001.486
458.5010, 802.1348
459.6910, 837.7949
460.8800, 913.8770
462.0680, 806.5605
463.2570, 895.2578
464.4460, 851.9668
465.6340, 942.6855
466.8220, 1071.668
468.0100, 1300.162
469.1980, 1390.914
470.3860, 1811.680
471.5730, 2009.508
472.7600, 2302.445
473.9480, 2793.916
475.1350, 2619.725
476.3210, 2814.543
477.5080, 2527.371
478.6950, 2303.207
479.8810, 2014.053
481.0670, 1675.912
482.2530, 1472.779
483.4390, 1330.654
484.6250, 1252.084
485.8100, 1017.979
486.9960, 833.8828
488.1810, 790.7949
489.3660, 865.7188
490.5510, 862.6484
491.7360, 711.5859
492.9200, 634.5332
494.1050, 657.4883
495.2890, 651.1738
496.4730, 823.4238
497.6570, 896.3262
498.8400, 983.3145
500.0240, 1336.312
501.2070, 1526.314
502.3910, 1720.328
503.5740, 2153.348
504.7570, 2427.543
505.9400, 2803.406
507.1220, 3337.457
508.3050, 3699.514
509.4870, 4499.578
510.6690, 4730.252
511.8510, 5113.373
513.0330, 5146.016
514.2140, 4939.109
515.3960, 4524.445
516.5770, 3604.576
517.7580, 3107.715
518.9390, 2396.859
520.1200, 1988.918
521.3010, 1707.086
522.4810, 1353.684
523.6610, 1365.869
524.8420, 901.0547
526.0220, 981.2500
527.2010, 619.4473
528.3810, 811.6484
529.5610, 577.8574
530.7400, 549.8613
531.9190, 312.3164
533.0980, 428.5352
534.2770, 344.7559
535.4560, 460.4512
536.6340, 231.6797
537.8120, 30.91211
538.9910, 479.9160
540.1690, 436.1914
541.3460, 228.4297
542.5240, 307.6699
543.7020, 349.9121
544.8790, 217.1582
546.0560, 289.0332
547.2330, 304.8281
548.4100, 267.0391
549.5870, 166.2891
550.7630, 84.53906
551.9400, 154.7949
553.1160, 41.95117
554.2920, 260.2734
555.4680, 315.5137
556.6440, 246.0801
557.8190, 216.3242
558.9950, 341.5664
560.1700, 562.8086
561.3450, 133.7969
562.5200, 288.3652
563.6950, 156.3379
564.8690, 400.9336
566.0440, 32.33594
567.2180, 249.6113
568.3920, 64.21680
569.5660, 157.0918
570.7400, 308.3281
571.9130, 204.5645
573.0870, 166.7285
574.2600, 185.9746
575.4330, 355.3867
576.6060, 160.6641
577.7790, 314.9434
578.9520, 81.65430
580.1240, 189.9316
581.2960, 408.2129
582.4690, 272.5039
583.6410, 34.20508
584.8120, 20.63281
585.9840, 290.6074
587.1560, 44.89648
588.3270, 211.2109
589.4980, 30.45117
590.6690, 145.7461
591.8400, 43.02148
593.0110, 125.1758
594.1810, 29.36914
595.3510, 33.17969
596.5220, 328.7441
597.6920, 88.92383
598.8610, 110.1035
600.0310, 240.2793
601.2010, 22.45117
602.3700, 63.61523
603.5390, 163.7754
604.7080, 221.9336
605.8770, 109.0879
607.0460, 427.2441
608.2140, 300.3945
609.3830, 160.5527
610.5510, 142.7129
611.7190, 13.13086
612.8870, 38.00195
614.0550, 86.87305
615.2220, 92.19141
616.3900, 310.2559
617.5570, 55.31250
618.7240, 202.3867
619.8910, 139.4551
621.0580, 324.5273
622.2240, 60.59766
623.3910, 88.66016
624.5570, 223.7207
625.7230, 279.7812
626.8890, 59.83398
628.0550, 111.8848
629.2200, 144.9336
630.3860, 205.9785
631.5510, 186.0176
632.7160, 284.0547
633.8810, 261.0977
635.0460, 89.15625
636.2100, 239.2109
637.3750, 102.5918
638.5390, 180.6895
639.7030, 377.6973
640.8670, 137.8926
642.0310, 269.9102
643.1950, 229.9258
644.3580, 222.9297
645.5210, 242.9316
646.6850, 238.9238
647.8480, 303.2031
649.0100, 189.1836
650.1730, 25.35938
651.3350, 6.683594
652.4980, 30.71094
653.6600, 349.1426
654.8220, 42.02734
655.9840, 239.0410
657.1450, 334.9082
658.3070, 318.8555
659.4680, 320.5605
660.6300, 316.4062
661.7910, 212.2422
662.9510, 170.0781
664.1120, 223.9043
665.2730, 264.7207
666.4330, 254.5312
667.5930, 165.3301
668.7530, 202.1191
669.9130, 116.9004
671.0730, 231.6836
672.2320, 93.46094
673.3920, 126.2285
674.5510, 39.98438
675.7100, 83.72656
676.8690, 92.45898
678.0280, 62.95898
679.1860, 35.29688
680.3450, 285.3203
681.5030, 329.9258
682.6610, 246.5195
683.8190, 152.1074
684.9770, 164.6855
686.1340, 84.74414
687.2920, 23.76758
688.4490, 226.2637
689.6060, 317.7500
690.7630, 183.6133
691.9200, 131.1914
693.0760, 137.7441
694.2330, 163.3574
695.3890, 54.78320
696.5450, 201.1992
697.7010, 178.8242
698.8570, 102.2207
700.0130, 105.5371
701.1680, 16.99023
702.3230, 249.3516
703.4780, 188.1836
704.6330, 81.53516
705.7880, 248.6113
706.9430, 25.92578
708.0970, 94.13867
709.2520, 234.4336
710.4060, 161.0547
711.5600, 239.7246
712.7140, 258.1465
713.8670, 263.5020
715.0210, 297.2734
716.1740, 295.0859
717.3270, 271.3223
718.4800, 284.5488
719.6330, 181.5859
720.7860, 223.5645
721.9380, 149.7422
723.0910, 73.10352
724.2430, 140.1738
725.3950, 122.3027
726.5470, 118.0176
727.6980, 290.4980
728.8500, 123.4238
730.0010, 156.4863
731.1530, 166.8750
732.3040, 340.9043
733.4550, 276.6914
734.6050, 266.5273
735.7560, 246.5938
736.9060, 250.5586
738.0560, 234.5078
739.2060, 350.4434
740.3560, 419.0352
741.5060, 373.9375
742.6560, 412.8203
743.8050, 674.4102
744.9540, 545.3359
746.1030, 603.1895
747.2520, 734.4258
748.4010, 556.8730
749.5500, 667.4570
750.6980, 523.3770
751.8460, 686.9902
752.9950, 599.1367
754.1420, 678.6367
755.2900, 569.3496
756.4380, 531.1738
757.5850, 326.8477
758.7330, 318.0117
759.8800, 393.5781
761.0270, 563.3516
762.1730, 415.4023
763.3200, 423.4199
764.4670, 562.4727
765.6130, 338.7832
766.7590, 256.8594
767.9050, 341.1934
769.0510, 609.7246
770.1960, 237.7383
771.3420, 567.0117
772.4870, 356.3008
773.6320, 364.2773
774.7770, 149.0254
775.9220, 115.4375
777.0670, 249.3242
778.2110, 146.0156
779.3560, 241.6797
780.5000, 514.0859
781.6440, 354.6035
782.7880, 501.1836
783.9320, 291.4648
785.0750, 121.2520
786.2180, 304.9395
787.3620, 145.3027
788.5050, 411.5410
789.6480, 511.8262
790.7900, 294.4160
791.9330, 287.7812
793.0750, 159.0918
794.2170, 216.5312
795.3590, 173.0586
796.5010, 49.71094
797.6430, 471.9199
798.7850, 484.2363
799.9260, 325.4043
801.0670, 535.4316
802.2080, 504.7480
803.3490, 386.7715
804.4900, 306.0938
805.6310, 417.1738
806.7710, 420.5820
807.9110, 288.7852
809.0510, 525.9023
810.1910, 712.0020
811.3310, 333.9121
812.4710, 557.3809
813.6100, 772.2910
814.7490, 554.3281
815.8880, 682.4785
817.0270, 555.2500
818.1660, 375.1504
819.3050, 483.0664
820.4430, 300.3340
821.5820, 205.8027
822.7200, 207.3418
823.8580, 222.4199
824.9950, 258.9570
826.1330, 271.0488
827.2710, 106.9648
828.4080, 173.4043
829.5450, 324.8184
830.6820, 39.77148
831.8190, 351.8789
832.9560, 254.9219
834.0920, 150.9121
835.2280, 215.8145
836.3650, 67.93164
837.5010, 28.02539
838.6360, 264.0977
839.7720, 90.22266
840.9080, 310.3164
842.0430, 376.2617
843.1780, 32.31641
844.3130, 35.26562
845.4480, 310.2031
846.5830, 126.5547
847.7170, 8.511719
848.8520, 173.6523
849.9860, 109.4453
851.1200, 177.3555
852.2540, 80.12891
853.3870, 379.8789
854.5210, 407.6016
855.6540, 45.30078
856.7880, 19.02734
857.9210, 220.5938
859.0540, 148.4453
860.1860, 162.8359
861.3190, 498.5078
862.4510, 32.00000
863.5840, 238.4375
864.7160, 206.9258
865.8480, 413.3281
866.9790, 359.7656
868.1110, 292.1992
869.2420, 456.6055
870.3740, 258.9922
871.5050, 195.3516
872.6360, 264.3242
873.7660, 361.6328
874.8970, 281.9570
876.0280, 196.2227
877.1580, 249.8828
878.2880, 524.1016
879.4180, 58.29297
880.5480, 23.71875
881.6770, 240.3477
882.8070, 12.96094
883.9360, 73.17578
885.0650, 54.20312
886.1940, 177.2031
887.3230, 248.1797
888.4520, 205.1367
889.5800, 56.09766
890.7090, 223.0312
891.8370, 57.06250
892.9650, 379.7812
894.0930, 1.597656
895.2200, 37.37500
896.3480, 187.1250
897.4750, 116.8516
898.6020, 123.2500
899.7290, 110.3242
900.8560, 58.11719
901.9830, 110.2852
903.1090, 60.48438
904.2360, 240.7969
905.3620, 5.316406
906.4880, 17.19922
907.6140, 49.71094
908.7400, 106.6523
909.8650, 26.01172
910.9900, 70.50000
912.1160, 156.4805
913.2410, 74.29688
914.3660, 156.6758
915.4900, 213.4570
916.6150, 181.5469
917.7390, 166.4570
918.8640, 339.3516
919.9880, 107.3672
921.1120, 126.0586
922.2350, 198.0234
923.3590, 78.94922
924.4820, 196.8906
925.6060, 234.8164
926.7290, 176.7344
927.8520, 128.6250
928.9740, 149.0391
930.0970, 123.0586
931.2190, 89.32031
932.3420, 189.2734
933.4640, 160.8320
934.5860, 190.8789
935.7080, 219.6055
936.8290, 145.6680
937.9510, 211.0859
939.0720, 135.2188
940.1930, 186.8359
941.3140, 103.4336
942.4350, 146.9961
943.5560, 162.5312
944.6760, 160.8789
945.7960, 201.2266
946.9170, 188.2695
948.0370, 190.1562
949.1560, 154.6133
950.2760, 177.1562
951.3960, 197.6797
952.5150, 170.8906
953.6340, 163.4336
954.7530, 74.79688
955.8720, 42.20312
956.9910, 30.91016
958.1090, 35.12891
959.2280, 30.55469
960.3460, 89.77344
961.4640, 125.9570
962.5820, 255.7227
963.6990, 257.7383
964.8170, 284.8438
965.9340, 158.7500
967.0510, 20.80469
968.1690, 66.83203
969.2850, 81.55859
970.4020, 250.5625
971.5190, 239.5664
972.6350, 282.4141
973.7510, 295.3125
974.8670, 316.6992
975.9830, 266.5469
977.0990, 244.3711
978.2150, 229.1797
979.3300, 348.0156
980.4450, 136.7734
981.5600, 275.1758
982.6750, 172.4805
983.7900, 410.0234
984.9050, 384.2031
986.0190, 252.7109
987.1340, 330.7891
988.2480, 245.3867
989.3620, 315.9688
990.4750, 222.7031
991.5890, 327.4609
992.7020, 152.9805
993.8160, 185.2148
994.9290, 188.4961
996.0420, 489.9531
997.1550, 245.3984
998.2670, 384.8164
999.3800, 277.1836
1000.492, 344.5508
1001.604, 402.9062
1002.716, 267.2500
1003.828, 270.5703
1004.940, 335.8711
1006.051, 60.06641
1007.163, 310.3125
1008.274, 203.5586
1009.385, 209.7891
1010.496, 110.9062
1011.606, 289.1133
1012.717, 331.2969
1013.827, 148.7383
1014.937, 58.20312
1016.047, 69.90234
1017.157, 190.5820
1018.267, 252.0078
1019.377, 249.2539
1020.486, 275.0781
1021.595, 228.0625
1022.704, 268.0508
1023.813, 207.7773
1024.922, 300.9961
1026.030, 375.9531
1027.139, 534.2617
1028.247, 221.1328
1029.355, 223.3633
1030.463, 225.2773
1031.571, 16.33984
1032.678, 106.0000
1033.786, 166.2578
1034.893, 109.7734
1036.000, 420.3477
1037.107, 109.1797
1038.214, 305.7695
1039.321, 505.8906
1040.427, 186.6719
1041.533, 439.3945
1042.639, 305.3906
1043.745, 108.5273
1044.851, 240.9062
1045.957, 200.0469
1047.062, 256.7891
1048.168, 24.89453
1049.273, 267.2148
1050.378, 41.78516
1051.482, 1.730469
1052.587, 285.6445
1053.692, 523.3984
1054.796, 326.6953
1055.900, 135.7930
1057.004, 307.2773
1058.108, 384.3359
1059.212, 261.5273
1060.315, 369.6602
1061.418, 33.62500
1062.522, 154.8281
1063.625, 15.24219
1064.728, 452.2656
1065.830, 19.84375
1066.933, 122.0898
1068.035, 314.9023
1069.137, 102.8203
1070.239, 14.11719
1071.341, 73.94922
1072.443, 312.4453
1073.545, 231.5859
1074.646, 288.4453
1075.747, 224.2422
1076.848, 266.8828
1077.949, 137.3906
1079.050, 327.0430
1080.150, 86.65234
1081.251, 220.3398
1082.351, 236.7383
1083.451, 215.6055
1084.551, 248.1484
1085.651, 4.445313
1086.750, 200.9023
1087.850, 247.8633
1088.949, 157.0312
1090.048, 453.6445
1091.147, 87.72266
1092.246, 306.5430
1093.345, 419.4766
1094.443, 639.6250
1095.541, 295.1406
1096.639, 565.6289
1097.737, 413.0938
1098.835, 335.4922
1099.933, 370.8945
1101.030, 690.6406
1102.128, 474.9258
1103.225, 769.3164
1104.322, 580.7227
1105.419, 362.1094
1106.515, 473.4805
1107.612, 227.8320
1108.708, 470.1719
1109.804, 461.1445
1110.900, 756.5781
1111.996, 451.3945
1113.092, 264.8789
1114.187, 422.3828
1115.283, 453.4102
1116.378, 765.6406
1117.473, 922.4102
1118.568, 876.6445
1119.662, 731.5469
1120.757, 1100.230
1121.851, 818.5508
1122.946, 973.0547
1124.040, 1048.219
1125.134, 912.0898
1126.227, 998.1016
1127.321, 849.1055
1128.414, 785.1992
1129.508, 807.8633
1130.601, 759.2812
1131.693, 792.2305
1132.786, 808.5312
1133.879, 788.6133
1134.971, 853.6055
1136.064, 595.5859
1137.156, 490.5430
1138.248, 832.1680
1139.339, 553.7461
1140.431, 605.8320
1141.522, 787.9531
1142.614, 294.7188
1143.705, 613.1914
1144.796, 474.6055
1145.887, 574.1680
1146.977, 446.3438
1148.068, 619.5430
1149.158, 541.6641
1150.248, 298.0234
1151.338, 390.7773
1152.428, 417.5195
1153.518, 177.0469
1154.607, 66.79297
1155.696, 127.6445
1156.785, 155.3164
1157.874, 95.27734
1158.963, 74.93359
1160.052, 120.9414
1161.141, 138.8867
1162.229, 190.5312
1163.317, 284.0508
1164.405, 282.2539
1165.493, 349.1641
1166.581, 373.8750
1167.668, 368.4453
1168.756, 378.8125
1169.843, 181.5156
1170.930, 339.0469
1172.017, 308.5273
1173.103, 270.3125
1174.190, 14.94141
1175.276, 208.1992
1176.363, 372.7500
1177.449, 42.24609
1178.535, 520.7422
1179.620, 337.5703
1180.706, 12.95703
1181.791, 269.6484
1182.877, 172.2227
1183.962, 226.6289
1185.047, 74.02734
1186.131, 297.4102
1187.216, 110.4219
1188.300, 335.8594
1189.385, 316.1328
1190.469, 140.3867
1191.553, 84.13281
1192.637, 85.37109
1193.720, 119.3672
1194.804, 176.9961
1195.887, 182.1172
1196.970, 132.5117
1198.053, 387.3164
1199.136, 357.4023
1200.219, 15.10547
1201.301, 236.4141
1202.383, 190.9648
1203.465, 76.99219
1204.547, 56.00391
1205.629, 109.9961
1206.711, 51.02734
1207.792, 351.9062
1208.874, 240.6289
1209.955, 176.5312
1211.036, 115.0195
1212.117, 400.7891
1213.198, 88.58203
1214.278, 246.3594
1215.359, 237.1250
1216.439, 338.2734
1217.519, 205.0156
1218.599, 77.40234
1219.678, 196.9531
1220.758, 129.8008
1221.837, 123.4414
1222.917, 192.7891
1223.996, 163.4805
1225.075, 179.1641
1226.153, 319.8281
1227.232, 352.4844
1228.310, 126.1250
1229.389, 193.7500
1230.467, 323.3750
1231.545, 62.98438
1232.622, 530.5781
1233.700, 273.1641
1234.777, 400.7305
1235.855, 207.2891
1236.932, 345.8359
1238.009, 459.3711
1239.086, 23.89062
1240.162, 149.3906
1241.239, 52.87891
1242.315, 41.34766
1243.391, 119.8047
1244.467, 256.2422
1245.543, 230.6680
1246.619, 53.30078
1247.694, 187.7031
1248.769, 13.08984
1249.844, 62.45703
1250.919, 144.8086
1251.994, 23.85156
1253.069, 217.4570
1254.144, 18.25391
1255.218, 278.0078
1256.292, 452.2617
1257.366, 270.5000
1258.440, 36.72656
1259.514, 274.2617
1260.587, 113.5391
1261.661, 6.269531
1262.734, 36.03516
1263.807, 181.0859
1264.880, 213.1953
1265.952, 285.2891
1267.025, 98.38281
1268.097, 61.54297
1269.170, 123.4922
1270.242, 117.7461
1271.314, 88.25000
1272.385, 26.72656
1273.457, 36.67969
1274.528, 330.6211
1275.600, 81.45312
1276.671, 207.4414
1277.742, 205.3203
1278.812, 348.4492
1279.883, 374.3086
1280.954, 210.1523
1282.024, 1.992188
1283.094, 162.7227
1284.164, 131.4375
1285.234, 243.9453
1286.303, 104.2188
1287.373, 523.5664
1288.442, 28.61328
1289.511, 499.0430
1290.580, 308.5391
1291.649, 34.39844
1292.718, 456.1211
1293.786, 301.8320
1294.855, 139.5391
1295.923, 487.2656
1296.991, 123.9766
1298.059, 36.31250
1299.126, 566.3203
1300.194, 239.9844
1301.261, 114.8789
