##NAMES=Microcline
##RRUFFID=R050054
##IDEAL CHEMISTRY=KAlSi_3_O_8_
##LOCALITY=Kenticha, Negele area, Sidamo Province, Ethiopia
##OWNER=RRUFF
##SOURCE=Rock Currier
##DESCRIPTION=Light blue single crystal
##STATUS=The identification of this mineral has been confirmed by X-ray diffraction and chemical analysis
##URL=rruff.info/R050054
##MEASURED CHEMISTRY=(K_0.96_Na_0.04_)Al_1.00_Si_3.00_O_8_
##PIN_ID=M00460
##ORIENTATION=Laser parallel to (0 1 1). Fiducial mark perpendicular to laser is parallel to -a [-1 0 0]
97.121, 0.000
98.519, 76.126
99.917, 0.673
101.314, 9.427
102.712, 51.593
104.109, 77.782
105.505, 155.614
106.902, 105.337
108.298, 314.677
109.694, 315.688
111.090, 332.297
112.486, 204.187
113.881, 133.551
115.277, 47.022
116.672, 76.855
118.066, 401.721
119.461, 707.657
120.855, 1132.110
122.249, 1913.808
123.643, 2754.356
125.036, 3870.757
126.430, 4780.849
127.823, 5325.920
129.216, 5537.258
130.608, 5053.103
132.001, 4110.230
133.393, 3123.239
134.785, 2775.268
136.176, 2947.837
137.568, 3698.732
138.959, 4773.295
140.350, 6237.870
141.741, 7529.769
143.131, 7909.257
144.521, 7228.192
145.911, 6285.483
147.301, 6038.906
148.691, 6390.676
150.080, 7200.926
151.469, 8829.854
152.858, 11002.215
154.247, 13849.256
155.635, 17054.420
157.024, 20304.166
158.411, 22478.803
159.799, 22672.516
161.187, 20908.619
162.574, 17463.152
163.961, 13988.118
165.348, 10723.458
166.734, 8242.950
168.121, 6252.740
169.507, 4891.079
170.893, 3984.782
172.278, 3260.465
173.664, 2949.987
175.049, 2731.531
176.434, 2714.434
177.819, 2869.193
179.203, 3162.855
180.587, 3279.604
181.971, 3223.703
183.355, 2863.084
184.739, 2480.741
186.122, 2051.642
187.505, 1674.756
188.888, 1384.053
190.271, 1198.494
191.653, 1077.056
193.035, 1088.722
194.417, 1135.476
195.799, 1449.305
197.180, 1894.190
198.562, 2436.116
199.943, 2967.065
201.324, 3009.023
202.704, 2845.978
204.084, 2233.229
205.465, 1630.967
206.844, 1191.314
208.224, 785.314
209.603, 556.595
210.983, 361.944
212.362, 257.421
213.740, 103.387
215.119, 61.402
216.497, 36.286
217.875, 81.968
219.253, 73.360
220.631, 114.526
222.008, 131.498
223.385, 90.560
224.762, 83.667
226.139, 133.604
227.515, 63.523
228.891, 106.796
230.267, 126.366
231.643, 84.920
233.018, 117.944
234.394, 130.584
235.769, 63.775
237.144, 33.132
238.518, 55.716
239.893, 9.098
241.267, 52.263
242.641, 107.110
244.014, 152.064
245.388, 270.833
246.761, 385.539
248.134, 546.497
249.507, 750.359
250.879, 988.256
252.252, 1486.731
253.624, 2111.815
254.996, 3067.966
256.367, 4198.148
257.739, 5295.710
259.110, 6125.757
260.481, 6387.684
261.852, 6031.521
263.222, 5613.105
264.592, 5584.516
265.962, 5762.506
267.332, 5809.852
268.702, 5683.312
270.071, 5221.773
271.440, 4700.950
272.809, 4125.769
274.178, 3990.243
275.546, 3840.456
276.915, 4278.251
278.283, 5150.761
279.650, 6468.749
281.018, 8423.029
282.385, 11059.929
283.752, 13876.733
285.119, 16813.324
286.486, 18699.697
287.852, 18865.863
289.218, 17271.828
290.584, 14427.579
291.950, 11193.130
293.316, 8318.458
294.681, 6181.532
296.046, 4656.337
297.411, 3661.855
298.775, 2998.083
300.140, 2487.029
301.504, 2155.706
302.868, 1857.131
304.231, 1647.317
305.595, 1358.277
306.958, 1178.022
308.321, 947.562
309.684, 873.897
311.047, 761.034
312.409, 655.986
313.771, 614.758
315.133, 520.356
316.495, 526.784
317.856, 469.026
319.217, 446.021
320.578, 464.689
321.939, 508.968
323.299, 510.707
324.660, 551.870
326.020, 732.531
327.380, 847.701
328.739, 1244.379
330.099, 1597.609
331.458, 2024.414
332.817, 2418.878
334.176, 2486.090
335.534, 2247.124
336.892, 1792.038
338.251, 1394.876
339.608, 1108.665
340.966, 872.408
342.323, 767.106
343.681, 642.755
345.037, 552.354
346.394, 487.900
347.751, 484.389
349.107, 451.822
350.463, 468.556
351.819, 461.510
353.174, 553.764
354.530, 613.958
355.885, 717.626
357.240, 766.300
358.594, 772.631
359.949, 811.093
361.303, 740.001
362.657, 674.850
364.011, 633.640
365.365, 580.372
366.718, 575.045
368.071, 673.652
369.424, 752.189
370.777, 929.654
372.129, 1052.522
373.481, 1233.158
374.833, 1219.061
376.185, 1128.628
377.537, 932.212
378.888, 742.504
380.239, 554.831
381.590, 408.108
382.941, 372.969
384.291, 287.285
385.642, 205.564
386.992, 210.439
388.341, 126.772
389.691, 120.998
391.040, 105.654
392.389, 62.635
393.738, 53.423
395.087, 108.841
396.435, 81.697
397.784, 119.077
399.132, 125.698
400.479, 222.522
401.827, 320.979
403.174, 467.408
404.521, 609.907
405.868, 603.900
407.215, 508.767
408.561, 393.294
409.908, 310.879
411.254, 243.636
412.599, 184.227
413.945, 191.806
415.290, 112.562
416.636, 71.294
417.980, 83.996
419.325, 7.335
420.670, 12.704
422.014, 64.113
423.358, 35.573
424.702, 41.090
426.045, 72.711
427.389, 25.439
428.732, 25.259
430.075, 8.170
431.417, 14.173
432.760, 2.267
434.102, 35.549
435.444, 81.279
436.786, 102.924
438.127, 160.485
439.469, 183.966
440.810, 261.369
442.151, 339.696
443.492, 483.952
444.832, 602.141
446.172, 818.302
447.512, 1093.355
448.852, 1484.341
450.192, 2039.329
451.531, 2812.185
452.870, 3758.099
454.209, 4693.828
455.548, 5363.497
456.887, 5305.103
458.225, 4887.650
459.563, 4014.138
460.901, 3357.568
462.238, 2789.941
463.576, 2419.260
464.913, 2397.525
466.250, 2423.737
467.587, 2641.896
468.923, 3120.004
470.259, 3853.788
471.596, 4980.219
472.931, 6636.135
474.267, 8690.569
475.603, 10758.787
476.938, 12036.571
478.273, 12284.343
479.608, 11291.835
480.942, 9749.193
482.276, 8416.593
483.611, 7754.148
484.944, 7149.682
486.278, 6584.363
487.612, 5939.778
488.945, 4834.657
490.278, 3846.088
491.611, 3092.492
492.943, 2537.870
494.276, 2274.223
495.608, 2149.553
496.940, 2038.861
498.271, 2180.146
499.603, 2292.410
500.934, 2574.653
502.265, 3026.576
503.596, 3706.055
504.927, 4778.013
506.257, 6060.590
507.587, 8120.894
508.917, 10908.185
510.247, 14895.333
511.577, 20272.555
512.906, 26159.744
514.235, 30797.318
515.564, 31605.145
516.892, 29523.408
518.221, 24781.877
519.549, 19470.371
520.877, 14959.026
522.205, 11347.389
523.533, 8655.477
524.860, 6649.909
526.187, 5157.120
527.514, 4303.824
528.841, 3449.298
530.167, 2844.368
531.493, 2512.244
532.820, 2084.744
534.145, 1855.665
535.471, 1594.327
536.796, 1509.057
538.122, 1299.746
539.447, 1122.779
540.771, 1048.273
542.096, 960.987
543.420, 927.492
544.744, 825.786
546.068, 740.919
547.392, 694.147
548.715, 594.353
550.039, 571.847
551.362, 565.666
552.684, 506.398
554.007, 464.484
555.329, 425.965
556.652, 449.902
557.973, 329.898
559.295, 356.104
560.617, 344.113
561.938, 282.483
563.259, 309.406
564.580, 321.267
565.901, 302.482
567.221, 308.271
568.541, 246.066
569.861, 290.535
571.181, 295.656
572.501, 256.811
573.820, 300.758
575.139, 263.488
576.458, 300.960
577.777, 330.491
579.095, 382.542
580.414, 441.518
581.732, 520.044
583.049, 631.502
584.367, 658.818
585.685, 676.088
587.002, 704.880
588.319, 568.697
589.636, 480.848
590.952, 373.923
592.268, 306.177
593.585, 198.641
594.900, 132.308
596.216, 154.076
597.532, 170.096
598.847, 129.684
600.162, 89.692
601.477, 90.497
602.792, 75.527
604.106, 61.562
605.420, 94.594
606.734, 88.621
608.048, 52.646
609.361, 87.669
610.675, 37.688
611.988, 79.705
613.301, 88.720
614.614, 87.734
615.926, 99.746
617.238, 120.757
618.550, 126.766
619.862, 108.774
621.174, 184.781
622.485, 221.788
623.797, 272.794
625.108, 353.800
626.418, 440.807
627.729, 513.812
629.039, 683.820
630.349, 688.830
631.659, 740.845
632.969, 748.867
634.279, 684.897
635.588, 661.937
636.897, 618.986
638.206, 644.046
639.515, 638.117
640.823, 738.199
642.131, 790.291
643.439, 808.394
644.747, 899.506
646.055, 980.625
647.362, 1050.749
648.669, 1234.874
649.976, 1291.002
651.283, 1380.132
652.589, 1525.266
653.896, 1539.400
655.202, 1650.538
656.508, 1534.679
657.814, 1465.822
659.119, 1286.967
660.424, 1179.117
661.729, 957.272
663.034, 790.436
664.339, 619.609
665.643, 575.792
666.947, 468.986
668.251, 375.190
669.555, 273.406
670.859, 245.633
672.162, 181.868
673.465, 139.482
674.768, 121.362
676.071, 82.617
677.373, 68.877
678.676, 61.142
679.978, 48.411
681.280, 8.312
682.581, 8.033
683.883, 35.249
685.184, 29.462
686.485, 35.179
687.786, 20.906
689.087, 56.636
690.387, 15.617
691.687, 37.989
692.987, 59.726
694.287, 37.126
695.586, 88.430
696.886, 31.269
698.185, 46.080
699.484, 41.723
700.783, 41.413
702.081, 60.332
703.379, 37.967
704.677, 45.647
705.975, 26.047
707.273, 31.968
708.570, 11.449
709.868, 16.797
711.165, 10.064
712.462, 3.242
713.758, 35.506
715.055, 19.961
716.351, 2.192
717.647, 7.823
718.943, 26.351
720.238, 45.754
721.533, 22.515
722.829, 1.767
724.124, 36.152
725.418, 37.415
726.713, 59.662
728.007, 10.004
729.301, 64.588
730.595, 38.705
731.889, 64.931
733.182, 73.443
734.476, 125.888
735.769, 178.204
737.061, 205.290
738.354, 316.504
739.647, 390.671
740.939, 440.934
742.231, 551.131
743.523, 607.539
744.814, 797.320
746.106, 1012.976
747.397, 1319.754
748.688, 1642.269
749.978, 1941.517
751.269, 1977.626
752.559, 1877.717
753.849, 1635.807
755.139, 1410.009
756.429, 1123.130
757.719, 949.265
759.008, 806.269
760.297, 657.296
761.586, 598.358
762.875, 510.458
764.163, 553.626
765.451, 512.671
766.739, 593.588
768.027, 701.781
769.315, 699.808
770.602, 587.828
771.890, 582.842
773.177, 471.851
774.463, 431.853
775.750, 361.849
777.036, 300.839
778.323, 286.823
779.609, 208.801
780.894, 228.772
782.180, 168.737
783.465, 121.696
784.750, 168.649
786.035, 160.595
787.320, 118.535
788.605, 159.469
789.889, 142.396
791.173, 131.316
792.457, 137.230
793.741, 122.137
795.024, 240.037
796.307, 175.931
797.591, 233.818
798.873, 213.697
800.156, 265.570
801.439, 305.436
802.721, 575.294
804.003, 845.146
805.285, 2058.990
806.566, 2884.826
807.848, 3910.656
809.129, 1595.479
810.410, 1274.294
811.691, 1662.102
812.971, 2088.902
814.252, 2505.695
815.532, 2752.481
816.812, 2497.260
818.092, 2122.030
819.371, 1677.793
820.651, 1277.548
821.930, 971.296
823.209, 717.036
824.488, 536.768
825.766, 379.492
827.045, 365.208
828.323, 246.917
829.601, 237.617
830.878, 209.310
832.156, 173.994
833.433, 208.670
834.710, 148.338
835.987, 179.482
837.264, 116.619
838.540, 129.232
839.817, 134.483
841.093, 110.461
842.369, 79.026
843.644, 75.949
844.920, 48.440
846.195, 69.185
847.470, 32.862
848.745, 27.593
850.020, 91.719
851.294, 58.667
852.568, 32.906
853.842, 33.325
855.116, 28.264
856.390, 17.898
857.663, 25.511
858.936, 24.492
860.209, 62.371
861.482, 12.942
862.755, 3.571
864.027, 37.684
865.299, 4.822
866.571, 22.186
867.843, 14.483
869.115, 24.705
870.386, 10.378
871.657, 11.687
872.928, 32.109
874.199, 18.370
875.470, 3.508
876.740, 17.922
878.010, 17.230
879.280, 6.622
880.550, 74.403
881.820, 4.515
883.089, 23.671
884.358, 24.287
885.627, 12.169
886.896, 11.064
888.164, 25.978
889.433, 30.083
890.701, 18.137
891.969, 21.184
893.236, 16.224
894.504, 6.744
895.771, 10.272
897.038, 0.279
898.305, 14.727
899.572, 0.169
900.838, 6.210
902.105, 17.162
903.371, 34.106
904.637, 49.045
905.902, 50.978
907.168, 18.904
908.433, 27.824
909.698, 7.261
910.963, 22.363
912.228, 36.513
913.492, 60.384
914.757, 24.249
916.021, 13.108
917.285, 45.960
918.548, 36.807
919.812, 13.648
921.075, 47.483
922.338, 97.313
923.601, 34.137
924.864, 97.957
926.126, 31.771
927.388, 76.580
928.650, 54.384
929.912, 39.183
931.174, 84.977
932.435, 36.766
933.697, 74.551
934.958, 84.331
936.218, 63.106
937.479, 104.878
938.739, 102.645
940.000, 116.413
941.260, 110.175
942.520, 54.932
943.779, 101.686
945.039, 84.434
946.298, 43.179
947.557, 91.919
948.816, 24.654
950.074, 146.386
951.333, 80.113
952.591, 89.835
953.849, 122.554
955.107, 147.268
956.365, 138.776
957.622, 164.136
958.879, 155.226
960.136, 183.086
961.393, 140.781
962.650, 141.471
963.906, 136.159
965.162, 147.842
966.418, 155.522
967.674, 153.081
968.930, 142.870
970.185, 159.539
971.441, 176.205
972.696, 194.867
973.950, 163.530
975.205, 183.189
976.459, 198.845
977.714, 175.499
978.968, 280.149
980.222, 232.796
981.475, 234.443
982.729, 312.086
983.982, 286.726
985.235, 290.364
986.488, 367.999
987.740, 357.640
988.993, 445.286
990.245, 591.930
991.497, 631.578
992.749, 829.232
994.000, 1026.885
995.252, 1179.553
996.503, 1256.080
997.754, 1235.729
999.005, 1303.032
1000.256, 1288.234
1001.506, 1336.953
1002.756, 1398.641
1004.006, 1414.156
1005.256, 1393.356
1006.506, 1332.934
1007.755, 1257.007
1009.005, 1128.552
1010.254, 959.821
1011.502, 829.616
1012.751, 750.986
1014.000, 635.634
1015.248, 573.421
1016.496, 492.043
1017.744, 456.719
1018.991, 428.210
1020.239, 424.927
1021.486, 392.251
1022.733, 392.677
1023.980, 356.731
1025.227, 367.397
1026.473, 407.617
1027.719, 403.626
1028.965, 393.290
1030.211, 448.968
1031.457, 441.561
1032.702, 450.902
1033.948, 510.718
1035.193, 545.429
1036.438, 585.856
1037.682, 687.354
1038.927, 808.983
1040.171, 810.850
1041.415, 923.599
1042.659, 813.411
1043.903, 688.135
1045.146, 631.937
1046.390, 599.535
1047.633, 538.767
1048.876, 476.129
1050.118, 534.377
1051.361, 541.893
1052.603, 500.678
1053.845, 543.605
1055.087, 509.551
1056.329, 405.499
1057.571, 377.338
1058.812, 303.256
1060.053, 198.159
1061.294, 242.188
1062.535, 218.150
1063.775, 140.114
1065.016, 122.036
1066.256, 120.824
1067.496, 108.797
1068.736, 74.773
1069.975, 117.591
1071.214, 132.571
1072.454, 137.569
1073.693, 97.553
1074.931, 87.539
1076.170, 131.528
1077.408, 151.518
1078.647, 109.511
1079.885, 144.574
1081.122, 117.572
1082.360, 169.604
1083.597, 164.661
1084.835, 173.667
1086.072, 187.986
1087.308, 243.000
1088.545, 208.978
1089.781, 187.996
1091.018, 249.016
1092.254, 233.038
1093.490, 317.063
1094.725, 307.091
1095.961, 352.120
1097.196, 418.153
1098.431, 416.188
1099.666, 523.225
1100.900, 489.265
1102.135, 471.307
1103.369, 519.394
1104.603, 498.188
1105.837, 547.449
1107.071, 534.502
1108.304, 531.557
1109.538, 591.614
1110.771, 645.686
1112.004, 648.747
1113.236, 848.812
1114.469, 832.878
1115.701, 987.948
1116.933, 1224.019
1118.165, 1388.110
1119.397, 1793.187
1120.629, 2138.328
1121.860, 2577.182
1123.091, 3056.301
1124.322, 3332.387
1125.553, 3615.573
1126.783, 3590.694
1128.014, 3358.786
1129.244, 3111.332
1130.474, 2868.427
1131.704, 2692.525
1132.933, 2604.716
1134.163, 2548.894
1135.392, 2716.395
1136.621, 2978.529
1137.850, 3185.635
1139.079, 3488.921
1140.307, 3538.371
1141.535, 3530.578
1142.763, 3218.565
1143.991, 2806.775
1145.219, 2482.045
1146.446, 2060.259
1147.674, 1751.083
1148.901, 1513.264
1150.128, 1236.416
1151.354, 1023.624
1152.581, 896.891
1153.807, 743.158
1155.033, 640.441
1156.259, 572.092
1157.485, 467.210
1158.710, 515.431
1159.936, 404.752
1161.161, 358.135
1162.386, 364.782
1163.611, 265.110
1164.835, 302.437
1166.060, 271.609
1167.284, 240.782
1168.508, 315.522
1169.732, 162.902
1170.955, 233.175
1172.179, 205.349
1173.402, 209.120
1174.625, 167.411
1175.848, 199.206
1177.070, 143.527
1178.293, 181.066
1179.515, 135.133
1180.737, 143.389
1181.959, 117.999
1183.181, 83.290
1184.402, 92.639
1185.624, 91.881
1186.845, 118.262
1188.066, 105.561
1189.286, 106.662
1190.507, 73.657
1191.727, 82.105
1192.947, 49.566
1194.167, 21.826
1195.387, 19.435
1196.607, 52.478
1197.826, 82.839
1199.045, 59.372
1200.264, 56.626
1201.483, 57.002
1202.702, 24.287
1203.920, 58.502
1205.138, 30.849
1206.356, 29.359
1207.574, 68.637
1208.792, 59.975
1210.009, 38.314
1211.227, 42.655
1212.444, 42.889
1213.661, 43.124
1214.877, 73.355
1216.094, 24.680
1217.310, 51.984
1218.526, 11.307
1219.742, 61.627
1220.958, 58.888
1222.173, 70.218
1223.389, 28.428
1224.604, 33.855
1225.819, 2.125
1227.034, 46.322
1228.248, 11.879
1229.463, 7.106
1230.677, 47.414
1231.891, 9.761
1233.105, 75.727
1234.318, 21.014
1235.532, 38.231
1236.745, 47.508
1237.958, 55.684
1239.171, 53.045
1240.384, 28.345
1241.596, 38.618
1242.809, 33.073
1244.021, 52.158
1245.233, 35.387
1246.444, 35.650
1247.656, 30.899
1248.867, 37.356
1250.079, 71.441
1251.290, 63.669
1252.500, 49.927
1253.711, 70.135
1254.921, 39.314
1256.132, 29.458
1257.342, 38.674
1258.552, 33.886
1259.761, 79.038
1260.971, 56.550
1262.180, 63.245
1263.389, 31.645
1264.598, 39.965
1265.807, 22.190
1267.015, 11.735
1268.223, 29.367
1269.432, 71.506
1270.640, 15.510
1271.847, 31.527
1273.055, 72.506
1274.262, 5.429
1275.470, 66.530
1276.677, 40.466
1277.883, 19.409
1279.090, 23.523
1280.296, 19.561
1281.503, 13.513
1282.709, 45.371
1283.915, 4.249
1285.120, 1.800
1286.326, 21.055
1287.531, 26.097
1288.736, 21.729
1289.941, 8.548
1291.146, 22.359
1292.350, 6.778
1293.555, 32.009
1294.759, 39.868
1295.963, 26.641
1297.167, 13.406
1298.370, 14.163
1299.574, 13.911
1300.777, 2.351
1301.980, 9.623
1303.183, 10.915
1304.386, 44.220
1305.588, 7.452
1306.790, 80.886
1307.993, 12.742
1309.195, 27.621
1310.396, 62.977
1311.598, 85.564
1312.799, 17.860
1314.000, 10.699
1315.201, 30.300
1316.402, 8.164
1317.603, 1.646
1318.803, 29.857
1320.003, 1.652
1321.203, 24.918
1322.403, 4.441
1323.603, 37.105
1324.802, 47.346
1326.002, 2.766
1327.201, 41.173
1328.400, 28.627
1329.599, 64.013
1330.797, 24.389
1331.995, 43.756
1333.194, 15.888
1334.392, 46.450
1335.589, 14.778
1336.787, 14.095
1337.985, 53.413
1339.182, 5.709
1340.379, 3.005
1341.576, 31.298
1342.772, 10.559
1343.969, 56.882
1345.165, 27.122
1346.361, 48.417
1347.557, 5.347
1348.753, 32.855
1349.949, 12.048
1351.144, 49.229
1352.339, 36.402
1353.534, 35.565
1354.729, 34.719
1355.924, 5.137
1357.118, 67.070
1358.312, 82.197
1359.506, 36.304
1360.700, 40.404
1361.894, 35.701
1363.088, 35.765
1364.281, 49.776
1365.474, 32.535
1366.667, 86.392
1367.860, 18.401
1369.052, 44.306
1370.245, 65.050
1371.437, 9.772
1372.629, 52.588
1373.821, 33.164
1375.013, 2.052
1376.204, 13.911
1377.395, 43.761
1378.586, 46.602
1379.777, 39.432
1380.968, 64.254
1382.159, 25.065
1383.349, 34.866
1384.539, 41.657
1385.729, 44.427
1386.919, 41.199
1388.109, 52.961
1389.298, 45.241
1390.487, 48.581
1391.676, 39.153
1392.865, 44.750
1394.054, 52.415
1395.242, 44.565
1396.431, 56.563
1397.619, 59.994
1398.807, 66.361
1399.995, 48.333
1401.182, 44.445
1402.370, 58.694
1403.557, 53.217
1404.744, 24.642
1405.931, 69.873
1407.118, 26.014
1408.304, 34.540
1409.490, 59.259
1410.676, 36.792
1411.862, 21.866
1413.048, 87.127
1414.234, 44.849
1415.419, 67.503
1416.604, 27.691
1417.789, 79.788
1418.974, 48.279
1420.159, 42.274
1421.343, 9.364
1422.528, 57.189
1423.712, 11.651
1424.896, 99.230
1426.079, 64.813
1427.263, 21.850
1428.446, 94.096
1429.629, 69.748
1430.812, 48.865
1431.995, 87.024
1433.178, 67.585
1434.360, 27.007
1435.543, 48.941
1436.725, 20.474
1437.907, 55.827
1439.088, 41.218
1440.270, 51.633
1441.451, 41.683
1442.632, 52.100
1443.813, 72.795
1444.994, 71.353
1446.175, 52.484
1447.355, 54.648
1448.535, 46.220
1449.715, 64.110
1450.895, 29.916
1452.075, 55.621
1453.255, 38.160
1454.434, 70.732
1455.613, 75.442
1456.792, 19.122
1457.971, 116.685
1459.149, 39.774
1460.328, 71.929
1461.506, 59.292
1462.684, 6.668
1463.862, 14.545
1465.040, 92.241
1466.217, 23.249
1467.395, 74.638
1468.572, 108.155
1469.749, 13.137
1470.925, 55.837
1472.102, 32.810
1473.278, 38.779
1474.455, 29.522
1475.631, 58.160
1476.807, 63.055
1477.982, 36.931
1479.158, 21.814
1480.333, 48.704
1481.508, 62.594
1482.683, 16.395
1483.858, 109.304
1485.033, 5.957
1486.207, 65.905
1487.381, 7.918
1488.555, 19.090
1489.729, 31.006
1490.903, 55.071
1492.076, 55.805
1493.250, 97.847
1494.423, 61.951
1495.596, 63.083
1496.769, 61.132
1497.941, 8.002
1499.114, 23.421
1500.286, 30.834
1501.458, 25.780
1502.630, 0.032
1503.802, 59.175
1504.973, 1.628
1506.145, 12.829
1507.316, 85.911
1508.487, 50.846
1509.657, 14.600
1510.828, 23.317
1511.999, 0.000
##END=



