##NAMES=Microcline
##RRUFFID=R050150
##IDEAL CHEMISTRY=KAlSi_3_O_8_
##LOCALITY=Crystal Peak area, Park/Teller Counties, Colorado, USA
##OWNER=RRUFF
##SOURCE=Dave Bunk Minerals
##DESCRIPTION=Pale blue prismatic crystals
##STATUS=The identification of this mineral has been confirmed by X-ray diffraction and chemical analysis
##URL=rruff.info/R050150
##MEASURED CHEMISTRY=(K_0.95_Na_0.05_)_Î£=1_Al_1.00_Si_3.00_O_8_
##PIN_ID=L00961
##ORIENTATION=Laser parallel to b* (0 1 0). Fiducial mark perpendicular to laser is parallel to c [0 0 1]
137.6830, 0.0000000E+00
138.9210, 446.5039
140.1580, 1108.908
141.3950, 1619.318
142.6330, 2510.285
143.8690, 3383.156
145.1060, 5135.486
146.3430, 6678.516
147.5790, 8604.799
148.8150, 9943.445
150.0510, 10300.89
151.2870, 10192.37
152.5220, 8862.529
153.7580, 7376.654
154.9930, 6093.775
156.2280, 4881.480
157.4620, 3804.475
158.6970, 2844.611
159.9310, 2041.453
161.1660, 1292.971
162.4000, 678.7480
163.6330, 265.3633
164.8670, 43.75195
166.1000, 138.1211
167.3340, 212.8516
168.5670, 97.82031
169.8000, 157.6816
171.0320, 167.2656
172.2650, 356.2090
173.4970, 581.8057
174.7290, 1122.650
175.9610, 1465.330
177.1930, 2164.841
178.4240, 2608.823
179.6550, 2701.731
180.8870, 2760.428
182.1170, 2257.715
183.3480, 1850.678
184.5790, 1607.332
185.8090, 1496.321
187.0390, 1358.180
188.2690, 1374.588
189.4990, 1454.777
190.7290, 1614.847
191.9580, 1655.396
193.1870, 1802.785
194.4160, 2172.952
195.6450, 2498.258
196.8740, 2724.656
198.1020, 2966.116
199.3310, 3253.607
200.5590, 2965.107
201.7870, 2649.626
203.0140, 2049.141
204.2420, 1578.655
205.4690, 976.1738
206.6960, 737.6992
207.9230, 224.2363
209.1500, 86.78906
210.3760, 200.4600
211.6030, 67.51660
212.8290, 68.12793
214.0550, 77.27539
215.2810, 129.0762
216.5060, 199.9551
217.7320, 141.3965
218.9570, 146.4385
220.1820, 108.1318
221.4070, 102.5078
222.6320, 62.45215
223.8560, 152.3398
225.0800, 21.19824
226.3040, 47.91113
227.5280, 42.50000
228.7520, 163.5234
229.9760, 99.34180
231.1990, 36.24609
232.4220, 93.59961
233.6450, 129.9365
234.8680, 20.28418
236.0910, 103.6689
237.3130, 104.1064
238.5350, 24.60742
239.7570, 44.16602
240.9790, 13.43066
242.2010, 139.6328
243.4220, 234.2588
244.6430, 419.4854
245.8640, 629.6572
247.0850, 775.6592
248.3060, 1263.447
249.5270, 1415.981
250.7470, 1605.064
251.9670, 2391.634
253.1870, 2788.765
254.4070, 3632.509
255.6260, 4337.955
256.8460, 5148.094
258.0650, 5388.885
259.2840, 6217.352
260.5030, 6288.531
261.7220, 5530.418
262.9400, 5578.433
264.1580, 5681.924
265.3760, 5806.533
266.5940, 5665.188
267.8120, 5170.891
269.0290, 4703.641
270.2470, 4223.438
271.4640, 3881.278
272.6810, 3663.093
273.8980, 3175.095
275.1140, 3530.068
276.3310, 3787.090
277.5470, 4061.153
278.7630, 4887.262
279.9790, 5478.619
281.1940, 6480.508
282.4100, 7253.021
283.6250, 8327.169
284.8400, 9113.210
286.0550, 9100.693
287.2700, 8665.872
288.4850, 7738.121
289.6990, 6600.678
290.9130, 5684.346
292.1270, 4943.962
293.3410, 4261.410
294.5540, 3730.668
295.7680, 3395.691
296.9810, 3258.441
298.1940, 3024.855
299.4070, 2757.545
300.6200, 2497.861
301.8320, 2087.910
303.0450, 1541.668
304.2570, 1297.094
305.4690, 1110.133
306.6800, 975.7676
307.8920, 654.9805
309.1030, 473.7754
310.3150, 390.1484
311.5260, 273.8848
312.7360, 525.0566
313.9470, 349.1504
315.1580, 379.0879
316.3680, 712.7852
317.5780, 533.2500
318.7880, 360.5254
319.9980, 384.3320
321.2070, 633.6738
322.4170, 631.5586
323.6260, 788.5957
324.8350, 815.8848
326.0430, 1273.527
327.2520, 1455.561
328.4610, 1611.219
329.6690, 1842.334
330.8770, 1978.990
332.0850, 2105.145
333.2920, 1783.908
334.5000, 1771.297
335.7070, 1394.404
336.9140, 1241.422
338.1210, 913.4277
339.3280, 693.4434
340.5350, 665.4766
341.7410, 611.5195
342.9470, 728.5781
344.1540, 599.6484
345.3590, 709.7266
346.5650, 704.8223
347.7710, 691.9277
348.9760, 816.0469
350.1810, 929.1758
351.3860, 866.2324
352.5910, 1192.338
353.7950, 1314.061
355.0000, 1564.994
356.2040, 1571.504
357.4080, 1643.008
358.6120, 1492.719
359.8150, 1493.977
361.0190, 1382.291
362.2220, 1401.770
363.4250, 1433.146
364.6280, 1575.803
365.8310, 1637.992
367.0340, 1928.656
368.2360, 2166.951
369.4380, 2644.705
370.6400, 3254.770
371.8420, 3666.902
373.0440, 3672.814
374.2450, 3399.223
375.4470, 2774.744
376.6480, 2009.324
377.8490, 1478.398
379.0490, 889.2852
380.2500, 576.1504
381.4500, 506.8711
382.6510, 299.6582
383.8510, 252.5312
385.0500, 186.2695
386.2500, 121.7012
387.4500, 106.8633
388.6490, 60.54688
389.8480, 175.9375
391.0470, 213.2402
392.2460, 380.1719
393.4440, 782.2617
394.6430, 979.0742
395.8410, 1171.455
397.0390, 1691.564
398.2370, 2067.688
399.4340, 2537.820
400.6320, 3467.969
401.8290, 3803.131
403.0260, 4335.309
404.2230, 4334.510
405.4200, 3890.729
406.6170, 3119.967
407.8130, 2484.227
409.0090, 2208.504
410.2050, 1719.805
411.4010, 1544.129
412.5970, 1422.473
413.7920, 1173.846
414.9880, 1068.264
416.1830, 874.7031
417.3780, 490.1660
418.5730, 420.6484
419.7670, 33.15234
420.9620, 64.32422
422.1560, 49.79102
423.3500, 60.75586
424.5440, 69.67578
425.7380, 100.1191
426.9310, 156.5684
428.1240, 190.0742
429.3180, 24.31836
430.5110, 102.3281
431.7030, 188.9473
432.8960, 133.1758
434.0890, 79.35352
435.2810, 91.48242
436.4730, 212.5664
437.6650, 351.5977
438.8570, 553.5820
440.0480, 798.5195
441.2390, 637.4121
442.4310, 1117.262
443.6220, 1548.070
444.8120, 1631.838
446.0030, 2243.570
447.1940, 2674.268
448.3840, 3533.930
449.5740, 4186.559
450.7640, 4852.156
451.9540, 5411.113
453.1430, 6379.648
454.3330, 6610.805
455.5220, 6704.154
456.7110, 6307.855
457.9000, 5495.891
459.0890, 5071.008
460.2770, 4805.586
461.4650, 4930.557
462.6540, 5318.361
463.8420, 5972.383
465.0290, 7338.287
466.2170, 8942.824
467.4050, 10573.86
468.5920, 12766.39
469.7790, 15367.39
470.9660, 18250.17
472.1530, 21460.70
473.3390, 24739.10
474.5250, 27308.51
475.7120, 28595.31
476.8980, 27187.74
478.0840, 24769.18
479.2690, 20768.64
480.4550, 17234.11
481.6400, 14368.61
482.8250, 12151.11
484.0100, 10098.63
485.1950, 8590.012
486.3800, 7549.562
487.5640, 6265.969
488.7480, 5210.551
489.9320, 4547.146
491.1160, 3825.760
492.3000, 3423.391
493.4840, 3145.035
494.6670, 3129.697
495.8500, 3256.379
497.0330, 3606.102
498.2160, 4105.883
499.3990, 4651.703
500.5810, 6581.586
501.7630, 7032.525
502.9460, 8803.520
504.1280, 11283.62
505.3090, 14344.85
506.4910, 17910.19
507.6720, 21452.63
508.8540, 26051.18
510.0350, 31044.83
511.2160, 36131.56
512.3960, 39794.40
513.5770, 40675.31
514.7570, 39084.29
515.9380, 34997.34
517.1180, 28919.51
518.2970, 23034.78
519.4770, 18022.12
520.6570, 14051.55
521.8360, 10754.09
523.0150, 8520.699
524.1940, 6777.404
525.3730, 5742.201
526.5510, 4797.072
527.7300, 4090.992
528.9080, 3373.740
530.0860, 2846.490
531.2640, 2520.102
532.4420, 2233.205
533.6200, 2028.332
534.7970, 1753.473
535.9740, 1540.635
537.1510, 1218.922
538.3280, 1273.117
539.5050, 1019.330
540.6810, 1265.561
541.8580, 834.8047
543.0340, 913.0684
544.2100, 776.3496
545.3860, 662.6465
546.5610, 715.9629
547.7370, 644.2930
548.9120, 662.6406
550.0870, 489.0039
551.2620, 500.3848
552.4370, 431.7832
553.6120, 524.1973
554.7860, 434.6660
555.9600, 384.2754
557.1340, 301.7500
558.3080, 350.2402
559.4820, 407.7480
560.6560, 259.2695
561.8290, 414.6055
563.0020, 480.0723
564.1750, 222.1270
565.3480, 324.7578
566.5210, 254.2012
567.6930, 223.3574
568.8660, 379.7031
570.0380, 338.0547
571.2100, 319.7051
572.3820, 231.9375
573.5530, 456.7852
574.7250, 367.6504
575.8960, 420.5566
577.0670, 281.4805
578.2380, 355.8516
579.4090, 635.3809
580.5800, 399.3574
581.7500, 687.3770
582.9210, 593.4434
584.0910, 609.5391
585.2610, 513.6816
586.4300, 504.8398
587.6000, 302.0293
588.7690, 366.2383
589.9390, 103.4648
591.1080, 48.70703
592.2770, 43.02344
593.4450, 159.2480
594.6140, 108.5430
595.7820, 50.13672
596.9500, 100.1934
598.1190, 73.45117
599.2860, 20.89844
600.4540, 95.72656
601.6220, 317.3086
602.7890, 109.0195
603.9560, 22.74609
605.1230, 146.4316
606.2900, 191.1582
607.4570, 176.9473
608.6230, 113.7500
609.7890, 60.57617
610.9560, 32.41211
612.1220, 26.23242
613.2870, 22.94922
614.4530, 22.17969
615.6180, 5.550781
616.7840, 250.7344
617.9490, 70.03906
619.1140, 275.3633
620.2790, 236.7051
621.4430, 379.0625
622.6080, 282.4395
623.7720, 498.8359
624.9360, 413.2852
626.1000, 618.7539
627.2640, 507.2383
628.4270, 532.7402
629.5910, 618.3066
630.7540, 643.8867
631.9170, 550.4824
633.0800, 606.1641
634.2430, 536.8633
635.4050, 612.5781
636.5680, 731.3086
637.7300, 783.0586
638.8920, 898.8223
640.0540, 973.7695
641.2150, 1153.564
642.3770, 1066.375
643.5380, 1330.201
644.7000, 1369.039
645.8610, 1830.893
647.0210, 2056.762
648.1820, 2033.641
649.3430, 2018.531
650.5030, 2410.658
651.6630, 2188.574
652.8230, 2472.498
653.9830, 2313.434
655.1430, 2214.379
656.3020, 1962.068
657.4620, 1545.301
658.6210, 1671.271
659.7800, 1166.250
660.9390, 1106.236
662.0970, 881.2168
663.2560, 758.2168
664.4140, 686.2227
665.5720, 535.0117
666.7300, 450.2480
667.8880, 343.2695
669.0460, 236.2949
670.2030, 164.3262
671.3600, 422.3633
672.5180, 65.40430
673.6740, 259.4492
674.8310, 279.4961
675.9880, 11.54492
677.1440, 316.5977
678.3010, 41.65039
679.4570, 24.70508
680.6130, 148.7637
681.7690, 94.82227
682.9240, 227.8848
684.0800, 164.9492
685.2350, 106.0176
686.3900, 150.0879
687.5450, 112.1777
688.7000, 144.2285
689.8540, 116.3047
691.0090, 111.3789
692.1630, 103.4531
693.3170, 7.470703
694.4710, 84.46094
695.6250, 133.5586
696.7780, 57.57617
697.9320, 160.6094
699.0850, 185.3379
700.2380, 270.6465
701.3910, 190.4336
702.5440, 133.6816
703.6970, 127.9102
704.8490, 207.9473
706.0010, 264.6758
707.1530, 388.1777
708.3050, 514.2656
709.4570, 633.6445
710.6090, 788.2520
711.7600, 526.3730
712.9110, 428.5059
714.0620, 574.9180
715.2130, 439.0410
716.3640, 344.1602
717.5150, 336.2734
718.6650, 450.4902
719.8150, 232.1562
720.9650, 394.9180
722.1150, 347.1289
723.2650, 410.3613
724.4150, 639.7520
725.5640, 1280.379
726.7130, 929.6016
727.8630, 1308.658
729.0110, 1071.711
730.1600, 738.3848
731.3090, 850.7930
732.4570, 678.9121
733.6060, 565.0488
734.7540, 678.1113
735.9020, 800.1152
737.0490, 888.0703
738.1970, 962.0566
739.3440, 1277.471
740.4920, 1570.193
741.6390, 1711.332
742.7860, 2169.689
743.9320, 2625.832
745.0790, 3076.316
746.2250, 3216.082
747.3720, 3662.068
748.5180, 3687.375
749.6640, 3696.312
750.8100, 3645.068
751.9550, 2854.891
753.1010, 2481.635
754.2460, 2078.473
755.3910, 1677.354
756.5360, 1309.205
757.6810, 1134.043
758.8250, 929.8730
759.9700, 883.6934
761.1140, 819.5000
762.2580, 791.3984
763.4020, 679.1875
764.5460, 786.9668
765.6900, 911.7324
766.8330, 698.1289
767.9760, 626.8750
769.1200, 655.6074
770.2620, 472.9102
771.4050, 602.6172
772.5480, 533.3105
773.6900, 490.9941
774.8330, 225.6602
775.9750, 434.3164
777.1170, 57.95508
778.2590, 317.5820
779.4000, 144.1914
780.5420, 268.7891
781.6830, 321.3711
782.8240, 85.94141
783.9650, 140.4961
785.1060, 186.0371
786.2470, 122.5645
787.3870, 59.07617
788.5280, 195.7305
789.6680, 348.2090
790.8080, 199.6758
791.9480, 265.1250
793.0870, 42.56055
794.2270, 59.97461
795.3660, 215.3691
796.5060, 109.7480
797.6450, 258.1113
798.7830, 36.45898
799.9220, 149.7832
801.0610, 265.0918
802.1990, 233.3828
803.3370, 219.6621
804.4750, 492.9238
805.6130, 328.1719
806.7510, 644.4004
807.8890, 602.6172
809.0260, 613.8184
810.1630, 589.0039
811.3000, 549.3340
812.4370, 736.3281
813.5740, 605.3574
814.7110, 504.4805
815.8470, 826.5859
816.9830, 503.6777
818.1190, 552.7539
819.2550, 442.8125
820.3910, 149.8594
821.5270, 277.8887
822.6620, 334.9004
823.7970, 370.9004
824.9330, 379.8809
826.0670, 299.8457
827.2020, 286.7969
828.3370, 267.7324
829.4710, 251.6523
830.6060, 2.486328
831.7400, 119.2227
832.8740, 373.0664
834.0080, 78.89648
835.1410, 197.7090
836.2750, 94.50781
837.4080, 41.29102
838.5410, 73.94727
839.6740, 169.2676
840.8070, 128.2852
841.9400, 69.82227
843.0730, 314.3438
844.2050, 101.8457
845.3370, 75.66406
846.4690, 50.74805
847.6010, 71.86328
848.7330, 248.4473
849.8640, 45.25586
850.9960, 183.9785
852.1270, 140.1973
853.2580, 257.4023
854.3890, 67.58984
855.5200, 51.23633
856.6500, 69.12891
857.7810, 2.904297
858.9110, 61.62500
860.0410, 109.8340
861.1710, 5.750000
862.3010, 60.63086
863.4310, 258.4961
864.5600, 293.3477
865.6900, 36.18750
866.8190, 204.0039
867.9480, 145.8145
869.0770, 53.61133
870.2050, 67.39258
871.3340, 111.1699
872.4620, 70.93359
873.5900, 261.6973
874.7180, 201.5527
875.8460, 140.0781
876.9740, 83.77148
878.1010, 72.52734
879.2290, 186.1113
880.3560, 173.7656
881.4830, 139.5469
882.6100, 44.07422
883.7370, 73.70117
884.8630, 3.330078
885.9900, 78.93750
887.1160, 69.46289
888.2420, 52.92578
889.3680, 32.55273
890.4940, 55.02148
891.6200, 67.47266
892.7450, 116.7051
893.8700, 163.3457
894.9960, 58.76562
896.1210, 158.1719
897.2460, 108.4316
898.3700, 183.8809
899.4950, 181.1816
900.6190, 80.47266
901.7430, 135.2480
902.8670, 324.9375
903.9910, 84.11328
905.1150, 231.7207
906.2390, 107.2988
907.3620, 174.3086
908.4850, 166.3086
909.6080, 48.30078
910.7310, 136.2793
911.8540, 113.2520
912.9770, 215.0449
914.0990, 351.9980
915.2210, 373.9395
916.3440, 385.7031
917.4660, 36.79492
918.5870, 289.7109
919.7090, 262.6172
920.8310, 159.5156
921.9520, 296.4062
923.0730, 13.06250
924.1940, 88.93359
925.3150, 185.7969
926.4360, 228.6543
927.5560, 253.9238
928.6770, 364.6094
929.7970, 233.1797
930.9170, 353.0059
932.0370, 296.8301
933.1570, 203.6445
934.2760, 237.4668
935.3960, 355.2715
936.5150, 102.0664
937.6340, 261.8574
938.7530, 317.6484
939.8720, 281.4316
940.9910, 237.2129
942.1090, 273.9863
943.2280, 245.3184
944.3460, 275.5215
945.4640, 262.2812
946.5820, 305.0371
947.6990, 350.7949
948.8170, 446.5469
949.9340, 502.3008
951.0520, 449.0527
952.1690, 276.8008
953.2860, 250.5449
954.4030, 293.2852
955.5190, 395.0215
956.6360, 237.7559
957.7520, 332.4863
958.8680, 339.2148
959.9840, 297.4590
961.1000, 334.6621
962.2160, 280.3809
963.3310, 348.0996
964.4470, 341.8262
965.5620, 298.9746
966.6770, 361.3672
967.7920, 243.1191
968.9060, 262.8555
970.0210, 292.6074
971.1360, 185.3555
972.2500, 372.3398
973.3640, 442.8926
974.4780, 309.4727
975.5920, 394.2461
976.7050, 349.8945
977.8190, 617.6816
978.9320, 428.4746
980.0450, 648.0293
981.1580, 740.3555
982.2710, 542.1816
983.3840, 709.0254
984.4970, 876.5898
985.6090, 898.4922
986.7210, 1045.393
987.8330, 1284.299
988.9450, 1320.105
990.0570, 1570.471
991.1690, 1814.740
992.2800, 1951.576
993.3920, 1963.393
994.5030, 2156.383
995.6140, 2089.518
996.7250, 2080.363
997.8350, 1830.375
998.9460, 1726.393
1000.056, 1634.785
1001.167, 1723.834
1002.277, 1619.891
1003.387, 1548.750
1004.496, 1582.803
1005.606, 1393.885
1006.715, 1001.973
1007.825, 1051.070
1008.934, 1131.635
1010.043, 945.7695
1011.152, 839.8750
1012.260, 689.6504
1013.369, 673.8438
1014.477, 595.7656
1015.586, 637.6309
1016.694, 744.5996
1017.802, 649.7891
1018.909, 831.5684
1020.017, 757.7812
1021.124, 767.0684
1022.232, 1033.436
1023.339, 1117.324
1024.446, 1111.559
1025.553, 1190.828
1026.659, 1180.117
1027.766, 1093.418
1028.872, 1199.730
1029.979, 1152.365
1031.085, 1382.295
1032.191, 1111.645
1033.296, 1299.018
1034.402, 1212.412
1035.507, 1337.178
1036.613, 1431.602
1037.718, 1447.047
1038.823, 1443.926
1039.928, 1551.400
1041.032, 1341.893
1042.137, 1308.396
1043.241, 1660.918
1044.346, 1545.457
1045.450, 1473.012
1046.554, 1552.588
1047.657, 1621.176
1048.761, 1867.783
1049.864, 2004.402
1050.968, 1880.041
1052.071, 2251.697
1053.174, 1674.371
1054.277, 1372.061
1055.379, 1646.783
1056.482, 1459.361
1057.584, 1155.164
1058.687, 1095.967
1059.789, 984.7852
1060.891, 906.6230
1061.992, 772.4805
1063.094, 742.3594
1064.196, 465.2559
1065.297, 498.1680
1066.398, 476.1016
1067.499, 540.0586
1068.600, 337.0332
1069.701, 261.0293
1070.801, 216.9199
1071.902, 475.9531
1073.002, 370.1016
1074.102, 338.1680
1075.202, 492.2559
1076.302, 399.3613
1077.402, 258.4883
1078.501, 449.7285
1079.600, 360.6348
1080.700, 380.8750
1081.799, 480.5312
1082.898, 359.2656
1083.996, 594.5059
1085.095, 609.7676
1086.193, 608.0469
1087.292, 663.3496
1088.390, 691.5879
1089.488, 711.0371
1090.586, 754.3691
1091.683, 777.7480
1092.781, 738.1484
1093.878, 806.5684
1094.975, 647.0098
1096.073, 1035.709
1097.169, 760.1934
1098.266, 982.7090
1099.363, 1113.244
1100.459, 1140.799
1101.556, 1165.379
1102.652, 1121.979
1103.748, 1318.596
1104.844, 1320.252
1105.940, 1495.016
1107.035, 1512.787
1108.131, 1744.770
1109.226, 2162.547
1110.321, 2269.385
1111.416, 2696.520
1112.511, 3059.428
1113.605, 3690.361
1114.700, 4401.508
1115.794, 5102.510
1116.889, 6487.668
1117.983, 7604.730
1119.077, 8694.816
1120.170, 9824.922
1121.264, 10758.48
1122.357, 11271.65
1123.451, 11693.95
1124.544, 11175.19
1125.637, 10236.73
1126.730, 9281.039
1127.823, 8294.383
1128.915, 7466.740
1130.008, 6733.123
1131.100, 6227.523
1132.192, 6231.639
1133.284, 6066.080
1134.376, 6141.684
1135.467, 6067.166
1136.559, 6116.664
1137.650, 6016.184
1138.742, 5763.012
1139.833, 5549.277
1140.924, 5002.912
1142.014, 4561.570
1143.105, 3851.246
1144.195, 3436.973
1145.286, 2911.711
1146.376, 2568.473
1147.466, 1912.365
1148.556, 1816.211
1149.646, 1479.076
1150.735, 1185.965
1151.825, 1125.873
1152.914, 1137.828
1154.003, 879.8242
1155.092, 870.8457
1156.181, 903.8848
1157.270, 687.3398
1158.358, 640.4180
1159.447, 832.5137
1160.535, 598.6289
1161.623, 655.7617
1162.711, 589.9668
1163.799, 302.1953
1164.886, 469.8887
1165.974, 441.1484
1167.061, 249.4727
1168.148, 709.7715
1169.235, 246.1270
1170.322, 476.5703
1171.409, 470.0312
1172.496, 124.5078
1173.582, 190.0039
1174.669, 86.51758
1175.755, 220.0488
1176.841, 61.63086
1177.927, 271.1973
1179.012, 294.7832
1180.098, 200.3848
1181.183, 80.00391
1182.269, 26.64258
1183.354, 183.2949
1184.439, 180.9648
1185.524, 23.49414
1186.608, 221.1992
1187.693, 3.078125
1188.777, 232.9082
1189.862, 137.6660
1190.946, 143.4375
1192.030, 115.2266
1193.113, 107.3301
1194.197, 91.84961
1195.281, 85.87695
1196.364, 107.5410
1197.447, 86.41016
1198.530, 84.29492
1199.613, 93.19531
1200.696, 33.88672
1201.779, 18.03516
1202.861, 6.027344
1203.944, 170.9238
1205.026, 162.8926
1206.108, 98.87305
1207.190, 24.87109
1208.271, 5.115234
1209.353, 27.19531
1210.435, 2.623047
1211.516, 32.00391
1212.597, 59.05078
1213.678, 65.11914
1214.759, 14.20117
1215.840, 29.30078
1216.920, 7.414063
1218.001, 51.70312
1219.081, 179.7051
1220.161, 157.8809
1221.241, 226.0742
1222.321, 266.2812
1223.401, 18.50000
1224.480, 6.734375
1225.560, 53.01367
1226.639, 123.2285
1227.718, 155.4844
1228.797, 394.7559
1229.876, 108.0391
1230.955, 3.337891
1232.033, 232.6465
1233.112, 376.9688
1234.190, 100.6934
1235.268, 0.6132810
1236.346, 195.9297
1237.424, 239.2598
1238.501, 64.39648
1239.579, 58.93945
1240.656, 65.70898
1241.733, 20.63281
1242.811, 4.988281
1243.888, 116.6445
1244.964, 75.68164
1246.041, 199.9824
1247.117, 24.27148
1248.194, 61.53516
1249.270, 83.81055
1250.346, 45.90430
1251.422, 37.37305
1252.498, 75.33984
1253.573, 74.92188
1254.649, 95.80273
1255.724, 53.43555
1256.800, 265.6816
1257.875, 82.94141
1258.950, 207.2129
1260.024, 169.4941
1261.099, 65.21484
1262.173, 63.05273
1263.248, 5.330078
1264.322, 119.6172
1265.396, 153.9141
1266.470, 240.2246
1267.544, 67.54102
1268.617, 143.8691
1269.691, 82.20508
1270.764, 102.5527
1271.837, 135.7695
1272.910, 84.49414
1273.983, 148.7109
1275.056, 71.11523
1276.129, 30.47070
1277.201, 48.93164
1278.273, 61.34375
1279.346, 185.7656
1280.418, 170.9844
1281.489, 218.6816
1282.561, 143.0762
1283.633, 205.3184
1284.704, 132.7793
1285.776, 14.75000
1286.847, 171.7148
1287.918, 193.1895
1288.989, 82.66797
1290.059, 22.15625
1291.130, 251.0996
1292.200, 22.27930
1293.271, 11.78711
1294.341, 197.6973
1295.411, 100.1895
1296.481, 20.31250
1297.551, 310.1758
1298.620, 272.6680
1299.690, 372.1660
1300.759, 203.6738
1301.828, 245.1875
1302.897, 166.7070
1303.966, 430.2305
1305.035, 25.76172
1306.103, 79.30078
1307.172, 358.8418
1308.240, 232.3926
1309.308, 177.9492
1310.376, 213.5195
1311.444, 504.1016
1312.512, 378.6855
