##NAMES=Microcline
##RRUFFID=R050054
##IDEAL CHEMISTRY=KAlSi_3_O_8_
##LOCALITY=Kenticha, Negele area, Sidamo Province, Ethiopia
##OWNER=RRUFF
##SOURCE=Rock Currier
##DESCRIPTION=Light blue single crystal
##STATUS=The identification of this mineral has been confirmed by X-ray diffraction and chemical analysis
##URL=rruff.info/R050054
##MEASURED CHEMISTRY=(K_0.96_Na_0.04_)Al_1.00_Si_3.00_O_8_
##PIN_ID=L00301
##ORIENTATION=Laser parallel to -c* (0 0 -1). Fiducial mark perpendicular to laser is parallel to a [1 0 0]
49.365, 0.000
50.765, 1.101
52.166, 177.939
53.566, 176.266
54.966, 239.788
56.365, 309.149
57.765, 344.857
59.164, 366.510
60.563, 507.338
61.962, 428.873
63.360, 423.322
64.758, 421.071
66.157, 318.066
67.554, 320.890
68.952, 376.280
70.349, 422.764
71.747, 414.036
73.144, 376.057
74.540, 332.826
75.937, 262.620
77.333, 276.661
78.729, 219.615
80.125, 144.671
81.521, 122.800
82.916, 68.733
84.311, 11.237
85.706, 8.458
87.101, 4.110
88.496, 42.711
89.890, 5.741
91.284, 45.769
92.678, 9.179
94.071, 5.772
95.465, 66.196
96.858, 62.072
98.251, 43.239
99.644, 132.413
101.036, 234.496
102.428, 265.474
103.820, 368.336
105.212, 480.082
106.604, 783.716
107.995, 1114.243
109.387, 1175.667
110.777, 1275.992
112.168, 1313.223
113.559, 1297.363
114.949, 1279.470
116.339, 1327.630
117.729, 1339.973
119.119, 1387.317
120.508, 1563.548
121.897, 1979.673
123.286, 2548.764
124.675, 3046.975
126.063, 3161.309
127.452, 3358.671
128.840, 3266.041
130.228, 3005.364
131.615, 2653.569
133.003, 2316.767
134.390, 1891.255
135.777, 1777.015
137.164, 1718.753
138.550, 1754.087
139.937, 1932.195
141.323, 2132.729
142.709, 2496.113
144.094, 3031.263
145.480, 3561.541
146.865, 4200.603
148.250, 4735.600
149.635, 4863.455
151.019, 4904.111
152.403, 4462.543
153.788, 3994.756
155.171, 4336.767
156.555, 2762.641
157.939, 2258.394
159.322, 1914.073
160.705, 1728.699
162.088, 1544.293
163.470, 1317.854
164.853, 1216.383
166.235, 1221.879
167.617, 1260.341
168.998, 1370.031
170.380, 1569.168
171.761, 1779.531
173.142, 2078.862
174.523, 2440.159
175.904, 2936.423
177.284, 3335.653
178.664, 3651.309
180.044, 3926.872
181.424, 3993.181
182.803, 4076.943
184.183, 3934.741
185.562, 3727.606
186.940, 3415.693
188.319, 3121.377
189.698, 2719.990
191.076, 2356.569
192.454, 2260.113
193.831, 2095.625
195.209, 2080.647
196.586, 2108.353
197.963, 2178.578
199.340, 2264.048
200.717, 2182.013
202.093, 2166.127
203.470, 2275.067
204.846, 2552.564
206.221, 2712.451
207.597, 2892.958
208.972, 2854.070
210.347, 2760.901
211.722, 2281.552
213.097, 1835.171
214.472, 1370.417
215.846, 1061.080
217.220, 707.778
218.594, 488.060
219.967, 349.812
221.341, 248.891
222.714, 215.611
224.087, 166.748
225.460, 114.620
226.832, 115.729
228.204, 82.694
229.577, 90.551
230.948, 62.599
232.320, 66.241
233.692, 64.625
235.063, 51.183
236.434, 36.160
237.805, 70.439
239.175, 74.527
240.545, 140.068
241.916, 199.068
243.286, 231.157
244.655, 347.782
246.025, 476.777
247.394, 694.525
248.763, 955.561
250.132, 1193.359
251.501, 1475.169
252.869, 1736.112
254.237, 2056.127
255.605, 2275.961
256.973, 2524.698
258.340, 2782.788
259.708, 2961.769
261.075, 3314.996
262.442, 3749.178
263.808, 4206.060
265.175, 4480.045
266.541, 4486.252
267.907, 4388.499
269.273, 4059.074
270.639, 3440.322
272.004, 2894.905
273.369, 2438.312
274.734, 2071.654
276.099, 1909.971
277.463, 1868.261
278.828, 2082.526
280.192, 2366.766
281.556, 2874.979
282.919, 3386.167
284.283, 3910.327
285.646, 4319.461
287.009, 4663.570
288.372, 4738.652
289.734, 4564.707
291.097, 4195.736
292.459, 3626.737
293.821, 3037.711
295.183, 2279.658
296.544, 1784.578
297.905, 1301.471
299.266, 1002.334
300.627, 700.156
301.988, 576.927
303.348, 403.640
304.709, 280.292
306.069, 190.880
307.428, 172.402
308.788, 107.860
310.147, 43.258
311.507, 70.607
312.865, 7.918
314.224, 11.804
315.583, 52.562
316.941, 0.366
318.299, 17.797
319.657, 34.070
321.015, 67.025
322.372, 163.092
323.729, 342.133
325.086, 596.152
326.443, 862.149
327.800, 1019.123
329.156, 1155.075
330.512, 1119.005
331.868, 955.913
333.224, 725.799
334.579, 591.664
335.935, 399.506
337.290, 211.328
338.645, 127.125
339.999, 65.897
341.354, 25.357
342.708, 31.650
344.062, 31.989
345.416, 20.376
346.769, 19.815
348.123, 13.319
349.476, 50.879
350.829, 51.487
352.182, 2.867
353.534, 24.804
354.887, 41.494
356.239, 29.769
357.591, 11.020
358.942, 18.759
360.294, 7.584
361.645, 6.463
362.996, 15.390
364.347, 8.630
365.698, 42.611
367.048, 136.563
368.398, 189.487
369.748, 327.378
371.098, 358.237
372.448, 387.072
373.797, 357.898
375.146, 250.713
376.495, 163.518
377.844, 73.323
379.192, 20.080
380.540, 33.780
381.889, 2.405
383.236, 1.385
384.584, 62.120
385.932, 95.867
387.279, 55.935
388.626, 39.370
389.973, 10.871
391.319, 22.301
392.666, 79.503
394.012, 142.437
395.358, 232.374
396.704, 468.281
398.049, 555.062
399.394, 702.692
400.740, 784.623
402.084, 932.586
403.429, 1050.016
404.774, 1085.688
406.118, 1152.489
407.462, 1237.777
408.806, 1337.606
410.150, 1434.444
411.493, 1551.277
412.836, 1739.111
414.179, 1829.950
415.522, 1712.791
416.865, 1735.646
418.207, 1372.500
419.549, 1036.368
420.891, 656.240
422.233, 447.110
423.575, 318.975
424.916, 229.834
426.257, 235.689
427.598, 132.535
428.939, 152.365
430.279, 172.179
431.619, 116.976
432.959, 171.753
434.299, 205.510
435.639, 258.246
436.978, 403.964
438.318, 426.687
439.657, 523.491
440.996, 647.297
442.334, 838.971
443.673, 1051.781
445.011, 1453.430
446.349, 1956.151
447.687, 2803.771
449.024, 3855.343
450.361, 5133.027
451.699, 6380.692
453.036, 7414.402
454.372, 7804.147
455.709, 7523.771
457.045, 6796.315
458.381, 5634.836
459.717, 4616.249
461.053, 3730.800
462.388, 3168.168
463.724, 2771.521
465.059, 2718.091
466.394, 2790.035
467.728, 3048.581
469.063, 3712.041
470.397, 4671.221
471.731, 5907.122
473.065, 7400.129
474.398, 9347.733
475.732, 10774.719
477.065, 12169.194
478.398, 12256.659
479.731, 11434.333
481.063, 10249.974
482.396, 8377.910
483.728, 6682.244
485.060, 5517.319
486.391, 4376.411
487.723, 3467.488
489.054, 2980.552
490.385, 2579.602
491.716, 2450.638
493.047, 2363.660
494.377, 2402.669
495.708, 2627.665
497.038, 3076.647
498.368, 3610.107
499.697, 4628.207
501.027, 6105.046
502.356, 8237.269
503.685, 11063.098
505.014, 14308.910
506.342, 17225.414
507.671, 19461.951
508.999, 20838.812
510.327, 21463.455
511.655, 21438.066
512.982, 20615.557
514.310, 18701.932
515.637, 15719.613
516.964, 12617.335
518.291, 9985.005
519.617, 7681.701
520.944, 6117.535
522.270, 4733.902
523.596, 3765.492
524.921, 3213.181
526.247, 2642.046
527.572, 2243.405
528.897, 1899.506
530.222, 1723.523
531.547, 1515.412
532.871, 1345.080
534.196, 1200.457
535.520, 1076.633
536.844, 964.442
538.167, 921.922
539.491, 803.839
540.814, 743.669
542.137, 744.936
543.460, 707.119
544.783, 609.585
546.105, 519.199
547.427, 539.262
548.749, 546.719
550.071, 473.992
551.393, 404.787
552.714, 432.627
554.035, 377.787
555.356, 376.290
556.677, 336.062
557.998, 350.689
559.318, 364.320
560.638, 332.252
561.958, 302.887
563.278, 262.527
564.597, 275.166
565.917, 290.805
567.236, 281.441
568.555, 313.071
569.874, 308.713
571.192, 362.350
572.511, 365.985
573.829, 428.615
575.147, 521.245
576.464, 565.871
577.782, 634.661
579.099, 729.111
580.416, 685.731
581.733, 686.349
583.050, 567.959
584.366, 494.569
585.683, 454.171
586.999, 340.405
588.315, 239.726
589.630, 241.129
590.946, 109.303
592.261, 117.711
593.576, 111.260
594.891, 116.842
596.206, 82.417
597.520, 57.988
598.834, 52.551
600.148, 79.107
601.462, 41.658
602.776, 75.201
604.089, 52.739
605.402, 72.270
606.715, 78.795
608.028, 47.315
609.341, 46.829
610.653, 31.338
611.965, 17.841
613.277, 42.336
614.589, 56.824
615.901, 57.308
617.212, 78.786
618.523, 41.259
619.834, 85.732
621.145, 81.201
622.456, 22.666
623.766, 75.124
625.076, 115.578
626.386, 91.032
627.696, 136.485
629.006, 177.937
630.315, 198.391
631.624, 231.845
632.933, 248.302
634.242, 241.765
635.551, 318.244
636.859, 319.726
638.167, 372.211
639.475, 408.707
640.783, 483.233
642.090, 571.812
643.398, 664.192
644.705, 800.680
646.012, 904.164
647.318, 1063.645
648.625, 1063.121
649.931, 1119.594
651.237, 1138.063
652.543, 1074.528
653.849, 990.990
655.155, 883.448
656.460, 823.904
657.765, 673.360
659.070, 506.817
660.375, 451.284
661.679, 363.760
662.984, 338.247
664.288, 257.616
665.592, 230.241
666.895, 122.748
668.199, 147.270
669.502, 87.807
670.805, 44.347
672.108, 91.894
673.411, 45.513
674.713, 38.072
676.016, 45.542
677.318, 5.902
678.620, 23.651
679.921, 7.793
681.223, 32.239
682.524, 32.702
683.825, 2.815
685.126, 7.671
686.427, 2.834
687.727, 19.332
689.028, 45.175
690.328, 4.711
691.628, 22.257
692.927, 71.820
694.227, 88.425
695.526, 51.078
696.825, 9.240
698.124, 6.084
699.423, 4.773
700.721, 3.178
702.020, 37.433
703.318, 36.110
704.616, 6.795
705.913, 15.524
707.211, 13.055
708.508, 67.558
709.805, 52.262
711.102, 93.619
712.399, 26.926
713.695, 113.272
714.992, 75.571
716.288, 5.867
717.584, 100.157
718.879, 88.578
720.175, 109.904
721.470, 114.535
722.765, 118.812
724.060, 143.177
725.355, 117.708
726.649, 176.978
727.944, 179.303
729.238, 164.591
730.532, 271.276
731.825, 293.985
733.119, 411.233
734.412, 415.757
735.705, 473.520
736.998, 595.469
738.291, 762.703
739.584, 901.840
740.876, 1170.065
742.168, 1534.679
743.460, 1949.662
744.752, 2434.945
746.043, 2985.446
747.334, 3301.805
748.626, 3556.025
749.916, 3397.270
751.207, 3209.470
752.498, 2930.695
753.788, 2472.763
755.078, 2282.806
756.368, 2330.959
757.658, 2546.002
758.947, 2842.135
760.237, 3479.198
761.526, 4148.315
762.815, 4479.458
764.104, 4617.475
765.392, 4338.038
766.680, 3505.977
767.969, 2344.857
769.257, 1865.839
770.544, 1472.989
771.832, 1129.030
773.119, 941.159
774.406, 748.458
775.693, 682.795
776.980, 591.921
778.267, 524.848
779.553, 511.953
780.839, 453.068
782.125, 432.180
783.411, 444.289
784.697, 446.393
785.982, 342.494
787.267, 378.592
788.552, 357.685
789.837, 432.775
791.122, 438.862
792.406, 464.945
793.690, 480.024
794.974, 488.099
796.258, 555.171
797.542, 603.239
798.825, 648.302
800.108, 757.362
801.391, 833.419
802.674, 1019.472
803.957, 1174.521
805.239, 1535.566
806.522, 1981.608
807.804, 2597.646
809.085, 3427.681
810.367, 4466.711
811.649, 5527.739
812.930, 6673.763
814.211, 6849.783
815.492, 6827.799
816.772, 5816.811
818.053, 4718.821
819.333, 3434.826
820.613, 2628.827
821.893, 1956.825
823.173, 1490.818
824.452, 1142.807
825.732, 914.695
827.011, 777.676
828.290, 638.562
829.568, 591.413
830.847, 462.292
832.125, 443.558
833.403, 378.338
834.681, 420.489
835.959, 287.276
837.236, 292.022
838.514, 240.663
839.791, 223.776
841.068, 237.401
842.345, 154.142
843.621, 171.091
844.898, 182.319
846.174, 176.584
847.450, 66.847
848.726, 80.057
850.001, 57.601
851.277, 53.284
852.552, 87.391
853.827, 59.564
855.102, 18.134
856.376, 58.445
857.651, 42.827
858.925, 70.865
860.199, 7.566
861.473, 16.750
862.746, 0.870
864.020, 15.958
865.293, 26.830
866.566, 16.550
867.839, 47.417
869.112, 29.282
870.384, 53.845
871.656, 14.294
872.928, 15.555
874.200, 0.597
875.472, 49.245
876.744, 21.085
878.015, 67.076
879.286, 23.723
880.557, 13.479
881.828, 17.307
883.098, 19.908
884.369, 3.138
885.639, 30.626
886.909, 17.611
888.178, 21.861
889.448, 8.126
890.717, 31.601
891.987, 11.674
893.256, 27.042
894.524, 37.237
895.793, 9.538
897.061, 5.152
898.330, 1.160
899.598, 16.469
900.865, 17.212
902.133, 9.898
903.401, 50.584
904.668, 6.268
905.935, 20.951
907.202, 25.634
908.468, 75.316
909.735, 5.997
911.001, 29.679
912.267, 11.359
913.533, 38.048
914.799, 39.736
916.064, 14.423
917.330, 7.890
918.595, 28.791
919.860, 43.472
921.124, 70.154
922.389, 0.165
923.653, 30.515
924.918, 27.194
926.182, 22.128
927.445, 2.462
928.709, 26.201
929.972, 3.865
931.236, 26.530
932.499, 37.193
933.761, 35.856
935.024, 47.558
936.286, 50.179
937.549, 59.841
938.811, 36.501
940.073, 52.161
941.334, 23.822
942.596, 31.036
943.857, 37.148
945.118, 38.813
946.379, 46.477
947.640, 55.150
948.900, 115.823
950.161, 48.495
951.421, 136.167
952.681, 127.838
953.940, 155.510
955.200, 79.181
956.459, 141.852
957.719, 94.523
958.978, 152.194
960.236, 118.868
961.495, 131.542
962.753, 96.215
964.012, 151.889
965.270, 141.562
966.527, 117.236
967.785, 206.910
969.043, 185.584
970.300, 299.258
971.557, 244.932
972.814, 301.606
974.071, 363.281
975.327, 397.955
976.583, 556.630
977.840, 569.304
979.095, 602.979
980.351, 575.654
981.607, 531.334
982.862, 486.015
984.117, 490.703
985.372, 488.394
986.627, 521.877
987.882, 550.796
989.136, 658.512
990.390, 747.230
991.644, 891.953
992.898, 1027.679
994.152, 1152.407
995.405, 1076.149
996.659, 1015.895
997.912, 927.649
999.165, 821.425
1000.417, 819.225
1001.670, 844.049
1002.922, 737.873
1004.174, 749.703
1005.426, 775.542
1006.678, 660.316
1007.930, 639.171
1009.181, 648.037
1010.432, 517.907
1011.683, 495.679
1012.934, 530.256
1014.185, 422.748
1015.435, 431.585
1016.685, 429.473
1017.935, 359.319
1019.185, 366.208
1020.435, 311.122
1021.684, 330.013
1022.934, 236.770
1024.183, 201.873
1025.432, 247.416
1026.680, 250.318
1027.929, 252.219
1029.177, 248.800
1030.425, 212.716
1031.673, 293.576
1032.921, 308.591
1034.169, 219.086
1035.416, 320.552
1036.663, 250.613
1037.911, 317.260
1039.157, 329.755
1040.404, 332.058
1041.650, 385.989
1042.897, 329.037
1044.143, 361.554
1045.389, 383.097
1046.634, 393.269
1047.880, 357.139
1049.125, 329.764
1050.371, 288.559
1051.615, 281.002
1052.860, 255.326
1054.105, 266.411
1055.349, 223.302
1056.593, 218.301
1057.837, 195.324
1059.081, 208.274
1060.325, 171.403
1061.568, 185.353
1062.812, 188.389
1064.055, 168.413
1065.298, 145.366
1066.540, 107.313
1067.783, 178.781
1069.025, 112.764
1070.267, 152.824
1071.509, 186.779
1072.751, 191.724
1073.993, 229.680
1075.234, 184.635
1076.475, 207.382
1077.716, 191.130
1078.957, 226.624
1080.198, 220.568
1081.438, 243.531
1082.679, 268.496
1083.919, 374.461
1085.159, 325.426
1086.398, 426.507
1087.638, 474.478
1088.877, 495.679
1090.116, 625.828
1091.355, 691.851
1092.594, 850.225
1093.833, 1056.204
1095.071, 1205.188
1096.309, 1416.276
1097.547, 1633.257
1098.785, 1625.290
1100.023, 1655.321
1101.260, 1604.301
1102.498, 1395.402
1103.735, 1218.380
1104.972, 1018.358
1106.208, 867.656
1107.445, 775.634
1108.681, 662.266
1109.918, 620.281
1111.154, 519.257
1112.389, 515.400
1113.625, 498.479
1114.860, 429.452
1116.096, 505.562
1117.331, 497.676
1118.566, 490.742
1119.800, 588.769
1121.035, 774.837
1122.269, 1175.855
1123.503, 1300.941
1124.737, 1032.925
1125.971, 849.895
1127.205, 769.862
1128.438, 594.917
1129.671, 626.903
1130.904, 556.959
1132.137, 551.742
1133.370, 596.290
1134.602, 654.347
1135.834, 724.469
1137.066, 821.556
1138.298, 761.512
1139.530, 852.829
1140.762, 806.780
1141.993, 683.080
1143.224, 679.216
1144.455, 479.334
1145.686, 495.466
1146.917, 464.610
1148.147, 334.617
1149.377, 352.419
1150.607, 331.350
1151.837, 316.541
1153.067, 281.830
1154.296, 248.234
1155.526, 215.073
1156.755, 170.075
1157.984, 137.022
1159.213, 111.281
1160.441, 73.396
1161.670, 111.511
1162.898, 106.410
1164.126, 116.007
1165.354, 168.958
1166.581, 62.852
1167.809, 22.823
1169.036, 81.698
1170.263, 108.633
1171.490, 6.380
1172.717, 91.774
1173.943, 56.651
1175.170, 45.931
1176.396, 83.969
1177.622, 79.105
1178.848, 110.490
1180.073, 8.466
1181.299, 83.453
1182.524, 60.311
1183.749, 6.397
1184.974, 88.274
1186.199, 18.421
1187.423, 19.328
1188.648, 90.477
1189.872, 35.525
1191.096, 26.451
1192.320, 44.580
1193.543, 61.390
1194.767, 69.328
1195.990, 31.683
1197.213, 48.095
1198.436, 29.129
1199.659, 20.758
1200.881, 12.504
1202.104, 93.314
1203.326, 34.275
1204.548, 29.397
1205.770, 52.112
1206.991, 1.145
1208.213, 74.622
1209.434, 32.241
1210.655, 32.739
1211.876, 96.501
1213.096, 80.394
1214.317, 34.177
1215.537, 44.812
1216.757, 26.513
1217.977, 62.131
1219.197, 28.769
1220.417, 75.370
1221.636, 82.964
1222.855, 24.550
1224.074, 76.175
1225.293, 4.937
1226.512, 51.464
1227.731, 86.045
1228.949, 79.898
1230.167, 64.461
1231.385, 82.262
1232.603, 33.344
1233.820, 119.853
1235.038, 6.816
1236.255, 18.406
1237.472, 48.929
1238.689, 15.810
1239.906, 97.772
1241.122, 62.364
1242.338, 26.770
1243.555, 103.072
1244.771, 52.721
1245.986, 53.280
1247.202, 85.685
1248.417, 37.241
1249.633, 120.647
1250.848, 94.032
1252.063, 6.067
1253.277, 87.438
1254.492, 2.197
1255.706, 59.338
1256.920, 91.681
1258.134, 29.011
1259.348, 44.480
1260.562, 89.958
1261.775, 37.472
1262.988, 37.228
1264.201, 48.514
1265.414, 57.937
1266.627, 48.592
1267.839, 60.540
1269.052, 46.024
1270.264, 70.354
1271.476, 130.569
1272.688, 138.834
1273.899, 53.022
1275.111, 5.640
1276.322, 52.609
1277.533, 2.234
1278.744, 2.385
1279.955, 54.562
1281.165, 38.647
1282.376, 46.758
1283.586, 105.823
1284.796, 11.877
1286.006, 84.945
1287.215, 12.974
1288.425, 32.991
1289.634, 36.990
1290.843, 32.979
1292.052, 30.019
1293.261, 61.983
1294.469, 17.062
1295.678, 110.557
1296.886, 22.520
1298.094, 8.571
1299.302, 19.322
1300.509, 61.205
1301.717, 54.108
1302.924, 71.971
1304.131, 15.807
1305.338, 30.629
1306.545, 5.562
1307.752, 87.220
1308.958, 3.023
1310.164, 67.761
1311.370, 80.485
1312.576, 61.190
1313.782, 90.858
1314.987, 67.537
1316.193, 55.205
1317.398, 22.599
1318.603, 17.766
1319.807, 40.152
1321.012, 38.431
1322.216, 24.995
1323.421, 8.544
1324.625, 55.074
1325.829, 50.477
1327.032, 81.968
1328.236, 29.443
1329.439, 74.767
1330.642, 22.195
1331.845, 67.518
1333.048, 21.830
1334.251, 32.212
1335.453, 36.683
1336.656, 30.451
1337.858, 127.789
1339.060, 51.101
1340.261, 4.603
1341.463, 94.703
1342.664, 82.963
1343.866, 47.379
1345.067, 99.505
1346.267, 61.580
1347.468, 26.779
1348.669, 11.933
1349.869, 82.025
1351.069, 70.177
1352.269, 62.084
1353.469, 9.205
1354.668, 16.242
1355.868, 51.235
1357.067, 23.311
1358.266, 42.369
1359.465, 80.353
1360.664, 58.356
1361.862, 108.271
1363.061, 69.276
1364.259, 99.169
1365.457, 84.171
1366.655, 94.138
1367.852, 64.974
1369.050, 9.037
1370.247, 1.643
1371.444, 68.251
1372.641, 16.157
1373.838, 68.051
1375.035, 18.934
1376.231, 13.124
1377.427, 77.630
1378.623, 6.648
1379.819, 50.062
1381.015, 64.676
1382.211, 16.928
1383.406, 40.690
1384.601, 37.385
1385.796, 7.065
1386.991, 7.656
1388.185, 23.019
1389.380, 36.998
1390.574, 88.616
1391.768, 34.963
1392.962, 69.438
1394.156, 103.782
1395.350, 1.196
1396.543, 78.575
1397.736, 131.103
1398.929, 30.526
1400.122, 130.737
1401.315, 111.560
1402.507, 36.694
1403.700, 32.959
1404.892, 25.921
1406.084, 6.425
1407.276, 98.548
1408.467, 37.542
1409.659, 8.495
1410.850, 80.687
1412.041, 4.571
1413.232, 44.447
1414.423, 108.896
1415.614, 52.451
1416.804, 158.565
1417.994, 29.548
1419.184, 47.561
1420.374, 113.080
1421.564, 16.548
1422.753, 41.753
1423.943, 63.753
1425.132, 51.453
1426.321, 96.937
1427.510, 116.248
1428.698, 52.291
1429.887, 136.481
1431.075, 85.104
1432.263, 138.050
1433.451, 170.651
1434.639, 42.346
1435.827, 156.107
1437.014, 117.823
1438.201, 4.285
1439.388, 45.764
1440.575, 105.843
1441.762, 104.445
1442.949, 138.131
1444.135, 47.831
1445.321, 133.455
1446.507, 124.104
1447.693, 64.092
1448.879, 195.118
1450.064, 94.620
1451.250, 39.019
1452.435, 189.774
1453.620, 153.631
1454.805, 108.226
1455.989, 132.720
1457.174, 105.623
1458.358, 98.787
1459.542, 116.494
1460.726, 122.085
1461.910, 138.126
1463.093, 129.382
1464.277, 119.684
1465.460, 164.192
1466.643, 92.057
1467.826, 30.113
1469.009, 117.685
1470.191, 38.970
1471.373, 76.390
1472.556, 180.604
1473.738, 92.140
1474.919, 202.731
1476.101, 109.203
1477.283, 0.271
1478.464, 135.016
1479.645, 72.452
1480.826, 59.328
1482.007, 181.593
1483.187, 77.659
1484.368, 150.800
1485.548, 122.937
1486.728, 96.959
1487.908, 153.195
1489.088, 91.436
1490.268, 11.625
1491.447, 54.806
1492.626, 156.938
1493.805, 26.089
1494.984, 51.186
1496.163, 96.411
1497.341, 9.719
1498.520, 139.111
1499.698, 55.667
1500.876, 8.984
1502.054, 75.447
1503.232, 9.947
1504.409, 46.492
1505.586, 86.082
1506.763, 4.506
1507.940, 37.203
