##NAMES=Microcline
##RRUFFID=R040154
##IDEAL CHEMISTRY=KAlSi_3_O_8_
##LOCALITY=Mitchell County, North Carolina, USA
##OWNER=RRUFF
##SOURCE=University of Arizona Mineral Museum
##DESCRIPTION=White cleavage fragment with some perthitic character
##STATUS=The identification of this mineral has been confirmed by X-ray diffraction and chemical analysis
##URL=rruff.info/R040154
##MEASURED CHEMISTRY=(K_0.90_Na_0.09_Ba_0.01_)Al_1.00_(Si_2.99_Al_0.01_)_Î£=3_O_8_
##PIN_ID=L00158
##ORIENTATION=Laser parallel to b* (0 1 0). Fiducial mark perpendicular to laser is parallel to c [0 0 1]
94.768, 0.000
96.161, 107.642
97.554, 0.334
98.947, 99.839
100.340, 4.164
101.732, 28.437
103.124, 125.625
104.516, 284.125
105.908, 466.497
107.300, 276.113
108.691, 240.629
110.082, 52.036
111.473, 90.481
112.864, 311.480
114.254, 774.161
115.644, 1490.437
117.034, 2101.561
118.424, 2785.028
119.813, 4097.479
121.203, 5155.652
122.592, 6439.358
123.981, 7589.453
125.369, 8150.483
126.758, 8394.375
128.146, 8066.295
129.534, 8086.762
130.922, 7637.429
132.309, 7671.485
133.696, 8217.027
135.083, 9747.220
136.470, 11255.208
137.857, 13430.186
139.243, 14982.289
140.630, 16595.635
142.016, 17899.291
143.401, 18942.334
144.787, 19773.814
146.172, 21057.779
147.557, 22671.285
148.942, 24591.363
150.327, 27205.047
151.711, 29812.369
153.096, 32763.344
154.480, 35219.344
155.863, 36781.840
157.247, 37704.711
158.630, 36572.855
160.013, 33973.055
161.396, 30389.428
162.779, 25461.871
164.161, 20793.434
165.544, 16656.363
166.926, 13295.557
168.308, 10622.076
169.689, 8777.024
171.070, 7857.350
172.452, 7058.684
173.833, 6542.001
175.213, 6382.305
176.594, 5911.664
177.974, 6085.693
179.354, 5721.355
180.734, 5250.383
182.114, 4675.740
183.493, 4348.381
184.872, 3822.242
186.251, 3518.186
187.630, 3189.184
189.008, 3013.231
190.387, 3171.330
191.765, 3480.479
193.143, 4070.672
194.520, 4520.907
195.898, 5271.177
197.275, 5475.477
198.652, 5506.800
200.029, 5080.143
201.405, 4462.498
202.782, 3604.867
204.158, 2905.242
205.534, 2237.621
206.909, 1696.002
208.285, 1340.382
209.660, 1094.748
211.035, 659.084
212.410, 385.376
213.784, 234.613
215.159, 1.202
216.533, 12.068
217.907, 62.986
219.281, 136.953
220.654, 158.819
222.027, 176.769
223.400, 190.702
224.773, 192.090
226.146, 147.303
227.518, 181.562
228.891, 93.865
230.263, 136.213
231.634, 100.606
233.006, 118.043
234.377, 80.521
235.748, 72.043
237.119, 28.395
238.490, 263.716
239.860, 330.533
241.231, 512.102
242.601, 860.260
243.970, 1111.392
245.340, 1576.350
246.709, 2220.201
248.079, 3362.316
249.448, 4507.360
250.816, 6314.402
252.185, 8281.442
253.553, 10168.479
254.921, 11664.685
256.289, 12773.353
257.657, 12960.442
259.024, 12716.896
260.391, 12242.956
261.758, 11594.206
263.125, 11314.528
264.492, 10845.859
265.858, 10389.668
267.224, 9849.956
268.590, 8862.351
269.956, 8431.416
271.321, 8108.109
272.687, 8382.400
274.052, 9101.130
275.416, 11221.173
276.781, 13962.961
278.146, 17432.795
279.510, 22073.576
280.874, 26450.367
282.237, 30396.158
283.601, 32133.938
284.964, 31931.705
286.327, 30606.449
287.690, 26701.174
289.053, 22054.869
290.416, 17765.533
291.778, 13748.152
293.140, 10733.688
294.502, 8260.126
295.863, 6763.461
297.225, 5592.699
298.586, 4686.848
299.947, 4006.908
301.308, 3224.889
302.668, 2689.794
304.029, 2231.627
305.389, 1935.390
306.749, 1575.086
308.108, 1381.717
309.468, 1056.287
310.827, 947.796
312.186, 813.247
313.545, 810.641
314.903, 697.979
316.262, 594.264
317.620, 693.496
318.978, 851.675
320.336, 955.683
321.693, 1330.399
323.051, 1944.743
324.408, 2490.698
325.765, 3611.314
327.121, 4461.668
328.478, 5244.774
329.834, 5806.684
331.190, 5788.554
332.546, 5334.417
333.902, 4588.270
335.257, 3455.107
336.612, 2595.934
337.967, 1794.747
339.322, 1331.549
340.677, 1126.338
342.031, 696.108
343.385, 592.860
344.739, 508.592
346.093, 464.300
347.446, 407.982
348.799, 560.639
350.153, 704.268
351.505, 923.872
352.858, 956.449
354.210, 1174.000
355.563, 1235.525
356.915, 1165.022
358.267, 1182.493
359.618, 1072.937
360.969, 992.353
362.321, 1008.744
363.672, 1280.108
365.022, 1439.446
366.373, 1671.759
367.723, 2357.045
369.073, 2767.304
370.423, 3205.533
371.773, 3309.746
373.122, 3157.932
374.471, 2807.125
375.821, 2082.291
377.169, 1637.399
378.518, 1054.471
379.866, 776.835
381.215, 563.979
382.563, 211.510
383.910, 193.642
385.258, 60.651
386.605, 79.778
387.952, 25.802
389.299, 23.402
390.646, 17.809
391.992, 15.759
393.339, 31.649
394.685, 82.259
396.031, 285.765
397.376, 432.605
398.722, 638.963
400.067, 1082.383
401.412, 893.121
402.757, 1195.926
404.101, 991.684
405.446, 800.387
406.790, 680.010
408.134, 602.650
409.478, 673.200
410.821, 510.738
412.165, 355.263
413.508, 434.776
414.851, 245.275
416.193, 53.759
417.536, 11.782
418.878, 145.360
420.220, 137.039
421.562, 286.893
422.904, 232.956
424.245, 193.198
425.586, 78.597
426.927, 82.096
428.268, 28.169
429.609, 209.380
430.949, 10.233
432.289, 2.158
433.629, 73.869
434.969, 124.171
436.309, 95.760
437.648, 373.808
438.987, 372.375
440.326, 536.458
441.665, 797.555
443.003, 1106.702
444.342, 1533.455
445.680, 2147.252
447.018, 3028.809
448.355, 4041.432
449.693, 5227.980
451.030, 6258.427
452.367, 7353.074
453.704, 7423.480
455.041, 7248.229
456.377, 6358.531
457.713, 5654.797
459.049, 4925.026
460.385, 4528.223
461.721, 4442.383
463.056, 4459.510
464.391, 5055.601
465.726, 5987.658
467.061, 7532.683
468.395, 9458.673
469.730, 12427.630
471.064, 14978.556
472.398, 18161.453
473.731, 19622.301
475.065, 20499.131
476.398, 19624.926
477.731, 17989.691
479.064, 15961.417
480.397, 14380.113
481.729, 12975.780
483.062, 11763.418
484.394, 10644.021
485.725, 9100.601
487.057, 7380.156
488.389, 6206.686
489.720, 5009.191
491.051, 4295.676
492.382, 4105.138
493.712, 4046.576
495.043, 4012.994
496.373, 4333.389
497.703, 5097.759
499.032, 6126.107
500.362, 7399.434
501.691, 9535.735
503.020, 12201.019
504.349, 16270.276
505.678, 21580.398
507.007, 28137.311
508.335, 35631.957
509.663, 43009.125
510.991, 49357.273
512.319, 51500.402
513.646, 50783.496
514.973, 44700.883
516.300, 37475.945
517.627, 29531.295
518.954, 22123.445
520.280, 17394.762
521.607, 13213.273
522.933, 10366.911
524.259, 8001.640
525.584, 6450.052
526.910, 5445.425
528.235, 4543.109
529.560, 3994.943
530.885, 3197.371
532.209, 2810.456
533.534, 2619.947
534.858, 2383.415
536.182, 1936.061
537.506, 1810.161
538.829, 1770.913
540.152, 1459.664
541.476, 1482.936
542.799, 1228.970
544.121, 1159.231
545.444, 1152.152
546.766, 919.594
548.088, 928.589
549.410, 902.592
550.732, 822.800
552.053, 761.633
553.375, 702.971
554.696, 671.082
556.017, 595.023
557.337, 681.737
558.658, 630.137
559.978, 499.495
561.298, 624.389
562.618, 355.820
563.938, 484.747
565.257, 554.771
566.576, 327.063
567.895, 575.963
569.214, 569.861
570.533, 526.003
571.851, 506.911
573.170, 535.926
574.488, 510.598
575.805, 657.785
577.123, 663.722
578.440, 829.246
579.758, 1007.281
581.075, 810.902
582.391, 1031.899
583.708, 924.389
585.024, 653.072
586.341, 584.572
587.657, 652.461
588.972, 373.982
590.288, 322.012
591.603, 164.558
592.918, 192.611
594.233, 50.315
595.548, 167.767
596.863, 34.539
598.177, 141.284
599.491, 129.084
600.805, 107.864
602.119, 193.064
603.432, 173.366
604.746, 226.091
606.059, 196.801
607.372, 205.355
608.685, 345.173
609.997, 163.833
611.309, 212.476
612.621, 121.114
613.933, 394.731
615.245, 269.335
616.557, 418.922
617.868, 622.492
619.179, 560.047
620.490, 514.586
621.801, 984.109
623.111, 984.618
624.421, 1361.111
625.731, 1279.588
627.041, 1774.318
628.351, 1499.764
629.660, 1595.195
630.970, 1804.611
632.279, 1405.020
633.588, 1459.406
634.896, 1269.775
636.205, 1510.132
637.513, 1279.473
638.821, 1481.797
640.129, 1806.107
641.437, 1897.402
642.744, 1940.682
644.051, 2165.945
645.358, 2445.197
646.665, 2697.432
647.972, 3008.652
649.278, 2989.857
650.584, 3152.046
651.890, 3216.221
653.196, 2921.382
654.502, 2759.527
655.807, 2311.657
657.113, 2023.772
658.418, 1746.872
659.722, 1509.958
661.027, 1154.027
662.331, 948.083
663.636, 936.125
664.940, 529.152
666.244, 706.167
667.547, 347.167
668.851, 383.152
670.154, 310.122
671.457, 133.077
672.760, 237.016
674.062, 132.938
675.365, 174.843
676.667, 129.731
677.969, 76.665
679.271, 42.516
680.572, 14.347
681.874, 85.155
683.175, 88.945
684.476, 8.716
685.777, 249.601
687.077, 30.666
688.378, 136.398
689.678, 124.496
690.978, 46.087
692.278, 334.353
693.577, 70.993
694.877, 450.509
696.176, 241.786
697.475, 181.701
698.774, 40.928
700.072, 124.146
701.371, 86.683
702.669, 49.888
703.967, 69.619
705.265, 131.838
706.562, 175.211
707.860, 209.757
709.157, 195.562
710.454, 40.441
711.751, 155.319
713.047, 97.080
714.344, 183.646
715.640, 191.128
716.936, 57.247
718.232, 161.085
719.527, 35.938
720.823, 25.653
722.118, 3.502
723.413, 62.478
724.708, 56.381
726.002, 264.316
727.297, 23.785
728.591, 215.159
729.885, 356.065
731.179, 270.840
732.472, 231.921
733.766, 355.179
735.059, 495.140
736.352, 671.002
737.645, 724.944
738.937, 781.979
740.230, 1081.135
741.522, 1222.024
742.814, 1677.033
744.106, 2065.237
745.397, 2584.965
746.689, 2938.887
747.980, 3237.597
749.271, 3296.535
750.562, 3373.524
751.853, 2648.229
753.143, 2322.119
754.433, 2086.438
755.723, 1508.686
757.013, 1418.824
758.303, 1156.336
759.592, 1196.027
760.881, 1114.943
762.170, 1202.379
763.459, 1313.873
764.748, 1098.369
766.036, 1458.607
767.325, 1296.443
768.613, 1308.463
769.901, 1158.877
771.188, 908.270
772.476, 942.641
773.763, 556.992
775.050, 669.320
776.337, 554.631
777.624, 557.920
778.910, 395.188
780.196, 482.438
781.482, 172.664
782.768, 262.869
784.054, 292.141
785.339, 400.303
786.625, 233.525
787.910, 447.646
789.195, 381.752
790.479, 355.834
791.764, 438.898
793.048, 397.939
794.332, 347.963
795.616, 450.967
796.900, 371.949
798.183, 402.912
799.467, 631.855
800.750, 566.779
802.033, 647.680
803.316, 1027.562
804.598, 894.428
805.880, 1596.271
807.163, 1959.096
808.445, 2342.900
809.726, 3060.688
811.008, 3778.451
812.289, 4185.199
813.570, 4420.926
814.851, 3966.635
816.132, 3293.324
817.413, 2506.992
818.693, 2094.645
819.973, 1405.279
821.253, 1148.891
822.533, 861.486
823.813, 801.061
825.092, 512.619
826.371, 465.842
827.650, 445.361
828.929, 467.549
830.208, 362.891
831.486, 206.031
832.764, 468.926
834.042, 289.664
835.320, 370.264
836.598, 304.143
837.875, 274.021
839.152, 185.547
840.429, 472.883
841.706, 126.584
842.983, 58.412
844.259, 382.117
845.536, 507.629
846.812, 196.928
848.088, 71.271
849.363, 186.834
850.639, 120.926
851.914, 17.508
853.189, 8.795
854.464, 205.838
855.739, 220.213
857.013, 13.883
858.288, 80.244
859.562, 25.146
860.836, 128.605
862.110, 19.100
863.383, 93.914
864.656, 75.990
865.930, 158.572
867.203, 74.115
868.475, 0.510
869.748, 30.109
871.020, 88.158
872.292, 78.633
873.564, 159.426
874.836, 49.660
876.108, 119.211
877.379, 33.564
878.650, 18.305
879.922, 28.229
881.192, 95.744
882.463, 5.547
883.733, 31.910
885.004, 1.736
886.274, 6.408
887.544, 21.068
888.813, 18.791
890.083, 17.486
891.352, 8.752
892.621, 1.684
893.890, 136.758
895.159, 31.400
896.427, 0.549
897.695, 154.682
898.964, 61.807
900.232, 43.918
901.499, 26.021
902.767, 164.115
904.034, 92.799
905.301, 228.232
906.568, 150.314
907.835, 232.391
909.102, 121.467
910.368, 92.535
911.634, 24.602
912.900, 13.652
914.166, 219.697
915.432, 86.732
916.697, 114.760
917.962, 276.781
919.227, 48.203
920.492, 239.781
921.757, 250.762
923.021, 264.736
924.285, 208.703
925.550, 171.660
926.813, 163.613
928.077, 129.561
929.341, 233.500
930.604, 216.432
931.867, 113.371
933.130, 276.299
934.393, 338.953
935.655, 63.869
936.918, 356.777
938.180, 64.684
939.442, 106.572
940.703, 240.459
941.965, 314.342
943.226, 107.223
944.488, 168.096
945.749, 225.961
947.009, 147.820
948.270, 167.674
949.530, 184.521
950.791, 209.363
952.051, 216.719
953.311, 223.156
954.570, 250.887
955.830, 251.727
957.089, 306.561
958.348, 385.391
959.607, 282.219
960.866, 173.047
962.124, 136.904
963.383, 207.760
964.641, 287.607
965.899, 254.479
967.156, 281.346
968.414, 376.207
969.671, 303.064
970.928, 250.914
972.185, 452.766
973.442, 336.611
974.699, 645.453
975.955, 405.305
977.211, 401.150
978.468, 635.992
979.723, 530.834
980.979, 525.676
982.234, 1020.516
983.490, 517.291
984.745, 770.131
986.000, 926.971
987.254, 753.812
988.509, 1202.654
989.763, 1081.496
991.017, 1540.201
992.271, 1559.041
993.525, 1722.523
994.779, 2058.938
996.032, 2000.867
997.285, 2291.799
998.538, 2162.818
999.791, 2824.666
1001.044, 2711.725
1002.296, 3212.527
1003.548, 3081.170
1004.800, 3024.258
1006.052, 2898.436
1007.304, 2521.643
1008.555, 2228.293
1009.807, 1939.230
1011.058, 1694.240
1012.309, 1570.203
1013.559, 1346.055
1014.810, 1274.240
1016.060, 1247.654
1017.310, 1224.053
1018.560, 1117.619
1019.810, 1079.242
1021.060, 1199.248
1022.309, 1017.496
1023.558, 1300.711
1024.807, 1074.316
1026.056, 1257.840
1027.305, 1266.840
1028.553, 1403.977
1029.801, 1630.854
1031.049, 1873.395
1032.297, 1542.766
1033.545, 1838.986
1034.793, 1711.164
1036.040, 1958.051
1037.287, 2061.777
1038.534, 2018.402
1039.781, 2345.588
1041.027, 1809.086
1042.274, 1831.578
1043.520, 1829.869
1044.766, 1476.576
1046.012, 1304.387
1047.257, 1224.506
1048.503, 1457.289
1049.748, 1193.650
1050.993, 1307.557
1052.238, 1374.775
1053.483, 1068.754
1054.727, 972.084
1055.971, 1035.152
1057.216, 751.100
1058.459, 661.539
1059.703, 719.281
1060.947, 564.645
1062.190, 545.260
1063.433, 450.514
1064.676, 380.674
1065.919, 268.207
1067.162, 486.600
1068.404, 156.400
1069.646, 267.307
1070.888, 454.078
1072.130, 328.807
1073.372, 398.871
1074.613, 430.326
1075.855, 286.008
1077.096, 303.855
1078.337, 502.287
1079.578, 379.049
1080.818, 501.811
1082.059, 393.242
1083.299, 484.639
1084.539, 440.812
1085.779, 495.555
1087.018, 529.389
1088.258, 592.133
1089.497, 562.596
1090.736, 623.643
1091.975, 543.094
1093.213, 531.574
1094.452, 865.877
1095.690, 880.365
1096.928, 1146.518
1098.166, 966.553
1099.404, 1193.809
1100.642, 956.055
1101.879, 1250.254
1103.116, 1004.471
1104.353, 1200.709
1105.590, 1010.121
1106.827, 1216.018
1108.063, 1049.025
1109.299, 1278.492
1110.536, 1374.975
1111.771, 1433.762
1113.007, 1730.486
1114.243, 1946.482
1115.478, 2420.141
1116.713, 2768.742
1117.948, 3372.520
1119.183, 3746.713
1120.418, 4727.895
1121.652, 5733.844
1122.886, 6444.406
1124.120, 6889.078
1125.354, 6346.545
1126.588, 6077.371
1127.821, 5422.250
1129.055, 5102.430
1130.288, 4828.219
1131.521, 4795.543
1132.753, 4522.553
1133.986, 4673.379
1135.218, 5352.133
1136.450, 5182.293
1137.682, 5871.316
1138.914, 5641.758
1140.146, 5510.773
1141.377, 5158.883
1142.609, 4342.879
1143.840, 3823.312
1145.071, 3465.947
1146.301, 2786.727
1147.532, 2357.922
1148.762, 1919.869
1149.992, 1591.342
1151.222, 1373.701
1152.452, 1305.445
1153.682, 1057.922
1154.911, 954.416
1156.140, 687.266
1157.369, 712.143
1158.598, 532.592
1159.827, 599.994
1161.055, 456.689
1162.284, 423.715
1163.512, 567.730
1164.740, 462.451
1165.967, 212.705
1167.195, 428.150
1168.422, 289.658
1169.650, 362.809
1170.877, 229.734
1172.103, 131.480
1173.330, 139.900
1174.557, 351.004
1175.783, 259.600
1177.009, 37.285
1178.235, 254.320
1179.461, 46.928
1180.686, 189.518
1181.912, 346.271
1183.137, 345.750
1184.362, 402.469
1185.587, 111.318
1186.811, 378.578
1188.036, 171.930
1189.260, 166.617
1190.484, 196.830
1191.708, 166.232
1192.932, 117.471
1194.155, 239.055
1195.378, 206.176
1196.602, 318.750
1197.825, 114.977
1199.047, 375.559
1200.270, 163.137
1201.492, 329.010
1202.715, 202.596
1203.937, 178.738
1205.159, 16.283
1206.380, 227.854
1207.602, 69.947
1208.823, 182.199
1210.044, 257.262
1211.265, 126.490
1212.486, 264.408
1213.707, 70.475
1214.927, 211.473
1216.147, 87.254
1217.367, 218.592
1218.587, 227.293
1219.807, 147.121
1221.027, 313.623
1222.246, 22.869
1223.465, 197.387
1224.684, 306.123
1225.903, 217.137
1227.121, 29.473
1228.340, 294.418
1229.558, 364.697
1230.776, 115.406
1231.994, 196.594
1233.212, 193.918
1234.429, 196.172
1235.646, 280.242
1236.864, 139.281
1238.081, 52.287
1239.297, 271.250
1240.514, 384.184
1241.730, 267.064
1242.947, 107.258
1244.163, 133.057
1245.378, 342.771
1246.594, 358.451
1247.810, 45.936
1249.025, 358.615
1250.240, 76.129
1251.455, 54.596
1252.670, 153.008
1253.885, 124.369
1255.099, 46.686
1256.313, 112.053
1257.527, 170.125
1258.741, 182.254
1259.955, 71.666
1261.168, 193.340
1262.382, 204.238
1263.595, 159.695
1264.808, 296.477
1266.021, 74.164
1267.233, 109.799
1268.446, 199.375
1269.658, 17.145
1270.870, 215.219
1272.082, 125.488
1273.294, 108.701
1274.505, 65.824
1275.716, 122.889
1276.928, 47.852
1278.139, 81.582
1279.349, 101.389
1280.560, 114.053
1281.770, 57.582
1282.981, 72.047
1284.191, 174.451
1285.401, 68.797
1286.610, 56.078
1287.820, 267.303
1289.029, 140.545
1290.239, 110.477
1291.448, 308.443
1292.656, 25.648
1293.865, 67.189
1295.073, 131.971
1296.282, 60.307
1297.490, 2.672
1298.698, 116.895
1299.906, 109.393
1301.113, 63.834
1302.320, 60.205
1303.528, 24.514
1304.735, 62.244
1305.942, 51.309
1307.148, 25.025
1308.355, 57.016
1309.561, 62.893
1310.767, 113.740
1311.973, 89.521
1313.179, 49.758
1314.384, 119.879
1315.590, 165.453
1316.795, 48.963
1318.000, 160.873
1319.205, 3.156
1320.410, 20.590
1321.614, 38.428
1322.819, 113.873
1324.023, 50.891
1325.227, 205.086
1326.431, 6.812
1327.634, 69.367
1328.838, 39.633
1330.041, 97.021
1331.244, 241.057
1332.447, 211.602
1333.650, 121.771
1334.852, 224.855
1336.055, 170.008
1337.257, 206.971
1338.459, 116.672
1339.661, 214.820
1340.862, 379.773
1342.064, 41.900
1343.265, 96.352
1344.466, 304.369
1345.667, 21.090
1346.868, 418.811
1348.068, 297.156
1349.269, 132.572
1350.469, 340.449
1351.669, 373.973
1352.869, 267.789
1354.069, 302.027
1355.268, 251.537
1356.468, 347.457
1357.667, 267.912
1358.866, 69.518
1360.065, 510.666
1361.263, 169.260
1362.462, 337.367
1363.660, 269.480
1364.858, 101.314
1366.056, 146.641
1367.254, 433.945
1368.451, 245.623
1369.649, 167.902
1370.846, 467.842
1372.043, 166.760
1373.240, 424.592
1374.436, 189.658
1375.633, 469.146
1376.829, 256.600
1378.025, 266.209
1379.221, 361.840
1380.417, 396.914
1381.613, 308.035
1382.808, 546.580
1384.003, 396.752
1385.199, 355.586
1386.393, 216.174
1387.588, 512.396
1388.783, 406.592
1389.977, 437.838
1391.171, 321.096
1392.365, 336.102
1393.559, 435.943
1394.753, 290.461
1395.946, 560.762
1397.140, 444.656
1398.333, 580.043
1399.526, 400.789
1400.719, 528.217
1401.911, 423.705
1403.104, 447.850
1404.296, 311.213
1405.488, 403.705
1406.680, 117.920
1407.872, 291.918
1409.063, 277.299
1410.255, 404.449
1411.446, 459.430
1412.637, 458.588
1413.828, 401.482
1415.018, 410.557
1416.209, 464.537
1417.399, 341.318
1418.589, 487.666
1419.779, 187.994
1420.969, 352.654
1422.159, 349.889
1423.348, 371.789
1424.537, 479.682
1425.726, 172.768
1426.915, 209.838
1428.104, 369.186
1429.293, 206.941
1430.481, 301.109
1431.669, 333.477
1432.857, 493.658
1434.045, 277.141
1435.233, 634.484
1436.420, 592.709
1437.608, 207.635
1438.795, 436.693
1439.982, 411.896
1441.169, 576.004
1442.355, 307.125
1443.542, 492.801
1444.728, 473.016
1445.914, 600.605
1447.100, 441.256
1448.286, 409.346
1449.472, 345.316
1450.657, 726.361
1451.842, 458.174
1453.027, 488.074
1454.212, 596.611
1455.397, 399.088
1456.581, 486.416
1457.766, 479.562
1458.950, 411.543
1460.134, 603.354
1461.318, 566.986
1462.501, 409.561
1463.685, 674.576
1464.868, 390.227
1466.051, 708.850
1467.234, 357.830
1468.417, 513.891
1469.600, 628.074
1470.782, 727.904
1471.965, 339.012
1473.147, 648.340
1474.329, 512.674
1475.510, 217.020
1476.692, 331.566
1477.873, 763.084
1479.055, 290.561
1480.236, 578.059
1481.416, 358.613
1482.597, 350.225
1483.778, 344.889
1484.958, 425.584
1486.138, 294.342
1487.318, 339.463
1488.498, 193.150
1489.678, 349.258
1490.857, 311.559
1492.037, 374.154
1493.216, 455.996
1494.395, 270.092
1495.574, 349.402
1496.752, 216.900
1497.931, 383.602
1499.109, 154.529
1500.287, 137.723
1501.465, 78.221
1502.643, 101.078
