##NAMES=Microcline
##RRUFFID=R040154
##IDEAL CHEMISTRY=KAlSi_3_O_8_
##LOCALITY=Mitchell County, North Carolina, USA
##OWNER=RRUFF
##SOURCE=University of Arizona Mineral Museum
##DESCRIPTION=White cleavage fragment with some perthitic character
##STATUS=The identification of this mineral has been confirmed by X-ray diffraction and chemical analysis
##URL=rruff.info/R040154
##MEASURED CHEMISTRY=(K_0.90_Na_0.09_Ba_0.01_)Al_1.00_(Si_2.99_Al_0.01_)_Î£=3_O_8_
##PIN_ID=L00079
##ORIENTATION=Laser parallel to a* (1 0 0). Fiducial mark perpendicular to laser is parallel to -b [0 -1 0]
83.614, 0.000
85.009, 2.026
86.404, 62.217
87.798, 46.506
89.193, 259.001
90.587, 370.444
91.981, 494.049
93.375, 724.604
94.768, 915.455
96.161, 1223.913
97.554, 1621.918
98.947, 2360.874
100.340, 3152.537
101.732, 4116.932
103.124, 4955.256
104.516, 6054.839
105.908, 7113.094
107.300, 7781.507
108.691, 8465.634
110.082, 7493.102
111.473, 6325.582
112.864, 5340.812
114.254, 4708.624
115.644, 4256.803
117.034, 3838.206
118.424, 3732.198
119.813, 3853.244
121.203, 3858.521
122.592, 4075.486
123.981, 4384.006
125.369, 4624.941
126.758, 4710.147
128.146, 4606.487
129.534, 4527.871
130.922, 3875.238
132.309, 3328.532
133.696, 2588.690
135.083, 2535.654
136.470, 2038.380
137.857, 2186.821
139.243, 2208.942
140.630, 2289.750
142.016, 2427.652
143.401, 2624.662
144.787, 3020.247
146.172, 3217.291
147.557, 3356.814
148.942, 3459.443
150.327, 3467.475
151.711, 3389.355
153.096, 3150.485
154.480, 2937.861
155.863, 2820.477
157.247, 2662.325
158.630, 2469.433
160.013, 2379.331
161.396, 2246.891
162.779, 2094.327
164.161, 1980.956
165.544, 1895.746
166.926, 1902.584
168.308, 1938.155
169.689, 1894.551
171.070, 2241.865
172.452, 2357.194
173.833, 2360.677
175.213, 2612.412
176.594, 2672.412
177.974, 2914.696
179.354, 3042.092
180.734, 2844.580
182.114, 2641.172
183.493, 2584.875
184.872, 2311.698
186.251, 2311.646
187.630, 1972.723
189.008, 1784.930
190.387, 1756.271
191.765, 1607.749
193.143, 1685.363
194.520, 1714.112
195.898, 1913.998
197.275, 2021.924
198.652, 2231.117
200.029, 2203.069
201.405, 2206.971
202.782, 2183.072
204.158, 2059.192
205.534, 1969.440
206.909, 1746.844
208.285, 1590.371
209.660, 1354.018
211.035, 1143.458
212.410, 959.826
213.784, 677.480
215.159, 546.582
216.533, 544.834
217.907, 250.079
219.281, 265.437
220.654, 183.908
222.027, 207.490
223.400, 170.182
224.773, 160.977
226.146, 88.873
227.518, 50.866
228.891, 76.956
230.263, 112.139
231.634, 8.410
233.006, 23.768
234.377, 20.945
235.748, 14.208
237.119, 24.479
238.490, 152.930
239.860, 86.347
241.231, 239.007
242.601, 266.547
243.970, 327.158
245.340, 408.842
246.709, 559.599
248.079, 743.669
249.448, 939.061
250.816, 1193.159
252.185, 1442.002
253.553, 1702.088
254.921, 2210.192
256.289, 2446.169
257.657, 2885.902
259.024, 3094.111
260.391, 3370.723
261.758, 3610.913
263.125, 3801.297
264.492, 4018.599
265.858, 3965.811
267.224, 3953.524
268.590, 3556.407
269.956, 3508.880
271.321, 3146.854
272.687, 2686.068
274.052, 2519.763
275.416, 2802.721
276.781, 2777.902
278.146, 3026.320
279.510, 3507.943
280.874, 3884.761
282.237, 4493.763
283.601, 5042.965
284.964, 5304.352
286.327, 5565.894
287.690, 5459.594
289.053, 4958.457
290.416, 4631.447
291.778, 3755.592
293.140, 3293.854
294.502, 2348.284
295.863, 1940.819
297.225, 1487.459
298.586, 934.203
299.947, 748.036
301.308, 514.956
302.668, 409.963
304.029, 225.050
305.389, 129.216
306.749, 56.453
308.108, 33.758
309.468, 83.875
310.827, 25.455
312.186, 270.979
313.545, 41.495
314.903, 74.969
316.262, 236.410
317.620, 105.850
318.978, 64.266
320.336, 86.650
321.693, 0.988
323.051, 184.661
324.408, 170.366
325.765, 413.099
327.121, 454.859
328.478, 479.649
329.834, 622.468
331.190, 666.312
332.546, 370.185
333.902, 353.086
335.257, 112.017
336.612, 54.023
337.967, 156.045
339.322, 221.071
340.677, 58.117
342.031, 185.151
343.385, 186.201
344.739, 272.267
346.093, 240.369
347.446, 187.501
348.799, 165.649
350.153, 43.812
351.505, 78.035
352.858, 33.904
354.210, 183.794
355.563, 278.714
356.915, 119.653
358.267, 237.612
359.618, 148.599
360.969, 231.584
362.321, 316.514
363.672, 317.444
365.022, 575.326
366.373, 707.199
367.723, 1008.101
369.073, 1205.021
370.423, 1406.961
371.773, 1429.916
373.122, 1297.283
374.471, 1349.855
375.821, 711.744
377.169, 678.656
378.518, 175.455
379.866, 74.203
381.215, 159.902
382.563, 44.359
383.910, 71.631
385.258, 68.920
386.605, 34.227
387.952, 50.191
389.299, 8.467
390.646, 36.043
391.992, 31.668
393.339, 59.398
394.685, 17.119
396.031, 507.844
397.376, 449.377
398.722, 833.031
400.067, 894.432
401.412, 1142.758
402.757, 1426.328
404.101, 1268.945
405.446, 1126.238
406.790, 1067.809
408.134, 1060.410
409.478, 894.984
410.821, 938.561
412.165, 881.195
413.508, 726.645
414.851, 797.639
416.193, 463.432
417.536, 330.260
418.878, 267.119
420.220, 92.008
421.562, 36.682
422.904, 15.814
424.245, 33.301
425.586, 77.457
426.927, 50.324
428.268, 12.908
429.609, 135.180
430.949, 30.549
432.289, 73.193
433.629, 116.152
434.969, 294.711
436.309, 306.164
437.648, 422.725
438.987, 592.721
440.326, 548.732
441.665, 854.277
443.003, 1303.977
444.342, 1756.203
445.680, 2357.092
447.018, 3017.547
448.355, 3637.629
449.693, 4499.000
451.030, 5375.496
452.367, 6161.949
453.704, 6077.936
455.041, 6205.256
456.377, 5713.082
457.713, 5112.641
459.049, 4324.920
460.385, 4008.309
461.721, 3990.682
463.056, 3866.771
464.391, 4062.104
465.726, 5132.965
467.061, 5969.256
468.395, 7272.902
469.730, 9463.148
471.064, 11299.367
472.398, 13949.463
473.731, 15557.541
475.065, 17233.854
476.398, 17821.082
477.731, 17078.365
479.064, 15425.291
480.397, 13402.664
481.729, 11013.145
483.062, 9011.090
484.394, 7271.074
485.725, 5865.035
487.057, 4718.969
488.389, 4074.877
489.720, 3442.760
491.051, 3112.615
492.382, 3039.443
493.712, 3081.246
495.043, 3203.021
496.373, 3574.768
497.703, 4335.416
499.032, 5392.379
500.362, 6967.930
501.691, 8978.098
503.020, 11514.160
504.349, 14579.025
505.678, 17523.412
507.007, 20377.279
508.335, 22655.396
509.663, 24639.197
510.991, 26037.934
512.319, 25789.791
513.646, 24584.076
514.973, 21052.275
516.300, 17593.928
517.627, 13804.820
518.954, 10494.461
520.280, 8419.840
521.607, 6363.045
522.933, 5200.055
524.259, 4119.814
525.584, 3497.598
526.910, 2978.525
528.235, 2507.496
529.560, 2142.180
530.885, 1637.602
532.209, 1458.564
533.534, 1459.090
534.858, 1463.039
536.182, 1102.318
537.506, 1121.242
538.829, 1032.717
540.152, 862.762
541.476, 900.053
542.799, 753.326
544.121, 873.734
545.444, 712.328
546.766, 584.215
548.088, 643.764
549.410, 381.301
550.732, 596.348
552.053, 502.127
553.375, 308.066
554.696, 414.725
556.017, 420.156
557.337, 509.803
558.658, 482.246
559.978, 179.389
561.298, 409.080
562.618, 240.418
563.938, 183.297
565.257, 348.586
566.576, 248.838
567.895, 278.281
569.214, 438.627
570.533, 354.773
571.851, 378.770
573.170, 642.844
574.488, 487.879
575.805, 489.881
577.123, 479.844
578.440, 598.770
579.758, 679.848
581.075, 559.074
582.391, 678.217
583.708, 502.605
585.024, 295.475
586.341, 470.799
587.657, 479.953
588.972, 384.240
590.288, 197.213
591.603, 27.936
592.918, 248.633
594.233, 0.063
595.548, 302.398
596.863, 8.301
598.177, 121.904
599.491, 101.055
600.805, 95.148
602.119, 27.816
603.432, 22.488
604.746, 149.934
606.059, 25.707
607.372, 30.596
608.685, 229.988
609.997, 32.443
611.309, 124.014
612.621, 126.584
613.933, 185.660
615.245, 142.861
616.557, 109.012
617.868, 278.105
619.179, 376.158
620.490, 166.170
621.801, 351.137
623.111, 178.064
624.421, 411.943
625.731, 191.783
627.041, 504.586
628.351, 245.350
629.660, 197.082
630.970, 694.773
632.279, 471.471
633.588, 464.135
634.896, 451.768
636.205, 560.398
637.513, 380.006
638.821, 575.584
640.129, 803.135
641.437, 882.645
642.744, 710.119
644.051, 890.549
645.358, 1033.943
646.665, 1331.297
647.972, 1156.609
649.278, 1135.883
650.584, 1170.117
651.890, 1422.311
653.196, 977.467
654.502, 1050.582
655.807, 727.670
657.113, 813.754
658.418, 809.844
659.722, 815.908
661.027, 434.971
662.331, 255.033
663.636, 313.111
664.940, 171.205
666.244, 194.002
667.547, 177.373
668.851, 196.420
670.154, 159.422
671.457, 59.381
672.760, 212.273
674.062, 115.123
675.365, 76.920
676.667, 242.658
677.969, 279.584
679.271, 101.242
680.572, 31.848
681.874, 109.381
683.175, 24.684
684.476, 95.719
685.777, 109.072
687.077, 122.371
688.378, 327.623
689.678, 63.154
690.978, 147.305
692.278, 215.256
693.577, 267.943
694.877, 124.619
696.176, 225.299
697.475, 28.016
698.774, 319.494
700.072, 183.582
701.371, 166.299
702.669, 75.162
703.967, 20.643
705.265, 553.594
706.562, 304.631
707.860, 14.975
709.157, 447.117
710.454, 231.338
711.751, 543.143
713.047, 243.398
714.344, 511.467
715.640, 166.547
716.936, 227.734
718.232, 530.787
719.527, 206.264
720.823, 363.504
722.118, 339.379
723.413, 267.533
724.708, 282.379
726.002, 525.141
727.297, 98.326
728.591, 497.303
729.885, 653.951
731.179, 490.258
732.472, 461.822
733.766, 565.350
735.059, 809.838
736.352, 847.297
737.645, 811.000
738.937, 1320.480
740.230, 1391.084
741.522, 1766.365
742.814, 2043.045
744.106, 2472.703
745.397, 2666.379
746.689, 2934.670
747.980, 3381.648
749.271, 3319.992
750.562, 3387.410
751.853, 2839.688
753.143, 2781.496
754.433, 2485.256
755.723, 2420.338
757.013, 2622.447
758.303, 2486.883
759.592, 2663.621
760.881, 2831.750
762.170, 3004.213
763.459, 2980.354
764.748, 2514.893
766.036, 2810.867
767.325, 2184.266
768.613, 1670.287
769.901, 1413.758
771.188, 1178.457
772.476, 1285.393
773.763, 717.172
775.050, 1075.924
776.337, 885.912
777.624, 827.613
778.910, 568.740
780.196, 520.869
781.482, 573.590
782.768, 444.191
784.054, 471.820
785.339, 606.045
786.625, 384.662
787.910, 820.166
789.195, 383.648
790.479, 603.107
791.764, 500.541
793.048, 401.953
794.332, 596.338
795.616, 696.701
796.900, 693.041
798.183, 615.357
799.467, 970.650
800.750, 733.922
802.033, 786.174
803.316, 1292.400
804.598, 877.605
805.880, 1794.789
807.163, 2107.949
808.445, 2450.090
809.726, 2977.211
811.008, 3612.379
812.289, 3656.457
813.570, 4063.512
814.851, 3905.547
816.132, 3144.562
817.413, 2359.531
818.693, 2208.504
819.973, 1488.713
821.253, 1067.186
822.533, 1061.424
823.813, 872.867
825.092, 630.836
826.371, 727.840
827.650, 470.344
828.929, 513.562
830.208, 374.982
831.486, 142.617
832.764, 376.369
834.042, 237.277
835.320, 328.385
836.598, 288.420
837.875, 77.262
839.152, 188.016
840.429, 462.006
841.706, 183.211
842.983, 100.826
844.259, 439.832
845.536, 92.367
846.812, 86.523
848.088, 18.988
849.363, 95.850
850.639, 366.098
851.914, 34.943
853.189, 10.529
854.464, 94.377
855.739, 396.049
857.013, 18.947
858.288, 39.537
859.562, 7.150
860.836, 99.219
862.110, 96.039
863.383, 170.268
864.656, 77.717
865.930, 80.537
867.203, 116.461
868.475, 157.723
869.748, 116.938
871.020, 136.170
872.292, 38.121
873.564, 105.660
874.836, 102.354
876.108, 12.365
877.379, 81.143
878.650, 178.979
879.922, 2.977
881.192, 15.174
882.463, 83.203
883.733, 14.770
885.004, 88.244
886.274, 207.256
887.544, 172.266
888.813, 179.518
890.083, 15.270
891.352, 63.271
892.621, 31.268
893.890, 22.740
895.159, 6.238
896.427, 7.223
897.695, 6.645
898.964, 56.150
900.232, 97.119
901.499, 93.105
902.767, 116.811
904.034, 166.990
905.301, 138.148
906.568, 205.236
907.835, 258.328
909.102, 135.428
910.368, 179.539
911.634, 418.686
912.900, 154.863
914.166, 447.047
915.432, 210.252
916.697, 118.508
917.962, 388.695
919.227, 271.930
920.492, 413.178
921.757, 79.480
923.021, 247.795
924.285, 373.113
925.550, 247.439
926.813, 111.777
928.077, 227.113
929.341, 165.451
930.604, 197.791
931.867, 35.137
933.130, 31.520
934.393, 334.812
935.655, 33.152
936.918, 500.492
938.180, 22.830
939.442, 128.174
940.703, 295.520
941.965, 268.865
943.226, 388.316
944.488, 319.551
945.749, 466.896
947.009, 321.240
948.270, 244.586
949.530, 163.934
950.791, 335.279
952.051, 240.627
953.311, 284.062
954.570, 302.379
955.830, 345.770
957.089, 219.162
958.348, 315.555
959.607, 293.953
960.866, 132.354
962.124, 41.234
963.383, 261.170
964.641, 219.568
965.899, 374.000
967.156, 270.436
968.414, 246.871
969.671, 588.305
970.928, 206.746
972.185, 580.188
973.442, 215.637
974.699, 548.088
975.955, 375.576
977.211, 259.070
978.468, 573.604
979.723, 597.172
980.979, 395.758
982.234, 837.357
983.490, 447.742
984.745, 683.355
986.000, 583.980
987.254, 540.629
988.509, 1005.287
989.763, 881.523
991.017, 1248.227
992.271, 1182.943
993.525, 1273.670
994.779, 1340.080
996.032, 1297.824
997.285, 1483.238
998.538, 935.797
999.791, 1523.082
1001.044, 984.799
1002.296, 1325.721
1003.548, 1142.807
1004.800, 1116.305
1006.052, 1307.164
1007.304, 1142.188
1008.555, 1071.172
1009.807, 1072.406
1011.058, 906.824
1012.309, 946.879
1013.559, 802.371
1014.810, 775.570
1016.060, 829.105
1017.310, 1028.148
1018.560, 573.355
1019.810, 804.520
1021.060, 879.848
1022.309, 700.020
1023.558, 922.699
1024.807, 573.902
1026.056, 736.562
1027.305, 644.863
1028.553, 1040.242
1029.801, 1037.996
1031.049, 735.207
1032.297, 982.742
1033.545, 885.012
1034.793, 1038.832
1036.040, 957.184
1037.287, 966.559
1038.534, 1008.094
1039.781, 1364.777
1041.027, 836.148
1042.274, 1071.121
1043.520, 1280.293
1044.766, 914.160
1046.012, 1013.336
1047.257, 734.414
1048.503, 1279.980
1049.748, 824.223
1050.993, 985.051
1052.238, 969.398
1053.483, 684.418
1054.727, 881.758
1055.971, 1107.355
1057.216, 902.688
1058.459, 605.098
1059.703, 533.879
1060.947, 652.457
1062.190, 488.535
1063.433, 543.516
1064.676, 527.219
1065.919, 389.051
1067.162, 786.148
1068.404, 197.559
1069.646, 421.176
1070.888, 775.758
1072.130, 517.633
1073.372, 542.859
1074.613, 850.062
1075.855, 565.031
1077.096, 447.820
1078.337, 759.980
1079.578, 630.160
1080.818, 931.070
1082.059, 650.133
1083.299, 782.398
1084.539, 726.512
1085.779, 857.848
1087.018, 1045.930
1088.258, 1094.879
1089.497, 1481.984
1090.736, 1540.008
1091.975, 1774.426
1093.213, 1955.840
1094.452, 2295.895
1095.690, 2570.332
1096.928, 3110.863
1098.166, 3393.316
1099.404, 3852.461
1100.642, 3453.332
1101.879, 3534.707
1103.116, 2946.477
1104.353, 2930.848
1105.590, 2710.672
1106.827, 2687.895
1108.063, 2702.973
1109.299, 2578.488
1110.536, 2375.008
1111.771, 2258.906
1113.007, 2633.461
1114.243, 3123.453
1115.478, 2999.277
1116.713, 3379.117
1117.948, 3925.777
1119.183, 3841.398
1120.418, 4771.602
1121.652, 5411.039
1122.886, 5457.793
1124.120, 5497.262
1125.354, 4995.570
1126.588, 4728.492
1127.821, 4094.043
1129.055, 3819.137
1130.288, 3519.090
1131.521, 3160.461
1132.753, 2807.238
1133.986, 2886.668
1135.218, 3282.477
1136.450, 2600.695
1137.682, 3015.910
1138.914, 2693.293
1140.146, 2526.500
1141.377, 2537.211
1142.609, 1886.305
1143.840, 1928.695
1145.071, 1971.641
1146.301, 1561.742
1147.532, 1217.859
1148.762, 991.953
1149.992, 874.953
1151.222, 920.941
1152.452, 833.473
1153.682, 578.770
1154.911, 954.336
1156.140, 278.609
1157.369, 406.199
1158.598, 251.012
1159.827, 603.551
1161.055, 212.500
1162.284, 244.391
1163.512, 288.602
1164.740, 447.008
1165.967, 447.305
1167.195, 336.621
1168.422, 411.535
1169.650, 347.617
1170.877, 40.367
1172.103, 107.301
1173.330, 0.523
1174.557, 206.820
1175.783, 260.969
1177.009, 184.414
1178.235, 228.457
1179.461, 192.789
1180.686, 87.230
1181.912, 275.125
1183.137, 381.066
1184.362, 78.961
1185.587, 281.445
1186.811, 248.688
1188.036, 43.145
1189.260, 169.105
1190.484, 352.699
1191.708, 246.812
1192.932, 313.820
1194.155, 102.684
1195.378, 227.578
1196.602, 117.441
1197.825, 35.195
1199.047, 432.781
1200.270, 61.688
1201.492, 435.137
1202.715, 101.480
1203.937, 583.055
1205.159, 96.555
1206.380, 246.699
1207.602, 73.840
1208.823, 175.836
1210.044, 198.746
1211.265, 265.840
1212.486, 46.488
1213.707, 66.047
1214.927, 331.965
1216.147, 73.391
1217.367, 289.742
1218.587, 42.996
1219.807, 132.012
1221.027, 401.945
1222.246, 3.289
1223.465, 231.227
1224.684, 421.648
1225.903, 133.289
1227.121, 194.488
1228.340, 468.586
1229.558, 366.559
1230.776, 136.410
1231.994, 94.152
1233.212, 376.180
1234.429, 144.723
1235.646, 124.152
1236.864, 378.477
1238.081, 280.695
1239.297, 276.801
1240.514, 387.793
1241.730, 232.680
1242.947, 236.539
1244.163, 250.184
1245.378, 318.871
1246.594, 378.297
1247.810, 70.383
1249.025, 447.805
1250.240, 12.105
1251.455, 210.000
1252.670, 267.863
1253.885, 96.621
1255.099, 185.281
1256.313, 6.840
1257.527, 302.289
1258.741, 402.754
1259.955, 64.965
1261.168, 110.195
1262.382, 307.273
1263.595, 345.711
1264.808, 126.648
1266.021, 202.527
1267.233, 143.379
1268.446, 293.707
1269.658, 71.750
1270.870, 165.711
1272.082, 28.961
1273.294, 85.684
1274.505, 74.543
1275.716, 89.730
1276.928, 18.848
1278.139, 301.926
1279.349, 157.953
1280.560, 114.918
1281.770, 199.832
1282.981, 30.625
1284.191, 68.309
1285.401, 204.949
1286.610, 134.531
1287.820, 233.840
1289.029, 176.027
1290.239, 270.668
1291.448, 18.961
1292.656, 229.922
1293.865, 94.812
1295.073, 103.066
1296.282, 149.023
1297.490, 134.648
1298.698, 375.832
1299.906, 308.629
1301.113, 374.809
1302.320, 56.094
1303.528, 244.555
1304.735, 60.625
1305.942, 203.305
1307.148, 487.430
1308.355, 150.754
1309.561, 300.793
1310.767, 78.836
1311.973, 245.168
1313.179, 146.320
1314.384, 369.680
1315.590, 211.363
1316.795, 304.516
1318.000, 31.645
1319.205, 296.410
1320.410, 324.547
1321.614, 106.641
1322.819, 368.492
1324.023, 251.645
1325.227, 699.609
1326.431, 164.895
1327.634, 82.578
1328.838, 336.273
1330.041, 210.461
1331.244, 515.875
1332.447, 188.039
1333.650, 263.102
1334.852, 335.684
1336.055, 114.492
1337.257, 573.277
1338.459, 222.516
1339.661, 606.938
1340.862, 485.340
1342.064, 495.957
1343.265, 478.922
1344.466, 537.750
1345.667, 328.871
1346.868, 688.453
1348.068, 357.879
1349.269, 350.617
1350.469, 677.586
1351.669, 407.133
1352.869, 559.199
1354.069, 708.195
1355.268, 289.676
1356.468, 503.770
1357.667, 766.055
1358.866, 274.254
1360.065, 666.453
1361.263, 379.879
1362.462, 385.707
1363.660, 520.051
1364.858, 348.910
1366.056, 576.953
1367.254, 665.059
1368.451, 513.602
1369.649, 199.457
1370.846, 610.750
1372.043, 333.742
1373.240, 436.680
1374.436, 414.656
1375.633, 404.793
1376.829, 143.633
1378.025, 459.512
1379.221, 455.492
1380.417, 255.246
1381.613, 395.070
1382.808, 265.152
1384.003, 550.574
1385.199, 583.668
1386.393, 159.699
1387.588, 586.105
1388.783, 133.562
1389.977, 496.289
1391.171, 195.449
1392.365, 211.836
1393.559, 466.598
1394.753, 109.430
1395.946, 560.125
1397.140, 266.945
1398.333, 445.082
1399.526, 211.609
1400.719, 203.109
1401.911, 104.926
1403.104, 517.355
1404.296, 174.062
1405.488, 523.051
1406.680, 6.496
1407.872, 239.227
1409.063, 633.785
1410.255, 12.258
1411.446, 0.000
##END=



