##NAMES=Microcline
##RRUFFID=R040154
##IDEAL CHEMISTRY=KAlSi_3_O_8_
##LOCALITY=Mitchell County, North Carolina, USA
##OWNER=RRUFF
##SOURCE=University of Arizona Mineral Museum
##DESCRIPTION=White cleavage fragment with some perthitic character
##STATUS=The identification of this mineral has been confirmed by X-ray diffraction and chemical analysis
##URL=rruff.info/R040154
##MEASURED CHEMISTRY=(K_0.90_Na_0.09_Ba_0.01_)Al_1.00_(Si_2.99_Al_0.01_)_Î£=3_O_8_
##PIN_ID=L00168
##ORIENTATION=Laser parallel to (0 1 1). Fiducial mark perpendicular to laser is parallel to -a [-1 0 0]
90.587, 0.000
91.981, 21.707
93.375, 23.845
94.768, 249.832
96.161, 246.558
97.554, 335.796
98.947, 637.791
100.340, 1240.027
101.732, 1950.014
103.124, 2760.598
104.516, 3793.600
105.908, 4932.592
107.300, 5736.787
108.691, 6342.168
110.082, 5656.827
111.473, 4173.535
112.864, 2967.258
114.254, 2345.159
115.644, 2155.562
117.034, 2266.911
118.424, 2413.743
119.813, 3184.760
121.203, 3642.705
122.592, 4563.391
123.981, 5591.646
125.369, 6293.955
126.758, 6975.295
128.146, 7218.383
129.534, 7240.598
130.922, 6263.859
132.309, 5253.072
133.696, 4563.129
135.083, 4401.965
136.470, 4082.539
137.857, 4671.799
139.243, 5205.697
140.630, 5967.196
142.016, 6214.264
143.401, 6836.865
144.787, 6950.975
146.172, 7895.587
147.557, 8663.538
148.942, 9829.632
150.327, 10779.198
151.711, 11058.048
153.096, 11182.232
154.480, 11175.129
155.863, 11389.944
157.247, 11693.619
158.630, 11705.702
160.013, 10669.226
161.396, 9502.697
162.779, 7909.679
164.161, 6183.548
165.544, 5091.035
166.926, 4220.462
168.308, 3741.327
169.689, 3634.260
171.070, 3793.256
172.452, 4085.316
173.833, 4774.319
175.213, 5445.998
176.594, 5931.844
177.974, 6824.863
179.354, 6672.075
180.734, 5866.539
182.114, 4732.084
183.493, 4000.711
184.872, 3005.411
186.251, 2510.197
187.630, 2151.080
189.008, 1942.069
190.387, 1956.172
191.765, 2148.389
193.143, 2504.723
194.520, 3003.174
195.898, 3605.740
197.275, 4307.421
198.652, 4918.213
200.029, 4741.115
201.405, 4114.847
202.782, 3067.551
204.158, 2462.220
205.534, 2017.463
206.909, 1342.487
208.285, 1081.187
209.660, 1043.973
211.035, 529.842
212.410, 379.791
213.784, 345.814
215.159, 7.908
216.533, 98.578
217.907, 93.332
219.281, 80.920
220.654, 117.809
222.027, 166.170
223.400, 214.523
224.773, 122.807
226.146, 97.027
227.518, 259.184
228.891, 359.281
230.263, 218.322
231.634, 95.314
233.006, 317.258
234.377, 190.152
235.748, 9.004
237.119, 288.746
238.490, 7.715
239.860, 12.412
241.231, 205.209
242.601, 345.809
243.970, 476.084
245.340, 662.900
246.709, 891.695
248.079, 1548.490
249.448, 1818.328
250.816, 2825.211
252.185, 3414.133
253.553, 4466.090
254.921, 5854.078
256.289, 6891.514
257.657, 7701.551
259.024, 7749.949
260.391, 7904.865
261.758, 7754.842
263.125, 8186.840
264.492, 8487.488
265.858, 8471.910
267.224, 8405.922
268.590, 7167.811
269.956, 6365.588
271.321, 5339.199
272.687, 4726.445
274.052, 4268.855
275.416, 4550.605
276.781, 5047.656
278.146, 5737.977
279.510, 7320.557
280.874, 8803.363
282.237, 10509.383
283.601, 11537.645
284.964, 12200.074
286.327, 12347.668
287.690, 10971.426
289.053, 8730.344
290.416, 7063.367
291.778, 5264.496
293.140, 4237.711
294.502, 3033.004
295.863, 2437.363
297.225, 2075.797
298.586, 1496.293
299.947, 1473.846
301.308, 1009.449
302.668, 720.105
304.029, 662.811
305.389, 393.555
306.749, 229.340
308.108, 311.162
309.468, 40.018
310.827, 82.902
312.186, 86.189
313.545, 56.293
314.903, 28.404
316.262, 299.516
317.620, 59.301
318.978, 27.893
320.336, 128.152
321.693, 88.434
323.051, 318.969
324.408, 353.307
325.765, 944.564
327.121, 907.676
328.478, 1280.703
329.834, 1759.732
331.190, 1990.764
332.546, 1691.793
333.902, 1481.820
335.257, 990.850
336.612, 523.875
337.967, 458.896
339.322, 210.916
340.677, 111.938
342.031, 105.049
343.385, 150.469
344.739, 65.188
346.093, 165.330
347.446, 115.545
348.799, 7.814
350.153, 158.881
351.505, 272.568
352.858, 352.479
354.210, 446.889
355.563, 466.590
356.915, 519.250
358.267, 523.898
359.618, 445.543
360.969, 417.178
362.321, 252.797
363.672, 450.414
365.022, 751.045
366.373, 666.596
367.723, 953.988
369.073, 1395.336
370.423, 1810.648
371.773, 1876.975
373.122, 1944.283
374.471, 1849.590
375.821, 1086.887
377.169, 970.268
378.518, 436.605
379.866, 235.004
381.215, 278.635
382.563, 53.574
383.910, 76.977
385.258, 84.916
386.605, 170.436
387.952, 290.297
389.299, 57.449
390.646, 172.086
391.992, 42.941
393.339, 103.742
394.685, 180.352
396.031, 458.578
397.376, 614.518
398.722, 1064.859
400.067, 1357.469
401.412, 1766.738
402.757, 1801.244
404.101, 2151.162
405.446, 1822.268
406.790, 1532.211
408.134, 1604.436
409.478, 1379.354
410.821, 1486.256
412.165, 1320.141
413.508, 1455.012
414.851, 1020.869
416.193, 603.709
417.536, 357.531
418.878, 205.396
420.220, 199.293
421.562, 150.793
422.904, 23.984
424.245, 48.715
425.586, 104.602
426.927, 195.955
428.268, 50.504
429.609, 3.072
430.949, 136.273
432.289, 329.578
433.629, 120.523
434.969, 354.764
436.309, 370.635
437.648, 557.828
438.987, 593.000
440.326, 487.926
441.665, 905.086
443.003, 1426.465
444.342, 1830.037
445.680, 2533.062
447.018, 3524.059
448.355, 4524.771
449.693, 5928.262
451.030, 7297.152
452.367, 8847.330
453.704, 8980.914
455.041, 8904.365
456.377, 7936.105
457.713, 6659.893
459.049, 5367.061
460.385, 4584.684
461.721, 4300.266
463.056, 3959.957
464.391, 4158.455
465.726, 4907.092
467.061, 5595.506
468.395, 6794.885
469.730, 8835.213
471.064, 10678.016
472.398, 13268.258
473.731, 14621.117
475.065, 15730.293
476.398, 15385.680
477.731, 14008.615
479.064, 12026.195
480.397, 10555.070
481.729, 8997.688
483.062, 8107.520
484.394, 7363.373
485.725, 6236.182
487.057, 5084.951
488.389, 4258.680
489.720, 3508.367
491.051, 3058.018
492.382, 2805.623
493.712, 2715.189
495.043, 2716.713
496.373, 3120.195
497.703, 3520.637
499.032, 4312.035
500.362, 5054.395
501.691, 6489.322
503.020, 8085.336
504.349, 11016.711
505.678, 14680.559
507.007, 19181.795
508.335, 24116.586
509.663, 30094.070
510.991, 35779.645
512.319, 39106.641
513.646, 39606.664
514.973, 35014.355
516.300, 29721.219
517.627, 23038.496
518.954, 17065.828
520.280, 13470.352
521.607, 9875.428
522.933, 7961.594
524.259, 6140.715
525.584, 4945.648
526.910, 4411.301
528.235, 3537.463
529.560, 3141.137
530.885, 2646.529
532.209, 2121.896
533.534, 2177.068
534.858, 1883.143
536.182, 1652.861
537.506, 1708.057
538.829, 1467.723
540.152, 1001.158
541.476, 1211.879
542.799, 1019.688
544.121, 1035.166
545.444, 972.836
546.766, 697.672
548.088, 719.828
549.410, 697.762
550.732, 763.381
552.053, 606.979
553.375, 375.457
554.696, 460.760
556.017, 409.707
557.337, 524.549
558.658, 440.434
559.978, 288.816
561.298, 544.119
562.618, 449.930
563.938, 280.260
565.257, 442.342
566.576, 202.094
567.895, 613.760
569.214, 599.426
570.533, 484.055
571.851, 380.932
573.170, 437.369
574.488, 529.994
575.805, 559.467
577.123, 660.908
578.440, 777.629
579.758, 1091.168
581.075, 706.803
582.391, 1048.658
583.708, 1121.533
585.024, 803.635
586.341, 850.711
587.657, 823.838
588.972, 599.639
590.288, 350.039
591.603, 193.037
592.918, 328.773
594.233, 191.686
595.548, 324.551
596.863, 314.186
598.177, 127.199
599.491, 252.947
600.805, 152.656
602.119, 76.689
603.432, 281.834
604.746, 330.316
606.059, 46.758
607.372, 1.125
608.685, 352.402
609.997, 98.641
611.309, 184.818
612.621, 128.947
613.933, 399.020
615.245, 108.055
616.557, 205.029
617.868, 328.961
619.179, 286.852
620.490, 156.703
621.801, 554.504
623.111, 242.268
624.421, 738.986
625.731, 285.668
627.041, 868.311
628.351, 646.912
629.660, 546.482
630.970, 1014.014
632.279, 723.561
633.588, 862.066
634.896, 581.555
636.205, 857.086
637.513, 821.605
638.821, 1144.109
640.129, 1211.617
641.437, 1341.086
642.744, 1235.520
644.051, 1555.914
645.358, 1914.273
646.665, 1924.594
647.972, 2262.877
649.278, 2238.123
650.584, 2264.330
651.890, 2644.502
653.196, 2421.637
654.502, 2189.734
655.807, 1634.795
657.113, 1565.818
658.418, 1684.805
659.722, 1252.758
661.027, 1027.721
662.331, 618.705
663.636, 847.693
664.940, 356.705
666.244, 674.730
667.547, 187.748
668.851, 493.727
670.154, 290.668
671.457, 47.574
672.760, 439.422
674.062, 204.229
675.365, 105.998
676.667, 164.721
677.969, 219.824
679.271, 54.465
680.572, 50.412
681.874, 22.070
683.175, 132.486
684.476, 175.859
685.777, 79.369
687.077, 44.150
688.378, 395.969
689.678, 34.264
690.978, 81.293
692.278, 308.730
693.577, 376.533
694.877, 150.883
696.176, 218.012
697.475, 329.467
698.774, 162.824
700.072, 79.016
701.371, 12.312
702.669, 31.398
703.967, 315.812
705.265, 391.834
706.562, 262.895
707.860, 37.748
709.157, 337.258
710.454, 132.531
711.751, 365.100
713.047, 27.303
714.344, 472.568
715.640, 38.324
716.936, 213.422
718.232, 417.398
719.527, 185.346
720.823, 239.314
722.118, 308.398
723.413, 146.393
724.708, 386.188
726.002, 542.949
727.297, 260.969
728.591, 446.582
729.885, 713.027
731.179, 540.799
732.472, 593.945
733.766, 711.869
735.059, 714.432
736.352, 987.418
737.645, 1057.004
738.937, 1783.549
740.230, 1858.092
741.522, 2278.660
742.814, 3107.516
744.106, 3842.080
745.397, 4948.650
746.689, 5543.293
747.980, 6070.312
749.271, 6483.881
750.562, 6275.707
751.853, 5092.521
753.143, 4520.939
754.433, 3807.547
755.723, 2823.863
757.013, 2645.090
758.303, 2003.877
759.592, 1880.148
760.881, 1547.395
762.170, 1707.859
763.459, 1538.486
764.748, 1165.822
766.036, 1647.633
767.325, 1145.035
768.613, 1170.451
769.901, 1156.510
771.188, 744.457
772.476, 916.959
773.763, 449.943
775.050, 717.904
776.337, 543.691
777.624, 695.600
778.910, 335.309
780.196, 405.172
781.482, 434.125
782.768, 407.939
784.054, 291.732
785.339, 555.500
786.625, 269.248
787.910, 552.973
789.195, 382.674
790.479, 630.354
791.764, 810.119
793.048, 401.752
794.332, 602.363
795.616, 747.949
796.900, 444.516
798.183, 606.057
799.467, 809.578
800.750, 679.078
802.033, 581.557
803.316, 1259.010
804.598, 687.443
805.880, 1878.855
807.163, 2112.246
808.445, 2534.617
809.726, 3159.969
811.008, 4074.297
812.289, 4384.609
813.570, 5012.896
814.851, 4762.166
816.132, 3783.418
817.413, 2856.648
818.693, 2635.857
819.973, 1670.047
821.253, 1246.219
822.533, 1138.766
823.813, 1054.898
825.092, 482.938
826.371, 779.238
827.650, 465.316
828.929, 579.914
830.208, 537.398
831.486, 135.637
832.764, 298.254
834.042, 104.723
835.320, 355.180
836.598, 514.766
837.875, 304.570
839.152, 114.809
840.429, 283.473
841.706, 261.363
842.983, 153.223
844.259, 385.223
845.536, 244.254
846.812, 51.594
848.088, 2.398
849.363, 82.664
850.639, 161.043
851.914, 135.102
853.189, 113.805
854.464, 149.113
855.739, 330.410
857.013, 258.062
858.288, 35.219
859.562, 6.578
860.836, 117.836
862.110, 198.816
863.383, 163.699
864.656, 52.793
865.930, 121.691
867.203, 78.258
868.475, 147.730
869.748, 66.297
871.020, 181.691
872.292, 107.125
873.564, 77.004
874.836, 44.062
876.108, 284.586
877.379, 216.734
878.650, 176.004
879.922, 20.320
881.192, 19.656
882.463, 45.402
883.733, 50.938
885.004, 65.777
886.274, 2.488
887.544, 24.961
888.813, 38.992
890.083, 70.250
891.352, 94.488
892.621, 100.730
893.890, 146.434
895.159, 3.215
896.427, 101.457
897.695, 215.699
898.964, 47.945
900.232, 31.188
901.499, 52.445
902.767, 278.695
904.034, 114.039
905.301, 183.188
906.568, 309.426
907.835, 257.676
909.102, 14.930
910.368, 118.184
911.634, 262.484
912.900, 296.785
914.166, 405.094
915.432, 124.418
916.697, 11.770
917.962, 428.117
919.227, 37.723
920.492, 232.090
921.757, 134.465
923.021, 227.844
924.285, 384.234
925.550, 192.633
926.813, 113.039
928.077, 96.449
929.341, 176.863
930.604, 332.281
931.867, 160.727
933.130, 12.172
934.393, 457.625
935.655, 198.082
936.918, 378.543
938.180, 150.008
939.442, 73.453
940.703, 259.930
941.965, 190.406
943.226, 165.105
944.488, 171.332
945.749, 405.766
947.009, 130.203
948.270, 390.652
949.530, 533.105
950.791, 127.559
952.051, 144.016
953.311, 64.477
954.570, 302.938
955.830, 269.500
957.089, 311.887
958.348, 334.367
959.607, 366.855
960.866, 287.348
962.124, 186.879
963.383, 372.410
964.641, 440.945
965.899, 541.512
967.156, 379.082
968.414, 271.660
969.671, 444.238
970.928, 195.836
972.185, 687.438
973.442, 513.043
974.699, 752.656
975.955, 766.273
977.211, 511.895
978.468, 822.531
979.723, 681.172
980.979, 685.832
982.234, 1409.500
983.490, 539.766
984.745, 1254.461
986.000, 1494.641
987.254, 1307.398
988.509, 2358.180
989.763, 2161.977
991.017, 2794.336
992.271, 3153.188
993.525, 3525.082
994.779, 3914.773
996.032, 3660.719
997.285, 3809.676
998.538, 2692.223
999.791, 3094.441
1001.044, 2397.250
1002.296, 2485.406
1003.548, 2169.734
1004.800, 1901.180
1006.052, 1995.547
1007.304, 1670.930
1008.555, 1554.035
1009.807, 1465.945
1011.058, 1174.832
1012.309, 1147.340
1013.559, 806.367
1014.810, 636.348
1016.060, 940.469
1017.310, 887.305
1018.560, 557.199
1019.810, 632.887
1021.060, 1164.773
1022.309, 642.516
1023.558, 1067.078
1024.807, 430.504
1026.056, 872.836
1027.305, 670.688
1028.553, 1114.582
1029.801, 979.879
1031.049, 798.996
1032.297, 826.719
1033.545, 813.543
1034.793, 960.621
1036.040, 934.371
1037.287, 1112.344
1038.534, 1125.441
1039.781, 1146.914
1041.027, 1169.738
1042.274, 1079.992
1043.520, 1237.191
1044.766, 1027.699
1046.012, 665.055
1047.257, 580.055
1048.503, 986.289
1049.748, 511.734
1050.993, 949.566
1052.238, 901.059
1053.483, 561.328
1054.727, 374.078
1055.971, 775.961
1057.216, 472.227
1058.459, 568.266
1059.703, 571.156
1060.947, 373.223
1062.190, 504.352
1063.433, 324.785
1064.676, 417.582
1065.919, 89.875
1067.162, 576.035
1068.404, 8.340
1069.646, 328.730
1070.888, 573.133
1072.130, 408.680
1073.372, 471.211
1074.613, 433.633
1075.855, 345.078
1077.096, 395.227
1078.337, 335.340
1079.578, 404.629
1080.818, 403.137
1082.059, 391.500
1083.299, 412.031
1084.539, 430.836
1085.779, 459.664
1087.018, 493.586
1088.258, 509.141
1089.497, 550.367
1090.736, 565.691
1091.975, 623.613
1093.213, 687.188
1094.452, 727.020
1095.690, 830.480
1096.928, 1013.852
1098.166, 1223.102
1099.404, 1565.172
1100.642, 1092.730
1101.879, 1465.977
1103.116, 956.484
1104.353, 1326.504
1105.590, 869.383
1106.827, 900.695
1108.063, 758.434
1109.299, 1020.227
1110.536, 857.352
1111.771, 809.770
1113.007, 1099.520
1114.243, 1123.777
1115.478, 1327.617
1116.713, 1419.348
1117.948, 2004.918
1119.183, 1706.320
1120.418, 2617.812
1121.652, 3079.852
1122.886, 3584.078
1124.120, 3685.480
1125.354, 3823.793
1126.588, 3518.055
1127.821, 3591.777
1129.055, 2718.035
1130.288, 2572.273
1131.521, 2528.195
1132.753, 2104.539
1133.986, 2258.078
1135.218, 2913.992
1136.450, 2179.516
1137.682, 3307.586
1138.914, 2782.324
1140.146, 2754.004
1141.377, 2443.520
1142.609, 1973.352
1143.840, 1892.441
1145.071, 1829.004
1146.301, 1282.004
1147.532, 1342.844
1148.762, 811.520
1149.992, 699.273
1151.222, 709.453
1152.452, 543.961
1153.682, 410.398
1154.911, 347.836
1156.140, 125.887
1157.369, 240.980
1158.598, 256.059
1159.827, 378.176
1161.055, 39.031
1162.284, 224.941
1163.512, 136.875
1164.740, 287.688
1165.967, 268.062
1167.195, 402.430
1168.422, 137.949
1169.650, 414.617
1170.877, 180.766
1172.103, 16.859
1173.330, 228.605
1174.557, 288.988
1175.783, 442.910
1177.009, 182.777
1178.235, 307.023
1179.461, 20.477
1180.686, 204.285
1181.912, 476.578
1183.137, 143.715
1184.362, 149.172
1185.587, 200.594
1186.811, 494.016
1188.036, 299.645
1189.260, 424.055
1190.484, 201.418
1191.708, 382.195
1192.932, 108.156
1194.155, 294.734
1195.378, 239.141
1196.602, 407.789
1197.825, 77.246
1199.047, 404.605
1200.270, 47.371
1201.492, 612.820
1202.715, 25.160
1203.937, 478.488
1205.159, 292.938
1206.380, 606.969
1207.602, 543.676
1208.823, 272.496
1210.044, 438.754
1211.265, 355.219
1212.486, 475.980
1213.707, 465.363
1214.927, 473.668
1216.147, 438.977
1217.367, 448.461
1218.587, 413.066
1219.807, 177.434
1221.027, 442.691
1222.246, 196.621
1223.465, 307.801
1224.684, 620.441
1225.903, 378.199
1227.121, 33.832
1228.340, 452.344
1229.558, 337.117
1230.776, 183.930
1231.994, 296.523
1233.212, 550.027
1234.429, 279.461
1235.646, 203.816
1236.864, 717.094
1238.081, 118.426
1239.297, 641.520
1240.514, 668.547
1241.730, 361.488
1242.947, 184.492
1244.163, 449.246
1245.378, 489.051
1246.594, 761.570
1247.810, 202.516
1249.025, 653.242
1250.240, 249.375
1251.455, 279.398
1252.670, 409.195
1253.885, 304.871
1255.099, 286.379
1256.313, 43.285
1257.527, 603.883
1258.741, 281.910
1259.955, 28.312
1261.168, 488.406
1262.382, 268.809
1263.595, 540.602
1264.808, 62.738
1266.021, 305.609
1267.233, 198.793
1268.446, 594.328
1269.658, 546.121
1270.870, 321.582
1272.082, 537.676
1273.294, 233.641
1274.505, 65.539
1275.716, 307.273
1276.928, 35.207
1278.139, 504.676
1279.349, 111.816
1280.560, 350.066
1281.770, 220.172
1282.981, 150.141
1284.191, 363.082
1285.401, 188.004
1286.610, 99.594
1287.820, 310.359
1289.029, 25.324
1290.239, 352.828
1291.448, 129.305
1292.656, 32.188
1293.865, 532.906
1295.073, 141.496
1296.282, 188.070
1297.490, 159.148
1298.698, 282.223
1299.906, 260.156
1301.113, 59.961
1302.320, 346.930
1303.528, 29.785
1304.735, 126.633
1305.942, 51.500
1307.148, 186.309
1308.355, 93.242
1309.561, 338.578
1310.767, 62.109
1311.973, 295.895
1313.179, 6.887
1314.384, 266.250
1315.590, 5.820
1316.795, 189.156
1318.000, 220.055
1319.205, 309.859
1320.410, 5.285
1321.614, 92.141
1322.819, 202.012
1324.023, 126.398
1325.227, 339.434
1326.431, 127.121
1327.634, 212.398
1328.838, 11.367
1330.041, 355.516
1331.244, 335.500
1332.447, 40.441
1333.650, 86.555
1334.852, 160.066
1336.055, 23.469
1337.257, 188.672
1338.459, 133.457
1339.661, 438.965
1340.862, 357.762
1342.064, 972.816
1343.265, 792.043
1344.466, 153.984
1345.667, 328.535
1346.868, 427.637
1348.068, 502.766
1349.269, 539.418
1350.469, 732.051
1351.669, 498.145
1352.869, 613.828
1354.069, 538.984
1355.268, 90.152
1356.468, 769.188
1357.667, 758.102
1358.866, 300.301
1360.065, 706.840
1361.263, 398.816
1362.462, 596.430
1363.660, 827.168
1364.858, 411.180
1366.056, 474.371
1367.254, 724.668
1368.451, 514.355
1369.649, 269.355
1370.846, 766.086
1372.043, 556.914
1373.240, 694.043
1374.436, 599.289
1375.633, 793.539
1376.829, 754.414
1378.025, 716.344
1379.221, 736.609
1380.417, 660.855
1381.613, 601.293
1382.808, 700.582
1384.003, 920.535
1385.199, 798.836
1386.393, 360.316
1387.588, 881.992
1388.783, 585.840
1389.977, 895.676
1391.171, 499.516
1392.365, 481.555
1393.559, 790.535
1394.753, 597.184
1395.946, 740.820
1397.140, 626.461
1398.333, 611.074
1399.526, 582.883
1400.719, 739.594
1401.911, 787.805
1403.104, 779.840
1404.296, 195.984
1405.488, 704.887
1406.680, 340.992
1407.872, 387.227
1409.063, 520.145
1410.255, 116.477
1411.446, 716.609
1412.637, 190.906
1413.828, 428.918
1415.018, 428.473
1416.209, 365.230
1417.399, 26.230
1418.589, 821.723
1419.779, 274.180
1420.969, 1094.629
1422.159, 149.344
1423.348, 326.473
1424.537, 329.531
1425.726, 393.465
1426.915, 293.395
1428.104, 256.855
1429.293, 300.445
1430.481, 218.090
1431.669, 547.629
1432.857, 362.598
1434.045, 168.578
1435.233, 700.461
1436.420, 664.508
1437.608, 364.809
1438.795, 468.676
1439.982, 459.582
1441.169, 347.863
1442.355, 289.371
1443.542, 336.438
1444.728, 313.250
1445.914, 465.090
1447.100, 483.055
1448.286, 600.289
1449.472, 207.785
1450.657, 652.332
1451.842, 647.117
1453.027, 283.469
1454.212, 951.512
1455.397, 503.637
1456.581, 651.246
1457.766, 812.113
1458.950, 474.211
1460.134, 916.359
1461.318, 83.953
1462.501, 150.750
1463.685, 784.809
1464.868, 4.012
1466.051, 1065.426
1467.234, 283.270
1468.417, 479.387
1469.600, 539.121
1470.782, 503.324
1471.965, 279.895
1473.147, 485.234
1474.329, 429.160
1475.510, 182.293
1476.692, 254.879
1477.873, 154.250
1479.055, 14.590
1480.236, 101.438
1481.416, 188.863
1482.597, 34.844
1483.778, 246.703
1484.958, 0.000
##END=



