##NAMES=Microcline
##RRUFFID=R040154
##IDEAL CHEMISTRY=KAlSi_3_O_8_
##LOCALITY=Mitchell County, North Carolina, USA
##OWNER=RRUFF
##SOURCE=University of Arizona Mineral Museum
##DESCRIPTION=White cleavage fragment with some perthitic character
##STATUS=The identification of this mineral has been confirmed by X-ray diffraction and chemical analysis
##URL=rruff.info/R040154
##MEASURED CHEMISTRY=(K_0.90_Na_0.09_Ba_0.01_)Al_1.00_(Si_2.99_Al_0.01_)_Î£=3_O_8_
##PIN_ID=L00158
##ORIENTATION=Laser parallel to b* (0 1 0). Fiducial mark perpendicular to laser is parallel to c [0 0 1]
98.947, 0.000
100.340, 0.928
101.732, 25.060
103.124, 164.710
104.516, 147.856
105.908, 330.384
107.300, 264.077
108.691, 113.960
110.082, 71.283
111.473, 11.853
112.864, 257.502
114.254, 724.770
115.644, 1362.802
117.034, 2117.506
118.424, 2757.294
119.813, 4109.903
121.203, 5200.482
122.592, 6524.451
123.981, 7638.396
125.369, 8219.026
126.758, 8427.130
128.146, 8112.998
129.534, 7888.161
130.922, 7460.365
132.309, 7404.941
133.696, 7947.790
135.083, 9600.565
136.470, 11356.175
137.857, 13353.899
139.243, 14863.936
140.630, 16275.485
142.016, 17173.758
143.401, 18037.928
144.787, 18573.100
146.172, 19637.375
147.557, 21021.842
148.942, 22749.578
150.327, 25691.643
151.711, 28589.105
153.096, 31885.010
154.480, 34511.410
155.863, 36301.328
157.247, 37250.141
158.630, 35989.555
160.013, 33531.035
161.396, 30094.848
162.779, 25280.719
164.161, 20660.875
165.544, 16560.383
166.926, 13286.526
168.308, 10724.874
169.689, 8812.585
171.070, 7814.752
172.452, 7087.611
173.833, 6665.084
175.213, 6418.652
176.594, 6201.185
177.974, 6188.682
179.354, 6027.170
180.734, 5493.023
182.114, 4887.647
183.493, 4568.704
184.872, 4075.245
186.251, 3706.996
187.630, 3344.902
189.008, 3237.887
190.387, 3406.954
191.765, 3608.107
193.143, 4099.346
194.520, 4681.664
195.898, 5368.059
197.275, 5571.524
198.652, 5680.056
200.029, 5395.640
201.405, 4709.273
202.782, 3672.944
204.158, 2981.646
205.534, 2435.377
206.909, 1749.129
208.285, 1473.106
209.660, 1168.886
211.035, 672.676
212.410, 552.462
213.784, 240.223
215.159, 16.938
216.533, 0.405
217.907, 102.809
219.281, 164.271
220.654, 170.789
222.027, 194.363
223.400, 242.970
224.773, 190.144
226.146, 141.893
227.518, 172.692
228.891, 154.543
230.263, 181.443
231.634, 81.392
233.006, 143.390
234.377, 84.436
235.748, 25.470
237.119, 136.330
238.490, 209.143
239.860, 276.875
241.231, 639.173
242.601, 860.254
243.970, 1268.092
245.340, 1776.252
246.709, 2405.093
248.079, 3620.634
249.448, 4962.936
250.816, 6987.624
252.185, 8819.303
253.553, 10803.987
254.921, 12355.677
256.289, 13212.361
257.657, 13533.509
259.024, 13197.914
260.391, 12544.490
261.758, 11953.866
263.125, 11601.409
264.492, 11203.931
265.858, 10627.749
267.224, 10118.850
268.590, 9178.989
269.956, 8676.062
271.321, 8385.544
272.687, 8504.856
274.052, 9395.975
275.416, 11365.236
276.781, 14119.890
278.146, 17867.660
279.510, 22644.520
280.874, 27028.438
282.237, 31525.383
283.601, 32999.344
284.964, 33023.297
286.327, 31622.234
287.690, 27485.150
289.053, 23071.043
290.416, 18769.895
291.778, 14247.715
293.140, 11192.496
294.502, 8540.207
295.863, 6992.815
297.225, 5642.299
298.586, 4733.641
299.947, 3944.853
301.308, 3182.944
302.668, 2651.921
304.029, 2281.793
305.389, 1859.562
306.749, 1550.238
308.108, 1306.822
309.468, 1026.319
310.827, 998.733
312.186, 737.069
313.545, 815.326
314.903, 651.510
316.262, 558.622
317.620, 760.662
318.978, 901.636
320.336, 1034.541
321.693, 1340.303
323.051, 1882.756
324.408, 2589.752
325.765, 3882.238
327.121, 4822.307
328.478, 5650.981
329.834, 6138.316
331.190, 6209.348
332.546, 5548.303
333.902, 4807.239
335.257, 3503.171
336.612, 2607.090
337.967, 1959.995
339.322, 1406.886
340.677, 1227.762
342.031, 827.622
343.385, 625.468
344.739, 595.298
346.093, 448.106
347.446, 583.889
348.799, 550.647
350.153, 829.377
351.505, 975.081
352.858, 1092.758
354.210, 1130.407
355.563, 1348.031
356.915, 1200.628
358.267, 1237.196
359.618, 1067.738
360.969, 1047.249
362.321, 1052.730
363.672, 1149.204
365.022, 1267.650
366.373, 1595.066
367.723, 2056.453
369.073, 2452.810
370.423, 2852.137
371.773, 2844.463
373.122, 2655.760
374.471, 2490.045
375.821, 1743.298
377.169, 1366.305
378.518, 869.027
379.866, 603.750
381.215, 447.035
382.563, 319.486
383.910, 90.537
385.258, 37.900
386.605, 76.576
387.952, 128.632
389.299, 3.881
390.646, 31.100
391.992, 34.782
393.339, 62.016
394.685, 115.423
396.031, 446.961
397.376, 321.193
398.722, 608.218
400.067, 824.708
401.412, 761.960
402.757, 1024.485
404.101, 826.215
405.446, 652.896
406.790, 612.488
408.134, 541.959
409.478, 503.358
410.821, 457.303
412.165, 403.040
413.508, 346.315
414.851, 286.604
416.193, 168.010
417.536, 61.476
418.878, 35.632
420.220, 138.442
421.562, 160.579
422.904, 146.327
424.245, 147.510
425.586, 183.874
426.927, 101.395
428.268, 142.027
429.609, 215.802
430.949, 21.754
432.289, 93.214
433.629, 96.568
434.969, 235.416
436.309, 94.610
437.648, 380.447
438.987, 501.373
440.326, 562.269
441.665, 840.139
443.003, 1403.351
444.342, 1564.512
445.680, 2240.971
447.018, 3082.816
448.355, 4001.419
449.693, 5323.143
451.030, 6492.434
452.367, 7355.062
453.704, 7188.266
455.041, 7268.564
456.377, 6291.684
457.713, 5542.760
459.049, 4931.796
460.385, 4452.791
461.721, 4393.744
463.056, 4462.657
464.391, 5045.531
465.726, 6104.363
467.061, 7503.160
468.395, 9458.915
469.730, 12364.631
471.064, 15020.311
472.398, 18056.949
473.731, 19425.555
475.065, 20135.119
476.398, 19351.646
477.731, 17792.992
479.064, 15886.448
480.397, 14430.864
481.729, 12946.249
483.062, 11796.590
484.394, 10597.900
485.725, 9042.177
487.057, 7448.422
488.389, 6040.641
489.720, 4905.829
491.051, 4373.995
492.382, 4213.134
493.712, 4016.250
495.043, 4060.342
496.373, 4477.408
497.703, 5065.450
499.032, 6210.469
500.362, 7636.463
501.691, 9794.432
503.020, 12600.377
504.349, 16732.299
505.678, 22219.115
507.007, 29080.297
508.335, 36296.016
509.663, 43947.570
510.991, 50362.363
512.319, 52172.137
513.646, 51021.895
514.973, 44753.316
516.300, 37674.012
517.627, 29266.006
518.954, 22129.158
520.280, 17537.789
521.607, 13151.998
522.933, 10377.989
524.259, 8053.366
525.584, 6541.533
526.910, 5477.412
528.235, 4537.566
529.560, 4054.655
530.885, 3452.508
532.209, 2852.401
533.534, 2656.544
534.858, 2376.455
536.182, 2112.986
537.506, 1989.082
538.829, 1752.109
540.152, 1499.101
541.476, 1557.287
542.799, 1277.732
544.121, 1153.584
545.444, 1145.050
546.766, 1056.985
548.088, 1050.004
549.410, 905.812
550.732, 927.731
552.053, 800.312
553.375, 632.159
554.696, 629.205
556.017, 639.273
557.337, 599.606
558.658, 523.276
559.978, 536.357
561.298, 544.808
562.618, 440.814
563.938, 351.508
565.257, 416.007
566.576, 427.557
567.895, 530.271
569.214, 472.541
570.533, 528.443
571.851, 436.713
573.170, 602.259
574.488, 578.529
575.805, 738.346
577.123, 738.069
578.440, 863.232
579.758, 1060.932
581.075, 1016.270
582.391, 1031.496
583.708, 906.646
585.024, 736.518
586.341, 644.571
587.657, 482.554
588.972, 477.979
590.288, 249.067
591.603, 163.052
592.918, 182.477
594.233, 121.303
595.548, 195.265
596.863, 164.021
598.177, 161.261
599.491, 156.812
600.805, 64.342
602.119, 66.850
603.432, 225.336
604.746, 120.804
606.059, 168.249
607.372, 128.676
608.685, 259.082
609.997, 130.479
611.309, 264.854
612.621, 188.215
613.933, 321.556
615.245, 292.881
616.557, 346.188
617.868, 541.479
619.179, 432.754
620.490, 624.011
621.801, 1010.252
623.111, 1025.478
624.421, 1357.686
625.731, 1368.877
627.041, 1653.053
628.351, 1689.211
629.660, 1621.354
630.970, 1866.480
632.279, 1563.609
633.588, 1462.705
634.896, 1330.783
636.205, 1494.847
637.513, 1406.894
638.821, 1588.925
640.129, 1756.940
641.437, 1905.939
642.744, 2127.386
644.051, 2193.894
645.358, 2583.846
646.665, 2840.784
647.972, 3122.706
649.278, 3034.612
650.584, 3247.503
651.890, 3413.378
653.196, 2971.238
654.502, 2776.082
655.807, 2336.910
657.113, 2095.722
658.418, 1962.520
659.722, 1475.302
661.027, 1146.068
662.331, 946.817
663.636, 999.554
664.940, 472.275
666.244, 689.983
667.547, 258.678
668.851, 379.356
670.154, 270.020
671.457, 40.667
672.760, 250.292
674.062, 131.903
675.365, 87.496
676.667, 238.068
677.969, 61.627
679.271, 64.836
680.572, 9.942
681.874, 54.398
683.175, 116.927
684.476, 45.344
685.777, 54.741
687.077, 110.883
688.378, 89.412
689.678, 67.903
690.978, 73.707
692.278, 217.696
693.577, 23.547
694.877, 271.908
696.176, 48.247
697.475, 122.906
698.774, 69.766
700.072, 52.881
701.371, 55.847
702.669, 78.202
703.967, 63.102
705.265, 172.464
706.562, 91.263
707.860, 95.360
709.157, 120.586
710.454, 17.488
711.751, 217.767
713.047, 50.418
714.344, 79.102
715.640, 119.188
716.936, 45.733
718.232, 298.008
719.527, 48.615
720.823, 84.274
722.118, 85.546
723.413, 41.152
724.708, 142.285
726.002, 276.854
727.297, 104.204
728.591, 297.728
729.885, 322.848
731.179, 212.972
732.472, 245.672
733.766, 373.410
735.059, 401.487
736.352, 536.199
737.645, 747.246
738.937, 846.729
740.230, 1059.281
741.522, 1359.732
742.814, 1622.382
744.106, 2119.693
745.397, 2625.057
746.689, 2789.513
747.980, 3322.779
749.271, 3401.259
750.562, 3211.168
751.853, 2798.265
753.143, 2457.335
754.433, 2161.359
755.723, 1555.483
757.013, 1422.064
758.303, 1175.775
759.592, 1228.978
760.881, 1088.732
762.170, 1298.664
763.459, 1291.411
764.748, 1128.189
766.036, 1525.906
767.325, 1210.080
768.613, 1260.995
769.901, 1146.100
771.188, 869.107
772.476, 824.094
773.763, 696.058
775.050, 695.128
776.337, 465.049
777.624, 485.949
778.910, 448.828
780.196, 541.688
781.482, 249.523
782.768, 315.338
784.054, 312.133
785.339, 417.906
786.625, 227.658
787.910, 447.389
789.195, 270.098
790.479, 373.787
791.764, 455.455
793.048, 447.102
794.332, 433.729
795.616, 506.334
796.900, 517.918
798.183, 673.480
799.467, 852.023
800.750, 590.547
802.033, 717.049
803.316, 1037.529
804.598, 961.992
805.880, 1614.432
807.163, 1845.854
808.445, 2401.252
809.726, 3143.633
811.008, 3865.992
812.289, 4212.334
813.570, 4320.652
814.851, 4198.951
816.132, 3367.232
817.413, 2563.494
818.693, 2164.734
819.973, 1477.955
821.253, 1119.156
822.533, 1060.340
823.813, 762.502
825.092, 514.645
826.371, 575.074
827.650, 354.180
828.929, 518.951
830.208, 388.521
831.486, 236.570
832.764, 312.996
834.042, 140.598
835.320, 319.770
836.598, 189.109
837.875, 230.691
839.152, 209.959
840.429, 288.248
841.706, 205.734
842.983, 104.137
844.259, 103.766
845.536, 101.545
846.812, 17.820
848.088, 62.197
849.363, 27.734
850.639, 189.312
851.914, 2.572
853.189, 143.887
854.464, 61.314
855.739, 176.311
857.013, 47.113
858.288, 8.738
859.562, 101.033
860.836, 48.023
862.110, 44.883
863.383, 25.926
864.656, 33.438
865.930, 106.846
867.203, 92.418
868.475, 79.102
869.748, 107.820
871.020, 20.178
872.292, 46.416
873.564, 26.930
874.836, 96.416
876.108, 52.838
877.379, 5.496
878.650, 20.256
879.922, 66.342
881.192, 136.084
882.463, 132.910
883.733, 9.104
885.004, 93.203
886.274, 23.297
887.544, 138.586
888.813, 140.537
890.083, 137.256
891.352, 30.047
892.621, 20.828
893.890, 54.602
895.159, 11.363
896.427, 117.113
897.695, 142.854
898.964, 74.590
900.232, 44.312
901.499, 24.025
902.767, 194.727
904.034, 104.580
905.301, 89.055
906.568, 106.684
907.835, 57.305
909.102, 88.920
910.368, 54.533
911.634, 151.143
912.900, 156.746
914.166, 284.342
915.432, 148.936
916.697, 32.479
917.962, 265.088
919.227, 57.646
920.492, 247.197
921.757, 61.740
923.021, 84.279
924.285, 147.807
925.550, 145.332
926.813, 45.850
928.077, 241.369
929.341, 206.873
930.604, 303.371
931.867, 82.865
933.130, 198.354
934.393, 256.836
935.655, 83.314
936.918, 259.789
938.180, 113.258
939.442, 179.701
940.703, 239.164
941.965, 276.623
943.226, 316.455
944.488, 199.521
945.749, 352.961
947.009, 167.398
948.270, 130.830
949.530, 358.262
950.791, 240.686
952.051, 178.105
953.311, 280.861
954.570, 234.961
955.830, 333.338
957.089, 296.738
958.348, 275.137
959.607, 280.533
960.866, 213.926
962.124, 328.332
963.383, 333.750
964.641, 360.164
965.899, 319.600
967.156, 239.035
968.414, 248.467
969.671, 368.895
970.928, 202.320
972.185, 499.744
973.442, 287.168
974.699, 575.586
975.955, 487.025
977.211, 401.461
978.468, 629.898
979.723, 594.348
980.979, 605.801
982.234, 957.256
983.490, 407.762
984.745, 735.266
986.000, 850.498
987.254, 759.025
988.509, 1177.467
989.763, 1209.998
991.017, 1455.533
992.271, 1503.066
993.525, 1822.645
994.779, 2020.814
996.032, 2125.055
997.285, 2313.287
998.538, 2118.793
999.791, 2779.984
1001.044, 2567.467
1002.296, 3089.244
1003.548, 3149.691
1004.800, 3079.373
1006.052, 2757.906
1007.304, 2428.836
1008.555, 2390.109
1009.807, 1853.361
1011.058, 1620.182
1012.309, 1493.449
1013.559, 1246.115
1014.810, 1230.840
1016.060, 1246.191
1017.310, 1308.145
1018.560, 1232.381
1019.810, 1044.949
1021.060, 1214.021
1022.309, 1038.762
1023.558, 1241.621
1024.807, 1050.408
1026.056, 1190.688
1027.305, 1306.527
1028.553, 1554.004
1029.801, 1501.660
1031.049, 1478.744
1032.297, 1533.242
1033.545, 1821.516
1034.793, 1554.768
1036.040, 1964.426
1037.287, 2082.043
1038.534, 2165.092
1039.781, 2391.885
1041.027, 1811.219
1042.274, 1823.801
1043.520, 1723.438
1044.766, 1444.564
1046.012, 1262.045
1047.257, 1247.408
1048.503, 1416.873
1049.748, 1156.094
1050.993, 1381.234
1052.238, 1088.248
1053.483, 1123.617
1054.727, 862.293
1055.971, 1003.465
1057.216, 700.891
1058.459, 646.658
1059.703, 573.617
1060.947, 470.875
1062.190, 632.820
1063.433, 494.316
1064.676, 346.320
1065.919, 110.986
1067.162, 573.387
1068.404, 50.654
1069.646, 228.359
1070.888, 412.832
1072.130, 185.229
1073.372, 342.541
1074.613, 409.611
1075.855, 249.793
1077.096, 5.338
1078.337, 430.549
1079.578, 232.047
1080.818, 267.369
1082.059, 302.734
1083.299, 441.758
1084.539, 475.547
1085.779, 304.496
1087.018, 303.850
1088.258, 396.000
1089.497, 418.680
1090.736, 476.863
1091.975, 621.418
1093.213, 571.199
1094.452, 681.975
1095.690, 717.982
1096.928, 828.166
1098.166, 907.859
1099.404, 1021.152
1100.642, 822.873
1101.879, 1122.783
1103.116, 1031.818
1104.353, 1169.547
1105.590, 906.256
1106.827, 1077.744
1108.063, 1040.705
1109.299, 1245.455
1110.536, 1242.951
1111.771, 1433.186
1113.007, 1562.438
1114.243, 1897.115
1115.478, 2079.914
1116.713, 2510.496
1117.948, 3265.932
1119.183, 3441.773
1120.418, 4300.145
1121.652, 5359.775
1122.886, 5983.180
1124.120, 6267.797
1125.354, 5887.643
1126.588, 5564.352
1127.821, 4867.322
1129.055, 4772.225
1130.288, 4401.006
1131.521, 4235.535
1132.753, 4075.715
1133.986, 4501.660
1135.218, 4845.922
1136.450, 4761.611
1137.682, 5685.621
1138.914, 5285.186
1140.146, 5143.582
1141.377, 4978.070
1142.609, 4208.340
1143.840, 3689.150
1145.071, 3191.117
1146.301, 2621.154
1147.532, 2295.807
1148.762, 1850.334
1149.992, 1541.170
1151.222, 1300.402
1152.452, 1152.152
1153.682, 939.947
1154.911, 806.771
1156.140, 686.461
1157.369, 584.607
1158.598, 586.775
1159.827, 527.561
1161.055, 499.354
1162.284, 483.803
1163.512, 406.166
1164.740, 346.994
1165.967, 187.734
1167.195, 202.932
1168.422, 359.340
1169.650, 389.807
1170.877, 250.385
1172.103, 195.230
1173.330, 172.027
1174.557, 345.299
1175.783, 165.977
1177.009, 24.746
1178.235, 282.037
1179.461, 67.123
1180.686, 247.830
1181.912, 251.852
1183.137, 231.205
1184.362, 353.152
1185.587, 47.348
1186.811, 346.045
1188.036, 1.119
1189.260, 100.453
1190.484, 80.852
1191.708, 295.236
1192.932, 113.092
1194.155, 232.143
1195.378, 208.145
1196.602, 259.801
1197.825, 238.092
1199.047, 314.953
1200.270, 238.441
1201.492, 191.791
1202.715, 45.098
1203.937, 227.600
1205.159, 112.898
1206.380, 100.076
1207.602, 5.408
1208.823, 105.568
1210.044, 211.604
1211.265, 97.113
1212.486, 178.164
1213.707, 83.137
1214.927, 274.000
1216.147, 144.826
1217.367, 224.604
1218.587, 224.342
1219.807, 263.035
1221.027, 81.803
1222.246, 54.439
1223.465, 177.000
1224.684, 354.707
1225.903, 218.879
1227.121, 31.645
1228.340, 250.238
1229.558, 92.572
1230.776, 147.891
1231.994, 109.135
1233.212, 251.326
1234.429, 303.521
1235.646, 17.340
1236.864, 289.709
1238.081, 200.725
1239.297, 145.707
1240.514, 323.650
1241.730, 168.562
1242.947, 54.875
1244.163, 163.713
1245.378, 258.512
1246.594, 155.254
1247.810, 108.941
1249.025, 374.928
1250.240, 150.510
1251.455, 154.156
1252.670, 205.650
1253.885, 91.076
1255.099, 140.441
1256.313, 38.082
1257.527, 33.488
1258.741, 254.232
1259.955, 71.693
1261.168, 120.309
1262.382, 170.244
1263.595, 202.527
1264.808, 104.320
1266.021, 35.062
1267.233, 149.705
1268.446, 201.268
1269.658, 52.260
1270.870, 92.129
1272.082, 120.457
1273.294, 25.291
1274.505, 82.854
1275.716, 12.939
1276.928, 161.045
1278.139, 229.791
1279.349, 8.795
1280.560, 203.418
1281.770, 100.982
1282.981, 60.467
1284.191, 118.861
1285.401, 154.164
1286.610, 16.598
1287.820, 175.564
1289.029, 101.332
1290.239, 238.670
1291.448, 49.607
1292.656, 90.486
1293.865, 103.307
1295.073, 66.070
1296.282, 28.248
1297.490, 20.641
1298.698, 52.623
1299.906, 109.352
1301.113, 73.248
1302.320, 165.064
1303.528, 154.314
1304.735, 12.500
1305.942, 29.621
1307.148, 189.678
1308.355, 30.322
1309.561, 215.600
1310.767, 68.541
1311.973, 118.229
1313.179, 89.932
1314.384, 273.572
1315.590, 15.148
1316.795, 169.654
1318.000, 150.904
1319.205, 92.338
1320.410, 85.400
1321.614, 55.389
1322.819, 79.908
1324.023, 100.910
1325.227, 163.240
1326.431, 104.117
1327.634, 64.932
1328.838, 3.678
1330.041, 16.576
1331.244, 130.207
1332.447, 43.248
1333.650, 148.205
1334.852, 180.051
1336.055, 172.754
1337.257, 291.051
1338.459, 66.766
1339.661, 235.910
1340.862, 308.896
1342.064, 41.982
1343.265, 240.965
1344.466, 105.939
1345.667, 117.805
1346.868, 382.414
1348.068, 291.354
1349.269, 329.998
1350.469, 678.109
1351.669, 299.113
1352.869, 328.631
1354.069, 400.555
1355.268, 2.125
1356.468, 320.643
1357.667, 327.701
1358.866, 355.387
1360.065, 445.850
1361.263, 426.260
1362.462, 395.152
1363.660, 445.465
1364.858, 315.328
1366.056, 334.092
1367.254, 417.307
1368.451, 292.998
1369.649, 172.115
1370.846, 258.148
1372.043, 286.791
1373.240, 359.504
1374.436, 328.506
1375.633, 403.135
1376.829, 349.080
1378.025, 324.078
1379.221, 325.742
1380.417, 395.617
1381.613, 350.902
1382.808, 384.633
1384.003, 462.113
1385.199, 355.355
1386.393, 234.543
1387.588, 413.078
1388.783, 377.461
1389.977, 446.594
1391.171, 387.328
1392.365, 241.557
1393.559, 493.680
1394.753, 303.307
1395.946, 438.082
1397.140, 345.480
1398.333, 503.648
1399.526, 282.889
1400.719, 455.100
1401.911, 340.340
1403.104, 414.963
1404.296, 312.264
1405.488, 430.920
1406.680, 193.082
1407.872, 299.709
1409.063, 476.533
1410.255, 314.670
1411.446, 488.736
1412.637, 306.137
1413.828, 360.064
1415.018, 479.691
1416.209, 292.102
1417.399, 346.375
1418.589, 562.900
1419.779, 322.980
1420.969, 362.686
1422.159, 146.770
1423.348, 365.988
1424.537, 478.887
1425.726, 429.654
1426.915, 323.129
1428.104, 362.891
1429.293, 250.725
1430.481, 388.990
1431.669, 418.828
1432.857, 412.906
1434.045, 326.053
1435.233, 516.176
1436.420, 645.475
1437.608, 370.355
1438.795, 359.578
1439.982, 670.369
1441.169, 550.371
1442.355, 441.271
1443.542, 478.857
1444.728, 394.480
1445.914, 522.373
1447.100, 418.762
1448.286, 687.018
1449.472, 183.221
1450.657, 685.139
1451.842, 311.078
1453.027, 461.787
1454.212, 559.344
1455.397, 343.574
1456.581, 623.688
1457.766, 775.914
1458.950, 468.482
1460.134, 718.238
1461.318, 324.600
1462.501, 392.320
1463.685, 671.895
1464.868, 440.436
1466.051, 626.012
1467.234, 500.787
1468.417, 342.572
1469.600, 650.469
1470.782, 639.377
1471.965, 319.979
1473.147, 604.676
1474.329, 432.535
1475.510, 334.680
1476.692, 181.834
1477.873, 383.055
1479.055, 359.256
1480.236, 591.492
1481.416, 280.768
1482.597, 377.994
1483.778, 437.217
1484.958, 271.479
1486.138, 153.734
1487.318, 169.498
1488.498, 296.365
1489.678, 215.820
1490.857, 237.414
1492.037, 442.162
1493.216, 505.104
1494.395, 166.262
1495.574, 421.617
1496.752, 170.199
1497.931, 443.979
1499.109, 84.914
1500.287, 68.018
1501.465, 62.316
1502.643, 39.838
1503.820, 28.043
1504.998, 22.748
