##NAMES=Microcline
##RRUFFID=R050054
##IDEAL CHEMISTRY=KAlSi_3_O_8_
##LOCALITY=Kenticha, Negele area, Sidamo Province, Ethiopia
##OWNER=RRUFF
##SOURCE=Rock Currier
##DESCRIPTION=Light blue single crystal
##STATUS=The identification of this mineral has been confirmed by X-ray diffraction and chemical analysis
##URL=rruff.info/R050054
##MEASURED CHEMISTRY=(K_0.96_Na_0.04_)Al_1.00_Si_3.00_O_8_
##PIN_ID=M00128
##ORIENTATION=Laser parallel to (-1 -1 0). Fiducial mark perpendicular to laser is parallel to -c [0 0 -1]
101.314, 0.000
102.712, 3.845
104.109, 37.533
105.505, 200.643
106.902, 328.576
108.298, 531.652
109.694, 655.896
111.090, 743.852
112.486, 652.973
113.881, 529.069
115.277, 253.221
116.672, 143.160
118.066, 151.749
119.461, 171.419
120.855, 342.577
122.249, 668.134
123.643, 1211.613
125.036, 1797.547
126.430, 2389.694
127.823, 2944.688
129.216, 3034.208
130.608, 2789.877
132.001, 2138.452
133.393, 1550.878
134.785, 1132.092
136.176, 723.881
137.568, 430.405
138.959, 311.279
140.350, 325.289
141.741, 209.225
143.131, 313.325
144.521, 232.879
145.911, 304.248
147.301, 546.101
148.691, 649.894
150.080, 832.607
151.469, 859.470
152.858, 899.555
154.247, 965.681
155.635, 957.945
157.024, 1071.375
158.411, 929.781
159.799, 1017.034
161.187, 869.984
162.574, 690.583
163.961, 674.649
165.348, 598.574
166.734, 548.842
168.121, 446.456
169.507, 526.217
170.893, 458.821
172.278, 542.991
173.664, 628.567
175.049, 739.564
176.434, 858.555
177.819, 1054.575
179.203, 1228.051
180.587, 1272.540
181.971, 1254.854
183.355, 1144.037
184.739, 959.203
186.122, 863.627
187.505, 728.102
188.888, 588.178
190.271, 514.256
191.653, 436.507
193.035, 392.912
194.417, 424.141
195.799, 504.117
197.180, 557.881
198.562, 602.733
199.943, 713.658
201.324, 726.641
202.704, 704.514
204.084, 600.980
205.465, 473.810
206.844, 419.478
208.224, 375.920
209.603, 349.075
210.983, 305.927
212.362, 267.957
213.740, 242.893
215.119, 177.449
216.497, 149.058
217.875, 86.367
219.253, 5.820
220.631, 8.135
222.008, 38.789
223.385, 4.407
224.762, 44.864
226.139, 74.490
227.515, 31.965
228.891, 74.104
230.267, 100.352
231.643, 145.723
233.018, 64.051
234.394, 109.624
235.769, 81.292
237.144, 85.069
238.518, 41.966
239.893, 65.993
241.267, 38.162
242.641, 66.495
244.014, 84.836
245.388, 70.070
246.761, 44.455
248.134, 5.598
249.507, 63.010
250.879, 135.316
252.252, 221.934
253.624, 358.276
254.996, 469.386
256.367, 666.245
257.739, 857.899
259.110, 1016.436
260.481, 1155.078
261.852, 1234.034
263.222, 1389.822
264.592, 1559.016
265.962, 1849.035
267.332, 2079.825
268.702, 2001.307
270.071, 1863.648
271.440, 1604.143
272.809, 1369.158
274.178, 1130.956
275.546, 1077.567
276.915, 1113.044
278.283, 1264.167
279.650, 1558.123
281.018, 2038.908
282.385, 2757.519
283.752, 3601.945
285.119, 4525.173
286.486, 5320.199
287.852, 5452.014
289.218, 5137.620
290.584, 4502.026
291.950, 3607.234
293.316, 2983.250
294.681, 2271.070
296.046, 1806.697
297.411, 1389.117
298.775, 1092.319
300.140, 894.258
301.504, 753.918
302.868, 587.298
304.231, 488.429
305.595, 424.333
306.958, 380.839
308.321, 312.322
309.684, 275.369
311.047, 279.424
312.409, 238.875
313.771, 162.850
315.133, 210.264
316.495, 193.510
317.856, 183.590
319.217, 230.484
320.578, 169.186
321.939, 198.685
323.299, 183.967
324.660, 250.008
326.020, 328.731
327.380, 358.128
328.739, 510.155
330.099, 467.823
331.458, 566.603
332.817, 597.401
334.176, 563.014
335.534, 479.922
336.892, 395.782
338.251, 408.561
339.608, 272.503
340.966, 289.809
342.323, 251.146
343.681, 240.429
345.037, 276.672
346.394, 248.875
347.751, 266.041
349.107, 275.167
350.463, 352.253
351.819, 479.772
353.174, 482.683
354.530, 613.259
355.885, 680.402
357.240, 723.170
358.594, 839.189
359.949, 676.625
361.303, 671.259
362.657, 587.055
364.011, 612.288
365.365, 692.551
366.718, 776.689
368.071, 1074.349
369.424, 1383.428
370.777, 1942.215
372.129, 2478.588
373.481, 2865.698
374.833, 2992.401
376.185, 2520.749
377.537, 1935.805
378.888, 1375.029
380.239, 1078.811
381.590, 788.425
382.941, 602.515
384.291, 501.496
385.642, 394.583
386.992, 339.399
388.341, 281.145
389.691, 247.050
391.040, 222.650
392.389, 199.638
393.738, 236.018
395.087, 169.589
396.435, 233.326
397.784, 331.243
399.132, 409.981
400.479, 624.530
401.827, 872.829
403.174, 1290.668
404.521, 1458.302
405.868, 1473.206
407.215, 1297.009
408.561, 976.787
409.908, 741.221
411.254, 515.145
412.599, 442.607
413.945, 364.288
415.290, 306.935
416.636, 268.621
417.980, 258.779
419.325, 221.769
420.670, 167.980
422.014, 98.181
423.358, 53.371
424.702, 94.547
426.045, 70.708
427.389, 95.849
428.732, 31.974
430.075, 48.032
431.417, 131.026
432.760, 84.955
434.102, 179.820
435.444, 204.624
436.786, 217.367
438.127, 213.052
439.469, 288.678
440.810, 290.248
442.151, 428.762
443.492, 520.356
444.832, 612.761
446.172, 787.126
447.512, 995.524
448.852, 1363.934
450.192, 1894.078
451.531, 2694.338
452.870, 3441.480
454.209, 4171.863
455.548, 4677.893
456.887, 4576.787
458.225, 4135.842
459.563, 3556.730
460.901, 3115.003
462.238, 3010.026
463.576, 2853.758
464.913, 3098.324
466.250, 3366.041
467.587, 3936.451
468.923, 4816.643
470.259, 6092.513
471.596, 8221.161
472.931, 10756.815
474.267, 14412.106
475.603, 17746.732
476.938, 19431.732
478.273, 19586.572
479.608, 17481.309
480.942, 14776.418
482.276, 11850.998
483.611, 9865.804
484.944, 8060.476
486.278, 6525.685
487.612, 5481.291
488.945, 4351.003
490.278, 3489.337
491.611, 2946.485
492.943, 2423.038
494.276, 2240.720
495.608, 2112.259
496.940, 2165.454
498.271, 2096.301
499.603, 2328.208
500.934, 2623.550
502.265, 3102.968
503.596, 3837.229
504.927, 4864.449
506.257, 6245.823
507.587, 8419.087
508.917, 10934.428
510.247, 14379.809
511.577, 18785.523
512.906, 23211.771
514.235, 26658.049
515.564, 26624.867
516.892, 24431.799
518.221, 20148.723
519.549, 15665.648
520.877, 11982.575
522.205, 9059.894
523.533, 7077.139
524.860, 5437.067
526.187, 4273.054
527.514, 3589.020
528.841, 2987.956
530.167, 2426.928
531.493, 2067.867
532.820, 1833.212
534.145, 1601.969
535.471, 1393.975
536.796, 1276.380
538.122, 1089.766
539.447, 976.756
540.771, 924.223
542.096, 782.044
543.420, 746.500
544.744, 645.345
546.068, 592.183
547.392, 547.684
548.715, 523.918
550.039, 499.113
551.362, 432.286
552.684, 415.476
554.007, 391.933
555.329, 312.270
556.652, 325.968
557.973, 249.200
559.295, 270.873
560.617, 281.623
561.938, 189.425
563.259, 240.273
564.580, 206.160
565.901, 250.094
567.221, 215.089
568.541, 195.144
569.861, 190.275
571.181, 198.421
572.501, 191.608
573.820, 211.349
575.139, 207.710
576.458, 188.778
577.777, 219.851
579.095, 253.471
580.414, 273.426
581.732, 364.823
583.049, 433.042
584.367, 499.443
585.685, 523.757
587.002, 461.191
588.319, 368.369
589.636, 293.634
590.952, 220.255
592.268, 237.694
593.585, 91.539
594.900, 35.499
596.216, 83.522
597.532, 57.538
598.847, 111.753
600.162, 91.111
601.477, 1.182
602.792, 59.400
604.106, 26.618
605.420, 5.836
606.734, 1.947
608.048, 33.732
609.361, 38.524
610.675, 36.327
611.988, 44.580
613.301, 20.039
614.614, 32.784
615.926, 1.615
617.238, 19.555
618.550, 16.275
619.862, 41.107
621.174, 44.050
622.485, 13.791
623.797, 68.368
625.108, 91.533
626.418, 91.706
627.729, 123.885
629.039, 130.417
630.349, 197.327
631.659, 155.653
632.969, 181.976
634.279, 200.377
635.588, 170.113
636.897, 136.551
638.206, 244.958
639.515, 232.874
640.823, 305.217
642.131, 337.079
643.439, 404.838
644.747, 556.320
646.055, 670.670
647.362, 831.363
648.669, 984.908
649.976, 1195.344
651.283, 1226.062
652.589, 1333.546
653.896, 1366.934
655.202, 1265.329
656.508, 1199.732
657.814, 987.143
659.119, 811.563
660.424, 742.994
661.729, 576.435
663.034, 498.887
664.339, 382.348
665.643, 264.819
666.947, 257.300
668.251, 115.791
669.555, 100.289
670.859, 134.794
672.162, 94.303
673.465, 49.817
674.768, 89.338
676.071, 85.032
677.373, 32.008
678.676, 7.414
679.978, 8.777
681.280, 23.551
682.581, 7.265
683.883, 18.259
685.184, 24.930
686.485, 22.360
687.786, 20.411
689.087, 70.908
690.387, 15.370
691.687, 81.729
692.987, 5.153
694.287, 68.232
695.586, 54.957
696.886, 27.866
698.185, 33.899
699.484, 64.991
700.783, 36.351
702.081, 22.120
703.379, 11.900
704.677, 66.784
705.975, 62.476
707.273, 144.860
708.570, 153.917
709.868, 182.347
711.165, 226.588
712.462, 292.100
713.758, 338.704
715.055, 220.180
716.351, 316.647
717.647, 172.409
718.943, 190.936
720.238, 121.283
721.533, 147.753
722.829, 134.302
724.124, 82.660
725.418, 57.771
726.713, 123.431
728.007, 6.967
729.301, 163.767
730.595, 35.194
731.889, 133.809
733.182, 66.060
734.476, 112.433
735.769, 170.671
737.061, 154.995
738.354, 249.378
739.647, 292.778
740.939, 448.831
742.231, 571.344
743.523, 641.956
744.814, 859.441
746.106, 1078.763
747.397, 1414.049
748.688, 1673.319
749.978, 1853.505
751.269, 1810.702
752.559, 1642.903
753.849, 1325.088
755.139, 1169.252
756.429, 850.400
757.719, 755.771
759.008, 636.901
760.297, 599.115
761.586, 587.130
762.875, 512.072
764.163, 532.341
765.451, 644.328
766.739, 550.362
768.027, 613.098
769.315, 510.131
770.602, 496.243
771.890, 504.139
773.177, 317.149
774.463, 277.721
775.750, 321.491
777.036, 229.500
778.323, 200.104
779.609, 110.096
780.894, 110.079
782.180, 85.053
783.465, 79.019
784.750, 73.656
786.035, 54.922
787.320, 58.858
788.605, 43.785
789.889, 21.701
791.173, 41.603
792.457, 52.494
793.741, 18.375
795.024, 74.239
796.307, 21.094
797.591, 24.933
798.873, 50.759
800.156, 110.573
801.439, 29.377
802.721, 42.168
804.003, 69.947
805.285, 29.715
806.566, 61.470
807.848, 138.214
809.129, 126.947
810.410, 141.670
811.691, 228.382
812.971, 246.084
814.252, 330.836
815.532, 335.516
816.812, 378.186
818.092, 276.845
819.371, 284.494
820.651, 231.131
821.930, 136.758
823.209, 134.373
824.488, 120.978
825.766, 125.572
827.045, 92.154
828.323, 85.725
829.601, 45.284
830.878, 28.832
832.156, 74.363
833.433, 59.489
834.710, 20.550
835.987, 34.027
837.264, 29.570
838.540, 48.823
839.817, 41.231
841.093, 13.411
842.369, 105.959
843.644, 65.916
844.920, 5.450
846.195, 42.727
847.470, 19.403
848.745, 8.473
850.020, 8.743
851.294, 23.467
852.568, 12.772
853.842, 18.613
855.116, 7.039
856.390, 75.927
857.663, 11.026
858.936, 13.115
860.209, 50.243
861.482, 30.639
862.755, 40.444
864.027, 65.482
865.299, 22.539
866.571, 6.452
867.843, 21.463
869.115, 30.497
870.386, 26.554
871.657, 19.365
872.928, 55.271
874.199, 24.169
875.470, 23.944
876.740, 37.087
878.010, 33.413
879.280, 26.503
880.550, 7.746
881.820, 29.574
883.089, 39.869
884.358, 10.357
885.627, 74.291
886.896, 25.895
888.164, 71.524
889.433, 34.144
890.701, 18.755
891.969, 16.355
893.236, 3.035
894.504, 11.204
895.771, 5.073
897.038, 28.385
898.305, 24.127
899.572, 30.630
900.838, 33.125
902.105, 87.610
903.371, 46.087
904.637, 42.556
905.902, 44.017
907.168, 46.469
908.433, 61.914
909.698, 15.649
910.963, 99.768
912.228, 21.177
913.492, 54.577
914.757, 96.970
916.021, 15.356
917.285, 40.739
918.548, 79.119
919.812, 93.497
921.075, 81.873
922.338, 109.242
923.601, 97.446
924.864, 50.968
926.126, 80.321
927.388, 81.669
928.650, 63.017
929.912, 92.356
931.174, 111.692
932.435, 96.021
933.697, 70.342
934.958, 92.915
936.218, 78.951
937.479, 119.215
938.739, 110.394
940.000, 126.583
941.260, 40.700
942.520, 93.489
943.779, 64.584
945.039, 82.718
946.298, 86.664
947.557, 153.560
948.816, 65.259
950.074, 126.071
951.333, 81.165
952.591, 75.395
953.849, 129.286
955.107, 140.326
956.365, 152.476
957.622, 113.345
958.879, 67.448
960.136, 167.647
961.393, 103.841
962.650, 130.030
963.906, 116.214
965.162, 5.395
966.418, 180.570
967.674, 58.741
968.930, 165.909
970.185, 74.073
971.441, 189.232
972.696, 133.389
973.950, 194.540
975.205, 168.687
976.459, 152.830
977.714, 203.971
978.968, 201.107
980.222, 188.233
981.475, 145.187
982.729, 172.184
983.982, 147.946
985.235, 219.973
986.488, 215.408
987.740, 262.249
988.993, 257.909
990.245, 306.891
991.497, 392.835
992.749, 553.535
994.000, 568.686
995.252, 646.788
996.503, 658.782
997.754, 575.823
999.005, 584.516
1000.256, 425.925
1001.506, 474.346
1002.756, 393.969
1004.006, 334.643
1005.256, 394.572
1006.506, 265.197
1007.755, 291.437
1009.005, 297.110
1010.254, 259.995
1011.502, 305.191
1012.751, 253.719
1014.000, 224.879
1015.248, 213.246
1016.496, 209.346
1017.744, 189.379
1018.991, 250.554
1020.239, 180.736
1021.486, 235.628
1022.733, 241.750
1023.980, 233.049
1025.227, 294.241
1026.473, 271.351
1027.719, 296.647
1028.965, 444.188
1030.211, 418.173
1031.457, 519.279
1032.702, 471.115
1033.948, 436.317
1035.193, 545.346
1036.438, 508.733
1037.682, 527.994
1038.927, 614.397
1040.171, 591.712
1041.415, 605.964
1042.659, 630.200
1043.903, 532.780
1045.146, 515.905
1046.390, 529.930
1047.633, 649.082
1048.876, 636.396
1050.118, 775.743
1051.361, 809.105
1052.603, 820.548
1053.845, 815.977
1055.087, 886.396
1056.329, 608.827
1057.571, 699.273
1058.812, 559.731
1060.053, 406.826
1061.294, 425.289
1062.535, 355.650
1063.775, 360.119
1065.016, 206.590
1066.256, 282.942
1067.496, 214.406
1068.736, 167.886
1069.975, 220.369
1071.214, 162.857
1072.454, 229.349
1073.693, 169.842
1074.931, 255.338
1076.170, 225.854
1077.408, 182.355
1078.647, 184.860
1079.885, 286.369
1081.122, 188.892
1082.360, 301.425
1083.597, 203.955
1084.835, 293.488
1086.072, 334.034
1087.308, 237.583
1088.545, 364.136
1089.781, 418.692
1091.018, 431.252
1092.254, 465.939
1093.490, 575.509
1094.725, 571.082
1095.961, 747.661
1097.196, 701.243
1098.431, 866.832
1099.666, 890.483
1100.900, 966.081
1102.135, 1045.698
1103.369, 1078.303
1104.603, 1124.912
1105.837, 1189.685
1107.071, 1092.336
1108.304, 1225.956
1109.538, 1298.580
1110.771, 1449.207
1112.004, 1593.978
1113.236, 1821.709
1114.469, 2090.418
1115.701, 2528.279
1116.933, 3056.096
1118.165, 3461.923
1119.397, 4449.724
1120.629, 5125.465
1121.860, 6182.195
1123.091, 7038.852
1124.322, 7435.596
1125.553, 7549.082
1126.783, 7549.167
1128.014, 6935.859
1129.244, 6172.667
1130.474, 5439.438
1131.704, 4919.207
1132.933, 4518.007
1134.163, 4122.729
1135.392, 4281.697
1136.621, 4130.388
1137.850, 4277.241
1139.079, 4458.173
1140.307, 4117.091
1141.535, 4081.337
1142.763, 3583.584
1143.991, 3159.421
1145.219, 2825.338
1146.446, 2392.341
1147.674, 2025.124
1148.901, 1725.088
1150.128, 1446.575
1151.354, 1241.897
1152.581, 1063.418
1153.807, 949.249
1155.033, 888.607
1156.259, 683.591
1157.485, 632.867
1158.710, 651.393
1159.936, 456.532
1161.161, 495.867
1162.386, 428.901
1163.611, 322.835
1164.835, 406.125
1166.060, 353.367
1167.284, 312.447
1168.508, 319.490
1169.732, 276.036
1170.955, 326.393
1172.179, 263.536
1173.402, 233.569
1174.625, 278.604
1175.848, 216.034
1177.070, 131.909
1178.293, 214.077
1179.515, 155.631
1180.737, 181.526
1181.959, 172.294
1183.181, 165.216
1184.402, 148.213
1185.624, 176.088
1186.845, 121.991
1188.066, 104.115
1189.286, 45.182
1190.507, 121.405
1191.727, 89.671
1192.947, 109.059
1194.167, 118.298
1195.387, 79.595
1196.607, 76.685
1197.826, 125.905
1199.045, 50.270
1200.264, 123.156
1201.483, 90.397
1202.702, 55.533
1203.920, 101.444
1205.138, 101.517
1206.356, 33.626
1207.574, 70.492
1208.792, 51.352
1210.009, 44.979
1211.227, 66.252
1212.444, 49.196
1213.661, 63.072
1214.877, 65.174
1216.094, 62.006
1217.310, 71.513
1218.526, 29.513
1219.742, 31.398
1220.958, 34.988
1222.173, 28.065
1223.389, 55.965
1224.604, 109.944
1225.819, 131.964
1227.034, 150.427
1228.248, 36.760
1229.463, 143.536
1230.677, 103.713
1231.891, 49.549
1233.105, 125.490
1234.318, 56.360
1235.532, 100.420
1236.745, 76.167
1237.958, 17.031
1239.171, 100.896
1240.384, 55.639
1241.596, 51.574
1242.809, 69.315
1244.021, 83.372
1245.233, 37.110
1246.444, 105.846
1247.656, 48.737
1248.867, 76.466
1250.079, 117.348
1251.290, 17.071
1252.500, 47.791
1253.711, 71.508
1254.921, 131.529
1256.132, 134.214
1257.342, 25.946
1258.552, 36.673
1259.761, 29.345
1260.971, 8.998
1262.180, 20.881
1263.389, 19.988
1264.598, 28.529
1265.807, 44.156
1267.015, 48.878
1268.223, 71.622
1269.432, 48.206
1270.640, 10.773
1271.847, 104.280
1273.055, 64.761
1274.262, 38.307
1275.470, 48.730
1276.677, 77.855
1277.883, 44.752
1279.090, 64.180
1280.296, 7.513
1281.503, 99.837
1282.709, 41.135
1283.915, 23.578
1285.120, 32.195
1286.326, 33.465
1287.531, 1.202
1288.736, 57.012
1289.941, 40.215
1291.146, 77.407
1292.350, 19.587
1293.555, 34.756
1294.759, 81.054
1295.963, 24.204
1297.167, 2.659
1298.370, 74.458
1299.574, 0.566
1300.777, 39.686
1301.980, 45.234
1303.183, 1.123
1304.386, 13.888
1305.588, 2.975
1306.790, 56.064
1307.993, 64.909
1309.195, 91.174
1310.396, 42.298
1311.598, 34.546
1312.799, 22.625
1314.000, 91.180
1315.201, 45.969
1316.402, 71.259
1317.603, 49.643
1318.803, 51.360
1320.003, 6.061
1321.203, 116.737
1322.403, 28.396
1323.603, 4.036
1324.802, 120.656
1326.002, 62.739
1327.201, 94.830
1328.400, 76.381
1329.599, 32.082
1330.797, 109.425
1331.995, 44.886
1333.194, 58.329
1334.392, 26.757
1335.589, 5.832
1336.787, 13.985
1337.985, 25.925
1339.182, 21.276
1340.379, 54.608
1341.576, 28.991
1342.772, 16.287
1343.969, 102.580
1345.165, 25.842
1346.361, 40.087
1347.557, 93.311
1348.753, 53.519
1349.949, 43.710
1351.144, 109.886
1352.339, 122.045
1353.534, 75.189
1354.729, 85.598
1355.924, 80.711
1357.118, 95.853
1358.312, 40.950
1359.506, 115.020
1360.700, 10.133
1361.894, 62.173
1363.088, 154.248
1364.281, 94.266
1365.474, 87.272
1366.667, 81.236
1367.860, 61.201
1369.052, 50.149
1370.245, 24.627
1371.437, 24.329
1372.629, 105.217
1373.821, 27.491
1375.013, 12.606
1376.204, 61.510
1377.395, 78.761
1378.586, 39.997
1379.777, 222.097
1380.968, 82.307
1382.159, 82.503
1383.349, 227.625
1384.539, 66.776
1385.729, 167.760
1386.919, 44.864
1388.109, 129.989
1389.298, 156.836
1390.487, 78.538
1391.676, 138.215
1392.865, 80.998
1394.054, 155.953
1395.242, 163.600
1396.431, 153.581
1397.619, 53.300
1398.807, 203.084
1399.995, 105.603
1401.182, 106.318
1402.370, 318.669
1403.557, 181.874
1404.744, 119.201
1405.931, 175.609
1407.118, 26.084
1408.304, 167.538
1409.490, 94.438
1410.676, 80.268
1411.862, 225.456
1413.048, 107.630
1414.234, 124.168
1415.419, 110.521
1416.604, 78.755
1417.789, 108.256
1418.974, 100.894
1420.159, 39.218
1421.343, 78.939
1422.528, 145.807
1423.712, 96.632
1424.896, 119.068
1426.079, 46.339
1427.263, 27.460
1428.446, 61.021
1429.629, 73.844
1430.812, 123.277
1431.995, 104.384
1433.178, 123.561
1434.360, 96.441
1435.543, 102.058
1436.725, 48.316
1437.907, 120.653
1439.088, 91.721
1440.270, 117.669
1441.451, 194.056
1442.632, 74.171
1443.813, 125.792
1444.994, 55.885
1446.175, 87.313
1447.355, 45.974
1448.535, 167.170
1449.715, 60.913
1450.895, 166.560
1452.075, 132.956
1453.255, 176.972
1454.434, 133.229
1455.613, 121.395
1456.792, 93.812
1457.971, 136.402
1459.149, 25.604
1460.328, 193.701
1461.506, 152.895
1462.684, 82.428
1463.862, 132.133
1465.040, 134.715
1466.217, 166.796
1467.395, 149.839
1468.572, 59.247
1469.749, 159.776
1470.925, 177.231
1472.102, 62.252
1473.278, 132.996
1474.455, 58.174
1475.631, 140.411
1476.807, 90.589
1477.982, 145.194
1479.158, 98.224
1480.333, 114.087
1481.508, 77.758
1482.683, 30.425
1483.858, 200.378
1485.033, 42.459
1486.207, 167.524
1487.381, 56.566
1488.555, 66.783
1489.729, 226.773
1490.903, 75.820
1492.076, 60.888
1493.250, 156.936
1494.423, 100.978
1495.596, 3.803
1496.769, 181.623
1497.941, 33.078
1499.114, 40.589
1500.286, 116.614
1501.458, 30.114
1502.630, 92.810
1503.802, 33.665
1504.973, 71.643
1506.145, 76.776
1507.316, 132.134
1508.487, 55.251
1509.657, 187.160
1510.828, 0.076
1511.999, 40.233
1513.169, 78.146
1514.339, 0.373
1515.509, 23.823
1516.678, 0.000
##END=



