##NAMES=Microcline
##RRUFFID=R050054
##IDEAL CHEMISTRY=KAlSi_3_O_8_
##LOCALITY=Kenticha, Negele area, Sidamo Province, Ethiopia
##OWNER=RRUFF
##SOURCE=Rock Currier
##DESCRIPTION=Light blue single crystal
##STATUS=The identification of this mineral has been confirmed by X-ray diffraction and chemical analysis
##URL=rruff.info/R050054
##MEASURED CHEMISTRY=(K_0.96_Na_0.04_)Al_1.00_Si_3.00_O_8_
##PIN_ID=M00161
##ORIENTATION=Laser parallel to a* (1 0 0). Fiducial mark perpendicular to laser is parallel to -b [0 -1 0]
87.329, 0.000
88.728, 121.133
90.128, 7.691
91.527, 252.277
92.926, 202.089
94.324, 364.179
95.723, 370.597
97.121, 329.211
98.519, 300.525
99.917, 342.646
101.314, 413.050
102.712, 624.877
104.109, 977.929
105.505, 1366.809
106.902, 2000.732
108.298, 2724.705
109.694, 3229.415
111.090, 6526.117
112.486, 4396.938
113.881, 4664.589
115.277, 1851.506
116.672, 1507.810
118.066, 1306.179
119.461, 1173.793
120.855, 1333.934
122.249, 1926.839
123.643, 2542.042
125.036, 3224.271
126.430, 3665.076
127.823, 3507.416
129.216, 3138.606
130.608, 2477.886
132.001, 1728.993
133.393, 1175.592
134.785, 774.829
136.176, 512.826
137.568, 361.525
138.959, 224.685
140.350, 189.306
141.741, 131.272
143.131, 301.296
144.521, 378.885
145.911, 622.734
147.301, 1026.898
148.691, 1340.803
150.080, 1448.947
151.469, 1398.514
152.858, 1540.182
154.247, 1609.845
155.635, 1012.432
157.024, 950.925
158.411, 931.070
159.799, 764.872
161.187, 778.938
162.574, 673.758
163.961, 592.205
165.348, 527.511
166.734, 476.837
168.121, 447.987
169.507, 411.637
170.893, 425.199
172.278, 605.873
173.664, 810.655
175.049, 1052.566
176.434, 1435.609
177.819, 1616.976
179.203, 1694.453
180.587, 1868.421
181.971, 1619.867
183.355, 1222.376
184.739, 942.937
186.122, 714.543
187.505, 478.184
188.888, 372.852
190.271, 367.535
191.653, 362.224
193.035, 357.910
194.417, 414.564
195.799, 567.167
197.180, 718.845
198.562, 848.799
199.943, 865.070
201.324, 766.908
202.704, 578.144
204.084, 400.100
205.465, 328.754
206.844, 210.614
208.224, 192.564
209.603, 99.764
210.983, 124.439
212.362, 6.530
213.740, 4.653
215.119, 4.982
216.497, 71.466
217.875, 12.852
219.253, 62.426
220.631, 96.723
222.008, 134.040
223.385, 143.151
224.762, 150.026
226.139, 123.479
227.515, 127.278
228.891, 70.603
230.267, 40.848
231.643, 76.205
233.018, 79.702
234.394, 76.443
235.769, 57.489
237.144, 55.329
238.518, 17.323
239.893, 3.456
241.267, 40.463
242.641, 100.037
244.014, 84.456
245.388, 85.863
246.761, 217.910
248.134, 260.012
249.507, 569.748
250.879, 586.575
252.252, 780.371
253.624, 1224.779
254.996, 1709.063
256.367, 2306.370
257.739, 2608.970
259.110, 2801.708
260.481, 3084.820
261.852, 3638.190
263.222, 4025.397
264.592, 4611.556
265.962, 5028.778
267.332, 4980.787
268.702, 4289.741
270.071, 3561.445
271.440, 2888.939
272.809, 2271.278
274.178, 1907.173
275.546, 1539.942
276.915, 1445.585
278.283, 1507.103
279.650, 1701.488
281.018, 1918.735
282.385, 2482.863
283.752, 2828.880
285.119, 3224.769
286.486, 3389.516
287.852, 2972.107
289.218, 2681.531
290.584, 2095.787
291.950, 1673.862
293.316, 1338.748
294.681, 1056.449
296.046, 872.001
297.411, 614.414
298.775, 547.693
300.140, 408.844
301.504, 362.871
302.868, 280.769
304.231, 257.491
305.595, 198.892
306.958, 180.895
308.321, 131.277
309.684, 143.550
311.047, 60.704
312.409, 37.712
313.771, 116.554
315.133, 80.191
316.495, 80.597
317.856, 29.725
319.217, 28.535
320.578, 85.964
321.939, 153.033
323.299, 53.805
324.660, 157.336
326.020, 234.616
327.380, 249.682
328.739, 355.372
330.099, 400.690
331.458, 509.708
332.817, 485.559
334.176, 368.234
335.534, 352.941
336.892, 237.377
338.251, 240.900
339.608, 142.382
340.966, 131.820
342.323, 100.212
343.681, 135.558
345.037, 101.859
346.394, 100.112
347.751, 66.318
349.107, 128.474
350.463, 110.583
351.819, 129.084
353.174, 128.105
354.530, 229.066
355.885, 214.966
357.240, 256.809
358.594, 295.847
359.949, 268.473
361.303, 257.184
362.657, 196.830
364.011, 227.410
365.365, 268.921
366.718, 305.266
368.071, 495.787
369.424, 544.954
370.777, 711.273
372.129, 719.406
373.481, 861.457
374.833, 729.827
376.185, 549.506
377.537, 388.889
378.888, 297.687
380.239, 264.307
381.590, 189.613
382.941, 182.807
384.291, 131.851
385.642, 100.311
386.992, 119.712
388.341, 69.448
389.691, 66.865
391.040, 103.050
392.389, 86.819
393.738, 115.481
395.087, 83.945
396.435, 143.211
397.784, 222.700
399.132, 237.401
400.479, 486.259
401.827, 600.533
403.174, 699.146
404.521, 710.986
405.868, 664.753
407.215, 595.338
408.561, 627.958
409.908, 832.813
411.254, 1057.851
412.599, 1208.058
413.945, 1073.251
415.290, 858.431
416.636, 572.556
417.980, 382.634
419.325, 320.667
420.670, 217.649
422.014, 129.580
423.358, 62.456
424.702, 91.274
426.045, 88.037
427.389, 54.743
428.732, 84.393
430.075, 74.986
431.417, 110.525
432.760, 134.015
434.102, 142.446
435.444, 251.897
436.786, 255.284
438.127, 295.781
439.469, 390.350
440.810, 490.655
442.151, 657.040
443.492, 740.904
444.832, 1002.103
446.172, 1408.305
447.512, 1868.264
448.852, 2704.693
450.192, 3718.736
451.531, 5259.397
452.870, 6416.474
454.209, 7223.477
455.548, 6970.377
456.887, 5786.040
458.225, 4664.798
459.563, 3519.435
460.901, 2786.020
462.238, 2228.042
463.576, 1898.835
464.913, 1844.375
466.250, 1826.843
467.587, 1930.032
468.923, 2148.729
470.259, 2578.981
471.596, 3374.305
472.931, 4395.781
474.267, 5478.905
475.603, 6078.920
476.938, 6162.569
478.273, 5850.201
479.608, 5060.115
480.942, 4236.995
482.276, 3723.649
483.611, 3512.854
484.944, 3146.097
486.278, 2661.322
487.612, 2251.973
488.945, 1812.676
490.278, 1469.811
491.611, 1360.128
492.943, 1192.896
494.276, 1209.556
495.608, 1216.720
496.940, 1283.814
498.271, 1404.418
499.603, 1574.027
500.934, 1892.128
502.265, 2396.141
503.596, 3006.890
504.927, 3898.934
506.257, 5126.695
507.587, 6951.443
508.917, 9124.909
510.247, 12438.896
511.577, 15522.733
512.906, 18326.732
514.235, 18991.369
515.564, 16525.850
516.892, 13880.269
518.221, 10434.881
519.549, 8049.656
520.877, 5954.291
522.205, 4597.428
523.533, 3686.494
524.860, 2835.293
526.187, 2302.071
527.514, 1987.914
528.841, 1657.274
530.167, 1406.852
531.493, 1193.533
532.820, 1062.951
534.145, 980.441
535.471, 867.388
536.796, 812.950
538.122, 696.759
539.447, 643.719
540.771, 559.861
542.096, 503.670
543.420, 501.733
544.744, 372.543
546.068, 454.591
547.392, 377.334
548.715, 309.350
550.039, 330.973
551.362, 260.419
552.684, 290.036
554.007, 220.104
555.329, 213.375
556.652, 254.712
557.973, 133.528
559.295, 206.395
560.617, 166.490
561.938, 182.610
563.259, 129.733
564.580, 119.276
565.901, 119.538
567.221, 122.556
568.541, 117.708
569.861, 149.856
571.181, 153.017
572.501, 121.170
573.820, 99.313
575.139, 132.447
576.458, 89.571
577.777, 117.687
579.095, 173.796
580.414, 200.810
581.732, 200.453
583.049, 203.817
584.367, 208.302
585.685, 172.291
587.002, 151.105
588.319, 108.563
589.636, 91.513
590.952, 57.570
592.268, 61.253
593.585, 40.982
594.900, 44.026
596.216, 6.062
597.532, 5.901
598.847, 28.125
600.162, 0.145
601.477, 22.843
602.792, 77.844
604.106, 7.123
605.420, 60.082
606.734, 13.963
608.048, 11.982
609.361, 24.071
610.675, 36.137
611.988, 2.151
613.301, 4.097
614.614, 57.605
615.926, 18.511
617.238, 37.412
618.550, 34.103
619.862, 20.203
621.174, 20.094
622.485, 2.016
623.797, 5.127
625.108, 5.239
626.418, 77.650
627.729, 129.542
629.039, 78.441
630.349, 126.345
631.659, 94.265
632.969, 140.197
634.279, 141.134
635.588, 190.081
636.897, 229.035
638.206, 257.002
639.515, 225.980
640.823, 346.967
642.131, 341.959
643.439, 507.961
644.747, 541.970
646.055, 554.982
647.362, 707.998
648.669, 740.015
649.976, 937.033
651.283, 937.050
652.589, 1049.067
653.896, 1008.085
655.202, 915.106
656.508, 856.129
657.814, 762.158
659.119, 641.191
660.424, 558.231
661.729, 493.279
663.034, 342.333
664.339, 235.394
665.643, 229.461
666.947, 231.538
668.251, 98.620
669.555, 99.709
670.859, 10.195
672.162, 137.900
673.465, 64.000
674.768, 39.103
676.071, 39.209
677.373, 64.319
678.676, 6.569
679.978, 31.459
681.280, 23.360
682.581, 5.731
683.883, 17.176
685.184, 13.092
686.485, 13.984
687.786, 3.058
689.087, 13.870
690.387, 33.191
691.687, 3.045
692.987, 20.130
694.287, 78.542
695.586, 56.472
696.886, 57.511
698.185, 17.524
699.484, 21.543
700.783, 18.339
702.081, 23.378
703.379, 32.411
704.677, 20.440
705.975, 60.483
707.273, 39.942
708.570, 22.947
709.868, 50.942
711.165, 7.833
712.462, 84.464
713.758, 32.352
715.055, 78.669
716.351, 111.551
717.647, 48.428
718.943, 112.301
720.238, 31.787
721.533, 122.206
722.829, 139.079
724.124, 69.154
725.418, 168.984
726.713, 170.717
728.007, 155.960
729.301, 251.775
730.595, 225.586
731.889, 328.393
733.182, 291.251
734.476, 457.763
735.769, 543.555
737.061, 654.342
738.354, 770.491
739.647, 875.274
740.939, 1109.061
742.231, 1337.839
743.523, 1652.654
744.814, 2239.595
746.106, 2688.368
747.397, 3529.450
748.688, 3947.283
749.978, 3970.976
751.269, 3714.819
752.559, 3047.803
753.849, 2595.217
755.139, 2106.844
756.429, 1612.339
757.719, 1306.434
759.008, 1096.014
760.297, 1019.553
761.586, 876.273
762.875, 735.601
764.163, 790.812
765.451, 702.687
766.739, 686.597
768.027, 631.038
769.315, 477.537
770.602, 456.635
771.890, 372.188
773.177, 361.843
774.463, 336.456
775.750, 332.007
777.036, 340.555
778.323, 246.971
779.609, 273.323
780.894, 225.668
782.180, 227.322
783.465, 252.971
784.750, 171.615
786.035, 190.774
787.320, 257.409
788.605, 215.040
789.889, 383.709
791.173, 318.330
792.457, 390.947
793.741, 439.558
795.024, 346.166
796.307, 352.768
797.591, 336.365
798.873, 414.957
800.156, 430.544
801.439, 463.126
802.721, 601.703
804.003, 682.275
805.285, 825.842
806.566, 1034.404
807.848, 1421.961
809.129, 1799.513
810.410, 2367.059
811.691, 2966.602
812.971, 3508.138
814.252, 3561.669
815.532, 3512.195
816.812, 2886.716
818.092, 2082.232
819.371, 1709.743
820.651, 1214.248
821.930, 873.748
823.209, 707.243
824.488, 489.732
825.766, 488.571
827.045, 450.049
828.323, 346.521
829.601, 336.970
830.878, 291.053
832.156, 187.870
833.433, 231.767
834.710, 185.472
835.987, 136.562
837.264, 103.837
838.540, 103.032
839.817, 61.713
841.093, 121.007
842.369, 117.186
843.644, 118.621
844.920, 50.980
846.195, 42.875
847.470, 42.168
848.745, 78.981
850.020, 55.365
851.294, 83.358
852.568, 60.481
853.842, 3.615
855.116, 75.404
856.390, 36.154
857.663, 29.394
858.936, 96.259
860.209, 3.599
861.482, 39.641
862.755, 73.935
864.027, 46.231
865.299, 17.740
866.571, 37.534
867.843, 5.730
869.115, 66.994
870.386, 55.254
871.657, 131.503
872.928, 23.243
874.199, 12.584
875.470, 20.819
876.740, 27.949
878.010, 103.260
879.280, 55.534
880.550, 3.636
881.820, 54.799
883.089, 36.959
884.358, 68.117
885.627, 16.272
886.896, 2.577
888.164, 38.565
889.433, 43.706
890.701, 3.843
891.969, 34.974
893.236, 24.104
894.504, 88.232
895.771, 16.358
897.038, 28.519
898.305, 65.583
899.572, 14.317
900.838, 27.232
902.105, 29.833
903.371, 8.897
904.637, 17.042
905.902, 24.003
907.168, 60.050
908.433, 63.094
909.698, 8.138
910.963, 75.182
912.228, 18.238
913.492, 84.294
914.757, 7.348
916.021, 21.983
917.285, 55.054
918.548, 1.907
919.812, 91.132
921.075, 36.177
922.338, 0.778
923.601, 126.260
924.864, 12.297
926.126, 84.333
927.388, 150.367
928.650, 123.401
929.912, 102.433
931.174, 65.465
932.435, 99.497
933.697, 118.530
934.958, 163.562
936.218, 94.592
937.479, 22.380
938.739, 24.634
940.000, 102.647
941.260, 6.659
942.520, 138.670
943.779, 24.680
945.039, 119.688
946.298, 120.696
947.557, 93.703
948.816, 63.708
950.074, 118.713
951.333, 97.379
952.591, 106.530
953.849, 106.723
955.107, 117.725
956.365, 98.727
957.622, 111.727
958.879, 120.728
960.136, 126.727
961.393, 104.726
962.650, 70.725
963.906, 31.723
965.162, 111.721
966.418, 166.718
967.674, 27.715
968.930, 184.711
970.185, 132.707
971.441, 131.598
972.696, 173.698
973.950, 149.694
975.205, 150.689
976.459, 197.684
977.714, 175.683
978.968, 251.681
980.222, 271.679
981.475, 214.677
982.729, 357.675
983.982, 234.673
985.235, 373.674
986.488, 400.683
987.740, 476.703
988.993, 586.723
990.245, 649.749
991.497, 899.778
992.749, 961.808
994.000, 1012.847
995.252, 1061.441
996.503, 1040.925
997.754, 968.930
999.005, 892.937
1000.256, 729.022
1001.506, 739.125
1002.756, 639.258
1004.006, 533.408
1005.256, 571.331
1006.506, 454.496
1007.755, 412.651
1009.005, 388.796
1010.254, 262.986
1011.502, 372.533
1012.751, 239.649
1014.000, 317.875
1015.248, 217.119
1016.496, 245.622
1017.744, 277.862
1018.991, 249.975
1020.239, 263.992
1021.486, 250.213
1022.733, 247.477
1023.980, 203.700
1025.227, 200.239
1026.473, 163.484
1027.719, 196.645
1028.965, 220.927
1030.211, 231.304
1031.457, 239.168
1032.702, 211.182
1033.948, 252.771
1035.193, 136.069
1036.438, 180.311
1037.682, 154.907
1038.927, 232.235
1040.171, 267.565
1041.415, 189.531
1042.659, 224.201
1043.903, 161.540
1045.146, 172.965
1046.390, 191.274
1047.633, 218.457
1048.876, 193.808
1050.118, 295.841
1051.361, 185.130
1052.603, 193.593
1053.845, 140.809
1055.087, 214.768
1056.329, 113.129
1057.571, 223.495
1058.812, 153.998
1060.053, 214.238
1061.294, 136.611
1062.535, 105.121
1063.775, 164.495
1065.016, 27.142
1066.256, 160.560
1067.496, 121.955
1068.736, 92.834
1069.975, 152.621
1071.214, 103.154
1072.454, 139.162
1073.693, 168.544
1074.931, 106.902
1076.170, 218.287
1077.408, 159.671
1078.647, 138.057
1079.885, 185.443
1081.122, 113.833
1082.360, 199.409
1083.597, 232.845
1084.835, 286.244
1086.072, 286.642
1087.308, 337.195
1088.545, 303.112
1089.781, 393.514
1091.018, 455.992
1092.254, 439.524
1093.490, 531.927
1094.725, 493.380
1095.961, 693.785
1097.196, 618.190
1098.431, 814.755
1099.666, 924.178
1100.900, 718.600
1102.135, 775.273
1103.369, 648.696
1104.603, 591.224
1105.837, 562.704
1107.071, 496.833
1108.304, 469.623
1109.538, 465.047
1110.771, 478.558
1112.004, 541.228
1113.236, 616.761
1114.469, 762.036
1115.701, 764.616
1116.933, 833.946
1118.165, 829.539
1119.397, 908.109
1120.629, 772.548
1121.860, 825.068
1123.091, 801.492
1124.322, 841.088
1125.553, 828.875
1126.783, 752.718
1128.014, 781.712
1129.244, 652.133
1130.474, 572.553
1131.704, 688.174
1132.933, 660.594
1134.163, 657.119
1135.392, 832.540
1136.621, 816.127
1137.850, 934.553
1139.079, 846.966
1140.307, 808.520
1141.535, 885.488
1142.763, 615.171
1143.991, 618.575
1145.219, 544.198
1146.446, 323.367
1147.674, 439.086
1148.901, 392.589
1150.128, 305.344
1151.354, 275.459
1152.581, 167.201
1153.807, 216.865
1155.033, 148.384
1156.259, 186.775
1157.485, 126.164
1158.710, 72.939
1159.936, 63.324
1161.161, 163.968
1162.386, 76.796
1163.611, 192.181
1164.835, 75.986
1166.060, 37.484
1167.284, 61.956
1168.508, 112.989
1169.732, 46.427
1170.955, 123.184
1172.179, 30.258
1173.402, 111.457
1174.625, 6.100
1175.848, 44.639
1177.070, 117.389
1178.293, 53.960
1179.515, 30.491
1180.737, 113.837
1181.959, 55.690
1183.181, 153.506
1184.402, 63.248
1185.624, 110.444
1186.845, 113.764
1188.066, 76.311
1189.286, 6.381
1190.507, 135.550
1191.727, 30.890
1192.947, 102.236
1194.167, 52.996
1195.387, 87.562
1196.607, 98.834
1197.826, 61.670
1199.045, 28.014
1200.264, 136.277
1201.483, 44.837
1202.702, 60.093
1203.920, 111.434
1205.138, 25.074
1206.356, 93.380
1207.574, 114.876
1208.792, 23.195
1210.009, 102.493
1211.227, 32.761
1212.444, 66.336
1213.661, 54.590
1214.877, 122.363
1216.094, 21.182
1217.310, 25.579
1218.526, 55.076
1219.742, 153.217
1220.958, 91.388
1222.173, 129.512
1223.389, 70.628
1224.604, 91.946
1225.819, 179.070
1227.034, 100.594
1228.248, 25.389
1229.463, 59.463
1230.677, 85.795
1231.891, 82.879
1233.105, 148.200
1234.318, 26.478
1235.532, 144.526
1236.745, 43.569
1237.958, 41.735
1239.171, 124.769
1240.384, 61.798
1241.596, 147.876
1242.809, 142.895
1244.021, 37.325
1245.233, 86.813
1246.444, 99.816
1247.656, 19.813
1248.867, 137.878
1250.079, 55.889
1251.290, 67.868
1252.500, 64.841
1253.711, 85.884
1254.921, 232.928
1256.132, 62.883
1257.342, 36.039
1258.552, 157.975
1259.761, 87.905
1260.971, 48.819
1262.180, 164.727
1263.389, 77.605
1264.598, 44.572
1265.807, 84.379
1267.015, 65.348
1268.223, 149.161
1269.432, 47.937
1270.640, 58.759
1271.847, 159.471
1273.055, 36.174
1274.262, 168.186
1275.470, 110.858
1276.677, 43.763
1277.883, 202.610
1279.090, 67.248
1280.296, 4.134
1281.503, 52.453
1282.709, 91.005
1283.915, 110.547
1285.120, 60.061
1286.326, 12.438
1287.531, 29.044
1288.736, 112.511
1289.941, 42.967
1291.146, 1.624
1292.350, 38.957
1293.555, 51.403
1294.759, 39.448
1295.963, 29.224
1297.167, 22.792
1298.370, 36.083
1299.574, 70.362
1300.777, 107.779
1301.980, 111.383
1303.183, 7.698
1304.386, 115.509
1305.588, 21.297
1306.790, 56.127
1307.993, 122.011
1309.195, 7.862
1310.396, 74.274
1311.598, 80.332
1312.799, 11.625
1314.000, 86.396
1315.201, 20.403
1316.402, 57.392
1317.603, 22.955
1318.803, 30.910
1320.003, 56.728
1321.203, 18.649
1322.403, 50.552
1323.603, 59.439
1324.802, 109.285
1326.002, 9.862
1327.201, 12.968
1328.400, 24.221
1329.599, 47.435
1330.797, 169.322
1331.995, 46.651
1333.194, 108.794
1334.392, 27.861
1335.589, 90.795
1336.787, 87.356
1337.985, 12.980
1339.182, 33.586
1340.379, 120.175
1341.576, 7.750
1342.772, 85.309
1343.969, 138.745
1345.165, 31.275
1346.361, 160.750
1347.557, 3.748
1348.753, 19.737
1349.949, 84.075
1351.144, 37.055
1352.339, 77.426
1353.534, 80.308
1354.729, 85.730
1355.924, 105.030
1357.118, 86.521
1358.312, 5.897
1359.506, 35.278
1360.700, 4.260
1361.894, 24.484
1363.088, 107.824
1364.281, 91.195
1365.474, 102.563
1366.667, 115.036
1367.860, 50.307
1369.052, 94.684
1370.245, 16.072
1371.437, 14.527
1372.629, 123.709
1373.821, 38.962
1375.013, 96.448
1376.204, 37.127
1377.395, 48.368
1378.586, 118.661
1379.777, 121.929
1380.968, 73.264
1382.159, 115.471
1383.349, 210.796
1384.539, 91.757
1385.729, 322.965
1386.919, 22.169
1388.109, 40.660
1389.298, 160.367
1390.487, 123.430
1391.676, 89.605
1392.865, 101.590
1394.054, 159.668
1395.242, 179.493
1396.431, 90.386
1397.619, 89.527
1398.807, 181.414
1399.995, 58.191
1401.182, 164.057
1402.370, 135.955
1403.557, 129.744
1404.744, 141.496
1405.931, 157.341
1407.118, 65.744
1408.304, 190.603
1409.490, 54.851
1410.676, 90.588
1411.862, 220.457
1413.048, 65.116
1414.234, 165.760
1415.419, 169.017
1416.604, 14.133
1417.789, 163.798
1418.974, 26.337
1420.159, 36.936
1421.343, 191.796
1422.528, 176.969
1423.712, 140.997
1424.896, 158.417
1426.079, 132.167
1427.263, 122.304
1428.446, 122.584
1429.629, 126.241
1430.812, 162.306
1431.995, 107.878
1433.178, 36.895
1434.360, 211.315
1435.543, 30.661
1436.725, 114.353
1437.907, 167.189
1439.088, 24.562
1440.270, 166.738
1441.451, 127.540
1442.632, 31.396
1443.813, 160.784
1444.994, 54.430
1446.175, 96.626
1447.355, 186.715
1448.535, 68.878
1449.715, 170.169
1450.895, 219.654
1452.075, 54.961
1453.255, 131.773
1454.434, 107.901
1455.613, 119.727
1456.792, 221.694
1457.971, 165.205
1459.149, 50.494
1460.328, 298.213
1461.506, 138.887
1462.684, 148.333
1463.862, 200.781
1465.040, 115.552
1466.217, 224.295
1467.395, 165.354
1468.572, 122.594
1469.749, 244.894
1470.925, 84.814
1472.102, 144.878
1473.278, 194.011
1474.455, 120.125
1475.631, 231.769
1476.807, 235.115
1477.982, 83.954
1479.158, 135.130
1480.333, 192.351
1481.508, 249.974
1482.683, 230.785
1483.858, 199.566
1485.033, 53.174
1486.207, 235.188
1487.381, 89.203
1488.555, 73.234
1489.729, 213.317
1490.903, 93.448
1492.076, 86.615
1493.250, 326.862
1494.423, 25.185
1495.596, 160.528
1496.769, 259.107
1497.941, 17.021
1499.114, 153.121
1500.286, 174.416
1501.458, 62.922
1502.630, 217.658
1503.802, 86.660
1504.973, 138.980
1506.145, 141.161
1507.316, 104.292
1508.487, 128.602
1509.657, 190.650
1510.828, 151.375
1511.999, 152.980
1513.169, 180.867
1514.339, 1.451
1515.509, 164.668
1516.678, 0.000
##END=



