##NAMES=Mimetite
##RRUFFID=R050007
##IDEAL CHEMISTRY=Pb^2+^_5_(As^5+^O_4_)_3_Cl
##LOCALITY=Pingtouling, Guangdong, China
##OWNER=RRUFF
##SOURCE=Eugene Schlepp
##DESCRIPTION=Reddish orange colored hexagonal prisms
##STATUS=The identification of this mineral has been confirmed by X-ray diffraction and chemical analysis
##URL=rruff.info/R050007
##MEASURED CHEMISTRY=Pb_5.00_((As_0.99_P_0.01_)O_4_)_3_Cl_1.00_
##PIN_ID=L00370
##ORIENTATION=Laser parallel to a* (1 0 0). Fiducial mark perpendicular to laser is parallel to c [0 0 1]
48.666, 0.000
50.068, 0.153
51.471, 37.626
52.873, 76.374
54.275, 11.360
55.677, 67.541
57.079, 82.762
58.480, 74.348
59.882, 100.706
61.283, 130.721
62.683, 106.485
64.084, 97.669
65.484, 82.075
66.884, 59.848
68.284, 15.955
69.684, 13.636
71.083, 8.164
72.482, 24.017
73.881, 14.147
75.280, 16.529
76.678, 33.139
78.076, 73.970
79.474, 132.997
80.872, 234.198
82.270, 327.101
83.667, 398.059
85.064, 588.691
86.461, 800.444
87.858, 990.308
89.254, 1313.276
90.650, 1634.340
92.046, 1976.498
93.442, 2093.742
94.838, 2226.068
96.233, 2536.468
97.628, 2899.930
99.023, 3658.455
100.418, 4270.111
101.812, 4878.955
103.206, 5107.007
104.600, 5066.205
105.994, 5038.466
107.387, 4789.742
108.781, 4606.034
110.174, 4363.345
111.566, 4250.674
112.959, 4117.021
114.351, 3866.389
115.744, 3732.776
117.136, 3494.184
118.527, 3367.612
119.919, 3241.062
121.310, 3194.532
122.701, 3064.274
124.092, 2971.536
125.482, 2876.071
126.873, 2794.627
128.263, 2732.207
129.653, 2599.811
131.042, 2599.441
132.432, 2558.102
133.821, 2441.802
135.210, 2480.531
136.599, 2452.281
137.987, 2505.044
139.376, 2486.812
140.764, 2632.582
142.152, 2649.351
143.539, 2767.082
144.927, 2820.777
146.314, 2995.477
147.701, 3088.193
149.088, 3144.965
150.474, 3337.418
151.861, 3360.567
153.247, 3489.522
154.633, 3540.198
156.018, 3603.031
157.404, 3802.344
158.789, 3782.768
160.174, 3916.854
161.559, 4041.364
162.943, 4133.114
164.327, 4222.840
165.711, 4311.585
167.095, 4348.353
168.479, 4366.143
169.862, 4252.954
171.246, 4126.784
172.628, 3978.633
174.011, 3808.503
175.394, 3570.390
176.776, 3282.296
178.158, 3010.219
179.540, 2832.160
180.922, 2622.117
182.303, 2428.090
183.684, 2284.078
185.065, 2118.082
186.446, 1981.101
187.826, 1838.135
189.207, 1790.184
190.587, 1579.248
191.967, 1567.327
193.346, 1477.420
194.726, 1369.530
196.105, 1270.656
197.484, 1209.795
198.862, 1141.949
200.241, 1081.119
201.619, 1003.310
202.997, 950.125
204.375, 873.760
205.753, 836.028
207.130, 758.325
208.507, 695.652
209.884, 715.997
211.261, 639.378
212.638, 610.807
214.014, 607.257
215.390, 528.461
216.766, 508.464
218.141, 461.357
219.517, 442.142
220.892, 426.655
222.267, 353.202
223.642, 334.664
225.016, 352.039
226.391, 264.135
227.765, 270.137
229.139, 247.068
230.512, 232.030
231.886, 201.989
233.259, 170.906
234.632, 134.395
236.005, 127.589
237.377, 95.985
238.749, 64.140
240.122, 63.975
241.493, 52.914
242.865, 60.045
244.237, 59.387
245.608, 22.768
246.979, 23.171
248.350, 0.409
249.720, 23.034
251.090, 30.500
252.461, 16.979
253.830, 26.526
255.200, 6.983
256.570, 37.496
257.939, 34.966
259.308, 34.424
260.677, 7.872
262.045, 45.303
263.414, 13.727
264.782, 21.143
266.150, 15.552
267.517, 35.952
268.885, 12.352
270.252, 18.744
271.619, 15.132
272.986, 3.517
274.353, 0.105
275.719, 56.737
277.085, 44.373
278.451, 81.016
279.817, 86.662
281.182, 89.313
282.548, 97.968
283.913, 148.626
285.278, 159.288
286.642, 169.953
288.007, 243.621
289.371, 307.292
290.735, 427.964
292.099, 500.638
293.462, 651.315
294.826, 781.993
296.189, 993.673
297.552, 1279.354
298.914, 1538.036
300.277, 1856.719
301.639, 2183.401
303.001, 2454.085
304.363, 2631.769
305.724, 2746.453
307.086, 2757.137
308.447, 2617.821
309.808, 2550.505
311.168, 2423.191
312.529, 2330.876
313.889, 2281.560
315.249, 2236.237
316.609, 2183.920
317.969, 2176.594
319.328, 2208.247
320.687, 2268.021
322.046, 2396.736
323.405, 2539.473
324.764, 2748.181
326.122, 3056.919
327.480, 3256.718
328.838, 3689.510
330.196, 3935.241
331.553, 4189.036
332.910, 4460.807
334.267, 4600.587
335.624, 4615.473
336.981, 4658.379
338.337, 4514.306
339.693, 4420.149
341.049, 4182.938
342.405, 3957.731
343.760, 3634.616
345.116, 3454.394
346.471, 3046.314
347.826, 2811.323
349.180, 2548.424
350.535, 2255.762
351.889, 2036.663
353.243, 1826.284
354.597, 1641.459
355.950, 1487.132
357.304, 1341.817
358.657, 1233.775
360.010, 1117.708
361.362, 1029.120
362.715, 949.585
364.067, 886.062
365.419, 851.028
366.771, 808.405
368.123, 772.741
369.474, 780.297
370.825, 753.180
372.176, 720.393
373.527, 756.121
374.877, 728.190
376.228, 727.385
377.578, 734.916
378.928, 785.908
380.277, 830.044
381.627, 856.102
382.976, 957.538
384.325, 1087.562
385.674, 1227.176
387.023, 1288.394
388.371, 1478.311
389.719, 1575.154
391.067, 1642.403
392.415, 1595.884
393.762, 1524.965
395.110, 1552.088
396.457, 1582.703
397.804, 1596.915
399.150, 1634.056
400.497, 1873.120
401.843, 2063.800
403.189, 2346.037
404.535, 2667.447
405.881, 2963.535
407.226, 3226.922
408.571, 3283.676
409.916, 3321.386
411.261, 3179.664
412.605, 2860.834
413.950, 2584.012
415.294, 2170.232
416.638, 1954.764
417.981, 1694.240
419.325, 1550.999
420.668, 1442.382
422.011, 1381.789
423.354, 1401.688
424.697, 1381.545
426.039, 1310.451
427.381, 1298.257
428.723, 1239.911
430.065, 1189.810
431.406, 1101.338
432.748, 1017.323
434.089, 910.010
435.430, 876.822
436.770, 853.902
438.111, 787.035
439.451, 801.363
440.791, 687.434
442.131, 630.562
443.471, 614.571
444.810, 541.563
446.149, 501.648
447.488, 475.565
448.827, 395.444
450.166, 402.221
451.504, 353.999
452.842, 346.869
454.180, 314.727
455.518, 292.483
456.855, 288.239
458.193, 271.918
459.530, 254.947
460.867, 240.885
462.203, 216.044
463.540, 204.655
464.876, 191.767
466.212, 181.452
467.548, 175.445
468.883, 167.034
470.219, 166.630
471.554, 155.840
472.889, 141.729
474.224, 119.290
475.558, 120.825
476.892, 100.321
478.227, 99.873
479.561, 100.275
480.894, 67.690
482.228, 80.071
483.561, 71.628
484.894, 76.956
486.227, 68.416
487.559, 53.707
488.892, 54.978
490.224, 69.230
491.556, 53.477
492.888, 58.742
494.220, 55.936
495.551, 34.110
496.882, 31.264
498.213, 28.397
499.544, 38.509
500.874, 50.600
502.205, 49.167
503.535, 31.892
504.865, 50.923
506.194, 26.934
507.524, 20.923
508.853, 16.890
510.182, 9.834
511.511, 26.752
512.840, 3.648
514.168, 13.516
515.496, 3.361
516.824, 18.176
518.152, 1.969
519.480, 18.267
520.807, 6.457
522.134, 5.155
523.461, 14.175
524.788, 29.458
526.114, 6.070
527.441, 6.655
528.767, 13.786
530.093, 19.264
531.418, 24.782
532.744, 17.342
534.069, 11.060
535.394, 7.438
536.719, 0.790
538.044, 22.887
539.368, 9.604
540.693, 8.645
542.017, 15.131
543.340, 8.942
544.664, 2.787
545.987, 44.662
547.311, 9.413
548.634, 23.537
549.956, 1.474
551.279, 18.542
552.601, 12.595
553.923, 2.318
555.245, 17.206
556.567, 15.928
557.889, 15.096
559.210, 1.701
560.531, 10.473
561.852, 17.776
563.173, 5.061
564.493, 16.374
565.813, 5.721
567.133, 12.097
568.453, 4.497
569.773, 21.932
571.092, 20.397
572.412, 5.896
573.731, 6.418
575.049, 9.966
576.368, 5.461
577.686, 7.133
579.005, 15.746
580.323, 16.384
581.640, 24.047
582.958, 18.065
584.275, 8.537
585.593, 0.199
586.909, 10.953
588.226, 5.270
589.543, 8.520
590.859, 4.333
592.175, 16.836
593.491, 11.011
594.807, 14.881
596.122, 5.222
597.438, 3.693
598.753, 10.373
600.068, 0.578
601.382, 15.453
602.697, 14.467
604.011, 1.534
605.325, 22.446
606.639, 26.411
607.952, 52.361
609.266, 40.296
610.579, 13.217
611.892, 11.122
613.205, 30.012
614.518, 24.887
615.830, 42.748
617.142, 22.595
618.454, 26.427
619.766, 12.246
621.078, 47.051
622.389, 38.841
623.700, 16.619
625.011, 29.383
626.322, 17.134
627.632, 9.871
628.943, 23.596
630.253, 2.307
631.563, 2.005
632.872, 2.690
634.182, 6.362
635.491, 2.990
636.800, 18.641
638.109, 9.263
639.418, 11.736
640.726, 7.751
642.035, 12.713
643.343, 5.812
644.651, 11.615
645.958, 11.969
647.266, 19.318
648.573, 2.716
649.880, 1.963
651.187, 39.370
652.494, 3.682
653.800, 33.877
655.106, 29.039
656.412, 14.167
657.718, 4.368
659.024, 10.389
660.329, 7.836
661.634, 21.957
662.939, 14.173
664.244, 15.234
665.549, 27.194
666.853, 21.050
668.157, 28.655
669.461, 19.686
670.765, 23.984
672.069, 38.716
673.372, 20.993
674.675, 22.854
675.978, 40.046
677.281, 39.969
678.583, 34.402
679.886, 24.770
681.188, 31.950
682.490, 28.028
683.792, 53.372
685.093, 38.819
686.394, 42.033
687.696, 62.906
688.997, 37.439
690.297, 73.443
691.598, 65.094
692.898, 51.605
694.198, 72.769
695.498, 68.454
696.798, 61.982
698.097, 67.575
699.397, 67.776
700.696, 80.376
701.995, 104.374
703.293, 125.756
704.592, 74.429
705.890, 114.164
707.188, 102.485
708.486, 116.564
709.784, 122.033
711.081, 124.452
712.378, 147.370
713.675, 150.687
714.972, 162.576
716.269, 174.066
717.565, 182.381
718.862, 187.661
720.158, 187.764
721.453, 183.179
722.749, 202.287
724.045, 248.019
725.340, 274.784
726.635, 231.951
727.930, 289.240
729.224, 289.464
730.519, 318.683
731.813, 320.709
733.107, 331.655
734.401, 353.919
735.694, 399.671
736.988, 431.413
738.281, 450.706
739.574, 479.403
740.867, 521.477
742.160, 599.355
743.452, 582.589
744.744, 692.678
746.036, 767.131
747.328, 787.878
748.620, 893.049
749.911, 990.451
751.202, 1170.650
752.493, 1328.820
753.784, 1461.786
755.075, 1742.000
756.365, 1939.153
757.655, 2306.418
758.945, 2573.690
760.235, 2980.861
761.525, 3427.190
762.814, 3706.546
764.103, 4054.000
765.392, 4169.441
766.681, 3977.783
767.969, 3772.128
769.258, 3391.563
770.546, 3000.992
771.834, 2758.489
773.122, 2527.933
774.409, 2318.406
775.697, 2222.834
776.984, 2112.364
778.271, 2150.905
779.558, 2116.399
780.844, 2190.964
782.131, 2364.497
783.417, 2488.012
784.703, 2635.602
785.989, 2775.122
787.274, 3001.658
788.560, 3086.221
789.845, 3194.814
791.130, 3589.343
792.415, 3864.020
793.699, 4303.677
794.983, 4831.365
796.268, 5773.872
797.552, 6957.599
798.835, 8344.191
800.119, 11013.945
801.402, 14272.716
802.686, 18921.496
803.969, 25350.287
805.251, 31269.045
806.534, 37007.871
807.816, 41706.715
809.098, 44615.574
810.380, 48614.445
811.662, 51433.312
812.944, 55542.211
814.225, 55700.949
815.506, 54019.855
816.787, 50488.785
818.068, 43537.727
819.349, 35596.672
820.629, 30445.631
821.909, 24674.605
823.189, 20833.600
824.469, 17472.600
825.749, 14891.620
827.028, 13200.652
828.307, 11509.700
829.586, 10638.765
830.865, 9547.841
832.144, 8690.946
833.422, 8134.065
834.700, 7420.202
835.978, 6948.361
837.256, 6488.532
838.534, 5863.720
839.811, 5754.924
841.088, 5287.149
842.365, 5021.395
843.642, 4753.678
844.919, 4348.969
846.195, 4266.276
847.472, 3929.596
848.748, 3802.935
850.023, 3626.297
851.299, 3464.677
852.575, 3282.073
853.850, 3120.490
855.125, 2957.925
856.400, 2837.379
857.674, 2532.861
858.949, 2444.357
860.223, 2241.876
861.497, 2009.412
862.771, 1937.969
864.045, 1763.546
865.318, 1712.139
866.591, 1595.748
867.864, 1545.375
869.137, 1511.022
870.410, 1436.758
871.682, 1395.750
872.955, 1350.838
874.227, 1303.877
875.499, 1231.813
876.770, 1204.854
878.042, 1190.625
879.313, 1181.341
880.584, 1113.152
881.855, 1123.978
883.126, 1058.180
884.396, 1014.422
885.667, 986.621
886.937, 917.660
888.207, 858.610
889.476, 795.937
890.746, 716.356
892.015, 752.319
893.284, 661.316
894.553, 672.310
895.822, 647.317
897.090, 547.364
898.359, 505.400
899.627, 496.624
900.895, 446.982
902.163, 461.330
903.430, 408.866
904.698, 415.421
905.965, 358.553
907.232, 314.686
908.499, 354.358
909.765, 331.900
911.032, 303.141
912.298, 291.474
913.564, 298.664
914.830, 303.864
916.095, 307.609
917.361, 311.892
918.626, 325.557
919.891, 309.799
921.156, 322.050
922.420, 306.757
923.685, 276.072
924.949, 245.354
926.213, 215.646
927.477, 162.585
928.740, 190.929
930.004, 152.809
931.267, 181.192
932.530, 155.515
933.793, 158.903
935.056, 134.383
936.318, 90.526
937.581, 132.924
938.843, 105.262
940.104, 119.922
941.366, 67.335
942.628, 103.747
943.889, 111.920
945.150, 91.851
946.411, 99.219
947.672, 114.281
948.932, 117.293
950.193, 110.058
951.453, 79.939
952.713, 117.265
953.973, 117.738
955.232, 90.282
956.491, 152.708
957.751, 128.231
959.010, 132.449
960.268, 83.224
961.527, 97.890
962.785, 106.497
964.044, 114.035
965.302, 77.579
966.559, 73.131
967.817, 103.688
969.075, 64.252
970.332, 81.844
971.589, 60.424
972.846, 56.448
974.102, 76.043
975.359, 84.635
976.615, 49.232
977.871, 41.835
979.127, 50.496
980.383, 61.122
981.638, 34.740
982.893, 41.380
984.149, 91.050
985.404, 50.770
986.658, 50.837
987.913, 68.478
989.167, 38.123
990.421, 54.888
991.675, 51.543
992.929, 22.201
994.183, 1.124
995.436, 39.542
996.689, 30.211
997.942, 35.884
999.195, 47.594
1000.448, 28.315
1001.700, 22.997
1002.952, 55.765
1004.204, 18.453
1005.456, 36.144
1006.708, 15.837
1007.959, 13.534
1009.210, 35.233
1010.461, 12.935
1011.712, 32.640
1012.963, 23.357
1014.213, 8.065
1015.464, 27.776
1016.714, 29.431
1017.964, 9.274
1019.214, 34.994
1020.463, 4.296
1021.712, 1.586
1022.962, 20.874
1024.210, 12.165
1025.459, 8.456
1026.708, 10.749
1027.956, 31.956
1029.204, 24.337
1030.452, 0.362
1031.700, 22.062
1032.948, 11.239
1034.195, 11.543
1035.442, 9.850
1036.689, 26.162
1037.936, 1.484
1039.183, 10.807
1040.429, 12.134
1041.676, 18.533
1042.922, 0.199
1044.168, 10.863
1045.413, 14.258
1046.659, 20.809
1047.904, 14.843
1049.149, 3.503
1050.394, 5.853
1051.639, 39.207
1052.884, 25.582
1054.128, 7.973
1055.372, 1.633
1056.616, 4.236
1057.860, 25.164
1059.104, 5.578
1060.347, 1.001
1061.590, 0.424
1062.833, 28.147
1064.076, 59.715
1065.319, 14.719
1066.561, 24.834
1067.803, 27.385
1069.046, 8.933
1070.287, 39.483
1071.529, 3.971
1072.771, 26.568
1074.012, 58.103
1075.253, 36.634
1076.494, 4.838
1077.735, 7.680
1078.975, 2.802
1080.216, 10.293
1081.456, 8.798
1082.696, 9.315
1083.936, 7.154
1085.175, 4.383
1086.415, 7.929
1087.654, 6.489
1088.893, 27.063
1090.132, 14.340
1091.371, 25.738
1092.609, 17.870
1093.847, 2.503
1095.085, 4.133
1096.323, 1.218
1097.561, 2.558
1098.799, 9.113
1100.036, 6.200
1101.273, 1.280
1102.510, 3.205
1103.747, 3.929
1104.983, 1.667
1106.220, 2.792
1107.456, 2.550
1108.692, 13.037
1109.928, 17.251
1111.163, 20.458
1112.399, 35.657
1113.634, 45.852
1114.869, 40.964
1116.104, 44.032
1117.339, 34.401
1118.573, 27.573
1119.808, 32.738
1121.042, 11.897
1122.276, 33.045
1123.509, 59.189
1124.743, 52.326
1125.976, 49.487
1127.210, 28.612
1128.443, 35.731
1129.675, 66.843
1130.908, 35.948
1132.141, 2.072
1133.373, 29.155
1134.605, 16.230
1135.837, 57.295
1137.068, 49.352
1138.300, 29.451
1139.531, 81.693
1140.762, 67.775
1141.993, 42.845
1143.224, 47.853
1144.455, 50.867
1145.685, 58.874
1146.915, 39.875
1148.145, 38.869
1149.375, 68.886
1150.605, 35.863
1151.834, 77.918
1153.063, 75.891
1154.292, 69.852
1155.521, 64.161
1156.750, 63.100
1157.978, 62.032
1159.207, 78.353
1160.435, 52.311
1161.663, 60.219
1162.891, 69.220
1164.118, 41.144
1165.345, 55.612
1166.573, 53.086
1167.800, 70.488
1169.026, 73.426
1170.253, 98.427
1171.480, 103.302
1172.706, 91.293
1173.932, 69.030
1175.158, 61.621
1176.383, 81.949
1177.609, 83.856
1178.834, 76.770
1180.059, 60.622
1181.284, 98.119
1182.509, 109.659
1183.734, 99.098
1184.958, 113.834
1186.182, 82.687
1187.406, 72.021
1188.630, 97.342
1189.854, 102.176
1191.077, 116.877
1192.301, 123.829
1193.524, 66.528
1194.747, 111.196
1195.969, 63.762
1197.192, 95.285
1198.414, 105.722
1199.636, 99.307
1200.858, 109.514
1202.080, 104.302
1203.302, 111.995
1204.523, 84.621
1205.744, 118.941
1206.966, 125.165
1208.186, 133.799
1209.407, 84.281
1210.628, 114.866
1211.848, 107.496
1213.068, 80.108
1214.288, 126.787
1215.508, 112.466
1216.727, 116.138
1217.947, 114.675
1219.166, 119.864
1220.385, 157.384
1221.604, 130.907
1222.822, 111.413
1224.041, 153.273
1225.259, 110.733
1226.477, 127.707
1227.695, 119.176
1228.913, 107.769
1230.130, 126.187
1231.348, 115.619
1232.565, 132.577
1233.782, 141.040
1234.999, 108.513
1236.215, 125.700
1237.432, 124.123
1238.648, 114.524
1239.864, 123.207
1241.080, 136.295
1242.296, 67.753
1243.511, 115.513
1244.726, 89.355
1245.942, 93.416
1247.156, 126.402
1248.371, 78.944
1249.586, 88.358
1250.800, 105.646
1252.014, 91.121
1253.228, 84.464
1254.442, 60.082
1255.656, 74.166
1256.869, 129.337
1258.083, 50.615
1259.296, 107.942
1260.509, 102.238
1261.722, 68.693
1262.934, 87.032
1264.147, 108.336
1265.359, 61.585
1266.571, 73.848
1267.783, 72.667
1268.994, 71.082
1270.206, 77.078
1271.417, 40.877
1272.628, 72.154
1273.839, 71.330
1275.050, 48.588
1276.260, 68.858
1277.471, 42.048
1278.681, 70.201
1279.891, 88.301
1281.101, 60.051
1282.310, 90.224
1283.520, 35.391
1284.729, 16.436
1285.938, 35.615
1287.147, 36.797
1288.356, 46.924
1289.564, 56.059
1290.773, 58.196
1291.981, 46.332
1293.189, 46.404
1294.397, 38.793
1295.604, 55.563
1296.812, 26.676
1298.019, 43.758
1299.226, 44.844
1300.433, 6.906
1301.640, 49.138
1302.846, 58.186
1304.053, 5.229
1305.259, 36.304
1306.465, 46.315
1307.671, 24.395
1308.876, 38.413
1310.082, 44.334
1311.287, 16.333
1312.492, 0.312
1313.697, 18.295
1314.902, 16.274
1316.106, 2.754
1317.310, 1.212
1318.515, 22.171
1319.719, 30.125
1320.922, 0.075
1322.126, 36.017
1323.329, 19.956
1324.533, 28.888
1325.736, 25.814
1326.939, 16.733
1328.141, 56.690
1329.344, 18.597
1330.546, 16.503
1331.748, 64.403
1332.950, 27.317
1334.152, 20.210
1335.354, 46.920
1336.555, 9.801
1337.757, 46.674
1338.958, 58.542
1340.159, 6.592
1341.359, 38.265
1342.560, 28.147
1343.760, 11.993
1344.960, 48.842
1346.160, 2.290
1347.360, 25.554
1348.560, 45.393
1349.759, 9.227
1350.959, 43.062
1352.158, 19.894
1353.357, 31.721
1354.555, 43.545
1355.754, 29.362
1356.952, 24.175
1358.151, 17.987
1359.349, 16.774
1360.546, 11.446
1361.744, 43.324
1362.941, 14.087
1364.139, 49.847
1365.336, 39.049
1366.533, 59.797
1367.730, 44.539
1368.926, 9.682
1370.123, 28.047
1371.319, 28.773
1372.515, 17.500
1373.711, 50.225
1374.906, 17.952
1376.102, 3.630
1377.297, 27.299
1378.492, 42.003
1379.687, 30.642
1380.882, 33.256
1382.077, 43.838
1383.271, 28.838
1384.465, 7.846
1385.659, 36.859
1386.853, 52.882
1388.047, 30.912
1389.240, 50.954
1390.434, 29.007
1391.627, 29.062
1392.820, 25.112
1394.013, 49.156
1395.205, 22.193
1396.398, 31.225
1397.590, 54.256
1398.782, 33.245
1399.974, 86.262
1401.166, 27.274
1402.357, 32.257
1403.549, 57.274
1404.740, 10.231
1405.931, 24.948
1407.122, 31.902
1408.313, 38.904
1409.503, 40.898
1410.693, 54.853
1411.883, 9.722
1413.073, 20.239
1414.263, 5.219
1415.453, 27.624
1416.642, 82.462
1417.831, 26.377
1419.020, 23.380
1420.209, 69.889
1421.398, 41.188
1422.587, 52.873
1423.775, 44.014
1424.963, 69.653
1426.151, 65.227
1427.339, 41.937
1428.526, 28.612
1429.714, 26.234
1430.901, 43.745
1432.088, 53.622
1433.275, 30.086
1434.462, 28.529
1435.648, 61.430
1436.835, 31.150
1438.021, 40.605
1439.207, 11.184
1440.393, 38.920
1441.579, 29.416
1442.764, 55.047
1443.949, 3.572
1445.135, 54.336
1446.320, 80.112
1447.504, 16.934
1448.689, 56.381
1449.873, 12.922
1451.058, 24.993
1452.242, 27.650
1453.426, 46.331
1454.609, 37.556
1455.793, 45.242
1456.976, 53.726
1458.159, 51.368
1459.342, 66.900
1460.525, 45.319
1461.708, 45.888
1462.890, 93.380
1464.073, 27.901
1465.255, 79.936
1466.437, 70.409
1467.619, 59.926
1468.800, 45.806
1469.982, 14.573
1471.163, 67.898
1472.344, 86.193
1473.525, 45.663
1474.706, 20.136
1475.886, 49.601
1477.066, 10.131
1478.247, 42.306
1479.427, 26.656
1480.607, 62.104
1481.786, 69.198
1482.966, 62.595
1484.145, 15.441
1485.324, 45.891
1486.503, 41.202
1487.682, 18.393
1488.860, 48.871
1490.039, 28.350
1491.217, 47.818
1492.395, 58.281
1493.573, 31.738
1494.751, 66.198
1495.928, 35.662
1497.106, 24.928
1498.283, 57.446
1499.460, 49.862
1500.637, 36.338
1501.814, 40.603
1502.990, 25.854
1504.166, 32.874
1505.342, 66.106
1506.518, 3.836
1507.694, 96.324
1508.870, 32.426
1510.045, 9.456
1511.221, 30.408
1512.396, 53.506
1513.571, 52.836
1514.745, 80.198
1515.920, 4.380
1517.094, 12.531
1518.269, 35.835
1519.443, 0.064
1520.616, 10.413
1521.790, 5.508
