##NAMES=Mimetite
##RRUFFID=R050527
##IDEAL CHEMISTRY=Pb^2+^_5_(As^5+^O_4_)_3_Cl
##LOCALITY=Tsumeb mine, Tsumeb, Otavi District, Oshikoto, Namibia
##OWNER=RRUFF
##SOURCE=University of Arizona Mineral Museum
##DESCRIPTION=Yellow hexagonal prisms, monoclinic polytype
##STATUS=The identification of this mineral has been confirmed by X-ray diffraction and chemical analysis
##URL=rruff.info/R050527
##MEASURED CHEMISTRY=Pb_5.00_(As_1.00_O_4_)_3_Cl_1.00_
##PIN_ID=M00655
##ORIENTATION=Laser parallel to a* (1 0 0). Fiducial mark perpendicular to laser is parallel to c [0 0 1]
43.47600, 0.0000000E+00
44.72200, 3.968658
45.96700, 5.608582
47.21200, 16.98865
48.45600, 16.77484
49.70100, 31.04520
50.94500, 40.98135
52.19000, 47.27173
53.43400, 45.56946
54.67800, 34.50388
55.92100, 56.86194
57.16500, 66.77448
58.40800, 72.18225
59.65200, 87.13483
60.89500, 80.66248
62.13700, 58.14328
63.38000, 46.90384
64.62300, 44.93982
65.86500, 33.24326
67.10700, 25.74078
68.34900, 1.611206
69.59100, 8.655487
70.83300, 9.071686
72.07400, 17.57773
73.31600, 12.86896
74.55700, 17.95126
75.79800, 18.82974
77.03900, 13.50903
78.27900, 5.993286
79.52000, 13.71378
80.76000, 34.60846
82.00000, 121.6832
83.24000, 169.9279
84.48000, 292.3330
85.72000, 411.8890
86.95900, 608.5877
88.19900, 823.4206
89.43800, 991.3789
90.67700, 1242.459
91.91600, 1409.656
93.15400, 1638.970
94.39300, 1875.398
95.63100, 2168.939
96.86900, 2587.592
98.10700, 2974.356
99.34500, 3526.229
100.5820, 3929.213
101.8200, 4383.307
103.0570, 4603.506
104.2940, 4633.814
105.5310, 4668.227
106.7680, 4672.748
108.0040, 4551.373
109.2410, 4478.104
110.4770, 4370.952
111.7130, 4170.876
112.9490, 4091.918
114.1850, 4005.062
115.4200, 3826.307
116.6560, 3730.655
117.8910, 3736.091
119.1260, 3606.579
120.3610, 3545.116
121.5960, 3364.700
122.8300, 3340.325
124.0640, 3207.991
125.2990, 3109.692
126.5330, 3028.428
127.7670, 2920.194
129.0000, 2945.995
130.2340, 2887.826
131.4670, 2895.678
132.7000, 2816.539
133.9330, 2800.420
135.1660, 2722.335
136.3990, 2824.303
137.6310, 2773.324
138.8640, 2682.403
140.0960, 2853.539
141.3280, 2838.735
142.5600, 2955.990
143.7910, 3072.305
145.0230, 3172.681
146.2540, 3304.119
147.4850, 3421.619
148.7160, 3539.637
149.9470, 3621.807
151.1780, 3758.497
152.4080, 3929.250
153.6380, 3991.067
154.8690, 4232.946
156.0980, 4278.893
157.3280, 4413.935
158.5580, 4496.007
159.7870, 4578.144
161.0170, 4610.346
162.2460, 4673.609
163.4750, 4775.938
164.7030, 4956.331
165.9320, 4953.785
167.1600, 4982.305
168.3890, 4906.887
169.6170, 5072.533
170.8450, 4888.242
172.0730, 4773.013
173.3000, 4628.847
174.5280, 4308.743
175.7550, 3997.701
176.9820, 3764.720
178.2090, 3460.801
179.4350, 3249.943
180.6620, 3058.145
181.8880, 2842.405
183.1150, 2689.727
184.3410, 2485.107
185.5670, 2310.545
186.7920, 2291.041
188.0180, 2178.594
189.2430, 1954.205
190.4690, 1930.871
191.6940, 1804.440
192.9180, 1735.999
194.1430, 1682.541
195.3680, 1568.071
196.5920, 1525.580
197.8160, 1439.072
199.0400, 1322.540
200.2640, 1321.993
201.4880, 1252.429
202.7110, 1147.814
203.9350, 1073.227
205.1580, 1046.607
206.3810, 1015.908
207.6040, 969.2156
208.8270, 956.5508
210.0490, 879.8255
211.2710, 845.9728
212.4940, 784.5764
213.7160, 751.0336
214.9370, 733.5403
216.1590, 693.3265
217.3810, 693.7688
218.6020, 651.2946
219.8230, 611.7968
221.0440, 573.9213
222.2650, 528.8880
223.4860, 475.0341
224.7060, 453.6467
225.9260, 408.6998
227.1470, 419.9755
228.3670, 387.3097
229.5860, 369.7044
230.8060, 346.1609
232.0260, 306.6790
233.2450, 316.2561
234.4640, 304.8906
235.6830, 292.5837
236.9020, 246.3285
238.1200, 240.3019
239.3390, 195.9709
240.5570, 217.8680
241.7750, 219.8170
242.9930, 239.8192
244.2110, 241.8737
245.4290, 230.0940
246.6460, 179.1306
247.8630, 193.3370
249.0810, 165.5928
250.2980, 137.8994
251.5140, 177.2557
252.7310, 137.6674
253.9470, 119.1282
255.1640, 88.64453
256.3800, 75.20276
257.5960, 27.80957
258.8120, 53.45605
260.0270, 65.14600
261.2430, 75.88599
262.4580, 28.66492
263.6730, 52.48938
264.8880, 6.358398
266.1030, 36.27869
267.3170, 10.24292
268.5320, 26.24878
269.7460, 2.705688
270.9600, 32.37781
272.1740, 4.500610
273.3880, 25.66797
274.6010, 38.87561
275.8150, 13.12427
277.0280, 56.40930
278.2410, 71.73694
279.4540, 58.10181
280.6670, 40.50610
281.8790, 100.9508
283.0920, 58.43616
284.3040, 135.9613
285.5160, 153.5258
286.7280, 194.1296
287.9400, 232.7731
289.1510, 318.4567
290.3630, 394.1785
291.5740, 505.9395
292.7850, 656.7380
293.9960, 809.5742
295.2070, 953.4458
296.4170, 1156.353
297.6280, 1331.293
298.8380, 1567.269
300.0480, 1856.282
301.2580, 2032.330
302.4680, 2367.411
303.6770, 2436.527
304.8870, 2561.677
306.0960, 2552.858
307.3050, 2439.072
308.5140, 2253.317
309.7230, 2150.592
310.9310, 2004.899
312.1400, 1889.234
313.3480, 1858.600
314.5560, 1814.993
315.7640, 1832.415
316.9720, 1768.864
318.1790, 1925.341
319.3870, 1987.845
320.5940, 2087.376
321.8010, 2316.933
323.0080, 2457.517
324.2150, 2746.126
325.4210, 3068.761
326.6280, 3333.421
327.8340, 3664.107
329.0400, 4022.816
330.2460, 4288.550
331.4510, 4507.309
332.6570, 4912.092
333.8620, 4959.897
335.0680, 5075.727
336.2730, 5203.578
337.4780, 5098.457
338.6820, 5149.368
339.8870, 4931.306
341.0910, 4570.271
342.2950, 4415.266
343.5000, 4178.291
344.7030, 3836.394
345.9070, 3572.179
347.1110, 3237.289
348.3140, 2932.645
349.5170, 2665.884
350.7200, 2413.124
351.9230, 2158.299
353.1260, 1924.792
354.3290, 1759.131
355.5310, 1611.445
356.7330, 1401.788
357.9350, 1305.623
359.1370, 1092.217
360.3390, 1010.706
361.5400, 953.4128
362.7420, 843.9036
363.9430, 762.5356
365.1440, 742.9446
366.3450, 691.0502
367.5460, 672.5181
368.7460, 668.1675
369.9470, 578.5684
371.1470, 537.0122
372.3470, 560.1514
373.5470, 577.9225
374.7460, 591.1514
375.9460, 566.5564
377.1450, 595.5297
378.3450, 655.2672
379.5440, 735.4853
380.7430, 795.6506
381.9410, 878.6726
383.1400, 960.6093
384.3380, 1056.299
385.5370, 1158.574
386.7350, 1273.251
387.9320, 1449.872
389.1300, 1485.790
390.3280, 1638.139
391.5250, 1673.220
392.7220, 1693.682
393.9190, 1644.529
395.1160, 1607.260
396.3130, 1662.441
397.5100, 1707.315
398.7060, 1810.759
399.9020, 1927.210
401.0980, 2068.236
402.2940, 2178.438
403.4900, 2495.552
404.6860, 2754.308
405.8810, 2862.625
407.0760, 3129.534
408.2710, 3223.334
409.4660, 3396.783
410.6610, 3252.555
411.8550, 3146.795
413.0500, 2919.697
414.2440, 2614.224
415.4380, 2301.080
416.6320, 2033.204
417.8260, 1780.392
419.0190, 1638.764
420.2130, 1464.143
421.4060, 1377.919
422.5990, 1371.527
423.7920, 1338.640
424.9850, 1270.972
426.1770, 1235.491
427.3700, 1224.774
428.5620, 1166.057
429.7540, 1131.474
430.9460, 1087.991
432.1380, 1057.883
433.3290, 1077.960
434.5210, 1025.549
435.7120, 1004.827
436.9030, 1027.226
438.0940, 951.1875
439.2850, 932.1378
440.4750, 843.8642
441.6660, 847.9380
442.8560, 831.4855
444.0460, 782.8221
445.2360, 716.6621
446.4260, 740.0113
447.6160, 693.1370
448.8050, 624.7824
449.9940, 592.7772
451.1830, 529.3737
452.3720, 557.3489
453.5610, 501.1380
454.7500, 462.6616
455.9380, 457.3014
457.1260, 374.7933
458.3150, 321.2852
459.5020, 295.8177
460.6900, 222.3086
461.8780, 241.7986
463.0650, 179.2875
464.2530, 190.7753
465.4400, 164.2615
466.6270, 117.7462
467.8130, 122.2290
469.0000, 124.7097
470.1870, 98.18811
471.3730, 74.66412
472.5590, 81.13739
473.7450, 69.60791
474.9310, 72.07538
476.1160, 62.03326
477.3020, 62.00043
478.4870, 39.45758
479.6720, 44.91095
480.8570, 32.36029
482.0420, 41.80542
483.2270, 27.24609
484.4110, 3.731018
485.5960, 17.16217
486.7800, 29.41187
487.9640, 21.00110
489.1480, 10.39716
490.3310, 7.199219
491.5150, 1.707397
492.6980, 0.3076780
493.8810, 23.93835
495.0640, 6.563293
496.2470, 0.2192380
497.4300, 15.26459
498.6120, 4.689148
499.7950, 30.97034
500.9770, 3.605042
502.1590, 22.15765
503.3410, 4.235413
504.5220, 6.198242
505.7040, 21.10144
506.8850, 15.73389
508.0660, 27.26196
509.2470, 14.36938
510.4280, 12.86102
511.6090, 10.90662
512.7890, 10.64594
513.9700, 21.73743
515.1500, 31.46240
516.3300, 38.23334
517.5100, 40.01892
518.6900, 31.79089
519.8690, 26.81305
521.0490, 33.86365
522.2280, 4.946899
523.4070, 5.010010
524.5860, 8.926025
525.7640, 3.631348
526.9430, 12.77826
528.1210, 18.55243
529.3000, 16.76715
530.4780, 4.009399
531.6560, 10.56671
532.8330, 21.56189
534.0110, 10.88190
535.1880, 16.22815
536.3650, 13.60358
537.5430, 35.72247
538.7190, 14.02997
539.8960, 37.86401
541.0730, 13.61981
542.2490, 13.90039
543.4250, 28.84937
544.6020, 2.271179
545.7780, 23.32996
546.9530, 24.03931
548.1290, 8.614197
549.3040, 6.297302
550.4800, 32.00903
551.6550, 4.763367
552.8300, 4.453979
554.0040, 11.76196
555.1790, 21.93451
556.3540, 14.08960
557.5280, 7.775757
558.7020, 8.327698
559.8760, 5.407837
561.0500, 36.46307
562.2230, 0.4974370
563.3970, 25.51379
564.5700, 12.50696
565.7430, 8.477722
566.9160, 5.424011
568.0890, 10.34424
569.2620, 10.24060
570.4340, 8.969299
571.6070, 6.960083
572.7790, 4.781372
573.9510, 11.57568
575.1230, 6.571106
576.2940, 13.08936
577.4660, 10.80927
578.6370, 21.50427
579.8080, 22.17822
580.9790, 29.83130
582.1500, 19.46552
583.3210, 9.077820
584.4910, 13.66406
585.6620, 27.22614
586.8320, 13.76837
588.0020, 19.28619
589.1720, 35.78180
590.3410, 23.25928
591.5110, 38.71564
592.6800, 24.15448
593.8500, 30.57227
595.0190, 45.97070
596.1880, 37.35242
597.3560, 53.71619
598.5250, 62.06366
599.6930, 45.39478
600.8620, 82.70911
602.0300, 57.00714
603.1970, 88.28882
604.3650, 78.55420
605.5330, 52.80334
606.7000, 69.03613
607.8680, 81.25275
609.0350, 77.45300
610.2020, 61.63702
611.3680, 91.80493
612.5350, 72.95667
613.7010, 70.09222
614.8680, 82.21161
616.0340, 64.31500
617.2000, 58.40228
618.3660, 57.47351
619.5310, 85.52869
620.6970, 77.56793
621.8620, 88.59125
623.0270, 63.59863
624.1920, 43.59021
625.3570, 59.56531
626.5220, 57.52460
627.6860, 54.41583
628.8500, 54.63922
630.0140, 46.55170
631.1780, 36.23157
632.3420, 43.04059
633.5060, 68.86169
634.6700, 41.76227
635.8330, 46.35742
636.9960, 31.12189
638.1590, 33.92432
639.3220, 40.71082
640.4850, 34.01788
641.6470, 27.57983
642.8100, 9.258850
643.9720, 24.73273
645.1340, 13.68469
646.2960, 25.01233
647.4570, 17.82904
648.6190, 3.963440
649.7800, 25.74774
650.9420, 24.36578
652.1030, 20.24487
653.2640, 9.1430999E-02
654.4240, 14.24908
655.5850, 12.78375
656.7450, 40.86945
657.9060, 0.7883300
659.0660, 20.14624
660.2260, 16.74878
661.3850, 17.87946
662.5450, 5.671875
663.7040, 17.58423
664.8640, 6.152527
666.0230, 4.532471
667.1820, 7.360840
668.3410, 14.35016
669.4990, 9.125427
670.6580, 16.61023
671.8160, 12.67200
672.9740, 26.00873
674.1320, 8.971741
675.2900, 23.55615
676.4480, 12.73663
677.6050, 8.474976
678.7630, 21.90002
679.9200, 5.107910
681.0770, 0.8854370
682.2340, 16.44800
683.3900, 11.81769
684.5470, 11.17773
685.7030, 9.9670000E-02
686.8590, 7.067627
688.0150, 13.64819
689.1710, 15.34290
690.3270, 17.39349
691.4830, 22.12518
692.6380, 9.605469
693.7930, 2.006226
694.9480, 2.969421
696.1030, 15.63538
697.2580, 15.99030
698.4130, 13.38007
699.5670, 25.54205
700.7210, 28.70111
701.8750, 44.46783
703.0290, 34.40485
704.1830, 31.84131
705.3370, 62.06140
706.4900, 46.09839
707.6430, 45.37476
708.7970, 49.62830
709.9490, 70.80115
711.1020, 69.85266
712.2550, 88.77026
713.4070, 88.14398
714.5600, 87.01361
715.7120, 86.31342
716.8640, 99.49371
718.0160, 99.11469
719.1670, 120.7485
720.3190, 120.6081
721.4700, 132.1220
722.6210, 129.1640
723.7720, 140.4188
724.9230, 162.1715
726.0740, 162.4166
727.2250, 171.8863
728.3750, 184.7004
729.5250, 193.9854
730.6750, 204.4426
731.8250, 222.0671
732.9750, 229.8786
734.1240, 245.9563
735.2740, 275.9186
736.4230, 287.6650
737.5720, 325.1420
738.7210, 333.2137
739.8700, 343.3274
741.0190, 381.4421
742.1670, 406.5580
743.3150, 469.6756
744.4630, 506.7944
745.6110, 555.9150
746.7590, 623.0370
747.9070, 679.1613
749.0540, 789.2873
750.2020, 870.4152
751.3490, 987.5482
752.4960, 1123.683
753.6430, 1302.821
754.7890, 1490.961
755.9360, 1785.104
757.0820, 2054.250
758.2280, 2366.399
759.3740, 2674.550
760.5200, 3040.708
761.6660, 3351.870
762.8120, 3642.986
763.9570, 3880.155
765.1020, 4013.328
766.2470, 3968.512
767.3920, 3795.706
768.5370, 3447.895
769.6810, 2979.992
770.8260, 2712.180
771.9700, 2427.396
773.1140, 2099.601
774.2580, 1885.837
775.4020, 1776.937
776.5460, 1717.096
777.6890, 1668.336
778.8320, 1579.542
779.9750, 1632.666
781.1180, 1659.311
782.2610, 1703.443
783.4040, 1852.307
784.5460, 1917.496
785.6890, 1991.581
786.8310, 2154.237
787.9730, 2329.553
789.1150, 2467.867
790.2560, 2628.152
791.3980, 2904.781
792.5390, 3229.035
793.6810, 3701.327
794.8220, 4370.789
795.9630, 5189.879
797.1030, 6232.380
798.2440, 7901.897
799.3840, 10110.47
800.5240, 12618.98
801.6650, 15948.35
802.8040, 20131.50
803.9440, 25476.08
805.0840, 31110.35
806.2230, 37081.98
807.3630, 42712.67
808.5020, 47615.34
809.6410, 51207.02
810.7790, 54949.73
811.9180, 57616.46
813.0570, 59781.22
814.1950, 61092.68
815.3330, 60296.34
816.4710, 57638.51
817.6090, 52454.34
818.7470, 46122.18
819.8840, 39230.73
821.0220, 32476.60
822.1590, 26871.49
823.2960, 22095.39
824.4330, 18589.31
825.5690, 15533.26
826.7060, 13211.22
827.8420, 11577.21
828.9790, 10006.21
830.1150, 8851.125
831.2510, 8000.159
832.3860, 7076.211
833.5220, 6467.274
834.6570, 5812.361
835.7930, 5297.462
836.9280, 4895.581
838.0630, 4492.711
839.1980, 4343.858
840.3320, 3934.015
841.4670, 3724.188
842.6010, 3557.374
843.7350, 3313.577
844.8690, 3149.794
846.0030, 3020.028
847.1370, 2813.277
848.2700, 2675.541
849.4040, 2466.821
850.5370, 2382.115
851.6700, 2233.425
852.8030, 2117.749
853.9360, 1993.087
855.0680, 1915.439
856.2000, 1807.803
857.3330, 1708.962
858.4650, 1623.518
859.5970, 1506.002
860.7290, 1449.421
861.8600, 1331.852
862.9920, 1252.297
864.1230, 1195.756
865.2540, 1152.227
866.3850, 1098.710
867.5160, 996.2045
868.6460, 925.7122
869.7770, 883.2656
870.9070, 888.7956
872.0370, 840.4891
873.1670, 821.0413
874.2970, 755.6040
875.4270, 693.1776
876.5570, 663.7617
877.6860, 621.3562
878.8150, 644.0079
879.9440, 591.6234
881.0730, 579.2494
882.2020, 552.8857
883.3300, 505.5323
884.4590, 516.1896
885.5870, 503.8572
886.7150, 427.0988
887.8430, 467.7869
888.9710, 450.4857
890.0990, 420.1946
891.2260, 382.9139
892.3530, 370.6434
893.4810, 339.3833
894.6080, 322.1763
895.7340, 290.5419
896.8610, 291.3124
897.9880, 266.2033
899.1140, 252.9943
900.2400, 238.9691
901.3660, 223.7803
902.4920, 206.6273
903.6180, 187.6205
904.7430, 171.4614
905.8690, 176.4282
906.9940, 138.2894
908.1190, 148.6053
909.2440, 130.0512
910.3690, 149.3928
911.4930, 157.6365
912.6180, 99.54700
913.7420, 118.4669
914.8660, 115.1897
915.9900, 102.0565
917.1140, 119.5050
918.2380, 128.6145
919.3610, 127.9354
920.4850, 129.3086
921.6080, 141.8483
922.7310, 111.9627
923.8540, 93.03394
924.9760, 74.99963
926.0990, 75.03015
927.2210, 54.47528
928.3440, 52.31793
929.4660, 65.37787
930.5880, 26.44568
931.7090, 40.10144
932.8310, 14.30945
933.9520, 4.056152
935.0740, 4.038269
936.1950, 10.15430
937.3160, 13.29730
938.4360, 33.62238
939.5570, 7.241882
940.6780, 14.91888
941.7980, 4.782410
942.9180, 0.6016850
944.0380, 12.75769
945.1580, 11.18811
946.2780, 33.01471
947.3970, 40.31793
948.5170, 52.50458
949.6360, 3.405457
950.7550, 40.08478
951.8740, 26.47668
952.9930, 35.69055
954.1110, 53.02820
955.2300, 23.76019
956.3480, 57.24072
957.4660, 60.96887
958.5840, 53.23627
959.7020, 52.91406
960.8190, 54.14014
961.9370, 30.62048
963.0540, 34.90070
964.1710, 21.89557
965.2880, 41.16754
966.4050, 36.85388
967.5220, 19.48041
968.6380, 23.52692
969.7550, 11.39966
970.8710, 7.182983
971.9870, 14.54700
973.1030, 35.01434
974.2190, 5.316711
975.3340, 30.61200
976.4500, 12.08185
977.5650, 17.54419
978.6800, 21.92200
979.7950, 29.68658
980.9100, 31.99451
982.0250, 39.36584
983.1390, 31.67804
984.2530, 32.17853
985.3680, 15.30908
986.4820, 22.62714
987.5950, 10.94690
988.7090, 3.268372
989.8230, 27.59131
990.9360, 38.91577
992.0490, 12.24152
993.1620, 2.431396
994.2750, 20.89655
995.3880, 10.22546
996.5010, 38.55548
997.6130, 27.88635
998.7250, 20.22620
999.8370, 10.55859
1000.949, 36.89166
1002.061, 45.28131
1003.173, 2.384644
1004.284, 34.95251
1005.396, 7.680725
1006.507, 10.65210
1007.618, 10.98511
1008.729, 23.36902
1009.839, 23.70203
1010.950, 29.03491
1012.060, 2.632446
1013.171, 24.69934
1014.281, 10.03082
1015.391, 24.36182
1016.500, 5.692444
1017.610, 3.022461
1018.719, 9.014526
1019.829, 16.31964
1020.938, 15.00287
1022.047, 16.32446
1023.156, 14.64508
1024.264, 27.18268
1025.373, 1.283081
1026.481, 19.60034
1027.589, 16.91626
1028.697, 15.76923
1029.805, 14.53778
1030.913, 3.156738
1032.020, 4.145874
1033.128, 4.553223
1034.235, 7.744141
1035.342, 19.96045
1036.449, 3.676331
1037.556, 15.60406
1038.663, 2.117676
1039.769, 7.157104
1040.875, 8.570313
1041.981, 10.30438
1043.087, 24.04633
1044.193, 5.803589
1045.299, 9.433289
1046.404, 14.66760
1047.510, 12.10071
1048.615, 13.87915
1049.720, 6.668884
1050.825, 0.4663700
1051.930, 3.604797
1053.034, 20.07758
1054.139, 5.901978
1055.243, 14.73480
1056.347, 13.58087
1057.451, 11.43982
1058.555, 5.689392
1059.658, 2.184998
1060.762, 8.067017
1061.865, 12.04010
1062.968, 13.14374
1064.071, 3.756409
1065.174, 4.335083
1066.277, 2.578308
1067.380, 9.532043
1068.482, 9.467407
1069.584, 9.415894
1070.686, 4.622437
1071.788, 16.65430
1072.890, 10.61646
1073.992, 10.36035
1075.093, 11.39050
1076.194, 7.400635
1077.295, 11.42041
1078.396, 1.455933
1079.497, 9.497986
1080.598, 27.44598
1081.698, 1.610657
1082.799, 13.67841
1083.899, 9.236145
1084.999, 24.14386
1086.099, 12.04669
1087.199, 2.943298
1088.298, 8.830261
1089.398, 3.709656
1090.497, 18.57977
1091.596, 5.444580
1092.695, 3.699951
1093.794, 11.14285
1094.892, 4.021729
1095.991, 0.7993160
1097.089, 25.60864
1098.187, 7.412537
1099.285, 9.207214
1100.383, 0.9931340
1101.481, 4.422424
1102.579, 6.566345
1103.676, 20.28333
1104.773, 16.03021
1105.870, 28.76978
1106.967, 35.50360
1108.064, 17.23181
1109.161, 17.95285
1110.257, 22.66669
1111.353, 9.374054
1112.449, 34.07346
1113.545, 24.76706
1114.641, 37.45419
1115.737, 35.13547
1116.832, 35.81088
1117.928, 58.48022
1119.023, 83.14380
1120.118, 54.80145
1121.213, 66.45334
1122.308, 66.09921
1123.402, 100.7391
1124.497, 77.37286
1125.591, 78.97141
1126.685, 75.59314
1127.779, 53.20886
1128.873, 60.27817
1129.967, 38.42197
1131.060, 55.01923
1132.153, 44.61029
1133.247, 31.19513
1134.340, 41.77332
1135.433, 41.31122
1136.525, 34.87683
1137.618, 63.28421
1138.710, 50.83707
1139.802, 33.38370
1140.895, 61.92352
1141.987, 44.45712
1143.078, 65.98471
1144.170, 58.45923
1145.261, 68.97531
1146.353, 61.48837
1147.444, 74.99524
1148.535, 55.49573
1149.626, 68.98987
1150.716, 68.47760
1151.807, 78.39551
1152.897, 80.87061
1153.988, 78.08755
1155.078, 59.80176
1156.168, 67.25793
1157.257, 74.70770
1158.347, 63.15112
1159.436, 81.58823
1160.526, 65.37064
1161.615, 63.79498
1162.704, 76.10266
1163.793, 86.51447
1164.881, 82.74628
1165.970, 81.14542
1167.058, 70.51239
1168.147, 72.73682
1169.235, 80.11780
1170.323, 72.38217
1171.410, 73.75131
1172.498, 56.66928
1173.585, 60.46097
1174.673, 71.36041
1175.760, 50.39825
1176.847, 88.74783
1177.934, 84.08029
1179.020, 84.61569
1180.107, 62.00916
1181.193, 77.82715
1182.279, 82.98828
1183.365, 63.94324
1184.451, 62.84982
1185.537, 71.60654
1186.623, 78.78232
1187.708, 97.00452
1188.793, 70.37195
1189.878, 66.64148
1190.963, 59.51788
1192.048, 69.98517
1193.133, 68.29037
1194.217, 76.53845
1195.302, 83.40320
1196.386, 63.65399
1197.470, 70.34464
1198.554, 69.57712
1199.638, 80.79037
1200.721, 86.00909
1201.805, 84.86563
1202.888, 75.26129
1203.971, 81.48981
1205.054, 75.54144
1206.137, 68.50931
1207.219, 66.76654
1208.302, 77.69101
1209.384, 66.22073
1210.466, 95.31006
1211.548, 70.48236
1212.630, 101.9650
1213.712, 78.65408
1214.794, 105.6300
1215.875, 79.78494
1216.956, 101.8172
1218.037, 86.45752
1219.118, 81.35333
1220.199, 76.08905
1221.280, 61.21140
1222.360, 86.90857
1223.441, 81.31064
1224.521, 91.22058
1225.601, 89.31650
1226.681, 88.02594
1227.760, 95.85580
