##NAMES=Mimetite
##RRUFFID=R050007
##IDEAL CHEMISTRY=Pb^2+^_5_(As^5+^O_4_)_3_Cl
##LOCALITY=Pingtouling, Guangdong, China
##OWNER=RRUFF
##SOURCE=Eugene Schlepp
##DESCRIPTION=Reddish orange colored hexagonal prisms
##STATUS=The identification of this mineral has been confirmed by X-ray diffraction and chemical analysis
##URL=rruff.info/R050007
##MEASURED CHEMISTRY=Pb_5.00_((As_0.99_P_0.01_)O_4_)_3_Cl_1.00_
##PIN_ID=L00097
##ORIENTATION=Laser parallel to c* (0 0 1). Fiducial mark perpendicular to laser is parallel to -a [-1 0 0]
49.365, 0.000
50.765, 24.568
52.166, 20.276
53.566, 132.005
54.966, 234.118
56.365, 421.665
57.765, 471.107
59.164, 674.102
60.563, 737.172
61.962, 704.080
63.360, 615.884
64.758, 584.000
66.157, 482.133
67.554, 411.600
68.952, 435.040
70.349, 320.070
71.747, 299.641
73.144, 228.710
74.540, 159.237
75.937, 39.184
77.333, 13.518
78.729, 54.783
80.125, 95.741
81.521, 21.384
82.916, 90.268
84.311, 118.193
85.706, 329.375
87.101, 479.801
88.496, 728.458
89.890, 879.334
91.284, 1209.421
92.678, 1586.710
94.071, 2062.192
95.465, 2827.858
96.858, 3640.695
98.251, 4643.691
99.644, 5210.826
101.036, 5410.087
102.428, 5432.466
103.820, 5324.963
105.212, 5092.612
106.604, 4981.425
107.995, 4764.366
109.387, 4543.408
110.777, 4544.539
112.168, 4486.757
113.559, 4266.063
114.949, 4110.452
116.339, 4015.923
117.729, 3905.478
119.119, 3706.112
120.508, 3681.827
121.897, 3632.623
123.286, 3650.501
124.675, 3494.459
126.063, 3520.499
127.452, 3477.620
128.840, 3531.822
130.228, 3442.104
131.615, 3510.469
133.003, 3460.919
134.390, 3466.459
135.777, 3402.086
137.164, 3484.786
138.550, 3470.548
139.937, 3500.358
141.323, 3489.197
142.709, 3493.055
144.094, 3394.935
145.480, 3521.836
146.865, 3387.725
148.250, 3363.479
149.635, 3382.156
151.019, 3335.864
152.403, 3187.613
153.788, 3238.400
155.171, 3083.228
156.555, 3131.095
157.939, 3116.003
159.322, 3152.699
160.705, 3076.929
162.088, 3112.744
163.470, 3068.949
164.853, 3079.213
166.235, 3053.770
167.617, 3148.885
168.998, 3157.034
170.380, 3135.219
171.761, 3111.440
173.142, 3046.697
174.523, 2967.995
175.904, 2947.334
177.284, 2875.717
178.664, 2816.138
180.044, 2759.598
181.424, 2688.097
182.803, 2549.636
184.183, 2537.210
185.562, 2452.824
186.940, 2438.497
188.319, 2317.215
189.698, 2173.972
191.076, 2074.775
192.454, 2061.637
193.831, 1945.566
195.209, 1881.570
196.586, 1839.623
197.963, 1746.734
199.340, 1675.889
200.717, 1583.098
202.093, 1542.367
203.470, 1413.682
204.846, 1411.044
206.221, 1315.473
207.597, 1193.939
208.972, 1192.483
210.347, 1119.094
211.722, 1069.761
213.097, 1082.486
214.472, 1017.253
215.846, 893.705
217.220, 907.212
218.594, 851.673
219.967, 822.038
221.341, 761.292
222.714, 698.424
224.087, 684.337
225.460, 685.102
226.832, 631.762
228.204, 579.329
229.577, 608.667
230.948, 540.344
232.320, 514.900
233.692, 447.506
235.063, 426.171
236.434, 480.885
237.805, 435.646
239.175, 388.391
240.545, 333.928
241.916, 358.298
243.286, 311.130
244.655, 256.072
246.025, 253.686
247.394, 239.200
248.763, 197.817
250.132, 183.669
251.501, 193.830
252.869, 179.017
254.237, 142.230
255.605, 110.469
256.973, 169.731
258.340, 87.020
259.708, 58.333
261.075, 79.669
262.442, 44.031
263.808, 17.410
265.175, 49.808
266.541, 24.222
267.907, 30.348
269.273, 25.094
270.639, 43.448
272.004, 24.978
273.369, 13.497
274.734, 12.006
276.099, 36.505
277.463, 11.995
278.828, 7.523
280.192, 21.949
281.556, 13.586
282.919, 58.129
284.283, 7.679
285.646, 43.237
287.009, 34.801
288.372, 60.400
289.734, 90.000
291.097, 132.581
292.459, 182.439
293.821, 232.135
295.183, 306.952
296.544, 335.937
297.905, 417.135
299.266, 541.117
300.627, 600.159
301.988, 654.442
303.348, 796.475
304.709, 885.535
306.069, 881.828
307.428, 975.920
308.788, 1037.900
310.147, 1102.057
311.507, 1084.409
312.865, 1115.650
314.224, 1135.873
315.583, 1126.894
316.941, 1151.935
318.299, 1164.624
319.657, 1114.619
321.015, 1142.730
322.372, 1131.756
323.729, 1141.456
325.086, 1274.573
326.443, 1220.343
327.800, 1327.720
329.156, 1350.396
330.512, 1455.164
331.868, 1500.253
333.224, 1588.564
334.579, 1655.487
335.935, 1628.482
337.290, 1651.371
338.645, 1696.838
339.999, 1626.131
341.354, 1611.641
342.708, 1485.360
344.062, 1419.661
345.416, 1311.633
346.769, 1210.241
348.123, 1170.006
349.476, 1025.992
350.829, 987.641
352.182, 887.135
353.534, 899.794
354.887, 907.244
356.239, 892.234
357.591, 908.216
358.942, 1023.437
360.294, 1123.462
361.645, 1281.332
362.996, 1470.577
364.347, 1698.510
365.698, 1935.049
367.048, 2126.033
368.398, 2262.138
369.748, 2321.991
371.098, 2236.479
372.448, 2127.472
373.797, 2021.155
375.146, 1861.660
376.495, 1585.558
377.844, 1375.911
379.192, 1344.334
380.540, 1202.900
381.889, 1147.297
383.236, 1139.222
384.584, 1090.411
385.932, 1071.663
387.279, 1049.038
388.626, 989.351
389.973, 933.588
391.319, 990.781
392.666, 933.972
394.012, 913.024
395.358, 851.058
396.704, 844.515
398.049, 875.560
399.394, 855.588
400.740, 863.499
402.084, 851.840
403.429, 884.365
404.774, 950.006
406.118, 971.402
407.462, 1023.601
408.806, 1074.171
410.150, 1102.144
411.493, 1206.857
412.836, 1319.680
414.179, 1424.458
415.522, 1543.325
416.865, 1533.047
418.207, 1687.048
419.549, 1726.247
420.891, 1747.770
422.233, 1679.799
423.575, 1604.739
424.916, 1395.252
426.257, 1324.820
427.598, 1181.269
428.939, 1063.675
430.279, 930.640
431.619, 813.077
432.959, 716.327
434.299, 686.217
435.639, 598.237
436.978, 513.333
438.318, 483.893
439.657, 445.959
440.996, 365.040
442.334, 296.758
443.673, 302.782
445.011, 230.778
446.349, 206.746
447.687, 222.685
449.024, 152.596
450.361, 153.478
451.699, 176.331
453.036, 94.156
454.372, 133.948
455.709, 105.711
457.045, 66.443
458.381, 38.142
459.717, 67.806
461.053, 56.438
462.388, 32.036
463.724, 57.598
465.059, 54.127
466.394, 31.622
467.728, 50.081
469.063, 67.506
470.397, 41.898
471.731, 28.284
473.065, 34.604
474.398, 35.887
475.732, 57.135
477.065, 54.348
478.398, 16.527
479.731, 59.666
481.063, 9.230
482.396, 8.822
483.728, 15.829
485.060, 40.795
486.391, 13.855
487.723, 24.743
489.054, 15.594
490.385, 4.597
491.716, 9.839
493.047, 25.866
494.377, 23.468
495.708, 8.862
497.038, 23.309
498.368, 16.817
499.697, 1.618
501.027, 17.006
502.356, 21.647
503.685, 0.641
505.014, 5.881
506.342, 4.923
507.671, 7.778
508.999, 11.684
510.327, 22.644
511.655, 4.664
512.982, 7.733
514.310, 4.852
515.637, 1.978
516.964, 30.237
518.291, 50.514
519.617, 21.136
520.944, 1.749
522.270, 36.683
523.596, 64.179
524.921, 10.755
526.247, 50.381
527.572, 37.078
528.897, 17.839
530.222, 44.654
531.547, 37.536
532.871, 17.481
534.196, 15.478
535.520, 38.526
536.844, 46.636
538.167, 16.813
539.491, 20.040
540.814, 18.319
542.137, 43.648
543.460, 1.040
544.783, 31.527
546.105, 21.936
547.427, 12.551
548.749, 15.005
550.071, 16.427
551.393, 11.819
552.714, 5.821
554.035, 6.500
555.356, 14.218
556.677, 19.021
557.998, 16.230
559.318, 37.409
560.638, 16.439
561.958, 36.330
563.278, 7.273
564.597, 20.252
565.917, 1.274
567.236, 8.328
568.555, 2.583
569.874, 28.536
571.192, 15.300
572.511, 18.108
573.829, 0.890
575.147, 15.642
576.464, 4.632
577.782, 9.936
579.099, 17.272
580.416, 8.643
581.733, 27.044
583.050, 15.515
584.366, 0.050
585.683, 13.559
586.999, 15.044
588.315, 0.496
589.630, 1.058
590.946, 19.645
592.261, 10.741
593.576, 45.106
594.891, 1.450
596.206, 0.229
597.520, 1.927
598.834, 31.353
600.148, 41.612
601.462, 22.852
602.776, 38.072
604.089, 49.271
605.402, 27.450
606.715, 56.609
608.028, 37.720
609.341, 44.815
610.653, 56.916
611.965, 59.726
613.277, 80.683
614.589, 38.505
615.901, 62.144
617.212, 11.553
618.523, 48.164
619.834, 74.699
621.145, 58.977
622.456, 48.490
623.766, 25.958
625.076, 21.177
626.386, 2.582
627.696, 24.083
629.006, 2.609
630.315, 14.488
631.624, 37.680
632.933, 10.876
634.242, 50.259
635.551, 20.608
636.859, 47.293
638.167, 4.659
639.475, 39.893
640.783, 33.198
642.090, 56.809
643.398, 12.017
644.705, 38.484
646.012, 35.357
647.318, 11.915
648.625, 5.363
649.931, 23.476
651.237, 8.353
652.543, 35.602
653.849, 41.764
655.155, 31.018
656.460, 44.679
657.765, 29.499
659.070, 45.087
660.375, 17.451
661.679, 72.219
662.984, 75.301
664.288, 29.731
665.592, 55.991
666.895, 81.013
668.199, 47.358
669.502, 55.843
670.805, 84.147
672.108, 105.646
673.411, 95.589
674.713, 83.525
676.016, 107.206
677.318, 123.068
678.620, 129.068
679.921, 143.678
681.223, 194.585
682.524, 99.869
683.825, 156.693
685.126, 184.379
686.427, 169.303
687.727, 164.574
689.028, 215.325
690.328, 207.370
691.628, 217.575
692.927, 211.371
694.227, 263.697
695.526, 286.935
696.825, 298.012
698.124, 297.240
699.423, 332.922
700.721, 364.323
702.020, 367.647
703.318, 385.832
704.616, 369.064
705.913, 422.359
707.211, 429.685
708.508, 452.001
709.805, 497.447
711.102, 527.902
712.399, 537.925
713.695, 511.352
714.992, 598.787
716.288, 602.332
717.584, 698.440
718.879, 679.359
720.175, 697.162
721.470, 736.210
722.765, 768.472
724.060, 819.390
725.355, 830.913
726.649, 914.691
727.944, 978.353
729.238, 985.058
730.532, 1002.665
731.825, 1030.412
733.119, 1199.874
734.412, 1210.127
735.705, 1238.056
736.998, 1353.470
738.291, 1413.964
739.584, 1478.875
740.876, 1531.724
742.168, 1680.687
743.460, 1781.685
744.752, 1955.621
746.043, 2082.579
747.334, 2169.873
748.626, 2369.983
749.916, 2498.174
751.207, 2984.306
752.498, 3138.447
753.788, 3562.606
755.078, 3982.898
756.368, 4498.217
757.658, 5232.572
758.947, 5810.951
760.237, 6427.357
761.526, 6967.796
762.815, 7309.258
764.104, 7732.753
765.392, 7727.281
766.680, 7745.834
767.969, 7452.422
769.257, 7382.036
770.544, 7259.672
771.832, 6936.345
773.119, 7038.051
774.406, 6977.786
775.693, 7094.550
776.980, 7406.346
778.267, 7721.174
779.553, 7991.028
780.839, 8499.912
782.125, 9208.833
783.411, 9827.784
784.697, 10416.730
785.982, 10865.738
787.267, 11624.773
788.552, 11973.838
789.837, 12682.934
791.122, 13542.064
792.406, 14601.225
793.690, 15850.416
794.974, 17339.646
796.258, 20188.914
797.542, 22648.207
798.825, 26567.402
800.108, 32816.758
801.391, 38886.137
802.674, 45815.547
803.957, 51055.008
805.239, 52754.500
806.522, 52144.023
807.804, 51043.574
809.085, 47963.184
810.367, 44552.824
811.649, 39952.500
812.930, 36162.223
814.211, 30561.971
815.492, 27051.766
816.772, 22761.590
818.053, 19881.447
819.333, 16851.342
820.613, 15261.278
821.893, 13951.247
823.173, 12701.258
824.452, 11941.305
825.732, 11261.386
827.011, 10731.504
828.290, 10201.656
829.568, 9691.852
830.847, 9122.092
832.125, 8872.362
833.403, 8282.669
834.681, 7891.018
835.959, 7366.416
837.236, 6998.855
838.514, 6580.339
839.791, 6385.870
841.068, 5986.439
842.345, 5812.052
843.621, 5432.708
844.898, 5289.402
846.174, 5028.132
847.450, 4800.917
848.726, 4667.735
850.001, 4283.593
851.277, 4256.491
852.552, 3955.422
853.827, 3732.399
855.102, 3428.408
856.376, 3104.446
857.651, 2892.520
858.925, 2637.622
860.199, 2487.753
861.473, 2179.911
862.746, 2118.096
864.020, 2030.314
865.293, 1798.564
866.566, 1706.848
867.839, 1676.161
869.112, 1625.647
870.384, 1535.646
871.656, 1444.692
872.928, 1458.314
874.200, 1400.804
875.472, 1344.304
876.744, 1274.035
878.015, 1206.691
879.286, 1258.863
880.557, 1127.963
881.828, 1152.098
883.098, 1085.862
884.369, 1027.417
885.639, 1033.795
886.909, 1009.543
888.178, 927.841
889.448, 925.021
890.717, 856.853
891.987, 847.716
893.256, 845.962
894.524, 751.598
895.793, 728.142
897.061, 720.895
898.330, 675.507
899.598, 673.876
900.865, 669.719
902.133, 588.792
903.401, 668.497
904.668, 625.719
905.935, 574.415
907.202, 581.065
908.468, 619.056
909.735, 628.892
911.001, 653.957
912.267, 739.839
913.533, 779.943
914.799, 849.006
916.064, 873.979
917.330, 892.981
918.595, 936.820
919.860, 857.382
921.124, 738.033
922.389, 626.459
923.653, 585.057
924.918, 476.370
926.182, 474.152
927.445, 357.592
928.709, 336.883
929.972, 354.769
931.236, 322.687
932.499, 315.022
933.761, 273.206
935.024, 248.113
936.286, 258.038
937.549, 199.603
938.811, 208.860
940.073, 228.873
941.334, 217.913
942.596, 191.495
943.857, 199.251
945.118, 176.911
946.379, 169.366
947.640, 152.395
948.900, 161.250
950.161, 117.425
951.421, 156.516
952.681, 180.707
953.940, 127.740
955.200, 94.549
956.459, 117.632
957.719, 120.504
958.978, 132.703
960.236, 112.690
961.495, 108.594
962.753, 73.955
964.012, 110.047
965.270, 94.763
966.527, 90.882
967.785, 115.972
969.043, 66.916
970.300, 52.965
971.557, 58.514
972.814, 18.482
974.071, 41.422
975.327, 68.371
976.583, 59.360
977.840, 78.379
979.095, 56.418
980.351, 24.398
981.607, 35.402
982.862, 33.425
984.117, 69.597
985.372, 54.650
986.627, 47.664
987.882, 71.337
989.136, 50.362
990.390, 49.709
991.644, 37.745
992.898, 46.844
994.152, 26.888
995.405, 59.956
996.659, 52.008
997.912, 0.098
999.165, 23.158
1000.417, 33.820
1001.670, 54.923
1002.922, 5.032
1004.174, 12.105
1005.426, 35.426
1006.678, 31.551
1007.930, 44.630
1009.181, 25.712
1010.432, 17.879
1011.683, 24.967
1012.934, 5.083
1014.185, 4.225
1015.435, 33.312
1016.685, 3.461
1017.935, 1.578
1019.185, 8.333
1020.435, 23.246
1021.684, 23.145
1022.934, 9.071
1024.183, 0.916
1025.432, 21.153
1026.680, 8.660
1027.929, 4.520
1029.177, 18.447
1030.425, 15.389
1031.673, 36.338
1032.921, 3.302
1034.169, 22.271
1035.416, 17.250
1036.663, 12.761
1037.911, 33.229
1039.157, 9.236
1040.404, 4.748
1041.650, 13.729
1042.897, 7.295
1044.143, 14.326
1045.389, 11.369
1046.634, 14.424
1047.880, 10.491
1049.125, 23.570
1050.371, 12.666
1051.615, 15.777
1052.860, 7.900
1054.105, 2.963
1055.349, 55.181
1056.593, 21.360
1057.837, 25.561
1059.081, 53.785
1060.325, 8.047
1061.568, 20.323
1062.812, 38.622
1064.055, 4.952
1065.298, 34.295
1066.540, 33.669
1067.783, 14.074
1069.025, 24.501
1070.267, 8.955
1071.509, 17.571
1072.751, 37.913
1073.993, 16.433
1075.234, 6.978
1076.475, 0.544
1077.716, 13.129
1078.957, 5.739
1080.198, 12.628
1081.438, 11.017
1082.679, 7.687
1083.919, 2.382
1085.159, 17.902
1086.398, 5.171
1087.638, 12.422
1088.877, 19.655
1090.116, 0.123
1091.355, 7.920
1092.594, 33.255
1093.833, 9.418
1095.071, 3.437
1096.309, 27.680
1097.547, 35.783
1098.785, 25.872
1100.023, 29.946
1101.260, 28.004
1102.498, 35.046
1103.735, 50.072
1104.972, 36.086
1106.208, 48.084
1107.445, 9.069
1108.681, 45.028
1109.918, 51.973
1111.154, 32.904
1112.389, 44.824
1113.625, 24.729
1114.860, 46.613
1116.096, 49.480
1117.331, 63.332
1118.566, 55.170
1119.800, 34.992
1121.035, 68.794
1122.269, 117.582
1123.503, 89.356
1124.737, 74.115
1125.971, 69.859
1127.205, 68.588
1128.438, 98.302
1129.671, 83.002
1130.904, 81.686
1132.137, 64.355
1133.370, 80.008
1134.602, 98.644
1135.834, 44.265
1137.066, 97.865
1138.298, 60.448
1139.530, 102.014
1140.762, 84.564
1141.993, 124.098
1143.224, 96.616
1144.455, 103.130
1145.686, 95.680
1146.917, 118.217
1148.147, 53.766
1149.377, 98.326
1150.607, 98.790
1151.837, 130.357
1153.067, 74.849
1154.296, 100.399
1155.526, 117.926
1156.755, 116.252
1157.984, 94.760
1159.213, 115.305
1160.441, 109.667
1161.670, 105.064
1162.898, 133.378
1164.126, 105.911
1165.354, 114.193
1166.581, 147.549
1167.809, 142.760
1169.036, 118.402
1170.263, 141.188
1171.490, 104.330
1172.717, 129.404
1173.943, 98.658
1175.170, 108.944
1176.396, 125.058
1177.622, 155.533
1178.848, 142.272
1180.073, 161.039
1181.299, 149.106
1182.524, 146.360
1183.749, 162.055
1184.974, 149.494
1186.199, 157.917
1187.423, 189.564
1188.648, 151.670
1189.872, 164.636
1191.096, 166.268
1192.320, 161.557
1193.543, 187.796
1194.767, 184.942
1195.990, 154.276
1197.213, 173.798
1198.436, 156.750
1199.659, 204.038
1200.881, 171.216
1202.104, 165.077
1203.326, 157.717
1204.548, 158.944
1205.770, 187.892
1206.991, 197.219
1208.213, 165.260
1209.434, 186.316
1210.655, 187.491
1211.876, 175.123
1213.096, 200.117
1214.317, 181.151
1215.537, 201.382
1216.757, 192.050
1217.977, 192.352
1219.197, 199.839
1220.417, 192.441
1221.636, 177.335
1222.855, 217.427
1224.074, 189.031
1225.293, 163.906
1226.512, 179.935
1227.731, 159.427
1228.949, 167.122
1230.167, 159.024
1231.385, 181.427
1232.603, 177.367
1233.820, 167.003
1235.038, 161.631
1236.255, 185.277
1237.472, 180.507
1238.689, 185.717
1239.906, 160.210
1241.122, 172.972
1242.338, 150.386
1243.555, 172.373
1244.771, 171.480
1245.986, 176.352
1247.202, 163.143
1248.417, 186.916
1249.633, 153.821
1250.848, 135.938
1252.063, 131.692
1253.277, 144.731
1254.492, 155.432
1255.706, 155.374
1256.920, 138.349
1258.134, 168.580
1259.348, 163.466
1260.562, 171.649
1261.775, 173.369
1262.988, 152.080
1264.201, 155.970
1265.414, 158.831
1266.627, 125.082
1267.839, 149.010
1269.052, 157.878
1270.264, 152.690
1271.476, 130.492
1272.688, 150.451
1273.899, 120.299
1275.111, 117.059
1276.322, 135.792
1277.533, 105.782
1278.744, 132.347
1279.955, 156.865
1281.165, 113.625
1282.376, 127.739
1283.586, 115.276
1284.796, 110.822
1286.006, 118.545
1287.215, 116.065
1288.425, 109.796
1289.634, 99.441
1290.843, 87.146
1292.052, 83.626
1293.261, 79.010
1294.469, 70.936
1295.678, 89.314
1296.886, 60.685
1298.094, 74.203
1299.302, 56.261
1300.509, 56.581
1301.717, 109.189
1302.924, 54.488
1304.131, 47.767
1305.338, 79.303
1306.545, 66.546
1307.752, 81.755
1308.958, 39.934
1310.164, 80.068
1311.370, 57.214
1312.576, 53.265
1313.782, 67.382
1314.987, 40.317
1316.193, 50.441
1317.398, 97.340
1318.603, 55.430
1319.807, 28.237
1321.012, 55.068
1322.216, 1.958
1323.421, 47.867
1324.625, 40.816
1325.829, 49.651
1327.032, 54.466
1328.236, 26.259
1329.439, 19.030
1330.642, 79.800
1331.845, 56.620
1333.048, 40.331
1334.251, 60.132
1335.453, 48.852
1336.656, 43.494
1337.858, 73.117
1339.060, 46.719
1340.261, 41.330
1341.463, 48.977
1342.664, 73.515
1343.866, 10.043
1345.067, 52.540
1346.267, 27.099
1347.468, 10.684
1348.669, 55.110
1349.869, 42.519
1351.069, 19.914
1352.269, 24.298
1353.469, 41.706
1354.668, 12.095
1355.868, 1.570
1357.067, 37.747
1358.266, 29.042
1359.465, 25.326
1360.664, 13.605
1361.862, 37.968
1363.061, 43.193
1364.259, 14.475
1365.457, 13.661
1366.655, 50.830
1367.852, 25.018
1369.050, 15.146
1370.247, 39.257
1371.444, 2.644
1372.641, 24.696
1373.838, 19.726
1375.035, 5.733
1376.231, 45.657
1377.427, 10.516
1378.623, 38.316
1379.819, 3.488
1381.015, 13.302
1382.211, 60.873
1383.406, 7.049
1384.601, 0.210
1385.796, 42.359
1386.991, 22.494
1388.185, 28.613
1389.380, 19.729
1390.574, 38.822
1391.768, 27.897
1392.962, 30.962
1394.156, 32.012
1395.350, 48.051
1396.543, 33.073
1397.736, 34.078
1398.929, 30.065
1400.122, 36.036
1401.315, 20.009
1402.507, 22.934
1403.700, 31.866
1404.892, 41.784
1406.084, 49.669
1407.276, 40.377
1408.467, 27.964
1409.659, 45.542
1410.850, 27.996
1412.041, 40.584
1413.232, 49.797
1414.423, 41.284
1415.614, 15.537
1416.804, 23.948
1417.994, 47.248
1419.184, 45.247
1420.374, 9.695
1421.564, 40.520
1422.753, 91.367
1423.943, 28.317
1425.132, 25.062
1426.321, 68.781
1427.510, 11.746
1428.698, 23.833
1429.887, 46.933
1431.075, 18.825
1432.263, 24.984
1433.451, 17.247
1434.639, 44.206
1435.827, 71.146
1437.014, 32.312
1438.201, 53.536
1439.388, 47.955
1440.575, 23.300
1441.762, 63.477
1442.949, 43.742
1444.135, 8.026
1445.321, 50.027
1446.507, 28.753
1447.693, 7.822
1448.879, 39.713
1450.064, 36.720
1451.250, 44.896
1452.435, 35.791
1453.620, 34.081
1454.805, 60.940
1455.989, 37.821
1457.174, 9.325
1458.358, 27.748
1459.542, 56.616
1460.726, 26.388
1461.910, 54.784
1463.093, 58.398
1464.277, 48.132
1465.460, 40.540
1466.643, 25.809
1467.826, 49.316
1469.009, 47.795
1470.191, 78.140
1471.373, 65.513
1472.556, 41.830
1473.738, 25.924
1474.919, 71.846
1476.101, 17.280
1477.283, 29.173
1478.464, 49.269
1479.645, 72.887
1480.826, 45.178
1482.007, 34.018
1483.187, 18.589
1484.368, 50.711
1485.548, 34.803
1486.728, 37.129
1487.908, 16.638
1489.088, 3.896
1490.268, 47.921
1491.447, 44.879
1492.626, 50.351
1493.805, 55.033
1494.984, 18.342
1496.163, 18.630
1497.341, 44.193
1498.520, 24.616
1499.698, 35.298
1500.876, 58.287
1502.054, 20.337
1503.232, 2.172
1504.409, 23.303
1505.586, 4.942
1506.763, 37.851
1507.940, 21.222
1509.117, 11.477
1510.294, 35.091
1511.470, 46.527
