##NAMES=Mimetite
##RRUFFID=R050527
##IDEAL CHEMISTRY=Pb^2+^_5_(As^5+^O_4_)_3_Cl
##LOCALITY=Tsumeb mine, Tsumeb, Otavi District, Oshikoto, Namibia
##OWNER=RRUFF
##SOURCE=University of Arizona Mineral Museum
##DESCRIPTION=Yellow hexagonal prisms, monoclinic polytype
##STATUS=The identification of this mineral has been confirmed by X-ray diffraction and chemical analysis
##URL=rruff.info/R050527
##MEASURED CHEMISTRY=Pb_5.00_(As_1.00_O_4_)_3_Cl_1.00_
##PIN_ID=M01947
##ORIENTATION=Laser parallel to -c* (0 0 -1). Fiducial mark perpendicular to laser is parallel to a [1 0 0]
61.07900, 0.0000000E+00
62.32000, 57.86066
63.56100, 51.71362
64.80100, 27.29907
66.04100, 23.00989
67.28100, 1.068481
68.52100, 28.03430
69.76100, 106.7697
71.00100, 137.9937
72.24000, 194.8145
73.47900, 336.5221
74.71800, 484.5608
75.95700, 679.5137
77.19600, 876.0454
78.43500, 1204.858
79.67300, 1607.689
80.91200, 1984.309
82.15000, 2258.516
83.38800, 2539.135
84.62600, 2851.017
85.86300, 3410.039
87.10100, 3900.125
88.33800, 4522.248
89.57500, 4976.380
90.81200, 5395.462
92.04900, 5612.402
93.28600, 5901.104
94.52300, 5776.490
95.75900, 5915.494
96.99500, 5965.059
98.23100, 6288.133
99.46700, 6876.665
100.7030, 7183.598
101.9390, 7173.899
103.1740, 7330.532
104.4090, 6843.479
105.6440, 6400.714
106.8790, 5690.223
108.1140, 5139.989
109.3490, 4619.012
110.5830, 4132.317
111.8180, 3800.096
113.0520, 3508.384
114.2860, 3198.305
115.5200, 3029.823
116.7530, 2834.862
117.9870, 2742.351
119.2200, 2651.115
120.4530, 2494.979
121.6860, 2377.859
122.9190, 1981.760
124.1520, 1988.684
125.3850, 1802.631
126.6170, 1750.605
127.8490, 1624.605
129.0810, 1521.634
130.3130, 1528.694
131.5450, 1453.784
132.7770, 1392.906
134.0080, 1348.061
135.2390, 1386.216
136.4710, 1353.271
137.7020, 1341.241
138.9320, 1426.158
140.1630, 1456.053
141.3930, 1462.943
142.6240, 1563.840
143.8540, 1533.753
145.0840, 1580.692
146.3140, 1555.661
147.5440, 1608.666
148.7730, 1586.709
150.0020, 1591.794
151.2320, 1640.923
152.4610, 1587.097
153.6900, 1581.318
154.9180, 1462.585
156.1470, 1514.901
157.3750, 1441.990
158.6040, 1402.559
159.8320, 1440.216
161.0600, 1409.261
162.2870, 1326.904
163.5150, 1347.672
164.7420, 1367.254
165.9700, 1402.149
167.1970, 1418.584
168.4240, 1454.314
169.6510, 1426.546
170.8770, 1404.952
172.1040, 1492.381
173.3300, 1505.004
174.5560, 1465.057
175.7820, 1410.396
177.0080, 1362.027
178.2340, 1382.420
179.4590, 1373.394
180.6850, 1324.413
181.9100, 1308.478
183.1350, 1288.586
184.3600, 1232.737
185.5850, 1203.927
186.8090, 1259.156
188.0340, 1260.419
189.2580, 1220.715
190.4820, 1173.040
191.7060, 1184.396
192.9300, 1174.783
194.1530, 1102.205
195.3770, 1030.656
196.6000, 996.1500
197.8230, 1020.691
199.0460, 1021.266
200.2690, 939.8655
201.4910, 934.4945
202.7140, 857.1554
203.9360, 797.8518
205.1580, 798.5750
206.3800, 764.3301
207.6020, 705.1091
208.8240, 691.5641
210.0450, 597.9391
211.2670, 656.2034
212.4880, 536.1396
213.7090, 550.4451
214.9300, 504.0605
216.1510, 487.9781
217.3710, 431.1465
218.5920, 402.5387
219.8120, 433.1321
221.0320, 362.9064
222.2520, 364.8518
223.4720, 316.9492
224.6910, 326.1887
225.9110, 227.5544
227.1300, 230.0358
228.3490, 164.6245
229.5680, 199.3119
230.7870, 194.0912
232.0050, 152.9563
233.2240, 172.9014
234.4420, 136.9222
235.6600, 157.0134
236.8780, 141.1699
238.0960, 82.38745
239.3140, 103.6616
240.5310, 104.9885
241.7490, 89.36926
242.9660, 77.79553
244.1830, 22.26550
245.4000, 39.77759
246.6160, 15.33594
247.8330, 41.93665
249.0490, 16.57947
250.2660, 39.25684
251.4820, 2.032837
252.6980, 13.29370
253.9130, 5.471069
255.1290, 2.732910
256.3440, 17.91187
257.5600, 4.069214
258.7750, 54.20032
259.9900, 34.32178
261.2040, 42.43225
262.4190, 52.53735
263.6330, 44.64233
264.8480, 35.74841
266.0620, 21.85425
267.2760, 79.95923
268.4900, 74.07568
269.7030, 74.20337
270.9170, 67.34045
272.1300, 73.48730
273.3430, 67.64661
274.5560, 75.81299
275.7690, 29.99280
276.9820, 76.17151
278.1940, 92.36353
279.4070, 71.57422
280.6190, 17.79883
281.8310, 31.02625
283.0430, 70.25854
284.2550, 52.50159
285.4660, 77.75427
286.6770, 50.02209
287.8890, 24.29956
289.1000, 2.581909
290.3110, 27.86487
291.5210, 1.153320
292.7320, 7.441895
293.9420, 54.26721
295.1530, 31.97937
296.3630, 62.69446
297.5730, 117.4126
298.7830, 192.1357
299.9920, 242.8611
301.2020, 290.5894
302.4110, 395.3199
303.6200, 466.0481
304.8290, 489.7759
306.0380, 596.4966
307.2470, 663.1903
308.4550, 696.8547
309.6630, 745.4939
310.8720, 754.0994
312.0800, 766.6573
313.2880, 823.1697
314.4950, 858.6353
315.7030, 906.1069
316.9100, 824.4824
318.1170, 781.8439
319.3240, 766.1572
320.5310, 733.9363
321.7380, 731.2240
322.9450, 744.1492
324.1510, 683.8726
325.3570, 752.3418
326.5630, 724.8730
327.7690, 701.3994
328.9750, 745.2673
330.1810, 813.1118
331.3860, 862.7089
332.5910, 900.9244
333.7960, 964.0518
335.0010, 1026.839
336.2060, 1065.068
337.4110, 1128.325
338.6150, 1163.673
339.8200, 1181.638
341.0240, 1201.875
342.2280, 1204.457
343.4320, 1195.118
344.6350, 1147.760
345.8390, 1113.137
347.0420, 1073.855
348.2450, 1030.520
349.4480, 960.8431
350.6510, 900.1524
351.8540, 809.9380
353.0560, 746.5945
354.2590, 680.3591
355.4610, 628.2462
356.6630, 577.0404
357.8650, 567.9731
359.0670, 526.6604
360.2680, 591.4795
361.4700, 605.2007
362.6710, 662.8494
363.8720, 676.5566
365.0730, 801.9896
366.2740, 885.9020
367.4740, 1064.750
368.6750, 1244.256
369.8750, 1427.668
371.0750, 1570.961
372.2750, 1685.410
373.4750, 1682.658
374.6740, 1688.920
375.8740, 1512.224
377.0730, 1330.516
378.2720, 1076.000
379.4710, 1030.456
380.6700, 894.8689
381.8690, 707.3949
383.0670, 677.8258
384.2660, 633.2709
385.4640, 570.7283
386.6620, 531.9495
387.8600, 473.4315
389.0570, 489.0859
390.2550, 460.2564
391.4520, 460.9177
392.6490, 449.0077
393.8460, 424.7110
395.0430, 434.3849
396.2400, 376.5966
397.4370, 380.4481
398.6330, 384.7161
399.8290, 397.9728
401.0250, 406.8684
402.2210, 409.2889
403.4170, 440.4923
404.6130, 445.6104
405.8080, 452.2602
407.0030, 470.1899
408.1980, 471.3358
409.3930, 476.0460
410.5880, 545.1055
411.7830, 579.2818
412.9770, 577.5309
414.1720, 620.2386
415.3660, 700.9113
416.5600, 676.9995
417.7530, 750.3171
418.9470, 847.2294
420.1410, 924.5801
421.3340, 989.5723
422.5270, 1033.394
423.7200, 1086.345
424.9130, 1058.923
426.1060, 1035.897
427.2980, 1007.368
428.4900, 914.0721
429.6830, 785.4609
430.8750, 740.1260
432.0670, 623.9581
433.2580, 521.8000
434.4500, 432.5430
435.6410, 389.5635
436.8320, 386.1396
438.0240, 299.7373
439.2140, 251.4269
440.4050, 243.1549
441.5960, 198.3389
442.7860, 200.0002
443.9760, 184.8649
445.1670, 147.6438
446.3560, 117.5813
447.5460, 105.3012
448.7360, 137.8368
449.9250, 112.3387
451.1150, 102.7906
452.3040, 99.24304
453.4930, 78.65887
454.6810, 70.03918
455.8700, 58.57843
457.0590, 52.87238
458.2470, 36.23364
459.4350, 48.58105
460.6230, 40.91541
461.8110, 58.24567
462.9980, 15.55383
464.1860, 37.84418
465.3730, 11.12128
466.5600, 16.37909
467.7470, 25.61932
468.9340, 22.84448
470.1210, 23.16785
471.3080, 5.753113
472.4940, 13.41241
473.6800, 1.440857
474.8660, 11.31964
476.0520, 29.77087
477.2380, 23.84662
478.4230, 48.90625
479.6090, 3.952881
480.7940, 31.97668
481.9790, 9.985962
483.1640, 7.975159
484.3490, 14.94342
485.5330, 3.106873
486.7180, 18.81653
487.9020, 29.72247
489.0860, 4.386658
490.2700, 17.47717
491.4540, 2.351318
492.6370, 30.17407
493.8210, 12.98181
495.0040, 16.77057
496.1870, 13.58972
497.3700, 10.34198
498.5530, 13.15057
499.7360, 9.787842
500.9180, 16.50897
502.1000, 13.05450
503.2830, 16.22064
504.4650, 18.85840
505.6460, 16.47864
506.8280, 29.08051
508.0100, 8.333252
509.1910, 11.22412
510.3720, 2.204895
511.5530, 29.30743
512.7340, 37.80408
513.9150, 26.28607
515.0950, 41.75195
516.2760, 39.27917
517.4560, 34.82196
518.6360, 35.16455
519.8160, 22.06982
520.9950, 23.05994
522.1750, 25.43103
523.3540, 18.67444
524.5340, 24.08057
525.7130, 22.40521
526.8920, 3.620789
528.0700, 37.66174
529.2490, 19.02600
530.4270, 11.35297
531.6060, 16.41492
532.7840, 8.721558
533.9620, 15.72882
535.1390, 7.647949
536.3170, 8.203125
537.4940, 24.30768
538.6720, 25.93964
539.8490, 3.768005
541.0260, 18.21521
542.2030, 10.43958
543.3790, 9.539368
544.5560, 8.467285
545.7320, 4.455139
546.9080, 11.43042
548.0840, 13.39746
549.2600, 19.35919
550.4360, 9.315247
551.6110, 21.26221
552.7860, 17.19977
553.9620, 31.14001
555.1370, 3.083435
556.3110, 15.02539
557.4860, 28.96796
558.6610, 5.085693
559.8350, 20.85461
561.0090, 9.200806
562.1830, 6.728149
563.3570, 19.65979
564.5310, 14.60022
565.7040, 22.54431
566.8780, 13.48157
568.0510, 3.586060
569.2240, 16.34479
570.3970, 8.276550
571.5700, 20.21405
572.7420, 35.15289
573.9150, 43.08862
575.0870, 14.01721
576.2590, 14.94220
577.4310, 21.85834
578.6030, 49.76788
579.7740, 23.66602
580.9460, 17.55206
582.1170, 1.574585
583.2880, 21.28162
584.4590, 4.128418
585.6300, 7.990356
586.8010, 0.7728270
587.9710, 9.574524
589.1410, 26.36334
590.3110, 29.14093
591.4810, 37.41901
592.6510, 33.66345
593.8210, 48.40875
594.9900, 38.14368
596.1600, 45.86823
597.3290, 26.58258
598.4980, 49.28638
599.6670, 74.93811
600.8350, 49.62183
602.0040, 34.28986
603.1720, 84.95374
604.3400, 56.09851
605.5080, 62.70947
606.6760, 53.65668
607.8440, 67.79028
609.0120, 55.16992
610.1790, 71.47925
611.3460, 69.78510
612.5130, 72.74048
613.6800, 70.71063
614.8470, 58.91913
616.0130, 60.49976
617.1800, 59.89459
618.3460, 33.15051
619.5120, 47.68915
620.6780, 38.19080
621.8440, 63.59167
623.0090, 79.36530
624.1750, 53.04785
625.3400, 61.99432
626.5050, 73.04144
627.6700, 34.09723
628.8350, 52.40723
629.9990, 33.36609
631.1640, 5.367126
632.3280, 30.74390
633.4920, 40.03363
634.6560, 42.88074
635.8200, 0.1539920
636.9840, 35.70825
638.1470, 9.454102
639.3100, 26.29895
640.4730, 2.3621000E-02
641.6360, 10.03070
642.7990, 1.203308
643.9620, 6.719788
645.1240, 34.71277
646.2870, 10.64337
647.4490, 24.84351
648.6110, 25.55853
649.7730, 1.668945
650.9340, 5.439209
652.0960, 6.632263
653.2570, 9.936279
654.4180, 14.07574
655.5790, 2.592712
656.7400, 7.713196
657.9010, 3.031860
659.0620, 16.77618
660.2220, 36.27277
661.3820, 16.66003
662.5420, 11.43500
663.7020, 28.59460
664.8620, 24.45361
666.0210, 21.52496
667.1810, 18.46838
668.3400, 5.313477
669.4990, 4.369934
670.6580, 9.387512
671.8170, 0.6152950
672.9750, 13.66144
674.1340, 11.38171
675.2920, 17.73035
676.4500, 0.9341430
677.6080, 21.02496
678.7660, 10.96417
679.9230, 30.93280
681.0810, 10.01984
682.2380, 14.70770
683.3950, 0.6346440
684.5520, 6.054138
685.7090, 19.59607
686.8660, 14.14062
688.0220, 6.254150
689.1780, 12.22974
690.3340, 21.00909
691.4900, 5.026550
692.6460, 4.987122
693.8020, 26.12531
694.9570, 3.729370
696.1130, 11.67377
697.2680, 41.80121
698.4230, 38.95135
699.5780, 10.99701
700.7320, 33.91730
701.8870, 14.73578
703.0410, 24.78101
704.1950, 42.76483
705.3490, 57.85870
706.5030, 37.84088
707.6570, 59.20471
708.8110, 69.24384
709.9640, 83.16687
711.1170, 63.26904
712.2700, 88.49304
713.4230, 74.75476
714.5760, 58.79688
715.7280, 93.85455
716.8810, 81.99298
718.0330, 104.2567
719.1850, 123.4157
720.3370, 128.5232
721.4890, 143.1635
722.6400, 163.3134
723.7920, 141.2475
724.9430, 169.2545
726.0940, 175.0901
727.2450, 185.1304
728.3960, 164.3423
729.5460, 189.5752
730.6970, 251.8455
731.8470, 216.1028
732.9970, 247.3845
734.1470, 238.6665
735.2970, 244.9520
736.4460, 308.1921
737.5960, 306.4815
738.7450, 323.7734
739.8940, 371.0673
741.0430, 347.3545
742.1920, 407.6608
743.3410, 426.9745
744.4890, 472.2909
745.6370, 446.6211
746.7850, 473.9591
747.9330, 484.3010
749.0810, 587.6473
750.2290, 637.9980
751.3760, 703.3589
752.5240, 773.7255
753.6710, 904.1015
754.8180, 944.4895
755.9650, 1063.881
757.1110, 1256.278
758.2580, 1445.678
759.4040, 1732.086
760.5510, 2027.497
761.6970, 2351.916
762.8420, 2794.349
763.9880, 3175.789
765.1340, 3592.243
766.2790, 3984.708
767.4240, 4040.180
768.5690, 4169.664
769.7140, 4011.127
770.8590, 3932.626
772.0030, 3716.130
773.1480, 3595.640
774.2920, 3335.110
775.4360, 3156.633
776.5800, 3075.164
777.7240, 2971.702
778.8670, 2906.219
780.0110, 2936.435
781.1540, 3144.952
782.2970, 3341.520
783.4400, 3473.095
784.5830, 3752.678
785.7250, 3991.266
786.8680, 4344.866
788.0100, 4521.441
789.1520, 4668.060
790.2940, 4765.684
791.4360, 4683.318
792.5780, 4716.957
793.7190, 4881.556
794.8600, 5049.206
796.0010, 5399.809
797.1420, 5958.971
798.2830, 6505.643
799.4240, 7333.838
800.5640, 8445.521
801.7050, 9786.147
802.8450, 11876.84
803.9850, 14636.88
805.1250, 18566.91
806.2640, 22904.53
807.4040, 26461.18
808.5430, 28337.92
809.6820, 28109.66
810.8210, 26962.21
811.9600, 25312.75
813.0990, 23267.10
814.2370, 22006.29
815.3760, 20540.75
816.5140, 18570.34
817.6520, 16483.23
818.7900, 14119.87
819.9270, 11776.70
821.0650, 9685.537
822.2020, 7838.394
823.3390, 6325.257
824.4760, 5392.126
825.6130, 4510.009
826.7500, 4035.898
827.8870, 3415.799
829.0230, 2980.747
830.1590, 2733.662
831.2950, 2475.583
832.4310, 2262.511
833.5670, 2032.447
834.7030, 1901.559
835.8380, 1774.511
836.9730, 1627.469
838.1080, 1548.675
839.2430, 1456.657
840.3780, 1331.646
841.5130, 1287.532
842.6470, 1240.755
843.7810, 1223.066
844.9150, 1145.809
846.0490, 1085.059
847.1830, 1018.234
848.3170, 987.2701
849.4500, 934.6248
850.5830, 940.6711
851.7160, 858.7234
852.8490, 838.7816
853.9820, 803.8456
855.1150, 762.9145
856.2470, 772.9890
857.3800, 706.3917
858.5120, 624.4799
859.6440, 668.6284
860.7760, 570.7286
861.9070, 638.8349
863.0390, 586.9482
864.1700, 519.0683
865.3010, 527.1935
866.4320, 531.3237
867.5630, 503.4589
868.6940, 502.5992
869.8240, 487.7440
870.9540, 452.8949
872.0850, 446.9199
873.2150, 382.2118
874.3450, 416.3774
875.4740, 380.5479
876.6040, 370.7230
877.7330, 381.6571
878.8620, 369.3329
879.9910, 394.5219
881.1200, 302.5724
882.2490, 301.3651
883.3770, 300.5673
884.5060, 342.7737
885.6340, 288.9844
886.7620, 344.1992
887.8900, 309.4183
889.0180, 315.6414
890.1450, 284.8687
891.2730, 285.0998
892.4000, 268.3349
893.5270, 252.5741
894.6540, 236.8171
895.7810, 238.0640
896.9070, 238.3147
898.0340, 241.1444
899.1600, 226.5175
900.2860, 176.7795
901.4120, 183.0405
902.5380, 154.1273
903.6630, 150.5125
904.7890, 171.8047
905.9140, 158.1299
907.0390, 156.4116
908.1640, 129.6964
909.2890, 126.9843
910.4130, 109.2754
911.5380, 109.6833
912.6620, 103.2756
913.7860, 124.2806
914.9100, 106.5837
916.0340, 96.27972
917.1580, 118.5903
918.2810, 119.4755
919.4040, 168.9106
920.5280, 116.2289
921.6510, 170.5549
922.7730, 155.8783
923.8960, 136.4833
925.0180, 121.8116
926.1410, 101.4007
927.2630, 121.6782
928.3850, 67.01294
929.5070, 31.58984
930.6280, 29.92914
931.7500, 44.27063
932.8710, 22.49139
933.9920, 53.83911
935.1130, 21.19092
936.2340, 39.55029
937.3550, 54.91046
938.4760, 34.31439
939.5960, 10.30682
940.7160, 12.40295
941.8360, 16.77954
942.9560, 8.547119
944.0760, 29.91748
945.1950, 3.710815
946.3150, 23.66248
947.4340, 2.038147
948.5530, 11.58313
949.6720, 27.20721
950.7900, 11.04749
951.9090, 20.41809
953.0270, 40.79382
954.1460, 22.17120
955.2640, 21.55530
956.3820, 0.9342650
957.4990, 29.31384
958.6170, 34.69397
959.7340, 20.67603
960.8520, 23.53741
961.9690, 2.716248
963.0860, 0.8062740
964.2020, 24.65100
965.3190, 11.03253
966.4350, 46.41418
967.5520, 32.79590
968.6680, 3.822205
969.7840, 56.57361
970.8990, 19.98975
972.0150, 4.650940
973.1310, 8.905884
974.2460, 31.28265
975.3610, 16.34088
976.4760, 3.972961
977.5910, 22.49280
978.7050, 13.09998
979.8200, 3.754272
980.9340, 19.41156
982.0480, 7.920349
983.1620, 21.74847
984.2760, 27.57062
985.3900, 29.88898
986.5030, 10.20654
987.6160, 14.52393
988.7300, 12.83978
989.8430, 10.20917
990.9550, 4.476807
992.0680, 23.83301
993.1810, 1.141663
994.2930, 22.44843
995.4050, 3.754028
996.5170, 24.05841
997.6290, 18.51624
998.7410, 7.818115
999.8520, 29.11859
1000.964, 35.41779
1002.075, 21.71558
1003.186, 73.01184
1004.297, 42.53326
1005.407, 37.86780
1006.518, 50.15961
1007.628, 61.44983
1008.738, 12.73846
1009.848, 7.025452
1010.958, 24.68933
1012.068, 4.421021
1013.178, 17.84082
1014.287, 25.89917
1015.396, 5.656982
1016.505, 28.57770
1017.614, 19.81061
1018.723, 16.04150
1019.831, 11.27045
1020.940, 26.49744
1022.048, 20.72235
1023.156, 29.94531
1024.264, 23.16614
1025.372, 26.24573
1026.479, 16.60138
1027.587, 29.82056
1028.694, 18.03278
1029.801, 20.44061
1030.908, 19.54950
1032.015, 4.642212
1033.121, 10.16968
1034.228, 9.992859
1035.334, 7.062927
1036.440, 5.328674
1037.546, 8.735168
1038.652, 7.630371
1039.758, 22.77661
1040.863, 28.92047
1041.968, 32.06171
1043.074, 24.20044
1044.178, 6.353210
1045.283, 24.48553
1046.388, 35.61517
1047.492, 13.74225
1048.597, 0.8666380
1049.701, 18.98462
1050.805, 1.900208
1051.909, 7.207031
1053.012, 25.31018
1054.116, 13.41058
1055.219, 23.50818
1056.322, 3.602844
1057.425, 25.69202
1058.528, 6.221619
1059.631, 2.854004
1060.733, 21.92371
1061.836, 4.990540
1062.938, 20.05200
1064.040, 17.11053
1065.142, 5.833862
1066.243, 39.21094
1067.345, 39.25275
1068.446, 16.29150
1069.547, 40.32715
1070.648, 12.35968
1071.749, 15.38861
1072.850, 3.103577
1073.951, 16.12286
1075.051, 2.138916
1076.151, 39.14813
1077.251, 24.15417
1078.351, 35.06464
1079.451, 33.06433
1080.550, 26.06067
1081.650, 38.65387
1082.749, 6.556396
1083.848, 55.42267
1084.947, 32.39850
1086.046, 48.37231
1087.144, 17.34583
1088.243, 50.31689
1089.341, 57.28778
1090.439, 32.25604
1091.537, 1.778931
1092.635, 0.1774900
1093.732, 4.851074
1094.830, 10.06476
1095.927, 10.95795
1097.024, 24.89062
1098.121, 28.82007
1099.218, 27.95587
1100.314, 23.66907
1101.411, 16.41754
1102.507, 13.33368
1103.603, 7.753845
1104.699, 6.914978
1105.795, 48.81067
1106.890, 28.70306
1107.986, 34.70056
1109.081, 8.364319
1110.176, 10.94305
1111.271, 23.09595
1112.366, 20.74493
1113.461, 28.09985
1114.555, 22.34351
1115.649, 34.96478
1116.744, 34.82898
1117.838, 32.69031
1118.931, 15.54858
1120.025, 41.40405
1121.119, 7.256714
1122.212, 16.10583
1123.305, 32.62970
1124.398, 40.47302
1125.491, 52.25885
1126.584, 30.09656
1127.676, 25.93146
1128.768, 2.764343
1129.861, 39.59290
1130.953, 40.41864
1132.044, 37.24182
1133.136, 21.06232
1134.228, 20.87988
1135.319, 0.6948240
1136.410, 7.771301
1137.501, 39.31158
1138.592, 17.11566
1139.683, 28.91699
1140.773, 28.71558
1141.864, 32.51147
1142.954, 41.55231
1144.044, 27.85364
1145.134, 15.64355
1146.224, 33.57404
1147.313, 49.76410
1148.402, 16.54669
1149.492, 46.32703
1150.581, 17.10492
1151.670, 34.88068
1152.758, 35.65405
1153.847, 56.42499
1154.935, 43.19360
1156.024, 24.95990
1157.112, 58.72394
1158.200, 10.48566
1159.287, 17.24500
1160.375, 58.00214
1161.462, 11.75702
1162.550, 68.93463
1163.637, 26.57037
1164.724, 47.31854
1165.810, 62.06927
1166.897, 29.99561
1167.983, 28.62506
1169.070, 12.34875
1170.156, 53.04089
1171.242, 38.77789
1172.327, 24.51306
1173.413, 30.24652
1174.499, 2.978088
1175.584, 9.051819
1176.669, 32.32178
1177.754, 14.04779
1178.839, 32.77203
1179.923, 44.10596
1181.008, 64.82678
1182.092, 34.97388
1183.176, 39.57196
1184.260, 49.28778
1185.344, 55.99677
1186.428, 11.70941
1187.511, 69.14136
1188.595, 28.85095
1189.678, 5.683228
1190.761, 46.06201
1191.843, 36.76715
1192.926, 22.23120
1194.009, 7.933594
1195.091, 19.63464
1196.173, 50.45947
1197.255, 24.15790
1198.337, 34.85510
1199.419, 68.54510
1200.500, 21.23987
1201.582, 38.89130
1202.663, 52.57135
1203.744, 59.91925
1204.825, 64.07660
1205.905, 32.89319
1206.986, 51.58264
1208.066, 40.27094
1209.146, 9.958801
1210.226, 30.64563
1211.306, 47.33142
1212.386, 39.01819
1213.466, 47.82324
1214.545, 43.51343
1215.624, 42.44232
1216.703, 43.83118
1217.782, 32.67462
1218.861, 45.21631
1219.939, 74.90234
1221.018, 57.58734
1222.096, 45.68707
1223.174, 68.89008
1224.252, 41.77539
1225.330, 16.36157
1226.407, 39.54181
1227.485, 14.22278
1228.562, 56.90381
1229.639, 43.58344
1230.716, 38.26245
1231.793, 57.92584
1232.869, 57.56836
1233.946, 35.27863
1235.022, 63.77869
1236.098, 53.45801
1237.174, 80.13690
1238.250, 41.82269
1239.325, 69.40393
1240.401, 81.05536
1241.476, 45.95544
1242.551, 66.65045
