##NAMES=Mimetite
##RRUFFID=R050007
##IDEAL CHEMISTRY=Pb^2+^_5_(As^5+^O_4_)_3_Cl
##LOCALITY=Pingtouling, Guangdong, China
##OWNER=RRUFF
##SOURCE=Eugene Schlepp
##DESCRIPTION=Reddish orange colored hexagonal prisms
##STATUS=The identification of this mineral has been confirmed by X-ray diffraction and chemical analysis
##URL=rruff.info/R050007
##MEASURED CHEMISTRY=Pb_5.00_((As_0.99_P_0.01_)O_4_)_3_Cl_1.00_
##PIN_ID=L00097
##ORIENTATION=Laser parallel to c* (0 0 1). Fiducial mark perpendicular to laser is parallel to -a [-1 0 0]
49.365, 0.000
50.765, 1.124
52.166, 110.908
53.566, 118.058
54.966, 221.983
56.365, 295.501
57.765, 431.281
59.164, 520.371
60.563, 562.765
61.962, 549.219
63.360, 482.996
64.758, 459.726
66.157, 418.573
67.554, 349.464
68.952, 255.932
70.349, 275.935
71.747, 202.437
73.144, 144.403
74.540, 161.800
75.937, 38.594
77.333, 1.241
78.729, 52.733
80.125, 58.904
81.521, 22.772
82.916, 36.814
84.311, 164.329
85.706, 279.268
87.101, 454.450
88.496, 678.865
89.890, 885.505
91.284, 1131.360
92.678, 1561.423
94.071, 2005.682
95.465, 2717.126
96.858, 3550.743
98.251, 4347.523
99.644, 4934.446
101.036, 5085.504
102.428, 5103.690
103.820, 4974.001
105.212, 4859.431
106.604, 4651.978
107.995, 4495.643
109.387, 4396.417
110.777, 4365.298
112.168, 4245.281
113.559, 4217.367
114.949, 4060.750
116.339, 3907.833
117.729, 3778.208
119.119, 3648.679
120.508, 3576.245
121.897, 3548.902
123.286, 3508.654
124.675, 3520.499
126.063, 3509.439
127.452, 3488.474
128.840, 3416.603
130.228, 3349.828
131.615, 3520.147
133.003, 3458.560
134.390, 3396.041
135.777, 3445.591
137.164, 3381.203
138.550, 3473.868
139.937, 3423.579
141.323, 3459.321
142.709, 3460.088
144.094, 3435.990
145.480, 3398.706
146.865, 3388.534
148.250, 3324.271
149.635, 3262.967
151.019, 3197.703
152.403, 3197.484
153.788, 3192.308
155.171, 3063.177
156.555, 3048.091
157.939, 2972.050
159.322, 3063.053
160.705, 3039.101
162.088, 3134.193
163.470, 3084.338
164.853, 3029.608
166.235, 3093.846
167.617, 3045.106
168.998, 3080.406
170.380, 3039.746
171.761, 3039.127
173.142, 2944.551
174.523, 2863.017
175.904, 2877.525
177.284, 2769.076
178.664, 2731.672
180.044, 2634.314
181.424, 2599.997
182.803, 2496.728
184.183, 2438.499
185.562, 2387.315
186.940, 2317.176
188.319, 2256.104
189.698, 2177.933
191.076, 2053.119
192.454, 2013.204
193.831, 1912.361
195.209, 1827.576
196.586, 1756.854
197.963, 1704.193
199.340, 1651.602
200.717, 1572.093
202.093, 1489.672
203.470, 1425.304
204.846, 1344.001
206.221, 1293.727
207.597, 1280.607
208.972, 1195.510
210.347, 1167.464
211.722, 1118.472
213.097, 1047.538
214.472, 1027.653
215.846, 951.899
217.220, 932.488
218.594, 870.387
219.967, 812.236
221.341, 742.024
222.714, 772.745
224.087, 682.327
225.460, 644.822
226.832, 678.261
228.204, 647.656
229.577, 610.889
230.948, 578.671
232.320, 573.372
233.692, 495.131
235.063, 461.947
236.434, 467.830
237.805, 460.768
239.175, 411.595
240.545, 381.578
241.916, 372.787
243.286, 284.867
244.655, 323.989
246.025, 277.983
247.394, 255.496
248.763, 189.309
250.132, 198.647
251.501, 217.026
252.869, 154.437
254.237, 140.879
255.605, 60.352
256.973, 99.863
258.340, 98.407
259.708, 55.979
261.075, 81.584
262.442, 63.216
263.808, 54.873
265.175, 31.556
266.541, 8.263
267.907, 47.994
269.273, 33.746
270.639, 4.518
272.004, 41.309
273.369, 26.118
274.734, 1.943
276.099, 18.785
277.463, 9.357
278.828, 40.516
280.192, 0.403
281.556, 6.304
282.919, 52.219
284.283, 40.146
285.646, 36.086
287.009, 95.038
288.372, 102.001
289.734, 155.974
291.097, 197.022
292.459, 240.170
293.821, 283.628
295.183, 332.609
296.544, 366.819
297.905, 431.139
299.266, 480.348
300.627, 519.661
301.988, 639.055
303.348, 733.374
304.709, 785.981
306.069, 866.512
307.428, 922.084
308.788, 1007.791
310.147, 1042.198
311.507, 1048.592
312.865, 1061.583
314.224, 1065.046
315.583, 1053.769
316.941, 1144.171
318.299, 1079.139
319.657, 1129.713
321.015, 1093.502
322.372, 1131.619
323.729, 1202.147
325.086, 1199.803
326.443, 1231.221
327.800, 1304.429
329.156, 1359.964
330.512, 1418.176
331.868, 1462.820
333.224, 1494.479
334.579, 1535.512
335.935, 1566.272
337.290, 1587.899
338.645, 1575.962
339.999, 1574.861
341.354, 1501.765
342.708, 1434.948
344.062, 1335.913
345.416, 1305.854
346.769, 1161.896
348.123, 1080.667
349.476, 964.292
350.829, 995.964
352.182, 857.175
353.534, 920.382
354.887, 887.314
356.239, 851.486
357.591, 922.335
358.942, 993.843
360.294, 1111.368
361.645, 1245.914
362.996, 1400.348
364.347, 1593.178
365.698, 1798.324
367.048, 2033.973
368.398, 2158.125
369.748, 2233.162
371.098, 2199.958
372.448, 2145.268
373.797, 1926.089
375.146, 1769.674
376.495, 1574.339
377.844, 1444.202
379.192, 1315.777
380.540, 1190.875
381.889, 1135.565
383.236, 1065.538
384.584, 1036.720
385.932, 1022.192
387.279, 962.755
388.626, 954.964
389.973, 935.350
391.319, 891.342
392.666, 903.807
394.012, 847.379
395.358, 880.182
396.704, 879.979
398.049, 857.641
399.394, 873.221
400.740, 830.229
402.084, 850.864
403.429, 887.631
404.774, 960.452
406.118, 992.316
407.462, 1005.821
408.806, 1012.470
410.150, 1063.399
411.493, 1141.121
412.836, 1240.281
414.179, 1317.869
415.522, 1412.433
416.865, 1482.330
418.207, 1653.867
419.549, 1572.291
420.891, 1634.325
422.233, 1572.204
423.575, 1481.107
424.916, 1351.625
426.257, 1241.762
427.598, 1084.656
428.939, 956.401
430.279, 825.724
431.619, 801.047
432.959, 634.228
434.299, 608.339
435.639, 578.427
436.978, 484.484
438.318, 465.525
439.657, 401.477
440.996, 359.470
442.334, 290.425
443.673, 285.369
445.011, 201.289
446.349, 181.184
447.687, 170.054
449.024, 166.899
450.361, 160.719
451.699, 103.514
453.036, 82.282
454.372, 88.024
455.709, 49.739
457.045, 74.425
458.381, 50.084
459.717, 78.714
461.053, 55.317
462.388, 38.891
463.724, 57.435
465.059, 18.950
466.394, 25.434
467.728, 22.887
469.063, 15.308
470.397, 42.697
471.731, 47.055
473.065, 7.384
474.398, 37.676
475.732, 16.938
477.065, 49.167
478.398, 9.399
479.731, 27.562
481.063, 15.692
482.396, 6.789
483.728, 16.152
485.060, 1.717
486.391, 2.249
487.723, 6.176
489.054, 33.087
490.385, 10.058
491.716, 13.751
493.047, 10.476
494.377, 15.751
495.708, 12.077
497.038, 0.451
498.368, 8.868
499.697, 3.332
501.027, 20.840
502.356, 9.402
503.685, 6.011
505.014, 21.666
506.342, 23.375
507.671, 35.139
508.999, 32.964
510.327, 49.848
511.655, 26.801
512.982, 5.189
514.310, 22.860
515.637, 26.963
516.964, 22.123
518.291, 32.963
519.617, 33.608
520.944, 26.940
522.270, 40.328
523.596, 23.778
524.921, 29.281
526.247, 21.842
527.572, 14.454
528.897, 29.115
530.222, 25.831
531.547, 34.601
532.871, 27.428
534.196, 24.310
535.520, 26.245
536.844, 1.769
538.167, 10.256
539.491, 3.324
540.814, 13.432
542.137, 34.585
543.460, 6.794
544.783, 3.957
546.105, 14.327
547.427, 7.345
548.749, 2.984
550.071, 10.590
551.393, 0.165
552.714, 2.295
554.035, 28.210
555.356, 24.687
556.677, 37.864
557.998, 5.469
559.318, 13.109
560.638, 42.211
561.958, 6.505
563.278, 3.770
564.597, 13.994
565.917, 8.797
567.236, 11.635
568.555, 0.509
569.874, 14.414
571.192, 22.355
572.511, 16.663
573.829, 15.655
575.147, 1.378
576.464, 34.440
577.782, 15.547
579.099, 9.688
580.416, 24.860
581.733, 9.071
583.050, 1.312
584.366, 15.579
585.683, 11.878
586.999, 9.804
588.315, 0.437
589.630, 0.944
590.946, 13.650
592.261, 23.222
593.576, 30.773
594.891, 41.302
596.206, 25.809
597.520, 47.296
598.834, 27.762
600.148, 37.208
601.462, 43.633
602.776, 46.038
604.089, 48.424
605.402, 63.789
606.715, 27.135
608.028, 55.462
609.341, 30.770
610.653, 59.995
611.965, 85.111
613.277, 47.231
614.589, 63.172
615.901, 33.197
617.212, 43.101
618.523, 19.106
619.834, 25.996
621.145, 38.795
622.456, 55.658
623.766, 50.221
625.076, 21.849
626.386, 77.426
627.696, 23.857
629.006, 21.577
630.315, 29.299
631.624, 12.414
632.933, 10.047
634.242, 41.410
635.551, 2.917
636.859, 32.180
638.167, 16.662
639.475, 53.917
640.783, 14.835
642.090, 24.669
643.398, 34.686
644.705, 8.270
646.012, 1.948
647.318, 24.495
648.625, 58.251
649.931, 61.300
651.237, 33.997
652.543, 17.348
653.849, 23.666
655.155, 29.204
656.460, 30.951
657.765, 36.796
659.070, 58.012
660.375, 41.699
661.679, 59.593
662.984, 58.498
664.288, 53.292
665.592, 48.345
666.895, 70.534
668.199, 61.664
669.502, 66.243
670.805, 62.815
672.108, 81.650
673.411, 104.233
674.713, 90.128
676.016, 143.352
677.318, 79.546
678.620, 134.170
679.921, 105.968
681.223, 163.820
682.524, 156.344
683.825, 138.353
685.126, 173.845
686.427, 210.438
687.727, 178.259
689.028, 200.553
690.328, 206.323
691.628, 222.316
692.927, 200.215
694.227, 244.902
695.526, 284.864
696.825, 311.293
698.124, 277.120
699.423, 342.654
700.721, 318.966
702.020, 366.980
703.318, 392.893
704.616, 360.153
705.913, 407.226
707.211, 416.686
708.508, 455.666
709.805, 474.532
711.102, 493.163
712.399, 493.795
713.695, 551.557
714.992, 615.397
716.288, 556.802
717.584, 646.577
718.879, 620.218
720.175, 700.803
721.470, 691.353
722.765, 770.279
724.060, 732.079
725.355, 824.609
726.649, 873.342
727.944, 953.634
729.238, 925.496
730.532, 1031.374
731.825, 1034.050
733.119, 1156.805
734.412, 1183.806
735.705, 1208.191
736.998, 1283.725
738.291, 1406.228
739.584, 1421.109
740.876, 1586.368
742.168, 1625.864
743.460, 1688.506
744.752, 1856.569
746.043, 1998.627
747.334, 2137.828
748.626, 2250.099
749.916, 2460.393
751.207, 2835.704
752.498, 3112.035
753.788, 3468.391
755.078, 3938.780
756.368, 4324.191
757.658, 4921.627
758.947, 5502.086
760.237, 6106.571
761.526, 6655.088
762.815, 6862.629
764.104, 7298.197
765.392, 7363.797
766.680, 7295.417
767.969, 7001.058
769.257, 6968.724
770.544, 6945.417
771.832, 6651.140
773.119, 6732.894
774.406, 6618.676
775.693, 6795.487
776.980, 7101.324
778.267, 7319.190
779.553, 7769.089
780.839, 8161.024
782.125, 8819.997
783.411, 9458.999
784.697, 9938.032
785.982, 10367.091
787.267, 11096.188
788.552, 11565.317
789.837, 12374.479
791.122, 13153.633
792.406, 14222.854
793.690, 15692.106
794.974, 17031.393
796.258, 19840.717
797.542, 23022.385
798.825, 25819.031
800.108, 31688.443
801.391, 37267.875
802.674, 43527.348
803.957, 48036.859
805.239, 49746.395
806.522, 49565.973
807.804, 47935.586
809.085, 45345.234
810.367, 41904.918
811.649, 37634.625
812.930, 34164.391
814.211, 28854.166
815.492, 25683.988
816.772, 21403.840
818.053, 18763.736
819.333, 15943.664
820.613, 14423.637
821.893, 13183.650
823.173, 12133.709
824.452, 11373.806
825.732, 10653.932
827.011, 10124.097
828.290, 9674.301
829.568, 9214.540
830.847, 8614.823
832.125, 8345.146
833.403, 7790.506
834.681, 7455.909
835.959, 6876.351
837.236, 6655.831
838.514, 6257.348
839.791, 6064.901
841.068, 5671.493
842.345, 5509.123
843.621, 5204.797
844.898, 5053.508
846.174, 4824.256
847.450, 4562.042
848.726, 4360.859
850.001, 4116.709
851.277, 3912.678
852.552, 3692.915
853.827, 3499.461
855.102, 3230.448
856.376, 2989.576
857.651, 2691.680
858.925, 2540.757
860.199, 2342.863
861.473, 2160.997
862.746, 2021.159
864.020, 1877.818
865.293, 1762.212
866.566, 1660.858
867.839, 1578.154
869.112, 1511.466
870.384, 1456.282
871.656, 1408.069
872.928, 1364.470
874.200, 1319.054
875.472, 1291.505
876.744, 1230.430
878.015, 1209.176
879.286, 1194.204
880.557, 1139.666
881.828, 1123.595
883.098, 1056.217
884.369, 1049.863
885.639, 986.535
886.909, 959.532
888.178, 883.368
889.448, 818.129
890.717, 847.920
891.987, 832.737
893.256, 768.179
894.524, 730.120
895.793, 706.691
897.061, 660.585
898.330, 685.980
899.598, 617.341
900.865, 626.269
902.133, 571.226
903.401, 613.257
904.668, 569.711
905.935, 554.621
907.202, 589.504
908.468, 585.051
909.735, 626.419
911.001, 594.004
912.267, 682.681
913.533, 709.895
914.799, 796.320
916.064, 833.089
917.330, 834.397
918.595, 835.709
919.860, 804.156
921.124, 683.115
922.389, 580.236
923.653, 520.371
924.918, 429.624
926.182, 370.163
927.445, 357.608
928.709, 333.964
929.972, 258.859
931.236, 215.545
932.499, 269.022
933.761, 240.447
935.024, 212.322
936.286, 237.793
937.549, 176.430
938.811, 186.353
940.073, 238.946
941.334, 196.895
942.596, 165.291
943.857, 152.985
945.118, 139.445
946.379, 182.198
947.640, 176.077
948.900, 181.358
950.161, 148.056
951.421, 105.811
952.681, 161.825
953.940, 108.454
955.200, 111.972
956.459, 116.168
957.719, 87.540
958.978, 134.672
960.236, 98.551
961.495, 97.707
962.753, 58.567
964.012, 74.473
965.270, 95.341
966.527, 108.166
967.785, 120.525
969.043, 59.709
970.300, 41.579
971.557, 56.913
972.814, 64.771
974.071, 39.678
975.327, 74.552
976.583, 58.468
977.840, 49.365
979.095, 73.261
980.351, 75.165
981.607, 57.075
982.862, 38.018
984.117, 61.978
985.372, 54.951
986.627, 36.925
987.882, 69.878
989.136, 48.877
990.390, 20.955
991.644, 31.969
992.898, 71.119
994.152, 18.362
995.405, 16.329
996.659, 53.325
997.912, 36.300
999.165, 4.304
1000.417, 51.369
1001.670, 61.354
1002.922, 36.396
1004.174, 25.385
1005.426, 38.376
1006.678, 8.631
1007.930, 4.637
1009.181, 10.407
1010.432, 31.403
1011.683, 8.524
1012.934, 20.525
1014.185, 27.614
1015.435, 3.385
1016.685, 21.617
1017.935, 0.382
1019.185, 17.619
1020.435, 19.379
1021.684, 17.383
1022.934, 0.610
1024.183, 34.394
1025.432, 4.598
1026.680, 16.424
1027.929, 22.452
1029.177, 0.489
1030.425, 25.528
1031.673, 11.578
1032.921, 14.400
1034.169, 3.343
1035.416, 15.283
1036.663, 8.779
1037.911, 2.848
1039.157, 21.079
1040.404, 20.003
1041.650, 12.923
1042.897, 13.160
1044.143, 0.254
1045.389, 13.354
1046.634, 18.464
1047.880, 7.589
1049.125, 24.725
1050.371, 32.878
1051.615, 15.054
1052.860, 15.757
1054.105, 3.438
1055.349, 27.641
1056.593, 57.867
1057.837, 2.131
1059.081, 15.408
1060.325, 17.703
1061.568, 18.019
1062.812, 41.355
1064.055, 11.726
1065.298, 16.113
1066.540, 39.521
1067.783, 14.036
1069.025, 10.584
1070.267, 1.123
1071.509, 16.353
1072.751, 15.529
1073.993, 16.378
1075.234, 19.929
1076.475, 1.508
1077.716, 0.895
1078.957, 6.720
1080.198, 18.358
1081.438, 30.024
1082.679, 28.268
1083.919, 16.542
1085.159, 27.204
1086.398, 3.016
1087.638, 0.784
1088.877, 10.603
1090.116, 15.450
1091.355, 11.673
1092.594, 33.777
1093.833, 21.132
1095.071, 9.074
1096.309, 30.953
1097.547, 19.965
1098.785, 44.960
1100.023, 41.943
1101.260, 31.913
1102.498, 15.871
1103.735, 19.582
1104.972, 29.726
1106.208, 25.628
1107.445, 34.511
1108.681, 47.378
1109.918, 36.231
1111.154, 52.068
1112.389, 50.895
1113.625, 55.708
1114.860, 68.508
1116.096, 35.295
1117.331, 43.064
1118.566, 68.815
1119.800, 39.553
1121.035, 81.273
1122.269, 69.979
1123.503, 120.671
1124.737, 74.349
1125.971, 82.011
1127.205, 110.660
1128.438, 86.293
1129.671, 90.913
1130.904, 82.518
1132.137, 81.515
1133.370, 80.686
1134.602, 83.249
1135.834, 90.797
1137.066, 82.330
1138.298, 71.906
1139.530, 83.407
1140.762, 68.900
1141.993, 64.389
1143.224, 104.838
1144.455, 96.409
1145.686, 123.895
1146.917, 98.341
1148.147, 85.823
1149.377, 120.290
1150.607, 94.643
1151.837, 120.001
1153.067, 115.320
1154.296, 121.623
1155.526, 111.975
1156.755, 101.253
1157.984, 120.625
1159.213, 88.105
1160.441, 115.442
1161.670, 95.962
1162.898, 119.328
1164.126, 121.612
1165.354, 124.842
1166.581, 131.153
1167.809, 133.567
1169.036, 145.266
1170.263, 157.375
1171.490, 122.597
1172.717, 120.563
1173.943, 124.822
1175.170, 146.492
1176.396, 133.799
1177.622, 144.940
1178.848, 162.135
1180.073, 118.161
1181.299, 143.279
1182.524, 136.376
1183.749, 176.486
1184.974, 161.301
1186.199, 137.267
1187.423, 156.456
1188.648, 165.453
1189.872, 152.411
1191.096, 165.753
1192.320, 163.701
1193.543, 162.951
1194.767, 182.806
1195.990, 195.275
1197.213, 198.789
1198.436, 188.651
1199.659, 164.941
1200.881, 191.835
1202.104, 190.665
1203.326, 168.780
1204.548, 173.729
1205.770, 167.964
1206.991, 184.363
1208.213, 171.553
1209.434, 195.854
1210.655, 187.477
1211.876, 178.265
1213.096, 184.673
1214.317, 172.274
1215.537, 156.247
1216.757, 166.868
1217.977, 168.364
1219.197, 173.062
1220.417, 228.849
1221.636, 187.463
1222.855, 206.818
1224.074, 190.398
1225.293, 142.047
1226.512, 204.052
1227.731, 176.460
1228.949, 182.370
1230.167, 171.037
1231.385, 169.638
1232.603, 174.500
1233.820, 156.877
1235.038, 158.813
1236.255, 172.095
1237.472, 158.369
1238.689, 137.852
1239.906, 183.774
1241.122, 156.722
1242.338, 160.739
1243.555, 161.662
1244.771, 157.110
1245.986, 172.183
1247.202, 133.344
1248.417, 144.898
1249.633, 162.084
1250.848, 135.301
1252.063, 164.253
1253.277, 132.645
1254.492, 161.356
1255.706, 135.198
1256.920, 152.796
1258.134, 147.856
1259.348, 143.964
1260.562, 145.946
1261.775, 160.007
1262.988, 118.351
1264.201, 192.912
1265.414, 162.967
1266.627, 162.360
1267.839, 119.187
1269.052, 166.041
1270.264, 123.038
1271.476, 122.708
1272.688, 143.491
1273.899, 115.249
1275.111, 140.038
1276.322, 150.931
1277.533, 108.714
1278.744, 141.177
1279.955, 118.895
1281.165, 124.559
1282.376, 106.481
1283.586, 84.018
1284.796, 115.599
1286.006, 96.185
1287.215, 92.494
1288.425, 101.818
1289.634, 64.397
1290.843, 80.942
1292.052, 86.434
1293.261, 74.049
1294.469, 73.433
1295.678, 97.141
1296.886, 91.486
1298.094, 107.997
1299.302, 101.843
1300.509, 53.701
1301.717, 81.119
1302.924, 67.438
1304.131, 44.756
1305.338, 66.938
1306.545, 36.183
1307.752, 51.375
1308.958, 55.677
1310.164, 74.861
1311.370, 49.209
1312.576, 36.287
1313.782, 75.416
1314.987, 24.455
1316.193, 52.478
1317.398, 71.483
1318.603, 42.461
1319.807, 65.422
1321.012, 85.490
1322.216, 46.416
1323.421, 57.321
1324.625, 23.347
1325.829, 44.276
1327.032, 44.139
1328.236, 40.449
1329.439, 38.257
1330.642, 40.378
1331.845, 25.875
1333.048, 43.609
1334.251, 46.368
1335.453, 45.060
1336.656, 32.733
1337.858, 41.382
1339.060, 57.010
1340.261, 36.654
1341.463, 35.343
1342.664, 48.916
1343.866, 8.475
1345.067, 29.012
1346.267, 6.523
1347.468, 20.023
1348.669, 39.500
1349.869, 51.011
1351.069, 54.543
1352.269, 52.270
1353.469, 22.401
1354.668, 37.866
1355.868, 7.250
1357.067, 8.615
1358.266, 28.964
1359.465, 57.303
1360.664, 20.621
1361.862, 11.915
1363.061, 38.190
1364.259, 24.451
1365.457, 30.697
1366.655, 26.927
1367.852, 14.180
1369.050, 15.377
1370.247, 24.557
1371.444, 8.751
1372.641, 1.094
1373.838, 8.052
1375.035, 2.812
1376.231, 0.698
1377.427, 11.594
1378.623, 9.311
1379.819, 22.584
1381.015, 0.774
1382.211, 21.963
1383.406, 74.164
1384.601, 2.638
1385.796, 37.547
1386.991, 30.715
1388.185, 46.878
1389.380, 37.033
1390.574, 17.177
1391.768, 5.704
1392.962, 28.397
1394.156, 44.489
1395.350, 1.567
1396.543, 36.631
1397.736, 23.679
1398.929, 45.712
1400.122, 36.728
1401.315, 12.276
1402.507, 6.701
1403.700, 20.591
1404.892, 15.529
1406.084, 44.439
1407.276, 33.106
1408.467, 10.836
1409.659, 34.602
1410.850, 43.450
1412.041, 26.083
1413.232, 12.693
1414.423, 62.046
1415.614, 37.192
1416.804, 41.660
1417.994, 29.767
1419.184, 14.081
1420.374, 22.196
1421.564, 7.556
1422.753, 23.854
1423.943, 30.748
1425.132, 3.850
1426.321, 49.817
1427.510, 21.590
1428.698, 28.681
1429.887, 59.623
1431.075, 30.749
1432.263, 32.622
1433.451, 30.016
1434.639, 43.111
1435.827, 13.755
1437.014, 40.903
1438.201, 4.698
1439.388, 47.972
1440.575, 20.159
1441.762, 64.944
1442.949, 33.368
1444.135, 25.980
1445.321, 33.320
1446.507, 40.645
1447.693, 36.823
1448.879, 43.748
1450.064, 29.008
1451.250, 17.403
1452.435, 37.964
1453.620, 5.597
1454.805, 54.099
1455.989, 36.696
1457.174, 52.079
1458.358, 59.398
1459.542, 47.810
1460.726, 62.909
1461.910, 53.280
1463.093, 15.393
1464.277, 61.030
1465.460, 46.330
1466.643, 12.133
1467.826, 21.218
1469.009, 40.103
1470.191, 6.386
1471.373, 52.434
1472.556, 32.351
1473.738, 25.717
1474.919, 72.781
1476.101, 26.034
1477.283, 47.870
1478.464, 55.782
1479.645, 43.206
1480.826, 79.271
1482.007, 25.010
1483.187, 8.346
1484.368, 51.805
1485.548, 63.385
1486.728, 33.431
1487.908, 36.239
1489.088, 25.970
1490.268, 61.949
1491.447, 17.825
1492.626, 7.149
1493.805, 63.024
1494.984, 61.626
1496.163, 5.591
1497.341, 81.987
1498.520, 31.258
1499.698, 34.481
1500.876, 34.953
1502.054, 28.197
1503.232, 29.895
1504.409, 41.313
1505.586, 38.687
1506.763, 44.701
1507.940, 27.166
1509.117, 7.706
1510.294, 20.099
1511.470, 23.499
1512.647, 9.942
