##NAMES=Mimetite
##RRUFFID=R050007
##IDEAL CHEMISTRY=Pb^2+^_5_(As^5+^O_4_)_3_Cl
##LOCALITY=Pingtouling, Guangdong, China
##OWNER=RRUFF
##SOURCE=Eugene Schlepp
##DESCRIPTION=Reddish orange colored hexagonal prisms
##STATUS=The identification of this mineral has been confirmed by X-ray diffraction and chemical analysis
##URL=rruff.info/R050007
##MEASURED CHEMISTRY=Pb_5.00_((As_0.99_P_0.01_)O_4_)_3_Cl_1.00_
##PIN_ID=L00370
##ORIENTATION=Laser parallel to a* (1 0 0). Fiducial mark perpendicular to laser is parallel to c [0 0 1]
48.666, 0.000
50.068, 21.083
51.471, 43.183
52.873, 125.917
54.275, 170.781
55.677, 254.768
57.079, 367.451
58.480, 496.120
59.882, 526.374
61.283, 633.620
62.683, 691.613
64.084, 808.779
65.484, 827.880
66.884, 766.025
68.284, 600.023
69.684, 439.577
71.083, 359.640
72.482, 237.170
73.881, 123.129
75.280, 30.481
76.678, 6.806
78.076, 46.755
79.474, 55.376
80.872, 46.694
82.270, 18.268
83.667, 152.491
85.064, 306.957
86.461, 561.651
87.858, 847.561
89.254, 1172.674
90.650, 1470.981
92.046, 1815.473
93.442, 2160.144
94.838, 2527.984
96.233, 3315.980
97.628, 4272.123
99.023, 5362.392
100.418, 6089.776
101.812, 6497.268
103.206, 6576.866
104.600, 6273.565
105.994, 6013.408
107.387, 5772.455
108.781, 5465.649
110.174, 5193.929
111.566, 4976.283
112.959, 4885.711
114.351, 4644.212
115.744, 4610.785
117.136, 4526.429
118.527, 4302.142
119.919, 4243.925
121.310, 4157.776
122.701, 4049.694
124.092, 3976.681
125.482, 3801.732
126.873, 3767.850
128.263, 3694.032
129.653, 3554.279
131.042, 3497.590
132.432, 3369.974
133.821, 3325.447
135.210, 3342.003
136.599, 3375.630
137.987, 3281.314
139.376, 3332.044
140.764, 3283.798
142.152, 3339.569
143.539, 3132.358
144.927, 3178.164
146.314, 3053.941
147.701, 2999.602
149.088, 2947.172
150.474, 2848.768
151.861, 2740.402
153.247, 2759.074
154.633, 2638.787
156.018, 2663.538
157.404, 2590.329
158.789, 2540.159
160.174, 2527.028
161.559, 2586.308
162.943, 2627.557
164.327, 2651.056
165.711, 2730.734
167.095, 2673.585
168.479, 2874.824
169.862, 2799.017
171.246, 2798.085
172.628, 2727.190
174.011, 2709.329
175.394, 2656.504
176.776, 2589.717
178.158, 2449.968
179.540, 2421.256
180.922, 2317.581
182.303, 2271.944
183.684, 2201.344
185.065, 2183.777
186.446, 2054.251
187.826, 2051.766
189.207, 2048.325
190.587, 1923.915
191.967, 1878.535
193.346, 1837.192
194.726, 1762.886
196.105, 1700.611
197.484, 1629.365
198.862, 1552.251
200.241, 1486.960
201.619, 1414.802
202.997, 1355.689
204.375, 1329.637
205.753, 1245.624
207.130, 1174.634
208.507, 1171.671
209.884, 1132.749
211.261, 1058.886
212.638, 1021.075
214.014, 982.316
215.390, 991.629
216.766, 921.996
218.141, 851.304
219.517, 859.506
220.892, 786.586
222.267, 731.526
223.642, 698.246
225.016, 646.815
226.391, 615.271
227.765, 586.623
229.139, 582.690
230.512, 562.247
231.886, 475.576
233.259, 438.961
234.632, 437.406
236.005, 399.913
237.377, 409.477
238.749, 389.026
240.122, 311.096
241.493, 327.097
242.865, 287.681
244.237, 313.004
245.608, 269.010
246.979, 240.784
248.350, 221.333
249.720, 239.108
251.090, 145.104
252.461, 183.134
253.830, 150.193
255.200, 123.277
256.570, 108.387
257.939, 83.525
259.308, 81.692
260.677, 84.888
262.045, 89.113
263.414, 106.359
264.782, 8.630
266.150, 31.920
267.517, 12.231
268.885, 12.559
270.252, 10.912
271.619, 2.285
272.986, 19.325
274.353, 37.923
275.719, 42.510
277.085, 39.088
278.451, 22.657
279.817, 47.215
281.182, 42.766
282.548, 1.690
283.913, 33.844
285.278, 6.370
286.642, 9.887
288.007, 10.395
289.371, 28.105
290.735, 44.615
292.099, 79.132
293.462, 135.676
294.826, 153.438
296.189, 203.843
297.552, 229.416
298.914, 292.086
300.277, 367.787
301.639, 403.648
303.001, 470.475
304.363, 528.294
305.724, 585.195
307.086, 650.077
308.447, 717.008
309.808, 748.917
311.168, 789.851
312.529, 813.887
313.889, 804.939
315.249, 831.371
316.609, 840.300
317.969, 845.705
319.328, 863.586
320.687, 864.901
322.046, 868.621
323.405, 889.614
324.764, 900.640
326.122, 931.047
327.480, 935.853
328.838, 1005.915
330.196, 1054.821
331.553, 1114.816
332.910, 1209.716
334.267, 1307.232
335.624, 1351.562
336.981, 1455.996
338.337, 1496.152
339.693, 1545.301
341.049, 1450.410
342.405, 1504.452
343.760, 1417.547
345.116, 1352.578
346.471, 1274.483
347.826, 1137.876
349.180, 1104.605
350.535, 969.471
351.889, 869.506
353.243, 827.118
354.597, 762.316
355.950, 740.923
357.304, 675.617
358.657, 717.464
360.010, 737.559
361.362, 830.667
362.715, 881.751
364.067, 989.879
365.419, 1191.774
366.771, 1364.645
368.123, 1612.434
369.474, 1764.954
370.825, 1976.141
372.176, 2006.934
373.527, 2072.835
374.877, 1867.786
376.228, 1764.099
377.578, 1579.769
378.928, 1346.613
380.277, 1226.446
381.627, 1097.523
382.976, 998.784
384.325, 923.466
385.674, 884.665
387.023, 852.292
388.371, 790.200
389.719, 774.263
391.067, 725.679
392.415, 670.967
393.762, 655.612
395.110, 619.213
396.457, 605.642
397.804, 596.716
399.150, 589.935
400.497, 602.104
401.843, 607.236
403.189, 632.519
404.535, 664.165
405.881, 680.833
407.226, 762.449
408.571, 755.969
409.916, 854.856
411.261, 916.528
412.605, 949.543
413.950, 1019.529
415.294, 1081.967
416.638, 1174.369
417.981, 1338.913
419.325, 1448.853
420.668, 1567.334
422.011, 1642.295
423.354, 1689.297
424.697, 1634.588
426.039, 1573.987
427.381, 1380.224
428.723, 1223.723
430.065, 1116.927
431.406, 951.449
432.748, 833.456
434.089, 739.754
435.430, 649.525
436.770, 564.826
438.111, 516.962
439.451, 464.240
440.791, 396.803
442.131, 378.670
443.471, 318.629
444.810, 252.447
446.149, 255.695
447.488, 197.417
448.827, 199.075
450.166, 171.708
451.504, 140.436
452.842, 133.145
454.180, 98.833
455.518, 107.502
456.855, 81.151
458.193, 97.779
459.530, 76.387
460.867, 70.448
462.203, 33.538
463.540, 54.079
464.876, 35.599
466.212, 28.095
467.548, 33.758
468.883, 25.834
470.219, 29.442
471.554, 26.844
472.889, 16.221
474.224, 15.574
475.558, 25.901
476.892, 49.203
478.227, 27.482
479.561, 43.736
480.894, 8.967
482.228, 3.169
483.561, 16.340
484.894, 21.521
486.227, 6.360
487.559, 27.723
488.892, 17.828
490.224, 33.859
491.556, 21.866
492.888, 33.856
494.220, 5.813
495.551, 9.820
496.882, 7.716
498.213, 14.715
499.544, 14.967
500.874, 16.364
502.205, 19.147
503.535, 16.908
504.865, 19.637
506.194, 31.340
507.524, 9.017
508.853, 2.664
510.182, 36.278
511.511, 18.867
512.840, 11.572
514.168, 5.051
515.496, 27.567
516.824, 13.133
518.152, 0.259
519.480, 15.617
520.807, 14.946
522.134, 15.425
523.461, 13.874
524.788, 1.233
526.114, 1.023
527.441, 15.849
528.767, 27.717
530.093, 22.634
531.418, 16.597
532.744, 18.604
534.069, 19.655
535.394, 25.750
536.719, 0.107
538.044, 3.069
539.368, 3.281
540.693, 23.528
542.017, 42.822
543.340, 2.171
544.664, 5.446
545.987, 49.967
547.311, 10.561
548.634, 25.940
549.956, 21.486
551.279, 25.075
552.601, 4.710
553.923, 20.379
555.245, 18.090
556.567, 28.843
557.889, 31.641
559.210, 0.513
560.531, 15.364
561.852, 18.279
563.173, 8.767
564.493, 25.213
565.813, 8.764
567.133, 23.285
568.453, 29.375
569.773, 26.509
571.092, 16.686
572.412, 16.900
573.731, 11.848
575.049, 15.574
576.368, 4.278
577.686, 3.043
579.005, 12.393
580.323, 20.776
581.640, 22.195
582.958, 11.348
584.275, 14.130
585.593, 13.359
586.909, 1.173
588.226, 10.271
589.543, 19.307
590.859, 11.917
592.175, 0.557
593.491, 30.780
594.807, 23.100
596.122, 23.403
597.438, 7.692
598.753, 54.964
600.068, 30.221
601.382, 41.464
602.697, 46.693
604.011, 18.905
605.325, 58.101
606.639, 50.281
607.952, 50.444
609.266, 59.591
610.579, 79.721
611.892, 46.834
613.205, 71.912
614.518, 88.992
615.830, 60.961
617.142, 87.982
618.454, 74.897
619.766, 21.770
621.078, 53.472
622.389, 19.243
623.700, 48.922
625.011, 74.552
626.322, 36.191
627.632, 57.770
628.943, 55.361
630.253, 16.916
631.563, 16.358
632.872, 15.776
634.182, 27.277
635.491, 2.878
636.800, 46.362
638.109, 11.913
639.418, 26.019
640.726, 27.806
642.035, 2.881
643.343, 30.484
644.651, 3.616
645.958, 3.992
647.266, 33.286
648.573, 5.697
649.880, 0.004
651.187, 11.393
652.494, 6.843
653.800, 13.094
655.106, 10.081
656.412, 7.010
657.718, 38.097
659.024, 4.214
660.329, 1.388
661.634, 31.497
662.939, 69.661
664.244, 54.939
665.549, 41.718
666.853, 36.152
668.157, 28.436
669.461, 56.540
670.765, 76.057
672.069, 35.976
673.372, 68.475
674.675, 42.874
675.978, 72.110
677.281, 69.088
678.583, 75.039
679.886, 76.004
681.188, 117.913
682.490, 70.043
683.792, 98.187
685.093, 62.400
686.394, 110.870
687.696, 86.662
688.997, 115.837
690.297, 128.892
691.598, 132.887
692.898, 125.506
694.198, 126.757
695.498, 163.817
696.798, 188.874
698.097, 148.670
699.397, 187.267
700.696, 169.429
701.995, 222.061
703.293, 270.253
704.592, 232.151
705.890, 233.884
707.188, 264.917
708.486, 248.745
709.784, 293.871
711.081, 317.037
712.378, 351.368
713.675, 365.051
714.972, 382.588
716.269, 399.009
717.565, 395.783
718.862, 422.242
720.158, 437.342
721.453, 454.428
722.749, 531.583
724.045, 499.852
725.340, 584.773
726.635, 566.909
727.930, 607.699
729.224, 644.511
730.519, 681.863
731.813, 696.244
733.107, 763.475
734.401, 762.309
735.694, 805.594
736.988, 926.392
738.281, 950.140
739.574, 1023.592
740.867, 1043.934
742.160, 1177.434
743.452, 1158.666
744.744, 1303.193
746.036, 1343.392
747.328, 1391.109
748.620, 1591.524
749.911, 1647.212
751.202, 1899.884
752.493, 2082.586
753.784, 2249.246
755.075, 2669.068
756.365, 2936.872
757.655, 3424.725
758.945, 3938.588
760.235, 4391.401
761.525, 5295.288
762.814, 5914.187
764.103, 6355.096
765.392, 6888.018
766.681, 6745.952
767.969, 6834.898
769.258, 6614.856
770.546, 6418.828
771.834, 6131.812
773.122, 5907.807
774.409, 5758.822
775.697, 5717.851
776.984, 5617.899
778.271, 5848.960
779.558, 5924.037
780.844, 6266.135
782.131, 6890.252
783.417, 7524.384
784.703, 8199.536
785.989, 8532.713
787.274, 9230.908
788.560, 9469.135
789.845, 9877.377
791.130, 10515.645
792.415, 10873.934
793.699, 11772.236
794.983, 12760.570
796.268, 14258.924
797.552, 15847.266
798.835, 17335.660
800.119, 21074.086
801.402, 25332.486
802.686, 31900.949
803.969, 39999.430
805.251, 46047.922
806.534, 49926.445
807.816, 50074.902
809.098, 47003.473
810.380, 44651.934
811.662, 41060.551
812.944, 39679.188
814.225, 36117.840
815.506, 32906.512
816.787, 29475.219
818.068, 25133.934
819.349, 20792.684
820.629, 18331.439
821.909, 15720.226
823.189, 14249.032
824.469, 12897.855
825.749, 12066.705
827.028, 11615.577
828.307, 11104.481
829.586, 10883.414
830.865, 10332.367
832.144, 9941.342
833.422, 9600.345
834.700, 8969.366
835.978, 8608.411
837.256, 8133.479
838.534, 7490.575
839.811, 7393.874
841.088, 6639.036
842.365, 6452.268
843.642, 6054.610
844.919, 5668.856
846.195, 5577.134
847.472, 5283.440
848.748, 5084.773
850.023, 4893.128
851.299, 4731.508
852.575, 4608.919
853.850, 4309.365
855.125, 4053.835
856.400, 3884.371
857.674, 3439.900
858.949, 3286.450
860.223, 2896.626
861.497, 2613.363
862.771, 2396.002
864.045, 2192.892
865.318, 1982.585
866.591, 1910.958
867.864, 1760.628
869.137, 1712.444
870.410, 1589.279
871.682, 1483.107
872.955, 1491.607
874.227, 1335.714
875.499, 1376.618
876.770, 1211.844
878.042, 1221.216
879.313, 1333.748
880.584, 1215.544
881.855, 1191.578
883.126, 1115.751
884.396, 1101.829
885.667, 1082.923
886.937, 1025.452
888.207, 973.587
889.476, 937.745
890.746, 934.929
892.015, 899.138
893.284, 825.874
894.553, 854.856
895.822, 809.266
897.090, 734.292
898.359, 697.594
899.627, 676.161
900.895, 636.508
902.163, 597.873
903.430, 626.361
904.698, 572.005
905.965, 564.820
907.232, 514.062
908.499, 541.978
909.765, 475.910
911.032, 473.385
912.298, 449.875
913.564, 449.379
914.830, 488.899
916.095, 456.433
917.361, 469.982
918.626, 474.545
919.891, 458.123
921.156, 469.244
922.420, 467.321
923.685, 446.942
924.949, 396.576
926.213, 329.447
927.477, 318.110
928.740, 323.393
930.004, 251.102
931.267, 290.248
932.530, 213.063
933.793, 236.553
935.056, 217.297
936.318, 228.018
937.581, 219.361
938.843, 228.224
940.104, 224.428
941.366, 200.234
942.628, 185.544
943.889, 166.848
945.150, 175.252
946.411, 153.228
947.672, 174.100
948.932, 160.751
950.193, 132.090
951.453, 118.168
952.713, 88.252
953.973, 132.089
955.232, 67.428
956.491, 153.368
957.751, 87.317
959.010, 108.688
960.268, 79.311
961.527, 77.808
962.785, 41.250
964.044, 93.349
965.302, 31.748
966.559, 92.415
967.817, 77.457
969.075, 68.455
970.332, 99.589
971.589, 44.638
972.846, 51.768
974.102, 46.832
975.359, 9.905
976.615, 64.006
977.871, 26.093
979.127, 32.249
980.383, 52.388
981.638, 30.496
982.893, 36.620
984.149, 33.177
985.404, 40.410
986.658, 21.093
987.913, 27.499
989.167, 11.038
990.421, 11.755
991.675, 0.399
992.929, 3.550
994.183, 8.963
995.436, 5.205
996.689, 22.930
997.942, 12.105
999.195, 44.320
1000.448, 15.512
1001.700, 39.719
1002.952, 62.170
1004.204, 4.365
1005.456, 34.564
1006.708, 2.931
1007.959, 10.274
1009.210, 22.547
1010.461, 22.242
1011.712, 7.033
1012.963, 36.303
1014.213, 10.484
1015.464, 7.730
1016.714, 22.053
1017.964, 27.840
1019.214, 1.633
1020.463, 29.426
1021.712, 33.774
1022.962, 19.950
1024.210, 8.747
1025.459, 16.446
1026.708, 10.360
1027.956, 13.168
1029.204, 15.979
1030.452, 20.796
1031.700, 24.379
1032.948, 3.446
1034.195, 8.727
1035.442, 25.900
1036.689, 30.871
1037.936, 33.287
1039.183, 22.446
1040.429, 16.604
1041.676, 42.764
1042.922, 30.078
1044.168, 14.936
1045.413, 1.800
1046.659, 32.669
1047.904, 31.444
1049.149, 39.397
1050.394, 15.701
1051.639, 11.796
1052.884, 0.888
1054.128, 37.025
1055.372, 22.962
1056.616, 28.922
1057.860, 22.889
1059.104, 4.879
1060.347, 16.122
1061.590, 45.119
1062.833, 85.114
1064.076, 76.106
1065.319, 71.095
1066.561, 46.081
1067.803, 63.061
1069.046, 30.037
1070.287, 49.009
1071.529, 45.977
1072.771, 33.941
1074.012, 45.899
1075.253, 11.146
1076.494, 15.792
1077.735, 0.275
1078.975, 14.648
1080.216, 3.564
1081.456, 6.531
1082.696, 0.633
1083.936, 23.252
1085.175, 2.869
1086.415, 28.005
1087.654, 16.829
1088.893, 40.345
1090.132, 29.445
1091.371, 24.771
1092.609, 8.983
1093.847, 7.725
1095.085, 17.545
1096.323, 27.159
1097.561, 11.145
1098.799, 12.528
1100.036, 0.812
1101.273, 21.831
1102.510, 4.465
1103.747, 16.084
1104.983, 38.691
1106.220, 48.291
1107.456, 17.884
1108.692, 5.537
1109.928, 2.977
1111.163, 18.560
1112.399, 32.085
1113.634, 21.599
1114.869, 15.102
1116.104, 7.589
1117.339, 9.057
1118.573, 36.508
1119.808, 57.949
1121.042, 39.381
1122.276, 59.802
1123.509, 118.213
1124.743, 50.615
1125.976, 81.007
1127.210, 44.389
1128.443, 49.760
1129.675, 74.121
1130.908, 58.472
1132.141, 4.812
1133.373, 45.130
1134.605, 26.436
1135.837, 37.797
1137.068, 33.074
1138.300, 53.343
1139.531, 82.421
1140.762, 11.656
1141.993, 49.844
1143.224, 69.932
1144.455, 30.131
1145.685, 101.314
1146.915, 64.486
1148.145, 71.646
1149.375, 69.871
1150.605, 45.015
1151.834, 83.251
1153.063, 94.401
1154.292, 44.509
1155.521, 104.738
1156.750, 63.846
1157.978, 83.107
1159.207, 83.979
1160.435, 57.964
1161.663, 94.381
1162.891, 103.545
1164.118, 87.705
1165.345, 109.364
1166.573, 110.809
1167.800, 97.886
1169.026, 112.930
1170.253, 66.933
1171.480, 83.225
1172.706, 103.216
1173.932, 137.240
1175.158, 125.141
1176.383, 112.941
1177.609, 116.263
1178.834, 99.578
1180.059, 93.430
1181.284, 128.187
1182.509, 121.371
1183.734, 76.367
1184.958, 135.905
1186.182, 97.139
1187.406, 126.039
1188.630, 128.689
1189.854, 120.520
1191.077, 136.868
1192.301, 165.422
1193.524, 122.068
1194.747, 176.069
1195.969, 84.365
1197.192, 119.830
1198.414, 104.490
1199.636, 144.211
1200.858, 120.738
1202.080, 163.111
1203.302, 144.415
1204.523, 151.197
1205.744, 153.526
1206.966, 161.626
1208.186, 145.309
1209.407, 142.534
1210.628, 186.092
1211.848, 135.346
1213.068, 160.929
1214.288, 158.484
1215.508, 148.045
1216.727, 161.742
1217.947, 151.459
1219.166, 145.277
1220.385, 154.870
1221.604, 147.539
1222.822, 152.991
1224.041, 168.494
1225.259, 141.689
1226.477, 175.094
1227.695, 225.996
1228.913, 153.478
1230.130, 202.229
1231.348, 197.552
1232.565, 155.216
1233.782, 194.921
1234.999, 187.131
1236.215, 167.158
1237.432, 186.397
1238.648, 131.297
1239.864, 187.038
1241.080, 140.739
1242.296, 134.042
1243.511, 191.220
1244.726, 115.740
1245.942, 169.611
1247.156, 132.587
1248.371, 157.045
1249.586, 155.711
1250.800, 155.492
1252.014, 167.133
1253.228, 219.241
1254.442, 120.946
1255.656, 108.184
1256.869, 191.746
1258.083, 126.469
1259.296, 163.597
1260.509, 165.255
1261.722, 127.646
1262.934, 165.806
1264.147, 133.865
1265.359, 100.862
1266.571, 170.912
1267.783, 119.836
1268.994, 171.867
1270.206, 134.844
1271.417, 119.789
1272.628, 134.757
1273.839, 142.696
1275.050, 113.604
1276.260, 170.538
1277.471, 124.436
1278.681, 90.898
1279.891, 137.684
1281.101, 62.010
1282.310, 120.607
1283.520, 77.096
1284.729, 84.109
1285.938, 135.184
1287.147, 75.794
1288.356, 76.547
1289.564, 96.340
1290.773, 82.554
1291.981, 89.392
1293.189, 86.106
1294.397, 58.898
1295.604, 115.132
1296.812, 52.588
1298.019, 70.337
1299.226, 85.025
1300.433, 40.399
1301.640, 71.069
1302.846, 38.654
1304.053, 21.293
1305.259, 60.919
1306.465, 22.394
1307.671, 23.056
1308.876, 42.726
1310.082, 26.291
1311.287, 21.986
1312.492, 43.605
1313.697, 48.144
1314.902, 62.936
1316.106, 76.377
1317.310, 26.875
1318.515, 48.627
1319.719, 26.100
1320.922, 23.563
1322.126, 83.137
1323.329, 30.580
1324.533, 89.597
1325.736, 67.047
1326.939, 21.461
1328.141, 36.927
1329.344, 40.309
1330.546, 15.694
1331.748, 44.099
1332.950, 0.460
1334.152, 53.803
1335.354, 44.143
1336.555, 9.466
1337.757, 53.779
1338.958, 62.094
1340.159, 27.629
1341.359, 63.588
1342.560, 76.841
1343.760, 53.083
1344.960, 95.361
1346.160, 83.578
1347.360, 46.792
1348.560, 95.070
1349.759, 28.270
1350.959, 68.459
1352.158, 38.639
1353.357, 2.805
1354.555, 61.943
1355.754, 1.067
1356.952, 49.174
1358.151, 52.267
1359.349, 47.347
1360.546, 24.412
1361.744, 21.473
1362.941, 13.368
1364.139, 60.533
1365.336, 11.598
1366.533, 19.590
1367.730, 36.573
1368.926, 9.544
1370.123, 48.505
1371.319, 64.454
1372.515, 24.606
1373.711, 25.319
1374.906, 58.258
1376.102, 13.162
1377.297, 66.060
1378.492, 54.961
1379.687, 24.852
1380.882, 70.752
1382.077, 26.655
1383.271, 77.189
1384.465, 46.726
1385.659, 19.266
1386.853, 63.811
1388.047, 31.349
1389.240, 26.880
1390.434, 80.399
1391.627, 3.924
1392.820, 5.448
1394.013, 43.970
1395.205, 2.497
1396.398, 65.019
1397.590, 54.531
1398.782, 2.966
1399.974, 84.527
1401.166, 33.010
1402.357, 24.492
1403.549, 75.892
1404.740, 59.368
1405.931, 26.841
1407.122, 60.303
1408.313, 39.776
1409.503, 47.245
1410.693, 68.603
1411.883, 46.870
1413.073, 65.074
1414.263, 58.219
1415.453, 53.640
1416.642, 42.424
1417.831, 52.187
1419.020, 51.859
1420.209, 63.989
1421.398, 71.896
1422.587, 53.693
1423.775, 86.553
1424.963, 54.527
1426.151, 47.270
1427.339, 15.078
1428.526, 13.520
1429.714, 95.338
1430.901, 37.552
1432.088, 53.602
1433.275, 75.704
1434.462, 28.760
1435.648, 99.931
1436.835, 32.940
1438.021, 17.261
1439.207, 89.545
1440.393, 33.388
1441.579, 64.263
1442.764, 72.828
1443.949, 42.794
1445.135, 54.124
1446.320, 89.488
1447.504, 60.643
1448.689, 60.474
1449.873, 21.066
1451.058, 16.404
1452.242, 64.968
1453.426, 10.615
1454.609, 20.457
1455.793, 74.912
1456.976, 1.229
1458.159, 58.046
1459.342, 91.750
1460.525, 0.356
1461.708, 67.210
1462.890, 55.617
1464.073, 7.839
1465.255, 83.063
1466.437, 5.597
1467.619, 23.776
1468.800, 78.106
1469.982, 13.483
1471.163, 16.686
1472.344, 113.020
1473.525, 19.353
1474.706, 66.675
1475.886, 42.213
1477.066, 22.746
1478.247, 102.808
1479.427, 29.858
1480.607, 20.911
1481.786, 89.999
1482.966, 43.909
1484.145, 37.939
1485.324, 74.976
1486.503, 5.053
1487.682, 122.505
1488.860, 73.998
1490.039, 0.693
1491.217, 108.514
1492.395, 51.273
1493.573, 37.197
1494.751, 53.498
1495.928, 28.235
1497.106, 42.534
1498.283, 89.825
1499.460, 12.100
1500.637, 34.465
1501.814, 63.834
1502.990, 1.184
1504.166, 51.691
1505.342, 68.754
1506.518, 1.871
1507.694, 62.870
1508.870, 39.224
1510.045, 41.668
1511.221, 64.256
1512.396, 38.894
1513.571, 40.460
1514.745, 77.203
1515.920, 0.918
1517.094, 50.020
