##NAMES=Mimetite
##RRUFFID=R050527
##IDEAL CHEMISTRY=Pb^2+^_5_(As^5+^O_4_)_3_Cl
##LOCALITY=Tsumeb mine, Tsumeb, Otavi District, Oshikoto, Namibia
##OWNER=RRUFF
##SOURCE=University of Arizona Mineral Museum
##DESCRIPTION=Yellow hexagonal prisms, monoclinic polytype
##STATUS=The identification of this mineral has been confirmed by X-ray diffraction and chemical analysis
##URL=rruff.info/R050527
##MEASURED CHEMISTRY=Pb_5.00_(As_1.00_O_4_)_3_Cl_1.00_
##PIN_ID=M00655
##ORIENTATION=Laser parallel to a* (1 0 0). Fiducial mark perpendicular to laser is parallel to c [0 0 1]
43.47600, 0.0000000E+00
44.72200, 11.15799
45.96700, 2.911011
47.21200, 8.292328
48.45600, 20.17200
49.70100, 19.95413
50.94500, 38.50079
52.19000, 38.28143
53.43400, 43.04480
54.67800, 49.93903
55.92100, 52.59024
57.16500, 53.30881
58.40800, 61.71484
59.65200, 71.36230
60.89500, 52.06653
62.13700, 39.68430
63.38000, 46.52155
64.62300, 21.57391
65.86500, 11.83456
67.10700, 23.29504
68.34900, 7.946747
69.59100, 7.218048
70.83300, 5.206238
72.07400, 14.02386
73.31600, 2.676361
74.55700, 22.16852
75.79800, 21.50449
77.03900, 5.688171
78.27900, 1.277008
79.52000, 4.387787
80.76000, 48.64111
82.00000, 93.03137
83.24000, 132.5510
84.48000, 222.1927
85.72000, 322.9494
86.95900, 451.8145
88.19900, 581.7813
89.43800, 787.8436
90.67700, 1007.998
91.91600, 1217.242
93.15400, 1460.574
94.39300, 1696.993
95.63100, 2038.497
96.86900, 2492.085
98.10700, 2935.758
99.34500, 3434.513
100.5820, 3735.350
101.8200, 4074.269
103.0570, 4045.268
104.2940, 4115.348
105.5310, 3884.507
106.7680, 3811.746
108.0040, 3583.062
109.2410, 3526.456
110.4770, 3382.928
111.7130, 3246.477
112.9490, 3031.102
114.1850, 2896.802
115.4200, 2829.578
116.6560, 2810.427
117.8910, 2698.345
119.1260, 2560.303
120.3610, 2465.300
121.5960, 2385.333
122.8300, 2279.398
124.0640, 2231.495
125.2990, 2164.913
126.5330, 2084.767
127.7670, 2079.939
129.0000, 2087.132
130.2340, 2076.349
131.4670, 2137.577
132.7000, 2083.817
133.9330, 1995.067
135.1660, 2053.345
136.3990, 2106.665
137.6310, 2029.025
138.8640, 2113.429
140.0960, 2094.875
141.3280, 2178.365
142.5600, 2192.899
143.7910, 2211.477
145.0230, 2288.099
146.2540, 2253.767
147.4850, 2262.480
148.7160, 2316.240
149.9470, 2223.045
151.1780, 2249.897
152.4080, 2282.795
153.6380, 2241.740
154.8690, 2173.731
156.0980, 2163.770
157.3280, 2157.854
158.5580, 2127.985
159.7870, 2131.162
161.0170, 2121.975
162.2460, 2115.655
163.4750, 2117.970
164.7030, 2092.331
165.9320, 2089.738
167.1600, 2162.189
168.3890, 2120.687
169.6170, 2143.229
170.8450, 2125.817
172.0730, 2120.181
173.3000, 2149.125
174.5280, 2104.845
175.7550, 2090.609
176.9820, 2060.416
178.2090, 1986.267
179.4350, 2038.160
180.6620, 1923.096
181.8880, 1921.074
183.1150, 1900.094
184.3410, 1852.155
185.5670, 1824.258
186.7920, 1858.406
188.0180, 1794.603
189.2430, 1819.843
190.4690, 1818.131
191.6940, 1724.720
192.9180, 1695.278
194.1430, 1703.793
195.3680, 1644.303
196.5920, 1579.805
197.8160, 1584.289
199.0400, 1543.761
200.2640, 1513.206
201.4880, 1419.638
202.7110, 1337.036
203.9350, 1251.440
205.1580, 1245.790
206.3810, 1234.127
207.6040, 1166.406
208.8270, 1083.659
210.0490, 1026.884
211.2710, 1061.303
212.4940, 991.4864
213.7160, 977.5475
214.9370, 931.0970
216.1590, 872.4310
217.3810, 824.1167
218.6020, 767.1521
219.8230, 719.8455
221.0440, 705.4557
222.2650, 697.0555
223.4860, 638.8991
224.7060, 606.7084
225.9260, 617.7069
227.1470, 573.7446
228.3670, 543.8248
229.5860, 519.9439
230.8060, 462.1017
232.0260, 484.2993
233.2450, 434.5334
234.4640, 420.8091
235.6830, 417.1200
236.9020, 397.4708
238.1200, 369.8558
239.3390, 357.8813
240.5570, 342.7733
241.7750, 320.2222
242.9930, 318.7494
244.2110, 303.3143
245.4290, 283.9121
246.6460, 274.6195
247.8630, 255.2173
249.0810, 244.9305
250.2980, 224.6779
251.5140, 208.4613
252.7310, 227.2839
253.9470, 218.1400
255.1640, 208.0254
256.3800, 164.9462
257.5960, 164.2106
258.8120, 146.6689
260.0270, 139.9036
261.2430, 134.9562
262.4580, 123.0400
263.6730, 133.1553
264.8880, 138.3024
266.1030, 122.4791
267.3170, 90.68414
268.5320, 68.91754
269.7460, 87.17737
270.9600, 42.46313
272.1740, 73.77551
273.3880, 55.11456
274.6010, 76.48090
275.8150, 84.87524
277.0280, 54.29755
278.2410, 40.74835
279.4540, 63.22693
280.6670, 63.73401
281.8790, 40.26831
283.0920, 28.82965
284.3040, 42.41589
285.5160, 15.02808
286.7280, 78.66724
287.9400, 71.33069
289.1510, 68.02380
290.3630, 77.74487
291.5740, 130.4905
292.7850, 159.2599
293.9960, 182.0525
295.2070, 236.8688
296.4170, 273.1320
297.6280, 354.5731
298.8380, 384.4598
300.0480, 464.3693
301.2580, 556.3005
302.4680, 652.2551
303.6770, 757.2313
304.8870, 782.2290
306.0960, 807.2482
307.3050, 830.2888
308.5140, 831.3500
309.7230, 821.4317
310.9310, 802.5348
312.1400, 829.6577
313.3480, 787.8005
314.5560, 774.9626
315.7640, 715.1444
316.9720, 731.3452
318.1790, 680.5710
319.3870, 649.8093
320.5940, 653.0660
321.8010, 604.3410
323.0080, 613.6530
324.2150, 631.9447
325.4210, 617.2731
326.6280, 668.8351
327.8340, 673.6420
329.0400, 684.7001
330.2460, 727.1789
331.4510, 736.5919
332.6570, 819.2196
333.8620, 856.9918
335.0680, 827.6334
336.2730, 925.8912
337.4780, 952.0540
338.6820, 1015.569
339.8870, 1025.429
341.0910, 1049.982
342.2950, 992.4734
343.5000, 942.3362
344.7030, 911.2506
345.9070, 888.3550
347.1110, 800.1077
348.3140, 809.1077
349.5170, 749.4109
350.7200, 663.3154
351.9230, 609.4585
353.1260, 538.3562
354.3290, 571.1229
355.5310, 512.7471
356.7330, 472.5524
357.9350, 467.0614
359.1370, 543.9863
360.3390, 571.8499
361.5400, 573.7327
362.7420, 644.3842
363.9430, 675.5864
365.1440, 788.6201
366.3450, 893.9612
367.5460, 980.3245
368.7460, 1140.892
369.9470, 1268.374
371.1470, 1320.581
372.3470, 1335.619
373.5470, 1252.991
374.7460, 1167.559
375.9460, 1013.330
377.1450, 879.6741
378.3450, 775.1445
379.5440, 666.3672
380.7430, 538.7938
381.9410, 530.9866
383.1400, 447.3138
384.3380, 460.5188
385.5370, 388.6097
386.7350, 360.9444
387.9320, 349.4510
389.1300, 297.8370
390.3280, 352.4697
391.5250, 371.4681
392.7220, 332.6683
393.9190, 313.7203
395.1160, 344.3609
396.3130, 294.8413
397.5100, 323.0405
398.7060, 319.4014
399.9020, 354.2396
401.0980, 293.2564
402.2940, 321.4218
403.4900, 322.8842
404.6860, 349.1904
405.8810, 386.4712
407.0760, 434.9161
408.2710, 475.4644
409.4660, 501.5790
410.6610, 566.4384
411.8550, 584.3797
413.0500, 653.8644
414.2440, 686.3530
415.4380, 797.9539
416.6320, 799.6564
417.8260, 956.4462
419.0190, 1015.465
420.2130, 1116.502
421.4060, 1185.644
422.5990, 1256.637
423.7920, 1264.851
424.9850, 1197.788
426.1770, 1251.718
427.3700, 1072.231
428.5620, 992.0135
429.7540, 891.0876
430.9460, 769.6147
432.1380, 666.4061
433.3290, 578.8345
434.5210, 471.5557
435.7120, 450.1396
436.9030, 333.6807
438.0940, 328.3394
439.2850, 311.1248
440.4750, 263.9659
441.6660, 247.5269
442.8560, 174.1663
444.0460, 206.7213
445.2360, 136.6107
446.4260, 195.1834
447.6160, 131.7955
448.8050, 125.4070
449.9940, 113.0892
451.1830, 114.6522
452.3720, 53.21613
453.5610, 67.01978
454.7500, 40.58478
455.9380, 42.15027
457.1260, 57.71582
458.3150, 68.28156
459.5020, 39.84717
460.6900, 0.4126590
461.8780, 27.97760
463.0650, 8.542053
464.2530, 24.10583
465.4400, 14.66895
466.6270, 12.23114
467.8130, 10.79236
469.0000, 9.647583
470.1870, 16.09119
471.3730, 21.54059
472.5590, 3.998169
473.7450, 20.54150
474.9310, 7.920593
476.1160, 11.38678
477.3020, 29.85852
478.4870, 21.34332
479.6720, 37.83795
480.8570, 14.64996
482.0420, 9.864685
483.2270, 6.614563
484.4110, 21.90906
485.5960, 45.44427
486.7800, 8.002747
487.9640, 11.56781
489.1480, 2.140991
490.3310, 7.719055
491.5150, 13.30444
492.6980, 3.899597
493.8810, 8.500977
495.0640, 39.11072
496.2470, 13.25629
497.4300, 15.38098
498.6120, 7.969238
499.7950, 11.68494
500.9770, 18.34253
502.1590, 5.976929
503.3410, 8.359741
504.5220, 28.30377
505.7040, 2.015137
506.8850, 2.283081
508.0660, 37.43726
509.2470, 20.18408
510.4280, 5.757080
511.6090, 3.495911
512.7890, 2.286743
513.9700, 11.57495
515.1500, 0.6071780
516.3300, 2.220520
517.5100, 5.043091
518.6900, 3.121094
519.8690, 15.73145
521.0490, 8.372742
522.2280, 13.15100
523.4070, 11.98718
524.5860, 8.072449
525.7640, 15.70355
526.9430, 21.22766
528.1210, 10.96082
529.3000, 10.29919
530.4780, 11.71735
531.6560, 11.04938
532.8330, 6.2500000E-02
534.0110, 34.72412
535.1880, 0.2147830
536.3650, 8.861511
537.5430, 21.38910
538.7190, 0.4248050
539.8960, 22.60083
541.0730, 9.548035
542.2490, 4.371460
543.4250, 13.77612
544.6020, 21.01398
545.7780, 15.20551
546.9530, 1.549377
548.1290, 0.7127690
549.3040, 1.993225
550.4800, 5.707153
551.6550, 11.56036
552.8300, 10.06390
554.0040, 26.72180
555.1790, 27.37012
556.3540, 22.00879
557.5280, 18.63684
558.7020, 16.25336
559.8760, 10.85760
561.0500, 10.82733
562.2230, 8.928589
563.3970, 12.58264
564.5700, 8.128479
565.7430, 14.65833
566.9160, 15.17456
568.0890, 41.67725
569.2620, 20.17065
570.4340, 12.65186
571.6070, 36.11841
572.7790, 0.4246220
573.9510, 6.011475
575.1230, 24.42993
576.2940, 32.83698
577.4660, 62.23401
578.6370, 28.62146
579.8080, 22.99829
580.9790, 21.36316
582.1500, 37.71570
583.3210, 31.05841
584.4910, 43.39069
585.6620, 20.71344
586.8320, 38.02338
588.0020, 34.32361
589.1720, 34.61371
590.3410, 29.89368
591.5110, 50.16284
592.6800, 59.42255
593.8500, 24.67267
595.0190, 55.91089
596.1880, 50.13965
597.3560, 75.35889
598.5250, 78.54492
599.6930, 75.76874
600.8620, 79.95935
602.0300, 74.13434
603.1970, 62.30609
604.3650, 88.46832
605.5330, 86.62115
606.7000, 97.76453
607.8680, 89.89850
609.0350, 104.0231
610.2020, 99.82538
611.3680, 87.58405
612.5350, 96.00232
613.7010, 94.00732
614.8680, 94.08551
616.0340, 74.95612
617.2000, 83.68945
618.3660, 118.5593
619.5310, 65.82019
620.6970, 91.18604
621.8620, 71.21045
623.0270, 76.90002
624.1920, 60.90704
625.3570, 50.98639
626.5220, 47.70502
627.6860, 69.38336
628.8500, 65.88226
630.0140, 38.74402
631.1780, 72.36981
632.3420, 43.70374
633.5060, 50.44739
634.6700, 36.96411
635.8330, 40.73816
636.9960, 35.65515
638.1590, 29.72662
639.3220, 30.62823
640.4850, 23.83838
641.6470, 28.64545
642.8100, 15.52454
643.9720, 19.35364
645.1340, 27.51276
646.2960, 18.09204
647.4570, 19.85431
648.6190, 17.31976
649.7800, 2.778198
650.9420, 10.04474
652.1030, 24.40717
653.2640, 3.946045
654.4240, 26.87427
655.5850, 26.36951
656.7450, 9.677979
657.9060, 8.791626
659.0660, 9.339722
660.2260, 14.23041
661.3850, 4.549866
662.5450, 1.932861
663.7040, 8.656433
664.8640, 8.746704
666.0230, 8.976440
667.1820, 3.178833
668.3410, 12.57196
669.4990, 8.866394
670.6580, 5.740417
671.8160, 24.75671
672.9740, 9.278320
674.1320, 6.491028
675.2900, 16.41669
676.4480, 15.24005
677.6050, 5.733337
678.7630, 8.940125
679.9200, 3.696411
681.0770, 6.138733
682.2340, 3.147522
683.3900, 10.70038
684.5470, 7.799927
685.7030, 23.97418
686.8590, 16.72485
688.0150, 11.31653
689.1710, 19.80988
690.3270, 37.74384
691.4830, 44.93787
692.6380, 29.05438
693.7930, 6.632385
694.9480, 33.21069
696.1030, 18.68127
697.2580, 48.05627
698.4130, 62.34955
699.5670, 86.41858
700.7210, 44.47296
701.8750, 55.42645
703.0290, 45.53326
704.1830, 75.42218
705.3370, 82.59320
706.4900, 97.77612
707.6430, 108.1422
708.7970, 110.7182
709.9490, 116.7686
711.1020, 127.3685
712.2550, 125.7075
713.4070, 111.4142
714.5600, 147.8327
715.7120, 143.4005
716.8640, 185.0139
718.0160, 157.5150
719.1670, 225.8930
720.3190, 169.2178
721.4700, 198.8258
722.6210, 196.3602
723.7720, 195.9813
724.9230, 232.2704
726.0740, 236.8796
727.2250, 259.4517
728.3750, 256.0261
729.5250, 297.5343
730.6750, 276.1632
731.8250, 326.7930
732.9750, 327.1846
734.1240, 368.8174
735.2740, 390.4513
736.4230, 428.0867
737.5720, 423.7232
738.7210, 440.3630
739.8700, 497.0041
741.0190, 491.6472
742.1670, 585.2917
743.3150, 590.9405
744.4630, 624.5911
745.6110, 693.2432
746.7590, 767.9003
747.9070, 760.5597
749.0540, 878.2259
750.2020, 949.8963
751.3490, 1048.572
752.4960, 1216.251
753.6430, 1399.934
754.7890, 1500.621
755.9360, 1868.313
757.0820, 2104.012
758.2280, 2572.721
759.3740, 2877.440
760.5200, 3330.161
761.6660, 3861.888
762.8120, 4402.616
763.9570, 4724.353
765.1020, 5111.102
766.2470, 5283.853
767.3920, 5189.615
768.5370, 5091.380
769.6810, 4814.150
770.8260, 4402.927
771.9700, 4142.707
773.1140, 3831.493
774.2580, 3670.292
775.4020, 3588.094
776.5460, 3471.904
777.6890, 3436.718
778.8320, 3435.530
779.9750, 3563.359
781.1180, 3810.124
782.2610, 4015.933
783.4040, 4310.783
784.5460, 4494.621
785.6890, 4800.474
786.8310, 5029.343
787.9730, 5237.030
789.1150, 5277.879
790.2560, 5446.781
791.3980, 5563.176
792.5390, 5854.097
793.6810, 6159.026
794.8220, 6710.948
795.9630, 7580.877
797.1030, 8629.816
798.2440, 10361.80
799.3840, 12447.40
800.5240, 15009.34
801.6650, 17789.32
802.8040, 21208.76
803.9440, 25417.76
805.0840, 29934.63
806.2230, 34286.94
807.3630, 37106.98
808.5020, 37813.78
809.6410, 36533.83
810.7790, 33770.83
811.9180, 31599.33
813.0570, 29056.41
814.1950, 26983.96
815.3330, 24603.98
816.4710, 21706.95
817.6090, 19180.08
818.7470, 15978.13
819.8840, 13250.24
821.0220, 10815.41
822.1590, 8832.580
823.2960, 7295.320
824.4330, 6144.518
825.5690, 5262.725
826.7060, 4560.443
827.8420, 4037.671
828.9790, 3611.907
830.1150, 3237.153
831.2510, 2889.406
832.3860, 2659.666
833.5220, 2442.333
834.6570, 2244.803
835.7930, 2118.295
836.9280, 1928.585
838.0630, 1853.883
839.1980, 1712.191
840.3320, 1636.506
841.4670, 1581.877
842.6010, 1505.862
843.7350, 1426.203
844.8690, 1367.548
846.0030, 1291.983
847.1370, 1232.344
848.2700, 1214.709
849.4040, 1152.483
850.5370, 1131.182
851.6700, 1088.574
852.8030, 1038.164
853.9360, 999.1205
855.0680, 941.7747
856.2000, 884.1912
857.3330, 822.7576
858.4650, 829.7333
859.5970, 763.1674
860.7290, 696.6400
861.8600, 711.4151
862.9920, 649.8662
864.1230, 646.3227
865.2540, 641.3273
866.3850, 601.7947
867.5160, 575.2672
868.6460, 556.7447
869.7770, 506.4587
870.9070, 501.9473
872.0370, 478.4719
873.1670, 489.9705
874.2970, 460.8893
875.4270, 457.2867
876.5570, 465.9733
877.6860, 435.4915
878.8150, 446.5566
879.9440, 429.1176
881.0730, 416.6501
882.2020, 414.8256
883.3300, 398.4702
884.4590, 352.8422
885.5870, 386.3937
886.7150, 347.9498
887.8430, 349.5105
888.9710, 362.7811
890.0990, 330.3519
891.2260, 320.9271
892.3530, 319.5067
893.4810, 325.9175
894.6080, 291.5057
895.7340, 293.0981
896.8610, 295.6948
897.9880, 261.2957
899.1140, 246.9005
900.2400, 234.5094
901.3660, 227.1365
902.4920, 222.3517
903.6180, 199.9725
904.7430, 137.5972
905.8690, 197.2258
906.9940, 164.8582
908.1190, 181.4942
909.2440, 125.1340
910.3690, 163.8610
911.4930, 159.5081
912.6180, 143.1587
913.7420, 127.8129
914.8660, 134.4707
915.9900, 118.1342
917.1140, 132.9973
918.2380, 166.8461
919.3610, 169.5217
920.4850, 179.2043
921.6080, 150.2699
922.7310, 116.9571
923.8540, 151.6476
924.9760, 93.96045
926.0990, 84.75293
927.2210, 52.45013
928.3440, 44.88745
929.4660, 53.59015
930.5880, 22.33203
931.7090, 37.20813
932.8310, 23.37152
933.9520, 12.10864
935.0740, 7.181274
936.1950, 32.97418
937.3160, 32.18616
938.4360, 39.11835
939.5570, 11.87921
940.6780, 9.630005
941.7980, 3.377014
942.9180, 30.12109
944.0380, 24.88849
945.1580, 12.36243
946.2780, 15.41040
947.3970, 28.95111
948.5170, 1.119019
949.6360, 2.457520
950.7550, 10.21228
951.8740, 10.97601
952.9930, 23.82520
954.1110, 12.91241
955.2300, 32.94507
956.3480, 2.751404
957.4660, 16.41479
958.5840, 2.510559
959.7020, 21.28473
960.8190, 14.90888
961.9370, 6.882568
963.0540, 3.962463
964.1710, 10.25378
965.2880, 11.26752
966.4050, 27.52460
967.5220, 11.66107
968.6380, 6.852722
969.7550, 7.099426
970.8710, 2.899963
971.9870, 9.284607
973.1030, 9.449158
974.2190, 20.20050
975.3340, 1.797791
976.4500, 15.04730
977.5650, 17.77112
978.6800, 26.51508
979.7950, 2.713135
980.9100, 8.029175
982.0250, 15.77118
983.1390, 9.465210
984.2530, 7.680481
985.3680, 37.94702
986.4820, 4.796387
987.5950, 11.49042
988.7090, 5.771606
989.8230, 5.932373
990.9360, 3.364441
992.0490, 10.66370
993.1620, 13.03198
994.2750, 0.2743530
995.3880, 6.582153
996.5010, 4.105652
997.6130, 1.792358
998.7250, 9.522034
999.8370, 6.157349
1000.949, 5.835449
1002.061, 20.51233
1003.173, 3.812073
1004.284, 19.85980
1005.396, 0.5302120
1006.507, 5.198730
1007.618, 6.134216
1008.729, 11.52728
1009.839, 0.1872560
1010.950, 19.84479
1012.060, 7.499268
1013.171, 1.149963
1014.281, 14.79700
1015.391, 8.557800
1016.500, 0.1362920
1017.610, 11.22913
1018.719, 9.396240
1019.829, 9.026062
1020.938, 3.647766
1022.047, 8.732666
1023.156, 22.13416
1024.264, 4.743469
1025.373, 5.350708
1026.481, 10.04407
1027.589, 14.55170
1028.697, 8.145203
1029.805, 17.73663
1030.913, 24.32581
1032.020, 13.15979
1033.128, 8.497437
1034.235, 5.079651
1035.342, 5.340698
1036.449, 14.23108
1037.556, 17.80054
1038.663, 25.36743
1039.769, 12.93188
1040.875, 26.49390
1041.981, 16.05341
1043.087, 4.610229
1044.193, 59.16357
1045.299, 26.71429
1046.404, 29.26227
1047.510, 16.82928
1048.615, 11.37201
1049.720, 2.911926
1050.825, 3.447083
1051.930, 11.97766
1053.034, 11.50531
1054.139, 2.9967999E-02
1055.243, 12.54828
1056.347, 13.06354
1057.451, 3.424194
1058.555, 10.92053
1059.658, 19.57208
1060.762, 4.938416
1061.865, 23.54150
1062.968, 10.01843
1064.071, 5.491699
1065.174, 3.9611999E-02
1066.277, 12.42169
1067.380, 1.879639
1068.482, 9.331055
1069.584, 0.2214360
1070.686, 5.414063
1071.788, 12.65308
1072.890, 15.08411
1073.992, 17.51172
1075.093, 20.93579
1076.194, 14.35645
1077.295, 21.77405
1078.396, 5.882385
1079.497, 2.138916
1080.598, 6.261597
1081.698, 5.359436
1082.799, 22.02533
1083.899, 18.40662
1084.999, 9.784302
1086.099, 3.157654
1087.199, 4.479675
1088.298, 12.88525
1089.398, 11.24200
1090.497, 7.042297
1091.596, 17.38971
1092.695, 12.73346
1093.794, 13.57190
1094.892, 2.911438
1095.991, 0.7554320
1097.089, 4.569336
1098.187, 0.1118770
1099.285, 12.19897
1100.383, 12.10944
1101.481, 26.21771
1102.579, 4.309448
1103.676, 12.60535
1104.773, 33.89716
1105.870, 38.18536
1106.967, 4.470093
1108.064, 30.70233
1109.161, 10.32495
1110.257, 39.59583
1111.353, 14.86310
1112.449, 31.04443
1113.545, 35.30432
1114.641, 16.56061
1115.737, 12.41705
1116.832, 26.35321
1117.928, 12.40918
1119.023, 32.65045
1120.118, 16.33575
1121.213, 51.32605
1122.308, 46.55707
1123.402, 37.64142
1124.497, 18.31848
1125.591, 50.53955
1126.685, 48.72400
1127.779, 63.60925
1128.873, 27.82080
1129.967, 41.02905
1131.060, 44.69135
1132.153, 20.89307
1133.247, 20.09167
1134.340, 30.28705
1135.433, 58.24896
1136.525, 24.43805
1137.618, 42.59296
1138.710, 32.77551
1139.802, 38.53943
1140.895, 31.71564
1141.987, 32.82648
1143.078, 35.99652
1144.170, 40.62262
1145.261, 19.75500
1146.353, 41.91968
1147.444, 6.443176
1148.535, 26.49902
1149.626, 22.82898
1150.716, 14.98102
1151.807, 25.13007
1152.897, 37.27612
1153.988, 1.286194
1155.078, 38.85168
1156.168, 20.98737
1157.257, 37.13416
1158.347, 22.43732
1159.436, 48.56445
1160.526, 37.68872
1161.615, 34.81018
1162.704, 37.92883
1163.793, 30.81915
1164.881, 30.79175
1165.970, 27.25397
1167.058, 31.76367
1168.147, 34.86920
1169.235, 48.97198
1170.323, 33.07324
1171.410, 25.17181
1172.498, 33.26868
1173.585, 37.36285
1174.673, 32.37091
1175.760, 57.45978
1176.847, 33.54926
1177.934, 9.632935
1179.020, 44.71375
1180.107, 40.78986
1181.193, 43.66760
1182.279, 35.56055
1183.365, 49.62756
1184.451, 18.68872
1185.537, 48.36743
1186.623, 27.42523
1187.708, 28.48151
1188.793, 40.92297
1189.878, 28.18768
1190.963, 53.24164
1192.048, 37.55585
1193.133, 23.60529
1194.217, 36.61591
1195.302, 39.49286
1196.386, 49.08289
1197.470, 55.10394
1198.554, 50.79169
1199.638, 32.75970
1200.721, 27.30872
1201.805, 49.14075
1202.888, 33.14404
1203.971, 37.15857
1205.054, 54.18024
1206.137, 42.20477
1207.219, 42.31128
1208.302, 40.33832
1209.384, 39.15637
1210.466, 60.70300
1211.548, 17.55115
1212.630, 51.74445
1213.712, 50.77850
1214.794, 9.785461
1215.875, 38.70673
1216.956, 63.38977
1218.037, 53.13739
1219.118, 40.10052
1220.199, 51.03558
1221.280, 54.89435
1222.360, 74.88513
1223.441, 41.84283
1224.521, 55.69989
1225.601, 55.38000
1226.681, 12.84784
