##NAMES=Mimetite
##RRUFFID=R050007
##IDEAL CHEMISTRY=Pb^2+^_5_(As^5+^O_4_)_3_Cl
##LOCALITY=Pingtouling, Guangdong, China
##OWNER=RRUFF
##SOURCE=Eugene Schlepp
##DESCRIPTION=Reddish orange colored hexagonal prisms
##STATUS=The identification of this mineral has been confirmed by X-ray diffraction and chemical analysis
##URL=rruff.info/R050007
##MEASURED CHEMISTRY=Pb_5.00_((As_0.99_P_0.01_)O_4_)_3_Cl_1.00_
##PIN_ID=L00097
##ORIENTATION=Laser parallel to c* (0 0 1). Fiducial mark perpendicular to laser is parallel to -a [-1 0 0]
49.365, 0.000
50.765, 22.453
52.166, 77.359
53.566, 130.743
54.966, 169.451
56.365, 336.215
57.765, 506.892
59.164, 629.851
60.563, 673.127
61.962, 654.947
63.360, 661.483
64.758, 738.199
66.157, 638.604
67.554, 504.024
68.952, 397.590
70.349, 323.833
71.747, 230.699
73.144, 198.147
74.540, 112.131
75.937, 36.610
77.333, 40.454
78.729, 97.094
80.125, 49.339
81.521, 5.214
82.916, 84.259
84.311, 183.060
85.706, 353.171
87.101, 508.579
88.496, 666.269
89.890, 864.231
91.284, 1131.456
92.678, 1618.933
94.071, 2041.651
95.465, 2686.598
96.858, 3532.757
98.251, 4384.114
99.644, 4865.648
101.036, 5033.338
102.428, 5060.184
103.820, 5050.176
105.212, 4811.314
106.604, 4657.589
107.995, 4629.001
109.387, 4426.544
110.777, 4427.215
112.168, 4279.010
113.559, 4202.926
114.949, 3987.963
116.339, 3927.115
117.729, 3816.381
119.119, 3628.760
120.508, 3658.251
121.897, 3619.855
123.286, 3593.570
124.675, 3542.398
126.063, 3477.338
127.452, 3427.393
128.840, 3506.558
130.228, 3479.836
131.615, 3520.223
133.003, 3496.724
134.390, 3462.336
135.777, 3479.055
137.164, 3516.862
138.550, 3500.744
139.937, 3519.686
141.323, 3453.661
142.709, 3512.664
144.094, 3462.697
145.480, 3462.753
146.865, 3494.773
148.250, 3416.629
149.635, 3387.453
151.019, 3336.325
152.403, 3219.251
153.788, 3289.231
155.171, 3107.267
156.555, 3215.356
157.939, 3073.500
159.322, 3135.698
160.705, 3102.951
162.088, 3198.256
163.470, 3141.615
164.853, 3137.026
166.235, 3180.489
167.617, 3158.001
168.998, 3210.564
170.380, 3142.176
171.761, 3040.838
173.142, 3103.547
174.523, 2999.307
175.904, 3023.118
177.284, 2872.980
178.664, 2758.892
180.044, 2829.863
181.424, 2722.881
182.803, 2582.947
184.183, 2546.059
185.562, 2477.231
186.940, 2432.467
188.319, 2366.776
189.698, 2279.453
191.076, 2157.585
192.454, 2091.084
193.831, 2037.659
195.209, 1939.318
196.586, 1888.068
197.963, 1750.889
199.340, 1784.793
200.717, 1662.767
202.093, 1540.819
203.470, 1523.949
204.846, 1484.156
206.221, 1323.429
207.597, 1268.754
208.972, 1243.148
210.347, 1229.607
211.722, 1131.136
213.097, 1089.729
214.472, 1093.377
215.846, 1013.651
217.220, 967.970
218.594, 902.213
219.967, 862.741
221.341, 827.282
222.714, 800.080
224.087, 760.623
225.460, 743.997
226.832, 711.140
228.204, 702.354
229.577, 654.063
230.948, 632.138
232.320, 600.156
233.692, 586.248
235.063, 519.409
236.434, 501.648
237.805, 506.729
239.175, 466.783
240.545, 466.394
241.916, 412.085
243.286, 378.095
244.655, 364.888
246.025, 315.005
247.394, 262.205
248.763, 279.374
250.132, 277.126
251.501, 236.990
252.869, 215.902
254.237, 180.854
255.605, 115.849
256.973, 120.880
258.340, 94.555
259.708, 115.049
261.075, 91.183
262.442, 80.350
263.808, 94.551
265.175, 24.787
266.541, 64.052
267.907, 93.345
269.273, 26.665
270.639, 33.010
272.004, 20.379
273.369, 20.772
274.734, 30.273
276.099, 41.626
277.463, 46.086
278.828, 44.567
280.192, 39.067
281.556, 22.587
282.919, 32.126
284.283, 89.683
285.646, 70.257
287.009, 119.848
288.372, 123.455
289.734, 152.077
291.097, 216.743
292.459, 234.401
293.821, 207.075
295.183, 298.845
296.544, 336.705
297.905, 379.680
299.266, 501.703
300.627, 526.543
301.988, 601.542
303.348, 733.533
304.709, 788.675
306.069, 830.741
307.428, 917.435
308.788, 1001.608
310.147, 1033.692
311.507, 1046.788
312.865, 1046.881
314.224, 1052.985
315.583, 1070.223
316.941, 1080.428
318.299, 1093.882
319.657, 1056.632
321.015, 1083.869
322.372, 1067.893
323.729, 1104.681
325.086, 1182.438
326.443, 1206.117
327.800, 1302.147
329.156, 1382.624
330.512, 1379.262
331.868, 1467.857
333.224, 1573.039
334.579, 1630.314
335.935, 1613.182
337.290, 1624.390
338.645, 1574.322
339.999, 1598.228
341.354, 1513.723
342.708, 1459.951
344.062, 1332.908
345.416, 1302.656
346.769, 1190.694
348.123, 1057.836
349.476, 1017.899
350.829, 972.449
352.182, 833.746
353.534, 851.023
354.887, 868.170
356.239, 856.749
357.591, 934.630
358.942, 996.076
360.294, 1126.575
361.645, 1255.890
362.996, 1403.889
364.347, 1687.217
365.698, 1870.290
367.048, 2048.249
368.398, 2182.217
369.748, 2304.880
371.098, 2240.377
372.448, 2147.879
373.797, 1971.209
375.146, 1771.181
376.495, 1579.238
377.844, 1414.191
379.192, 1309.727
380.540, 1167.781
381.889, 1089.112
383.236, 1103.244
384.584, 1019.323
385.932, 1009.312
387.279, 1049.078
388.626, 961.043
389.973, 936.943
391.319, 944.199
392.666, 877.083
394.012, 873.377
395.358, 914.712
396.704, 891.470
398.049, 827.604
399.394, 838.034
400.740, 850.809
402.084, 874.101
403.429, 898.799
404.774, 919.692
406.118, 962.256
407.462, 1013.365
408.806, 1054.883
410.150, 1127.264
411.493, 1204.406
412.836, 1266.865
414.179, 1401.952
415.522, 1422.638
416.865, 1506.360
418.207, 1619.901
419.549, 1655.333
420.891, 1655.258
422.233, 1590.709
423.575, 1525.133
424.916, 1393.371
426.257, 1290.169
427.598, 1113.383
428.939, 1011.005
430.279, 880.238
431.619, 777.392
432.959, 703.524
434.299, 641.677
435.639, 542.767
436.978, 477.835
438.318, 455.897
439.657, 434.922
440.996, 335.924
442.334, 347.904
443.673, 264.862
445.011, 245.796
446.349, 208.708
447.687, 169.597
449.024, 176.462
450.361, 160.304
451.699, 101.122
453.036, 106.916
454.372, 106.686
455.709, 87.431
457.045, 69.152
458.381, 44.847
459.717, 36.514
461.053, 83.154
462.388, 47.769
463.724, 52.356
465.059, 23.916
466.394, 39.447
467.728, 0.050
469.063, 24.419
470.397, 41.858
471.731, 41.269
473.065, 44.020
474.398, 44.258
475.732, 23.447
477.065, 28.743
478.398, 10.009
479.731, 12.757
481.063, 28.804
482.396, 16.037
483.728, 11.885
485.060, 5.183
486.391, 7.215
487.723, 14.788
489.054, 14.163
490.385, 23.920
491.716, 10.945
493.047, 0.224
494.377, 17.433
495.708, 26.691
497.038, 16.003
498.368, 27.363
499.697, 42.778
501.027, 4.256
502.356, 31.777
503.685, 4.646
505.014, 39.970
506.342, 28.648
507.671, 14.381
508.999, 13.163
510.327, 20.992
511.655, 48.873
512.982, 16.820
514.310, 30.817
515.637, 37.871
516.964, 10.985
518.291, 36.146
519.617, 5.366
520.944, 18.630
522.270, 2.057
523.596, 51.296
524.921, 15.715
526.247, 30.183
527.572, 30.707
528.897, 26.286
530.222, 55.919
531.547, 24.620
532.871, 22.373
534.196, 17.177
535.520, 35.028
536.844, 33.937
538.167, 27.901
539.491, 4.918
540.814, 9.975
542.137, 9.926
543.460, 23.206
544.783, 11.613
546.105, 3.598
547.427, 10.152
548.749, 10.872
550.071, 2.561
551.393, 9.217
552.714, 31.158
554.035, 0.584
555.356, 9.956
556.677, 30.534
557.998, 4.073
559.318, 6.353
560.638, 3.251
561.958, 23.889
563.278, 16.571
564.597, 9.294
565.917, 18.053
567.236, 19.853
568.555, 4.306
569.874, 20.564
571.192, 26.474
572.511, 21.428
573.829, 1.578
575.147, 17.444
576.464, 3.497
577.782, 21.411
579.099, 6.700
580.416, 4.160
581.733, 3.993
583.050, 15.198
584.366, 25.422
585.683, 44.315
586.999, 5.970
588.315, 15.717
589.630, 87.382
590.946, 50.030
592.261, 13.645
593.576, 43.243
594.891, 22.820
596.206, 13.376
597.520, 35.910
598.834, 19.424
600.148, 53.917
601.462, 36.389
602.776, 28.841
604.089, 55.274
605.402, 56.686
606.715, 52.079
608.028, 67.453
609.341, 52.808
610.653, 76.115
611.965, 46.427
613.277, 93.716
614.589, 35.906
615.901, 42.999
617.212, 34.971
618.523, 62.889
619.834, 38.984
621.145, 46.912
622.456, 39.842
623.766, 19.613
625.076, 65.453
626.386, 54.658
627.696, 52.376
629.006, 45.176
630.315, 36.957
631.624, 7.266
632.933, 0.506
634.242, 45.114
635.551, 21.760
636.859, 52.152
638.167, 20.759
639.475, 55.834
640.783, 3.366
642.090, 8.663
643.398, 36.715
644.705, 8.839
646.012, 18.604
647.318, 27.915
648.625, 24.058
649.931, 40.237
651.237, 43.821
652.543, 54.305
653.849, 85.187
655.155, 16.722
656.460, 57.526
657.765, 28.347
659.070, 59.571
660.375, 52.056
661.679, 41.802
662.984, 64.750
664.288, 67.399
665.592, 94.937
666.895, 53.544
668.199, 38.656
669.502, 95.013
670.805, 64.381
672.108, 81.870
673.411, 84.917
674.713, 83.654
676.016, 121.816
677.318, 88.915
678.620, 130.189
679.921, 164.769
681.223, 155.009
682.524, 200.493
683.825, 149.081
685.126, 177.650
686.427, 207.512
687.727, 198.530
689.028, 205.531
690.328, 187.694
691.628, 263.203
692.927, 245.615
694.227, 285.120
695.526, 287.029
696.825, 293.408
698.124, 304.498
699.423, 333.776
700.721, 350.094
702.020, 374.493
703.318, 395.106
704.616, 431.513
705.913, 436.977
707.211, 476.423
708.508, 488.545
709.805, 527.601
711.102, 531.614
712.399, 526.204
713.695, 537.416
714.992, 569.656
716.288, 571.899
717.584, 664.954
718.879, 680.760
720.175, 753.071
721.470, 722.887
722.765, 768.203
724.060, 824.454
725.355, 871.190
726.649, 838.502
727.944, 977.496
729.238, 942.861
730.532, 1077.624
731.825, 1044.347
733.119, 1165.248
734.412, 1243.255
735.705, 1261.766
736.998, 1329.748
738.291, 1398.752
739.584, 1486.938
740.876, 1576.564
742.168, 1731.773
743.460, 1771.579
744.752, 1962.777
746.043, 2066.055
747.334, 2199.355
748.626, 2337.635
749.916, 2561.973
751.207, 2821.049
752.498, 3120.708
753.788, 3523.115
755.078, 3955.553
756.368, 4502.019
757.658, 5031.511
758.947, 5539.023
760.237, 6146.561
761.526, 6787.122
762.815, 7046.713
764.104, 7495.333
765.392, 7515.984
766.680, 7388.660
767.969, 7307.365
769.257, 7322.098
770.544, 7154.863
771.832, 6883.658
773.119, 6919.484
774.406, 6848.342
775.693, 6991.226
776.980, 7269.131
778.267, 7539.062
779.553, 7907.022
780.839, 8266.014
782.125, 9065.035
783.411, 9694.085
784.697, 10263.161
785.982, 10642.274
787.267, 11291.307
788.552, 11750.449
789.837, 12329.637
791.122, 13398.845
792.406, 14428.085
793.690, 15706.989
794.974, 17026.293
796.258, 19945.600
797.542, 23076.543
798.825, 26074.387
800.108, 31903.826
801.391, 37733.297
802.674, 44222.801
803.957, 49202.348
805.239, 50991.902
806.522, 50931.496
807.804, 49241.145
809.085, 46660.812
810.367, 43190.531
811.649, 38790.281
812.930, 35290.082
814.211, 29729.906
815.492, 26479.768
816.772, 22249.670
818.053, 19189.607
819.333, 16379.586
820.613, 14869.602
821.893, 13539.652
823.173, 12209.737
824.452, 11529.867
825.732, 10840.034
827.011, 10300.238
828.290, 9750.485
829.568, 9330.769
830.847, 8641.089
832.125, 8521.445
833.403, 7832.835
834.681, 7546.257
835.959, 6992.728
837.236, 6751.232
838.514, 6305.775
839.791, 6092.359
841.068, 5745.980
842.345, 5549.648
843.621, 5192.355
844.898, 5064.097
846.174, 4812.876
847.450, 4695.696
848.726, 4397.555
850.001, 4142.453
851.277, 4091.382
852.552, 3783.346
853.827, 3528.336
855.102, 3287.364
856.376, 2966.418
857.651, 2804.503
858.925, 2611.616
860.199, 2374.757
861.473, 2129.926
862.746, 2072.122
864.020, 1968.356
865.293, 1792.870
866.566, 1773.160
867.839, 1621.695
869.112, 1536.483
870.384, 1499.422
871.656, 1373.568
872.928, 1447.451
874.200, 1365.309
875.472, 1298.431
876.744, 1257.096
878.015, 1173.668
879.286, 1230.926
880.557, 1150.027
881.828, 1129.143
883.098, 1076.838
884.369, 1069.705
885.639, 996.453
886.909, 964.694
888.178, 905.509
889.448, 874.409
890.717, 907.256
891.987, 842.139
893.256, 804.819
894.524, 730.728
895.793, 659.421
897.061, 746.184
898.330, 662.973
899.598, 676.158
900.865, 660.358
902.133, 609.420
903.401, 655.957
904.668, 615.583
905.935, 596.572
907.202, 609.132
908.468, 601.719
909.735, 626.582
911.001, 623.536
912.267, 682.028
913.533, 773.477
914.799, 795.710
916.064, 851.601
917.330, 873.837
918.595, 872.783
919.860, 821.394
921.124, 741.537
922.389, 628.843
923.653, 594.117
924.918, 509.625
926.182, 438.337
927.445, 391.779
928.709, 359.356
929.972, 323.430
931.236, 295.613
932.499, 304.772
933.761, 256.657
935.024, 190.999
936.286, 207.599
937.549, 205.296
938.811, 208.157
940.073, 210.233
941.334, 222.845
942.596, 206.527
943.857, 187.399
945.118, 176.052
946.379, 147.176
947.640, 126.399
948.900, 190.989
950.161, 124.010
951.421, 158.751
952.681, 143.388
953.940, 121.420
955.200, 128.213
956.459, 127.114
957.719, 129.891
958.978, 99.092
960.236, 123.948
961.495, 95.043
962.753, 105.925
964.012, 89.895
965.270, 135.088
966.527, 65.950
967.785, 92.978
969.043, 60.019
970.300, 57.472
971.557, 76.376
972.814, 73.268
974.071, 35.168
975.327, 75.076
976.583, 50.010
977.840, 61.957
979.095, 24.943
980.351, 45.880
981.607, 91.880
982.862, 39.856
984.117, 63.816
985.372, 39.015
986.627, 16.275
987.882, 53.280
989.136, 60.257
990.390, 54.404
991.644, 46.390
992.898, 49.379
994.152, 24.568
995.405, 25.729
996.659, 55.911
997.912, 18.915
999.165, 46.952
1000.417, 34.995
1001.670, 75.118
1002.922, 57.154
1004.174, 42.172
1005.426, 49.192
1006.678, 23.301
1007.930, 28.324
1009.181, 43.408
1010.432, 42.453
1011.683, 9.590
1012.934, 2.618
1014.185, 19.647
1015.435, 13.323
1016.685, 18.744
1017.935, 11.090
1019.185, 18.054
1020.435, 21.027
1021.684, 24.975
1022.934, 16.932
1024.183, 14.929
1025.432, 20.489
1026.680, 5.943
1027.929, 27.958
1029.177, 19.969
1030.425, 15.004
1031.673, 14.046
1032.921, 1.904
1034.169, 4.992
1035.416, 12.795
1036.663, 12.266
1037.911, 0.665
1039.157, 1.409
1040.404, 16.513
1041.650, 1.431
1042.897, 15.655
1044.143, 18.753
1045.389, 31.865
1046.634, 31.662
1047.880, 13.153
1049.125, 19.320
1050.371, 18.504
1051.615, 7.296
1052.860, 21.910
1054.105, 22.136
1055.349, 10.381
1056.593, 34.642
1057.837, 33.930
1059.081, 21.247
1060.325, 5.586
1061.568, 13.101
1062.812, 11.312
1064.055, 22.704
1065.298, 32.120
1066.540, 36.566
1067.783, 0.955
1069.025, 24.537
1070.267, 16.058
1071.509, 33.603
1072.751, 16.182
1073.993, 23.787
1075.234, 16.422
1076.475, 0.084
1077.716, 20.235
1078.957, 8.544
1080.198, 9.163
1081.438, 7.895
1082.679, 2.653
1083.919, 7.568
1085.159, 3.771
1086.398, 13.041
1087.638, 23.119
1088.877, 18.267
1090.116, 53.403
1091.355, 22.529
1092.594, 6.359
1093.833, 53.724
1095.071, 1.796
1096.309, 21.844
1097.547, 4.126
1098.785, 30.876
1100.023, 48.865
1101.260, 15.841
1102.498, 34.797
1103.735, 49.737
1104.972, 43.667
1106.208, 71.583
1107.445, 8.487
1108.681, 52.367
1109.918, 12.233
1111.154, 54.074
1112.389, 49.902
1113.625, 40.714
1114.860, 68.510
1116.096, 51.292
1117.331, 52.058
1118.566, 35.809
1119.800, 72.541
1121.035, 89.259
1122.269, 114.962
1123.503, 102.651
1124.737, 78.327
1125.971, 77.990
1127.205, 71.638
1128.438, 98.271
1129.671, 73.889
1130.904, 82.492
1132.137, 89.080
1133.370, 60.653
1134.602, 58.210
1135.834, 85.748
1137.066, 120.270
1138.298, 68.777
1139.530, 112.267
1140.762, 105.741
1141.993, 69.199
1143.224, 72.640
1144.455, 72.196
1145.686, 108.687
1146.917, 97.074
1148.147, 97.557
1149.377, 81.952
1150.607, 102.412
1151.837, 129.853
1153.067, 112.292
1154.296, 89.694
1155.526, 120.108
1156.755, 98.487
1157.984, 108.887
1159.213, 89.255
1160.441, 129.548
1161.670, 135.954
1162.898, 146.238
1164.126, 108.247
1165.354, 89.463
1166.581, 116.700
1167.809, 118.779
1169.036, 111.492
1170.263, 112.394
1171.490, 127.208
1172.717, 135.951
1173.943, 131.491
1175.170, 145.453
1176.396, 118.652
1177.622, 151.108
1178.848, 158.796
1180.073, 124.445
1181.299, 135.636
1182.524, 142.560
1183.749, 133.566
1184.974, 160.205
1186.199, 176.231
1187.423, 169.336
1188.648, 179.278
1189.872, 184.525
1191.096, 152.625
1192.320, 165.631
1193.543, 155.805
1194.767, 173.054
1195.990, 171.373
1197.213, 157.018
1198.436, 155.655
1199.659, 166.528
1200.881, 178.992
1202.104, 175.383
1203.326, 185.207
1204.548, 183.610
1205.770, 182.020
1206.991, 193.050
1208.213, 178.210
1209.434, 176.587
1210.655, 170.962
1211.876, 194.990
1213.096, 187.951
1214.317, 154.184
1215.537, 171.479
1216.757, 202.677
1217.977, 158.577
1219.197, 172.386
1220.417, 193.885
1221.636, 154.092
1222.855, 166.507
1224.074, 180.143
1225.293, 170.611
1226.512, 186.353
1227.731, 191.011
1228.949, 148.810
1230.167, 185.942
1231.385, 179.684
1232.603, 211.981
1233.820, 177.671
1235.038, 187.948
1236.255, 176.742
1237.472, 184.338
1238.689, 154.191
1239.906, 152.602
1241.122, 153.782
1242.338, 158.628
1243.555, 155.071
1244.771, 158.637
1245.986, 154.758
1247.202, 147.882
1248.417, 156.259
1249.633, 155.317
1250.848, 145.496
1252.063, 158.812
1253.277, 166.869
1254.492, 151.790
1255.706, 135.818
1256.920, 168.428
1258.134, 141.381
1259.348, 141.202
1260.562, 130.894
1261.775, 164.848
1262.988, 153.511
1264.201, 118.368
1265.414, 185.661
1266.627, 140.490
1267.839, 131.367
1269.052, 139.334
1270.264, 127.344
1271.476, 114.506
1272.688, 121.472
1273.899, 118.183
1275.111, 98.912
1276.322, 143.569
1277.533, 114.455
1278.744, 123.380
1279.955, 104.845
1281.165, 119.323
1282.376, 108.863
1283.586, 108.488
1284.796, 125.996
1286.006, 102.654
1287.215, 96.351
1288.425, 108.616
1289.634, 60.898
1290.843, 72.335
1292.052, 97.748
1293.261, 66.211
1294.469, 82.573
1295.678, 62.839
1296.886, 63.244
1298.094, 59.704
1299.302, 64.119
1300.509, 57.054
1301.717, 61.825
1302.924, 52.648
1304.131, 56.133
1305.338, 69.447
1306.545, 42.740
1307.752, 63.130
1308.958, 64.327
1310.164, 70.495
1311.370, 29.612
1312.576, 22.696
1313.782, 44.831
1314.987, 12.967
1316.193, 42.074
1317.398, 65.359
1318.603, 53.535
1319.807, 64.600
1321.012, 38.642
1322.216, 48.696
1323.421, 38.348
1324.625, 42.672
1325.829, 29.576
1327.032, 41.505
1328.236, 51.371
1329.439, 32.212
1330.642, 37.135
1331.845, 21.014
1333.048, 47.803
1334.251, 12.719
1335.453, 52.510
1336.656, 31.238
1337.858, 37.008
1339.060, 21.764
1340.261, 14.459
1341.463, 45.233
1342.664, 43.872
1343.866, 29.512
1345.067, 22.112
1346.267, 20.727
1347.468, 50.278
1348.669, 25.824
1349.869, 19.358
1351.069, 38.894
1352.269, 12.432
1353.469, 36.918
1354.668, 47.453
1355.868, 3.956
1357.067, 40.471
1358.266, 2.105
1359.465, 4.304
1360.664, 49.690
1361.862, 16.064
1363.061, 10.482
1364.259, 58.750
1365.457, 18.087
1366.655, 45.410
1367.852, 12.778
1369.050, 15.061
1370.247, 45.322
1371.444, 38.563
1372.641, 21.703
1373.838, 15.802
1375.035, 10.235
1376.231, 10.095
1377.427, 2.151
1378.623, 5.699
1379.819, 10.058
1381.015, 2.162
1382.211, 28.382
1383.406, 19.600
1384.601, 33.819
1385.796, 17.024
1386.991, 37.218
1388.185, 14.391
1389.380, 4.557
1390.574, 28.721
1391.768, 12.872
1392.962, 40.010
1394.156, 0.863
1395.350, 0.252
1396.543, 31.349
1397.736, 4.427
1398.929, 24.490
1400.122, 60.539
1401.315, 29.572
1402.507, 38.595
1403.700, 22.605
1404.892, 30.603
1406.084, 59.425
1407.276, 19.295
1408.467, 44.069
1409.659, 45.712
1410.850, 35.327
1412.041, 19.897
1413.232, 13.393
1414.423, 0.866
1415.614, 12.435
1416.804, 43.732
1417.994, 48.746
1419.184, 47.479
1420.374, 12.942
1421.564, 10.270
1422.753, 39.490
1423.943, 23.555
1425.132, 62.812
1426.321, 46.829
1427.510, 30.752
1428.698, 30.506
1429.887, 22.486
1431.075, 74.940
1432.263, 75.104
1433.451, 25.474
1434.639, 132.724
1435.827, 45.338
1437.014, 64.501
1438.201, 65.231
1439.388, 48.390
1440.575, 33.645
1441.762, 40.374
1442.949, 23.011
1444.135, 0.300
1445.321, 21.828
1446.507, 13.794
1447.693, 21.115
1448.879, 39.397
1450.064, 16.468
1451.250, 46.311
1452.435, 39.626
1453.620, 23.909
1454.805, 79.089
1455.989, 41.783
1457.174, 29.800
1458.358, 30.228
1459.542, 6.700
1460.726, 16.771
1461.910, 35.943
1463.093, 36.669
1464.277, 26.544
1465.460, 51.573
1466.643, 28.053
1467.826, 65.357
1469.009, 39.542
1470.191, 65.341
1471.373, 66.750
1472.556, 24.924
1473.738, 30.649
1474.919, 46.697
1476.101, 15.004
1477.283, 35.318
1478.464, 47.860
1479.645, 32.575
1480.826, 32.580
1482.007, 43.203
1483.187, 17.314
1484.368, 43.978
1485.548, 38.164
1486.728, 62.074
1487.908, 38.823
1489.088, 60.336
1490.268, 42.896
1491.447, 45.857
1492.626, 35.983
1493.805, 31.564
1494.984, 59.998
1496.163, 23.850
1497.341, 26.597
1498.520, 19.283
1499.698, 57.514
1500.876, 40.135
1502.054, 38.577
1503.232, 58.842
1504.409, 23.090
1505.586, 7.565
1506.763, 53.674
1507.940, 56.683
1509.117, 22.564
1510.294, 37.683
