##NAMES=Mimetite
##RRUFFID=R060920
##IDEAL CHEMISTRY=Pb^2+^_5_(As^5+^O_4_)_3_Cl
##LOCALITY=Tsumeb mine, Tsumeb, Otavi District, Oshikoto, Namibia
##OWNER=RRUFF
##SOURCE=Marcus Origlieri
##DESCRIPTION=Yellow to brownish hexagonal prism, monoclinic polytype
##STATUS=The identification of this mineral has been made only by X-ray diffraction.
##URL=rruff.info/R060920
##PIN_ID=L01429
##ORIENTATION=Laser parallel to a* (1 0 0). Fiducial mark perpendicular to laser is parallel to c [0 0 1]
42.24800, 0.0000000E+00
43.49300, 12.64166
44.73800, 12.73090
45.98200, 12.65424
47.22600, 16.66547
48.47100, 12.46222
49.71500, 18.33731
50.95900, 29.18393
52.20200, 27.43701
53.44600, 34.43887
54.68900, 34.48691
55.93300, 37.65884
57.17600, 52.62244
58.41900, 60.58560
59.66100, 68.89459
60.90400, 61.99896
62.14600, 49.09381
63.38900, 34.38931
64.63100, 25.76254
65.87300, 24.56012
67.11500, 10.42123
68.35600, 4.456818
69.59800, 8.660797
70.83900, 10.97211
72.08000, 3.446777
73.32100, 8.767303
74.56200, 29.93747
75.80300, 17.96063
77.04300, 15.83990
78.28300, 3.422058
79.52300, 7.177521
80.76300, 37.35614
82.00300, 55.01605
83.24300, 115.7953
84.48300, 208.6873
85.72200, 261.6859
86.96100, 384.7848
88.20000, 483.9781
89.43900, 632.2607
90.67800, 746.6311
91.91600, 940.0872
93.15500, 1181.628
94.39300, 1466.252
95.63100, 1846.960
96.86900, 2321.749
98.10600, 2657.619
99.34400, 2910.569
100.5810, 3107.528
101.8190, 3214.519
103.0560, 3226.898
104.2930, 3217.166
105.5290, 3084.511
106.7660, 2904.933
108.0020, 2890.433
109.2390, 2762.008
110.4750, 2602.660
111.7110, 2477.387
112.9460, 2385.189
114.1820, 2318.066
115.4170, 2292.019
116.6530, 2264.037
117.8880, 2190.098
119.1230, 2149.198
120.3580, 2074.334
121.5920, 2040.504
122.8270, 1999.262
124.0610, 1938.938
125.2950, 1940.195
126.5290, 1912.479
127.7630, 1898.786
128.9970, 1945.118
130.2300, 1889.469
131.4640, 1962.833
132.6970, 1867.208
133.9300, 1995.591
135.1630, 1983.006
136.3950, 1973.463
137.6280, 2050.961
138.8600, 2095.502
140.0920, 2162.086
141.3240, 2136.714
142.5560, 2161.385
143.7880, 2168.102
145.0190, 2186.865
146.2510, 2170.673
147.4820, 2174.308
148.7130, 2180.426
149.9440, 2134.372
151.1750, 2147.364
152.4050, 2074.402
153.6360, 1984.487
154.8660, 1972.618
156.0960, 1988.796
157.3260, 1947.019
158.5560, 2026.287
159.7850, 2000.602
161.0150, 2025.964
162.2440, 1951.370
163.4730, 2053.823
164.7020, 1999.320
165.9310, 1997.863
167.1590, 2118.452
168.3880, 2111.086
169.6160, 2122.765
170.8440, 2145.488
172.0720, 2086.256
173.3000, 2110.069
174.5280, 2044.925
175.7550, 2058.827
176.9820, 1998.771
178.2100, 1975.758
179.4370, 1926.789
180.6630, 1911.871
181.8900, 1833.995
183.1170, 1826.167
184.3430, 1800.385
185.5690, 1843.644
186.7950, 1794.945
188.0210, 1764.298
189.2470, 1803.695
190.4720, 1711.368
191.6970, 1702.041
192.9230, 1709.704
194.1480, 1625.351
195.3730, 1602.989
196.5970, 1518.601
197.8220, 1443.205
199.0460, 1375.790
200.2700, 1334.356
201.4940, 1230.919
202.7180, 1234.465
203.9420, 1231.007
205.1660, 1143.519
206.3890, 1081.954
207.6120, 1085.389
208.8350, 1031.867
210.0580, 967.3599
211.2810, 913.7983
212.5040, 859.2203
213.7260, 874.7836
214.9480, 826.1114
216.1700, 790.3793
217.3920, 744.0504
218.6140, 729.8153
219.8360, 693.2661
221.0570, 622.5958
222.2790, 662.8016
223.5000, 578.9554
224.7210, 578.4108
225.9410, 527.5382
227.1620, 560.5580
228.3820, 494.7628
229.6030, 497.0114
230.8230, 429.3034
232.0430, 454.6329
233.2630, 463.9978
234.4820, 424.4009
235.7020, 430.8453
236.9210, 390.3315
238.1400, 344.8541
239.3590, 344.4172
240.5780, 358.0226
241.7970, 292.6620
243.0150, 362.3357
244.2340, 337.0438
245.4520, 312.7874
246.6700, 264.5724
247.8880, 303.3940
249.1060, 269.2528
250.3230, 239.1445
251.5400, 269.0665
252.7580, 231.0194
253.9750, 184.0087
255.1920, 244.0272
256.4080, 205.0776
257.6250, 215.1572
258.8410, 184.2714
260.0580, 185.4137
261.2740, 174.5908
262.4900, 133.8011
263.7050, 131.5188
264.9210, 120.3035
266.1360, 105.5951
267.3520, 113.9144
268.5670, 117.2603
269.7820, 96.63416
270.9960, 104.0349
272.2110, 83.46576
273.4250, 73.92261
274.6400, 91.41577
275.8540, 84.93854
277.0680, 69.48853
278.2810, 75.07074
279.4950, 63.53284
280.7090, 98.31287
281.9220, 63.97400
283.1350, 78.66052
284.3480, 108.3763
285.5610, 96.11755
286.7730, 121.8877
287.9860, 130.6837
289.1980, 170.5098
290.4100, 174.3602
291.6220, 236.2363
292.8340, 238.1365
294.0460, 285.0632
295.2570, 388.0137
296.4690, 467.9886
297.6800, 564.9888
298.8910, 598.0168
300.1020, 777.0676
301.3120, 885.1489
302.5230, 964.2522
303.7330, 1010.378
304.9440, 1036.528
306.1540, 1016.700
307.3630, 1023.892
308.5730, 1008.108
309.7830, 995.3435
310.9920, 990.6007
312.2010, 1007.878
313.4100, 938.1763
314.6190, 932.4944
315.8280, 829.6438
317.0370, 785.0018
318.2450, 726.3790
319.4530, 655.7754
320.6610, 676.5005
321.8690, 636.5763
323.0770, 626.0889
324.2850, 643.5598
325.4920, 632.0490
326.6990, 634.6130
327.9060, 719.1379
329.1130, 730.7003
330.3200, 774.9807
331.5270, 825.5796
332.7330, 869.1726
333.9390, 935.3717
335.1450, 1014.407
336.3510, 1058.111
337.5570, 1078.223
338.7630, 1103.908
339.9680, 1128.259
341.1740, 1091.152
342.3790, 1027.939
343.5840, 1004.839
344.7890, 948.2457
345.9930, 898.9095
347.1980, 858.6460
348.4020, 765.2378
349.6060, 735.2405
350.8100, 647.1328
352.0140, 634.3875
353.2180, 592.0850
354.4210, 549.0347
355.6250, 514.8270
356.8280, 493.8196
358.0310, 505.2133
359.2340, 513.3719
360.4360, 543.1626
361.6390, 592.3380
362.8410, 645.1995
364.0430, 734.4479
365.2450, 826.5997
366.4470, 941.9502
367.6490, 1074.322
368.8510, 1211.538
370.0520, 1327.784
371.2530, 1302.378
372.4540, 1240.677
373.6550, 1163.500
374.8560, 1014.393
376.0560, 865.0166
377.2570, 732.3467
378.4570, 648.3076
379.6570, 568.1862
380.8570, 486.2512
382.0570, 431.1571
383.2560, 384.0714
384.4560, 333.5441
385.6550, 355.1920
386.8540, 363.9460
388.0530, 330.8650
389.2520, 347.0844
390.4510, 260.8300
391.6490, 307.5461
392.8470, 253.3943
394.0450, 262.4312
395.2430, 263.9678
396.4410, 292.7376
397.6390, 244.7526
398.8360, 323.3209
400.0340, 284.5432
401.2310, 341.2107
402.4280, 371.2197
403.6250, 362.8320
404.8210, 412.0695
406.0180, 430.0138
407.2140, 463.6735
408.4100, 499.3357
409.6060, 529.0100
410.8020, 560.8728
411.9980, 617.5455
413.1930, 712.5707
414.3890, 739.3816
415.5840, 758.8853
416.7790, 861.5884
417.9740, 996.6277
419.1680, 1073.144
420.3630, 1111.146
421.5570, 1196.314
422.7510, 1185.059
423.9450, 1218.803
425.1390, 1183.873
426.3330, 1048.626
427.5270, 917.2516
428.7200, 816.0441
429.9130, 714.7171
431.1060, 566.7021
432.2990, 492.7183
433.4920, 443.5016
434.6840, 343.6158
435.8770, 313.4171
437.0690, 270.8347
438.2610, 254.6339
439.4530, 209.7250
440.6450, 163.9614
441.8360, 195.8882
443.0280, 146.7006
444.2190, 137.3054
445.4100, 105.1229
446.6010, 78.00647
447.7920, 87.32806
448.9820, 58.15216
450.1730, 47.97821
451.3630, 65.97131
452.5530, 32.84796
453.7430, 33.67871
454.9330, 65.51068
456.1230, 30.34381
457.3120, 9.214905
458.5010, 29.95032
459.6910, 27.87756
460.8800, 23.71484
462.0680, 8.543640
463.2570, 14.62732
464.4460, 23.80139
465.6340, 3.981689
466.8220, 19.83698
468.0100, 26.65540
469.1980, 3.526672
470.3860, 13.28992
471.5730, 0.8941650
472.7600, 23.07953
473.9480, 29.27277
475.1350, 9.523376
476.3210, 2.318298
477.5080, 2.111877
478.6950, 28.09607
479.8810, 14.31549
481.0670, 3.458801
482.2530, 37.76874
483.4390, 5.858337
484.6250, 1.106995
485.8100, 4.358582
486.9960, 14.54041
488.1810, 21.80426
489.3660, 21.05524
490.5510, 17.34204
491.7360, 3.180847
492.9200, 1.517273
494.1050, 7.788269
495.2890, 16.10107
496.4730, 22.65698
497.6570, 16.10876
498.8400, 32.58203
500.0240, 6.726196
501.2070, 10.06860
502.3910, 1.581604
503.5740, 22.78540
504.7570, 12.16089
505.9400, 17.27856
507.1220, 33.66571
508.3050, 17.65466
509.4870, 0.9138790
510.6690, 11.83917
511.8510, 6.375305
513.0330, 1.052368
514.2140, 6.467896
515.3960, 21.01849
516.5770, 21.51941
517.7580, 1.048523
518.9390, 16.51215
520.1200, 3.280334
521.3010, 17.82861
522.4810, 20.38422
523.6610, 1.8250000E-02
524.8420, 16.59131
526.0220, 25.22125
527.2010, 7.123413
528.3810, 5.458496
529.5610, 2.783020
530.7400, 1.904480
531.9190, 26.60645
533.0980, 9.317566
534.2770, 11.06567
535.4560, 4.050598
536.6340, 36.51685
537.8120, 11.72833
538.9910, 11.07056
540.1690, 23.10938
541.3460, 3.289368
542.5240, 19.37402
543.7020, 8.477783
544.8790, 28.67865
546.0560, 11.20264
547.2330, 6.106873
548.4100, 24.96851
549.5870, 26.03479
550.7630, 26.09229
551.9400, 18.14062
553.1160, 32.18219
554.2920, 14.21094
555.4680, 22.22742
556.6440, 4.233704
557.8190, 37.22345
558.9950, 19.79572
560.1700, 5.155823
561.3450, 18.09082
562.5200, 4.986084
563.6950, 31.91504
564.8690, 33.80676
566.0440, 17.68921
567.2180, 36.55927
568.3920, 5.420044
569.5660, 32.26361
570.7400, 5.097412
571.9130, 22.91364
573.0870, 0.2816770
574.2600, 51.50244
575.4330, 19.27710
576.6060, 36.03925
577.7790, 11.79169
578.9520, 48.52881
580.1240, 21.25647
581.2960, 16.97186
582.4690, 2.673523
583.6410, 63.35559
584.8120, 7.971802
585.9840, 42.67542
587.1560, 33.31305
588.3270, 15.94049
589.4980, 68.55371
590.6690, 48.15729
591.8400, 27.75134
593.0110, 35.33423
594.1810, 42.90704
595.3510, 52.47028
596.5220, 64.02405
597.6920, 36.56824
598.8610, 75.10242
600.0310, 74.81543
601.2010, 39.33063
602.3700, 56.83624
603.5390, 46.33234
604.7080, 90.50928
605.8770, 67.34515
607.0460, 62.75348
608.2140, 92.21198
609.3830, 55.66125
610.5510, 59.04401
611.7190, 80.47461
612.8870, 50.87567
614.0550, 63.56659
615.2220, 67.94690
616.3900, 79.34070
617.5570, 76.72540
618.7240, 83.10095
619.8910, 83.40973
621.0580, 70.32007
622.2240, 74.66876
623.3910, 21.36340
624.5570, 48.52533
625.7230, 40.80560
626.8890, 25.98389
628.0550, 60.73492
629.2200, 29.10400
630.3860, 43.48016
631.5510, 7.013000
632.7160, 38.14386
633.8810, 66.39764
635.0460, 45.30127
636.2100, 19.77423
637.3750, 3.006714
638.5390, 23.40607
639.7030, 22.61719
640.8670, 25.43970
642.0310, 5.933105
643.1950, 32.19666
644.3580, 23.02850
645.5210, 5.428345
646.6850, 18.50696
647.8480, 16.40936
649.0100, 15.53461
650.1730, 0.5249630
651.3350, 23.58368
652.4980, 11.67383
653.6600, 20.42657
654.8220, 19.48395
655.9840, 14.02643
657.1450, 3.508484
658.3070, 17.26813
659.4680, 9.669678
660.6300, 14.23346
661.7910, 6.289124
662.9510, 37.63336
664.1120, 28.14508
665.2730, 17.65668
666.4330, 7.617554
667.5930, 23.41144
668.7530, 3.106750
669.9130, 25.64465
671.0730, 2.889771
672.2320, 1.383850
673.3920, 35.37891
674.5510, 20.98322
675.7100, 10.53137
676.8690, 3.426575
678.0280, 10.15778
679.1860, 12.65045
680.3450, 0.4028930
681.5030, 24.10400
682.6610, 1.751770
683.8190, 2.728027
684.9770, 19.19611
686.1340, 5.501038
687.2920, 52.10498
688.4490, 22.99933
689.6060, 34.89764
690.7630, 12.78955
691.9200, 0.4986570
693.0760, 39.40289
694.2330, 14.96008
695.3890, 14.73749
696.5450, 70.82843
697.7010, 76.72461
698.8570, 65.29224
700.0130, 39.38757
701.1680, 58.00195
702.3230, 77.45483
703.4780, 66.33496
704.6330, 84.66077
705.7880, 85.85486
706.9430, 97.67224
708.0970, 90.69092
709.2520, 95.54639
710.4060, 95.52527
711.5600, 119.1959
712.7140, 118.8394
713.8670, 123.7191
715.0210, 104.2716
716.1740, 123.1406
717.3270, 133.4019
718.4800, 128.2847
719.6330, 138.8792
720.7860, 158.3325
721.9380, 185.0985
723.0910, 213.9822
724.2430, 254.0762
725.3950, 185.9661
726.5470, 202.7926
727.6980, 225.1840
728.8500, 240.0752
730.0010, 261.9670
731.1530, 292.7046
732.3040, 310.8021
733.4550, 333.4473
734.6050, 349.3723
735.7560, 372.2793
736.9060, 374.1504
738.0560, 390.0598
739.2060, 427.9755
740.3560, 402.8834
741.5060, 437.8021
742.6560, 515.7224
743.8050, 507.6460
744.9540, 573.5745
746.1030, 640.5051
747.2520, 643.4376
748.4010, 736.3721
749.5500, 805.3091
750.6980, 892.2479
751.8460, 1008.189
752.9950, 1145.844
754.1420, 1305.089
755.2900, 1519.045
756.4380, 1750.003
757.5850, 2052.964
758.7330, 2447.933
759.8800, 2818.913
761.0270, 3355.903
762.1730, 3802.754
763.3200, 4316.769
764.4670, 4567.792
765.6130, 4717.746
766.7590, 4706.778
767.9050, 4668.795
769.0510, 4291.843
770.1960, 3949.439
771.3420, 3659.498
772.4870, 3404.561
773.6320, 3192.635
774.7770, 3037.638
775.9220, 2932.164
777.0670, 3028.237
778.2110, 3043.309
779.3560, 3265.412
780.5000, 3545.527
781.6440, 3766.660
782.7880, 4056.795
783.9320, 4492.668
785.0750, 4866.805
786.2180, 5166.537
787.3620, 5477.706
788.5050, 5601.516
789.6480, 5713.713
790.7900, 5934.873
791.9330, 6052.086
793.0750, 6385.305
794.2170, 6832.529
795.3590, 7630.676
796.5010, 8646.923
797.6430, 10290.43
798.7850, 12053.68
799.9260, 14756.94
801.0670, 17749.23
802.2080, 21976.53
803.3490, 26527.85
804.4900, 30561.18
805.6310, 33076.53
806.7710, 33123.88
807.9110, 31394.23
809.0510, 28951.60
810.1910, 26751.96
811.3310, 25280.35
812.4710, 24097.87
813.6100, 22810.03
814.7490, 21608.45
815.8880, 19714.88
817.0270, 17187.44
818.1660, 14401.87
819.3050, 11792.40
820.4430, 9453.861
821.5820, 7647.536
822.7200, 6377.015
823.8580, 5386.506
824.9950, 4613.009
826.1330, 3916.682
827.2710, 3423.197
828.4080, 3054.741
829.5450, 2737.267
830.6820, 2428.802
831.8190, 2238.521
832.9560, 2153.247
834.0920, 1972.810
835.2280, 1880.885
836.3650, 1730.470
837.5010, 1544.064
838.6360, 1517.667
839.7720, 1445.280
840.9080, 1306.043
842.0430, 1302.669
843.1780, 1257.302
844.3130, 1162.082
845.4480, 1150.731
846.5830, 1092.386
847.7170, 1048.051
848.8520, 962.7231
849.9860, 971.4076
851.1200, 882.0978
852.2540, 794.7954
853.3870, 802.6279
854.5210, 747.3403
855.6540, 731.0933
856.7880, 739.0295
857.9210, 648.7625
859.0540, 626.5062
860.1860, 624.2556
861.3190, 605.3125
862.4510, 591.0834
863.5840, 550.8604
864.7160, 507.6456
865.8480, 525.4365
866.9790, 498.6344
868.1110, 516.4373
869.2420, 427.2941
870.3740, 500.1080
871.5050, 388.9274
872.6360, 409.7524
873.7660, 419.5828
874.8970, 373.5831
876.0280, 415.4244
877.1580, 395.3411
878.2880, 388.1932
879.4180, 394.0505
880.5480, 362.9539
881.6770, 420.8218
882.8070, 364.6949
883.9360, 384.5941
885.0650, 350.4775
886.1940, 290.3662
887.3230, 309.2600
888.4520, 312.1591
889.5800, 270.0630
890.7090, 266.9720
891.8370, 216.8861
892.9650, 280.8108
894.0930, 266.7578
895.2200, 219.4240
896.3480, 185.7167
897.4750, 213.3555
898.6020, 205.3241
899.7290, 174.1234
900.8560, 179.3772
901.9830, 195.3345
903.1090, 194.2958
904.2360, 159.2616
905.3620, 133.2314
906.4880, 129.2140
907.6140, 120.2775
908.7400, 111.8021
909.8650, 126.2802
910.9900, 141.2727
912.1160, 137.1761
913.2410, 161.1791
914.3660, 113.1857
915.4900, 147.7775
916.6150, 128.3916
917.7390, 176.4133
918.8640, 147.7119
919.9880, 160.7659
921.1120, 186.2205
922.2350, 146.5375
923.3590, 123.5833
924.4820, 127.6342
925.6060, 106.8055
926.7290, 79.82373
927.8520, 57.88342
928.9740, 56.99133
930.0970, 67.05640
931.2190, 58.14197
932.3420, 58.21265
933.4640, 46.71887
934.5860, 25.41406
935.7080, 16.67468
936.8290, 25.60999
937.9510, 9.700562
939.0720, 15.91455
940.1930, 17.67126
941.3140, 11.93042
942.4350, 6.865479
943.5560, 17.96533
944.6760, 12.06677
945.7960, 35.54321
946.9170, 29.15784
948.0370, 1.776978
949.1560, 21.10803
950.2760, 9.222290
951.3960, 6.813232
952.5150, 7.302246
953.6340, 6.418701
954.7530, 18.54053
955.8720, 10.33643
956.9910, 42.78540
958.1090, 21.91492
959.2280, 41.03833
960.3460, 7.777100
961.4640, 7.346069
962.5820, 1.485718
963.6990, 5.973755
964.8170, 7.098267
965.9340, 7.726807
967.0510, 7.601929
968.1690, 2.343140
969.2850, 15.39856
970.4020, 23.75696
971.5190, 29.87463
972.6350, 32.99243
973.7510, 38.64111
974.8670, 5.772217
975.9830, 24.34363
977.0990, 5.459351
978.2150, 5.425171
979.3300, 25.68835
980.4450, 18.80176
981.5600, 16.95239
982.6750, 32.19702
983.7900, 37.47083
984.9050, 42.58215
986.0190, 31.69275
987.1340, 22.19702
988.2480, 26.90210
989.3620, 0.9996340
990.4750, 5.902710
991.5890, 24.19104
992.7020, 12.28394
993.8160, 1.375610
994.9290, 23.02747
996.0420, 58.05066
997.1550, 41.12744
998.2670, 9.276978
999.3800, 27.35107
1000.492, 39.57593
1001.604, 48.47485
1002.716, 0.4759520
1003.828, 22.59009
1004.940, 15.63562
1006.051, 3.679565
1007.163, 1.721680
1008.274, 2.354004
1009.385, 26.83936
1010.496, 0.1257320
1011.606, 7.906250
1012.717, 18.93640
1013.827, 0.9647220
1014.937, 17.99036
1016.047, 10.01392
1017.157, 2.035522
1018.267, 14.05432
1019.377, 11.07739
1020.486, 42.11768
1021.595, 25.13013
1022.704, 20.14038
1023.813, 34.14844
1024.922, 20.15417
1026.030, 7.157471
1027.139, 4.158569
1028.247, 23.84351
1029.355, 17.62903
1030.463, 22.88696
1031.571, 11.94836
1032.678, 9.011353
1033.786, 8.4839001E-02
1034.893, 28.83606
1036.000, 32.75403
1037.107, 27.66943
1038.214, 36.58215
1039.321, 12.49194
1040.427, 5.398804
1041.533, 18.69836
1042.639, 1.811768
1043.745, 24.06726
1044.851, 24.05676
1045.957, 28.79980
1047.062, 33.65320
1048.168, 18.49634
1049.273, 2.662720
1050.378, 24.16211
1051.482, 2.983887
1052.587, 12.79956
1053.692, 0.6132810
1054.796, 3.419800
1055.900, 29.22021
1057.004, 39.01709
1058.108, 7.810791
1059.212, 7.400391
1060.315, 46.37646
1061.418, 12.14990
1062.522, 30.91931
1063.625, 17.68518
1064.728, 26.44739
1065.830, 7.207275
1066.933, 5.038086
1068.035, 7.705200
1069.137, 20.55701
1070.239, 37.16162
1071.341, 9.876587
1072.443, 1.413330
1073.545, 39.28699
1074.646, 44.98352
1075.747, 67.67615
1076.848, 31.36523
1077.949, 4.050537
1079.050, 28.72839
1080.150, 21.40234
1081.251, 8.072266
1082.351, 28.73608
1083.451, 3.601929
1084.551, 66.92737
1085.651, 39.57605
1086.750, 46.22083
1087.850, 49.86169
1088.949, 43.26770
1090.048, 25.90051
1091.147, 34.61047
1092.246, 16.16235
1093.345, 35.62305
1094.443, 18.24341
1095.541, 5.836304
1096.639, 30.44482
1097.737, 18.04944
1098.835, 28.47278
1099.933, 4.107422
1101.030, 16.47644
1102.128, 19.54932
1103.225, 42.12439
1104.322, 45.69531
1105.419, 81.26221
1106.515, 31.82507
1107.612, 36.24231
1108.708, 54.79858
1109.804, 50.35059
1110.900, 43.59094
1111.996, 47.30103
1113.092, 20.84131
1114.187, 12.37695
1115.283, 11.19373
1116.378, 46.44470
1117.473, 40.97168
1118.568, 71.49451
1119.662, 91.88452
1120.757, 47.39941
1121.851, 43.87500
1122.946, 58.17078
1124.040, 66.67358
1125.134, 41.17236
1126.227, 1.670532
1127.321, 41.86841
1128.414, 53.35400
1129.508, 14.83545
1130.601, 39.31226
1131.693, 33.78528
1132.786, 48.85315
1133.879, 41.31824
1134.971, 22.73157
1136.064, 31.18921
1137.156, 47.64331
1138.248, 47.09338
1139.339, 70.53979
1140.431, 17.81824
1141.522, 82.25671
1142.614, 70.62183
1143.705, 34.05298
1144.796, 79.48022
1145.887, 33.86316
1146.977, 52.28320
1148.068, 51.69958
1149.158, 100.0914
1150.248, 26.50037
1151.338, 21.90564
1152.428, 61.30713
1153.518, 64.70496
1154.607, 51.09912
1155.696, 58.48950
1156.785, 46.87659
1157.874, 51.16321
1158.963, 50.63745
1160.052, 60.27612
1161.141, 54.28967
1162.229, 63.95837
1163.317, 38.29956
1164.405, 92.81104
1165.493, 37.86926
1166.581, 74.22571
1167.668, 45.57910
1168.756, 29.92920
1169.843, 78.27637
1170.930, 58.61426
1172.017, 32.87195
1173.103, 67.66956
1174.190, 46.51477
1175.276, 31.84692
1176.363, 57.27148
1177.449, 69.59790
1178.535, 58.92212
1179.620, 72.68909
1180.706, 28.41211
1181.791, 65.72839
1182.877, 46.76880
1183.962, 71.38940
1185.047, 38.27637
1186.131, 62.30811
1187.216, 36.61182
1188.300, 35.91309
1189.385, 67.09521
1190.469, 80.43103
1191.553, 93.73047
1192.637, 42.98169
1193.720, 28.27673
1194.804, 60.55176
1195.887, 38.13220
1196.970, 93.23975
1198.053, 49.66528
1199.136, 46.77454
1200.219, 53.30627
1201.301, 61.58569
1202.383, 24.76721
1203.465, 45.38025
1204.547, 52.65381
1205.629, 55.92517
1206.711, 83.19495
1207.792, 57.46301
1208.874, 70.35596
1209.955, 31.62036
1211.036, 41.86401
1212.117, 43.90686
1213.198, 10.16626
1214.278, 40.57495
1215.359, 62.81201
1216.439, 88.06677
1217.519, 65.33521
1218.599, 76.58655
1219.678, 85.83728
1220.758, 69.04041
1221.837, 70.29944
1222.917, 48.48499
1223.996, 104.7302
1225.075, 51.92932
1226.153, 57.83606
1227.232, 99.07654
1228.310, 84.26562
1229.389, 61.50269
1230.467, 86.84546
1231.545, 78.01794
