##NAMES=Mimetite
##RRUFFID=R060920
##IDEAL CHEMISTRY=Pb^2+^_5_(As^5+^O_4_)_3_Cl
##LOCALITY=Tsumeb mine, Tsumeb, Otavi District, Oshikoto, Namibia
##OWNER=RRUFF
##SOURCE=Marcus Origlieri
##DESCRIPTION=Yellow to brownish hexagonal prism, monoclinic polytype
##STATUS=The identification of this mineral has been made only by X-ray diffraction.
##URL=rruff.info/R060920
##PIN_ID=L01165
##ORIENTATION=Laser parallel to -c* (0 0 -1). Fiducial mark perpendicular to laser is parallel to b [0 1 0]
42.24800, 0.0000000E+00
43.49300, 10.22937
44.73800, 7.260010
45.98200, 26.86148
47.22600, 27.57739
48.47100, 31.13071
49.71500, 45.50278
50.95900, 68.26123
52.20200, 70.43811
53.44600, 75.40497
54.68900, 73.38190
55.93300, 96.27258
57.17600, 117.9157
58.41900, 154.5219
59.66100, 166.4233
60.90400, 124.3110
62.14600, 113.1706
63.38900, 88.51166
64.63100, 73.32150
65.87300, 52.58325
67.11500, 37.27875
68.35600, 9.391449
69.59800, 3.093475
70.83900, 22.18912
72.08000, 19.90704
73.32100, 38.25766
74.56200, 42.25015
75.80300, 48.89301
77.04300, 31.19379
78.28300, 4.159424
79.52300, 26.20331
80.76300, 67.88171
82.00300, 193.8589
83.24300, 371.1186
84.48300, 543.6451
85.72200, 810.4241
86.96100, 1036.441
88.20000, 1392.681
89.43900, 1693.132
90.67800, 2082.792
91.91600, 2564.654
93.15500, 3157.718
94.39300, 3853.980
95.63100, 4579.437
96.86900, 5147.087
98.10600, 5722.930
99.34400, 6157.962
100.5810, 6301.184
101.8190, 6441.591
103.0560, 6474.186
104.2930, 6453.962
105.5290, 6276.924
106.7660, 6273.067
108.0020, 6244.389
109.2390, 6246.891
110.4750, 6005.572
111.7110, 5888.427
112.9460, 5566.459
114.1820, 5523.666
115.4170, 5447.046
116.6530, 5377.582
117.8880, 5290.338
119.1230, 5083.935
120.3580, 5076.744
121.5920, 4962.632
122.8270, 4813.596
124.0610, 4761.629
125.2950, 4709.722
126.5290, 4609.876
127.7630, 4482.092
128.9970, 4618.367
130.2300, 4596.687
131.4640, 4629.028
132.6970, 4739.386
133.9300, 4800.773
135.1630, 4792.248
136.3950, 4941.817
137.6280, 4953.486
138.8600, 5009.255
140.0920, 5151.128
141.3240, 5139.103
142.5560, 5182.182
143.7880, 5164.365
145.0190, 5162.655
146.2510, 5119.049
147.4820, 5055.551
148.7130, 5047.158
149.9440, 5004.711
151.1750, 4928.696
152.4050, 4944.625
153.6360, 4923.662
154.8660, 4876.807
156.0960, 4794.057
157.3260, 4839.415
158.5560, 4828.878
159.7850, 4862.448
161.0150, 4864.236
162.2440, 4839.904
163.4730, 4876.792
164.7020, 4858.784
165.9310, 4885.879
167.1590, 4838.081
168.3880, 4876.386
169.6160, 4997.794
170.8440, 4944.305
172.0720, 4899.919
173.3000, 4782.635
174.5280, 4646.453
175.7550, 4693.369
176.9820, 4612.386
178.2100, 4567.502
179.4370, 4426.720
180.6630, 4437.038
181.8900, 4358.455
183.1170, 4216.974
184.3430, 4289.598
185.5690, 4046.315
186.7950, 4035.134
188.0210, 3970.065
189.2470, 3889.128
190.4720, 3748.484
191.6970, 3745.830
192.9230, 3610.146
194.1480, 3573.449
195.3730, 3443.725
196.5970, 3263.966
197.8220, 3188.188
199.0460, 3009.368
200.2700, 2913.534
201.4940, 2884.691
202.7180, 2730.818
203.9420, 2622.896
205.1660, 2581.857
206.3890, 2420.739
207.6120, 2341.594
208.8350, 2260.417
210.0580, 2158.401
211.2810, 2174.399
212.5040, 2042.495
213.7260, 1967.568
214.9480, 1833.662
216.1700, 1720.137
217.3920, 1654.392
218.6140, 1589.952
219.8360, 1519.160
221.0570, 1473.702
222.2790, 1341.457
223.5000, 1271.270
224.7210, 1245.546
225.9410, 1142.981
227.1620, 1133.990
228.3820, 1105.256
229.6030, 1096.035
230.8230, 1017.911
232.0430, 1004.870
233.2630, 994.9160
234.4820, 925.0469
235.7020, 914.2712
236.9210, 810.5770
238.1400, 824.9680
239.3590, 768.4470
240.5780, 792.0082
241.7970, 722.6460
243.0150, 689.3730
244.2340, 665.1818
245.4520, 645.0645
246.6700, 649.0261
247.8880, 574.0627
249.1060, 610.1781
250.3230, 543.3701
251.5400, 561.6362
252.7580, 547.9773
253.9750, 424.3972
255.1920, 499.8909
256.4080, 443.4583
257.6250, 431.0980
258.8410, 490.8083
260.0580, 432.5879
261.2740, 417.4324
262.4900, 373.3477
263.7050, 352.5061
264.9210, 312.3923
266.1360, 320.5118
267.3520, 314.6934
268.5670, 307.9396
269.7820, 270.2483
270.9960, 317.6198
272.2110, 199.0536
273.4250, 282.5520
274.6400, 223.1212
275.8540, 220.7512
277.0680, 208.4430
278.2810, 241.1996
279.4950, 205.0154
280.7090, 260.8979
281.9220, 299.8547
283.1350, 275.8767
284.3480, 362.9604
285.5610, 294.1042
286.7730, 342.3066
287.9860, 423.5691
289.1980, 376.8889
290.4100, 504.2655
291.6220, 633.7019
292.8340, 748.1930
294.0460, 893.7393
295.2570, 961.3408
296.4690, 1116.997
297.6800, 1228.707
298.8910, 1456.471
300.1020, 1477.287
301.3120, 1698.155
302.5230, 1921.075
303.7330, 2041.046
304.9440, 2134.066
306.1540, 2247.137
307.3630, 2375.258
308.5730, 2319.426
309.7830, 2395.643
310.9920, 2456.907
312.2010, 2417.219
313.4100, 2399.869
314.6190, 2312.274
315.8280, 2263.929
317.0370, 2066.535
318.2450, 2043.074
319.4530, 1924.830
320.6610, 1897.811
321.8690, 1804.636
323.0770, 1870.925
324.2850, 1903.683
325.4920, 2003.546
326.6990, 2135.384
327.9060, 2261.026
329.1130, 2397.040
330.3200, 2564.969
331.5270, 2684.055
332.7330, 2838.882
333.9390, 2941.056
335.1450, 3110.772
336.3510, 3115.442
337.5570, 3209.472
338.7630, 3252.338
339.9680, 3192.499
341.1740, 3036.377
342.3790, 3011.159
343.5840, 2809.851
344.7890, 2515.405
345.9930, 2400.766
347.1980, 2205.486
348.4020, 2026.396
349.6060, 1861.268
350.8100, 1774.146
352.0140, 1625.219
353.2180, 1531.306
354.4210, 1411.011
355.6250, 1458.227
356.8280, 1409.909
358.0310, 1580.024
359.2340, 1723.754
360.4360, 1787.054
361.6390, 2036.836
362.8410, 2256.188
364.0430, 2434.346
365.2450, 2660.705
366.4470, 2773.029
367.6490, 2930.783
368.8510, 2993.463
370.0520, 3048.049
371.2530, 3020.194
372.4540, 2886.518
373.6550, 2679.597
374.8560, 2339.675
376.0560, 2113.379
377.2570, 1770.270
378.4570, 1587.531
379.6570, 1407.309
380.8570, 1227.504
382.0570, 1130.806
383.2560, 1073.979
384.4560, 909.8489
385.6550, 907.9563
386.8540, 939.1217
388.0530, 839.6860
389.2520, 892.7761
390.4510, 858.1907
391.6490, 757.8904
392.8470, 849.6511
394.0450, 792.0491
395.2430, 870.1346
396.4410, 837.6863
397.6390, 847.2427
398.8360, 878.9229
400.0340, 883.7343
401.2310, 919.3955
402.4280, 978.9170
403.6250, 1028.271
404.8210, 1092.245
406.0180, 1168.118
407.2140, 1246.549
408.4100, 1376.029
409.6060, 1482.461
410.8020, 1566.096
411.9980, 1684.394
413.1930, 1861.301
414.3890, 1947.269
415.5840, 2035.298
416.7790, 2127.812
417.9740, 2198.944
419.1680, 2245.721
420.3630, 2273.890
421.5570, 2218.662
422.7510, 2211.349
423.9450, 2040.684
425.1390, 1950.830
426.3330, 1784.985
427.5270, 1553.444
428.7200, 1373.746
429.9130, 1150.754
431.1060, 1033.171
432.2990, 859.2167
433.4920, 707.1606
434.6840, 639.8845
435.8770, 551.7064
437.0690, 524.6304
438.2610, 423.7062
439.4530, 428.7903
440.6450, 297.9280
441.8360, 274.8636
443.0280, 261.8326
444.2190, 219.8097
445.4100, 180.6986
446.6010, 161.6085
447.7920, 135.6572
448.9820, 138.5654
450.1730, 121.4794
451.3630, 56.41663
452.5530, 25.34094
453.7430, 84.27002
454.9330, 7.203247
456.1230, 18.85938
457.3120, 36.07837
458.5010, 13.98071
459.6910, 8.039307
460.8800, 13.90332
462.0680, 11.15173
463.2570, 19.20703
464.4460, 9.685547
465.6340, 26.32263
466.8220, 3.614136
468.0100, 3.448486
469.1980, 11.34045
470.3860, 29.57458
471.5730, 4.645386
472.7600, 33.71826
473.9480, 58.80139
475.1350, 71.90515
476.3210, 16.03564
477.5080, 38.17261
478.6950, 42.32373
479.8810, 25.49182
481.0670, 42.67078
482.2530, 46.86804
483.4390, 39.08606
484.6250, 55.32227
485.8100, 51.58447
486.9960, 100.8718
488.1810, 20.20850
489.3660, 1.558472
490.5510, 47.91602
491.7360, 45.30029
492.9200, 0.6538090
494.1050, 26.07288
495.2890, 24.51099
496.4730, 14.96826
497.6570, 23.44128
498.8400, 10.93445
500.0240, 54.44312
501.2070, 45.98792
502.3910, 36.36694
503.5740, 5.973755
504.7570, 15.27185
505.9400, 62.72437
507.1220, 30.09216
508.3050, 20.49866
509.4870, 67.22852
510.6690, 63.69641
511.8510, 12.47913
513.0330, 17.14087
514.2140, 0.5599370
515.3960, 28.65649
516.5770, 24.92969
517.7580, 28.89612
518.9390, 1.990112
520.1200, 17.07397
521.3010, 26.12402
522.4810, 23.89600
523.6610, 1.826782
524.8420, 10.19800
526.0220, 14.81641
527.2010, 38.98218
528.3810, 23.13403
529.5610, 5.649292
530.7400, 63.44250
531.9190, 11.27026
533.0980, 30.26013
534.2770, 7.947754
535.4560, 16.60400
536.6340, 25.23230
537.8120, 16.05762
538.9910, 1.590454
540.1690, 16.03625
541.3460, 14.54895
542.5240, 19.02380
543.7020, 23.46899
544.8790, 28.88562
546.0560, 55.27527
547.2330, 11.64465
548.4100, 8.020264
549.5870, 103.2697
550.7630, 33.54126
551.9400, 64.78552
553.1160, 40.00977
554.2920, 55.20801
555.4680, 54.38367
556.6440, 53.53625
557.8190, 38.66565
558.9950, 4.767212
560.1700, 70.82690
561.3450, 53.86560
562.5200, 35.87988
563.6950, 102.8644
564.8690, 23.82947
566.0440, 7.240234
567.2180, 29.63965
568.3920, 50.48645
569.5660, 57.30664
570.7400, 72.10156
571.9130, 54.87390
573.0870, 72.62012
574.2600, 80.26831
575.4330, 47.04480
576.6060, 98.71765
577.7790, 86.37000
578.9520, 77.00085
580.1240, 77.60901
581.2960, 75.46411
582.4690, 90.75610
583.6410, 89.29651
584.8120, 89.81519
585.9840, 111.3123
587.1560, 99.78845
588.3270, 87.24377
589.4980, 126.6768
590.6690, 134.0890
591.8400, 101.4806
593.0110, 120.8508
594.1810, 117.2006
595.3510, 159.5294
596.5220, 145.8375
597.6920, 182.8337
598.8610, 158.1002
600.0310, 143.1409
601.2010, 175.2557
602.3700, 199.4602
603.5390, 185.4731
604.7080, 171.2832
605.8770, 200.2710
607.0460, 226.8179
608.2140, 144.9175
609.3830, 178.9331
610.5510, 229.9935
611.7190, 173.2720
612.8870, 212.1965
614.0550, 235.2278
615.2220, 120.1184
616.3900, 203.2876
617.5570, 211.8093
618.7240, 182.4441
619.8910, 218.8320
621.0580, 158.8868
622.2240, 111.1320
623.3910, 133.1101
624.5570, 123.3964
625.7230, 133.8069
626.8890, 134.3347
628.0550, 116.0276
629.2200, 136.9415
630.3860, 130.5244
631.5510, 107.9452
632.7160, 68.43164
633.8810, 111.9412
635.0460, 82.28479
636.2100, 118.6434
637.3750, 103.4137
638.5390, 83.70142
639.7030, 91.55212
640.8670, 73.99829
642.0310, 40.85791
643.1950, 78.17566
644.3580, 29.04163
645.5210, 36.36938
646.6850, 23.92517
647.8480, 22.31177
649.0100, 61.76770
650.1730, 6.171875
651.3350, 64.99084
652.4980, 18.27783
653.6600, 5.025513
654.8220, 34.38367
655.9840, 65.53882
657.1450, 53.25952
658.3070, 58.12549
659.4680, 11.42419
660.6300, 23.73645
661.7910, 15.44531
662.9510, 37.23010
664.1120, 47.07239
665.2730, 2.759766
666.4330, 4.087158
667.5930, 8.845459
668.7530, 26.73792
669.9130, 5.249390
671.0730, 0.2532960
672.2320, 25.05029
673.3920, 15.37158
674.5510, 14.75012
675.7100, 34.50757
676.8690, 13.59387
678.0280, 46.23035
679.1860, 5.121948
680.3450, 1.416626
681.5030, 42.83948
682.6610, 61.42749
683.8190, 35.17004
684.9770, 55.45801
686.1340, 14.78027
687.2920, 52.84778
688.4490, 23.73779
689.6060, 32.59229
690.7630, 18.50757
691.9200, 34.23389
693.0760, 67.30920
694.2330, 78.78894
695.3890, 79.21997
696.5450, 94.60229
697.7010, 104.5112
698.8570, 106.8152
700.0130, 78.48926
701.1680, 100.7854
702.3230, 151.4894
703.4780, 181.2880
704.6330, 118.4508
705.7880, 206.8112
706.9430, 178.1743
708.0970, 218.2434
709.2520, 188.4794
710.4060, 231.0195
711.5600, 252.1604
712.7140, 249.6813
713.8670, 291.3175
715.0210, 325.1731
716.1740, 342.9465
717.3270, 344.6260
718.4800, 359.1628
719.6330, 368.2576
720.7860, 384.1957
721.9380, 398.9003
723.0910, 409.5789
724.2430, 449.6013
725.3950, 456.1819
726.5470, 514.7870
727.6980, 500.4126
728.8500, 554.1853
730.0010, 607.9583
731.1530, 627.7307
732.3040, 664.5217
733.4550, 693.3136
734.6050, 723.1067
735.7560, 776.9010
736.9060, 798.6985
738.0560, 798.4983
739.2060, 908.3047
740.3560, 958.1204
741.5060, 1058.938
742.6560, 1029.759
743.8050, 1075.585
744.9540, 1192.414
746.1030, 1290.254
747.2520, 1443.097
748.4010, 1593.944
749.5500, 1755.797
750.6980, 2004.119
751.8460, 2246.528
752.9950, 2583.411
754.1420, 2939.308
755.2900, 3346.222
756.4380, 3857.143
757.5850, 4624.080
758.7330, 5265.029
759.8800, 5823.988
761.0270, 6558.966
762.1730, 7225.958
763.3200, 7955.962
764.4670, 8178.989
765.6130, 8773.039
766.7590, 8909.117
767.9050, 8997.203
769.0510, 8732.299
770.1960, 8521.414
771.3420, 8233.488
772.4870, 8085.628
773.6320, 7879.781
774.7770, 7771.945
775.9220, 7868.123
777.0670, 7884.315
778.2110, 8247.521
779.3560, 8682.762
780.5000, 9159.823
781.6440, 9913.106
782.7880, 10476.08
783.9320, 10966.22
785.0750, 11375.25
786.2180, 11582.31
787.3620, 12015.71
788.5050, 12023.82
789.6480, 12306.27
790.7900, 12284.52
791.9330, 12793.57
793.0750, 13324.30
794.2170, 14590.18
795.3590, 16399.96
796.5010, 19068.48
797.6430, 22854.99
798.7850, 27542.78
799.9260, 32500.33
801.0670, 37637.97
802.2080, 42905.57
803.3490, 48232.11
804.4900, 52954.48
805.6310, 57057.14
806.7710, 58869.88
807.9110, 58726.66
809.0510, 56728.34
810.1910, 53750.85
811.3310, 49829.66
812.4710, 45944.50
813.6100, 42435.37
814.7490, 37999.24
815.8880, 33833.14
817.0270, 29635.97
818.1660, 25102.91
819.3050, 20795.86
820.4430, 17251.85
821.5820, 14242.85
822.7200, 11854.86
823.8580, 9854.890
824.9950, 8505.939
826.1330, 7553.017
827.2710, 6590.105
828.4080, 5893.211
829.5450, 5316.337
830.6820, 4832.473
831.8190, 4536.622
832.9560, 4240.787
834.0920, 3962.074
835.2280, 3638.271
836.3650, 3345.528
837.5010, 3208.036
838.6360, 3056.286
839.7720, 2833.553
840.9080, 2675.833
842.0430, 2548.684
843.1780, 2418.679
844.3130, 2335.001
845.4480, 2224.365
846.5830, 2150.892
847.7170, 2039.286
848.8520, 1901.696
849.9860, 1853.119
851.1200, 1809.556
852.2540, 1638.583
853.3870, 1538.051
854.5210, 1500.717
855.6540, 1473.483
856.7880, 1368.651
857.9210, 1366.175
859.0540, 1248.712
860.1860, 1247.262
861.3190, 1170.831
862.4510, 1093.412
863.5840, 1072.006
864.7160, 1049.614
865.8480, 949.2349
866.9790, 927.6567
868.1110, 923.3030
869.2420, 856.9612
870.3740, 868.6323
871.5050, 875.3159
872.6360, 811.0117
873.7660, 861.8159
874.8970, 816.2173
876.0280, 779.3745
877.1580, 760.1201
878.2880, 683.8784
879.4180, 683.6489
880.5480, 757.4316
881.6770, 710.2195
882.8070, 695.0264
883.9360, 619.0771
885.0650, 677.0894
886.1940, 532.9333
887.3230, 577.3538
888.4520, 602.9749
889.5800, 571.8540
890.7090, 553.7446
891.8370, 522.6467
892.9650, 526.8379
894.0930, 494.8245
895.2200, 425.7605
896.3480, 489.2549
897.4750, 402.2129
898.6020, 427.1816
899.7290, 373.0403
900.8560, 347.9844
901.9830, 283.9849
903.1090, 316.9956
904.2360, 307.0168
905.3620, 189.8442
906.4880, 288.8860
907.6140, 231.9380
908.7400, 227.9995
909.8650, 222.0710
910.9900, 235.5037
912.1160, 294.5945
913.2410, 322.6152
914.3660, 384.6018
915.4900, 393.2917
916.6150, 387.7251
917.7390, 408.9001
918.8640, 439.0476
919.9880, 444.4546
921.1120, 468.7295
922.2350, 430.7888
923.3590, 387.0605
924.4820, 320.2583
925.6060, 283.6650
926.7290, 201.7378
927.8520, 108.9612
928.9740, 187.2036
930.0970, 77.19019
931.2190, 90.48315
932.3420, 87.80029
933.4640, 74.09180
934.5860, 4.729980
935.7080, 43.08057
936.8290, 10.28271
937.9510, 36.65869
939.0720, 26.57324
940.1930, 56.96362
941.3140, 46.37305
942.4350, 6.225342
943.5560, 43.18848
944.6760, 24.17139
945.7960, 1.998291
946.9170, 81.62183
948.0370, 74.01245
949.1560, 55.46069
950.2760, 59.90186
951.3960, 1.346924
952.5150, 41.79663
953.6340, 13.72021
954.7530, 48.17773
955.8720, 33.72803
956.9910, 24.19214
958.1090, 35.69482
959.2280, 21.19580
960.3460, 25.95459
961.4640, 40.65283
962.5820, 3.132324
963.6990, 0.6147460
964.8170, 14.09937
965.9340, 24.60815
967.0510, 45.30127
968.1690, 7.190918
969.2850, 34.30176
970.4020, 34.20361
971.5190, 13.68994
972.6350, 43.79565
973.7510, 35.28320
974.8670, 38.34106
975.9830, 45.28223
977.0990, 20.78931
978.2150, 9.717773
979.3300, 10.77393
980.4450, 7.733154
981.5600, 38.80054
982.6750, 14.34448
983.7900, 37.83740
984.9050, 49.33130
986.0190, 19.17456
987.1340, 40.34033
988.2480, 7.940918
989.3620, 10.42505
990.4750, 19.94141
991.5890, 13.53589
992.7020, 13.01294
993.8160, 14.48950
994.9290, 33.19385
996.0420, 5.573486
997.1550, 32.04810
998.2670, 55.52222
999.3800, 13.99561
1000.492, 67.53223
1001.604, 25.90601
1002.716, 9.342773
1003.828, 26.77856
1004.940, 50.21289
1006.051, 24.64697
1007.163, 1.921631
1008.274, 14.49341
1009.385, 26.07397
1010.496, 59.34277
1011.606, 2.879150
1012.717, 32.27930
1013.827, 29.67749
1014.937, 16.92651
1016.047, 68.45728
1017.157, 3.161133
1018.267, 1.784912
1019.377, 56.82349
1020.486, 23.80811
1021.595, 10.45679
1022.704, 37.88428
1023.813, 5.230713
1024.922, 6.565430
1026.030, 17.10303
1027.139, 3.213379
1028.247, 6.471191
1029.355, 20.16699
1030.463, 23.12354
1031.571, 12.41064
1032.678, 8.306152
1033.786, 25.03516
1034.893, 9.214355
1036.000, 37.46021
1037.107, 20.70166
1038.214, 5.060547
1039.321, 28.30420
1040.427, 18.52563
1041.533, 21.74268
1042.639, 43.95557
1043.745, 4.163818
1044.851, 24.36401
1045.957, 4.440674
1047.062, 35.25854
1048.168, 5.893555
1049.273, 3.037109
1050.378, 36.78589
1051.482, 30.31616
1052.587, 23.58716
1053.692, 14.48486
1054.796, 34.44971
1055.900, 29.58447
1057.004, 35.61328
1058.108, 5.363037
1059.212, 63.35596
1060.315, 71.60376
1061.418, 36.55811
1062.522, 12.49316
1063.625, 71.44067
1064.728, 62.37158
1065.830, 0.2993160
1066.933, 14.21167
1068.035, 59.11841
1069.137, 3.018799
1070.239, 41.90503
1071.341, 9.784424
1072.443, 40.65210
1073.545, 34.51318
1074.646, 80.36743
1075.747, 37.15063
1076.848, 23.00903
1077.949, 4.197510
1079.050, 21.59277
1080.150, 12.62427
1081.251, 39.13477
1082.351, 46.88721
1083.451, 52.63208
1084.551, 97.36621
1085.651, 3.902588
1086.750, 130.8081
1087.850, 30.51172
1088.949, 75.20728
1090.048, 37.89526
1091.147, 39.57666
1092.246, 22.25244
1093.345, 24.92163
1094.443, 64.58545
1095.541, 57.24170
1096.639, 75.88403
1097.737, 44.52563
1098.835, 27.15918
1099.933, 46.78320
1101.030, 64.29272
1102.128, 53.90161
1103.225, 44.46655
1104.322, 72.78638
1105.419, 62.37207
1106.515, 54.95117
1107.612, 47.52246
1108.708, 49.08618
1109.804, 116.6418
1110.900, 91.99902
1111.996, 84.53931
1113.092, 43.92358
1114.187, 42.44873
1115.283, 85.96533
1116.378, 71.47437
1117.473, 93.97583
1118.568, 48.89624
1119.662, 28.38159
1120.757, 48.67261
1121.851, 60.87036
1122.946, 80.67871
1124.040, 99.13745
1125.134, 84.58887
1126.227, 4.032471
1127.321, 95.45825
1128.414, 62.87646
1129.508, 125.2869
1130.601, 128.5662
1131.693, 64.08423
1132.786, 114.6824
1133.879, 93.06201
1134.971, 57.43359
1136.064, 131.7981
1137.156, 55.15479
1138.248, 64.50366
1139.339, 121.7493
1140.431, 73.40283
1141.522, 51.30566
1142.614, 31.62451
1143.705, 64.93457
1144.796, 79.23730
1145.887, 105.5325
1146.977, 129.8276
1148.068, 58.10815
1149.158, 122.1497
1150.248, 24.23389
1151.338, 92.49023
1152.428, 70.17480
1153.518, 140.6626
1154.607, 50.89868
1155.696, 97.12744
1156.785, 89.35449
1157.874, 69.29688
1158.963, 67.44800
1160.052, 55.65381
1161.141, 86.30518
1162.229, 111.4973
1163.317, 72.68286
1164.405, 86.98218
1165.493, 62.19995
1166.581, 87.36499
1167.668, 87.52368
1168.756, 66.67554
1169.843, 24.02490
1170.930, 95.16284
1172.017, 124.2944
1173.103, 61.41943
1174.190, 57.53760
1175.276, 114.2983
1176.363, 82.40820
1177.449, 104.5867
1178.535, 87.80200
1179.620, 74.53638
1180.706, 34.09277
1181.791, 61.12939
1182.877, 45.01685
1183.962, 96.00977
1185.047, 47.95776
1186.131, 100.0381
1187.216, 102.0835
1188.300, 102.1238
1189.385, 63.95776
1190.469, 44.12866
1191.553, 103.1538
1192.637, 59.19702
1193.720, 98.02539
1194.804, 94.62988
1195.887, 35.29736
1196.970, 84.33496
1198.053, 70.83521
1199.136, 152.8254
1200.219, 119.9651
1201.301, 122.9458
1202.383, 105.3904
1203.465, 99.36230
1204.547, 122.3164
1205.629, 78.27905
1206.711, 122.2300
1207.792, 137.6128
1208.874, 84.15918
1209.955, 101.9092
1211.036, 54.04858
1212.117, 102.9736
1213.198, 145.9070
1214.278, 137.8528
1215.359, 151.8457
1216.439, 52.29712
1217.519, 131.2148
1218.599, 73.03906
1219.678, 42.94922
1220.758, 86.04004
1221.837, 119.3208
1222.917, 120.8169
1223.996, 145.2517
1225.075, 156.1943
1226.153, 148.2280
1227.232, 157.1206
1228.310, 132.9883
1229.389, 89.67090
1230.467, 82.53735
1231.545, 66.60400
1232.622, 76.29370
