##NAMES=Mimetite
##RRUFFID=R060920
##IDEAL CHEMISTRY=Pb^2+^_5_(As^5+^O_4_)_3_Cl
##LOCALITY=Tsumeb mine, Tsumeb, Otavi District, Oshikoto, Namibia
##OWNER=RRUFF
##SOURCE=Marcus Origlieri
##DESCRIPTION=Yellow to brownish hexagonal prism, monoclinic polytype
##STATUS=The identification of this mineral has been made only by X-ray diffraction.
##URL=rruff.info/R060920
##PIN_ID=L01165
##ORIENTATION=Laser parallel to -c* (0 0 -1). Fiducial mark perpendicular to laser is parallel to b [0 1 0]
42.24800, 0.0000000E+00
43.49300, 0.1835330
44.73800, 18.00735
45.98200, 33.03156
47.22600, 47.38928
48.47100, 47.91602
49.71500, 53.53406
50.95900, 65.27597
52.20200, 84.01965
53.44600, 98.02277
54.68900, 98.61615
55.93300, 122.8185
57.17600, 139.0178
58.41900, 171.6475
59.66100, 181.0031
60.90400, 161.4080
62.14600, 127.2324
63.38900, 110.9471
64.63100, 93.12500
65.87300, 65.75046
67.11500, 52.80618
68.35600, 23.27618
69.59800, 1.146179
70.83900, 3.596313
72.08000, 23.96237
73.32100, 44.96188
74.56200, 35.60364
75.80300, 48.89563
77.04300, 40.84509
78.28300, 21.45856
79.52300, 0.7421880
80.76300, 50.29218
82.00300, 147.6283
83.24300, 318.2505
84.48300, 450.1429
85.72200, 622.2908
86.96100, 902.6798
88.20000, 1172.294
89.43900, 1429.121
90.67800, 1782.157
91.91600, 2224.397
93.15500, 2785.839
94.39300, 3424.481
95.63100, 4145.318
96.86900, 4816.354
98.10600, 5268.581
99.34400, 5802.001
100.5810, 5944.613
101.8190, 6134.412
103.0560, 6034.400
104.2930, 6011.574
105.5290, 5941.936
106.7660, 5840.480
108.0020, 5767.306
109.2390, 5736.119
110.4750, 5545.210
111.7110, 5450.481
112.9460, 5296.931
114.1820, 5351.561
115.4170, 5234.370
116.6530, 5151.338
117.8880, 5169.415
119.1230, 5079.591
120.3580, 5004.859
121.5920, 4898.213
122.8270, 4873.647
124.0610, 4821.156
125.2950, 4648.726
126.5290, 4581.356
127.7630, 4582.046
128.9970, 4523.797
130.2300, 4558.593
131.4640, 4539.417
132.6970, 4523.245
133.9300, 4541.092
135.1630, 4538.011
136.3950, 4553.029
137.6280, 4770.147
138.8600, 4682.367
140.0920, 4787.693
141.3240, 4802.124
142.5560, 4603.662
143.7880, 4805.307
145.0190, 4675.060
146.2510, 4732.923
147.4820, 4584.895
148.7130, 4577.976
149.9440, 4481.169
151.1750, 4424.471
152.4050, 4349.860
153.6360, 4272.407
154.8660, 4195.040
156.0960, 4173.784
157.3260, 4142.639
158.5560, 4231.602
159.7850, 4243.675
161.0150, 4154.857
162.2440, 4287.149
163.4730, 4236.549
164.7020, 4237.058
165.9310, 4322.674
167.1590, 4409.399
168.3880, 4311.231
169.6160, 4354.173
170.8440, 4379.218
172.0720, 4214.370
173.3000, 4233.628
174.5280, 4149.993
175.7550, 4092.459
176.9820, 4020.031
178.2100, 3945.706
179.4370, 3848.484
180.6630, 3812.367
181.8900, 3806.361
183.1170, 3619.469
184.3430, 3678.681
185.5690, 3616.998
186.7950, 3461.441
188.0210, 3420.014
189.2470, 3404.698
190.4720, 3251.936
191.6970, 3166.010
192.9230, 3075.115
194.1480, 2989.180
195.3730, 2890.493
196.5970, 2806.196
197.8220, 2699.123
199.0460, 2609.973
200.2700, 2531.581
201.4940, 2438.608
202.7180, 2425.408
203.9420, 2308.127
205.1660, 2291.746
206.3890, 2103.219
207.6120, 2012.566
208.8350, 2041.975
210.0580, 1944.381
211.2810, 1930.907
212.5040, 1791.522
213.7260, 1742.058
214.9480, 1735.714
216.1700, 1596.931
217.3920, 1551.574
218.6140, 1463.453
219.8360, 1493.572
221.0570, 1389.879
222.2790, 1281.256
223.5000, 1304.280
224.7210, 1212.274
225.9410, 1170.731
227.1620, 1244.875
228.3820, 1144.129
229.6030, 1080.483
230.8230, 1003.924
232.0430, 1035.460
233.2630, 942.0898
234.4820, 918.8125
235.7020, 949.6196
236.9210, 860.5371
238.1400, 802.5378
239.3590, 818.6326
240.5780, 788.8218
241.7970, 796.0938
243.0150, 710.4443
244.2340, 752.8740
245.4520, 708.3936
246.6700, 696.0022
247.8880, 681.6907
249.1060, 665.4575
250.3230, 651.2993
251.5400, 617.2256
252.7580, 593.2393
253.9750, 578.3262
255.1920, 599.4880
256.4080, 580.0261
257.6250, 526.0227
258.8410, 563.4004
260.0580, 544.8689
261.2740, 515.4050
262.4900, 429.0120
263.7050, 459.6851
264.9210, 406.4299
266.1360, 454.2397
267.3520, 340.1143
268.5670, 311.0542
269.7820, 348.0635
270.9960, 331.1443
272.2110, 330.9551
273.4250, 359.5144
274.6400, 345.7993
275.8540, 344.1494
277.0680, 395.5654
278.2810, 308.0449
279.4950, 315.5935
280.7090, 280.2090
281.9220, 337.8887
283.1350, 312.6311
284.3480, 387.4385
285.5610, 365.3179
286.7730, 442.2585
287.9860, 452.2666
289.1980, 531.3352
290.4100, 500.4639
291.6220, 572.6533
292.8340, 700.9050
294.0460, 805.2156
295.2570, 929.5928
296.4690, 980.0281
297.6800, 1205.521
298.8910, 1256.071
300.1020, 1417.678
301.3120, 1559.342
302.5230, 1715.061
303.7330, 1793.835
304.9440, 1995.673
306.1540, 2023.563
307.3630, 1983.508
308.5730, 2089.505
309.7830, 2073.557
310.9920, 2126.662
312.2010, 2103.817
313.4100, 2096.024
314.6190, 2012.281
315.8280, 2031.588
317.0370, 1924.797
318.2450, 1922.245
319.4530, 1816.062
320.6610, 1755.508
321.8690, 1739.604
323.0770, 1783.202
324.2850, 1788.848
325.4920, 1832.203
326.6990, 1887.604
327.9060, 1956.998
329.1130, 2024.135
330.3200, 2141.584
331.5270, 2231.881
332.7330, 2303.130
333.9390, 2390.332
335.1450, 2417.576
336.3510, 2481.756
337.5570, 2469.896
338.7630, 2440.716
339.9680, 2428.320
341.1740, 2282.802
342.3790, 2288.470
343.5840, 2187.515
344.7890, 2049.954
345.9930, 2059.731
347.1980, 1813.343
348.4020, 1690.933
349.6060, 1518.067
350.8100, 1428.790
352.0140, 1356.345
353.2180, 1267.147
354.4210, 1264.001
355.6250, 1235.621
356.8280, 1283.787
358.0310, 1267.759
359.2340, 1381.332
360.4360, 1450.053
361.6390, 1595.547
362.8410, 1796.076
364.0430, 1917.767
365.2450, 2094.330
366.4470, 2290.145
367.6490, 2208.669
368.8510, 2386.219
370.0520, 2368.798
371.2530, 2406.506
372.4540, 2305.187
373.6550, 2148.352
374.8560, 2012.117
376.0560, 1750.570
377.2570, 1520.327
378.4570, 1405.031
379.6570, 1199.019
380.8570, 1033.479
382.0570, 981.6282
383.2560, 859.5393
384.4560, 811.8389
385.6550, 728.5735
386.8540, 690.7463
388.0530, 689.0950
389.2520, 664.1968
390.4510, 660.2859
391.6490, 657.3850
392.8470, 677.5188
394.0450, 621.9465
395.2430, 684.8740
396.4410, 646.6672
397.6390, 698.2866
398.8360, 722.6265
400.0340, 818.1609
401.2310, 857.8115
402.4280, 814.7737
403.6250, 889.6565
404.8210, 990.3030
406.0180, 969.8672
407.2140, 1160.588
408.4100, 1167.558
409.6060, 1226.309
410.8020, 1231.088
411.9980, 1372.946
413.1930, 1417.934
414.3890, 1562.287
415.5840, 1580.087
416.7790, 1649.886
417.9740, 1676.836
419.1680, 1726.063
420.3630, 1803.545
421.5570, 1838.592
422.7510, 1762.925
423.9450, 1733.700
425.1390, 1600.014
426.3330, 1507.080
427.5270, 1357.740
428.7200, 1246.188
429.9130, 984.3103
431.1060, 847.8906
432.2990, 771.0474
433.4920, 675.2734
434.6840, 603.6682
435.8770, 517.5364
437.0690, 411.7590
438.2610, 450.9351
439.4530, 352.2561
440.6450, 248.5237
441.8360, 244.8906
443.0280, 293.4941
444.2190, 188.8037
445.4100, 189.1257
446.6010, 124.5542
447.7920, 139.8286
448.9820, 93.18799
450.1730, 47.55933
451.3630, 86.94165
452.5530, 24.78809
453.7430, 33.19189
454.9330, 60.60620
456.1230, 35.03003
457.3120, 61.46338
458.5010, 34.90649
459.6910, 39.64209
460.8800, 2.190430
462.0680, 20.73145
463.2570, 40.26904
464.4460, 26.78271
465.6340, 42.71484
466.8220, 4.184082
468.0100, 23.34033
469.1980, 11.86377
470.3860, 67.38428
471.5730, 44.91992
472.7600, 50.46265
473.9480, 70.01538
475.1350, 8.333252
476.3210, 8.902344
477.5080, 8.469727
478.6950, 3.036133
479.8810, 16.39941
481.0670, 45.16162
482.2530, 79.73560
483.4390, 33.33716
484.6250, 9.948486
485.8100, 81.56201
486.9960, 8.793457
488.1810, 52.84985
489.3660, 47.51318
490.5510, 4.804688
491.7360, 33.46191
492.9200, 3.841309
494.1050, 16.85742
495.2890, 16.48853
496.4730, 23.78027
497.6570, 15.92969
498.8400, 18.65015
500.0240, 36.12256
501.2070, 45.31445
502.3910, 64.34033
503.5740, 75.81030
504.7570, 72.55713
505.9400, 56.03442
507.1220, 51.63574
508.3050, 2.667725
509.4870, 28.25342
510.6690, 8.150146
511.8510, 25.18262
513.0330, 15.76978
514.2140, 45.32983
515.3960, 30.52002
516.5770, 48.59302
517.7580, 14.17871
518.9390, 18.15747
520.1200, 15.34229
521.3010, 25.57300
522.4810, 92.02759
523.6610, 25.05786
524.8420, 27.61548
526.0220, 32.72925
527.2010, 15.17505
528.3810, 58.83081
529.5610, 30.94629
530.7400, 23.42041
531.9190, 21.82373
533.0980, 15.81104
534.2770, 16.89233
535.4560, 42.49097
536.6340, 12.99902
537.8120, 26.52368
538.9910, 40.91040
540.1690, 20.52612
541.3460, 70.92529
542.5240, 47.31250
543.7020, 11.68579
544.8790, 54.94019
546.0560, 92.34888
547.2330, 24.62524
548.4100, 57.87939
549.5870, 18.11963
550.7630, 134.3347
551.9400, 71.70703
553.1160, 60.16187
554.2920, 23.33472
555.4680, 16.48267
556.6440, 30.60254
557.8190, 9.699463
558.9950, 67.76416
560.1700, 53.53613
561.3450, 45.81128
562.5200, 67.85840
563.6950, 24.85474
564.8690, 40.82422
566.0440, 58.77075
567.2180, 128.6997
568.3920, 48.61304
569.5660, 6.505127
570.7400, 97.36133
571.9130, 26.20142
573.0870, 134.0129
574.2600, 77.80859
575.4330, 68.58765
576.6060, 50.34814
577.7790, 102.0864
578.9520, 17.80835
580.1240, 80.49707
581.2960, 92.16846
582.4690, 80.82349
583.6410, 68.46069
584.8120, 119.0784
585.9840, 120.6797
587.1560, 83.26416
588.3270, 20.83105
589.4980, 96.36377
590.6690, 98.87988
591.8400, 130.3792
593.0110, 65.86157
594.1810, 117.3228
595.3510, 117.7668
596.5220, 127.1943
597.6920, 156.6045
598.8610, 151.9976
600.0310, 153.9846
601.2010, 143.8801
602.3700, 135.1802
603.5390, 114.1426
604.7080, 96.50586
605.8770, 95.25024
607.0460, 205.5232
608.2140, 188.7781
609.3830, 203.5205
610.5510, 225.5234
611.7190, 206.4990
612.8870, 201.3765
614.0550, 198.9680
615.2220, 71.62720
616.3900, 165.5818
617.5570, 103.4973
618.7240, 203.3965
619.8910, 171.3923
621.0580, 116.4626
622.2240, 121.8850
623.3910, 114.5576
624.5570, 187.3853
625.7230, 128.0623
626.8890, 89.39648
628.0550, 160.3708
629.2200, 107.0422
630.3860, 123.9136
631.5510, 13.84155
632.7160, 129.2561
633.8810, 104.1174
635.0460, 73.18188
636.2100, 126.0371
637.3750, 122.8782
638.5390, 97.82373
639.7030, 25.59033
640.8670, 126.4187
642.0310, 23.68213
643.1950, 38.82910
644.3580, 41.75879
645.5210, 23.64014
646.6850, 27.91504
647.8480, 28.35962
649.0100, 0.5979000
650.1730, 38.16406
651.3350, 0.2519530
652.4980, 1.663086
653.6600, 5.825439
654.8220, 25.36841
655.9840, 23.28125
657.1450, 14.97241
658.3070, 25.82642
659.4680, 5.595215
660.6300, 25.94043
661.7910, 17.63062
662.9510, 2.384277
664.1120, 21.34326
665.2730, 8.186279
666.4330, 1.353027
667.5930, 52.10938
668.7530, 6.546875
669.9130, 26.64331
671.0730, 25.10571
672.2320, 20.39453
673.3920, 11.88599
674.5510, 2.609863
675.7100, 35.83472
676.8690, 17.58350
678.0280, 18.48926
679.1860, 7.408203
680.3450, 9.994385
681.5030, 67.22534
682.6610, 43.36133
683.8190, 0.7927250
684.9770, 76.15356
686.1340, 42.35693
687.2920, 33.66455
688.4490, 49.83667
689.6060, 26.78516
690.7630, 21.02588
691.9200, 42.15308
693.0760, 65.27173
694.2330, 112.2803
695.3890, 47.94189
696.5450, 57.18213
697.7010, 59.44409
698.8570, 57.94873
700.0130, 112.4539
701.1680, 84.09351
702.3230, 104.1855
703.4780, 92.00806
704.6330, 142.4060
705.7880, 195.2805
706.9430, 197.4199
708.0970, 179.9812
709.2520, 179.7695
710.4060, 210.8999
711.5600, 254.5876
712.7140, 258.2791
713.8670, 207.7871
715.0210, 274.7073
716.1740, 284.1687
717.3270, 263.2896
718.4800, 376.4707
719.6330, 318.5205
720.7860, 377.6450
721.9380, 330.6836
723.0910, 303.5005
724.2430, 354.6245
725.3950, 376.7507
726.5470, 479.7837
727.6980, 469.9824
728.8500, 395.1079
730.0010, 494.2410
731.1530, 558.3740
732.3040, 511.0562
733.4550, 643.1919
734.6050, 628.3281
735.7560, 640.4651
736.9060, 696.6028
738.0560, 716.8054
739.2060, 830.8813
740.3560, 810.0269
741.5060, 905.1831
742.6560, 956.3518
743.8050, 1018.501
744.9540, 1041.646
746.1030, 1162.828
747.2520, 1338.012
748.4010, 1477.207
749.5500, 1533.405
750.6980, 1817.616
751.8460, 1921.836
752.9950, 2340.070
754.1420, 2636.065
755.2900, 3034.318
756.4380, 3559.576
757.5850, 4136.838
758.7330, 4780.105
759.8800, 5424.376
761.0270, 5939.658
762.1730, 6598.958
763.3200, 6996.279
764.4670, 7441.606
765.6130, 7579.970
766.7590, 7624.338
767.9050, 7536.723
769.0510, 7294.121
770.1960, 7042.112
771.3420, 6678.538
772.4870, 6475.971
773.6320, 6368.363
774.7770, 6396.816
775.9220, 6329.275
777.0670, 6556.745
778.2110, 6786.402
779.3560, 7237.913
780.5000, 7669.691
781.6440, 8307.905
782.7880, 8765.438
783.9320, 9389.568
785.0750, 9833.866
786.2180, 10316.25
787.3620, 10641.85
788.5050, 10825.43
789.6480, 11184.15
790.7900, 11510.89
791.9330, 11972.02
793.0750, 12732.57
794.2170, 13771.15
795.3590, 15472.62
796.5010, 17816.28
797.6430, 21175.14
798.7850, 24770.89
799.9260, 29179.16
801.0670, 33239.72
802.2080, 37426.03
803.3490, 42478.77
804.4900, 46296.52
805.6310, 49169.50
806.7710, 50882.01
807.9110, 50722.01
809.0510, 48895.05
810.1910, 46517.02
811.3310, 43124.70
812.4710, 39894.69
813.6100, 36696.78
814.7490, 33254.87
815.8880, 29527.00
817.0270, 25774.94
818.1660, 21951.09
819.3050, 18136.25
820.4430, 15187.42
821.5820, 12535.58
822.7200, 10333.80
823.8580, 8727.167
824.9950, 7444.471
826.1330, 6544.165
827.2710, 5862.681
828.4080, 5264.524
829.5450, 4747.815
830.6820, 4252.119
831.8190, 3941.437
832.9560, 3716.386
834.0920, 3458.205
835.2280, 3109.628
836.3650, 2968.010
837.5010, 2797.766
838.6360, 2718.173
839.7720, 2554.592
840.9080, 2511.026
842.0430, 2392.421
843.1780, 2236.934
844.3130, 2197.404
845.4480, 2021.887
846.5830, 1913.392
847.7170, 1767.906
848.8520, 1715.438
849.9860, 1582.506
851.1200, 1607.059
852.2540, 1535.703
853.3870, 1436.281
854.5210, 1330.868
855.6540, 1287.475
856.7880, 1256.867
857.9210, 1178.495
859.0540, 1101.492
860.1860, 1047.142
861.3190, 980.4912
862.4510, 965.1599
863.5840, 890.8416
864.7160, 886.5415
865.8480, 900.9285
866.9790, 861.8809
868.1110, 819.6738
869.2420, 826.4167
870.3740, 825.1697
871.5050, 790.9351
872.6360, 755.7104
873.7660, 720.4961
874.8970, 704.2915
876.0280, 712.0969
877.1580, 665.9800
878.2880, 655.6904
879.4180, 717.5334
880.5480, 670.3862
881.6770, 596.2488
882.8070, 622.1208
883.9360, 541.2183
885.0650, 557.1099
886.1940, 591.0112
887.3230, 524.9353
888.4520, 546.3979
889.5800, 522.3274
890.7090, 451.3950
891.8370, 473.3438
892.9650, 481.3010
894.0930, 428.2681
895.2200, 378.2434
896.3480, 335.2283
897.4750, 303.8464
898.6020, 387.4045
899.7290, 283.4153
900.8560, 260.3281
901.9830, 309.3555
903.1090, 241.3909
904.2360, 245.4343
905.3620, 230.5977
906.4880, 204.9119
907.6140, 178.3789
908.7400, 251.0422
909.8650, 193.6055
910.9900, 257.7019
912.1160, 276.0161
913.2410, 311.1274
914.3660, 307.2817
915.4900, 323.8257
916.6150, 284.8303
917.7390, 454.9783
918.8640, 350.1506
919.9880, 372.3311
921.1120, 414.5198
922.2350, 302.9724
923.3590, 287.8945
924.4820, 321.4333
925.6060, 240.1023
926.7290, 161.2898
927.8520, 101.4429
928.9740, 118.2207
930.0970, 84.47559
931.2190, 67.73706
932.3420, 26.00391
933.4640, 29.13135
934.5860, 24.12500
935.7080, 48.42773
936.8290, 32.73633
937.9510, 76.05688
939.0720, 4.617920
940.1930, 9.497559
941.3140, 17.44019
942.4350, 94.13428
943.5560, 0.5219730
944.6760, 71.82471
945.7960, 10.76318
946.9170, 46.59644
948.0370, 34.95972
949.1560, 36.32593
950.2760, 23.69556
951.3960, 34.32153
952.5150, 68.44360
953.6340, 56.82275
954.7530, 66.20410
955.8720, 78.58789
956.9910, 43.97437
958.1090, 8.356934
959.2280, 3.783203
960.3460, 39.39307
961.4640, 12.01416
962.5820, 60.36401
963.6990, 103.7461
964.8170, 29.12988
965.9340, 15.51562
967.0510, 40.09766
968.1690, 17.72412
969.2850, 29.75220
970.4020, 62.37500
971.5190, 14.26294
972.6350, 46.61035
973.7510, 57.97021
974.8670, 28.35474
975.9830, 87.71631
977.0990, 55.07837
978.2150, 29.44092
979.3300, 21.80420
980.4450, 42.18408
981.5600, 48.54761
982.6750, 49.97266
983.7900, 15.66382
984.9050, 86.69458
986.0190, 2.946777
987.1340, 62.40991
988.2480, 2.766602
989.3620, 81.12256
990.4750, 34.52173
991.5890, 16.81689
992.7020, 9.844482
993.8160, 44.48926
994.9290, 15.17822
996.0420, 18.14673
997.1550, 71.47070
998.2670, 45.79370
999.3800, 29.88452
1000.492, 89.42114
1001.604, 6.274658
1002.716, 72.02466
1003.828, 66.32275
1004.940, 63.17310
1006.051, 19.46777
1007.163, 78.76147
1008.274, 68.05298
1009.385, 11.34277
1010.496, 32.36914
1011.606, 29.10156
1012.717, 44.98877
1013.827, 45.23511
1014.937, 53.47949
1016.047, 28.72144
1017.157, 16.03882
1018.267, 10.34302
1019.377, 88.56641
1020.486, 6.787354
1021.595, 3.994873
1022.704, 51.21436
1023.813, 3.420898
1024.922, 25.62280
1026.030, 22.82153
1027.139, 22.01709
1028.247, 74.20972
1029.355, 16.39941
1030.463, 36.58545
1031.571, 27.23145
1032.678, 40.92871
1033.786, 53.91431
1034.893, 30.20557
1036.000, 37.32178
1037.107, 41.43433
1038.214, 8.456299
1039.321, 10.36133
1040.427, 3.718506
1041.533, 0.7897950
1042.639, 2.851563
1043.745, 32.90454
1044.851, 8.953369
1045.957, 42.99585
1047.062, 36.96558
1048.168, 10.95776
1049.273, 1.967285
1050.378, 25.01074
1051.482, 32.95117
1052.587, 54.95337
1053.692, 38.91797
1054.796, 10.87817
1055.900, 14.16919
1057.004, 9.763428
1058.108, 41.31226
1059.212, 1.422607
1060.315, 0.5466310
1061.418, 6.315918
1062.522, 73.16821
1063.625, 67.01538
1064.728, 40.85742
1065.830, 6.699219
1066.933, 42.53076
1068.035, 36.35645
1069.137, 31.17749
1070.239, 64.99243
1071.341, 38.80225
1072.443, 60.44507
1073.545, 9.687256
1074.646, 13.05029
1075.747, 39.78687
1076.848, 81.50317
1077.949, 27.24609
1079.050, 53.81470
1080.150, 35.54590
1081.251, 44.27124
1082.351, 76.99072
1083.451, 78.77930
1084.551, 76.93384
1085.651, 99.11353
1086.750, 75.80908
1087.850, 45.49902
1088.949, 82.18311
1090.048, 17.86108
1091.147, 21.38867
1092.246, 103.9934
1093.345, 57.21094
1094.443, 54.61646
1095.541, 73.26001
1096.639, 62.89697
1097.737, 93.52832
1098.835, 59.15381
1099.933, 47.16016
1101.030, 13.30371
1102.128, 85.85498
1103.225, 51.45312
1104.322, 8.680908
1105.419, 86.26270
1106.515, 32.83813
1107.612, 85.40747
1108.708, 48.97095
1109.804, 133.5283
1110.900, 73.08008
1111.996, 35.62549
1113.092, 67.16504
1114.187, 29.69849
1115.283, 64.22534
1116.378, 92.21948
1117.473, 89.73462
1118.568, 101.0127
1119.662, 84.66675
1120.757, 89.16406
1121.851, 101.6553
1122.946, 88.39355
1124.040, 86.44629
1125.134, 88.98853
1126.227, 64.45654
1127.321, 63.23218
1128.414, 49.68848
1129.508, 110.1414
1130.601, 65.60034
1131.693, 45.37695
1132.786, 84.82422
1133.879, 54.97144
1134.971, 76.40723
1136.064, 5.837646
1137.156, 132.2571
1138.248, 39.67310
1139.339, 61.08325
1140.431, 58.49609
1141.522, 165.9036
1142.614, 74.23755
1143.705, 17.25122
1144.796, 85.12354
1145.887, 69.49268
1146.977, 96.85669
1148.068, 102.2151
1149.158, 14.35278
1150.248, 120.6992
1151.338, 153.0515
1152.428, 74.37402
1153.518, 73.16211
1154.607, 120.4875
1155.696, 98.67944
1156.785, 152.9949
1157.874, 138.3049
1158.963, 104.6101
1160.052, 116.9097
1161.141, 79.20435
1162.229, 77.49390
1163.317, 56.59741
1164.405, 64.59009
1165.493, 79.25830
1166.581, 85.52832
1167.668, 95.79443
1168.756, 97.05518
1169.843, 63.20020
1170.930, 102.2039
1172.017, 92.05762
1173.103, 75.71875
1174.190, 141.4834
1175.276, 74.71777
1176.363, 154.7378
1177.449, 106.9636
1178.535, 76.15356
1179.620, 104.9565
1180.706, 60.30518
1181.791, 64.51514
1182.877, 85.72119
1183.962, 44.95190
1185.047, 33.15186
1186.131, 95.09180
1187.216, 92.56934
1188.300, 110.4331
1189.385, 33.17407
1190.469, 58.40332
1191.553, 65.67236
1192.637, 91.31909
1193.720, 73.51758
1194.804, 123.6877
1195.887, 125.9736
1196.970, 172.5837
1198.053, 123.7446
1199.136, 73.90259
1200.219, 26.05737
1201.301, 77.20898
1202.383, 59.35791
1203.465, 100.7188
1204.547, 149.2539
1205.629, 102.8010
1206.711, 149.9397
1207.792, 119.3784
1208.874, 55.45605
1209.955, 90.58838
1211.036, 61.71826
1212.117, 132.8457
1213.198, 111.9758
1214.278, 133.1035
1215.359, 106.2288
1216.439, 115.3523
1217.519, 61.47290
1218.599, 106.5913
1219.678, 137.7075
1220.758, 197.5413
1221.837, 81.46997
1222.917, 141.5808
1223.996, 61.69653
1225.075, 122.8113
1226.153, 102.9241
1227.232, 94.05200
1228.310, 135.1843
1229.389, 109.2905
1230.467, 135.4021
1231.545, 112.1462
1232.622, 180.2615
