##NAMES=Mimetite
##RRUFFID=R050527
##IDEAL CHEMISTRY=Pb^2+^_5_(As^5+^O_4_)_3_Cl
##LOCALITY=Tsumeb mine, Tsumeb, Otavi District, Oshikoto, Namibia
##OWNER=RRUFF
##SOURCE=University of Arizona Mineral Museum
##DESCRIPTION=Yellow hexagonal prisms, monoclinic polytype
##STATUS=The identification of this mineral has been confirmed by X-ray diffraction and chemical analysis
##URL=rruff.info/R050527
##MEASURED CHEMISTRY=Pb_5.00_(As_1.00_O_4_)_3_Cl_1.00_
##PIN_ID=M01947
##ORIENTATION=Laser parallel to -c* (0 0 -1). Fiducial mark perpendicular to laser is parallel to a [1 0 0]
61.07900, 0.0000000E+00
62.32000, 53.19946
63.56100, 50.89301
64.80100, 29.18298
66.04100, 22.65161
67.28100, 18.61145
68.52100, 58.98181
69.76100, 153.7301
71.00100, 243.8456
72.24000, 411.9398
73.47900, 585.9196
74.71800, 820.9421
75.95700, 1071.376
77.19600, 1471.697
78.43500, 1851.443
79.67300, 2310.209
80.91200, 2669.645
82.15000, 3215.441
83.38800, 3690.334
84.62600, 4318.109
85.86300, 4954.604
87.10100, 5630.723
88.33800, 6314.416
89.57500, 6989.626
90.81200, 7605.232
92.04900, 7903.080
93.28600, 8292.031
94.52300, 8665.976
95.75900, 8600.810
96.99500, 8761.454
98.23100, 9161.831
99.46700, 9718.863
100.7030, 9999.473
101.9390, 10049.61
103.1740, 10123.22
104.4090, 9545.276
105.6440, 8884.751
106.8790, 8190.685
108.1140, 7320.113
109.3490, 6751.975
110.5830, 6121.390
111.8180, 5637.605
113.0520, 5032.592
114.2860, 4640.444
115.5200, 4508.220
116.7530, 4187.687
117.9870, 3851.609
119.2200, 3712.738
120.4530, 3436.885
121.6860, 3229.046
122.9190, 3014.228
124.1520, 2739.432
125.3850, 2655.662
126.6170, 2469.921
127.8490, 2336.208
129.0810, 2255.528
130.3130, 2232.881
131.5450, 2210.271
132.7770, 2184.697
134.0080, 2074.163
135.2390, 2044.618
136.4710, 2099.920
137.7020, 2163.100
138.9320, 2128.198
140.1630, 2197.263
141.3930, 2232.318
142.6240, 2263.383
143.8540, 2290.471
145.0840, 2328.594
146.3140, 2385.760
147.5440, 2464.977
148.7730, 2482.249
150.0020, 2467.581
151.2320, 2451.975
152.4610, 2376.603
153.6900, 2370.837
154.9180, 2348.349
156.1470, 2171.366
157.3750, 2166.283
158.6040, 2149.447
159.8320, 2191.352
161.0600, 1979.285
162.2870, 2075.815
163.5150, 2021.856
164.7420, 1974.158
165.9700, 1984.884
167.1970, 2102.880
168.4240, 2057.872
169.6510, 2116.014
170.8770, 2142.842
172.1040, 2184.919
173.3300, 2123.786
174.5560, 2163.448
175.7820, 2159.791
177.0080, 2288.120
178.2340, 2232.081
179.4590, 2134.108
180.6850, 2152.198
181.9100, 2015.349
183.1350, 2075.560
184.3600, 1977.826
185.5850, 2024.145
186.8090, 1918.512
188.0340, 1941.924
189.2580, 1872.378
190.4820, 1728.869
191.7060, 1743.393
192.9300, 1691.958
194.1530, 1704.564
195.3770, 1579.215
196.6000, 1490.916
197.8230, 1443.665
199.0460, 1413.467
200.2690, 1296.313
201.4910, 1247.205
202.7140, 1196.140
203.9360, 1112.118
205.1580, 1075.138
206.3800, 1017.198
207.6020, 936.2991
208.8240, 897.2556
210.0450, 841.3933
211.2670, 771.6169
212.4880, 729.6302
213.7090, 714.2972
214.9300, 699.0532
216.1510, 614.5758
217.3710, 599.4729
218.5920, 549.7085
219.8120, 506.2393
221.0320, 459.0372
222.2520, 424.0767
223.4720, 375.5760
224.6910, 280.7976
225.9110, 284.4462
227.1300, 265.2622
228.3490, 221.2341
229.5680, 240.3484
230.7870, 258.5957
232.0050, 183.9668
233.2240, 130.4548
234.4420, 80.04980
235.6600, 109.7465
236.8780, 107.5387
238.0960, 96.41980
239.3140, 60.38000
240.5310, 54.41296
241.7490, 51.48706
242.9660, 31.78076
244.1830, 44.87927
245.4000, 34.85217
246.6160, 12.47302
247.8330, 25.85168
249.0490, 7.723511
250.2660, 20.25500
251.4820, 22.39136
252.6980, 18.20093
253.9130, 33.61804
255.1290, 22.00781
256.3440, 24.36755
257.5600, 65.69849
258.7750, 95.01294
259.9900, 61.32019
261.2040, 71.61792
262.4190, 62.91663
263.6330, 96.21814
264.8480, 41.53503
266.0620, 86.85779
267.2760, 52.19556
268.4900, 76.54260
269.7030, 92.90332
270.9170, 98.28333
272.1300, 125.6827
273.3430, 119.1104
274.5560, 90.56177
275.7690, 75.03442
276.9820, 108.5233
278.1940, 90.03552
279.4070, 46.56970
280.6190, 77.11658
281.8310, 74.68372
283.0430, 26.27014
284.2550, 35.86475
285.4660, 29.46826
286.6770, 41.08069
287.8890, 20.08069
289.1000, 20.66467
290.3110, 25.03418
291.5210, 69.40393
292.7320, 98.35901
293.9420, 139.0225
295.1530, 193.5286
296.3630, 245.9125
297.5730, 304.2970
298.7830, 382.6606
299.9920, 440.0156
301.2020, 604.3705
302.4110, 655.7156
303.6200, 806.0461
304.8290, 996.3564
306.0380, 1145.634
307.2470, 1351.859
308.4550, 1523.617
309.6630, 1648.163
310.8720, 1870.238
312.0800, 1991.251
313.2880, 2122.184
314.4950, 2251.042
315.7030, 2278.832
316.9100, 2326.568
318.1170, 2228.308
319.3240, 2139.952
320.5310, 2002.559
321.7380, 1944.391
322.9450, 1814.057
324.1510, 1684.955
325.3570, 1698.654
326.5630, 1654.335
327.7690, 1641.591
328.9750, 1636.208
330.1810, 1641.213
331.3860, 1711.295
332.5910, 1836.135
333.7960, 1907.337
335.0010, 2024.376
336.2060, 2170.395
337.4110, 2240.760
338.6150, 2352.220
339.8200, 2420.625
341.0240, 2488.733
342.2280, 2462.801
343.4320, 2434.135
344.6350, 2399.954
345.8390, 2309.773
347.0420, 2263.053
348.2450, 2125.450
349.4480, 1902.224
350.6510, 1806.272
351.8540, 1601.212
353.0560, 1438.136
354.2590, 1412.921
355.4610, 1274.957
356.6630, 1225.753
357.8650, 1138.790
359.0670, 1090.587
360.2680, 998.9956
361.4700, 1059.867
362.6710, 1110.947
363.8720, 1232.943
365.0730, 1341.117
366.2740, 1484.222
367.4740, 1666.886
368.6750, 2013.160
369.8750, 2215.525
371.0750, 2582.343
372.2750, 2773.439
373.4750, 2892.176
374.6740, 2688.111
375.8740, 2524.036
377.0730, 2251.439
378.2720, 1928.354
379.4710, 1700.761
380.6700, 1469.504
381.8690, 1191.242
383.0670, 1068.257
384.2660, 958.9575
385.4640, 864.5930
386.6620, 825.5216
387.8600, 757.1467
389.0570, 783.0265
390.2550, 720.0472
391.4520, 695.5553
392.6490, 726.1050
393.8460, 647.8706
395.0430, 699.5464
396.2400, 622.2927
397.4370, 634.3540
398.6330, 619.5374
399.8290, 635.7808
401.0250, 655.0590
402.2210, 672.0378
403.4170, 707.3990
404.6130, 726.2227
405.8080, 762.6172
407.0030, 745.2737
408.1980, 814.6520
409.3930, 822.4529
410.5880, 833.1660
411.7830, 908.2079
412.9770, 918.3162
414.1720, 964.1260
415.3660, 959.9077
416.5600, 1008.672
417.7530, 1064.424
418.9470, 1116.975
420.1410, 1198.671
421.3340, 1272.690
422.5270, 1306.166
423.7200, 1393.901
424.9130, 1358.764
426.1060, 1383.746
427.2980, 1267.192
428.4900, 1211.377
429.6830, 1128.540
430.8750, 950.2795
432.0670, 896.5625
433.2580, 777.9836
434.4500, 667.3110
435.6410, 597.8684
436.8320, 521.4838
438.0240, 500.5802
439.2140, 432.1604
440.4050, 404.5870
441.5960, 400.4062
442.7860, 295.0439
443.9760, 292.4998
445.1670, 303.0824
446.3560, 266.6082
447.5460, 176.9883
448.7360, 208.4176
449.9250, 182.8740
451.1150, 170.2323
452.3040, 202.4362
453.4930, 124.6116
454.6810, 142.7653
455.8700, 96.94641
457.0590, 87.08142
458.2470, 80.18311
459.4350, 72.25293
460.6230, 57.30237
461.8110, 83.33069
462.9980, 70.33862
464.1860, 44.35168
465.3730, 14.31689
466.5600, 41.25183
467.7470, 54.16321
468.9340, 14.05310
470.1210, 26.91223
471.3080, 15.74475
472.4940, 6.546875
473.6800, 47.31531
474.8660, 11.93933
476.0520, 28.76233
477.2380, 5.437500
478.4230, 36.07812
479.6090, 0.3065190
480.7940, 19.27136
481.9790, 20.81995
483.1640, 3.339478
484.3490, 32.82385
485.5330, 0.7182620
486.7180, 44.70239
487.9020, 8.098877
489.0860, 0.5374760
490.2700, 18.78882
491.4540, 8.085571
492.6370, 2.349609
493.8210, 35.57800
495.0040, 35.78101
496.1870, 44.35242
497.3700, 2.111572
498.5530, 45.31091
499.7360, 32.79492
500.9180, 7.767090
502.1000, 18.80066
503.2830, 5.804565
504.4650, 14.22534
505.6460, 35.70020
506.8280, 26.59961
508.0100, 29.47107
509.1910, 57.31531
510.3720, 2.863770
511.5530, 16.91919
512.7340, 42.67236
513.9150, 26.54114
515.0950, 47.24182
516.2760, 33.07898
517.4560, 33.18994
518.6360, 11.81384
519.8160, 31.40735
520.9950, 9.974609
522.1750, 1.510986
523.3540, 1.013184
524.5340, 21.48108
525.7130, 37.92163
526.8920, 41.33716
528.0700, 41.76648
529.2490, 1.231689
530.4270, 23.54614
531.6060, 24.01404
532.7840, 1.266724
533.9620, 39.51465
535.1390, 13.45654
536.3170, 3.320435
537.4940, 36.04468
538.6720, 3.739380
539.8490, 31.83606
541.0260, 4.937256
542.2030, 4.725342
543.3790, 5.678467
544.5560, 10.40637
545.7320, 8.515137
546.9080, 6.192749
548.0840, 9.196167
549.2600, 32.39868
550.4360, 59.39966
551.6110, 29.34827
552.7860, 66.29407
553.9620, 26.23291
555.1370, 53.16699
556.3110, 22.10315
557.4860, 61.21960
558.6610, 8.583374
559.8350, 54.02014
561.0090, 19.97461
562.1830, 8.925537
563.3570, 34.87891
564.5310, 35.83508
565.7040, 48.78467
566.8780, 39.73596
568.0510, 45.68811
569.2240, 18.63123
570.3970, 41.56470
571.5700, 17.49023
572.7420, 78.40796
573.9150, 31.31824
575.0870, 49.20996
576.2590, 65.08423
577.4310, 36.93945
578.6030, 13.77429
579.7740, 2.413940
580.9460, 74.36926
582.1170, 19.13428
583.2880, 31.87744
584.4590, 50.60071
585.6300, 32.30505
586.8010, 35.98962
587.9710, 51.65466
589.1410, 41.30151
590.3110, 34.92957
591.4810, 43.53857
592.6510, 71.12927
593.8210, 82.70276
594.9900, 77.25928
596.1600, 59.79919
597.3290, 65.32202
598.4980, 67.82812
599.6670, 97.31750
600.8350, 91.79065
602.0040, 96.18420
603.1720, 82.62524
604.3400, 62.05005
605.5080, 81.21741
606.6760, 66.53052
607.8440, 92.59705
609.0120, 87.84644
610.1790, 68.09692
611.3460, 84.75586
612.5130, 99.03760
613.6800, 115.9139
614.8470, 81.97986
616.0130, 77.70239
617.1800, 95.32886
618.3460, 107.1003
619.5120, 84.87378
620.6780, 110.2847
621.8440, 68.58008
623.0090, 93.91394
624.1750, 116.5260
625.3400, 91.15906
626.5050, 91.50659
627.6700, 97.34973
628.8350, 98.17505
629.9990, 99.51917
631.1640, 93.72681
632.3280, 85.77832
633.4920, 90.05408
634.6560, 63.65845
635.8200, 64.25879
636.9840, 57.00415
638.1470, 6.502930
639.3100, 6.754761
640.4730, 17.25549
641.6360, 24.48169
642.7990, 62.60486
643.9620, 85.25793
645.1240, 36.69373
646.2870, 21.20422
647.4490, 55.52356
648.6110, 23.90002
649.7730, 57.70337
650.9340, 51.88098
652.0960, 41.95203
653.2570, 3.446777
654.4180, 23.85767
655.5790, 4.496460
656.7400, 13.06995
657.9010, 28.34570
659.0620, 30.26416
660.2220, 33.64819
661.3820, 26.51953
662.5420, 19.03455
663.7020, 19.09119
664.8620, 14.72888
666.0210, 16.21875
667.1810, 1.249390
668.3400, 3.702759
669.4990, 44.13928
670.6580, 4.931763
671.8170, 3.996826
672.9750, 5.528564
674.1340, 23.00220
675.2920, 42.01379
676.4500, 19.42334
677.6080, 3.053223
678.7660, 16.89221
679.9230, 28.41455
681.0810, 10.90686
682.2380, 8.209351
683.3950, 20.71411
684.5520, 1.945801
685.7090, 38.04150
686.8660, 33.32288
688.0220, 38.52527
689.1780, 2.261353
690.3340, 19.28625
691.4900, 15.51697
692.6460, 24.11182
693.8020, 18.30579
694.9570, 43.80859
696.1130, 9.051514
697.2680, 17.48340
698.4230, 19.64294
699.5780, 51.85400
700.7320, 25.95703
701.8870, 46.82458
703.0410, 80.15613
704.1950, 20.50305
705.3490, 64.97156
706.5030, 44.36584
707.6570, 45.81104
708.8110, 78.94067
709.9640, 74.35461
711.1170, 52.47656
712.2700, 88.10315
713.4230, 105.4243
714.5760, 144.9102
715.7280, 149.3561
716.8810, 148.8719
718.0330, 156.9684
719.1850, 170.4529
720.3370, 172.0686
721.4890, 178.2693
722.6400, 199.6300
723.7920, 157.1505
724.9430, 194.5225
726.0940, 202.9292
727.2450, 245.4602
728.3960, 259.4656
729.5460, 277.3325
730.6970, 290.8214
731.8470, 297.4442
732.9970, 304.0751
734.1470, 352.7073
735.2970, 346.2924
736.4460, 339.9041
737.5960, 404.5300
738.7450, 435.1692
739.8940, 486.8103
741.0430, 498.4540
742.1920, 502.1001
743.3410, 539.7235
744.4890, 553.3849
745.6370, 588.0540
746.7850, 635.7273
747.9330, 689.4043
749.0810, 706.0891
750.2290, 790.7805
751.3760, 891.4797
752.5240, 952.1902
753.6710, 1100.906
754.8180, 1156.636
755.9650, 1364.372
757.1110, 1466.120
758.2580, 1786.879
759.4040, 2066.650
760.5510, 2426.429
761.6970, 2813.217
762.8420, 3336.016
763.9880, 3736.822
765.1340, 4254.644
766.2790, 4674.471
767.4240, 4840.309
768.5690, 4950.161
769.7140, 4986.022
770.8590, 4927.896
772.0030, 4880.781
773.1480, 4749.676
774.2920, 4668.579
775.4360, 4480.491
776.5800, 4478.340
777.7240, 4374.891
778.8670, 4414.937
780.0110, 4488.905
781.1540, 4790.883
782.2970, 4995.876
783.4400, 5337.882
784.5830, 5609.900
785.7250, 6086.927
786.8680, 6485.969
788.0100, 6735.017
789.1520, 6962.084
790.2940, 6830.168
791.4360, 6856.118
792.5780, 6971.229
793.7190, 6999.187
794.8600, 7313.853
796.0010, 7701.993
797.1420, 8226.146
798.2830, 8943.312
799.4240, 9562.494
800.5640, 10765.69
801.7050, 12243.91
802.8450, 13975.13
803.9850, 16683.37
805.1250, 20413.59
806.2640, 25097.76
807.4040, 29426.07
808.5430, 33236.51
809.6820, 35118.82
810.8210, 35358.78
811.9600, 34555.39
813.0990, 33036.18
814.2370, 31475.98
815.3760, 29667.41
816.5140, 27600.33
817.6520, 24371.72
818.7900, 21066.87
819.9270, 17665.29
821.0650, 14664.16
822.2020, 12026.57
823.3390, 9891.798
824.4760, 8129.252
825.6130, 6895.103
826.7500, 5865.568
827.8870, 5081.082
829.0230, 4539.609
830.1590, 4074.145
831.2950, 3596.690
832.4310, 3260.246
833.5670, 2897.633
834.7030, 2759.792
835.8380, 2605.916
836.9730, 2386.516
838.1080, 2292.252
839.2430, 2128.490
840.3780, 2028.128
841.5130, 1850.774
842.6470, 1741.434
843.7810, 1677.098
844.9150, 1674.797
846.0490, 1572.480
847.1830, 1514.200
848.3170, 1433.902
849.4500, 1405.797
850.5830, 1315.517
851.7160, 1279.248
852.8490, 1171.002
853.9820, 1137.750
855.1150, 1114.509
856.2470, 1043.280
857.3800, 1070.060
858.5120, 1003.850
859.6440, 992.6492
860.7760, 861.4567
861.9070, 870.2732
863.0390, 802.0989
864.1700, 769.9331
865.3010, 752.7758
866.4320, 727.6277
867.5630, 681.4884
868.6940, 676.3569
869.8240, 647.2334
870.9540, 625.1177
872.0850, 574.0105
873.2150, 575.9111
874.3450, 546.8198
875.4740, 523.7365
876.6040, 508.6609
877.7330, 494.5930
878.8620, 498.5334
879.9910, 475.5802
881.1200, 416.5360
882.2490, 442.4995
883.3770, 422.4705
884.5060, 446.4492
885.6340, 424.4355
886.7620, 425.4293
887.8900, 369.7070
889.0180, 386.7157
890.1450, 356.7317
891.2730, 362.7548
892.4000, 340.7853
893.5270, 323.1450
894.6540, 302.1903
895.7810, 321.2424
896.9070, 295.3018
898.0340, 303.0638
899.1600, 279.4407
900.2860, 298.0790
901.4120, 297.1653
902.5380, 269.4485
903.6630, 244.5476
904.7890, 180.9027
905.9140, 233.2147
907.0390, 188.3330
908.1640, 152.7708
909.2890, 179.3370
910.4130, 191.7953
911.5380, 182.2594
912.6620, 190.0420
913.7860, 177.8981
914.9100, 179.6460
916.0340, 162.8181
917.1580, 172.2439
918.2810, 179.4268
919.4040, 240.6149
920.5280, 237.1698
921.6510, 254.6621
922.7730, 235.8654
923.8960, 232.3230
925.0180, 203.2001
926.1410, 192.0576
927.2630, 131.8611
928.3850, 78.08850
929.5070, 45.32861
930.6280, 64.72876
931.7500, 70.07288
932.8710, 100.4362
933.9920, 60.25244
935.1130, 63.32959
936.2340, 22.92676
937.3550, 34.03271
938.4760, 40.29810
939.5960, 35.62659
940.7160, 28.89880
941.8360, 20.32166
942.9560, 12.39062
944.0760, 45.19751
945.1950, 21.51123
946.3150, 27.86450
947.4340, 5.841553
948.5530, 14.46143
949.6720, 6.171021
950.7900, 55.13855
951.9090, 37.45239
953.0270, 27.76855
954.1460, 73.08801
955.2640, 27.05701
956.3820, 27.38989
957.4990, 7.718262
958.6170, 38.68970
959.7340, 38.96838
960.8520, 9.366577
961.9690, 43.70325
963.0860, 25.60217
964.2020, 81.94141
965.3190, 6.281982
966.4350, 12.04456
967.5520, 34.39673
968.6680, 66.76099
969.7840, 0.6624760
970.8990, 4.687988
972.0150, 4.943726
973.1310, 35.49048
974.2460, 8.845703
975.3610, 21.18225
976.4760, 0.5195310
977.5910, 8.856689
978.7050, 0.8059080
979.8200, 1.724121
980.9340, 0.8247070
982.0480, 14.20483
983.1620, 5.458618
984.2760, 4.875854
985.3900, 7.648926
986.5030, 1.7090000E-02
987.6160, 31.31616
988.7300, 24.64917
989.8430, 29.98169
990.9550, 16.31360
992.0680, 10.64490
993.1810, 8.975830
994.2930, 20.30579
995.4050, 29.63513
996.5170, 15.96362
997.6290, 42.29663
998.7410, 27.62329
999.8520, 48.96265
1000.964, 53.28723
1002.075, 91.61060
1003.186, 66.93286
1004.297, 75.25366
1005.407, 36.57324
1006.518, 43.89148
1007.628, 38.20813
1008.738, 36.52332
1009.848, 63.83704
1010.958, 21.14905
1012.068, 9.459473
1013.178, 33.23193
1014.287, 17.05640
1015.396, 21.34302
1016.505, 5.627686
1017.614, 43.91040
1018.723, 39.22437
1019.831, 28.50281
1020.940, 2.220703
1022.048, 49.05054
1023.156, 39.31934
1024.264, 44.60083
1025.372, 46.86511
1026.479, 17.85388
1027.587, 19.52222
1028.694, 36.76721
1029.801, 15.00952
1030.908, 51.24939
1032.015, 27.48633
1033.121, 4.279297
1034.228, 9.946655
1035.334, 2.169922
1036.440, 18.38782
1037.546, 1.602905
1038.652, 2.812256
1039.758, 12.01611
1040.863, 1.223633
1041.968, 0.5239260
1043.074, 1.544678
1044.178, 14.21509
1045.283, 3.049805
1046.388, 3.894043
1047.492, 17.74829
1048.597, 32.38025
1049.701, 4.505371
1050.805, 38.62427
1051.909, 14.73950
1053.012, 2.851196
1054.116, 12.04456
1055.219, 23.04468
1056.322, 13.87000
1057.425, 8.801025
1058.528, 33.25415
1059.631, 31.69458
1060.733, 67.33069
1061.836, 17.35181
1062.938, 8.631104
1064.040, 12.37158
1065.142, 7.630859
1066.243, 14.64734
1067.345, 2.681641
1068.446, 6.272461
1069.547, 2.781006
1070.648, 36.15369
1071.749, 21.91553
1072.850, 23.99280
1073.951, 12.89697
1075.051, 33.79529
1076.151, 9.584717
1077.251, 33.29761
1078.351, 6.455444
1079.451, 27.40845
1080.550, 77.16211
1081.650, 17.01709
1082.749, 47.75000
1083.848, 61.59521
1084.947, 67.43604
1086.046, 55.27209
1087.144, 1.103638
1088.243, 24.92456
1089.341, 51.74084
1090.439, 1.552368
1091.537, 31.35339
1092.635, 57.55530
1093.732, 66.34692
1094.830, 2.133789
1095.927, 32.91064
1097.024, 71.68298
1098.121, 5.450562
1099.218, 25.20947
1100.314, 22.96448
1101.411, 8.284912
1102.507, 60.43408
1103.603, 24.16589
1104.699, 6.231201
1105.795, 66.87122
1106.890, 32.58008
1107.986, 27.28406
1109.081, 68.97852
1110.176, 49.67407
1111.271, 66.33911
1112.366, 43.02502
1113.461, 68.67847
1114.555, 74.35498
1115.649, 48.84277
1116.744, 4.509766
1117.838, 30.16797
1118.931, 36.80725
1120.025, 45.45679
1121.119, 47.10168
1122.212, 45.74182
1123.305, 62.37720
1124.398, 44.00781
1125.491, 58.63367
1126.584, 70.25610
1127.676, 55.87378
1128.768, 28.48669
1129.861, 42.68982
1130.953, 26.69824
1132.044, 48.29688
1133.136, 68.89062
1134.228, 66.47974
1135.319, 52.06421
1136.410, 50.64392
1137.501, 32.21887
1138.592, 36.04114
1139.683, 35.35474
1140.773, 56.91565
1141.864, 38.47180
1142.954, 81.02368
1144.044, 71.57312
1145.134, 29.01929
1146.224, 44.55957
1147.313, 61.09534
1148.402, 63.62659
1149.492, 21.15332
1150.581, 73.67517
1151.670, 51.19263
1152.758, 40.42908
1153.847, 84.93750
1154.935, 25.44165
1156.024, 78.94312
1157.112, 24.44006
1158.200, 12.61047
1159.287, 69.09741
1160.375, 84.57996
1161.462, 94.05847
1162.550, 93.53284
1163.637, 76.00317
1164.724, 56.91016
1165.810, 67.37219
1166.897, 84.63965
1167.983, 61.09338
1169.070, 66.29358
1170.156, 99.53918
1171.242, 24.98157
1172.327, 74.10693
1173.413, 75.10583
1174.499, 38.21484
1175.584, 69.32007
1176.669, 48.10938
1177.754, 93.82910
1178.839, 138.6632
1179.923, 72.07507
1181.008, 76.23535
1182.092, 81.64038
1183.176, 61.04175
1184.260, 64.07825
1185.344, 88.17908
1186.428, 61.57056
1187.511, 76.52820
1188.595, 32.79028
1189.678, 79.17224
1190.761, 38.97095
1191.843, 89.34705
1192.926, 69.71289
1194.009, 54.92224
1195.091, 41.18896
1196.173, 52.43787
1197.255, 68.23535
1198.337, 31.77332
1199.419, 80.79224
1200.500, 54.30347
1201.582, 37.65649
1202.663, 8.947266
1203.744, 12.30090
1204.825, 40.49561
1205.905, 40.80994
1206.986, 25.85425
1208.066, 75.19592
1209.146, 83.45105
1210.226, 64.79187
1211.306, 44.13159
1212.386, 78.40967
1213.466, 60.74634
1214.545, 65.08142
1215.624, 92.41443
1216.703, 83.74585
1217.782, 21.42834
1218.861, 62.74988
1219.939, 29.07642
1221.018, 76.76575
1222.096, 66.08899
1223.174, 53.41821
1224.252, 44.74585
1225.330, 56.51123
1226.407, 71.83606
1227.485, 79.15967
1228.562, 68.06104
1229.639, 89.60266
1230.716, 75.99365
1231.793, 44.44714
1232.869, 52.76465
1233.946, 53.53357
1235.022, 79.55005
1236.098, 70.87256
1237.174, 99.19434
1238.250, 92.51477
1239.325, 61.04272
1240.401, 71.36182
1241.476, 62.12744
1242.551, 53.77112
