##NAMES=Mimetite
##RRUFFID=R050527
##IDEAL CHEMISTRY=Pb^2+^_5_(As^5+^O_4_)_3_Cl
##LOCALITY=Tsumeb mine, Tsumeb, Otavi District, Oshikoto, Namibia
##OWNER=RRUFF
##SOURCE=University of Arizona Mineral Museum
##DESCRIPTION=Yellow hexagonal prisms, monoclinic polytype
##STATUS=The identification of this mineral has been confirmed by X-ray diffraction and chemical analysis
##URL=rruff.info/R050527
##MEASURED CHEMISTRY=Pb_5.00_(As_1.00_O_4_)_3_Cl_1.00_
##PIN_ID=M01947
##ORIENTATION=Laser parallel to -c* (0 0 -1). Fiducial mark perpendicular to laser is parallel to a [1 0 0]
73.47900, 0.0000000E+00
74.71800, 2.729004
75.95700, 23.16919
77.19600, 156.3486
78.43500, 460.4111
79.67300, 934.8621
80.91200, 1448.726
82.15000, 2216.842
83.38800, 2959.134
84.62600, 3981.904
85.86300, 4889.535
87.10100, 5913.116
88.33800, 7066.073
89.57500, 8009.043
90.81200, 8690.847
92.04900, 9136.503
93.28600, 9174.184
94.52300, 9229.327
95.75900, 9058.646
96.99500, 9040.954
98.23100, 9585.044
99.46700, 10110.60
100.7030, 10740.24
101.9390, 10844.55
103.1740, 10361.09
104.4090, 9608.533
105.6440, 8611.586
106.8790, 7588.021
108.1140, 6701.640
109.3490, 5724.273
110.5830, 4883.779
111.8180, 4338.026
113.0520, 3804.985
114.2860, 3346.363
115.5200, 2784.421
116.7530, 2460.270
117.9870, 2125.053
119.2200, 1802.031
120.4530, 1660.983
121.6860, 1349.576
122.9190, 1167.268
124.1520, 1084.880
125.3850, 909.0537
126.6170, 769.5410
127.8490, 787.9299
129.0810, 663.8174
130.3130, 669.1357
131.5450, 561.9224
132.7770, 559.2119
134.0080, 619.0344
135.2390, 649.4167
136.4710, 620.3818
137.7020, 592.9504
138.9320, 671.1409
140.1630, 765.9712
141.3930, 765.4573
142.6240, 820.6130
143.8540, 872.4531
145.0840, 881.9897
146.3140, 939.4895
147.5440, 994.1411
148.7730, 991.5889
150.0020, 1096.727
151.2320, 1062.647
152.4610, 1125.280
153.6900, 1092.724
154.9180, 1080.553
156.1470, 1151.931
157.3750, 1167.370
158.6040, 1177.374
159.8320, 1120.651
161.0600, 1183.418
162.2870, 1165.224
163.5150, 1143.768
164.7420, 1231.281
165.9700, 1363.505
167.1970, 1394.734
168.4240, 1491.178
169.6510, 1581.712
170.8770, 1685.658
172.1040, 1762.580
173.3300, 1847.143
174.5560, 1847.963
175.7820, 1997.219
177.0080, 1935.491
178.2340, 2031.742
179.4590, 2008.569
180.6850, 2047.495
181.9100, 2006.805
183.1350, 2040.667
184.3600, 2006.215
185.5850, 1927.710
186.8090, 1934.243
188.0340, 1815.806
189.2580, 1748.391
190.4820, 1723.988
191.7060, 1710.588
192.9300, 1592.182
194.1530, 1626.759
195.3770, 1469.312
196.6000, 1420.834
197.8230, 1255.317
199.0460, 1165.758
200.2690, 1198.158
201.4910, 1057.512
202.7140, 1021.820
203.9360, 975.0801
205.1580, 847.2969
206.3800, 846.4646
207.6020, 754.5859
208.8240, 673.6580
210.0450, 666.6785
211.2670, 619.6509
212.4880, 551.5750
213.7090, 464.4497
214.9300, 457.2781
216.1510, 403.0588
217.3710, 354.7917
218.5920, 296.4692
219.8120, 253.0891
221.0320, 256.1362
222.2520, 117.5300
223.4720, 123.4121
224.6910, 68.93823
225.9110, 95.55957
227.1300, 53.06885
228.3490, 20.31445
229.5680, 45.17798
230.7870, 58.43384
232.0050, 70.60498
233.2240, 93.40332
234.4420, 97.88916
235.6600, 112.1101
236.8780, 59.10864
238.0960, 126.9062
239.3140, 95.54980
240.5310, 121.0581
241.7490, 139.4592
242.9660, 85.78125
244.1830, 81.02783
245.4000, 147.2133
246.6160, 125.3796
247.8330, 129.5352
249.0490, 139.6968
250.2660, 144.8777
251.4820, 171.0920
252.6980, 171.3546
253.9130, 168.2106
255.1290, 128.0540
256.3440, 154.4906
257.5600, 141.9996
258.7750, 145.9476
259.9900, 144.1252
261.2040, 115.9949
262.4190, 128.8383
263.6330, 108.7856
264.8480, 98.84253
266.0620, 102.0181
267.2760, 39.32373
268.4900, 26.75183
269.7030, 63.30542
270.9170, 99.00012
272.1300, 32.84900
273.3430, 52.83728
274.5560, 30.97107
275.7690, 25.24329
276.9820, 22.65125
278.1940, 6.806641
279.4070, 82.13879
280.6190, 10.63635
281.8310, 13.46130
283.0430, 0.4425050
284.2550, 91.29895
285.4660, 90.05103
286.6770, 100.6993
287.8890, 149.2461
289.1000, 196.6986
290.3110, 221.3483
291.5210, 284.3402
292.7320, 299.5371
293.9420, 351.6545
295.1530, 414.6951
296.3630, 499.5912
297.5730, 628.5508
298.7830, 750.3447
299.9920, 910.9976
301.2020, 1126.487
302.4110, 1289.819
303.6200, 1551.977
304.8290, 1796.951
306.0380, 1984.736
307.2470, 2192.315
308.4550, 2404.672
309.6630, 2643.777
310.8720, 2839.651
312.0800, 3020.289
313.2880, 3224.691
314.4950, 3272.018
315.7030, 3294.223
316.9100, 3193.184
318.1170, 3010.900
319.3240, 2784.338
320.5310, 2574.685
321.7380, 2407.022
322.9450, 2217.321
324.1510, 2094.650
325.3570, 1970.917
326.5630, 1924.450
327.7690, 1914.873
328.9750, 1932.992
330.1810, 1971.755
331.3860, 2061.603
332.5910, 2096.474
333.7960, 2223.651
335.0010, 2265.213
336.2060, 2417.919
337.4110, 2470.616
338.6150, 2698.313
339.8200, 2777.946
341.0240, 2804.461
342.2280, 2753.740
343.4320, 2872.092
344.6350, 2834.376
345.8390, 2715.876
347.0420, 2624.266
348.2450, 2461.640
349.4480, 2359.938
350.6510, 2224.099
351.8540, 2036.248
353.0560, 1898.708
354.2590, 1762.028
355.4610, 1637.616
356.6630, 1499.365
357.8650, 1459.474
359.0670, 1414.433
360.2680, 1399.921
361.4700, 1422.485
362.6710, 1439.863
363.8720, 1544.263
365.0730, 1569.552
366.2740, 1772.868
367.4740, 1904.498
368.6750, 2171.719
369.8750, 2418.447
371.0750, 2656.489
372.2750, 2575.849
373.4750, 2558.888
374.6740, 2524.979
375.8740, 2347.559
377.0730, 2105.961
378.2720, 1824.665
379.4710, 1745.977
380.6700, 1499.331
381.8690, 1395.407
383.0670, 1289.303
384.2660, 1193.428
385.4640, 1171.096
386.6620, 1119.982
387.8600, 1041.514
389.0570, 1101.842
390.2550, 1082.214
391.4520, 1080.228
392.6490, 1002.213
393.8460, 1042.668
395.0430, 1018.910
396.2400, 999.5256
397.4370, 1033.541
398.6330, 926.3298
399.8290, 1001.859
401.0250, 1014.926
402.2210, 976.8734
403.4170, 1085.566
404.6130, 1135.134
405.8080, 1134.057
407.0030, 1146.081
408.1980, 1240.966
409.3930, 1277.030
410.5880, 1291.549
411.7830, 1316.654
412.9770, 1336.238
414.1720, 1381.178
415.3660, 1463.586
416.5600, 1507.937
417.7530, 1597.705
418.9470, 1636.677
420.1410, 1754.707
421.3340, 1812.536
422.5270, 1914.886
423.7200, 1953.883
424.9130, 2034.856
426.1060, 1929.811
427.2980, 1845.628
428.4900, 1704.660
429.6830, 1631.443
430.8750, 1426.405
432.0670, 1288.679
433.2580, 1130.906
434.4500, 1054.448
435.6410, 907.7346
436.8320, 911.0153
438.0240, 763.3518
439.2140, 751.6150
440.4050, 640.8301
441.5960, 634.8799
442.7860, 585.7804
443.9760, 531.7905
445.1670, 503.6666
446.3560, 485.5437
447.5460, 447.4180
448.7360, 422.3632
449.9250, 370.6333
451.1150, 361.1577
452.3040, 349.6317
453.4930, 318.0566
454.6810, 320.5496
455.8700, 331.8788
457.0590, 215.1619
458.2470, 193.3979
459.4350, 206.5878
460.6230, 223.7323
461.8110, 251.8331
462.9980, 223.8995
464.1860, 186.9156
465.3730, 166.8890
466.5600, 142.8196
467.7470, 134.1061
468.9340, 158.5486
470.1210, 142.3494
471.3080, 122.1079
472.4940, 155.8226
473.6800, 137.4963
474.8660, 127.1284
476.0520, 95.71814
477.2380, 150.2627
478.4230, 123.7673
479.6090, 117.2303
480.7940, 110.6516
481.9790, 110.0309
483.1640, 115.3687
484.3490, 135.6655
485.5330, 118.9233
486.7180, 119.1411
487.9020, 91.31952
489.0860, 94.18616
490.2700, 89.55176
491.4540, 89.60638
492.6370, 94.62030
493.8210, 89.59454
495.0040, 62.52905
496.1870, 66.01477
497.3700, 82.27069
498.5530, 56.08136
499.7360, 63.84973
500.9180, 68.57751
502.1000, 111.2658
503.2830, 91.91858
504.4650, 108.9839
505.6460, 95.11609
506.8280, 101.6619
508.0100, 92.17285
509.1910, 56.64893
510.3720, 92.08691
511.5530, 41.49036
512.7340, 107.8547
513.9150, 55.18579
515.0950, 80.48022
516.2760, 64.76172
517.4560, 20.98792
518.6360, 38.18567
519.8160, 54.40381
520.9950, 44.56763
522.1750, 31.72009
523.3540, 32.24817
524.5340, 32.78052
525.7130, 59.40601
526.8920, 24.96216
528.0700, 46.98462
529.2490, 12.30444
530.4270, 6.511597
531.6060, 45.23718
532.7840, 9.607056
533.9620, 26.72009
535.1390, 6.680420
536.3170, 30.13232
537.4940, 10.93298
538.6720, 20.66675
539.8490, 4.588379
541.0260, 3.686157
542.2030, 19.85071
543.3790, 4.893433
544.5560, 38.09656
545.7320, 28.58154
546.9080, 35.83521
548.0840, 19.25720
549.2600, 24.54370
550.4360, 33.07678
551.6110, 35.59338
552.7860, 39.28979
553.9620, 39.07544
555.1370, 45.93079
556.3110, 43.43274
557.4860, 31.45239
558.6610, 34.99902
559.8350, 21.56653
561.0090, 22.56372
562.1830, 31.17395
563.3570, 38.78772
564.5310, 13.41174
565.7040, 12.02832
566.8780, 4.340698
568.0510, 52.29224
569.2240, 57.94214
570.3970, 48.59082
571.5700, 45.23901
572.7420, 49.88599
573.9150, 46.52600
575.0870, 44.15466
576.2590, 41.81445
577.4310, 44.37024
578.6030, 32.95374
579.7740, 35.52014
580.9460, 32.06995
582.1170, 56.60339
583.2880, 83.12146
584.4590, 36.62537
585.6300, 54.11401
586.8010, 39.58826
587.9710, 26.04797
589.1410, 86.49304
590.3110, 66.92517
591.4810, 72.34473
592.6510, 92.75183
593.8210, 71.14709
594.9900, 36.53027
596.1600, 85.90100
597.3290, 67.26050
598.4980, 63.46411
599.6670, 98.57141
600.8350, 74.72876
602.0040, 98.95312
603.1720, 53.25940
604.3400, 118.4761
605.5080, 58.53418
606.6760, 146.5050
607.8440, 86.28857
609.0120, 105.0034
610.1790, 100.9272
611.3460, 84.72021
612.5130, 71.33264
613.6800, 106.2440
614.8470, 76.01355
616.0130, 93.70264
617.1800, 88.02930
618.3460, 110.9153
619.5120, 118.5980
620.6780, 98.23438
621.8440, 139.8126
623.0090, 101.3989
624.1750, 128.0461
625.3400, 167.8728
626.5050, 132.5695
627.6700, 133.2783
628.8350, 126.7152
629.9990, 156.2064
631.1640, 72.65857
632.3280, 80.13037
633.4920, 62.68506
634.6560, 102.1969
635.8200, 64.34326
636.9840, 41.57556
638.1470, 32.05884
639.3100, 38.18164
640.4730, 57.46362
641.6360, 41.84253
642.7990, 46.64038
643.9620, 50.30945
645.1240, 46.11267
646.2870, 50.84143
647.4490, 25.62988
648.6110, 26.36853
649.7730, 19.76978
650.9340, 16.41858
652.0960, 40.76660
653.2570, 11.62585
654.4180, 21.11572
655.5790, 0.8681640
656.7400, 27.50806
657.9010, 14.50708
659.0620, 0.1170650
660.2220, 12.49597
661.3820, 21.02039
662.5420, 31.60645
663.7020, 38.22351
664.8620, 4.839111
666.0210, 12.13770
667.1810, 58.83069
668.3400, 47.24902
669.4990, 1.296997
670.6580, 38.18591
671.8170, 7.624878
672.9750, 3.317139
674.1340, 22.31641
675.2920, 9.405273
676.4500, 17.95239
677.6080, 15.86182
678.7660, 15.53040
679.9230, 54.11621
681.0810, 16.26868
682.2380, 42.95410
683.3950, 25.07544
684.5520, 5.523315
685.7090, 25.05933
686.8660, 28.51257
688.0220, 46.19885
689.1780, 3.812866
690.3340, 2.294922
691.4900, 7.742676
692.6460, 10.14929
693.8020, 12.03320
694.9570, 35.09937
696.1130, 15.25415
697.2680, 5.308350
698.4230, 9.913696
699.5780, 13.59387
700.7320, 0.9188230
701.8870, 26.52271
703.0410, 75.18616
704.1950, 93.61218
705.3490, 68.02856
706.5030, 45.69189
707.6570, 41.44678
708.8110, 88.23230
709.9640, 113.9860
711.1170, 144.7338
712.2700, 114.5085
713.4230, 103.2845
714.5760, 157.0580
715.7280, 136.8292
716.8810, 167.6187
718.0330, 170.3679
719.1850, 215.1359
720.3370, 229.8972
721.4890, 219.7694
722.6400, 254.7373
723.7920, 255.5427
724.9430, 241.4337
726.0940, 270.2726
727.2450, 248.0636
728.3960, 346.0514
729.5460, 352.0312
730.6970, 361.0259
731.8470, 349.0240
732.9970, 429.0260
734.1470, 425.9154
735.2970, 444.9250
736.4460, 492.9387
737.5960, 476.9570
738.7450, 574.9806
739.8940, 521.0093
741.0430, 609.0427
742.1920, 619.0728
743.3410, 665.1157
744.4890, 705.1643
745.6370, 731.2234
746.7850, 783.2894
747.9330, 846.3625
749.0810, 854.4424
750.2290, 1014.529
751.3760, 1038.625
752.5240, 1155.727
753.6710, 1320.836
754.8180, 1448.953
755.9650, 1596.080
757.1110, 1844.213
758.2580, 2132.355
759.4040, 2525.504
760.5510, 3022.663
761.6970, 3564.829
762.8420, 4168.005
763.9880, 4620.190
765.1340, 5266.382
766.2790, 5670.582
767.4240, 5913.798
768.5690, 5928.024
769.7140, 5792.263
770.8590, 5648.513
772.0030, 5537.780
773.1480, 5180.056
774.2920, 4925.354
775.4360, 4746.661
776.5800, 4547.993
777.7240, 4580.341
778.8670, 4614.702
780.0110, 4707.079
781.1540, 4963.472
782.2970, 5451.865
783.4400, 5611.272
784.5830, 5924.688
785.7250, 6323.111
786.8680, 6653.546
788.0100, 6880.996
789.1520, 7045.456
790.2940, 7138.931
791.4360, 7109.430
792.5780, 7193.938
793.7190, 7312.438
794.8600, 7748.967
796.0010, 8188.514
797.1420, 8941.032
798.2830, 10058.61
799.4240, 11384.20
800.5640, 13419.41
801.7050, 16046.29
802.8450, 19754.73
803.9850, 25083.93
805.1250, 32099.68
806.2640, 40071.15
807.4040, 46944.77
808.5430, 52298.81
809.6820, 53980.25
810.8210, 53690.98
811.9600, 51789.88
813.0990, 50182.30
814.2370, 47799.41
815.3760, 44991.62
816.5140, 41097.87
817.6520, 36487.24
818.7900, 31312.49
819.9270, 26029.54
821.0650, 21356.45
822.2020, 17359.12
823.3390, 14282.07
824.4760, 11765.95
825.6130, 9896.938
826.7500, 8522.862
827.8870, 7364.688
829.0230, 6508.373
830.1590, 5716.994
831.2950, 5129.568
832.4310, 4639.525
833.5670, 4214.004
834.7030, 3922.982
835.8380, 3513.970
836.9730, 3417.554
838.1080, 3106.552
839.2430, 2942.347
840.3780, 2730.379
841.5130, 2552.421
842.6470, 2505.914
843.7810, 2367.676
844.9150, 2247.755
846.0490, 2185.841
847.1830, 2056.092
848.3170, 1918.240
849.4500, 1811.172
850.5830, 1856.301
851.7160, 1717.440
852.8490, 1668.589
853.9820, 1586.748
855.1150, 1478.916
856.2470, 1467.094
857.3800, 1403.281
858.5120, 1336.479
859.6440, 1267.685
860.7760, 1217.903
861.9070, 1184.053
863.0390, 1116.287
864.1700, 1051.530
865.3010, 997.7815
866.4320, 1001.042
867.5630, 952.3107
868.6940, 885.5881
869.8240, 861.8738
870.9540, 805.1685
872.0850, 810.4717
873.2150, 723.7832
874.3450, 768.1033
875.4740, 742.4319
876.6040, 767.7687
877.7330, 747.6240
878.8620, 643.4680
879.9910, 699.8306
881.1200, 668.1644
882.2490, 643.5430
883.3770, 663.9324
884.5060, 575.3295
885.6340, 630.7345
886.7620, 551.2856
887.8900, 528.7065
889.0180, 475.1351
890.1450, 580.5718
891.2730, 549.0161
892.4000, 529.4680
893.5270, 475.0032
894.6540, 498.4703
895.7810, 520.9451
896.9070, 395.4271
898.0340, 412.3123
899.1600, 423.8093
900.2860, 350.3468
901.4120, 358.8586
902.5380, 319.9685
903.6630, 285.4946
904.7890, 310.0571
905.9140, 280.5969
907.0390, 257.3077
908.1640, 246.8611
909.2890, 241.9055
910.4130, 247.4717
911.5380, 237.4789
912.6620, 242.1874
913.7860, 268.1420
914.9100, 254.2709
916.0340, 271.9417
917.1580, 298.5433
918.2810, 364.1504
919.4040, 321.7631
920.5280, 353.3915
921.6510, 418.0350
922.7730, 317.4100
923.8960, 297.3684
925.0180, 281.3373
926.1410, 220.9843
927.2630, 179.1117
928.3850, 169.2830
929.5070, 131.9536
930.6280, 134.1598
931.7500, 91.12280
932.8710, 99.36426
933.9920, 86.03906
935.1130, 59.99292
936.2340, 14.68201
937.3550, 59.94910
938.4760, 87.95679
939.5960, 55.07617
940.7160, 47.80383
941.8360, 21.70435
942.9560, 28.44910
944.0760, 26.22424
945.1950, 29.88171
946.3150, 13.69275
947.4340, 23.49731
948.5530, 27.28796
949.6720, 16.07654
950.7900, 48.86157
951.9090, 4.651978
953.0270, 14.72400
954.1460, 44.53271
955.2640, 27.35168
956.3820, 60.40796
957.4990, 45.32959
958.6170, 3.835571
959.7340, 15.00513
960.8520, 7.143677
961.9690, 19.70813
963.0860, 63.34265
964.2020, 9.970581
965.3190, 10.48242
966.4350, 36.36365
967.5520, 4.228271
968.6680, 22.60657
969.7840, 34.96582
970.8990, 9.836060
972.0150, 31.70947
973.1310, 20.41589
974.2460, 3.452026
975.3610, 1.320557
976.4760, 12.81030
977.5910, 17.94507
978.7050, 15.91382
979.8200, 27.77295
980.9340, 5.367554
982.0480, 1.506958
983.1620, 37.04626
984.2760, 2.907471
985.3900, 42.75244
986.5030, 45.67334
987.6160, 5.514038
988.7300, 20.35437
989.8430, 9.194458
990.9550, 50.09155
992.0680, 3.102295
993.1810, 7.941040
994.2930, 19.22095
995.4050, 9.607910
996.5170, 49.43579
997.6290, 19.28943
998.7410, 22.11560
999.8520, 55.94104
1000.964, 49.76538
1002.075, 58.58875
1003.186, 62.58289
1004.297, 119.2319
1005.407, 38.05164
1006.518, 69.87000
1007.628, 18.74536
1008.738, 33.56104
1009.848, 33.41150
1010.958, 30.22388
1012.068, 58.13501
1013.178, 29.94409
1014.287, 15.24878
1015.396, 34.54761
1016.505, 12.90125
1017.614, 27.69360
1018.723, 31.48389
1019.831, 0.2720950
1020.940, 32.05615
1022.048, 34.83801
1023.156, 46.61743
1024.264, 10.39453
1025.372, 9.169189
1026.479, 2.941406
1027.587, 26.70972
1028.694, 22.47559
1029.801, 22.23865
1030.908, 2.000977
1032.015, 31.75256
1033.121, 6.503052
1034.228, 18.25012
1035.334, 20.00586
1036.440, 17.72095
1037.546, 10.55518
1038.652, 14.15601
1039.758, 28.13611
1040.863, 32.54980
1041.968, 32.76770
1043.074, 38.88977
1044.178, 47.45593
1045.283, 12.83496
1046.388, 4.771240
1047.492, 16.62866
1048.597, 9.045898
1049.701, 16.52356
1050.805, 39.08911
1051.909, 35.65112
1053.012, 15.20935
1054.116, 7.236572
1055.219, 2.695679
1056.322, 4.834229
1057.425, 11.64307
1058.528, 38.13623
1059.631, 2.340576
1060.733, 1.808716
1061.836, 18.26770
1062.938, 14.27795
1064.040, 7.158813
1065.142, 14.41174
1066.243, 24.99951
1067.345, 8.406494
1068.446, 49.80640
1069.547, 2.201904
1070.648, 25.41248
1071.749, 11.05127
1072.850, 41.29297
1073.951, 13.63245
1075.051, 30.96570
1076.151, 22.29407
1077.251, 2.382446
1078.351, 19.92798
1079.451, 21.23279
1080.550, 24.53247
1081.650, 26.82678
1082.749, 31.11633
1083.848, 54.40063
1084.947, 11.67981
1086.046, 33.95142
1087.144, 62.21777
1088.243, 13.48340
1089.341, 19.74133
1090.439, 49.99536
1091.537, 33.17737
1092.635, 41.42078
1093.732, 72.50745
1094.830, 0.7401120
1095.927, 0.9599610
1097.024, 3.167236
1098.121, 29.36328
1099.218, 41.55396
1100.314, 45.97900
1101.411, 40.92261
1102.507, 42.10059
1103.603, 42.27307
1104.699, 44.30457
1105.795, 45.82520
1106.890, 47.98059
1107.986, 50.12903
1109.081, 44.83362
1110.176, 71.27930
1111.271, 43.41223
1112.366, 59.54004
1113.461, 34.50989
1114.555, 3.586548
1115.649, 18.88000
1116.744, 32.97937
1117.838, 21.07324
1118.931, 37.38293
1120.025, 63.24304
1121.119, 45.31958
1122.212, 23.39075
1123.305, 16.45593
1124.398, 76.51392
1125.491, 37.56641
1126.584, 35.68530
1127.676, 48.72925
1128.768, 28.76855
1129.861, 40.80273
1130.953, 68.83142
1132.044, 45.85474
1133.136, 58.89453
1134.228, 64.88513
1135.319, 51.89209
1136.410, 63.89380
1137.501, 56.89001
1138.592, 23.88086
1139.683, 76.86572
1140.773, 27.84509
1141.864, 54.81873
1142.954, 20.78796
1144.044, 96.75085
1145.134, 66.70850
1146.224, 64.69714
1147.313, 2.644165
1148.402, 46.58057
1149.492, 74.51172
1150.581, 67.43774
1151.670, 88.85925
1152.758, 78.13550
1153.847, 75.04565
1154.935, 64.95850
1156.024, 71.66602
1157.112, 40.76831
1158.200, 82.59021
1159.287, 86.48218
1160.375, 81.36902
1161.462, 53.25073
1162.550, 42.73181
1163.637, 82.60315
1164.724, 60.43628
1165.810, 59.29749
1166.897, 68.56238
1167.983, 65.41357
1169.070, 61.22998
1170.156, 58.85632
1171.242, 89.74365
1172.327, 47.57532
1173.413, 51.91772
1174.499, 58.74048
1175.584, 91.12402
1176.669, 44.66296
1177.754, 51.24756
1178.839, 70.51465
1179.923, 57.24133
1181.008, 70.03894
1182.092, 64.83264
1183.176, 70.57544
1184.260, 81.39783
1185.344, 80.15955
1186.428, 106.1914
1187.511, 107.6901
1188.595, 87.08167
1189.678, 93.84546
1190.761, 76.13000
1191.843, 60.37183
1192.926, 79.11633
1194.009, 51.32581
1195.091, 56.78003
1196.173, 42.95715
1197.255, 42.70178
1198.337, 50.16858
1199.419, 45.90735
1200.500, 25.07690
1201.582, 40.50781
1202.663, 72.83020
1203.744, 61.55786
1204.825, 52.12329
1205.905, 18.84583
1206.986, 23.54614
1208.066, 56.36597
1209.146, 54.03284
1210.226, 56.71045
1211.306, 19.40405
1212.386, 42.10339
1213.466, 61.80920
1214.545, 96.51270
1215.624, 100.9454
1216.703, 48.64441
1217.782, 41.34106
1218.861, 73.80493
1219.939, 82.92822
1221.018, 91.47449
1222.096, 65.30725
1223.174, 107.9939
1224.252, 59.67944
1225.330, 53.58276
1226.407, 23.49316
1227.485, 50.52148
1228.562, 94.27234
1229.639, 79.94861
1230.716, 79.52466
1231.793, 47.19727
1232.869, 116.8684
1233.946, 92.53772
1235.022, 69.20557
1236.098, 102.8752
1237.174, 67.54346
1238.250, 83.21021
1239.325, 68.87756
1240.401, 88.54700
1241.476, 76.28418
1242.551, 71.03967
1243.626, 66.70337
1244.701, 68.84924
1245.776, 71.32532
1246.850, 78.99231
1247.924, 77.58264
1248.999, 76.25183
1250.073, 59.91992
1251.146, 89.58728
1252.220, 85.20740
1253.293, 83.70154
