##NAMES=Mimetite
##RRUFFID=R060920
##IDEAL CHEMISTRY=Pb^2+^_5_(As^5+^O_4_)_3_Cl
##LOCALITY=Tsumeb mine, Tsumeb, Otavi District, Oshikoto, Namibia
##OWNER=RRUFF
##SOURCE=Marcus Origlieri
##DESCRIPTION=Yellow to brownish hexagonal prism, monoclinic polytype
##STATUS=The identification of this mineral has been made only by X-ray diffraction.
##URL=rruff.info/R060920
##PIN_ID=L01429
##ORIENTATION=Laser parallel to a* (1 0 0). Fiducial mark perpendicular to laser is parallel to c [0 0 1]
42.24800, 0.0000000E+00
43.49300, 9.884613
44.73800, 18.49048
45.98200, 15.24756
47.22600, 29.45483
48.47100, 23.84406
49.71500, 37.00049
50.95900, 45.13278
52.20200, 51.74673
53.44600, 46.73419
54.68900, 49.37183
55.93300, 61.37949
57.17600, 67.45087
58.41900, 95.16071
59.66100, 115.7540
60.90400, 106.1652
62.14600, 93.10468
63.38900, 83.35291
64.63100, 67.59955
65.87300, 41.74200
67.11500, 34.86075
68.35600, 19.24783
69.59800, 1.106110
70.83900, 12.79080
72.08000, 13.06866
73.32100, 19.69086
74.56200, 36.08121
75.80300, 35.24478
77.04300, 29.18600
78.28300, 2.908905
79.52300, 6.417480
80.76300, 34.28036
82.00300, 87.17401
83.24300, 164.2531
84.48300, 282.5071
85.72200, 408.9268
86.96100, 556.1398
88.20000, 727.2252
89.43900, 905.0856
90.67800, 1123.081
91.91600, 1331.210
93.15500, 1528.469
94.39300, 1816.858
95.63100, 2196.375
96.86900, 2702.019
98.10600, 3178.790
99.34400, 3620.686
100.5810, 3978.706
101.8190, 4229.314
103.0560, 4471.119
104.2930, 4526.509
105.5290, 4432.022
106.7660, 4406.656
108.0020, 4378.412
109.2390, 4243.287
110.4750, 4130.284
111.7110, 3913.397
112.9460, 3793.631
114.1820, 3593.982
115.4170, 3548.451
116.6530, 3504.024
117.8880, 3364.665
119.1230, 3310.371
120.3580, 3114.134
121.5920, 3098.952
122.8270, 3000.822
124.0610, 2953.737
125.2950, 2812.694
126.5290, 2766.690
127.7630, 2793.726
128.9970, 2729.805
130.2300, 2730.911
131.4640, 2720.046
132.6970, 2638.185
133.9300, 2664.326
135.1630, 2689.513
136.3950, 2703.766
137.6280, 2751.085
138.8600, 2707.471
140.0920, 2854.925
141.3240, 2926.449
142.5560, 2882.045
143.7880, 2959.710
145.0190, 3088.448
146.2510, 3168.258
147.4820, 3272.142
148.7130, 3271.099
149.9440, 3408.130
151.1750, 3458.234
152.4050, 3584.412
153.6360, 3637.665
154.8660, 3698.367
156.0960, 3738.393
157.3260, 3815.869
158.5560, 3828.419
159.7850, 3918.042
161.0150, 3976.741
162.2440, 4002.512
163.4730, 4144.359
164.7020, 4114.279
165.9310, 4095.273
167.1590, 4166.340
168.3880, 4231.482
169.6160, 4210.697
170.8440, 4114.985
172.0720, 4059.346
173.3000, 3976.805
174.5280, 3806.282
175.7550, 3759.859
176.9820, 3573.507
178.2100, 3382.227
179.4370, 3303.017
180.6630, 3095.878
181.8900, 3039.808
183.1170, 2788.807
184.3430, 2749.875
185.5690, 2709.011
186.7950, 2460.215
188.0210, 2383.486
189.2470, 2296.824
190.4720, 2105.085
191.6970, 1996.343
192.9230, 1952.588
194.1480, 1798.812
195.3730, 1757.011
196.5970, 1591.188
197.8220, 1574.334
199.0460, 1501.438
200.2700, 1433.517
201.4940, 1286.584
202.7180, 1250.633
203.9420, 1094.623
205.1660, 1160.563
206.3890, 1085.403
207.6120, 1035.188
208.8350, 1013.051
210.0580, 914.9890
211.2810, 937.0093
212.5040, 861.0764
213.7260, 862.9707
214.9480, 760.9705
216.1700, 748.7971
217.3920, 729.9448
218.6140, 658.1576
219.8360, 638.2439
221.0570, 570.2444
222.2790, 549.5371
223.5000, 519.1936
224.7210, 507.5446
225.9410, 468.3857
227.1620, 449.2367
228.3820, 448.2942
229.6030, 410.4170
230.8230, 375.6127
232.0430, 356.8683
233.2630, 335.1921
234.4820, 331.5732
235.7020, 287.0105
236.9210, 301.5122
238.1400, 247.0758
239.3590, 245.7092
240.5780, 189.4056
241.7970, 253.1680
243.0150, 233.9977
244.2340, 211.8851
245.4520, 190.8246
246.6700, 182.8214
247.8880, 165.8711
249.1060, 155.9744
250.3230, 148.9364
251.5400, 158.3566
252.7580, 127.6282
253.9750, 124.9490
255.1920, 95.32104
256.4080, 101.7500
257.6250, 130.2263
258.8410, 168.7502
260.0580, 156.3319
261.2740, 116.9828
262.4900, 135.6837
263.7050, 77.42908
264.9210, 123.2241
266.1360, 165.0720
267.3520, 123.9656
268.5670, 81.91125
269.7820, 105.9008
270.9960, 115.9386
272.2110, 114.0205
273.4250, 156.1466
274.6400, 167.3204
275.8540, 154.5435
277.0680, 189.9816
278.2810, 169.1323
279.4950, 232.5001
280.7090, 215.9192
281.9220, 242.3820
283.1350, 281.8894
284.3480, 351.4497
285.5610, 375.0598
286.7730, 459.1339
287.9860, 526.4116
289.1980, 634.1562
290.4100, 766.9421
291.6220, 895.7708
292.8340, 1092.641
294.0460, 1241.554
295.2570, 1493.509
296.4690, 1607.503
297.6800, 2003.542
298.8910, 2146.619
300.1020, 2556.737
301.3120, 2857.900
302.5230, 3079.101
303.7330, 3171.345
304.9440, 3228.630
306.1540, 3211.952
307.3630, 3196.317
308.5730, 3155.725
309.7830, 3135.174
310.9920, 3221.657
312.2010, 3154.177
313.4100, 3139.731
314.6190, 3017.319
315.8280, 2768.941
317.0370, 2654.598
318.2450, 2562.287
319.4530, 2427.010
320.6610, 2400.765
321.8690, 2471.553
323.0770, 2644.373
324.2850, 2680.224
325.4920, 2929.106
326.6990, 3143.020
327.9060, 3564.964
329.1130, 3759.938
330.3200, 4068.942
331.5270, 4425.009
332.7330, 4593.073
333.9390, 4895.166
335.1450, 4947.287
336.3510, 4960.441
337.5570, 4950.630
338.7630, 4836.055
339.9680, 4653.313
341.1740, 4503.605
342.3790, 4221.204
343.5840, 3852.566
344.7890, 3693.964
345.9930, 3269.397
347.1980, 2978.662
348.4020, 2692.166
349.6060, 2297.753
350.8100, 2050.330
352.0140, 1836.790
353.2180, 1611.506
354.4210, 1434.650
355.6250, 1293.500
356.8280, 1158.982
358.0310, 1050.527
359.2340, 917.8488
360.4360, 861.1255
361.6390, 738.2311
362.8410, 715.5120
364.0430, 685.7113
365.2450, 704.0217
366.4470, 638.7550
367.6490, 616.8611
368.8510, 558.1177
370.0520, 608.2769
371.2530, 566.3267
372.4540, 613.8545
373.6550, 614.3978
374.8560, 606.8530
376.0560, 625.5251
377.2570, 657.2788
378.4570, 681.7478
379.6570, 740.1445
380.8570, 703.5177
382.0570, 742.4441
383.2560, 796.4019
384.4560, 863.8594
385.6550, 949.1604
386.8540, 977.0662
388.0530, 1046.700
389.2520, 1066.297
390.4510, 1053.148
391.6490, 1096.161
392.8470, 1159.410
394.0450, 1091.717
395.2430, 1093.906
396.4410, 1253.784
397.6390, 1401.621
398.8360, 1554.059
400.0340, 1749.852
401.2310, 1915.748
402.4280, 2167.697
403.6250, 2395.203
404.8210, 2697.506
406.0180, 2854.392
407.2140, 3109.301
408.4100, 3210.305
409.6060, 3148.114
410.8020, 2978.352
411.9980, 2761.175
413.1930, 2475.163
414.3890, 2208.175
415.5840, 1958.322
416.7790, 1774.122
417.9740, 1584.471
419.1680, 1508.847
420.3630, 1385.144
421.5570, 1373.854
422.7510, 1371.611
423.9450, 1310.528
425.1390, 1318.872
426.3330, 1176.444
427.5270, 1126.933
428.7200, 1092.840
429.9130, 946.0452
431.1060, 901.5123
432.2990, 769.5701
433.4920, 811.8032
434.6840, 752.4761
435.8770, 728.9352
437.0690, 654.9802
438.2610, 632.4290
439.4530, 584.7029
440.6450, 566.1621
441.8360, 487.5007
443.0280, 449.1846
444.2190, 374.9958
445.4100, 312.2668
446.6010, 323.0114
447.7920, 274.8633
448.9820, 229.4351
450.1730, 197.1110
451.3630, 184.0521
452.5530, 199.4323
453.7430, 123.7631
454.9330, 161.0898
456.1230, 100.4031
457.3120, 83.71948
458.5010, 146.0756
459.6910, 130.4647
460.8800, 71.84460
462.0680, 52.18555
463.2570, 43.51477
464.4460, 81.84570
465.6340, 69.17822
466.8220, 84.51196
468.0100, 38.84692
469.1980, 56.18652
470.3860, 46.53357
471.5730, 19.88110
472.7600, 16.25696
473.9480, 2.399292
475.1350, 53.93677
476.3210, 48.27222
477.5080, 40.60718
478.6950, 38.94104
479.8810, 25.27356
481.0670, 11.27490
482.2530, 27.08264
483.4390, 7.407959
484.6250, 13.08972
485.8100, 33.22778
486.9960, 13.70764
488.1810, 24.10449
489.3660, 26.65979
490.5510, 34.84949
491.7360, 1.800903
492.9200, 7.373169
494.1050, 25.34229
495.2890, 49.88806
496.4730, 14.61279
497.6570, 4.247437
498.8400, 40.90063
500.0240, 40.69177
501.2070, 13.48535
502.3910, 51.17468
503.5740, 5.014526
504.7570, 29.70105
505.9400, 62.58289
507.1220, 27.47571
508.3050, 14.40051
509.4870, 2.647339
510.6690, 40.31360
511.8510, 29.88672
513.0330, 51.00049
514.2140, 23.03162
515.3960, 22.08374
516.5770, 53.24939
517.7580, 2.360352
518.9390, 38.43298
520.1200, 4.933472
521.3010, 14.79785
522.4810, 28.19287
523.6610, 19.39905
524.8420, 52.46411
526.0220, 25.73645
527.2010, 39.03760
528.3810, 48.00061
529.5610, 8.323853
530.7400, 24.27625
531.9190, 9.905762
533.0980, 6.518188
534.2770, 2.846069
535.4560, 31.40271
536.6340, 6.091797
537.8120, 4.747803
538.9910, 18.73889
540.1690, 5.786255
541.3460, 16.76233
542.5240, 22.62549
543.7020, 22.11304
544.8790, 25.52869
546.0560, 69.20776
547.2330, 3.259766
548.4100, 49.49646
549.5870, 2.745483
550.7630, 10.05615
551.9400, 22.11108
553.1160, 8.733643
554.2920, 46.38464
555.4680, 6.643555
556.6440, 30.72302
557.8190, 32.78613
558.9950, 8.832886
560.1700, 2.855713
561.3450, 29.85095
562.5200, 17.17139
563.6950, 17.76758
564.8690, 3.314941
566.0440, 32.57043
567.2180, 25.43811
568.3920, 10.71423
569.5660, 0.9031980
570.7400, 44.87622
571.9130, 7.638916
573.0870, 16.37390
574.2600, 47.08484
575.4330, 27.77905
576.6060, 36.45264
577.7790, 19.10742
578.9520, 38.73828
580.1240, 50.35034
581.2960, 11.94592
582.4690, 47.51379
583.6410, 32.06421
584.8120, 6.593994
585.9840, 70.09314
587.1560, 8.575806
588.3270, 29.02844
589.4980, 39.45923
590.6690, 10.87036
591.8400, 6.252319
593.0110, 17.60266
594.1810, 57.92651
595.3510, 59.23315
596.5220, 80.52283
597.6920, 63.79565
598.8610, 58.05176
600.0310, 55.29065
601.2010, 56.51184
602.3700, 61.71558
603.5390, 83.90234
604.7080, 67.07227
605.8770, 83.22522
607.0460, 72.36157
608.2140, 79.48096
609.3830, 65.58337
610.5510, 64.19006
611.7190, 64.43652
612.8870, 60.78918
614.0550, 65.82336
615.2220, 75.80701
616.3900, 81.80762
617.5570, 85.79150
618.7240, 96.75854
619.8910, 86.73584
621.0580, 53.64258
622.2240, 62.35767
623.3910, 69.25659
624.5570, 49.13879
625.7230, 98.73303
626.8890, 49.58044
628.0550, 113.4095
629.2200, 65.22229
630.3860, 46.22083
631.5510, 57.99854
632.7160, 22.71033
633.8810, 71.44690
635.0460, 46.32141
636.2100, 57.95789
637.3750, 47.18494
638.5390, 47.76770
639.7030, 66.65161
640.8670, 54.53284
642.0310, 41.65710
643.1950, 52.84424
644.3580, 36.22278
645.5210, 55.44751
646.6850, 44.77209
647.8480, 45.97949
649.0100, 75.84595
650.1730, 51.33691
651.3350, 25.70239
652.4980, 30.18665
653.6600, 60.79492
654.8220, 70.94104
655.9840, 15.91370
657.1450, 40.32556
658.3070, 4.638062
659.4680, 2.325317
660.6300, 24.58447
661.7910, 11.92908
662.9510, 36.30957
664.1120, 10.85022
665.2730, 32.96582
666.4330, 21.29443
667.5930, 3.208008
668.7530, 4.694458
669.9130, 47.88098
671.0730, 3.885132
672.2320, 14.89453
673.3920, 33.94116
674.5510, 12.55273
675.7100, 54.11572
676.8690, 15.19250
678.0280, 1.182373
679.1860, 31.12122
680.3450, 1.658081
681.5030, 10.45959
682.6610, 6.516724
683.8190, 3.462769
684.9770, 5.895020
686.1340, 12.46008
687.2920, 53.60986
688.4490, 2.335693
689.6060, 34.63306
690.7630, 94.80493
691.9200, 0.5568850
693.0760, 48.73132
694.2330, 11.25208
695.3890, 2.749390
696.5450, 31.62280
697.7010, 42.51611
698.8570, 29.53699
700.0130, 10.20300
701.1680, 41.95569
702.3230, 12.30225
703.4780, 48.60901
704.6330, 25.76172
705.7880, 69.49426
706.9430, 101.0045
708.0970, 88.60437
709.2520, 53.79224
710.4060, 48.68701
711.5600, 57.32605
712.7140, 62.38000
713.8670, 63.26367
715.0210, 74.71313
716.1740, 73.38110
717.3270, 88.46851
718.4800, 153.1564
719.6330, 86.02405
720.7860, 145.7106
721.9380, 130.5225
723.0910, 136.9929
724.2430, 166.3400
725.3950, 162.2316
726.5470, 158.6531
727.6980, 158.9709
728.8500, 136.5723
730.0010, 163.0730
731.1530, 176.3115
732.3040, 141.1145
733.4550, 203.9702
734.6050, 215.8324
735.7560, 239.7180
736.9060, 250.6089
738.0560, 270.4626
739.2060, 329.2856
740.3560, 295.1212
741.5060, 332.9978
742.6560, 391.8884
743.8050, 410.7793
744.9540, 395.6702
746.1030, 456.5618
747.2520, 543.4539
748.4010, 557.3428
749.5500, 634.2257
750.6980, 720.1099
751.8460, 809.9664
752.9950, 906.8582
754.1420, 1077.767
755.2900, 1168.677
756.4380, 1409.591
757.5850, 1588.507
758.7330, 1750.429
759.8800, 2030.232
761.0270, 2263.135
762.1730, 2474.076
763.3200, 2650.839
764.4670, 2709.786
765.6130, 2725.690
766.7590, 2667.586
767.9050, 2553.473
769.0510, 2398.231
770.1960, 2189.147
771.3420, 2019.238
772.4870, 1969.223
773.6320, 1806.033
774.7770, 1857.013
775.9220, 1789.902
777.0670, 1867.808
778.2110, 1869.846
779.3560, 2014.880
780.5000, 2135.809
781.6440, 2325.881
782.7880, 2448.799
783.9320, 2622.904
785.0750, 2714.003
786.2180, 2922.125
787.3620, 3068.270
788.5050, 3061.419
789.6480, 3197.395
790.7900, 3384.456
791.9330, 3738.650
793.0750, 4146.858
794.2170, 4775.173
795.3590, 5677.417
796.5010, 7113.618
797.6430, 9046.369
798.7850, 11388.62
799.9260, 14439.72
801.0670, 17968.04
802.2080, 22234.20
803.3490, 27424.56
804.4900, 33057.94
805.6310, 38009.96
806.7710, 41702.32
807.9110, 44048.76
809.0510, 45445.98
810.1910, 47679.57
811.3310, 49318.05
812.4710, 51144.54
813.6100, 52192.04
814.7490, 51902.87
815.8880, 49089.37
817.0270, 43900.30
818.1660, 37633.84
819.3050, 31275.41
820.4430, 25322.88
821.5820, 20720.48
822.7200, 17190.11
823.8580, 14170.55
824.9950, 11774.22
826.1330, 10204.88
827.2710, 8700.574
828.4080, 7831.295
829.5450, 6829.024
830.6820, 6111.776
831.8190, 5486.379
832.9560, 5086.153
834.0920, 4660.939
835.2280, 4219.732
836.3650, 3974.541
837.5010, 3634.365
838.6360, 3309.205
839.7720, 3190.064
840.9080, 3074.940
842.0430, 2770.833
843.1780, 2571.736
844.3130, 2497.650
845.4480, 2335.584
846.5830, 2172.535
847.7170, 2161.497
848.8520, 2052.473
849.9860, 1896.463
851.1200, 1713.463
852.2540, 1690.474
853.3870, 1600.496
854.5210, 1563.531
855.6540, 1385.578
856.7880, 1288.634
857.9210, 1210.704
859.0540, 1141.786
860.1860, 1077.037
861.3190, 1031.988
862.4510, 974.1067
863.5840, 936.2422
864.7160, 894.3899
865.8480, 849.5488
866.9790, 763.7236
868.1110, 753.9163
869.2420, 710.1600
870.3740, 708.3777
871.5050, 702.1249
872.6360, 626.5979
873.7660, 593.8444
874.8970, 584.1011
876.0280, 530.5553
877.1580, 546.8315
878.2880, 470.1173
879.4180, 533.4126
880.5480, 513.7173
881.6770, 481.0332
882.8070, 530.3569
883.9360, 477.6902
885.0650, 386.0327
886.1940, 413.4045
887.3230, 407.7673
888.4520, 367.4412
889.5800, 355.6936
890.7090, 339.0848
891.8370, 272.1012
892.9650, 285.5109
894.0930, 316.5466
895.2200, 275.1123
896.3480, 293.0474
897.4750, 254.3337
898.6020, 263.7896
899.7290, 230.2593
900.8560, 201.7355
901.9830, 235.1725
903.1090, 181.6672
904.2360, 223.8755
905.3620, 121.3890
906.4880, 133.9115
907.6140, 108.4990
908.7400, 168.0427
909.8650, 85.96399
910.9900, 116.0558
912.1160, 131.8134
913.2410, 125.1799
914.3660, 232.1509
915.4900, 178.7933
916.6150, 251.7318
917.7390, 239.5853
918.8640, 198.3066
919.9880, 218.9347
921.1120, 277.5707
922.2350, 171.2228
923.3590, 196.8733
924.4820, 128.5487
925.6060, 116.2146
926.7290, 44.18384
927.8520, 50.44568
928.9740, 69.56494
930.0970, 26.50574
931.2190, 55.21521
932.3420, 40.36499
933.4640, 50.09558
934.5860, 7.832886
935.7080, 68.55701
936.8290, 79.55200
937.9510, 2.192505
939.0720, 25.96033
940.1930, 5.871704
941.3140, 4.652710
942.4350, 55.43945
943.5560, 19.13245
944.6760, 85.93127
945.7960, 61.72412
946.9170, 39.57019
948.0370, 38.38794
949.1560, 68.21313
950.2760, 71.04407
951.3960, 89.34106
952.5150, 63.82178
953.6340, 67.29236
954.7530, 80.14856
955.8720, 97.00977
956.9910, 55.26160
958.1090, 52.13062
959.2280, 78.37817
960.3460, 4.407471
961.4640, 86.28857
962.5820, 65.93018
963.6990, 99.81763
964.8170, 66.70837
965.9340, 72.60205
967.0510, 22.52893
968.1690, 10.69373
969.2850, 26.59656
970.4020, 62.76147
971.5190, 59.66943
972.6350, 26.72974
973.7510, 56.64233
974.8670, 28.21680
975.9830, 12.13379
977.0990, 20.05249
978.2150, 75.97314
979.3300, 49.89551
980.4450, 44.81958
981.5600, 56.74500
982.6750, 18.69165
983.7900, 70.62463
984.9050, 36.55420
986.0190, 64.48511
987.1340, 8.417114
988.2480, 21.35022
989.3620, 55.28418
990.4750, 74.21912
991.5890, 76.58875
992.7020, 48.09106
993.8160, 57.02808
994.9290, 66.96606
996.0420, 16.90393
997.1550, 20.89832
998.2670, 82.83691
999.3800, 25.77563
1000.492, 26.71448
1001.604, 24.78967
1002.716, 2.151123
1003.828, 38.82532
1004.940, 35.23694
1006.051, 30.31348
1007.163, 58.59814
1008.274, 39.50940
1009.385, 7.571655
1010.496, 46.33618
1011.606, 6.243164
1012.717, 19.14941
1013.827, 28.05469
1014.937, 0.9591060
1016.047, 6.862305
1017.157, 10.76428
1018.267, 30.66504
1019.377, 0.1933590
1020.486, 14.70459
1021.595, 8.398926
1022.704, 34.50708
1023.813, 54.36670
1024.922, 13.76123
1026.030, 91.10303
1027.139, 13.03442
1028.247, 3.179688
1029.355, 26.32861
1030.463, 15.49292
1031.571, 4.332886
1032.678, 1.536499
1033.786, 24.35779
1034.893, 15.82312
1036.000, 27.98462
1037.107, 11.20996
1038.214, 23.67554
1039.321, 13.46912
1040.427, 15.73596
1041.533, 5.046875
1042.639, 4.173218
1043.745, 6.425903
1044.851, 0.6350100
1045.957, 9.875244
1047.062, 3.126099
1048.168, 13.38403
1049.273, 17.65479
1050.378, 5.9326001E-02
1051.482, 2.767334
1052.587, 25.47034
1053.692, 9.169922
1054.796, 7.865967
1055.900, 22.55835
1057.004, 7.247070
1058.108, 12.93164
1059.212, 14.38757
1060.315, 2.722168
1061.418, 6.4696997E-02
1062.522, 3.584351
1063.625, 33.22705
1064.728, 15.13086
1065.830, 25.65662
1066.933, 40.27795
1068.035, 23.10498
1069.137, 5.490601
1070.239, 36.92090
1071.341, 63.63855
1072.443, 9.193359
1073.545, 42.74207
1074.646, 42.28638
1075.747, 20.16870
1076.848, 34.35486
1077.949, 5.126221
1079.050, 17.37952
1080.150, 41.88025
1081.251, 25.37622
1082.351, 41.86719
1083.451, 11.64685
1084.551, 14.17871
1085.651, 2.270020
1086.750, 46.70776
1087.850, 51.14038
1088.949, 7.567993
1090.048, 38.98645
1091.147, 8.399780
1092.246, 5.195801
1093.345, 47.19312
1094.443, 30.42334
1095.541, 36.93115
1096.639, 57.28040
1097.737, 40.62427
1098.835, 26.96252
1099.933, 13.29517
1101.030, 62.61963
1102.128, 13.93872
1103.225, 47.25134
1104.322, 3.441772
1105.419, 38.84937
1106.515, 5.135010
1107.612, 71.40894
1108.708, 52.67761
1109.804, 39.94055
1110.900, 86.19788
1111.996, 51.44946
1113.092, 63.69519
1114.187, 34.93518
1115.283, 38.86719
1116.378, 41.28821
1117.473, 46.61938
1118.568, 63.83582
1119.662, 71.04639
1120.757, 79.55286
1121.851, 76.44958
1122.946, 83.64233
1124.040, 81.82935
1125.134, 59.01062
1126.227, 43.18604
1127.321, 105.3562
1128.414, 31.52014
1129.508, 69.67773
1130.601, 69.82935
1131.693, 57.97485
1132.786, 25.11438
1133.879, 26.24658
1134.971, 36.33557
1136.064, 122.4543
1137.156, 56.06433
1138.248, 81.93640
1139.339, 48.03845
1140.431, 42.13477
1141.522, 73.03735
1142.614, 57.12207
1143.705, 100.2008
1144.796, 110.2737
1145.887, 119.3407
1146.977, 91.39990
1148.068, 83.45508
1149.158, 55.50415
1150.248, 19.57007
1151.338, 85.58704
1152.428, 99.64172
1153.518, 48.36401
1154.607, 97.51099
1155.696, 51.52502
1156.785, 97.91760
1157.874, 114.9515
1158.963, 153.3315
1160.052, 53.18750
1161.141, 93.67822
1162.229, 112.8210
1163.317, 10.80176
1164.405, 86.82739
1165.493, 60.80127
1166.581, 131.8070
1167.668, 59.75903
1168.756, 24.00098
1169.843, 84.94153
1170.930, 58.78296
1172.017, 118.7128
1173.103, 72.63721
1174.190, 156.1880
1175.276, 99.57129
1176.363, 66.29248
1177.449, 55.40857
1178.535, 68.92297
1179.620, 84.76855
1180.706, 98.32202
1181.791, 97.60022
1182.877, 98.33813
1183.962, 84.61304
1185.047, 88.48047
1186.131, 65.33459
1187.216, 69.19287
1188.300, 58.02844
1189.385, 67.55896
1190.469, 63.42493
1191.553, 83.98303
1192.637, 108.3853
1193.720, 97.97656
1194.804, 64.60498
1195.887, 12.05920
1196.970, 50.87329
1198.053, 64.68274
1199.136, 92.50830
1200.219, 129.0648
1201.301, 76.98303
1202.383, 72.77539
1203.465, 86.42542
1204.547, 106.2094
1205.629, 77.19958
1206.711, 61.07727
1207.792, 90.84900
1208.874, 107.7458
1209.955, 94.52576
1211.036, 71.28564
1212.117, 72.03931
1213.198, 151.7915
1214.278, 86.07898
1215.359, 180.1910
1216.439, 75.31396
1217.519, 100.0520
1218.599, 100.7865
1219.678, 28.13086
1220.758, 106.8621
1221.837, 92.21606
1222.917, 99.80505
1223.996, 66.53638
1225.075, 100.5072
1226.153, 122.2322
1227.232, 102.9541
1228.310, 114.6110
1229.389, 80.35925
1230.467, 97.80762
1231.545, 92.51746
