##NAMES=Mimetite
##RRUFFID=R060920
##IDEAL CHEMISTRY=Pb^2+^_5_(As^5+^O_4_)_3_Cl
##LOCALITY=Tsumeb mine, Tsumeb, Otavi District, Oshikoto, Namibia
##OWNER=RRUFF
##SOURCE=Marcus Origlieri
##DESCRIPTION=Yellow to brownish hexagonal prism, monoclinic polytype
##STATUS=The identification of this mineral has been made only by X-ray diffraction.
##URL=rruff.info/R060920
##PIN_ID=L01165
##ORIENTATION=Laser parallel to -c* (0 0 -1). Fiducial mark perpendicular to laser is parallel to b [0 1 0]
91.91600, 0.0000000E+00
93.15500, 19.44141
94.39300, 253.6421
95.63100, 579.5840
96.86900, 1003.844
98.10600, 1395.508
99.34400, 1652.866
100.5810, 1856.365
101.8190, 2048.794
103.0560, 1969.414
104.2930, 2015.518
105.5290, 2041.052
106.7660, 2002.351
108.0020, 2206.051
109.2390, 2194.039
110.4750, 2132.402
111.7110, 1955.380
112.9460, 1892.396
114.1820, 1967.035
115.4170, 2141.954
116.6530, 2001.821
117.8880, 1975.229
119.1230, 1924.781
120.3580, 1991.145
121.5920, 1894.040
122.8270, 2013.231
124.0610, 1928.519
125.2950, 1865.729
126.5290, 1921.713
127.7630, 1948.342
128.9970, 2085.491
130.2300, 2040.016
131.4640, 2195.958
132.6970, 2284.375
133.9300, 2337.597
135.1630, 2393.318
136.3950, 2509.001
137.6280, 2615.051
138.8600, 2815.578
140.0920, 2908.527
141.3240, 2934.380
142.5560, 2941.604
143.7880, 3030.194
145.0190, 2917.149
146.2510, 2997.470
147.4820, 2772.149
148.7130, 2767.186
149.9440, 2750.580
151.1750, 2760.330
152.4050, 2723.437
153.6360, 2652.895
154.8660, 2528.706
156.0960, 2717.870
157.3260, 2625.384
158.5560, 2658.242
159.7850, 2471.439
161.0150, 2580.966
162.2440, 2599.818
163.4730, 2604.982
164.7020, 2400.455
165.9310, 2518.065
167.1590, 2422.405
168.3880, 2565.633
169.6160, 2565.455
170.8440, 2689.444
172.0720, 2532.834
173.3000, 2524.181
174.5280, 2597.106
175.7550, 2457.816
176.9820, 2583.011
178.2100, 2403.555
179.4370, 2531.443
180.6630, 2472.825
181.8900, 2393.665
183.1170, 2313.273
184.3430, 2321.474
185.5690, 2380.597
186.7950, 2274.665
188.0210, 2132.120
189.2470, 2095.169
190.4720, 2143.037
191.6970, 1984.031
192.9230, 2054.271
194.1480, 1942.751
195.3730, 1882.467
196.5970, 1878.416
197.8220, 1690.598
199.0460, 1533.012
200.2700, 1632.643
201.4940, 1379.484
202.7180, 1420.551
203.9420, 1301.823
205.1660, 1254.318
206.3890, 1148.074
207.6120, 1016.087
208.8350, 996.3301
210.0580, 1025.817
211.2810, 868.5322
212.5040, 918.4248
213.7260, 794.5127
214.9480, 860.8613
216.1700, 805.4443
217.3920, 742.3359
218.6140, 735.4404
219.8360, 657.7539
221.0570, 689.2695
222.2790, 584.0000
223.5000, 502.9170
224.7210, 565.9824
225.9410, 317.1738
227.1620, 488.4824
228.3820, 370.9082
229.6030, 421.4941
230.8230, 296.2139
232.0430, 426.0459
233.2630, 359.9805
234.4820, 311.0449
235.7020, 194.2314
236.9210, 242.5312
238.1400, 213.9297
239.3590, 186.8135
240.5780, 113.6924
241.7970, 86.31152
243.0150, 64.21875
244.2340, 23.59375
245.4520, 45.93359
246.6700, 52.66113
247.8880, 18.70215
249.1060, 47.35449
250.3230, 30.75391
251.5400, 28.57715
252.7580, 127.8545
253.9750, 154.6689
255.1920, 209.0664
256.4080, 57.07617
257.6250, 93.71973
258.8410, 86.01074
260.0580, 89.98438
261.2740, 93.66211
262.4900, 107.0576
263.7050, 147.1963
264.9210, 133.1084
266.1360, 253.8037
267.3520, 277.3154
268.5670, 166.6592
269.7820, 76.82324
270.9960, 44.81250
272.2110, 85.63281
273.4250, 118.2959
274.6400, 93.80957
275.8540, 183.1855
277.0680, 222.4355
278.2810, 170.5791
279.4950, 214.6152
280.7090, 68.55762
281.9220, 86.39453
283.1350, 149.1348
284.3480, 163.7988
285.5610, 17.39648
286.7730, 64.08789
287.9860, 28.66406
289.1980, 94.32129
290.4100, 73.07129
291.6220, 211.9004
292.8340, 262.8057
294.0460, 256.7871
295.2570, 373.8418
296.4690, 632.9697
297.6800, 699.1680
298.8910, 826.4395
300.1020, 1142.780
301.3120, 1194.188
302.5230, 1301.951
303.7330, 1419.483
304.9440, 1499.075
306.1540, 1615.729
307.3630, 1689.111
308.5730, 1792.208
309.7830, 1793.028
310.9920, 1878.918
312.2010, 1839.131
313.4100, 1739.107
314.6190, 1714.310
315.8280, 1604.669
317.0370, 1574.712
318.2450, 1509.583
319.4530, 1441.385
320.6610, 1312.952
321.8690, 1317.376
323.0770, 1275.157
324.2850, 1221.698
325.4920, 1346.630
326.6990, 1197.761
327.9060, 1448.267
329.1130, 1489.836
330.3200, 1613.457
331.5270, 1811.416
332.7330, 1817.057
333.9390, 1878.900
335.1450, 1840.124
336.3510, 1881.190
337.5570, 1888.516
338.7630, 1838.897
339.9680, 1858.223
341.1740, 1900.834
342.3790, 1871.939
343.5840, 1637.106
344.7890, 1675.118
345.9930, 1491.149
347.1980, 1337.857
348.4020, 1274.988
349.6060, 1108.859
350.8100, 1001.639
352.0140, 963.9404
353.2180, 910.3643
354.4210, 935.1221
355.6250, 854.9453
356.8280, 839.8252
358.0310, 818.0703
359.2340, 808.6484
360.4360, 945.3037
361.6390, 1179.911
362.8410, 1280.379
364.0430, 1354.630
365.2450, 1303.239
366.4470, 1563.705
367.6490, 1553.694
368.8510, 1691.765
370.0520, 1768.215
371.2530, 1619.934
372.4540, 1706.653
373.6550, 1663.540
374.8560, 1406.960
376.0560, 1340.234
377.2570, 1194.384
378.4570, 1023.573
379.6570, 929.7275
380.8570, 732.6191
382.0570, 717.6973
383.2560, 605.4990
384.4560, 573.1328
385.6550, 736.4443
386.8540, 628.6924
388.0530, 781.6445
389.2520, 792.8691
390.4510, 708.9648
391.6490, 787.3340
392.8470, 650.1211
394.0450, 722.9346
395.2430, 708.8701
396.4410, 768.7002
397.6390, 725.6328
398.8360, 681.6924
400.0340, 742.0566
401.2310, 781.4121
402.4280, 932.1738
403.6250, 868.3535
404.8210, 922.6865
406.0180, 961.6670
407.2140, 916.0693
408.4100, 1129.146
409.6060, 1150.588
410.8020, 1199.924
411.9980, 1208.853
413.1930, 1279.037
414.3890, 1325.056
415.5840, 1413.196
416.7790, 1344.437
417.9740, 1538.562
419.1680, 1628.778
420.3630, 1574.534
421.5570, 1607.521
422.7510, 1315.055
423.9450, 1321.633
425.1390, 1157.746
426.3330, 1092.549
427.5270, 938.2568
428.7200, 890.3838
429.9130, 740.6152
431.1060, 840.7031
432.2990, 613.0469
433.4920, 458.1455
434.6840, 660.5488
435.8770, 361.9395
437.0690, 426.3184
438.2610, 313.6836
439.4530, 319.2490
440.6450, 249.7500
441.8360, 389.9961
443.0280, 237.0703
444.2190, 282.4111
445.4100, 44.07812
446.6010, 234.3232
447.7920, 181.6064
448.9820, 171.6572
450.1730, 193.2178
451.3630, 176.3906
452.5530, 130.5449
453.7430, 59.67773
454.9330, 95.78223
456.1230, 145.1426
457.3120, 105.4736
458.5010, 53.51074
459.6910, 67.51270
460.8800, 15.48340
462.0680, 34.59180
463.2570, 43.26074
464.4460, 6.075195
465.6340, 45.83691
466.8220, 26.55957
468.0100, 17.23828
469.1980, 25.13281
470.3860, 27.42676
471.5730, 53.94141
472.7600, 91.41992
473.9480, 73.86816
475.1350, 24.28125
476.3210, 45.64941
477.5080, 59.02441
478.6950, 37.78613
479.8810, 36.37500
481.0670, 57.34961
482.2530, 123.3232
483.4390, 7.416992
484.6250, 2.422852
485.8100, 2.580078
486.9960, 10.70312
488.1810, 27.94531
489.3660, 14.66504
490.5510, 43.79492
491.7360, 13.65918
492.9200, 18.94629
494.1050, 55.37500
495.2890, 28.34961
496.4730, 126.8467
497.6570, 77.01172
498.8400, 124.1357
500.0240, 64.22949
501.2070, 155.2783
502.3910, 89.29883
503.5740, 160.4277
504.7570, 62.38086
505.9400, 15.28809
507.1220, 8.516602
508.3050, 104.2959
509.4870, 50.03906
510.6690, 129.8174
511.8510, 109.0547
513.0330, 98.67676
514.2140, 183.5361
515.3960, 27.56934
516.5770, 41.06348
517.7580, 80.62500
518.9390, 50.13184
520.1200, 85.55469
521.3010, 87.68164
522.4810, 99.34180
523.6610, 142.7930
524.8420, 105.4961
526.0220, 124.1660
527.2010, 148.6748
528.3810, 102.9336
529.5610, 75.95410
530.7400, 67.39941
531.9190, 43.31836
533.0980, 164.1836
534.2770, 142.3838
535.4560, 0.1787110
536.6340, 166.2988
537.8120, 25.46777
538.9910, 241.2725
540.1690, 200.0566
541.3460, 68.63184
542.5240, 171.2246
543.7020, 16.74219
544.8790, 124.2021
546.0560, 108.6299
547.2330, 35.02148
548.4100, 75.45312
549.5870, 191.8623
550.7630, 125.3018
551.9400, 165.5605
553.1160, 128.9814
554.2920, 76.49609
555.4680, 257.8584
556.6440, 207.0576
557.8190, 164.2256
558.9950, 101.6289
560.1700, 260.7490
561.3450, 92.83594
562.5200, 165.8984
563.6950, 193.9551
564.8690, 135.0010
566.0440, 192.0361
567.2180, 164.0439
568.3920, 284.0254
569.5660, 232.9961
570.7400, 372.9590
571.9130, 103.8906
573.0870, 285.7725
574.2600, 58.62012
575.4330, 264.4229
576.6060, 290.1729
577.7790, 277.8877
578.9520, 295.5664
580.1240, 219.2100
581.2960, 225.8145
582.4690, 152.3809
583.6410, 164.9043
584.8120, 248.3857
585.9840, 200.8311
587.1560, 293.9434
588.3270, 248.3135
589.4980, 158.6484
590.6690, 203.9404
591.8400, 280.1953
593.0110, 305.4141
594.1810, 352.5977
595.3510, 346.7285
596.5220, 214.5527
597.6920, 215.6299
598.8610, 278.4980
600.0310, 299.2080
601.2010, 364.2432
602.3700, 380.4541
603.5390, 337.9287
604.7080, 502.1123
605.8770, 280.6572
607.0460, 335.8184
608.2140, 497.1797
609.3830, 428.0723
610.5510, 404.6699
611.7190, 275.8809
612.8870, 402.9922
614.0550, 285.0020
615.2220, 261.5898
616.3900, 409.4385
617.5570, 393.0381
618.7240, 448.2236
619.8910, 233.5801
621.0580, 178.6943
622.2240, 239.7646
623.3910, 301.9053
624.5570, 274.7744
625.7230, 122.1602
626.8890, 287.4941
628.0550, 252.9941
629.2200, 149.4824
630.3860, 298.3008
631.5510, 203.7051
632.7160, 255.3740
633.8810, 263.1416
635.0460, 220.3887
636.2100, 244.2783
637.3750, 189.3164
638.5390, 232.0508
639.7030, 204.3174
640.8670, 181.0381
642.0310, 231.0166
643.1950, 107.9131
644.3580, 156.8555
645.5210, 251.9297
646.6850, 66.21680
647.8480, 270.1357
649.0100, 293.1914
650.1730, 107.7158
651.3350, 33.14746
652.4980, 154.1885
653.6600, 65.95020
654.8220, 40.69922
655.9840, 136.2656
657.1450, 87.28906
658.3070, 87.45117
659.4680, 124.7324
660.6300, 97.96680
661.7910, 51.22168
662.9510, 52.72461
664.1120, 18.02539
665.2730, 123.4170
666.4330, 0.6562500
667.5930, 53.48340
668.7530, 231.7305
669.9130, 14.30957
671.0730, 133.6621
672.2320, 100.3047
673.3920, 20.50781
674.5510, 208.3643
675.7100, 11.24023
676.8690, 74.62598
678.0280, 43.63672
679.1860, 120.0449
680.3450, 138.1904
681.5030, 59.19141
682.6610, 144.1045
683.8190, 167.5059
684.9770, 116.6699
686.1340, 129.5391
687.2920, 34.42383
688.4490, 27.72363
689.6060, 62.21289
690.7630, 70.88086
691.9200, 9.563477
693.0760, 131.3174
694.2330, 10.59961
695.3890, 120.7051
696.5450, 135.6426
697.7010, 6.904297
698.8570, 34.49805
700.0130, 43.56055
701.1680, 170.7539
702.3230, 86.15137
703.4780, 78.86523
704.6330, 63.80566
705.7880, 105.4805
706.9430, 214.8018
708.0970, 165.8223
709.2520, 342.7842
710.4060, 177.7881
711.5600, 145.1299
712.7140, 268.1182
713.8670, 10.41504
715.0210, 286.3887
716.1740, 179.3555
717.3270, 213.3145
718.4800, 302.2686
719.6330, 213.0010
720.7860, 112.7764
721.9380, 297.8271
723.0910, 154.0254
724.2430, 359.9365
725.3950, 365.5000
726.5470, 285.4629
727.6980, 373.3633
728.8500, 347.4746
730.0010, 412.0547
731.1530, 431.9980
732.3040, 422.9395
733.4550, 436.5674
734.6050, 425.8154
735.7560, 449.5039
736.9060, 423.1982
738.0560, 512.1650
739.2060, 470.1348
740.3560, 572.1074
741.5060, 616.0898
742.6560, 729.0996
743.8050, 724.1133
744.9540, 832.1494
746.1030, 898.2012
747.2520, 945.2637
748.4010, 1054.726
749.5500, 1160.432
750.6980, 1236.539
751.8460, 1345.652
752.9950, 1424.769
754.1420, 1751.889
755.2900, 2243.021
756.4380, 2578.165
757.5850, 2820.340
758.7330, 3316.543
759.8800, 3673.605
761.0270, 4457.875
762.1730, 4843.194
763.3200, 5261.535
764.4670, 5641.518
765.6130, 5635.898
766.7590, 5680.301
767.9050, 5551.598
769.0510, 5243.031
770.1960, 4999.498
771.3420, 4868.982
772.4870, 4694.492
773.6320, 4642.014
774.7770, 4532.564
775.9220, 4583.700
777.0670, 4636.578
778.2110, 4794.262
779.3560, 4954.846
780.5000, 5158.434
781.6440, 5518.882
782.7880, 5791.480
783.9320, 5949.092
785.0750, 6504.340
786.2180, 6536.992
787.3620, 6784.652
788.5050, 7169.244
789.6480, 7111.346
790.7900, 7505.031
791.9330, 7527.453
793.0750, 8004.673
794.2170, 8901.546
795.3590, 10358.60
796.5010, 12247.71
797.6430, 14592.93
798.7850, 17473.65
799.9260, 20656.18
801.0670, 24419.75
802.2080, 28045.03
803.3490, 31612.69
804.4900, 34649.75
805.6310, 37516.38
806.7710, 38873.25
807.9110, 38708.38
809.0510, 37298.27
810.1910, 35088.17
811.3310, 32292.74
812.4710, 29428.67
813.6100, 26964.25
814.7490, 24540.98
815.8880, 21841.86
817.0270, 18771.53
818.1660, 15968.56
819.3050, 13362.55
820.4430, 11156.73
821.5820, 9193.797
822.7200, 7741.989
823.8580, 6460.082
824.9950, 5522.791
826.1330, 4823.811
827.2710, 4274.789
828.4080, 3858.033
829.5450, 3576.023
830.6820, 3200.027
831.8190, 3042.067
832.9560, 2751.254
834.0920, 2583.448
835.2280, 2435.405
836.3650, 2170.611
837.5010, 2025.836
838.6360, 1882.075
839.7720, 1990.324
840.9080, 1743.714
842.0430, 1631.984
843.1780, 1687.388
844.3130, 1516.837
845.4480, 1574.155
846.5830, 1391.480
847.7170, 1362.812
848.8520, 1269.176
849.9860, 1262.703
851.1200, 1271.077
852.2540, 1138.473
853.3870, 1102.875
854.5210, 1061.327
855.6540, 996.4229
856.7880, 970.0352
857.9210, 952.5283
859.0540, 867.9697
860.1860, 889.4209
861.3190, 751.9551
862.4510, 763.0684
863.5840, 661.5391
864.7160, 800.0410
865.8480, 731.6152
866.9790, 685.1113
868.1110, 608.6113
869.2420, 747.1191
870.3740, 612.6328
871.5050, 679.6260
872.6360, 571.3496
873.7660, 618.9902
874.8970, 567.9980
876.0280, 591.2930
877.1580, 513.8428
878.2880, 541.0801
879.4180, 584.6396
880.5480, 495.8760
881.6770, 558.3213
882.8070, 451.8955
883.9360, 495.4854
885.0650, 494.0801
886.1940, 543.6797
887.3230, 481.3789
888.4520, 468.8369
889.5800, 311.5986
890.7090, 371.3350
891.8370, 271.9541
892.9650, 201.5781
894.0930, 282.2051
895.2200, 384.6445
896.3480, 212.3623
897.4750, 332.2979
898.6020, 313.9482
899.7290, 282.6006
900.8560, 426.2578
901.9830, 231.9160
903.1090, 269.5781
904.2360, 267.2412
905.3620, 429.9062
906.4880, 370.4541
907.6140, 259.2441
908.7400, 266.9150
909.8650, 224.5879
910.9900, 30.45020
912.1160, 366.8164
913.2410, 352.6797
914.3660, 252.3701
915.4900, 365.0938
916.6150, 272.7871
917.7390, 330.4814
918.8640, 290.1777
919.9880, 339.8740
921.1120, 366.5723
922.2350, 331.4297
923.3590, 303.1299
924.4820, 266.5693
925.6060, 197.5312
926.7290, 152.2344
927.8520, 62.93848
928.9740, 7.356445
930.0970, 41.65234
931.2190, 41.92285
932.3420, 38.72852
933.4640, 27.37207
934.5860, 28.72363
935.7080, 88.38379
936.8290, 125.0439
937.9510, 74.70703
939.0720, 31.04883
940.1930, 81.80664
941.3140, 53.07031
942.4350, 72.77148
943.5560, 62.88867
944.6760, 64.54785
945.7960, 52.35156
946.9170, 210.0088
948.0370, 110.6621
949.1560, 4.683594
950.2760, 175.9814
951.3960, 67.35449
952.5150, 87.30176
953.6340, 163.9570
954.7530, 22.39258
955.8720, 83.26172
956.9910, 69.08887
958.1090, 83.51953
959.2280, 188.8730
960.3460, 111.6357
961.4640, 89.14062
962.5820, 6.651367
963.6990, 126.1592
964.8170, 7.681641
965.9340, 186.2119
967.0510, 33.83398
968.1690, 162.3564
969.2850, 26.87305
970.4020, 142.3877
971.5190, 103.8975
972.6350, 127.4033
973.7510, 152.9043
974.8670, 46.45996
975.9830, 80.16113
977.0990, 12.75977
978.2150, 13.78711
979.3300, 115.9512
980.4450, 85.38867
981.5600, 211.8203
982.6750, 136.4844
983.7900, 20.90527
984.9050, 106.3193
986.0190, 156.7266
987.1340, 210.1270
988.2480, 42.52441
989.3620, 171.9131
990.4750, 33.29492
991.5890, 127.3164
992.7020, 82.99316
993.8160, 159.2949
994.9290, 38.59180
996.0420, 4.879883
997.1550, 76.15527
998.2670, 53.42383
999.3800, 38.68457
1000.492, 76.93848
1001.604, 91.18555
1002.716, 66.42480
1003.828, 112.6572
1004.940, 101.1172
1006.051, 28.03613
1007.163, 39.18066
1008.274, 26.31738
1009.385, 205.4443
1010.496, 193.5664
1011.606, 9.678711
1012.717, 128.7783
1013.827, 6.129883
1014.937, 9.062500
1016.047, 106.9814
1017.157, 155.4395
1018.267, 161.4668
1019.377, 111.4863
1020.486, 49.49707
1021.595, 135.4990
1022.704, 236.5244
1023.813, 46.51074
1024.922, 122.4883
1026.030, 184.4561
1027.139, 118.4160
1028.247, 3.630859
1029.355, 23.70508
1030.463, 30.02930
1031.571, 93.91016
1032.678, 165.7812
1033.786, 184.3848
1034.893, 205.7871
1036.000, 196.3418
1037.107, 159.1797
1038.214, 101.0059
1039.321, 121.8242
1040.427, 90.63477
1041.533, 125.4375
1042.639, 89.22656
1043.745, 50.31250
1044.851, 24.08789
1045.957, 51.10352
1047.062, 168.5879
1048.168, 79.32617
1049.273, 228.0527
1050.378, 141.7715
1051.482, 268.4805
1052.587, 210.1797
1053.692, 177.8711
1054.796, 54.55078
1055.900, 190.2207
1057.004, 199.8809
1058.108, 279.5332
1059.212, 274.1758
1060.315, 101.8066
1061.418, 228.4297
1062.522, 150.8887
1063.625, 125.0156
1064.728, 328.0938
1065.830, 209.3047
1066.933, 4.880859
1068.035, 180.4316
1069.137, 95.97461
1070.239, 115.5078
1071.341, 27.03125
1072.443, 72.53906
1073.545, 105.0371
1074.646, 79.52344
1075.747, 209.2441
1076.848, 218.7129
1077.949, 82.83008
1079.050, 90.56055
1080.150, 123.9395
1081.251, 422.6406
1082.351, 472.7090
1083.451, 287.0625
1084.551, 355.2285
1085.651, 420.5625
1086.750, 353.8867
1087.850, 437.7168
1088.949, 396.0215
1090.048, 159.2148
1091.147, 178.5137
1092.246, 96.11328
1093.345, 114.3926
1094.443, 205.6641
1095.541, 212.8262
1096.639, 65.08008
1097.737, 173.8105
1098.835, 47.04492
1099.933, 184.2734
1101.030, 93.49219
1102.128, 214.6836
1103.225, 93.88672
1104.322, 95.08008
1105.419, 135.2617
1106.515, 38.43945
1107.612, 33.47266
1108.708, 35.62891
1109.804, 100.6523
1110.900, 61.37109
1111.996, 263.2832
1113.092, 189.3613
1114.187, 43.57227
1115.283, 148.4531
1116.378, 245.3145
1117.473, 364.3262
1118.568, 190.3320
1119.662, 278.3281
1120.757, 146.2715
1121.851, 230.2559
1122.946, 201.0957
1124.040, 187.8359
1125.134, 191.7988
1126.227, 162.7539
1127.321, 105.6211
1128.414, 196.9121
1129.508, 85.84375
1130.601, 208.7461
1131.693, 173.5762
1132.786, 59.48633
1133.879, 69.38867
1134.971, 62.28711
1136.064, 116.1758
1137.156, 253.5840
1138.248, 90.25977
1139.339, 70.02148
1140.431, 255.6621
1141.522, 223.8750
1142.614, 189.7266
1143.705, 179.8828
1144.796, 232.7188
1145.887, 53.88086
1146.977, 112.8340
1148.068, 23.34766
1149.158, 123.4492
1150.248, 74.24023
1151.338, 120.0254
1152.428, 147.7070
1153.518, 34.48242
1154.607, 159.2500
1155.696, 243.8906
1156.785, 119.6445
1157.874, 143.4062
1158.963, 127.1621
1160.052, 114.1035
1161.141, 17.23633
1162.229, 97.19727
1163.317, 187.9160
1164.405, 116.6309
1165.493, 298.3398
1166.581, 40.04297
1167.668, 199.7441
1168.756, 76.43750
1169.843, 228.1270
1170.930, 197.8125
1172.017, 314.4941
1173.103, 82.17188
1174.190, 42.15625
1175.276, 184.3086
1176.363, 109.2695
1177.449, 78.72852
1178.535, 328.3574
1179.620, 115.9492
1180.706, 342.5684
1181.791, 189.1836
1182.877, 149.7949
1183.962, 93.40430
1185.047, 46.12891
1186.131, 44.45117
1187.216, 61.04883
1188.300, 149.6426
1189.385, 269.2344
1190.469, 394.8223
1191.553, 158.4062
1192.637, 204.9863
1193.720, 48.56445
1194.804, 270.1465
1195.887, 171.7344
1196.970, 251.3262
1198.053, 154.2266
1199.136, 120.8125
1200.219, 52.39453
1201.301, 167.9746
1202.383, 260.9023
1203.465, 217.4160
1204.547, 267.6504
1205.629, 172.5254
1206.711, 198.1113
1207.792, 153.6934
1208.874, 17.12891
1209.955, 308.7051
1211.036, 1.714844
1212.117, 207.8574
1213.198, 135.4277
1214.278, 9.000000
1215.359, 202.5801
1216.439, 32.15820
1217.519, 58.26562
1218.599, 287.2852
1219.678, 31.35547
1220.758, 167.9219
1221.837, 189.4863
1222.917, 146.0977
1223.996, 273.7129
1225.075, 100.3242
1226.153, 185.9375
1227.232, 7.472656
1228.310, 255.1328
1229.389, 117.6387
1230.467, 147.2422
1231.545, 198.8457
1232.622, 210.4492
1233.700, 157.0488
1234.777, 337.6523
1235.855, 79.25781
1236.932, 207.7227
1238.009, 414.1816
1239.086, 118.6602
1240.162, 171.2793
1241.239, 29.40039
1242.315, 156.2109
1243.391, 120.8203
1244.467, 154.7949
1245.543, 154.9238
1246.619, 125.8965
1247.694, 298.1504
1248.769, 102.7676
1249.844, 67.38281
1250.919, 123.1738
1251.994, 53.20703
1253.069, 12.61328
1254.144, 121.0156
1255.218, 179.6445
1256.292, 203.2734
1257.366, 257.5645
1258.440, 251.4102
1259.514, 225.4590
1260.587, 216.0977
1261.661, 199.8730
1262.734, 171.8477
1263.807, 123.0312
1264.880, 141.6797
1265.952, 7.328125
1267.025, 36.01172
1268.097, 4.699219
1269.170, 109.3887
1270.242, 7.919922
1271.314, 112.7734
1272.385, 122.4668
1273.457, 194.3906
1274.528, 110.1309
1275.600, 257.1309
