##NAMES=Mimetite
##RRUFFID=R050007
##IDEAL CHEMISTRY=Pb^2+^_5_(As^5+^O_4_)_3_Cl
##LOCALITY=Pingtouling, Guangdong, China
##OWNER=RRUFF
##SOURCE=Eugene Schlepp
##DESCRIPTION=Reddish orange colored hexagonal prisms
##STATUS=The identification of this mineral has been confirmed by X-ray diffraction and chemical analysis
##URL=rruff.info/R050007
##MEASURED CHEMISTRY=Pb_5.00_((As_0.99_P_0.01_)O_4_)_3_Cl_1.00_
##PIN_ID=L00370
##ORIENTATION=Laser parallel to a* (1 0 0). Fiducial mark perpendicular to laser is parallel to c [0 0 1]
48.666, 0.000
50.068, 32.185
51.471, 8.354
52.873, 2.344
54.275, 46.286
55.677, 31.970
57.079, 98.502
58.480, 148.885
59.882, 274.476
61.283, 222.543
62.683, 351.978
64.084, 425.690
65.484, 414.549
66.884, 443.062
68.284, 310.155
69.684, 162.764
71.083, 78.832
72.482, 60.312
73.881, 19.766
75.280, 28.362
76.678, 31.073
78.076, 3.153
79.474, 119.077
80.872, 79.580
82.270, 58.325
83.667, 157.285
85.064, 364.439
86.461, 637.769
87.858, 793.261
89.254, 1189.901
90.650, 1411.680
92.046, 1842.583
93.442, 2032.601
94.838, 2324.723
96.233, 2811.941
97.628, 3450.266
99.023, 4355.690
100.418, 5049.260
101.812, 5616.115
103.206, 5824.320
104.600, 5802.878
105.994, 5634.481
107.387, 5385.086
108.781, 5191.696
110.174, 4955.309
111.566, 4727.930
112.959, 4636.559
114.351, 4381.199
115.744, 4400.849
117.136, 4109.512
118.527, 4053.188
119.919, 3792.880
121.310, 3856.588
122.701, 3665.315
124.092, 3653.059
125.482, 3465.824
126.873, 3458.610
128.263, 3474.418
129.653, 3384.252
131.042, 3490.113
132.432, 3344.992
133.821, 3413.863
135.210, 3344.726
136.599, 3364.590
137.987, 3364.461
139.376, 3325.339
140.764, 3352.225
142.152, 3362.641
143.539, 3429.032
144.927, 3436.952
146.314, 3549.808
147.701, 3632.726
149.088, 3611.663
150.474, 3676.282
151.861, 3697.034
153.247, 3789.520
154.633, 3779.465
156.018, 3944.768
157.404, 3990.019
158.789, 4128.827
160.174, 4211.560
161.559, 4331.250
162.943, 4533.966
164.327, 4589.706
165.711, 4795.464
167.095, 4955.245
168.479, 4975.045
169.862, 5096.863
171.246, 5159.700
172.628, 5102.553
174.011, 5052.423
175.394, 4984.309
176.776, 4903.214
178.158, 4699.136
179.540, 4633.082
180.922, 4510.044
182.303, 4249.030
183.684, 4128.037
185.065, 3877.063
186.446, 3715.111
187.826, 3455.181
189.207, 3300.277
190.587, 2942.397
191.967, 2853.543
193.346, 2593.711
194.726, 2323.906
196.105, 2143.126
197.484, 1982.376
198.862, 1867.644
200.241, 1707.944
201.619, 1551.272
202.997, 1438.627
204.375, 1324.010
205.753, 1214.425
207.130, 1144.880
208.507, 1066.391
209.884, 985.601
211.261, 861.577
212.638, 829.213
214.014, 763.871
215.390, 659.627
216.766, 630.411
218.141, 613.193
219.517, 519.840
220.892, 484.813
222.267, 460.839
223.642, 368.919
225.016, 350.043
226.391, 299.217
227.765, 289.396
229.139, 268.566
230.512, 183.780
231.886, 177.035
233.259, 174.331
234.632, 116.660
236.005, 149.025
237.377, 115.421
238.749, 46.843
240.122, 67.653
241.493, 86.135
242.865, 15.395
244.237, 33.083
245.608, 26.628
246.979, 6.192
248.350, 8.777
249.720, 9.383
251.090, 11.000
252.461, 21.373
253.830, 18.741
255.200, 6.105
256.570, 59.458
257.939, 14.808
259.308, 0.844
260.677, 41.497
262.045, 36.843
263.414, 38.192
264.782, 50.120
266.150, 46.712
267.517, 37.287
268.885, 35.674
270.252, 0.928
271.619, 41.527
272.986, 45.122
274.353, 36.714
275.719, 49.301
277.085, 100.885
278.451, 153.464
279.817, 191.038
281.182, 188.608
282.548, 221.173
283.913, 296.732
285.278, 318.285
286.642, 435.832
288.007, 459.373
289.371, 556.907
290.735, 679.434
292.099, 789.954
293.462, 948.467
294.826, 1159.971
296.189, 1418.690
297.552, 1737.028
298.914, 2073.519
300.277, 2462.056
301.639, 2883.700
303.001, 3278.446
304.363, 3717.132
305.724, 4177.946
307.086, 4628.646
308.447, 5186.408
309.808, 5585.218
311.168, 6008.142
312.529, 6340.086
313.889, 6537.857
315.249, 6426.809
316.609, 6231.855
317.969, 5791.619
319.328, 5416.439
320.687, 4968.650
322.046, 4674.452
323.405, 4429.739
324.764, 4321.693
326.122, 4280.146
327.480, 4311.960
328.838, 4482.782
330.196, 4516.335
331.553, 4818.041
332.910, 5044.341
334.267, 5209.342
335.624, 5418.582
336.981, 5433.379
338.337, 5579.340
339.693, 5587.178
341.049, 5443.026
342.405, 5253.978
343.760, 5031.556
345.116, 4813.343
346.471, 4330.654
347.826, 3976.701
349.180, 3666.458
350.535, 3269.114
351.889, 2929.902
353.243, 2602.588
354.597, 2348.783
355.950, 2150.831
357.304, 1918.352
358.657, 1769.712
360.010, 1652.603
361.362, 1553.719
362.715, 1490.253
364.067, 1486.704
365.419, 1476.322
366.771, 1477.055
368.123, 1569.394
369.474, 1601.467
370.825, 1635.344
372.176, 1618.151
373.527, 1590.332
374.877, 1575.511
376.228, 1452.825
377.578, 1408.452
378.928, 1361.586
380.277, 1309.969
381.627, 1314.692
382.976, 1281.437
384.325, 1374.441
385.674, 1395.659
387.023, 1422.646
388.371, 1473.846
389.719, 1549.321
391.067, 1514.638
392.415, 1575.237
393.762, 1524.272
395.110, 1554.659
396.457, 1525.368
397.804, 1607.860
399.150, 1676.769
400.497, 1806.378
401.843, 1974.751
403.189, 2279.107
404.535, 2531.262
405.881, 2692.794
407.226, 2913.203
408.571, 3013.951
409.916, 3026.823
411.261, 2922.876
412.605, 2744.174
413.950, 2472.038
415.294, 2252.322
416.638, 2115.659
417.981, 1946.420
419.325, 1815.333
420.668, 1792.801
422.011, 1742.726
423.354, 1666.699
424.697, 1623.831
426.039, 1560.719
427.381, 1457.688
428.723, 1312.800
430.065, 1230.428
431.406, 1101.142
432.748, 1017.766
434.089, 973.319
435.430, 860.835
436.770, 819.290
438.111, 712.684
439.451, 732.052
440.791, 631.391
442.131, 645.690
443.471, 538.009
444.810, 493.120
446.149, 477.273
447.488, 405.294
448.827, 389.361
450.166, 374.382
451.504, 273.320
452.842, 268.203
454.180, 239.093
455.518, 219.911
456.855, 218.696
458.193, 168.449
459.530, 183.169
460.867, 169.855
462.203, 142.509
463.540, 114.127
464.876, 129.711
466.212, 95.259
467.548, 119.771
468.883, 103.322
470.219, 88.762
471.554, 68.166
472.889, 64.532
474.224, 88.860
475.558, 60.152
476.892, 49.439
478.227, 74.653
479.561, 65.861
480.894, 34.027
482.228, 57.125
483.561, 27.183
484.894, 40.199
486.227, 20.175
487.559, 47.105
488.892, 44.997
490.224, 3.150
491.556, 51.648
492.888, 21.407
494.220, 31.142
495.551, 21.902
496.882, 7.532
498.213, 30.114
499.544, 5.654
500.874, 33.145
502.205, 2.595
503.535, 9.041
504.865, 32.393
506.194, 13.704
507.524, 0.967
508.853, 3.247
510.182, 4.411
511.511, 1.526
512.840, 2.603
514.168, 11.619
515.496, 4.291
516.824, 3.627
518.152, 10.503
519.480, 3.689
520.807, 7.927
522.134, 31.218
523.461, 30.575
524.788, 33.975
526.114, 52.486
527.441, 31.051
528.767, 11.681
530.093, 9.174
531.418, 8.910
532.744, 15.699
534.069, 16.542
535.394, 17.559
536.719, 41.379
538.044, 34.385
539.368, 10.546
540.693, 29.564
542.017, 46.734
543.340, 3.973
544.664, 24.259
545.987, 16.399
547.311, 9.980
548.634, 0.592
549.956, 2.123
551.279, 3.388
552.601, 5.006
553.923, 2.065
555.245, 14.831
556.567, 5.838
557.889, 2.449
559.210, 12.698
560.531, 23.087
561.852, 7.923
563.173, 21.801
564.493, 5.728
565.813, 13.308
567.133, 2.690
568.453, 21.724
569.773, 25.806
571.092, 6.064
572.412, 3.901
573.731, 5.708
575.049, 9.487
576.368, 14.761
577.686, 35.047
579.005, 0.369
580.323, 21.281
581.640, 5.099
582.958, 3.502
584.275, 0.073
585.593, 21.626
586.909, 24.163
588.226, 27.684
589.543, 17.185
590.859, 8.668
592.175, 31.123
593.491, 30.550
594.807, 35.951
596.122, 40.683
597.438, 37.673
598.753, 34.996
600.068, 35.292
601.382, 20.563
602.697, 60.809
604.011, 41.030
605.325, 63.227
606.639, 42.401
607.952, 43.551
609.266, 53.677
610.579, 67.781
611.892, 45.862
613.205, 65.921
614.518, 59.957
615.830, 56.972
617.142, 53.892
618.454, 86.852
619.766, 75.736
621.078, 73.777
622.389, 67.092
623.700, 45.746
625.011, 42.235
626.322, 14.807
627.632, 35.290
628.943, 58.693
630.253, 56.947
631.563, 35.154
632.872, 23.502
634.182, 11.639
635.491, 19.638
636.800, 7.863
638.109, 6.999
639.418, 10.684
640.726, 9.847
642.035, 9.518
643.343, 16.982
644.651, 11.233
645.958, 11.098
647.266, 19.925
648.573, 17.996
649.880, 19.886
651.187, 1.846
652.494, 8.308
653.800, 7.967
655.106, 12.655
656.412, 15.153
657.718, 18.746
659.024, 31.302
660.329, 5.271
661.634, 28.500
662.939, 15.034
664.244, 6.981
665.549, 14.238
666.853, 14.722
668.157, 51.280
669.461, 0.321
670.765, 21.150
672.069, 11.913
673.372, 19.142
674.675, 15.699
675.978, 41.389
677.281, 34.520
678.583, 15.400
679.886, 3.833
681.188, 47.324
682.490, 15.620
683.792, 21.774
685.093, 21.295
686.394, 18.946
687.696, 52.983
688.997, 29.953
690.297, 26.522
691.598, 21.066
692.898, 40.447
694.198, 60.489
695.498, 47.001
696.798, 89.242
698.097, 65.119
699.397, 82.953
700.696, 92.505
701.995, 90.821
703.293, 132.343
704.592, 135.628
705.890, 124.616
707.188, 130.738
708.486, 159.554
709.784, 197.911
711.081, 159.892
712.378, 206.527
713.675, 200.355
714.972, 248.745
716.269, 250.409
717.565, 270.291
718.862, 241.168
720.158, 302.221
721.453, 296.328
722.749, 353.087
724.045, 367.481
725.340, 390.730
726.635, 436.773
727.930, 413.555
729.224, 460.338
730.519, 462.158
731.813, 501.036
733.107, 566.049
734.401, 579.857
735.694, 602.707
736.988, 682.711
738.281, 721.453
739.574, 774.286
740.867, 796.239
742.160, 879.319
743.452, 929.426
744.744, 1023.574
746.036, 1148.696
747.328, 1236.804
748.620, 1343.038
749.911, 1456.286
751.202, 1642.589
752.493, 1860.939
753.784, 2090.300
755.075, 2458.675
756.365, 2672.070
757.655, 3137.426
758.945, 3625.977
760.235, 4087.465
761.525, 4750.064
762.814, 5225.594
764.103, 5714.149
765.392, 5854.236
766.681, 5856.414
767.969, 5785.036
769.258, 5519.707
770.546, 5139.396
771.834, 4898.098
773.122, 4634.811
774.409, 4562.536
775.697, 4445.277
776.984, 4457.030
778.271, 4675.805
779.558, 4807.598
780.844, 5204.412
782.131, 5650.170
783.417, 6102.023
784.703, 6559.899
785.989, 6717.798
787.274, 7184.722
788.560, 7205.666
789.845, 7224.602
791.130, 7539.589
792.415, 7652.562
793.699, 8115.561
794.983, 8743.606
796.268, 9661.671
797.552, 10859.758
798.835, 12377.858
800.119, 15385.986
801.402, 19024.135
802.686, 24242.297
803.969, 31290.494
805.251, 37458.719
806.534, 42566.930
807.816, 46015.105
809.098, 46993.383
810.380, 48651.688
811.662, 49680.012
812.944, 51658.355
814.225, 50656.723
815.506, 48635.078
816.787, 44693.500
818.068, 38681.930
819.349, 31730.330
820.629, 27298.814
821.909, 22577.332
823.189, 19385.867
824.469, 16744.420
825.749, 14813.005
827.028, 13431.492
828.307, 12120.131
829.586, 11308.792
830.865, 10477.482
832.144, 9726.196
833.422, 9194.941
834.700, 8573.718
835.978, 8082.529
837.256, 7548.373
838.534, 7053.258
839.811, 6659.544
841.088, 6295.931
842.365, 5908.902
843.642, 5647.904
844.919, 5284.932
846.195, 5084.039
847.472, 4780.119
848.748, 4550.233
850.023, 4383.381
851.299, 4226.552
852.575, 4103.752
853.850, 3774.035
855.125, 3648.298
856.400, 3428.591
857.674, 3107.905
858.949, 3027.245
860.223, 2761.608
861.497, 2379.994
862.771, 2343.404
864.045, 2127.835
865.318, 1976.290
866.591, 1956.891
867.864, 1816.451
869.137, 1762.971
870.410, 1670.423
871.682, 1528.991
872.955, 1572.582
874.227, 1531.201
875.499, 1531.842
876.770, 1426.806
878.042, 1413.515
879.313, 1476.412
880.584, 1346.465
881.855, 1333.219
883.126, 1302.320
884.396, 1263.533
885.667, 1240.344
886.937, 1170.027
888.207, 1133.888
889.476, 1082.276
890.746, 1036.203
892.015, 966.047
893.284, 911.702
894.553, 843.631
895.822, 802.602
897.090, 738.022
898.359, 723.383
899.627, 695.548
900.895, 670.077
902.163, 633.111
903.430, 595.688
904.698, 547.005
905.965, 518.583
907.232, 486.110
908.499, 467.569
909.765, 444.768
911.032, 433.912
912.298, 441.089
913.564, 386.280
914.830, 432.484
916.095, 473.704
917.361, 446.937
918.626, 420.183
919.891, 469.444
921.156, 453.718
922.420, 417.316
923.685, 406.626
924.949, 394.940
926.213, 304.267
927.477, 272.134
928.740, 290.588
930.004, 234.599
931.267, 271.873
932.530, 189.981
933.793, 239.057
935.056, 223.950
936.318, 195.364
937.581, 204.420
938.843, 197.836
940.104, 182.255
941.366, 190.988
942.628, 168.722
943.889, 164.625
945.150, 180.964
946.411, 191.882
947.672, 162.409
948.932, 168.585
950.193, 131.132
951.453, 142.847
952.713, 156.555
953.973, 171.672
955.232, 137.603
956.491, 131.699
957.751, 150.303
959.010, 142.138
960.268, 178.828
961.527, 164.124
962.785, 111.213
964.044, 146.207
965.302, 121.862
966.559, 105.772
967.817, 103.706
969.075, 87.385
970.332, 99.293
971.589, 58.987
972.846, 91.734
974.102, 99.442
975.359, 43.157
976.615, 101.878
977.871, 80.606
979.127, 102.341
980.383, 37.229
981.638, 65.979
982.893, 59.732
984.149, 83.490
985.404, 72.181
986.658, 72.091
987.913, 48.865
989.167, 47.644
990.421, 40.428
991.675, 51.216
992.929, 73.009
994.183, 46.807
995.436, 36.608
996.689, 3.586
997.942, 8.222
999.195, 87.033
1000.448, 29.848
1001.700, 7.666
1002.952, 51.488
1004.204, 2.688
1005.456, 49.138
1006.708, 15.966
1007.959, 24.797
1009.210, 47.630
1010.461, 16.465
1011.712, 3.307
1012.963, 10.151
1014.213, 11.998
1015.464, 28.846
1016.714, 5.304
1017.964, 2.456
1019.214, 7.394
1020.463, 24.755
1021.712, 29.087
1022.962, 31.932
1024.210, 1.776
1025.459, 34.622
1026.708, 8.532
1027.956, 0.311
1029.204, 4.847
1030.452, 29.006
1031.700, 35.822
1032.948, 7.349
1034.195, 62.520
1035.442, 5.278
1036.689, 67.923
1037.936, 8.841
1039.183, 9.394
1040.429, 2.363
1041.676, 16.875
1042.922, 23.123
1044.168, 5.387
1045.413, 20.343
1046.659, 39.929
1047.904, 3.224
1049.149, 17.526
1050.394, 54.842
1051.639, 10.812
1052.884, 53.538
1054.128, 32.920
1055.372, 20.326
1056.616, 22.748
1057.860, 6.813
1059.104, 11.625
1060.347, 26.078
1061.590, 12.449
1062.833, 51.971
1064.076, 32.488
1065.319, 23.005
1066.561, 22.517
1067.803, 44.026
1069.046, 22.529
1070.287, 38.028
1071.529, 10.478
1072.771, 17.000
1074.012, 62.473
1075.253, 58.940
1076.494, 4.406
1077.735, 15.860
1078.975, 12.682
1080.216, 0.239
1081.456, 12.810
1082.696, 4.597
1083.936, 8.008
1085.175, 15.634
1086.415, 9.281
1087.654, 14.351
1088.893, 2.640
1090.132, 13.347
1091.371, 18.920
1092.609, 15.177
1093.847, 6.421
1095.085, 16.650
1096.323, 56.868
1097.561, 12.077
1098.799, 55.271
1100.036, 27.457
1101.273, 3.633
1102.510, 16.789
1103.747, 22.932
1104.983, 19.063
1106.220, 66.181
1107.456, 29.289
1108.692, 38.387
1109.928, 64.475
1111.163, 36.554
1112.399, 27.623
1113.634, 67.679
1114.869, 32.727
1116.104, 32.763
1117.339, 85.786
1118.573, 35.799
1119.808, 81.802
1121.042, 53.797
1122.276, 140.781
1123.509, 127.755
1124.743, 105.720
1125.976, 85.673
1127.210, 114.617
1128.443, 45.550
1129.675, 71.471
1130.908, 102.381
1132.141, 80.325
1133.373, 94.213
1134.605, 60.090
1135.837, 100.976
1137.068, 146.829
1138.300, 81.672
1139.531, 132.503
1140.762, 84.322
1141.993, 113.130
1143.224, 152.031
1144.455, 91.815
1145.685, 126.604
1146.915, 140.364
1148.145, 110.112
1149.375, 120.149
1150.605, 111.918
1151.834, 110.759
1153.063, 121.396
1154.292, 127.113
1155.521, 147.967
1156.750, 174.724
1157.978, 154.422
1159.207, 154.597
1160.435, 186.301
1161.663, 180.212
1162.891, 163.935
1164.118, 145.734
1165.345, 191.265
1166.573, 151.093
1167.800, 176.755
1169.026, 189.669
1170.253, 179.473
1171.480, 207.144
1172.706, 183.264
1173.932, 164.870
1175.158, 203.174
1176.383, 206.022
1177.609, 180.501
1178.834, 184.132
1180.059, 177.865
1181.284, 223.189
1182.509, 203.594
1183.734, 163.350
1184.958, 247.386
1186.182, 187.278
1187.406, 188.165
1188.630, 227.484
1189.854, 179.013
1191.077, 209.059
1192.301, 204.220
1193.524, 183.602
1194.747, 247.010
1195.969, 195.091
1197.192, 199.355
1198.414, 196.837
1199.636, 166.245
1200.858, 178.323
1202.080, 222.570
1203.302, 238.611
1204.523, 210.725
1205.744, 244.248
1206.966, 210.483
1208.186, 217.023
1209.407, 194.216
1210.628, 215.430
1211.848, 190.603
1213.068, 213.901
1214.288, 230.353
1215.508, 221.502
1216.727, 247.709
1217.947, 243.107
1219.166, 199.221
1220.385, 243.385
1221.604, 238.558
1222.822, 260.810
1224.041, 231.276
1225.259, 205.675
1226.477, 252.680
1227.695, 248.723
1228.913, 207.337
1230.130, 240.690
1231.348, 260.141
1232.565, 221.823
1233.782, 211.988
1234.999, 196.137
1236.215, 200.750
1237.432, 239.545
1238.648, 232.245
1239.864, 235.550
1241.080, 217.568
1242.296, 202.022
1243.511, 221.705
1244.726, 182.819
1245.942, 183.481
1247.156, 192.051
1248.371, 170.678
1249.586, 201.775
1250.800, 184.090
1252.014, 167.571
1253.228, 207.178
1254.442, 179.579
1255.656, 192.346
1256.869, 209.918
1258.083, 147.626
1259.296, 158.053
1260.509, 173.640
1261.722, 146.166
1262.934, 211.423
1264.147, 187.933
1265.359, 121.509
1266.571, 156.645
1267.783, 140.077
1268.994, 175.693
1270.206, 149.148
1271.417, 159.584
1272.628, 164.170
1273.839, 141.581
1275.050, 129.892
1276.260, 148.275
1277.471, 86.645
1278.681, 117.004
1279.891, 143.348
1281.101, 92.610
1282.310, 140.950
1283.520, 114.263
1284.729, 126.582
1285.938, 150.835
1287.147, 130.074
1288.356, 72.299
1289.564, 113.510
1290.773, 81.703
1291.981, 114.918
1293.189, 128.078
1294.397, 39.215
1295.604, 86.337
1296.812, 102.437
1298.019, 70.521
1299.226, 89.592
1300.433, 53.644
1301.640, 73.681
1302.846, 84.696
1304.053, 5.337
1305.259, 76.715
1306.465, 37.645
1307.671, 65.555
1308.876, 47.439
1310.082, 74.308
1311.287, 34.165
1312.492, 66.041
1313.697, 36.869
1314.902, 37.708
1316.106, 53.510
1317.310, 14.295
1318.515, 62.142
1319.719, 58.044
1320.922, 24.778
1322.126, 42.520
1323.329, 18.219
1324.533, 31.901
1325.736, 3.436
1326.939, 22.208
1328.141, 25.849
1329.344, 16.472
1330.546, 15.095
1331.748, 71.700
1332.950, 16.709
1334.152, 49.858
1335.354, 73.414
1336.555, 31.959
1337.757, 56.490
1338.958, 11.005
1340.159, 40.514
1341.359, 42.008
1342.560, 3.492
1343.760, 37.972
1344.960, 21.479
1346.160, 26.944
1347.360, 22.403
1348.560, 6.861
1349.759, 9.700
1350.959, 40.716
1352.158, 17.180
1353.357, 53.579
1354.555, 44.966
1355.754, 4.662
1356.952, 29.692
1358.151, 16.038
1359.349, 45.394
1360.546, 34.707
1361.744, 16.006
1362.941, 13.292
1364.139, 32.569
1365.336, 30.854
1366.533, 8.896
1367.730, 56.339
1368.926, 29.435
1370.123, 16.230
1371.319, 57.965
1372.515, 10.155
1373.711, 34.341
1374.906, 49.735
1376.102, 2.082
1377.297, 77.102
1378.492, 9.768
1379.687, 48.267
1380.882, 74.271
1382.077, 31.274
1383.271, 83.273
1384.465, 43.264
1385.659, 39.245
1386.853, 100.226
1388.047, 59.201
1389.240, 85.165
1390.434, 60.116
1391.627, 48.055
1392.820, 76.982
1394.013, 68.900
1395.205, 16.802
1396.398, 76.689
1397.590, 70.563
1398.782, 27.424
1399.974, 99.274
1401.166, 26.060
1402.357, 30.862
1403.549, 66.678
1404.740, 28.483
1405.931, 104.149
1407.122, 79.851
1408.313, 21.624
1409.503, 0.949
1410.693, 85.559
1411.883, 41.026
1413.073, 98.565
1414.263, 77.144
1415.453, 36.260
1416.642, 126.526
1417.831, 60.570
1419.020, 97.413
1420.209, 81.927
1421.398, 99.151
1422.587, 125.808
1423.775, 98.156
1424.963, 63.220
1426.151, 65.376
1427.339, 59.937
1428.526, 102.077
1429.714, 122.972
1430.901, 78.258
1432.088, 66.018
1433.275, 74.804
1434.462, 56.002
1435.648, 82.649
1436.835, 74.176
1438.021, 68.982
1439.207, 67.541
1440.393, 59.525
1441.579, 64.063
1442.764, 71.638
1443.949, 61.920
1445.135, 59.401
1446.320, 116.220
1447.504, 22.075
1448.689, 95.388
1449.873, 50.579
1451.058, 49.514
1452.242, 97.844
1453.426, 55.318
1454.609, 33.702
1455.793, 64.208
1456.976, 35.389
1458.159, 64.858
1459.342, 86.517
1460.525, 19.299
1461.708, 7.048
1462.890, 63.700
1464.073, 30.330
1465.255, 87.727
1466.437, 59.133
1467.619, 69.708
1468.800, 63.211
1469.982, 50.919
1471.163, 89.739
1472.344, 115.504
1473.525, 67.155
1474.706, 122.696
1475.886, 74.438
1477.066, 52.133
1478.247, 92.683
1479.427, 75.360
1480.607, 48.042
1481.786, 89.711
1482.966, 76.359
1484.145, 35.143
1485.324, 63.607
1486.503, 9.530
1487.682, 47.461
1488.860, 85.203
1490.039, 15.950
1491.217, 54.408
1492.395, 103.498
1493.573, 2.184
1494.751, 72.071
1495.928, 55.982
1497.106, 27.904
1498.283, 65.849
1499.460, 11.818
1500.637, 5.823
1501.814, 47.862
1502.990, 80.939
1504.166, 11.718
1505.342, 46.847
1506.518, 6.964
1507.694, 38.692
1508.870, 35.034
1510.045, 12.447
1511.221, 111.431
