##NAMES=Monazite-(Ce)
##RRUFFID=R040106
##IDEAL CHEMISTRY=CePO_4_
##LOCALITY=Angola
##OWNER=RRUFF
##SOURCE=University of Arizona Mineral Museum
##DESCRIPTION=Brown massive fragment
##STATUS=The identification of this mineral has been confirmed by X-ray diffraction and chemical analysis
##URL=rruff.info/R040106
##MEASURED CHEMISTRY=(Ce_0.41_La_0.17_Nd_0.17_Th_0.14_Ca_0.06_Y_0.04_)(P_0.95_Si_0.05_)O_4_
##PIN_ID=M00299
##ORIENTATION=Laser parallel to c* (0 0 1). Fiducial mark perpendicular to laser is parallel to a [1 0 0]
80.653, 0.000
82.052, 0.078
83.452, 42.290
84.851, 8.546
86.250, 74.781
87.649, 179.422
89.047, 328.929
90.446, 434.543
91.844, 562.916
93.242, 683.464
94.639, 761.566
96.037, 779.724
97.434, 809.912
98.831, 815.564
100.227, 770.872
101.624, 740.540
103.020, 727.966
104.416, 810.707
105.812, 855.474
107.207, 973.077
108.603, 892.393
109.998, 1072.347
111.393, 1069.071
112.787, 1232.031
114.182, 1276.281
115.576, 1375.792
116.970, 1363.120
118.363, 1430.146
119.757, 1325.843
121.150, 1278.934
122.543, 1216.482
123.936, 1082.508
125.328, 978.170
126.720, 916.610
128.112, 754.951
129.504, 648.300
130.896, 596.753
132.287, 502.392
133.678, 459.288
135.069, 412.768
136.460, 339.104
137.850, 332.132
139.240, 275.634
140.630, 214.148
142.020, 219.610
143.410, 178.892
144.799, 280.273
146.188, 281.077
147.577, 291.562
148.965, 413.088
150.354, 437.242
151.742, 485.014
153.130, 595.445
154.517, 709.416
155.905, 848.724
157.292, 719.779
158.679, 980.069
160.066, 971.992
161.452, 1145.507
162.839, 1223.134
164.225, 1325.815
165.611, 1451.645
166.996, 1616.625
168.381, 1817.760
169.767, 1984.042
171.152, 2275.468
172.536, 2427.032
173.921, 2629.728
175.305, 2770.545
176.689, 2696.479
178.073, 2672.523
179.456, 2452.671
180.839, 2224.916
182.222, 1989.250
183.605, 1741.666
184.988, 1617.159
186.370, 1333.722
187.752, 1197.350
189.134, 953.037
190.516, 807.780
191.898, 708.577
193.279, 448.424
194.660, 533.320
196.041, 393.258
197.421, 271.231
198.801, 266.229
200.182, 199.244
201.561, 147.269
202.941, 99.297
204.321, 11.326
205.700, 3.356
207.079, 52.391
208.457, 11.431
209.836, 59.521
211.214, 34.463
212.592, 77.635
213.970, 67.823
215.348, 71.219
216.725, 77.108
218.102, 1.019
219.479, 80.836
220.856, 85.671
222.232, 57.487
223.608, 115.283
224.984, 143.045
226.360, 131.844
227.736, 60.652
229.111, 91.548
230.486, 79.576
231.861, 109.737
233.236, 92.982
234.610, 4.348
235.984, 38.856
237.358, 34.510
238.732, 50.258
240.105, 88.889
241.479, 36.991
242.852, 92.105
244.224, 173.220
245.597, 183.379
246.969, 294.879
248.342, 327.222
249.713, 264.274
251.085, 392.667
252.457, 443.303
253.828, 414.002
255.199, 482.745
256.570, 625.517
257.940, 581.304
259.310, 730.096
260.681, 801.886
262.050, 792.669
263.420, 881.440
264.790, 950.193
266.159, 1054.920
267.528, 1111.615
268.896, 1255.274
270.265, 1316.896
271.633, 1561.482
273.001, 1529.032
274.369, 1727.547
275.737, 1845.029
277.104, 1935.479
278.471, 2062.894
279.838, 2089.261
281.205, 2258.571
282.572, 2374.817
283.938, 2301.992
285.304, 2319.093
286.670, 2311.122
288.035, 2261.086
289.401, 2218.995
290.766, 2245.852
292.131, 2049.663
293.495, 2006.435
294.860, 1849.172
296.224, 1792.878
297.588, 1720.557
298.952, 1637.210
300.315, 1572.845
301.679, 1483.596
303.042, 1446.063
304.405, 1341.653
305.767, 1319.230
307.130, 1320.771
308.492, 1214.194
309.854, 1123.536
311.216, 1107.314
312.578, 1042.130
313.939, 1044.519
315.300, 1002.220
316.661, 985.776
318.021, 1006.132
319.382, 950.339
320.742, 905.422
322.102, 836.375
323.462, 729.296
324.821, 721.171
326.181, 630.053
327.540, 696.978
328.899, 575.948
330.257, 608.961
331.616, 586.017
332.974, 569.116
334.332, 536.258
335.690, 522.080
337.047, 517.666
338.405, 517.932
339.762, 469.239
341.119, 531.586
342.475, 522.973
343.832, 505.401
345.188, 540.868
346.544, 602.375
347.900, 695.921
349.255, 648.506
350.610, 826.130
351.965, 737.794
353.320, 871.497
354.675, 992.238
356.029, 1117.019
357.384, 1230.838
358.738, 1278.696
360.091, 1404.593
361.445, 1437.529
362.798, 1642.503
364.151, 1681.337
365.504, 1819.738
366.857, 1957.265
368.209, 2047.748
369.561, 2136.884
370.913, 2245.632
372.265, 2336.674
373.617, 2466.257
374.968, 2540.088
376.319, 2700.218
377.670, 2850.041
379.021, 2902.831
380.371, 3037.435
381.721, 3113.123
383.071, 3197.923
384.421, 3381.533
385.770, 3512.093
387.120, 3628.206
388.469, 3729.756
389.818, 4012.188
391.166, 4129.265
392.515, 4244.584
393.863, 4270.836
395.211, 4615.383
396.559, 4711.174
397.906, 4872.720
399.254, 5062.298
400.601, 5182.353
401.948, 5451.626
403.294, 5698.605
404.641, 5966.431
405.987, 6360.814
407.333, 6745.250
408.679, 7249.737
410.025, 7844.259
411.370, 8458.818
412.715, 9093.410
414.060, 9968.039
415.405, 10722.705
416.749, 11387.402
418.093, 11542.147
419.437, 11676.941
420.781, 11391.800
422.125, 10716.729
423.468, 9931.729
424.811, 8806.800
426.154, 7871.943
427.497, 6877.145
428.839, 6072.414
430.182, 5347.751
431.524, 4853.150
432.866, 4228.637
434.207, 3934.200
435.549, 3519.829
436.890, 3395.539
438.231, 3283.328
439.572, 3118.202
440.912, 3054.164
442.252, 3149.213
443.593, 3073.347
444.932, 3127.557
446.272, 3161.847
447.611, 3197.225
448.951, 3320.669
450.290, 3547.202
451.628, 3573.818
452.967, 3910.512
454.305, 3927.272
455.644, 4164.093
456.981, 4420.963
458.319, 4577.878
459.657, 4764.849
460.994, 5101.866
462.331, 5128.946
463.668, 5286.076
465.004, 5223.252
466.341, 5300.484
467.677, 5197.781
469.013, 5185.137
470.348, 4972.540
471.684, 4699.989
473.019, 4557.483
474.354, 4315.023
475.689, 4112.610
477.024, 3740.245
478.358, 3597.928
479.692, 3305.660
481.026, 3019.442
482.360, 2876.275
483.694, 2719.159
485.027, 2490.095
486.360, 2561.081
487.693, 2246.462
489.026, 1917.210
490.358, 1786.353
491.691, 1791.546
493.023, 1617.790
494.354, 1454.085
495.686, 1386.432
497.017, 1223.829
498.349, 1135.277
499.680, 1126.775
501.010, 1018.324
502.341, 869.923
503.671, 887.573
505.001, 738.272
506.331, 651.021
507.661, 653.820
508.990, 465.668
510.319, 523.567
511.648, 329.514
512.977, 228.512
514.306, 335.558
515.634, 267.652
516.962, 227.796
518.290, 113.989
519.618, 82.230
520.945, 15.520
522.273, 19.858
523.600, 60.244
524.927, 69.321
526.253, 140.844
527.580, 30.659
528.906, 63.769
530.232, 110.136
531.558, 106.464
532.883, 64.745
534.208, 13.951
535.534, 9.082
536.858, 82.872
538.183, 154.912
539.508, 25.035
540.832, 111.245
542.156, 4.481
543.480, 45.876
544.803, 65.318
546.127, 119.839
547.450, 103.451
548.773, 151.941
550.096, 231.968
551.418, 205.848
552.741, 200.812
554.063, 197.854
555.385, 274.983
556.706, 345.193
558.028, 351.460
559.349, 349.792
560.670, 533.187
561.991, 559.648
563.312, 719.153
564.632, 883.461
565.952, 1160.329
567.272, 1308.981
568.592, 1676.676
569.911, 2051.413
571.231, 2238.192
572.550, 2143.014
573.869, 2235.878
575.187, 1905.783
576.506, 1727.492
577.824, 1438.863
579.142, 1143.929
580.460, 1106.305
581.778, 931.756
583.095, 839.308
584.412, 745.726
585.729, 702.698
587.046, 636.458
588.363, 740.681
589.679, 647.283
590.995, 734.624
592.311, 718.768
593.627, 846.684
594.942, 734.800
596.258, 739.502
597.573, 823.192
598.888, 804.713
600.202, 830.042
601.517, 840.144
602.831, 871.203
604.145, 859.019
605.459, 950.596
606.772, 1030.744
608.086, 1060.856
609.399, 1173.926
610.712, 1252.127
612.024, 1382.871
613.337, 1514.545
614.649, 1661.458
615.961, 1902.931
617.273, 2050.566
618.585, 2286.621
619.896, 2353.339
621.208, 2601.302
622.519, 2319.000
623.829, 2514.106
625.140, 2386.046
626.450, 2030.061
627.761, 2075.504
629.071, 1855.628
630.380, 1809.772
631.690, 1741.936
632.999, 1510.117
634.308, 1564.318
635.617, 1309.539
636.926, 1287.777
638.235, 1236.035
639.543, 1340.311
640.851, 1275.605
642.159, 1266.917
643.466, 1152.247
644.774, 1243.595
646.081, 1192.960
647.388, 1181.343
648.695, 1152.743
650.002, 1208.160
651.308, 1144.594
652.614, 1068.044
653.920, 1158.512
655.226, 957.996
656.531, 1077.496
657.837, 1028.012
659.142, 978.543
660.447, 1143.091
661.752, 936.655
663.056, 899.234
664.360, 974.828
665.664, 953.438
666.968, 1007.062
668.272, 992.702
669.575, 1040.355
670.879, 1057.024
672.182, 996.708
673.484, 1151.406
674.787, 926.117
676.089, 1200.844
677.392, 1151.584
678.694, 1140.337
679.995, 1229.105
681.297, 1167.886
682.598, 1239.632
683.899, 1249.506
685.200, 1195.327
686.501, 1203.222
687.802, 1166.015
689.102, 1275.917
690.402, 1295.822
691.702, 1256.563
693.002, 1314.356
694.301, 1245.268
695.600, 1224.190
696.899, 1211.125
698.198, 1206.072
699.497, 1227.961
700.795, 1118.929
702.093, 1225.908
703.391, 1057.897
704.689, 1024.896
705.987, 1122.906
707.284, 879.925
708.581, 925.953
709.878, 877.990
711.175, 868.036
712.472, 830.090
713.768, 780.153
715.064, 562.224
716.360, 593.302
717.656, 517.388
718.951, 362.481
720.247, 431.583
721.542, 419.691
722.837, 401.807
724.131, 203.930
725.426, 252.060
726.720, 146.197
728.014, 155.341
729.308, 76.492
730.601, 73.648
731.895, 6.188
733.188, 0.953
734.481, 82.923
735.774, 104.462
737.067, 87.862
738.359, 105.926
739.651, 102.940
740.943, 42.261
742.235, 90.501
743.526, 80.802
744.818, 52.161
746.109, 165.561
747.400, 119.169
748.691, 68.633
749.981, 128.257
751.271, 120.960
752.562, 154.738
753.851, 151.768
755.141, 154.567
756.431, 144.616
757.720, 103.751
759.009, 122.951
760.298, 153.225
761.587, 60.586
762.875, 162.989
764.163, 128.485
765.451, 97.055
766.739, 72.683
768.027, 35.392
769.314, 15.677
770.601, 26.243
771.888, 0.534
773.175, 10.822
774.462, 38.894
775.748, 11.365
777.034, 16.622
778.320, 11.121
779.606, 63.875
780.892, 29.155
782.177, 21.532
783.462, 42.732
784.747, 89.944
786.032, 186.168
787.317, 168.407
788.601, 116.658
789.885, 146.921
791.169, 255.200
792.453, 117.492
793.736, 318.797
795.019, 229.118
796.303, 256.452
797.585, 235.800
798.868, 254.050
800.151, 372.542
801.433, 318.936
802.715, 443.345
803.997, 457.770
805.279, 503.210
806.560, 544.666
807.841, 569.388
809.122, 584.626
810.403, 624.130
811.684, 649.651
812.964, 661.189
814.245, 644.744
815.525, 808.315
816.804, 763.904
818.084, 930.510
819.363, 896.134
820.643, 1002.774
821.922, 840.434
823.201, 980.111
824.479, 954.806
825.758, 1015.520
827.036, 1069.252
828.314, 1036.003
829.592, 1225.772
830.869, 1166.562
832.147, 1208.369
833.424, 1195.196
834.701, 1242.043
835.977, 1326.910
837.254, 1367.801
838.530, 1310.727
839.807, 1436.672
841.082, 1371.643
842.358, 1630.645
843.634, 1428.676
844.909, 1510.734
846.184, 1541.813
847.459, 1487.914
848.734, 1572.037
850.008, 1548.180
851.283, 1482.347
852.557, 1562.534
853.831, 1634.743
855.105, 1707.975
856.378, 1659.229
857.651, 1644.506
858.925, 1664.805
860.197, 1599.126
861.470, 1577.609
862.743, 1700.840
864.015, 1545.230
865.287, 1579.645
866.559, 1702.083
867.831, 1588.544
869.102, 1566.029
870.373, 1633.539
871.645, 1627.072
872.915, 1539.630
874.186, 1406.213
875.457, 1523.821
876.727, 1352.453
877.997, 1412.110
879.267, 1297.792
880.536, 1205.500
881.806, 1343.238
883.075, 1028.003
884.344, 1158.794
885.613, 1030.871
886.882, 1019.355
888.150, 1007.214
889.419, 886.849
890.687, 879.478
891.954, 788.099
893.222, 711.950
894.490, 841.323
895.757, 623.014
897.024, 623.333
898.291, 681.356
899.557, 574.829
900.824, 558.088
902.090, 487.377
903.356, 473.235
904.622, 352.591
905.888, 422.064
907.153, 434.795
908.418, 283.457
909.683, 236.805
910.948, 419.627
912.213, 243.430
913.477, 293.554
914.741, 311.182
916.005, 235.940
917.269, 340.841
918.533, 225.708
919.796, 303.122
921.060, 324.683
922.323, 377.097
923.585, 481.043
924.848, 488.918
926.111, 583.480
927.373, 650.468
928.635, 754.244
929.897, 834.479
931.158, 995.324
932.420, 1125.433
933.681, 1230.553
934.942, 1382.335
936.203, 1717.520
937.463, 1749.759
938.724, 2091.059
939.984, 2416.417
941.244, 2619.834
942.504, 3030.308
943.764, 3247.838
945.023, 3593.418
946.282, 4152.053
947.541, 4518.742
948.800, 5155.484
950.059, 5672.290
951.317, 6169.147
952.575, 6886.065
953.833, 7573.032
955.091, 8450.052
956.349, 9387.121
957.606, 9994.245
958.864, 11541.416
960.121, 12628.638
961.377, 13845.906
962.634, 15793.227
963.891, 17050.600
965.147, 18918.014
966.403, 21415.479
967.659, 23212.994
968.914, 25740.557
970.170, 27958.164
971.425, 29485.828
972.680, 32443.531
973.935, 32111.287
975.190, 32459.076
976.444, 30666.934
977.698, 28414.826
978.952, 26452.764
980.206, 23180.744
981.460, 20558.775
982.713, 17826.855
983.967, 15594.977
985.220, 13583.144
986.473, 12061.355
987.725, 10339.611
988.978, 9427.915
990.230, 8206.261
991.482, 7444.652
992.734, 6803.085
993.986, 6361.563
995.237, 5980.085
996.488, 5218.649
997.739, 5117.255
998.990, 4895.905
1000.241, 4364.596
1001.492, 4265.331
1002.742, 4083.107
1003.992, 3997.925
1005.242, 3765.785
1006.492, 3496.687
1007.741, 3557.630
1008.990, 3314.614
1010.239, 3228.640
1011.488, 3289.706
1012.737, 3050.812
1013.986, 3048.960
1015.234, 3138.146
1016.482, 2873.373
1017.730, 3077.641
1018.978, 2935.948
1020.225, 2918.294
1021.473, 3092.680
1022.720, 2944.104
1023.967, 3277.567
1025.213, 3149.068
1026.460, 2942.609
1027.706, 3262.188
1028.953, 3130.806
1030.198, 3200.461
1031.444, 3274.013
1032.690, 3324.835
1033.935, 3549.730
1035.180, 3544.488
1036.425, 3507.579
1037.670, 3890.645
1038.915, 3659.463
1040.159, 4094.748
1041.403, 4151.514
1042.647, 4392.791
1043.891, 4665.925
1045.135, 4760.519
1046.378, 5133.364
1047.621, 5406.823
1048.864, 5582.678
1050.107, 6408.384
1051.350, 6513.733
1052.592, 7046.342
1053.835, 7730.318
1055.077, 7879.890
1056.318, 8625.436
1057.560, 9112.787
1058.802, 9671.638
1060.043, 10123.921
1061.284, 10051.365
1062.525, 10665.858
1063.765, 10868.672
1065.006, 10466.343
1066.246, 10604.971
1067.486, 10323.640
1068.726, 9990.231
1069.966, 9973.939
1071.205, 9401.278
1072.445, 9148.905
1073.684, 8495.517
1074.923, 7966.938
1076.161, 7763.716
1077.400, 7340.498
1078.638, 6716.155
1079.876, 6659.636
1081.114, 6018.571
1082.352, 5735.140
1083.590, 5398.495
1084.827, 4833.281
1086.064, 4752.458
1087.301, 4367.405
1088.538, 3962.035
1089.775, 3847.010
1091.011, 3374.361
1092.247, 3150.646
1093.483, 2950.632
1094.719, 2803.489
1095.955, 2660.359
1097.190, 2389.010
1098.425, 2197.391
1099.660, 2160.830
1100.895, 1892.621
1102.130, 1807.231
1103.364, 1681.265
1104.598, 1539.715
1105.833, 1569.310
1107.066, 1326.026
1108.300, 1350.128
1109.534, 1161.858
1110.767, 1091.042
1112.000, 1097.237
1113.233, 961.725
1114.466, 1017.837
1115.698, 893.862
1116.930, 811.430
1118.163, 807.135
1119.394, 763.050
1120.626, 620.556
1121.858, 708.348
1123.089, 576.667
1124.320, 645.417
1125.551, 580.881
1126.782, 409.237
1128.013, 479.804
1129.243, 469.129
1130.473, 317.490
1131.703, 450.371
1132.933, 299.653
1134.163, 314.934
1135.392, 346.169
1136.621, 267.223
1137.850, 362.631
1139.079, 319.867
1140.308, 221.003
1141.536, 295.209
1142.765, 246.129
1143.993, 223.148
1145.221, 318.332
1146.448, 104.247
1147.676, 322.288
1148.903, 181.319
1150.130, 197.208
1151.357, 229.266
1152.584, 133.071
1153.810, 172.979
1155.037, 181.999
1156.263, 171.751
1157.489, 238.731
1158.715, 96.447
1159.940, 150.143
1161.166, 179.907
1162.391, 151.568
1163.616, 193.447
1164.841, 199.270
1166.065, 63.933
1167.290, 172.582
1168.514, 135.136
1169.738, 101.750
1170.962, 134.340
1172.185, 71.830
1173.409, 45.657
1174.632, 72.170
1175.855, 27.795
1177.078, 81.371
1178.301, 25.176
1179.523, 15.152
1180.746, 11.451
1181.968, 89.251
1183.190, 4.946
1184.412, 19.111
1185.633, 65.712
1186.855, 17.358
1188.076, 90.605
1189.297, 95.650
1190.518, 26.641
1191.738, 126.772
1192.959, 80.060
1194.179, 39.217
1195.399, 74.650
1196.619, 69.166
1197.838, 60.581
1199.058, 14.257
1200.277, 33.149
1201.496, 119.457
1202.715, 52.366
1203.934, 78.316
1205.152, 99.329
1206.371, 8.480
1207.589, 71.608
1208.807, 21.946
1210.024, 7.701
1211.242, 67.582
1212.459, 80.121
1213.677, 78.215
1214.894, 42.811
1216.110, 5.327
1217.327, 50.469
1218.543, 53.271
1219.760, 35.332
1220.976, 110.185
1222.192, 34.521
1223.407, 32.746
1224.623, 13.157
1225.838, 29.244
1227.053, 62.185
1228.268, 22.738
1229.483, 33.597
1230.697, 7.198
1231.912, 22.930
1233.126, 9.154
1234.340, 16.720
1235.554, 11.647
1236.767, 26.118
1237.981, 29.456
1239.194, 90.822
1240.407, 45.562
1241.620, 47.097
1242.832, 57.448
1244.045, 3.084
1245.257, 72.285
1246.469, 28.517
1247.681, 67.708
1248.893, 107.799
1250.104, 80.435
1251.315, 74.425
1252.527, 149.347
1253.738, 111.511
1254.948, 152.249
1256.159, 108.904
1257.369, 110.023
1258.579, 188.566
1259.789, 120.180
1260.999, 129.111
1262.209, 183.571
1263.418, 168.974
1264.628, 145.408
1265.837, 195.614
1267.046, 163.136
1268.254, 241.407
1269.463, 170.446
1270.671, 208.935
1271.879, 234.881
1273.087, 195.801
1274.295, 242.962
1275.502, 234.714
1276.710, 160.751
1277.917, 253.428
1279.124, 253.002
1280.331, 263.756
1281.537, 306.281
1282.744, 220.704
1283.950, 261.154
1285.156, 283.426
1286.362, 265.548
1287.568, 347.036
1288.773, 307.204
1289.978, 266.474
1291.184, 328.534
1292.389, 296.444
1293.593, 296.455
1294.798, 328.372
1296.002, 285.102
1297.206, 398.154
1298.410, 315.796
1299.614, 286.366
1300.818, 365.958
1302.021, 289.386
1303.225, 375.016
1304.428, 350.328
1305.631, 330.583
1306.833, 392.977
1308.036, 297.128
1309.238, 306.405
1310.440, 340.604
1311.642, 339.738
1312.844, 381.635
1314.045, 340.538
1315.247, 341.322
1316.448, 385.342
1317.649, 275.099
1318.850, 344.710
1320.051, 312.321
1321.251, 318.944
1322.451, 342.381
1323.651, 374.929
1324.851, 375.501
1326.051, 358.290
1327.251, 378.669
1328.450, 362.579
1329.649, 351.653
1330.848, 384.873
1332.047, 367.602
1333.245, 399.025
1334.444, 315.790
1335.642, 335.712
1336.840, 371.444
1338.038, 285.664
1339.236, 374.276
1340.433, 361.496
1341.630, 281.890
1342.828, 338.657
1344.025, 299.206
1345.221, 260.369
1346.418, 343.408
1347.614, 297.021
1348.810, 283.847
1350.006, 295.377
1351.202, 256.292
1352.398, 314.052
1353.593, 271.949
1354.789, 240.372
1355.984, 272.932
1357.179, 152.565
1358.373, 223.160
1359.568, 285.831
1360.762, 228.373
1361.956, 202.274
1363.150, 236.117
1364.344, 160.690
1365.538, 247.414
1366.731, 183.787
1367.924, 202.098
1369.117, 255.502
1370.310, 167.047
1371.503, 164.116
1372.695, 218.534
1373.888, 122.131
1375.080, 163.258
1376.272, 121.952
1377.464, 66.837
1378.655, 151.998
1379.847, 58.777
1381.038, 118.143
1382.229, 121.548
1383.420, 122.233
1384.610, 153.398
1385.801, 175.090
1386.991, 128.455
1388.181, 133.311
1389.371, 149.619
1390.561, 143.079
1391.750, 152.313
1392.940, 55.664
1394.129, 146.392
1395.318, 147.917
1396.507, 86.143
1397.696, 163.572
1398.884, 225.740
1400.072, 69.088
1401.260, 182.553
1402.448, 135.316
1403.636, 68.662
1404.824, 142.910
1406.011, 142.097
1407.198, 120.407
1408.385, 164.450
1409.572, 78.612
1410.758, 114.633
1411.945, 165.534
1413.131, 58.154
1414.317, 146.816
1415.503, 137.680
1416.689, 72.315
1417.874, 206.363
1419.060, 69.693
1420.245, 131.979
1421.430, 152.143
1422.615, 80.697
1423.799, 118.174
1424.984, 125.961
1426.168, 102.728
1427.352, 133.481
1428.536, 121.086
1429.720, 68.701
1430.903, 102.044
1432.087, 60.394
1433.270, 94.071
1434.453, 152.496
1435.635, 71.662
1436.818, 77.344
1438.001, 112.049
1439.183, 29.635
1440.365, 94.084
1441.547, 93.979
1442.728, 72.676
1443.910, 118.094
1445.091, 35.480
1446.272, 99.370
1447.453, 139.504
1448.634, 6.954
1449.815, 83.860
1450.995, 38.449
1452.176, 40.206
1453.356, 38.604
1454.535, 89.065
1455.715, 6.684
1456.895, 83.107
1458.074, 18.176
1459.253, 53.026
1460.432, 115.054
1461.611, 57.545
1462.790, 38.737
1463.968, 86.750
1465.146, 59.616
1466.324, 88.180
1467.502, 85.386
1468.680, 30.994
1469.858, 98.641
1471.035, 21.520
1472.212, 46.488
1473.389, 92.215
1474.566, 15.181
1475.742, 102.582
1476.919, 71.338
1478.095, 0.237
1479.271, 98.021
1480.447, 76.297
1481.623, 57.660
1482.798, 52.045
1483.974, 57.372
1485.149, 31.198
1486.324, 102.912
1487.499, 5.978
1488.674, 69.098
1489.848, 121.914
1491.022, 2.062
1492.196, 53.573
1493.370, 108.497
1494.544, 1.973
1495.718, 69.970
1496.891, 46.354
