##NAMES=Monazite-(Ce)
##RRUFFID=R040106
##IDEAL CHEMISTRY=CePO_4_
##LOCALITY=Angola
##OWNER=RRUFF
##SOURCE=University of Arizona Mineral Museum
##DESCRIPTION=Brown massive fragment
##STATUS=The identification of this mineral has been confirmed by X-ray diffraction and chemical analysis
##URL=rruff.info/R040106
##MEASURED CHEMISTRY=(Ce_0.41_La_0.17_Nd_0.17_Th_0.14_Ca_0.06_Y_0.04_)(P_0.95_Si_0.05_)O_4_
##PIN_ID=L00169
##ORIENTATION=Laser parallel to b* (0 1 0). Fiducial mark perpendicular to laser is parallel to c [0 0 1]
84.311, 0.000
85.706, 103.449
87.101, 90.174
88.496, 90.382
89.890, 19.726
91.284, 26.248
92.678, 126.022
94.071, 55.622
95.465, 93.334
96.858, 328.592
98.251, 463.922
99.644, 646.929
101.036, 771.291
102.428, 848.789
103.820, 908.263
105.212, 972.543
106.604, 1057.464
107.995, 1149.867
109.387, 1251.607
110.777, 1465.558
112.168, 1498.609
113.559, 1664.663
114.949, 1736.639
116.339, 1713.465
117.729, 1647.172
119.119, 1614.869
120.508, 1571.552
121.897, 1593.115
123.286, 1601.466
124.675, 1621.524
126.063, 1427.221
127.452, 1378.491
128.840, 1352.267
130.228, 1208.500
131.615, 1299.151
133.003, 1229.188
134.390, 1118.582
135.777, 1026.311
137.164, 960.357
138.550, 957.702
139.937, 820.332
141.323, 853.234
142.709, 868.399
144.094, 745.817
145.480, 739.479
146.865, 755.376
148.250, 853.642
149.635, 833.844
151.019, 854.648
152.403, 834.656
153.788, 892.659
155.171, 834.940
156.555, 1006.208
157.939, 932.445
159.322, 978.663
160.705, 947.872
162.088, 979.080
163.470, 934.295
164.853, 862.523
166.235, 909.773
167.617, 864.018
168.998, 859.157
170.380, 690.192
171.761, 727.151
173.142, 651.070
174.523, 651.968
175.904, 612.859
177.284, 504.755
178.664, 429.668
180.044, 402.220
181.424, 467.582
182.803, 362.596
184.183, 403.658
185.562, 424.772
186.940, 411.944
188.319, 363.178
189.698, 399.477
191.076, 300.844
192.454, 322.282
193.831, 318.793
195.209, 238.380
196.586, 264.046
197.963, 235.792
199.340, 285.620
200.717, 243.531
202.093, 196.527
203.470, 175.608
204.846, 214.774
206.221, 156.028
207.597, 149.367
208.972, 274.794
210.347, 194.718
211.722, 294.655
213.097, 264.556
214.472, 296.536
215.846, 376.421
217.220, 335.862
218.594, 353.000
219.967, 447.851
221.341, 375.039
222.714, 437.741
224.087, 423.063
225.460, 408.706
226.832, 368.252
228.204, 389.397
229.577, 372.703
230.948, 400.607
232.320, 355.629
233.692, 303.762
235.063, 300.001
236.434, 292.344
237.805, 373.787
239.175, 277.332
240.545, 258.979
241.916, 376.730
243.286, 222.583
244.655, 353.541
246.025, 317.604
247.394, 326.771
248.763, 315.043
250.132, 336.881
251.501, 404.495
252.869, 382.858
254.237, 479.751
255.605, 346.466
256.973, 483.021
258.340, 425.863
259.708, 438.970
261.075, 344.324
262.442, 453.910
263.808, 502.711
265.175, 492.718
266.541, 526.918
267.907, 492.304
269.273, 498.865
270.639, 551.593
272.004, 522.483
273.369, 543.527
274.734, 570.720
276.099, 527.056
277.463, 639.531
278.828, 607.141
280.192, 602.882
281.556, 653.750
282.919, 605.744
284.283, 727.858
285.646, 673.087
287.009, 673.429
288.372, 676.881
289.734, 738.439
291.097, 829.103
292.459, 802.868
293.821, 830.734
295.183, 804.700
296.544, 788.764
297.905, 806.923
299.266, 816.178
300.627, 809.138
301.988, 842.971
303.348, 795.507
304.709, 846.135
306.069, 823.854
307.428, 738.664
308.788, 823.564
310.147, 732.553
311.507, 705.631
312.865, 637.798
314.224, 608.001
315.583, 622.375
316.941, 564.774
318.299, 578.242
319.657, 569.778
321.015, 478.380
322.372, 447.052
323.729, 362.794
325.086, 273.604
326.443, 286.485
327.800, 128.437
329.156, 138.459
330.512, 145.554
331.868, 79.720
333.224, 79.960
334.579, 5.273
335.935, 12.342
337.290, 146.888
338.645, 189.388
339.999, 121.849
341.354, 251.258
342.708, 239.640
344.062, 260.992
345.416, 254.318
346.769, 317.616
348.123, 213.900
349.476, 285.149
350.829, 253.376
352.182, 275.575
353.534, 213.751
354.887, 248.891
356.239, 219.001
357.591, 214.076
358.942, 123.116
360.294, 23.102
361.645, 49.017
362.996, 41.866
364.347, 76.353
365.698, 101.648
367.048, 155.023
368.398, 205.476
369.748, 241.312
371.098, 285.612
372.448, 362.296
373.797, 436.054
375.146, 578.843
376.495, 579.630
377.844, 736.373
379.192, 833.068
380.540, 914.714
381.889, 908.312
383.236, 1056.875
384.584, 1194.412
385.932, 1241.955
387.279, 1454.562
388.626, 1503.241
389.973, 1532.006
391.319, 1553.858
392.666, 1807.793
394.012, 1867.814
395.358, 2055.920
396.704, 2192.109
398.049, 2357.383
399.394, 2343.740
400.740, 2579.182
402.084, 2814.707
403.429, 3000.315
404.774, 3296.007
406.118, 3521.782
407.462, 3827.640
408.806, 4113.581
410.150, 4589.603
411.493, 4855.709
412.836, 5321.914
414.179, 5608.218
415.522, 5634.621
416.865, 5941.126
418.207, 5947.735
419.549, 5904.439
420.891, 5851.241
422.233, 5568.136
423.575, 5505.126
424.916, 5022.207
426.257, 5149.382
427.598, 4816.647
428.939, 4954.002
430.279, 5001.458
431.619, 5189.000
432.959, 5346.657
434.299, 5744.416
435.639, 6352.269
436.978, 6730.255
438.318, 7238.348
439.657, 8036.561
440.996, 8684.893
442.334, 9403.341
443.673, 10321.915
445.011, 10980.584
446.349, 12229.385
447.687, 13238.316
449.024, 14347.358
450.361, 15696.520
451.699, 17065.803
453.036, 18575.209
454.372, 19944.744
455.709, 21674.400
457.045, 23164.184
458.381, 24784.098
459.717, 25704.117
461.053, 26964.262
462.388, 27344.529
463.724, 27754.918
465.059, 27425.434
466.394, 26866.082
467.728, 26136.850
469.063, 24847.748
470.397, 23658.760
471.731, 22279.893
473.065, 20241.145
474.398, 19072.504
475.732, 17333.967
477.065, 16155.541
478.398, 14677.223
479.731, 13299.016
481.063, 12210.924
482.396, 10962.940
483.728, 10047.654
485.060, 9347.327
486.391, 8429.687
487.723, 7582.157
489.054, 6974.737
490.385, 6347.428
491.716, 5780.222
493.047, 5373.104
494.377, 4886.327
495.708, 4418.836
497.038, 4101.096
498.368, 3728.006
499.697, 3353.047
501.027, 3131.208
502.356, 2843.561
503.685, 2646.545
505.014, 2428.628
506.342, 2170.097
507.671, 2077.611
508.999, 1774.112
510.327, 1592.418
511.655, 1496.274
512.982, 1325.192
514.310, 1372.040
515.637, 1233.357
516.964, 1170.137
518.291, 967.231
519.617, 826.502
520.944, 1025.864
522.270, 802.334
523.596, 711.156
524.921, 897.932
526.247, 834.777
527.572, 903.694
528.897, 1103.681
530.222, 1338.738
531.547, 1727.864
532.871, 1972.059
534.196, 2330.323
535.520, 2822.654
536.844, 2928.055
538.167, 3083.522
539.491, 2679.059
540.814, 2524.663
542.137, 2248.337
543.460, 2113.079
544.783, 1820.890
546.105, 1640.769
547.427, 1635.716
548.749, 1456.730
550.071, 1498.812
551.393, 1333.960
552.714, 1344.175
554.035, 1302.456
555.356, 1342.801
556.677, 1165.211
557.998, 1365.685
559.318, 1274.222
560.638, 1336.822
561.958, 1437.486
563.278, 1370.211
564.597, 1372.997
565.917, 1538.844
567.236, 1534.751
568.555, 1737.719
569.874, 1666.745
571.192, 1756.830
572.511, 1790.974
573.829, 1774.175
575.147, 1712.432
576.464, 1565.747
577.782, 1509.116
579.099, 1485.541
580.416, 1432.021
581.733, 1422.555
583.050, 1448.141
584.366, 1365.780
585.683, 1385.472
586.999, 1328.042
588.315, 1338.161
589.630, 1221.005
590.946, 1267.242
592.261, 1216.830
593.576, 1187.722
594.891, 1280.628
596.206, 1240.827
597.520, 1246.497
598.834, 1260.864
600.148, 1329.567
601.462, 1243.292
602.776, 1301.091
604.089, 1353.813
605.402, 1540.697
606.715, 1568.657
608.028, 1681.978
609.341, 1671.590
610.653, 1815.629
611.965, 1912.470
613.277, 2208.917
614.589, 2403.867
615.901, 2614.690
617.212, 2789.064
618.523, 3130.385
619.834, 3119.601
621.145, 3307.640
622.456, 3157.201
623.766, 3136.345
625.076, 3018.769
626.386, 2863.774
627.696, 2789.121
629.006, 2628.387
630.315, 2359.257
631.624, 2282.030
632.933, 2080.313
634.242, 2154.329
635.551, 2013.648
636.859, 2003.221
638.167, 1995.109
639.475, 1903.164
640.783, 1807.071
642.090, 1867.117
643.398, 1764.424
644.705, 1697.757
646.012, 1804.110
647.318, 1800.932
648.625, 1777.155
649.931, 1717.025
651.237, 1737.417
652.543, 1683.274
653.849, 1763.973
655.155, 1790.466
656.460, 1827.788
657.765, 1904.958
659.070, 1764.364
660.375, 1989.095
661.679, 1974.364
662.984, 1922.978
664.288, 2035.398
665.592, 2042.188
666.895, 2128.222
668.199, 2103.709
669.502, 2151.188
670.805, 2211.690
672.108, 2156.225
673.411, 2239.291
674.713, 2300.448
676.016, 2314.081
677.318, 2429.008
678.620, 2429.646
679.921, 2492.281
681.223, 2572.912
682.524, 2496.528
683.825, 2603.128
685.126, 2552.712
686.427, 2529.279
687.727, 2680.829
689.028, 2719.361
690.328, 2667.874
691.628, 2711.369
692.927, 2646.844
694.227, 2703.299
695.526, 2694.733
696.825, 2619.147
698.124, 2579.538
699.423, 2677.907
700.721, 2498.254
702.020, 2462.578
703.318, 2525.877
704.616, 2330.153
705.913, 2271.405
707.211, 2081.631
708.508, 2074.831
709.805, 1946.824
711.102, 1969.153
712.399, 1756.273
713.695, 1702.365
714.992, 1614.430
716.288, 1341.465
717.584, 1418.472
718.879, 1177.448
720.175, 1141.396
721.470, 971.312
722.765, 922.197
724.060, 878.051
725.355, 831.873
726.649, 747.662
727.944, 541.418
729.238, 493.142
730.532, 436.832
731.825, 329.487
733.119, 303.108
734.412, 273.694
735.705, 232.244
736.998, 182.759
738.291, 184.237
739.584, 76.679
740.876, 96.083
742.168, 115.450
743.460, 14.778
744.752, 164.053
746.043, 55.710
747.334, 8.563
748.626, 30.515
749.916, 124.458
751.207, 30.559
752.498, 84.742
753.788, 62.036
755.078, 81.429
756.368, 79.934
757.658, 15.549
758.947, 108.242
760.237, 125.063
761.526, 45.022
762.815, 81.077
764.104, 84.247
765.392, 105.535
766.680, 116.954
767.969, 77.508
769.257, 116.179
770.544, 112.988
771.832, 56.933
773.119, 70.986
774.406, 116.154
775.693, 96.460
776.980, 119.897
778.267, 112.475
779.553, 116.242
780.839, 108.930
782.125, 97.889
783.411, 80.169
784.697, 73.417
785.982, 55.575
787.267, 47.458
788.552, 58.844
789.837, 47.538
791.122, 67.338
792.406, 72.253
793.690, 74.846
794.974, 88.442
796.258, 90.724
797.542, 63.134
798.825, 79.656
800.108, 64.302
801.391, 72.061
802.674, 46.937
803.957, 6.082
805.239, 4.976
806.522, 40.114
807.804, 34.647
809.085, 5.655
810.367, 3.038
811.649, 18.500
812.930, 111.970
814.211, 25.610
815.492, 57.719
816.772, 101.990
818.053, 53.211
819.333, 37.372
820.613, 79.473
821.893, 54.519
823.173, 153.507
824.452, 159.447
825.732, 189.340
827.011, 144.186
828.290, 211.983
829.568, 169.733
830.847, 102.436
832.125, 185.087
833.403, 154.692
834.681, 229.249
835.959, 215.759
837.236, 230.222
838.514, 179.639
839.791, 212.430
841.068, 214.332
842.345, 242.610
843.621, 258.843
844.898, 251.029
846.174, 343.170
847.450, 200.266
848.726, 241.316
850.001, 336.322
851.277, 292.283
852.552, 355.200
853.827, 285.073
855.102, 299.901
856.376, 342.687
857.651, 335.428
858.925, 448.127
860.199, 424.783
861.473, 446.412
862.746, 428.968
864.020, 463.497
865.293, 370.985
866.566, 409.431
867.839, 455.835
869.112, 513.199
870.384, 426.522
871.656, 456.805
872.928, 461.048
874.200, 456.250
875.472, 575.414
876.744, 399.538
878.015, 392.623
879.286, 493.669
880.557, 388.677
881.828, 455.647
883.098, 394.580
884.369, 485.474
885.639, 437.333
886.909, 376.153
888.178, 472.938
889.448, 375.687
890.717, 460.400
891.987, 396.078
893.256, 310.721
894.524, 383.329
895.793, 425.902
897.061, 446.289
898.330, 386.794
899.598, 387.923
900.865, 404.718
902.133, 288.223
903.401, 372.730
904.668, 327.960
905.935, 353.735
907.202, 314.826
908.468, 296.597
909.735, 359.360
911.001, 325.063
912.267, 360.856
913.533, 417.502
914.799, 498.085
916.064, 384.322
917.330, 356.280
918.595, 509.825
919.860, 451.585
921.124, 542.754
922.389, 459.430
923.653, 670.263
924.918, 604.557
926.182, 751.917
927.445, 826.401
928.709, 919.076
929.972, 1037.379
931.236, 1063.879
932.499, 1249.226
933.761, 1342.008
935.024, 1442.468
936.286, 1703.028
937.549, 1848.000
938.811, 2105.085
940.073, 2344.677
941.334, 2700.548
942.596, 2949.126
943.857, 3381.465
945.118, 3786.499
946.379, 4333.380
947.640, 4743.429
948.900, 5533.348
950.161, 5825.024
951.421, 6785.683
952.681, 7507.327
953.940, 8468.509
955.200, 9391.298
956.459, 10527.805
957.719, 11672.933
958.978, 13156.256
960.236, 14773.603
961.495, 16519.182
962.753, 17994.957
964.012, 20651.943
965.270, 22820.723
966.527, 25605.236
967.785, 28773.268
969.043, 31092.027
970.300, 34770.043
971.557, 36847.773
972.814, 38766.305
974.071, 39274.449
975.327, 39053.664
976.583, 38122.918
977.840, 35162.180
979.095, 32781.430
980.351, 29310.750
981.607, 26450.090
982.862, 23369.160
984.117, 21278.531
985.372, 18837.916
986.627, 17077.326
987.882, 15586.756
989.136, 14046.206
990.390, 13085.695
991.644, 11905.207
992.898, 11054.739
994.152, 10124.296
995.405, 9443.880
996.659, 8853.482
997.912, 8033.107
999.165, 7612.750
1000.417, 7122.425
1001.670, 6622.127
1002.922, 6171.852
1004.174, 5841.613
1005.426, 5361.400
1006.678, 5071.222
1007.930, 4811.086
1009.181, 4670.973
1010.432, 4300.882
1011.683, 4140.831
1012.934, 3954.801
1014.185, 3736.804
1015.435, 3592.841
1016.685, 3460.918
1017.935, 3346.021
1019.185, 3311.150
1020.435, 3039.304
1021.684, 2918.491
1022.934, 2965.705
1024.183, 2715.950
1025.432, 2762.220
1026.680, 2576.517
1027.929, 2507.848
1029.177, 2384.221
1030.425, 2306.621
1031.673, 2409.062
1032.921, 2270.535
1034.169, 2122.047
1035.416, 2058.604
1036.663, 1888.190
1037.911, 1883.810
1039.157, 1812.469
1040.404, 1875.158
1041.650, 1809.893
1042.897, 1735.658
1044.143, 1702.452
1045.389, 1646.291
1046.634, 1598.160
1047.880, 1721.068
1049.125, 1627.011
1050.371, 1666.009
1051.615, 1625.062
1052.860, 1537.156
1054.105, 1622.325
1055.349, 1600.557
1056.593, 1696.854
1057.837, 1649.214
1059.081, 1723.181
1060.325, 1726.738
1061.568, 1829.677
1062.812, 1738.300
1064.055, 1762.063
1065.298, 1763.880
1066.540, 1693.714
1067.783, 1691.778
1069.025, 1643.878
1070.267, 1696.940
1071.509, 1631.144
1072.751, 1503.290
1073.993, 1535.582
1075.234, 1470.043
1076.475, 1403.417
1077.716, 1429.003
1078.957, 1386.089
1080.198, 1333.059
1081.438, 1214.851
1082.679, 1260.938
1083.919, 1178.837
1085.159, 1161.669
1086.398, 1087.955
1087.638, 1132.603
1088.877, 1044.475
1090.116, 1057.307
1091.355, 1014.679
1092.594, 1082.339
1093.833, 1026.971
1095.071, 956.020
1096.309, 1061.037
1097.547, 980.690
1098.785, 879.896
1100.023, 947.685
1101.260, 933.541
1102.498, 976.460
1103.735, 990.985
1104.972, 902.484
1106.208, 999.568
1107.445, 937.001
1108.681, 903.951
1109.918, 958.095
1111.154, 925.361
1112.389, 917.037
1113.625, 1022.657
1114.860, 893.582
1116.096, 915.234
1117.331, 951.265
1118.566, 1009.383
1119.800, 1041.638
1121.035, 998.806
1122.269, 1028.809
1123.503, 1134.445
1124.737, 1023.173
1125.971, 1059.881
1127.205, 1089.930
1128.438, 1000.539
1129.671, 1072.780
1130.904, 884.627
1132.137, 988.585
1133.370, 1018.650
1134.602, 949.723
1135.834, 990.734
1137.066, 1010.373
1138.298, 973.817
1139.530, 1052.626
1140.762, 950.657
1141.993, 966.628
1143.224, 1045.829
1144.455, 913.997
1145.686, 1031.636
1146.917, 974.923
1148.147, 892.452
1149.377, 999.357
1150.607, 888.863
1151.837, 986.293
1153.067, 879.507
1154.296, 864.163
1155.526, 1061.720
1156.755, 940.164
1157.984, 935.743
1159.213, 927.560
1160.441, 922.900
1161.670, 888.234
1162.898, 862.901
1164.126, 845.485
1165.354, 862.031
1166.581, 800.847
1167.809, 788.229
1169.036, 813.744
1170.263, 755.534
1171.490, 734.365
1172.717, 782.896
1173.943, 716.548
1175.170, 671.864
1176.396, 621.066
1177.622, 596.851
1178.848, 638.614
1180.073, 493.249
1181.299, 537.845
1182.524, 444.319
1183.749, 414.129
1184.974, 455.994
1186.199, 310.315
1187.423, 389.277
1188.648, 309.144
1189.872, 242.068
1191.096, 303.737
1192.320, 230.115
1193.543, 323.826
1194.767, 268.156
1195.990, 182.731
1197.213, 204.534
1198.436, 115.112
1199.659, 126.413
1200.881, 163.481
1202.104, 107.825
1203.326, 139.572
1204.548, 38.013
1205.770, 47.863
1206.991, 104.765
1208.213, 43.552
1209.434, 102.906
1210.655, 5.393
1211.876, 4.173
1213.096, 13.616
1214.317, 13.664
1215.537, 55.451
1216.757, 30.100
1217.977, 42.122
1219.197, 123.872
1220.417, 10.670
1221.636, 8.006
1222.855, 74.566
1224.074, 6.100
1225.293, 140.989
1226.512, 18.954
1227.731, 1.768
1228.949, 51.394
1230.167, 69.137
1231.385, 64.413
1232.603, 47.878
1233.820, 54.557
1235.038, 57.235
1236.255, 26.008
1237.472, 1.820
1238.689, 44.511
1239.906, 9.387
1241.122, 48.278
1242.338, 65.877
1243.555, 9.398
1244.771, 64.250
1245.986, 13.163
1247.202, 191.134
1248.417, 222.356
1249.633, 50.375
1250.848, 101.318
1252.063, 21.469
1253.277, 7.167
1254.492, 40.045
1255.706, 21.149
1256.920, 50.479
1258.134, 50.774
1259.348, 63.283
1260.562, 8.149
1261.775, 22.176
1262.988, 59.694
1264.201, 43.249
1265.414, 8.542
1266.627, 24.174
1267.839, 34.681
1269.052, 32.857
1270.264, 34.083
1271.476, 25.471
1272.688, 45.065
1273.899, 3.996
1275.111, 12.866
1276.322, 50.131
1277.533, 32.792
1278.744, 16.304
1279.955, 22.237
1281.165, 0.858
1282.376, 6.985
1283.586, 68.299
1284.796, 7.469
1286.006, 72.044
1287.215, 8.367
1288.425, 5.629
1289.634, 62.061
1290.843, 20.439
1292.052, 47.811
1293.261, 9.906
1294.469, 1.433
1295.678, 33.766
1296.886, 20.098
1298.094, 18.975
1299.302, 21.007
1300.509, 34.050
1301.717, 62.903
1302.924, 50.747
1304.131, 18.470
1305.338, 105.316
1306.545, 7.968
1307.752, 3.549
1308.958, 25.922
1310.164, 77.546
1311.370, 52.534
1312.576, 80.910
1313.782, 16.237
1314.987, 63.260
1316.193, 29.481
1317.398, 111.651
1318.603, 88.828
1319.807, 22.903
1321.012, 9.082
1322.216, 81.919
1323.421, 0.180
1324.625, 44.657
1325.829, 4.488
1327.032, 8.795
1328.236, 91.963
1329.439, 43.859
1330.642, 13.103
1331.845, 82.581
1333.048, 10.992
1334.251, 89.366
1335.453, 129.746
1336.656, 1.001
1337.858, 124.320
1339.060, 71.454
1340.261, 63.535
1341.463, 114.563
1342.664, 16.541
1343.866, 77.455
1345.067, 91.388
1346.267, 23.265
1347.468, 128.009
1348.669, 75.814
1349.869, 117.442
1351.069, 112.018
1352.269, 126.542
1353.469, 50.017
1354.668, 141.434
1355.868, 54.738
1357.067, 127.995
1358.266, 71.253
1359.465, 92.300
1360.664, 170.334
1361.862, 61.434
1363.061, 104.478
1364.259, 156.469
1365.457, 49.406
1366.655, 177.189
1367.852, 163.712
1369.050, 29.423
1370.247, 86.660
1371.444, 79.048
1372.641, 71.648
1373.838, 42.988
1375.035, 35.495
1376.231, 92.092
1377.427, 138.250
1378.623, 131.008
1379.819, 143.659
1381.015, 147.340
1382.211, 124.980
1383.406, 159.145
1384.601, 159.489
1385.796, 108.684
1386.991, 124.369
1388.185, 116.999
1389.380, 110.252
1390.574, 180.889
1391.768, 127.475
1392.962, 164.232
1394.156, 211.240
1395.350, 161.684
1396.543, 240.313
1397.736, 125.109
1398.929, 152.856
1400.122, 211.892
1401.315, 180.310
1402.507, 119.378
1403.700, 212.682
1404.892, 116.454
1406.084, 232.269
1407.276, 214.842
1408.467, 139.964
1409.659, 254.707
1410.850, 164.994
1412.041, 138.013
1413.232, 255.758
1414.423, 133.180
1415.614, 131.773
1416.804, 196.201
1417.994, 167.383
1419.184, 214.445
1420.374, 136.812
1421.564, 174.122
1422.753, 169.396
1423.943, 161.531
1425.132, 158.417
1426.321, 194.364
1427.510, 135.264
1428.698, 168.999
1429.887, 149.948
1431.075, 63.428
1432.263, 207.096
1433.451, 175.284
1434.639, 140.480
1435.827, 229.736
1437.014, 117.731
1438.201, 107.572
1439.388, 197.956
1440.575, 146.199
1441.762, 186.338
1442.949, 168.854
1444.135, 116.940
1445.321, 216.571
1446.507, 130.375
1447.693, 103.279
1448.879, 176.176
1450.064, 159.328
1451.250, 128.179
1452.435, 153.174
1453.620, 24.843
1454.805, 119.031
1455.989, 162.591
1457.174, 13.279
1458.358, 165.923
1459.542, 163.316
1460.726, 81.126
1461.910, 154.227
1463.093, 166.239
1464.277, 75.406
1465.460, 153.557
1466.643, 104.806
1467.826, 68.617
1469.009, 203.838
1470.191, 49.993
1471.373, 140.499
1472.556, 71.338
1473.738, 103.562
1474.919, 136.004
1476.101, 154.358
1477.283, 43.331
1478.464, 167.022
1479.645, 25.594
1480.826, 69.362
1482.007, 125.945
1483.187, 55.545
1484.368, 73.897
1485.548, 81.303
1486.728, 29.159
1487.908, 29.020
1489.088, 70.456
1490.268, 10.901
1491.447, 126.475
1492.626, 61.749
1493.805, 40.032
1494.984, 110.537
1496.163, 45.807
1497.341, 107.746
1498.520, 146.296
1499.698, 36.860
1500.876, 25.997
1502.054, 62.706
