##NAMES=Monazite-(Ce)
##RRUFFID=R040106
##IDEAL CHEMISTRY=CePO_4_
##LOCALITY=Angola
##OWNER=RRUFF
##SOURCE=University of Arizona Mineral Museum
##DESCRIPTION=Brown massive fragment
##STATUS=The identification of this mineral has been confirmed by X-ray diffraction and chemical analysis
##URL=rruff.info/R040106
##MEASURED CHEMISTRY=(Ce_0.41_La_0.17_Nd_0.17_Th_0.14_Ca_0.06_Y_0.04_)(P_0.95_Si_0.05_)O_4_
##PIN_ID=M00462
##ORIENTATION=Laser parallel to -a* (-1 0 0). Fiducial mark perpendicular to laser is parallel to b [0 1 0]
54.966, 0.000
56.365, 65.032
57.765, 304.038
59.164, 566.824
60.563, 591.731
61.962, 621.101
63.360, 332.854
64.758, 48.391
66.157, 24.877
67.554, 31.445
68.952, 54.260
70.349, 233.914
71.747, 436.862
73.144, 654.000
74.540, 1044.917
75.937, 1433.838
77.333, 1837.608
78.729, 2172.077
80.125, 2494.103
81.521, 2898.561
82.916, 3349.343
84.311, 3561.430
85.706, 3695.019
87.101, 3684.682
88.496, 3848.302
89.890, 3890.834
91.284, 4042.247
92.678, 4194.576
94.071, 4147.827
95.465, 4142.949
96.858, 4160.895
98.251, 3982.600
99.644, 4078.996
101.036, 3811.026
102.428, 3811.645
103.820, 3638.817
105.212, 3639.515
106.604, 3614.711
107.995, 3723.388
109.387, 3595.527
110.777, 3560.113
112.168, 3524.208
113.559, 3539.586
114.949, 3700.692
116.339, 4010.455
117.729, 4246.389
119.119, 4343.260
120.508, 4384.523
121.897, 4555.168
123.286, 4831.191
124.675, 4771.588
126.063, 4893.402
127.452, 4926.007
128.840, 4868.570
130.228, 4732.021
131.615, 4370.979
133.003, 4273.201
134.390, 3757.683
135.777, 3377.424
137.164, 2829.428
138.550, 2644.633
139.937, 2255.851
141.323, 1939.088
142.709, 1603.351
144.094, 1382.627
145.480, 1092.908
146.865, 1036.276
148.250, 844.745
149.635, 692.326
151.019, 638.034
152.403, 557.876
153.788, 510.859
155.171, 399.992
156.555, 348.580
157.939, 222.729
159.322, 225.344
160.705, 244.128
162.088, 202.086
163.470, 231.221
164.853, 154.537
166.235, 140.034
167.617, 78.717
168.998, 0.585
170.380, 11.359
171.761, 36.113
173.142, 59.676
174.523, 49.046
175.904, 19.222
177.284, 8.798
178.664, 52.013
180.044, 13.575
181.424, 41.034
182.803, 64.841
184.183, 107.848
185.562, 131.054
186.940, 227.391
188.319, 272.069
189.698, 450.880
191.076, 486.893
192.454, 634.110
193.831, 823.531
195.209, 852.426
196.586, 1058.347
197.963, 1109.863
199.340, 1425.978
200.717, 1566.606
202.093, 1969.552
203.470, 2126.862
204.846, 2347.750
206.221, 2601.966
207.597, 2848.445
208.972, 3195.500
210.347, 3469.178
211.722, 3874.436
213.097, 4293.906
214.472, 4499.586
215.846, 4845.473
217.220, 5324.568
218.594, 5658.871
219.967, 5941.387
221.341, 6088.051
222.714, 6253.887
224.087, 6300.809
225.460, 6506.847
226.832, 6424.748
228.204, 6412.766
229.577, 6168.169
230.948, 5980.541
232.320, 5734.836
233.692, 5539.791
235.063, 5297.380
236.434, 4943.609
237.805, 4794.959
239.175, 4519.588
240.545, 4227.486
241.916, 4057.648
243.286, 3879.063
244.655, 3681.725
246.025, 3636.627
247.394, 3375.763
248.763, 3306.127
250.132, 3177.716
251.501, 3179.521
252.869, 3135.540
254.237, 3182.767
255.605, 3102.199
256.973, 3110.836
258.340, 3259.671
259.708, 3231.701
261.075, 3382.924
262.442, 3467.338
263.808, 3474.937
265.175, 3411.720
266.541, 3632.686
267.907, 3745.834
269.273, 3561.159
270.639, 3831.664
272.004, 3641.343
273.369, 4013.197
274.734, 3951.225
276.099, 3767.425
277.463, 3809.794
278.828, 3723.084
280.192, 3695.666
281.556, 3651.834
282.919, 3703.836
284.283, 3657.004
285.646, 3712.341
287.009, 3595.914
288.372, 3184.512
289.734, 3310.344
291.097, 3141.341
292.459, 2898.498
293.821, 3002.811
295.183, 2659.280
296.544, 2744.900
297.905, 2595.675
299.266, 2448.050
300.627, 2446.678
301.988, 2179.908
303.348, 2089.288
304.709, 1901.821
306.069, 1905.508
307.428, 1916.348
308.788, 1815.343
310.147, 1700.802
311.507, 1496.797
312.865, 1375.258
314.224, 1265.876
315.583, 1136.649
316.941, 1063.880
318.299, 965.667
319.657, 895.911
321.015, 810.841
322.372, 780.868
323.729, 636.581
325.086, 565.451
326.443, 454.477
327.800, 181.659
329.156, 320.999
330.512, 44.492
331.868, 7.144
333.224, 11.921
334.579, 42.741
335.935, 81.697
337.290, 116.540
338.645, 185.980
339.999, 228.710
341.354, 164.073
342.708, 201.308
344.062, 182.590
345.416, 269.575
346.769, 218.449
348.123, 197.204
349.476, 207.767
350.829, 164.238
352.182, 158.733
353.534, 112.992
354.887, 52.116
356.239, 19.099
357.591, 39.064
358.942, 116.997
360.294, 217.430
361.645, 264.539
362.996, 437.457
364.347, 477.162
365.698, 522.932
367.048, 731.085
368.398, 815.032
369.748, 793.104
371.098, 991.320
372.448, 1059.686
373.797, 1115.199
375.146, 1194.861
376.495, 1280.671
377.844, 1576.628
379.192, 1552.730
380.540, 1841.980
381.889, 1747.376
383.236, 1827.918
384.584, 2153.636
385.932, 2093.531
387.279, 2154.605
388.626, 2346.855
389.973, 2571.284
391.319, 2623.171
392.666, 2605.673
394.012, 2791.633
395.358, 2853.779
396.704, 2912.109
398.049, 2987.614
399.394, 3369.288
400.740, 3319.134
402.084, 3508.148
403.429, 3478.332
404.774, 3784.683
406.118, 4243.202
407.462, 4350.888
408.806, 4529.737
410.150, 4993.752
411.493, 5197.934
412.836, 5617.278
414.179, 5942.786
415.522, 5676.455
416.865, 6167.307
418.207, 6005.320
419.549, 5788.496
420.891, 5557.879
422.233, 5204.437
423.575, 4935.158
424.916, 4226.039
426.257, 4219.121
427.598, 3957.381
428.939, 3632.800
430.279, 3688.416
431.619, 3305.235
432.959, 3484.252
434.299, 3641.438
435.639, 4094.849
436.978, 3990.480
438.318, 4380.311
439.657, 4642.341
440.996, 5114.594
442.334, 5615.047
443.673, 6032.176
445.011, 6385.559
446.349, 7099.623
447.687, 7687.888
449.024, 8414.369
450.361, 9266.074
451.699, 9623.993
453.036, 10555.130
454.372, 11491.449
455.709, 12603.995
457.045, 12680.701
458.381, 13732.639
459.717, 14053.763
461.053, 14599.088
462.388, 14911.598
463.724, 15006.285
465.059, 15158.187
466.394, 14403.277
467.728, 13946.555
469.063, 13621.996
470.397, 12621.604
471.731, 11856.383
473.065, 11219.319
474.398, 9993.431
475.732, 9479.704
477.065, 8234.145
478.398, 7707.788
479.731, 7117.580
481.063, 6464.522
482.396, 5862.615
483.728, 5298.858
485.060, 4883.252
486.391, 4224.789
487.723, 3979.472
489.054, 3435.306
490.385, 3238.294
491.716, 2980.418
493.047, 2478.530
494.377, 2266.872
495.708, 2114.417
497.038, 1840.444
498.368, 1701.268
499.697, 1525.365
501.027, 1375.539
502.356, 1216.398
503.685, 1061.001
505.014, 899.448
506.342, 785.830
507.671, 662.106
508.999, 555.392
510.327, 468.408
511.655, 319.177
512.982, 328.256
514.310, 346.995
515.637, 235.797
516.964, 184.660
518.291, 15.609
519.617, 164.238
520.944, 76.205
522.270, 149.707
523.596, 35.468
524.921, 44.760
526.247, 24.828
527.572, 129.695
528.897, 133.337
530.222, 584.095
531.547, 537.969
532.871, 837.958
534.196, 831.062
535.520, 1025.278
536.844, 1262.607
538.167, 1257.051
539.491, 1190.604
540.814, 1112.268
542.137, 859.042
543.460, 839.924
544.783, 892.916
546.105, 695.014
547.427, 727.220
548.749, 655.530
550.071, 787.945
551.393, 839.463
552.714, 891.084
554.035, 984.807
555.356, 1034.811
556.677, 1164.553
557.998, 1174.575
559.318, 1265.695
560.638, 1356.912
561.958, 1269.225
563.278, 1182.635
564.597, 1289.137
565.917, 1064.732
567.236, 1101.422
568.555, 1182.203
569.874, 1112.074
571.192, 1252.035
572.511, 1370.085
573.829, 1352.223
575.147, 1458.291
576.464, 1542.322
577.782, 1569.316
579.099, 1607.693
580.416, 1717.175
581.733, 1949.473
583.050, 2125.196
584.366, 2622.594
585.683, 3023.926
586.999, 2875.723
588.315, 2959.007
589.630, 3412.559
590.946, 3372.459
592.261, 3268.884
593.576, 3008.914
594.891, 2598.295
596.206, 2364.641
597.520, 2259.635
598.834, 2136.029
600.148, 1908.157
601.462, 1837.825
602.776, 1886.588
604.089, 1682.293
605.402, 2001.097
606.715, 2120.148
608.028, 2382.760
609.341, 2471.950
610.653, 2713.711
611.965, 3033.909
613.277, 3374.586
614.589, 3850.536
615.901, 4062.023
617.212, 4400.688
618.523, 4473.234
619.834, 4743.282
621.145, 4614.178
622.456, 4558.226
623.766, 4174.220
625.076, 4276.598
626.386, 3836.974
627.696, 3594.324
629.006, 3012.188
630.315, 3272.135
631.624, 2555.836
632.933, 2578.232
634.242, 2596.988
635.551, 2283.944
636.859, 2273.555
638.167, 2040.543
639.475, 2250.994
640.783, 1868.735
642.090, 1958.043
643.398, 1957.636
644.705, 1958.392
646.012, 1850.788
647.318, 1868.344
648.625, 1818.348
649.931, 1772.245
651.237, 1754.938
652.543, 1688.892
653.849, 1651.569
655.155, 1734.594
656.460, 1747.088
657.765, 1867.801
659.070, 1753.237
660.375, 1751.105
661.679, 1912.020
662.984, 1822.130
664.288, 1823.376
665.592, 1890.561
666.895, 1975.775
668.199, 1804.018
669.502, 1939.280
670.805, 1846.563
672.108, 2094.858
673.411, 1999.156
674.713, 1950.454
676.016, 2153.560
677.318, 2087.841
678.620, 2119.806
679.921, 2079.340
681.223, 2097.335
682.524, 2000.580
683.825, 1964.513
685.126, 2133.734
686.427, 2260.943
687.727, 1928.140
689.028, 2060.321
690.328, 1969.488
691.628, 2039.640
692.927, 2098.774
694.227, 2245.894
695.526, 2126.226
696.825, 2058.078
698.124, 1876.142
699.423, 1867.188
700.721, 1701.212
702.020, 1793.215
703.318, 1698.198
704.616, 1687.158
705.913, 1656.443
707.211, 1393.008
708.508, 1504.896
709.805, 1267.761
711.102, 1082.600
712.399, 1287.414
713.695, 972.199
714.992, 980.959
716.288, 916.690
717.584, 755.393
718.879, 657.066
720.175, 582.151
721.470, 645.325
722.765, 470.907
724.060, 416.459
725.355, 436.979
726.649, 299.466
727.944, 276.920
729.238, 345.340
730.532, 5.727
731.825, 205.041
733.119, 97.320
734.412, 98.444
735.705, 23.665
736.998, 101.707
738.291, 333.703
739.584, 88.339
740.876, 18.493
742.168, 100.253
743.460, 62.038
744.752, 98.445
746.043, 67.986
747.334, 31.353
748.626, 185.383
749.916, 172.298
751.207, 84.386
752.498, 93.605
753.788, 166.962
755.078, 109.493
756.368, 117.170
757.658, 65.998
758.947, 148.949
760.237, 98.069
761.526, 169.333
762.815, 194.772
764.104, 152.404
765.392, 195.205
766.680, 31.200
767.969, 207.305
769.257, 60.391
770.544, 233.986
771.832, 70.577
773.119, 119.299
774.406, 59.174
775.693, 39.175
776.980, 175.292
778.267, 74.591
779.553, 81.022
780.839, 4.411
782.125, 12.248
783.411, 4.007
784.697, 38.788
785.982, 69.797
787.267, 25.141
788.552, 20.003
789.837, 171.249
791.122, 96.323
792.406, 37.831
793.690, 58.263
794.974, 46.624
796.258, 25.911
797.542, 99.119
798.825, 45.264
800.108, 21.336
801.391, 4.671
802.674, 153.229
803.957, 29.076
805.239, 93.848
806.522, 141.556
807.804, 94.209
809.085, 137.091
810.367, 183.336
811.649, 93.820
812.930, 198.243
814.211, 86.617
815.492, 154.930
816.772, 283.188
818.053, 239.400
819.333, 352.567
820.613, 292.688
821.893, 443.766
823.173, 380.797
824.452, 417.783
825.732, 548.726
827.011, 421.621
828.290, 312.475
829.568, 529.282
830.847, 401.047
832.125, 635.768
833.403, 489.443
834.681, 481.093
835.959, 604.697
837.236, 495.258
838.514, 664.778
839.791, 684.255
841.068, 683.688
842.345, 645.080
843.621, 811.428
844.898, 770.733
846.174, 760.996
847.450, 945.218
848.726, 782.397
850.001, 890.535
851.277, 859.631
852.552, 938.687
853.827, 999.700
855.102, 921.675
856.376, 931.607
857.651, 1059.500
858.925, 1060.354
860.199, 1101.166
861.473, 1068.938
862.746, 1241.672
864.020, 1265.365
865.293, 1026.021
866.566, 1238.639
867.839, 1195.217
869.112, 1194.758
870.384, 1234.260
871.656, 1248.726
872.928, 1101.152
874.200, 1242.543
875.472, 1179.895
876.744, 1185.151
878.015, 1357.491
879.286, 1163.735
880.557, 1202.944
881.828, 1111.117
883.098, 1213.256
884.369, 1138.796
885.639, 1148.864
886.909, 1025.301
888.178, 951.403
889.448, 847.453
890.717, 952.736
891.987, 828.641
893.256, 861.921
894.524, 879.313
895.793, 776.289
897.061, 784.825
898.330, 768.139
899.598, 710.150
900.865, 815.683
902.133, 764.660
903.401, 682.345
904.668, 750.113
905.935, 787.276
907.202, 582.084
908.468, 693.201
909.735, 668.830
911.001, 647.414
912.267, 532.097
913.533, 603.745
914.799, 655.222
916.064, 611.208
917.330, 759.689
918.595, 592.648
919.860, 590.232
921.124, 741.398
922.389, 782.347
923.653, 855.827
924.918, 926.171
926.182, 1015.705
927.445, 1093.800
928.709, 1223.096
929.972, 1235.318
931.236, 1397.641
932.499, 1674.632
933.761, 1776.666
935.024, 1910.786
936.286, 2282.424
937.549, 2622.018
938.811, 2893.912
940.073, 3216.174
941.334, 3586.111
942.596, 4053.879
943.857, 4559.029
945.118, 5150.848
946.379, 5723.234
947.640, 6472.358
948.900, 7366.943
950.161, 8009.271
951.421, 8963.480
952.681, 9994.085
953.940, 11252.559
955.200, 12538.697
956.459, 14003.462
957.719, 15550.312
958.978, 17280.543
960.236, 19150.072
961.495, 21074.312
962.753, 23793.139
964.012, 26350.814
965.270, 29337.828
966.527, 33171.453
967.785, 36122.086
969.043, 39811.562
970.300, 43085.969
971.557, 45712.473
972.814, 47572.016
974.071, 48047.590
975.327, 47276.188
976.583, 44440.820
977.840, 42325.465
979.095, 38054.141
980.351, 34019.844
981.607, 30425.572
982.862, 26499.318
984.117, 23609.078
985.372, 21336.863
986.627, 18056.680
987.882, 16475.512
989.136, 14898.367
990.390, 13160.247
991.644, 12148.146
992.898, 11051.067
994.152, 10004.018
995.405, 9373.990
996.659, 8367.992
997.912, 7756.014
999.165, 7195.057
1000.417, 6548.123
1001.670, 6095.623
1002.922, 5922.324
1004.174, 5246.456
1005.426, 4988.610
1006.678, 4704.785
1007.930, 4315.980
1009.181, 4333.197
1010.432, 4081.434
1011.683, 4090.693
1012.934, 3717.971
1014.185, 3647.273
1015.435, 3686.596
1016.685, 3479.941
1017.935, 3330.309
1019.185, 3278.695
1020.435, 3320.106
1021.684, 3162.541
1022.934, 3176.999
1024.183, 3391.483
1025.432, 3171.995
1026.680, 3184.529
1027.929, 2939.085
1029.177, 3099.664
1030.425, 3008.265
1031.673, 3157.887
1032.921, 2903.531
1034.169, 2841.199
1035.416, 2931.907
1036.663, 2966.640
1037.911, 2971.399
1039.157, 2921.226
1040.404, 2886.119
1041.650, 2909.010
1042.897, 3016.922
1044.143, 2852.898
1045.389, 2865.185
1046.634, 3015.441
1047.880, 3017.566
1049.125, 3079.105
1050.371, 3159.596
1051.615, 3371.934
1052.860, 3320.604
1054.105, 3627.854
1055.349, 3744.707
1056.593, 3793.106
1057.837, 3889.045
1059.081, 4261.568
1060.325, 4160.807
1061.568, 4361.353
1062.812, 4315.800
1064.055, 4383.756
1065.298, 4295.846
1066.540, 4291.865
1067.783, 4109.021
1069.025, 3935.820
1070.267, 4037.495
1071.509, 3541.838
1072.751, 3499.633
1073.993, 3558.214
1075.234, 3514.996
1076.475, 3403.139
1077.716, 2911.764
1078.957, 2701.758
1080.198, 2607.057
1081.438, 2644.869
1082.679, 2367.352
1083.919, 2270.332
1085.159, 2011.300
1086.398, 1916.811
1087.638, 1976.270
1088.877, 1771.500
1090.116, 1680.955
1091.355, 1571.062
1092.594, 1492.227
1093.833, 1384.281
1095.071, 1274.347
1096.309, 1250.781
1097.547, 1295.202
1098.785, 1223.689
1100.023, 1095.212
1101.260, 1167.265
1102.498, 1068.413
1103.735, 1000.942
1104.972, 1054.918
1106.208, 888.492
1107.445, 972.284
1108.681, 815.763
1109.918, 882.860
1111.154, 819.467
1112.389, 905.705
1113.625, 934.587
1114.860, 767.154
1116.096, 787.772
1117.331, 814.275
1118.566, 765.260
1119.800, 781.974
1121.035, 826.173
1122.269, 804.857
1123.503, 987.008
1124.737, 938.235
1125.971, 950.288
1127.205, 774.712
1128.438, 702.101
1129.671, 771.818
1130.904, 576.163
1132.137, 717.791
1133.370, 682.904
1134.602, 610.396
1135.834, 575.796
1137.066, 498.975
1138.298, 686.350
1139.530, 542.068
1140.762, 572.556
1141.993, 535.125
1143.224, 489.941
1144.455, 474.679
1145.686, 424.410
1146.917, 455.065
1148.147, 535.865
1149.377, 501.322
1150.607, 523.939
1151.837, 498.297
1153.067, 409.443
1154.296, 481.475
1155.526, 542.396
1156.755, 386.241
1157.984, 325.130
1159.213, 399.957
1160.441, 425.784
1161.670, 528.107
1162.898, 503.062
1164.126, 408.743
1165.354, 349.648
1166.581, 276.309
1167.809, 294.891
1169.036, 234.559
1170.263, 347.679
1171.490, 365.473
1172.717, 353.743
1173.943, 233.104
1175.170, 250.383
1176.396, 176.276
1177.622, 325.633
1178.848, 344.956
1180.073, 123.458
1181.299, 241.821
1182.524, 213.558
1183.749, 96.282
1184.974, 218.522
1186.199, 164.127
1187.423, 73.428
1188.648, 144.369
1189.872, 116.204
1191.096, 143.320
1192.320, 33.372
1193.543, 51.282
1194.767, 101.172
1195.990, 22.982
1197.213, 53.704
1198.436, 26.571
1199.659, 79.011
1200.881, 13.467
1202.104, 51.003
1203.326, 11.786
1204.548, 75.542
1205.770, 60.208
1206.991, 27.028
1208.213, 1.221
1209.434, 98.556
1210.655, 151.407
1211.876, 118.451
1213.096, 145.865
1214.317, 29.446
1215.537, 104.020
1216.757, 83.541
1217.977, 74.975
1219.197, 111.824
1220.417, 23.696
1221.636, 137.438
1222.855, 92.592
1224.074, 50.047
1225.293, 165.020
1226.512, 39.574
1227.731, 61.288
1228.949, 21.679
1230.167, 91.308
1231.385, 42.061
1232.603, 15.923
1233.820, 76.966
1235.038, 102.908
1236.255, 9.088
1237.472, 59.665
1238.689, 15.787
1239.906, 44.292
1241.122, 5.184
1242.338, 46.488
1243.555, 52.767
1244.771, 14.813
1245.986, 37.146
1247.202, 18.576
1248.417, 14.408
1249.633, 6.967
1250.848, 108.187
1252.063, 20.619
1253.277, 43.673
1254.492, 84.122
1255.706, 56.944
1256.920, 31.985
1258.134, 24.942
1259.348, 2.117
1260.562, 85.833
1261.775, 82.301
1262.988, 97.885
1264.201, 47.525
1265.414, 75.750
1266.627, 16.236
1267.839, 23.541
1269.052, 19.422
1270.264, 1.511
1271.476, 50.430
1272.688, 17.337
1273.899, 41.153
1275.111, 34.188
1276.322, 127.650
1277.533, 94.103
1278.744, 54.401
1279.955, 21.761
1281.165, 121.984
1282.376, 55.266
1283.586, 125.248
1284.796, 85.106
1286.006, 48.879
1287.215, 47.559
1288.425, 42.244
1289.634, 84.744
1290.843, 85.177
1292.052, 116.502
1293.261, 67.848
1294.469, 110.998
1295.678, 94.062
1296.886, 121.038
1298.094, 144.925
1299.302, 157.741
1300.509, 171.449
1301.717, 186.407
1302.924, 171.607
1304.131, 182.048
1305.338, 177.405
1306.545, 113.677
1307.752, 156.045
1308.958, 198.332
1310.164, 158.315
1311.370, 193.563
1312.576, 135.402
1313.782, 118.152
1314.987, 123.815
1316.193, 81.392
1317.398, 107.880
1318.603, 100.270
1319.807, 244.690
1321.012, 137.911
1322.216, 213.048
1323.421, 214.099
1324.625, 176.072
1325.829, 191.003
1327.032, 141.807
1328.236, 140.052
1329.439, 198.246
1330.642, 147.793
1331.845, 180.255
1333.048, 246.626
1334.251, 263.922
1335.453, 191.139
1336.656, 195.273
1337.858, 220.058
1339.060, 215.816
1340.261, 225.761
1341.463, 236.881
1342.664, 226.600
1343.866, 253.183
1345.067, 237.446
1346.267, 243.137
1347.468, 294.205
1348.669, 253.714
1349.869, 260.984
1351.069, 259.087
1352.269, 227.790
1353.469, 221.133
1354.668, 211.654
1355.868, 219.590
1357.067, 271.395
1358.266, 112.675
1359.465, 259.437
1360.664, 215.573
1361.862, 166.811
1363.061, 239.402
1364.259, 210.500
1365.457, 70.908
1366.655, 220.034
1367.852, 259.802
1369.050, 132.075
1370.247, 212.954
1371.444, 227.542
1372.641, 126.586
1373.838, 157.951
1375.035, 124.787
1376.231, 192.868
1377.427, 186.481
1378.623, 129.737
1379.819, 148.213
1381.015, 143.389
1382.211, 175.800
1383.406, 164.772
1384.601, 140.410
1385.796, 166.053
1386.991, 157.803
1388.185, 187.442
1389.380, 168.521
1390.574, 255.194
1391.768, 123.420
1392.962, 173.489
1394.156, 17.076
1395.350, 132.815
1396.543, 179.063
1397.736, 121.556
1398.929, 226.460
1400.122, 180.914
1401.315, 133.628
1402.507, 162.074
1403.700, 110.648
1404.892, 224.641
1406.084, 185.935
1407.276, 92.197
1408.467, 222.766
1409.659, 113.343
1410.850, 153.656
1412.041, 257.152
1413.232, 139.072
1414.423, 157.404
1415.614, 140.739
1416.804, 140.891
1417.994, 66.934
1419.184, 236.567
1420.374, 163.708
1421.564, 229.728
1422.753, 137.355
1423.943, 145.556
1425.132, 109.932
1426.321, 158.540
1427.510, 219.390
1428.698, 184.040
1429.887, 209.376
1431.075, 135.965
1432.263, 191.568
1433.451, 148.299
1434.639, 183.004
1435.827, 122.636
1437.014, 170.178
1438.201, 185.992
1439.388, 195.477
1440.575, 155.350
1441.762, 130.161
1442.949, 160.366
1444.135, 264.751
1445.321, 214.587
1446.507, 199.817
1447.693, 158.624
1448.879, 151.506
1450.064, 70.657
1451.250, 66.341
1452.435, 38.750
1453.620, 192.512
1454.805, 180.627
1455.989, 182.628
1457.174, 177.644
1458.358, 163.947
1459.542, 193.536
1460.726, 172.128
1461.910, 63.736
1463.093, 150.233
1464.277, 135.650
1465.460, 105.630
1466.643, 163.736
1467.826, 71.871
1469.009, 238.793
