##NAMES=Monazite-(Ce)
##RRUFFID=R040106
##IDEAL CHEMISTRY=CePO_4_
##LOCALITY=Angola
##OWNER=RRUFF
##SOURCE=University of Arizona Mineral Museum
##DESCRIPTION=Brown massive fragment
##STATUS=The identification of this mineral has been confirmed by X-ray diffraction and chemical analysis
##URL=rruff.info/R040106
##MEASURED CHEMISTRY=(Ce_0.41_La_0.17_Nd_0.17_Th_0.14_Ca_0.06_Y_0.04_)(P_0.95_Si_0.05_)O_4_
##PIN_ID=M00371
##ORIENTATION=Laser parallel to (1 0 1). Fiducial mark perpendicular to laser is parallel to b [0 1 0]
107.207, 0.000
108.603, 1.986
109.998, 0.908
111.393, 86.411
112.787, 209.219
114.182, 247.276
115.576, 372.902
116.970, 371.198
118.363, 448.793
119.757, 511.867
121.150, 650.455
122.543, 670.882
123.936, 796.250
125.328, 810.442
126.720, 911.155
128.112, 961.350
129.504, 1042.587
130.896, 1070.080
132.287, 985.470
133.678, 876.507
135.069, 812.904
136.460, 664.725
137.850, 532.144
139.240, 565.296
140.630, 373.832
142.020, 294.540
143.410, 234.467
144.799, 149.330
146.188, 155.428
147.577, 92.720
148.965, 93.878
150.354, 283.967
151.742, 227.424
153.130, 400.744
154.517, 370.806
155.905, 492.652
157.292, 384.723
158.679, 386.090
160.066, 366.342
161.452, 283.938
162.839, 348.082
164.225, 233.174
165.611, 172.376
166.996, 173.681
168.381, 208.081
169.767, 245.569
171.152, 288.050
172.536, 397.739
173.921, 398.388
175.305, 449.166
176.689, 501.887
178.073, 480.651
179.456, 346.461
180.839, 231.321
182.222, 224.232
183.605, 142.199
184.988, 119.224
186.370, 118.309
187.752, 111.458
189.134, 27.672
190.516, 62.974
191.898, 0.279
193.279, 131.273
194.660, 24.981
196.041, 119.434
197.421, 125.658
198.801, 75.680
200.182, 130.526
201.561, 87.222
202.941, 73.791
204.321, 2.253
205.700, 23.628
207.079, 33.066
208.457, 30.188
209.836, 80.582
211.214, 154.346
212.592, 169.101
213.970, 121.836
215.348, 212.542
216.725, 205.210
218.102, 382.833
219.479, 326.395
220.856, 357.886
222.232, 456.342
223.608, 336.794
224.984, 370.257
226.360, 390.735
227.736, 354.211
229.111, 352.667
230.486, 308.099
231.861, 309.442
233.236, 265.623
234.610, 283.625
235.984, 241.891
237.358, 238.476
238.732, 161.539
240.105, 216.056
241.479, 155.583
242.852, 124.170
244.224, 144.813
245.597, 124.962
246.969, 159.017
248.342, 173.146
249.713, 231.064
251.085, 317.054
252.457, 348.114
253.828, 311.245
255.199, 432.448
256.570, 577.721
257.940, 569.066
259.310, 745.482
260.681, 733.972
262.050, 762.532
263.420, 849.167
264.790, 817.875
266.159, 995.655
267.528, 1004.509
268.896, 1136.438
270.265, 1168.443
271.633, 1328.526
273.001, 1284.725
274.369, 1410.196
275.737, 1547.665
277.104, 1601.011
278.471, 1744.130
279.838, 1744.007
281.205, 1710.634
282.572, 1862.004
283.938, 1807.102
285.304, 1791.925
286.670, 1761.476
288.035, 1734.752
289.401, 1736.765
290.766, 1642.498
292.131, 1637.153
293.495, 1632.015
294.860, 1560.809
296.224, 1506.316
297.588, 1441.550
298.952, 1375.516
300.315, 1419.227
301.679, 1409.650
303.042, 1257.822
304.405, 1206.825
305.767, 1266.540
307.130, 1178.827
308.492, 1268.771
309.854, 1100.054
311.216, 1124.215
312.578, 1055.591
313.939, 920.222
315.300, 972.954
316.661, 878.516
318.021, 879.650
319.382, 836.904
320.742, 764.653
322.102, 734.642
323.462, 699.602
324.821, 604.525
326.181, 598.769
327.540, 592.811
328.899, 584.741
330.257, 489.754
331.616, 476.028
332.974, 466.156
334.332, 360.975
335.690, 397.362
337.047, 352.583
338.405, 292.906
339.762, 269.541
341.119, 289.496
342.475, 308.460
343.832, 334.962
345.188, 362.834
346.544, 303.782
347.900, 453.975
349.255, 407.975
350.610, 462.149
351.965, 590.397
353.320, 559.288
354.675, 550.029
356.029, 629.952
357.384, 699.927
358.738, 796.844
360.091, 838.098
361.445, 851.223
362.798, 987.756
364.151, 920.101
365.504, 1083.478
366.857, 1134.943
368.209, 1172.436
369.561, 1234.077
370.913, 1375.104
372.265, 1398.869
373.617, 1583.138
374.968, 1561.570
376.319, 1686.490
377.670, 1805.296
379.021, 1980.564
380.371, 2014.886
381.721, 2156.507
383.071, 2240.450
384.421, 2356.307
385.770, 2530.211
387.120, 2619.167
388.469, 2666.171
389.818, 3020.226
391.166, 3116.330
392.515, 3182.486
393.863, 3388.691
395.211, 3504.948
396.559, 3571.258
397.906, 3507.620
399.254, 3784.036
400.601, 3850.507
401.948, 3727.034
403.294, 3753.617
404.641, 3760.254
405.987, 3946.910
407.333, 4253.660
408.679, 4320.464
410.025, 4547.324
411.370, 4694.240
412.715, 5121.211
414.060, 5408.236
415.405, 5705.315
416.749, 6112.451
418.093, 6169.641
419.437, 6146.883
420.781, 5964.207
422.125, 5731.585
423.468, 5389.025
424.811, 4746.541
426.154, 4274.140
427.497, 3741.826
428.839, 3379.600
430.182, 2989.607
431.524, 2605.392
432.866, 2364.410
434.207, 2111.505
435.549, 1875.642
436.890, 1794.858
438.231, 1754.125
439.572, 1600.455
440.912, 1598.813
442.252, 1698.218
443.593, 1503.688
444.932, 1655.196
446.272, 1650.755
447.611, 1633.374
448.951, 1658.046
450.290, 1694.718
451.628, 1769.532
452.967, 1832.339
454.305, 1980.195
455.644, 2117.093
456.981, 2192.051
458.319, 2234.070
459.657, 2432.142
460.994, 2486.278
462.331, 2535.469
463.668, 2652.712
465.004, 2672.013
466.341, 2631.367
467.677, 2620.789
469.013, 2549.260
470.348, 2463.791
471.684, 2378.391
473.019, 2338.041
474.354, 2168.752
475.689, 1875.521
477.024, 1781.371
478.358, 1680.279
479.692, 1476.246
481.026, 1453.271
482.360, 1267.354
483.694, 1268.500
485.027, 1169.714
486.360, 865.988
487.693, 1025.327
489.026, 802.725
490.358, 690.188
491.691, 688.719
493.023, 486.317
494.354, 562.980
495.686, 482.704
497.017, 391.487
498.349, 371.325
499.680, 286.217
501.010, 267.742
502.341, 176.160
503.671, 246.210
505.001, 215.626
506.331, 237.475
507.661, 217.692
508.990, 133.968
510.319, 171.305
511.648, 102.702
512.977, 36.159
514.306, 1.314
515.634, 32.304
516.962, 23.995
518.290, 43.795
519.618, 47.750
520.945, 30.812
522.273, 3.737
523.600, 3.908
524.927, 8.610
526.253, 123.457
527.580, 36.029
528.906, 52.540
530.232, 108.988
531.558, 55.396
532.883, 7.742
534.208, 55.038
535.534, 28.709
536.858, 71.502
538.183, 54.345
539.508, 181.234
540.832, 185.169
542.156, 157.148
543.480, 189.172
544.803, 179.239
546.127, 256.350
547.450, 189.503
548.773, 232.701
550.096, 487.940
551.418, 311.223
552.741, 474.548
554.063, 449.915
555.385, 537.323
556.706, 666.773
558.028, 849.266
559.349, 808.798
560.670, 1006.372
561.991, 1027.986
563.312, 1103.640
564.632, 1123.334
565.952, 1172.069
567.272, 1368.843
568.592, 1637.656
569.911, 1934.508
571.231, 2187.398
572.550, 2112.327
573.869, 2208.294
575.187, 2024.299
576.506, 1907.341
577.824, 1595.421
579.142, 1352.387
580.460, 1182.540
581.778, 1182.381
583.095, 1159.093
584.412, 1109.538
585.729, 1141.123
587.046, 1086.103
588.363, 1204.405
589.679, 1166.236
590.995, 1247.583
592.311, 1091.345
593.627, 1043.864
594.942, 1129.698
596.258, 924.591
597.573, 900.218
598.888, 800.724
600.202, 775.834
601.517, 772.577
602.831, 824.614
604.145, 683.267
605.459, 921.860
606.772, 870.236
608.086, 886.918
609.399, 1025.716
610.712, 1038.034
612.024, 1159.503
613.337, 1266.133
614.649, 1433.922
615.961, 1526.079
617.273, 1607.725
618.585, 1670.025
619.896, 1777.406
621.208, 1812.529
622.519, 1832.206
623.829, 1875.653
625.140, 1809.616
626.450, 1781.154
627.761, 1725.671
629.071, 1752.162
630.380, 1484.317
631.690, 1336.819
632.999, 1141.977
634.308, 1154.513
635.617, 972.770
636.926, 1085.445
638.235, 1049.662
639.543, 1069.942
640.851, 1047.642
642.159, 1005.362
643.466, 949.634
644.774, 1058.919
646.081, 929.217
647.388, 1015.527
648.695, 1000.848
650.002, 1056.182
651.308, 956.526
652.614, 827.881
653.920, 1067.248
655.226, 874.624
656.531, 993.011
657.837, 928.408
659.142, 783.814
660.447, 1081.230
661.752, 987.655
663.056, 967.088
664.360, 1144.531
665.664, 1088.981
666.968, 1037.441
668.272, 1107.907
669.575, 1086.683
670.879, 1121.863
672.182, 1072.318
673.484, 1183.814
674.787, 1028.315
676.089, 1314.823
677.392, 1178.335
678.694, 1125.854
679.995, 1237.363
681.297, 1304.879
682.598, 1266.335
683.899, 1300.799
685.200, 1191.975
686.501, 1275.908
687.802, 1197.722
689.102, 1220.608
690.402, 1260.086
691.702, 1303.977
693.002, 1211.527
694.301, 1252.079
695.600, 1083.631
696.899, 1210.187
698.198, 1079.742
699.497, 1109.298
700.795, 1045.855
702.093, 1109.413
703.391, 989.971
704.689, 955.528
705.987, 942.086
707.284, 823.643
708.581, 863.200
709.878, 764.756
711.175, 811.312
712.472, 781.866
713.768, 722.419
715.064, 552.971
716.360, 556.522
717.656, 515.071
718.951, 455.618
720.247, 425.164
721.542, 312.706
722.837, 368.247
724.131, 204.785
725.426, 239.321
726.720, 195.854
728.014, 167.385
729.308, 198.912
730.601, 66.436
731.895, 107.957
733.188, 80.474
734.481, 73.012
735.774, 115.445
737.067, 3.897
738.359, 47.671
739.651, 93.286
740.943, 93.968
742.235, 100.721
743.526, 87.547
744.818, 61.439
746.109, 86.386
747.400, 58.399
748.691, 70.466
749.981, 211.593
751.271, 92.385
752.562, 138.347
753.851, 3.405
755.141, 60.039
756.431, 138.538
757.720, 23.131
759.009, 67.762
760.298, 100.452
761.587, 62.216
762.875, 50.037
764.163, 16.908
765.451, 7.813
766.739, 28.523
768.027, 5.280
769.314, 67.716
770.601, 56.771
771.888, 30.878
773.175, 59.024
774.462, 26.224
775.748, 9.461
777.034, 23.726
778.320, 11.025
779.606, 53.353
780.892, 30.269
782.177, 19.119
783.462, 36.539
784.747, 53.002
786.032, 7.539
787.317, 88.058
788.601, 81.427
789.885, 47.027
791.169, 27.478
792.453, 81.919
793.736, 46.358
795.019, 25.793
796.303, 1.220
797.585, 54.629
798.868, 146.035
800.151, 99.439
801.433, 62.841
802.715, 176.242
803.997, 135.642
805.279, 194.040
806.560, 239.437
807.841, 142.833
809.122, 247.228
810.403, 291.622
811.684, 286.014
812.964, 339.559
814.245, 220.799
815.525, 361.191
816.804, 313.583
818.084, 295.974
819.363, 378.366
820.643, 442.757
821.922, 330.149
823.201, 443.541
824.479, 406.933
825.758, 476.326
827.036, 592.720
828.314, 546.115
829.592, 518.510
830.869, 528.906
832.147, 568.303
833.424, 564.702
834.701, 579.101
835.977, 642.502
837.254, 676.906
838.530, 610.321
839.807, 629.739
841.082, 604.163
842.358, 776.596
843.634, 657.036
844.909, 704.478
846.184, 753.925
847.459, 712.375
848.734, 826.828
850.008, 775.283
851.283, 823.741
852.557, 738.202
853.831, 853.667
855.105, 862.134
856.378, 918.605
857.651, 826.080
858.925, 864.559
860.197, 884.041
861.470, 860.618
862.743, 921.297
864.015, 887.510
865.287, 970.008
866.559, 1024.511
867.831, 967.018
869.102, 944.530
870.373, 895.047
871.645, 979.568
872.915, 1027.095
874.186, 890.627
875.457, 1014.164
876.727, 936.707
877.997, 890.255
879.267, 788.809
880.536, 757.369
881.806, 860.935
883.075, 626.507
884.344, 748.085
885.613, 680.670
886.882, 699.261
888.150, 694.009
889.419, 572.614
890.687, 583.574
891.954, 642.709
893.222, 519.153
894.490, 614.533
895.757, 401.497
897.024, 398.227
898.291, 378.470
899.557, 299.245
900.824, 385.650
902.090, 329.347
903.356, 277.773
904.622, 191.183
905.888, 244.910
907.153, 224.808
908.418, 198.145
909.683, 165.896
910.948, 243.397
912.213, 76.326
913.477, 94.372
914.741, 198.679
916.005, 102.754
917.269, 193.774
918.533, 80.319
919.796, 124.781
921.060, 155.143
922.323, 246.405
923.585, 268.377
924.848, 193.929
926.111, 358.897
927.373, 367.849
928.635, 480.770
929.897, 563.994
931.158, 671.964
932.420, 714.578
933.681, 787.594
934.942, 967.307
936.203, 1089.331
937.463, 1337.771
938.724, 1474.133
939.984, 1739.901
941.244, 1983.341
942.504, 2365.119
943.764, 2516.545
945.023, 2762.472
946.282, 3320.387
947.541, 3620.931
948.800, 4065.500
950.059, 4710.568
951.317, 5135.671
952.575, 5900.803
953.833, 6535.982
955.091, 7371.188
956.349, 8256.439
957.606, 8981.736
958.864, 10207.070
960.121, 11402.440
961.377, 12547.836
962.634, 14293.261
963.891, 15808.731
965.147, 17494.227
966.403, 20229.756
967.659, 21945.322
968.914, 24370.916
970.170, 26936.531
971.425, 28402.186
972.680, 31577.859
973.935, 31833.568
975.190, 32179.303
976.444, 30985.074
977.698, 28710.865
978.952, 26956.691
980.206, 24032.539
981.460, 21138.418
982.713, 18544.326
983.967, 16100.258
985.220, 14036.218
986.473, 12602.207
987.725, 10508.226
988.978, 9684.273
990.230, 8360.347
991.482, 7416.443
992.734, 6812.567
993.986, 5968.719
995.237, 5474.896
996.488, 4991.098
997.739, 4507.327
998.990, 4243.584
1000.241, 3676.865
1001.492, 3423.170
1002.742, 3340.500
1003.992, 3156.854
1005.242, 2892.234
1006.492, 2457.639
1007.741, 2447.068
1008.990, 2299.521
1010.239, 2244.001
1011.488, 2232.506
1012.737, 2019.034
1013.986, 1856.587
1015.234, 1983.165
1016.482, 1736.768
1017.730, 1896.396
1018.978, 1749.050
1020.225, 1646.728
1021.473, 1761.430
1022.720, 1575.156
1023.967, 1556.906
1025.213, 1634.680
1026.460, 1544.478
1027.706, 1604.301
1028.953, 1549.146
1030.198, 1438.016
1031.444, 1591.909
1032.690, 1534.824
1033.935, 1652.762
1035.180, 1656.725
1036.425, 1519.709
1037.670, 1685.716
1038.915, 1511.771
1040.159, 1688.848
1041.403, 1711.175
1042.647, 1791.408
1043.891, 1904.802
1045.135, 1924.203
1046.378, 2149.139
1047.621, 2226.586
1048.864, 2260.044
1050.107, 2562.915
1051.350, 2588.660
1052.592, 2766.532
1053.835, 3048.424
1055.077, 3185.974
1056.318, 3417.262
1057.560, 3644.557
1058.802, 3840.916
1060.043, 4028.335
1061.284, 4264.649
1062.525, 4406.916
1063.765, 4653.463
1065.006, 4565.766
1066.246, 4661.168
1067.486, 4654.861
1068.726, 4433.209
1069.966, 4626.350
1071.205, 4385.976
1072.445, 4273.050
1073.684, 4217.999
1074.923, 3941.807
1076.161, 3941.304
1077.400, 3865.038
1078.638, 3481.165
1079.876, 3509.217
1081.114, 3232.086
1082.352, 3137.402
1083.590, 2961.054
1084.827, 2683.136
1086.064, 2593.520
1087.301, 2466.103
1088.538, 2232.034
1089.775, 2257.655
1091.011, 1982.246
1092.247, 1944.957
1093.483, 1804.443
1094.719, 1593.508
1095.955, 1600.976
1097.190, 1372.850
1098.425, 1375.762
1099.660, 1361.243
1100.895, 1195.405
1102.130, 1094.566
1103.364, 1170.003
1104.598, 937.762
1105.833, 1000.997
1107.066, 1121.220
1108.300, 956.919
1109.534, 810.371
1110.767, 759.638
1112.000, 713.028
1113.233, 727.299
1114.466, 660.166
1115.698, 659.293
1116.930, 555.487
1118.163, 569.829
1119.394, 562.856
1120.626, 516.965
1121.858, 510.685
1123.089, 460.347
1124.320, 436.408
1125.551, 500.645
1126.782, 361.683
1128.013, 393.980
1129.243, 469.189
1130.473, 299.645
1131.703, 423.096
1132.933, 311.088
1134.163, 356.635
1135.392, 374.304
1136.621, 234.137
1137.850, 356.261
1139.079, 370.067
1140.308, 189.914
1141.536, 319.345
1142.765, 206.077
1143.993, 268.843
1145.221, 309.205
1146.448, 197.859
1147.676, 292.576
1148.903, 296.289
1150.130, 170.801
1151.357, 323.304
1152.584, 227.888
1153.810, 239.685
1155.037, 301.357
1156.263, 219.767
1157.489, 265.678
1158.715, 288.417
1159.940, 231.858
1161.166, 223.505
1162.391, 296.083
1163.616, 254.712
1164.841, 264.573
1166.065, 129.427
1167.290, 228.913
1168.514, 165.607
1169.738, 195.967
1170.962, 214.444
1172.185, 171.959
1173.409, 163.464
1174.632, 148.449
1175.855, 166.417
1177.078, 109.783
1178.301, 98.285
1179.523, 80.432
1180.746, 138.702
1181.968, 68.087
1183.190, 123.320
1184.412, 60.467
1185.633, 109.469
1186.855, 117.588
1188.076, 9.734
1189.297, 45.608
1190.518, 23.637
1191.738, 38.815
1192.959, 49.320
1194.179, 60.688
1195.399, 20.300
1196.619, 1.385
1197.838, 21.687
1199.058, 17.949
1200.277, 36.589
1201.496, 27.699
1202.715, 21.197
1203.934, 5.260
1205.152, 5.883
1206.371, 9.263
1207.589, 28.830
1208.807, 42.669
1210.024, 18.584
1211.242, 102.876
1212.459, 54.757
1213.677, 23.630
1214.894, 82.317
1216.110, 45.396
1217.327, 51.546
1218.543, 104.670
1219.760, 84.997
1220.976, 81.103
1222.192, 58.554
1223.407, 12.950
1224.623, 113.373
1225.838, 15.139
1227.053, 42.713
1228.268, 48.289
1229.483, 13.794
1230.697, 89.797
1231.912, 45.429
1233.126, 24.505
1234.340, 51.837
1235.554, 1.912
1236.767, 43.910
1237.981, 60.710
1239.194, 45.703
1240.407, 0.751
1241.620, 6.224
1242.832, 28.254
1244.045, 11.394
1245.257, 13.806
1246.469, 22.833
1247.681, 28.792
1248.893, 66.301
1250.104, 36.777
1251.315, 27.688
1252.527, 27.023
1253.738, 1.751
1254.948, 73.006
1256.159, 96.557
1257.369, 26.650
1258.579, 98.953
1259.789, 48.352
1260.999, 12.368
1262.209, 111.831
1263.418, 95.337
1264.628, 45.253
1265.837, 126.470
1267.046, 64.081
1268.254, 69.513
1269.463, 47.524
1270.671, 113.585
1271.879, 145.706
1273.087, 107.572
1274.295, 118.701
1275.502, 90.469
1276.710, 91.307
1277.917, 155.240
1279.124, 84.856
1280.331, 75.483
1281.537, 191.217
1282.744, 130.678
1283.950, 195.383
1285.156, 184.743
1286.362, 96.132
1287.568, 209.616
1288.773, 199.835
1289.978, 102.020
1291.184, 223.336
1292.389, 206.388
1293.593, 205.389
1294.798, 251.480
1296.002, 251.381
1297.206, 231.164
1298.410, 177.960
1299.614, 204.703
1300.818, 265.575
1302.021, 149.247
1303.225, 180.836
1304.428, 249.434
1305.631, 196.922
1306.833, 210.358
1308.036, 194.740
1309.238, 148.083
1310.440, 147.440
1311.642, 218.738
1312.844, 164.979
1314.045, 241.227
1315.247, 209.294
1316.448, 196.327
1317.649, 194.326
1318.850, 164.242
1320.051, 226.109
1321.251, 214.939
1322.451, 177.705
1323.651, 259.227
1324.851, 224.882
1326.051, 192.489
1327.251, 224.208
1328.450, 239.708
1329.649, 269.156
1330.848, 235.676
1332.047, 224.025
1333.245, 301.231
1334.444, 240.411
1335.642, 198.419
1336.840, 269.987
1338.038, 221.461
1339.236, 214.430
1340.433, 321.384
1341.630, 216.915
1342.828, 276.567
1344.025, 268.135
1345.221, 243.674
1346.418, 329.560
1347.614, 284.722
1348.810, 231.858
1350.006, 270.925
1351.202, 237.947
1352.398, 235.062
1353.593, 289.224
1354.789, 199.093
1355.984, 278.199
1357.179, 185.213
1358.373, 255.907
1359.568, 274.927
1360.762, 258.137
1361.956, 229.801
1363.150, 278.009
1364.344, 165.350
1365.538, 219.800
1366.731, 182.550
1367.924, 173.048
1369.117, 260.129
1370.310, 157.266
1371.503, 135.561
1372.695, 193.396
1373.888, 107.868
1375.080, 93.891
1376.272, 160.597
1377.464, 49.106
1378.655, 167.215
1379.847, 73.609
1381.038, 58.189
1382.229, 179.473
1383.420, 135.802
1384.610, 121.234
1385.801, 115.292
1386.991, 131.394
1388.181, 147.352
1389.371, 187.560
1390.561, 66.857
1391.750, 112.396
1392.940, 134.603
1394.129, 74.425
1395.318, 164.768
1396.507, 41.333
1397.696, 110.491
1398.884, 211.598
1400.072, 77.649
1401.260, 107.190
1402.448, 143.841
1403.636, 29.447
1404.824, 101.368
1406.011, 79.503
1407.198, 24.884
1408.385, 123.145
1409.572, 41.166
1410.758, 56.215
1411.945, 175.279
1413.131, 111.700
1414.317, 85.138
1415.503, 151.577
1416.689, 59.778
1417.874, 136.438
1419.060, 101.093
1420.245, 64.924
1421.430, 204.631
1422.615, 110.943
1423.799, 71.615
1424.984, 136.137
1426.168, 52.418
1427.352, 132.858
1428.536, 99.433
1429.720, 62.914
1430.903, 111.859
1432.087, 106.018
1433.270, 60.148
1434.453, 140.178
1435.635, 109.240
1436.818, 71.592
1438.001, 153.485
1439.183, 1.918
1440.365, 138.679
1441.547, 109.280
1442.728, 51.366
1443.910, 85.401
1445.091, 102.165
1446.272, 74.116
1447.453, 119.177
1448.634, 95.837
1449.815, 101.269
1450.995, 78.678
1452.176, 59.368
1453.356, 57.543
1454.535, 57.851
1455.715, 42.757
1456.895, 73.008
1458.074, 68.070
1459.253, 63.418
1460.432, 78.655
1461.611, 67.925
1462.790, 64.103
1463.968, 119.499
1465.146, 8.760
1466.324, 82.524
1467.502, 60.657
1468.680, 20.168
1469.858, 79.748
1471.035, 76.244
1472.212, 28.180
1473.389, 152.672
1474.566, 24.057
1475.742, 49.357
1476.919, 88.231
1478.095, 23.401
1479.271, 74.907
1480.447, 95.938
1481.623, 67.499
1482.798, 128.373
1483.974, 51.689
1485.149, 31.497
1486.324, 119.175
1487.499, 89.075
1488.674, 50.624
1489.848, 91.951
1491.022, 68.316
1492.196, 70.985
1493.370, 129.828
1494.544, 39.591
1495.718, 57.520
1496.891, 135.412
1498.064, 27.158
1499.237, 113.228
1500.410, 28.125
1501.583, 11.226
1502.755, 109.382
1503.928, 33.542
1505.100, 13.411
1506.272, 118.479
1507.443, 42.450
1508.615, 53.324
1509.786, 119.022
1510.958, 14.894
1512.129, 65.487
1513.300, 125.080
1514.470, 46.627
1515.641, 70.990
1516.811, 44.723
1517.981, 3.716
1519.151, 102.182
1520.321, 80.155
1521.491, 0.580
1522.660, 156.114
1523.829, 0.000
##END=



