##NAMES=Monazite-(Ce)
##RRUFFID=R040106
##IDEAL CHEMISTRY=CePO_4_
##LOCALITY=Angola
##OWNER=RRUFF
##SOURCE=University of Arizona Mineral Museum
##DESCRIPTION=Brown massive fragment
##STATUS=The identification of this mineral has been confirmed by X-ray diffraction and chemical analysis
##URL=rruff.info/R040106
##MEASURED CHEMISTRY=(Ce_0.41_La_0.17_Nd_0.17_Th_0.14_Ca_0.06_Y_0.04_)(P_0.95_Si_0.05_)O_4_
##PIN_ID=M00371
##ORIENTATION=Laser parallel to (1 0 1). Fiducial mark perpendicular to laser is parallel to b [0 1 0]
87.649, 0.000
89.047, 2.736
90.446, 25.207
91.844, 112.225
93.242, 185.752
94.639, 319.637
96.037, 464.432
97.434, 616.167
98.831, 834.898
100.227, 1035.430
101.624, 1078.167
103.020, 1028.339
104.416, 1128.354
105.812, 1216.953
107.207, 1178.024
108.603, 1259.328
109.998, 1249.424
111.393, 1358.737
112.787, 1561.592
114.182, 1640.998
115.576, 1754.396
116.970, 1960.513
118.363, 2046.615
119.757, 1992.255
121.150, 1824.304
122.543, 1771.769
123.936, 1567.605
125.328, 1285.759
126.720, 1160.189
128.112, 1154.862
129.504, 883.381
130.896, 739.829
132.287, 480.090
133.678, 541.521
135.069, 326.112
136.460, 245.850
137.850, 122.725
139.240, 152.725
140.630, 12.840
142.020, 49.940
143.410, 2.624
144.799, 66.229
146.188, 78.773
147.577, 62.259
148.965, 68.683
150.354, 51.775
151.742, 53.920
153.130, 119.561
154.517, 33.671
155.905, 246.729
157.292, 151.699
158.679, 225.591
160.066, 336.411
161.452, 320.168
162.839, 364.867
164.225, 350.512
165.611, 444.110
166.996, 461.666
168.381, 564.184
169.767, 689.667
171.152, 894.132
172.536, 961.626
173.921, 1041.161
175.305, 1161.740
176.689, 1214.362
178.073, 1272.021
179.456, 1150.715
180.839, 1005.435
182.222, 916.176
183.605, 743.938
184.988, 603.713
186.370, 523.488
187.752, 423.251
189.134, 389.004
190.516, 311.749
191.898, 278.489
193.279, 194.225
194.660, 176.684
196.041, 215.694
197.421, 160.416
198.801, 153.032
200.182, 195.504
201.561, 188.698
202.941, 192.044
204.321, 252.282
205.700, 315.535
207.079, 367.809
208.457, 418.205
209.836, 473.272
211.214, 517.841
212.592, 549.762
213.970, 617.500
215.348, 579.001
216.725, 718.789
218.102, 882.098
219.479, 754.319
220.856, 699.782
222.232, 849.158
223.608, 729.573
224.984, 666.026
226.360, 597.517
227.736, 649.045
229.111, 487.612
230.486, 547.217
231.861, 467.858
233.236, 269.538
234.610, 302.250
235.984, 228.994
237.358, 176.766
238.732, 156.566
240.105, 231.395
241.479, 192.252
242.852, 154.138
244.224, 216.053
245.597, 69.998
246.969, 153.973
248.342, 144.978
249.713, 161.014
251.085, 202.081
252.457, 193.178
253.828, 184.805
255.199, 218.767
256.570, 269.970
257.940, 305.291
259.310, 354.671
260.681, 429.410
262.050, 471.484
263.420, 590.865
264.790, 701.218
266.159, 789.542
267.528, 937.821
268.896, 996.009
270.265, 1189.103
271.633, 1337.122
273.001, 1427.080
274.369, 1587.990
275.737, 1727.863
277.104, 1758.706
278.471, 1872.525
279.838, 2052.267
281.205, 2090.772
282.572, 2162.941
283.938, 2251.832
285.304, 2175.627
286.670, 2191.445
288.035, 2120.300
289.401, 2054.189
290.766, 1914.113
292.131, 1904.069
293.495, 1828.057
294.860, 1636.076
296.224, 1610.125
297.588, 1494.205
298.952, 1430.312
300.315, 1294.450
301.679, 1182.615
303.042, 1151.809
304.405, 1063.029
305.767, 1004.081
307.130, 909.619
308.492, 878.132
309.854, 808.772
311.216, 724.743
312.578, 732.868
313.939, 597.706
315.300, 574.708
316.661, 515.967
318.021, 518.443
319.382, 475.342
320.742, 366.852
322.102, 328.377
323.462, 272.921
324.821, 287.484
326.181, 221.836
327.540, 148.665
328.899, 121.283
330.257, 6.922
331.616, 64.421
332.974, 11.761
334.332, 92.085
335.690, 42.413
337.047, 84.730
338.405, 174.049
339.762, 106.390
341.119, 157.735
342.475, 119.100
343.832, 220.473
345.188, 105.880
346.544, 184.292
347.900, 23.728
349.255, 167.150
350.610, 46.593
351.965, 0.026
353.320, 43.559
354.675, 70.165
356.029, 183.791
357.384, 234.438
358.738, 262.106
360.091, 254.795
361.445, 429.506
362.798, 453.238
364.151, 555.993
365.504, 620.771
366.857, 741.572
368.209, 773.397
369.561, 933.247
370.913, 963.119
372.265, 1002.016
373.617, 1194.934
374.968, 1100.846
376.319, 1220.738
377.670, 1399.569
379.021, 1409.345
380.371, 1493.040
381.721, 1534.675
383.071, 1599.280
384.421, 1720.897
385.770, 1843.543
387.120, 2017.217
388.469, 2031.921
389.818, 2234.652
391.166, 2344.411
392.515, 2337.201
393.863, 2472.018
395.211, 2754.861
396.559, 2812.734
397.906, 2957.635
399.254, 3201.563
400.601, 3352.519
401.948, 3463.503
403.294, 3764.515
404.641, 4175.554
405.987, 4466.620
407.333, 5057.715
408.679, 5438.838
410.025, 6029.988
411.370, 6761.164
412.715, 7492.368
414.060, 8413.599
415.405, 9104.858
416.749, 9606.135
418.093, 10007.435
419.437, 10108.754
420.781, 9810.090
422.125, 9331.443
423.468, 8802.816
424.811, 7714.204
426.154, 6925.612
427.497, 5927.038
428.839, 5318.484
430.182, 4519.972
431.524, 4071.481
432.866, 3593.018
434.207, 3234.599
435.549, 2923.214
436.890, 2602.890
438.231, 2585.615
439.572, 2389.385
440.912, 2254.214
442.252, 2339.088
443.593, 2189.018
444.932, 2191.001
446.272, 2199.039
447.611, 2121.130
448.951, 2217.276
450.290, 2241.488
451.628, 2309.756
452.967, 2474.085
454.305, 2495.469
455.644, 2517.909
456.981, 2673.401
458.319, 2679.950
459.657, 2937.551
460.994, 2944.204
462.331, 3058.905
463.668, 3098.659
465.004, 2962.467
466.341, 3012.334
467.677, 2861.270
469.013, 2751.292
470.348, 2611.372
471.684, 2575.532
473.019, 2427.777
474.354, 2237.083
475.689, 1950.459
477.024, 1834.919
478.358, 1722.411
479.692, 1544.949
481.026, 1504.525
482.360, 1285.125
483.694, 1221.761
485.027, 1097.421
486.360, 946.102
487.693, 954.804
489.026, 827.527
490.358, 781.271
491.691, 774.887
493.023, 740.146
494.354, 565.071
495.686, 593.917
497.017, 377.451
498.349, 364.789
499.680, 404.017
501.010, 393.264
502.341, 254.557
503.671, 360.170
505.001, 256.757
506.331, 207.237
507.661, 213.206
508.990, 105.009
510.319, 176.102
511.648, 156.920
512.977, 39.781
514.306, 109.902
515.634, 124.044
516.962, 130.207
518.290, 32.392
519.618, 77.597
520.945, 143.824
522.273, 35.070
523.600, 130.337
524.927, 99.625
526.253, 53.932
527.580, 274.259
528.906, 50.606
530.232, 237.973
531.558, 181.358
532.883, 273.764
534.208, 309.188
535.534, 326.631
536.858, 300.093
538.183, 401.574
539.508, 377.074
540.832, 440.594
542.156, 500.134
543.480, 487.693
544.803, 462.272
546.127, 597.872
547.450, 613.490
548.773, 632.127
550.096, 889.783
551.418, 787.458
552.741, 979.151
554.063, 1040.862
555.385, 1022.591
556.706, 1321.339
558.028, 1242.104
559.349, 1502.885
560.670, 1630.685
561.991, 1721.500
563.312, 2120.333
564.632, 2389.184
565.952, 2865.049
567.272, 3379.931
568.592, 4049.830
569.911, 4864.743
571.231, 5389.671
572.550, 5504.616
573.869, 5369.574
575.187, 4864.550
576.506, 4349.538
577.824, 3714.542
579.142, 3130.559
580.460, 2698.591
581.778, 2211.636
583.095, 1961.696
584.412, 1776.769
585.729, 1589.897
587.046, 1395.437
588.363, 1421.357
589.679, 1191.828
590.995, 1207.563
592.311, 1215.805
593.627, 1055.918
594.942, 1064.000
596.258, 1125.770
597.573, 995.233
598.888, 920.100
600.202, 874.406
601.517, 852.304
602.831, 836.261
604.145, 769.763
605.459, 868.164
606.772, 797.968
608.086, 851.438
609.399, 876.495
610.712, 920.905
612.024, 906.784
613.337, 881.123
614.649, 912.646
615.961, 909.841
617.273, 920.332
618.585, 1017.695
619.896, 925.344
621.208, 1101.989
622.519, 930.815
623.829, 1126.457
625.140, 1065.531
626.450, 940.021
627.761, 1086.835
629.071, 1080.598
630.380, 1029.306
631.690, 1120.879
632.999, 977.655
634.308, 1142.462
635.617, 1019.317
636.926, 1128.888
638.235, 1168.274
639.543, 1136.666
640.851, 1242.966
642.159, 1267.188
643.466, 1184.332
644.774, 1289.465
646.081, 1190.586
647.388, 1263.696
648.695, 1250.796
650.002, 1315.885
651.308, 1312.980
652.614, 1312.068
653.920, 1420.168
655.226, 1331.267
656.531, 1365.373
657.837, 1319.512
659.142, 1329.662
660.447, 1410.838
661.752, 1344.031
663.056, 1415.265
664.360, 1502.511
665.664, 1363.788
666.968, 1499.058
668.272, 1466.354
669.575, 1592.648
670.879, 1594.930
672.182, 1611.199
673.484, 1802.453
674.787, 1640.693
676.089, 1799.918
677.392, 1709.129
678.694, 1778.326
679.995, 1931.507
681.297, 1803.674
682.598, 1838.826
683.899, 1949.962
685.200, 1823.083
686.501, 2001.188
687.802, 1964.279
689.102, 2010.353
690.402, 2058.411
691.702, 2027.454
693.002, 1997.480
694.301, 2025.490
695.600, 2030.484
696.899, 2074.461
698.198, 1972.423
699.497, 2020.367
700.795, 1867.294
702.093, 1958.206
703.391, 1844.099
704.689, 1811.977
705.987, 1781.835
707.284, 1611.678
708.581, 1587.503
709.878, 1476.310
711.175, 1466.100
712.472, 1319.872
713.768, 1360.626
715.064, 1233.363
716.360, 1103.082
717.656, 1123.783
718.951, 910.465
720.247, 914.129
721.542, 796.775
722.837, 758.403
724.131, 588.012
725.426, 560.603
726.720, 465.175
728.014, 397.729
729.308, 317.263
730.601, 328.779
731.895, 331.277
733.188, 250.755
734.481, 255.214
735.774, 247.654
737.067, 138.076
738.359, 70.478
739.651, 63.861
740.943, 56.225
742.235, 35.567
743.526, 42.116
744.818, 39.136
746.109, 9.363
747.400, 46.446
748.691, 12.323
749.981, 107.249
751.271, 70.273
752.562, 49.376
753.851, 103.548
755.141, 46.816
756.431, 88.152
757.720, 67.576
759.009, 71.783
760.298, 64.658
761.587, 71.315
762.875, 114.051
764.163, 75.888
765.451, 97.806
766.739, 73.815
768.027, 81.584
769.314, 69.077
770.601, 80.324
771.888, 69.654
773.175, 68.250
774.462, 57.538
775.748, 74.085
777.034, 77.708
778.320, 107.410
779.606, 99.203
780.892, 106.702
782.177, 49.056
783.462, 81.089
784.747, 81.198
786.032, 16.382
787.317, 36.608
788.601, 117.885
789.885, 8.255
791.169, 68.659
792.453, 19.127
793.736, 13.364
795.019, 36.165
796.303, 16.260
797.585, 71.667
798.868, 66.061
800.151, 96.446
801.433, 86.798
802.715, 108.156
803.997, 84.494
805.279, 88.819
806.560, 158.131
807.841, 45.430
809.122, 48.717
810.403, 131.991
811.684, 112.254
812.964, 179.503
814.245, 68.741
815.525, 237.967
816.804, 184.181
818.084, 271.383
819.363, 186.573
820.643, 310.751
821.922, 148.919
823.201, 298.075
824.479, 182.220
825.758, 228.354
827.036, 332.477
828.314, 280.590
829.592, 345.693
830.869, 325.786
832.147, 361.869
833.424, 350.943
834.701, 349.008
835.977, 364.064
837.254, 400.111
838.530, 370.150
839.807, 446.180
841.082, 408.203
842.358, 525.217
843.634, 327.224
844.909, 459.224
846.184, 474.216
847.459, 431.202
848.734, 502.181
850.008, 431.153
851.283, 459.120
852.557, 471.081
853.831, 466.098
855.105, 531.985
856.378, 512.930
857.651, 518.870
858.925, 564.805
860.197, 550.735
861.470, 597.662
862.743, 622.584
864.015, 520.503
865.287, 616.418
866.559, 581.330
867.831, 545.239
869.102, 648.146
870.373, 623.049
871.645, 598.951
872.915, 576.850
874.186, 541.748
875.457, 653.645
876.727, 535.540
877.997, 603.434
879.267, 443.328
880.536, 394.220
881.806, 535.113
883.075, 382.005
884.344, 496.898
885.613, 375.792
886.882, 426.687
888.150, 428.583
889.419, 336.479
890.687, 328.377
891.954, 386.278
893.222, 282.180
894.490, 379.042
895.757, 218.509
897.024, 229.611
898.291, 231.178
899.557, 123.497
900.824, 231.325
902.090, 130.299
903.356, 184.318
904.622, 137.667
905.888, 158.339
907.153, 107.624
908.418, 56.485
909.683, 55.771
910.948, 125.370
912.213, 50.729
913.477, 58.565
914.741, 196.013
916.005, 65.815
917.269, 126.067
918.533, 72.983
919.796, 129.459
921.060, 199.492
922.323, 257.369
923.585, 320.633
924.848, 377.809
926.111, 445.726
927.373, 493.611
928.635, 552.530
929.897, 620.305
931.158, 803.283
932.420, 798.862
933.681, 1062.073
934.942, 1188.978
936.203, 1420.977
937.463, 1507.068
938.724, 1707.311
939.984, 1927.391
941.244, 2269.466
942.504, 2622.527
943.764, 2910.911
945.023, 3187.496
946.282, 3726.114
947.541, 4223.854
948.800, 4751.688
950.059, 5453.654
951.317, 5915.654
952.575, 6697.689
953.833, 7629.782
955.091, 8301.905
956.349, 9474.062
957.606, 10316.262
958.864, 11738.490
960.121, 12990.771
961.377, 14383.095
962.634, 16525.447
963.891, 18107.850
965.147, 19910.279
966.403, 22752.756
967.659, 24835.275
968.914, 27687.834
970.170, 30730.436
971.425, 32063.080
972.680, 35905.754
973.935, 35848.484
975.190, 36251.246
976.444, 35084.059
977.698, 32246.896
978.952, 30299.787
980.206, 27092.713
981.460, 23775.676
982.713, 21028.672
983.967, 18531.699
985.220, 16084.757
986.473, 14507.849
987.725, 12120.978
988.978, 11184.137
990.230, 9857.335
991.482, 8810.564
992.734, 8213.823
993.986, 7367.119
995.237, 7020.447
996.488, 6243.809
997.739, 5797.206
998.990, 5570.636
1000.241, 4814.098
1001.492, 4667.594
1002.742, 4490.120
1003.992, 4184.686
1005.242, 4083.283
1006.492, 3565.912
1007.741, 3512.574
1008.990, 3356.269
1010.239, 3090.998
1011.488, 3220.761
1012.737, 2896.557
1013.986, 2798.388
1015.234, 2828.254
1016.482, 2674.152
1017.730, 2772.085
1018.978, 2524.051
1020.225, 2448.049
1021.473, 2576.083
1022.720, 2239.151
1023.967, 2315.255
1025.213, 2291.393
1026.460, 2190.563
1027.706, 2267.772
1028.953, 2172.015
1030.198, 2150.290
1031.444, 2246.600
1032.690, 2141.941
1033.935, 2218.315
1035.180, 2179.727
1036.425, 2077.169
1037.670, 2247.646
1038.915, 2069.156
1040.159, 2241.696
1041.403, 2338.273
1042.647, 2292.880
1043.891, 2474.521
1045.135, 2481.193
1046.378, 2607.902
1047.621, 2748.664
1048.864, 2789.461
1050.107, 3184.299
1051.350, 3136.193
1052.592, 3333.135
1053.835, 3733.148
1055.077, 3742.225
1056.318, 4020.355
1057.560, 4397.557
1058.802, 4481.815
1060.043, 4751.139
1061.284, 4816.524
1062.525, 4972.233
1063.765, 5317.739
1065.006, 5134.107
1066.246, 5213.728
1067.486, 5249.448
1068.726, 4997.842
1069.966, 4923.668
1071.205, 4733.788
1072.445, 4620.926
1073.684, 4442.441
1074.923, 4031.012
1076.161, 4056.674
1077.400, 3969.359
1078.638, 3572.945
1079.876, 3534.418
1081.114, 3244.457
1082.352, 3129.840
1083.590, 3042.456
1084.827, 2648.031
1086.064, 2675.869
1087.301, 2491.781
1088.538, 2328.222
1089.775, 2316.250
1091.011, 1914.686
1092.247, 1901.767
1093.483, 1871.670
1094.719, 1674.143
1095.955, 1725.324
1097.190, 1431.525
1098.425, 1442.444
1099.660, 1433.130
1100.895, 1287.185
1102.130, 1264.543
1103.364, 1291.893
1104.598, 1054.333
1105.833, 1111.575
1107.066, 972.024
1108.300, 1071.748
1109.534, 1005.611
1110.767, 888.983
1112.000, 922.292
1113.233, 791.803
1114.466, 876.947
1115.698, 874.995
1116.930, 780.252
1118.163, 838.338
1119.394, 777.783
1120.626, 690.365
1121.858, 750.285
1123.089, 637.896
1124.320, 653.742
1125.551, 764.591
1126.782, 577.588
1128.013, 656.701
1129.243, 728.117
1130.473, 543.798
1131.703, 613.669
1132.933, 584.343
1134.163, 557.162
1135.392, 657.272
1136.621, 541.739
1137.850, 636.928
1139.079, 653.795
1140.308, 563.215
1141.536, 677.493
1142.765, 557.309
1143.993, 489.163
1145.221, 716.735
1146.448, 555.449
1147.676, 632.199
1148.903, 637.906
1150.130, 501.688
1151.357, 683.265
1152.584, 649.925
1153.810, 648.421
1155.037, 722.309
1156.263, 645.046
1157.489, 692.985
1158.715, 666.018
1159.940, 635.595
1161.166, 694.981
1162.391, 758.083
1163.616, 647.687
1164.841, 723.713
1166.065, 643.478
1167.290, 613.004
1168.514, 604.604
1169.738, 542.273
1170.962, 607.715
1172.185, 510.712
1173.409, 432.500
1174.632, 487.162
1175.855, 375.026
1177.078, 489.781
1178.301, 384.812
1179.523, 370.225
1180.746, 362.842
1181.968, 309.478
1183.190, 321.091
1184.412, 324.783
1185.633, 228.515
1186.855, 324.863
1188.076, 169.879
1189.297, 176.443
1190.518, 209.990
1191.738, 187.597
1192.959, 148.896
1194.179, 157.310
1195.399, 103.912
1196.619, 158.333
1197.838, 93.019
1199.058, 91.683
1200.277, 137.217
1201.496, 4.801
1202.715, 35.095
1203.934, 80.655
1205.152, 19.579
1206.371, 38.871
1207.589, 18.605
1208.807, 11.876
1210.024, 7.471
1211.242, 24.744
1212.459, 80.606
1213.677, 2.706
1214.894, 55.766
1216.110, 16.222
1217.327, 46.288
1218.543, 91.892
1219.760, 31.076
1220.976, 77.921
1222.192, 61.059
1223.407, 43.177
1224.623, 71.060
1225.838, 3.583
1227.053, 57.535
1228.268, 108.381
1229.483, 18.163
1230.697, 90.974
1231.912, 60.699
1233.126, 6.848
1234.340, 66.111
1235.554, 25.717
1236.767, 45.819
1237.981, 70.202
1239.194, 69.987
1240.407, 56.714
1241.620, 34.537
1242.832, 30.421
1244.045, 106.700
1245.257, 5.930
1246.469, 5.675
1247.681, 93.445
1248.893, 32.143
1250.104, 3.607
1251.315, 23.753
1252.527, 33.738
1253.738, 60.667
1254.948, 13.751
1256.159, 67.361
1257.369, 34.317
1258.579, 47.701
1259.789, 29.338
1260.999, 26.524
1262.209, 124.336
1263.418, 40.814
1264.628, 13.524
1265.837, 63.201
1267.046, 34.856
1268.254, 21.905
1269.463, 46.624
1270.671, 46.517
1271.879, 17.724
1273.087, 16.632
1274.295, 34.070
1275.502, 76.438
1276.710, 58.860
1277.917, 86.367
1279.124, 68.613
1280.331, 23.910
1281.537, 147.273
1282.744, 52.385
1283.950, 73.638
1285.156, 168.664
1286.362, 53.649
1287.568, 86.952
1288.773, 84.851
1289.978, 47.730
1291.184, 113.608
1292.389, 107.526
1293.593, 120.509
1294.798, 105.285
1296.002, 53.919
1297.206, 138.625
1298.410, 180.163
1299.614, 98.654
1300.818, 126.378
1302.021, 95.774
1303.225, 88.204
1304.428, 169.898
1305.631, 70.151
1306.833, 86.667
1308.036, 167.851
1309.238, 94.941
1310.440, 131.252
1311.642, 189.277
1312.844, 67.212
1314.045, 156.307
1315.247, 75.143
1316.448, 102.972
1317.649, 128.861
1318.850, 68.557
1320.051, 120.201
1321.251, 136.952
1322.451, 103.503
1323.651, 218.001
1324.851, 168.497
1326.051, 72.908
1327.251, 168.416
1328.450, 148.729
1329.649, 137.996
1330.848, 231.261
1332.047, 107.438
1333.245, 174.588
1334.444, 177.840
1335.642, 161.877
1336.840, 248.050
1338.038, 205.084
1339.236, 157.982
1340.433, 202.745
1341.630, 142.547
1342.828, 144.345
1344.025, 169.248
1345.221, 154.904
1346.418, 221.760
1347.614, 155.325
1348.810, 113.836
1350.006, 213.357
1351.202, 128.776
1352.398, 153.146
1353.593, 189.341
1354.789, 120.621
1355.984, 229.056
1357.179, 171.652
1358.373, 133.778
1359.568, 232.347
1360.762, 129.402
1361.956, 134.178
1363.150, 249.065
1364.344, 146.420
1365.538, 197.727
1366.731, 177.006
1367.924, 122.207
1369.117, 202.520
1370.310, 139.108
1371.503, 96.974
1372.695, 176.504
1373.888, 109.815
1375.080, 32.157
1376.272, 126.444
1377.464, 71.525
1378.655, 134.994
1379.847, 67.872
1381.038, 81.488
1382.229, 130.278
1383.420, 102.984
1384.610, 105.477
1385.801, 144.885
1386.991, 141.945
1388.181, 140.076
1389.371, 170.924
1390.561, 93.766
1391.750, 135.396
1392.940, 152.023
1394.129, 95.593
1395.318, 115.453
1396.507, 69.618
1397.696, 27.945
1398.884, 170.538
1400.072, 81.024
1401.260, 138.223
1402.448, 160.591
1403.636, 14.975
1404.824, 159.044
1406.011, 137.643
1407.198, 39.597
1408.385, 159.514
1409.572, 81.614
1410.758, 112.639
1411.945, 111.476
1413.131, 69.715
1414.317, 103.288
1415.503, 174.328
1416.689, 125.272
1417.874, 212.444
1419.060, 117.395
1420.245, 85.783
1421.430, 144.061
1422.615, 114.647
1423.799, 85.076
1424.984, 155.375
1426.168, 90.596
1427.352, 170.945
1428.536, 192.310
1429.720, 47.607
1430.903, 156.117
1432.087, 123.773
1433.270, 112.103
1434.453, 91.118
1435.635, 63.802
1436.818, 101.790
1438.001, 144.606
1439.183, 91.925
1440.365, 168.274
1441.547, 145.278
1442.728, 49.095
1443.910, 130.221
1445.091, 93.466
1446.272, 26.677
1447.453, 135.522
1448.634, 33.834
1449.815, 99.408
1450.995, 130.832
1452.176, 35.656
1453.356, 89.575
1454.535, 173.944
1455.715, 45.516
1456.895, 104.914
1458.074, 84.756
1459.253, 57.948
1460.432, 110.455
1461.611, 91.545
1462.790, 53.229
1463.968, 121.980
1465.146, 96.241
1466.324, 78.439
1467.502, 188.368
1468.680, 50.523
1469.858, 91.449
1471.035, 95.940
1472.212, 73.610
1473.389, 189.549
1474.566, 77.021
1475.742, 41.134
1476.919, 166.255
1478.095, 35.790
1479.271, 57.250
1480.447, 155.061
1481.623, 32.630
1482.798, 108.373
1483.974, 65.767
1485.149, 28.208
1486.324, 90.904
1487.499, 13.108
1488.674, 72.391
1489.848, 221.690
1491.022, 58.395
1492.196, 84.776
1493.370, 153.675
1494.544, 40.516
1495.718, 130.053
1496.891, 221.405
1498.064, 1.789
1499.237, 160.516
1500.410, 49.929
1501.583, 98.493
1502.755, 178.362
1503.928, 23.508
1505.100, 130.077
1506.272, 187.520
1507.443, 49.354
1508.615, 116.541
