##NAMES=Monazite-(Ce)
##RRUFFID=R040106
##IDEAL CHEMISTRY=CePO_4_
##LOCALITY=Angola
##OWNER=RRUFF
##SOURCE=University of Arizona Mineral Museum
##DESCRIPTION=Brown massive fragment
##STATUS=The identification of this mineral has been confirmed by X-ray diffraction and chemical analysis
##URL=rruff.info/R040106
##MEASURED CHEMISTRY=(Ce_0.41_La_0.17_Nd_0.17_Th_0.14_Ca_0.06_Y_0.04_)(P_0.95_Si_0.05_)O_4_
##PIN_ID=M00371
##ORIENTATION=Laser parallel to (1 0 1). Fiducial mark perpendicular to laser is parallel to b [0 1 0]
90.446, 0.000
91.844, 2.846
93.242, 22.860
94.639, 83.805
96.037, 227.941
97.434, 439.193
98.831, 627.895
100.227, 800.543
101.624, 888.489
103.020, 918.800
104.416, 892.846
105.812, 924.069
107.207, 797.633
108.603, 712.710
109.998, 661.419
111.393, 666.299
112.787, 808.896
114.182, 707.062
115.576, 711.255
116.970, 617.201
118.363, 595.687
119.757, 588.581
121.150, 532.856
122.543, 520.530
123.936, 524.827
125.328, 476.391
126.720, 458.696
128.112, 450.399
129.504, 516.994
130.896, 483.823
132.287, 435.666
133.678, 522.782
135.069, 512.624
136.460, 557.246
137.850, 628.181
139.240, 611.934
140.630, 574.621
142.020, 594.802
143.410, 607.339
144.799, 538.216
146.188, 535.701
147.577, 538.436
148.965, 483.737
150.354, 412.902
151.742, 363.097
153.130, 371.195
154.517, 322.358
155.905, 298.573
157.292, 261.823
158.679, 241.100
160.066, 165.399
161.452, 127.723
162.839, 119.078
164.225, 129.468
165.611, 72.899
166.996, 39.375
168.381, 16.901
169.767, 74.481
171.152, 65.119
172.536, 2.182
173.921, 4.663
175.305, 64.117
176.689, 39.544
178.073, 60.645
179.456, 9.449
180.839, 28.984
182.222, 58.278
183.605, 86.355
184.988, 87.243
186.370, 74.965
187.752, 82.545
189.134, 51.003
190.516, 76.360
191.898, 33.630
193.279, 75.833
194.660, 41.989
196.041, 19.122
197.421, 58.247
198.801, 27.382
200.182, 34.541
201.561, 55.268
202.941, 79.043
204.321, 125.777
205.700, 105.466
207.079, 154.106
208.457, 133.689
209.836, 177.192
211.214, 273.615
212.592, 207.921
213.970, 317.144
215.348, 274.255
216.725, 374.203
218.102, 472.004
219.479, 408.692
220.856, 467.219
222.232, 435.604
223.608, 506.882
224.984, 542.083
226.360, 505.234
227.736, 599.358
229.111, 538.499
230.486, 580.716
231.861, 597.023
233.236, 633.410
234.610, 628.877
235.984, 605.428
237.358, 642.063
238.732, 634.782
240.105, 758.586
241.479, 655.475
242.852, 781.451
244.224, 891.512
245.597, 869.661
246.969, 1071.896
248.342, 1089.221
249.713, 1109.633
251.085, 1188.134
252.457, 1300.724
253.828, 1381.404
255.199, 1445.173
256.570, 1551.731
257.940, 1600.170
259.310, 1681.600
260.681, 1794.888
262.050, 1732.999
263.420, 1694.910
264.790, 1722.602
266.159, 1810.065
267.528, 1761.291
268.896, 1753.267
270.265, 1733.985
271.633, 1707.445
273.001, 1711.417
274.369, 1697.955
275.737, 1718.292
277.104, 1707.711
278.471, 1722.844
279.838, 1762.693
281.205, 1695.244
282.572, 1684.509
283.938, 1731.492
285.304, 1680.223
286.670, 1704.695
288.035, 1562.934
289.401, 1585.942
290.766, 1521.715
292.131, 1554.230
293.495, 1492.464
294.860, 1452.442
296.224, 1360.080
297.588, 1383.103
298.952, 1362.938
300.315, 1318.312
301.679, 1243.484
303.042, 1100.467
304.405, 1157.983
305.767, 1077.046
307.130, 1090.969
308.492, 1001.836
309.854, 1053.300
311.216, 1006.763
312.578, 950.336
313.939, 868.788
315.300, 845.809
316.661, 706.581
318.021, 739.587
319.382, 752.352
320.742, 713.083
322.102, 588.562
323.462, 623.985
324.821, 553.486
326.181, 497.434
327.540, 493.455
328.899, 507.000
330.257, 381.272
331.616, 423.559
332.974, 384.098
334.332, 327.376
335.690, 292.663
337.047, 313.151
338.405, 296.412
339.762, 312.707
341.119, 287.651
342.475, 312.063
343.832, 253.786
345.188, 247.607
346.544, 261.908
347.900, 314.761
349.255, 310.693
350.610, 324.058
351.965, 337.075
353.320, 400.375
354.675, 402.384
356.029, 443.382
357.384, 461.011
358.738, 515.068
360.091, 560.854
361.445, 621.028
362.798, 678.910
364.151, 695.736
365.504, 763.435
366.857, 753.098
368.209, 835.053
369.561, 921.856
370.913, 995.911
372.265, 994.021
373.617, 1101.104
374.968, 1091.535
376.319, 1172.964
377.670, 1263.523
379.021, 1348.147
380.371, 1413.837
381.721, 1354.595
383.071, 1499.418
384.421, 1465.312
385.770, 1635.275
387.120, 1770.307
388.469, 1731.410
389.818, 1859.585
391.166, 1943.832
392.515, 1986.151
393.863, 1966.541
395.211, 2161.002
396.559, 2241.536
397.906, 2169.141
399.254, 2216.816
400.601, 2346.564
401.948, 2318.381
403.294, 2468.271
404.641, 2543.230
405.987, 2725.261
407.333, 2970.362
408.679, 3142.534
410.025, 3396.776
411.370, 3635.088
412.715, 3988.469
414.060, 4288.921
415.405, 4592.444
416.749, 4916.033
418.093, 5049.698
419.437, 5173.392
420.781, 4947.139
422.125, 4780.918
423.468, 4324.754
424.811, 3930.645
426.154, 3528.598
427.497, 2978.611
428.839, 2721.688
430.182, 2408.831
431.524, 2240.026
432.866, 1909.298
434.207, 1757.626
435.549, 1660.011
436.890, 1490.479
438.231, 1611.013
439.572, 1563.638
440.912, 1500.321
442.252, 1686.089
443.593, 1595.931
444.932, 1793.843
446.272, 1837.833
447.611, 1903.900
448.951, 2101.053
450.290, 2217.303
451.628, 2370.620
452.967, 2654.028
454.305, 2783.509
455.644, 3133.069
456.981, 3226.721
458.319, 3499.453
459.657, 3858.262
460.994, 3990.145
462.331, 4096.104
463.668, 4332.159
465.004, 4468.296
466.341, 4454.521
467.677, 4340.845
469.013, 4417.248
470.348, 4213.738
471.684, 4040.326
473.019, 3986.998
474.354, 3667.750
475.689, 3359.581
477.024, 3229.494
478.358, 3028.489
479.692, 2780.576
481.026, 2556.750
482.360, 2300.015
483.694, 2155.379
485.027, 2049.848
486.360, 1744.411
487.693, 1708.065
489.026, 1505.813
490.358, 1304.657
491.691, 1325.594
493.023, 1124.630
494.354, 1083.768
495.686, 1000.996
497.017, 824.314
498.349, 820.735
499.680, 778.256
501.010, 689.892
502.341, 628.637
503.671, 592.495
505.001, 509.450
506.331, 483.507
507.661, 394.672
508.990, 338.952
510.319, 336.345
511.648, 300.847
512.977, 270.965
514.306, 244.665
515.634, 199.989
516.962, 164.901
518.290, 95.916
519.618, 28.023
520.945, 16.782
522.273, 51.758
523.600, 18.125
524.927, 86.671
526.253, 61.154
527.580, 55.572
528.906, 108.925
530.232, 36.221
531.558, 39.452
532.883, 57.382
534.208, 128.283
535.534, 441.250
536.858, 355.435
538.183, 443.379
539.508, 307.541
540.832, 293.767
542.156, 274.058
543.480, 319.413
544.803, 185.831
546.127, 241.313
547.450, 219.858
548.773, 132.466
550.096, 283.137
551.418, 151.871
552.741, 210.666
554.063, 163.523
555.385, 155.442
556.706, 211.422
558.028, 228.462
559.349, 245.563
560.670, 270.725
561.991, 261.925
563.312, 233.229
564.632, 237.569
565.952, 262.969
567.272, 240.429
568.592, 318.946
569.911, 299.522
571.231, 358.227
572.550, 397.848
573.869, 453.597
575.187, 503.403
576.506, 525.875
577.824, 526.814
579.142, 519.326
580.460, 538.357
581.778, 545.107
583.095, 680.675
584.412, 620.228
585.729, 669.144
587.046, 673.521
588.363, 829.078
589.679, 810.965
590.995, 926.895
592.311, 937.207
593.627, 871.809
594.942, 973.910
596.258, 985.787
597.573, 1130.535
598.888, 1109.230
600.202, 1195.328
601.517, 1204.577
602.831, 1328.625
604.145, 1277.577
605.459, 1365.766
606.772, 1414.599
608.086, 1560.423
609.399, 1722.348
610.712, 1949.835
612.024, 2182.283
613.337, 2409.438
614.649, 2683.060
615.961, 3003.053
617.273, 3221.470
618.585, 3499.415
619.896, 3643.876
621.208, 3859.277
622.519, 3549.747
623.829, 3618.466
625.140, 3302.197
626.450, 3086.128
627.761, 2798.864
629.071, 2524.775
630.380, 2431.505
631.690, 2222.519
632.999, 1973.351
634.308, 1834.279
635.617, 1664.180
636.926, 1715.213
638.235, 1535.007
639.543, 1560.561
640.851, 1580.148
642.159, 1493.999
643.466, 1390.416
644.774, 1495.705
646.081, 1282.253
647.388, 1391.667
648.695, 1233.879
650.002, 1369.120
651.308, 1349.389
652.614, 1243.685
653.920, 1366.008
655.226, 1148.358
656.531, 1306.734
657.837, 1192.137
659.142, 1205.565
660.447, 1296.018
661.752, 1310.495
663.056, 1251.996
664.360, 1382.521
665.664, 1216.068
666.968, 1329.639
668.272, 1336.231
669.575, 1248.844
670.879, 1342.479
672.182, 1305.135
673.484, 1348.810
674.787, 1264.505
676.089, 1415.220
677.392, 1209.954
678.694, 1292.589
679.995, 1401.897
681.297, 1382.557
682.598, 1316.403
683.899, 1330.643
685.200, 1200.967
686.501, 1259.483
687.802, 1193.072
689.102, 1269.645
690.402, 1188.549
691.702, 1192.468
693.002, 1134.403
694.301, 1053.354
695.600, 1099.318
696.899, 1149.298
698.198, 975.291
699.497, 1071.298
700.795, 945.318
702.093, 971.352
703.391, 904.399
704.689, 830.459
705.987, 851.531
707.284, 736.615
708.581, 700.712
709.878, 613.819
711.175, 598.938
712.472, 587.069
713.768, 635.210
715.064, 562.237
716.360, 437.524
717.656, 451.697
718.951, 345.879
720.247, 296.071
721.542, 237.272
722.837, 237.482
724.131, 186.702
725.426, 208.931
726.720, 169.167
728.014, 70.412
729.308, 85.665
730.601, 54.925
731.895, 9.193
733.188, 29.460
734.481, 83.268
735.774, 46.960
737.067, 101.804
738.359, 59.621
739.651, 112.474
740.943, 80.385
742.235, 105.341
743.526, 88.355
744.818, 37.418
746.109, 127.510
747.400, 41.670
748.691, 26.860
749.981, 142.075
751.271, 65.368
752.562, 149.704
753.851, 22.123
755.141, 115.565
756.431, 69.075
757.720, 42.630
759.009, 76.220
760.298, 60.858
761.587, 89.539
762.875, 139.277
764.163, 2.903
765.451, 96.931
766.739, 22.826
768.027, 34.748
769.314, 78.701
770.601, 29.708
771.888, 0.255
773.175, 10.202
774.462, 22.333
775.748, 69.938
777.034, 2.939
778.320, 19.200
779.606, 55.366
780.892, 47.426
782.177, 1.217
783.462, 38.010
784.747, 24.729
786.032, 51.460
787.317, 78.192
788.601, 62.638
789.885, 90.664
791.169, 0.404
792.453, 29.126
793.736, 10.843
795.019, 26.455
796.303, 30.782
797.585, 15.859
798.868, 55.488
800.151, 44.119
801.433, 17.746
802.715, 129.363
803.997, 84.985
805.279, 107.608
806.560, 193.236
807.841, 108.866
809.122, 101.499
810.403, 160.136
811.684, 159.775
812.964, 228.417
814.245, 186.063
815.525, 263.711
816.804, 186.363
818.084, 274.017
819.363, 329.674
820.643, 338.335
821.922, 202.999
823.201, 397.665
824.479, 323.334
825.758, 332.006
827.036, 406.681
828.314, 359.360
829.592, 450.041
830.869, 381.725
832.147, 443.413
833.424, 412.104
834.701, 462.801
835.977, 588.501
837.254, 530.210
838.530, 500.924
839.807, 633.645
841.082, 509.375
842.358, 668.109
843.634, 600.849
844.909, 633.592
846.184, 710.338
847.459, 676.087
848.734, 777.840
850.008, 721.596
851.283, 723.355
852.557, 738.118
853.831, 798.884
855.105, 883.653
856.378, 932.426
857.651, 966.203
858.925, 957.983
860.197, 901.766
861.470, 941.375
862.743, 1056.344
864.015, 1000.139
865.287, 1062.937
866.559, 1162.739
867.831, 1129.546
869.102, 1119.359
870.373, 1114.176
871.645, 1170.005
872.915, 1106.840
874.186, 1116.680
875.457, 1182.524
876.727, 969.375
877.997, 1136.232
879.267, 988.094
880.536, 962.961
881.806, 1152.834
883.075, 849.714
884.344, 938.600
885.613, 934.889
886.882, 917.780
888.150, 918.164
889.419, 779.095
890.687, 708.377
891.954, 802.910
893.222, 684.533
894.490, 778.867
895.757, 617.815
897.024, 612.670
898.291, 583.270
899.557, 487.899
900.824, 552.227
902.090, 473.338
903.356, 494.031
904.622, 350.019
905.888, 462.222
907.153, 445.550
908.418, 378.710
909.683, 434.479
910.948, 487.680
912.213, 310.048
913.477, 410.259
914.741, 416.895
916.005, 340.619
917.269, 476.320
918.533, 389.522
919.796, 414.843
921.060, 466.525
922.323, 537.812
923.585, 570.793
924.848, 563.420
926.111, 655.578
927.373, 794.287
928.635, 809.118
929.897, 1005.950
931.158, 1113.599
932.420, 1237.303
933.681, 1370.875
934.942, 1563.697
936.203, 1853.417
937.463, 1974.382
938.724, 2297.119
939.984, 2536.094
941.244, 2803.028
942.504, 3315.046
943.764, 3569.990
945.023, 3916.227
946.282, 4434.760
947.541, 4914.312
948.800, 5594.658
950.059, 6299.492
951.317, 6875.507
952.575, 7631.311
953.833, 8516.312
955.091, 9442.560
956.349, 10678.832
957.606, 11655.124
958.864, 13271.436
960.121, 14667.771
961.377, 16154.130
962.634, 18460.506
963.891, 20156.902
965.147, 22403.320
966.403, 25559.762
967.659, 27506.219
968.914, 31082.703
970.170, 34059.195
971.425, 35955.723
972.680, 39612.250
973.935, 39768.805
975.190, 40175.383
976.444, 38451.980
977.698, 35468.598
978.952, 33465.227
980.206, 29441.889
981.460, 26128.562
982.713, 23075.248
983.967, 19691.963
985.220, 17228.688
986.473, 15235.438
987.725, 12882.206
988.978, 11808.988
990.230, 10045.790
991.482, 9052.611
992.734, 8039.450
993.986, 7086.305
995.237, 6593.179
996.488, 5750.068
997.739, 5232.975
998.990, 4813.898
1000.241, 4192.839
1001.492, 3984.796
1002.742, 3677.770
1003.992, 3444.759
1005.242, 3247.766
1006.492, 2742.787
1007.741, 2784.826
1008.990, 2545.881
1010.239, 2371.951
1011.488, 2390.038
1012.737, 2139.141
1013.986, 1990.259
1015.234, 2118.483
1016.482, 1836.653
1017.730, 1855.880
1018.978, 1932.567
1020.225, 1777.764
1021.473, 1901.677
1022.720, 1675.164
1023.967, 1697.502
1025.213, 1763.172
1026.460, 1615.723
1027.706, 1752.388
1028.953, 1652.042
1030.198, 1652.567
1031.444, 1666.248
1032.690, 1635.908
1033.935, 1688.809
1035.180, 1601.551
1036.425, 1587.844
1037.670, 1745.960
1038.915, 1654.819
1040.159, 1793.955
1041.403, 1800.069
1042.647, 1814.715
1043.891, 1996.271
1045.135, 1892.654
1046.378, 2099.210
1047.621, 2213.782
1048.864, 2253.634
1050.107, 2590.976
1051.350, 2605.657
1052.592, 2779.570
1053.835, 3112.911
1055.077, 3210.941
1056.318, 3470.843
1057.560, 3707.729
1058.802, 3864.385
1060.043, 4114.458
1061.284, 4207.771
1062.525, 4348.911
1063.765, 4369.734
1065.006, 4347.885
1066.246, 4392.313
1067.486, 4260.351
1068.726, 4077.359
1069.966, 4117.497
1071.205, 3899.767
1072.445, 3716.440
1073.684, 3624.019
1074.923, 3288.035
1076.161, 3255.062
1077.400, 3067.060
1078.638, 2803.006
1079.876, 2787.912
1081.114, 2496.287
1082.352, 2444.764
1083.590, 2259.017
1084.827, 2027.552
1086.064, 2022.122
1087.301, 1893.193
1088.538, 1734.855
1089.775, 1703.149
1091.011, 1493.677
1092.247, 1448.958
1093.483, 1360.300
1094.719, 1252.248
1095.955, 1208.704
1097.190, 1064.424
1098.425, 1036.650
1099.660, 1018.878
1100.895, 873.116
1102.130, 879.701
1103.364, 812.112
1104.598, 713.585
1105.833, 817.736
1107.066, 640.728
1108.300, 735.090
1109.534, 615.163
1110.767, 568.917
1112.000, 607.796
1113.233, 484.615
1114.466, 470.792
1115.698, 493.675
1116.930, 429.452
1118.163, 412.266
1119.394, 404.204
1120.626, 358.990
1121.858, 366.279
1123.089, 277.942
1124.320, 339.680
1125.551, 366.763
1126.782, 296.318
1128.013, 273.089
1129.243, 366.564
1130.473, 246.195
1131.703, 292.229
1132.933, 196.604
1134.163, 203.366
1135.392, 253.110
1136.621, 173.333
1137.850, 206.853
1139.079, 192.454
1140.308, 151.946
1141.536, 181.467
1142.765, 133.758
1143.993, 134.099
1145.221, 192.322
1146.448, 44.649
1147.676, 144.871
1148.903, 107.999
1150.130, 10.045
1151.357, 111.350
1152.584, 57.579
1153.810, 67.609
1155.037, 83.796
1156.263, 63.823
1157.489, 51.963
1158.715, 52.080
1159.940, 51.045
1161.166, 72.370
1162.391, 17.445
1163.616, 37.279
1164.841, 30.351
1166.065, 10.761
1167.290, 62.232
1168.514, 34.753
1169.738, 7.987
1170.962, 37.942
1172.185, 1.207
1173.409, 13.481
1174.632, 4.208
1175.855, 9.783
1177.078, 29.450
1178.301, 15.082
1179.523, 21.735
1180.746, 1.202
1181.968, 18.216
1183.190, 25.673
1184.412, 2.223
1185.633, 15.898
1186.855, 19.107
1188.076, 17.081
1189.297, 39.981
1190.518, 36.839
1191.738, 48.459
1192.959, 81.432
1194.179, 32.322
1195.399, 35.430
1196.619, 57.490
1197.838, 29.715
1199.058, 63.980
1200.277, 21.344
1201.496, 78.761
1202.715, 27.262
1203.934, 25.821
1205.152, 68.438
1206.371, 26.016
1207.589, 12.680
1208.807, 56.448
1210.024, 18.331
1211.242, 54.046
1212.459, 41.063
1213.677, 2.031
1214.894, 48.104
1216.110, 17.286
1217.327, 18.378
1218.543, 23.639
1219.760, 13.963
1220.976, 4.714
1222.192, 10.736
1223.407, 6.843
1224.623, 23.528
1225.838, 6.202
1227.053, 12.799
1228.268, 13.485
1229.483, 51.655
1230.697, 28.976
1231.912, 12.744
1233.126, 77.407
1234.340, 29.870
1235.554, 56.932
1236.767, 39.853
1237.981, 11.912
1239.194, 56.629
1240.407, 22.494
1241.620, 50.172
1242.832, 34.805
1244.045, 17.615
1245.257, 75.188
1246.469, 74.749
1247.681, 11.463
1248.893, 61.797
1250.104, 57.639
1251.315, 88.023
1252.527, 107.229
1253.738, 67.866
1254.948, 98.245
1256.159, 41.396
1257.369, 121.598
1258.579, 128.820
1259.789, 85.857
1260.999, 121.302
1262.209, 136.160
1263.418, 129.096
1264.628, 114.179
1265.837, 132.025
1267.046, 75.852
1268.254, 156.821
1269.463, 137.447
1270.671, 96.656
1271.879, 180.227
1273.087, 132.742
1274.295, 195.518
1275.502, 155.897
1276.710, 99.338
1277.917, 212.800
1279.124, 130.042
1280.331, 131.349
1281.537, 243.500
1282.744, 167.617
1283.950, 145.711
1285.156, 168.725
1286.362, 158.729
1287.568, 210.876
1288.773, 195.754
1289.978, 220.720
1291.184, 192.594
1292.389, 214.503
1293.593, 233.415
1294.798, 272.160
1296.002, 183.775
1297.206, 198.714
1298.410, 242.244
1299.614, 200.730
1300.818, 235.223
1302.021, 203.623
1303.225, 205.086
1304.428, 237.400
1305.631, 149.706
1306.833, 202.080
1308.036, 263.177
1309.238, 193.300
1310.440, 232.460
1311.642, 201.006
1312.844, 191.017
1314.045, 246.453
1315.247, 189.120
1316.448, 208.928
1317.649, 241.366
1318.850, 225.884
1320.051, 275.269
1321.251, 227.658
1322.451, 192.113
1323.651, 267.512
1324.851, 285.875
1326.051, 221.862
1327.251, 221.092
1328.450, 231.615
1329.649, 253.283
1330.848, 272.356
1332.047, 211.972
1333.245, 243.871
1334.444, 260.969
1335.642, 176.162
1336.840, 244.764
1338.038, 198.951
1339.236, 274.117
1340.433, 208.160
1341.630, 226.546
1342.828, 220.579
1344.025, 260.428
1345.221, 249.007
1346.418, 220.468
1347.614, 225.277
1348.810, 218.088
1350.006, 176.132
1351.202, 179.807
1352.398, 190.174
1353.593, 209.516
1354.789, 140.353
1355.984, 253.861
1357.179, 157.188
1358.373, 168.795
1359.568, 172.423
1360.762, 133.900
1361.956, 157.230
1363.150, 204.679
1364.344, 124.671
1365.538, 159.205
1366.731, 135.705
1367.924, 110.199
1369.117, 168.706
1370.310, 128.271
1371.503, 132.294
1372.695, 188.199
1373.888, 89.260
1375.080, 101.004
1376.272, 101.685
1377.464, 43.819
1378.655, 99.313
1379.847, 121.130
1381.038, 75.678
1382.229, 154.420
1383.420, 95.063
1384.610, 126.854
1385.801, 124.027
1386.991, 70.611
1388.181, 112.508
1389.371, 103.695
1390.561, 61.038
1391.750, 175.749
1392.940, 33.531
1394.129, 99.795
1395.318, 173.437
1396.507, 40.802
1397.696, 67.775
1398.884, 110.748
1400.072, 87.133
1401.260, 71.625
1402.448, 104.623
1403.636, 29.352
1404.824, 129.817
1406.011, 94.714
1407.198, 53.783
1408.385, 93.989
1409.572, 87.050
1410.758, 49.406
1411.945, 112.146
1413.131, 7.896
1414.317, 101.948
1415.503, 103.718
1416.689, 40.882
1417.874, 156.492
1419.060, 84.931
1420.245, 67.321
1421.430, 152.415
1422.615, 79.820
1423.799, 106.243
1424.984, 100.378
1426.168, 93.611
1427.352, 164.656
1428.536, 89.995
1429.720, 43.010
1430.903, 121.869
1432.087, 60.944
1433.270, 71.129
1434.453, 50.448
1435.635, 37.857
1436.818, 66.320
1438.001, 100.627
1439.183, 14.940
1440.365, 82.133
1441.547, 101.559
1442.728, 68.056
1443.910, 89.319
1445.091, 52.703
1446.272, 88.117
1447.453, 67.449
1448.634, 39.798
1449.815, 101.120
1450.995, 82.242
1452.176, 41.688
1453.356, 74.792
1454.535, 90.281
1455.715, 28.919
1456.895, 131.999
1458.074, 61.881
1459.253, 62.517
1460.432, 125.988
1461.611, 60.084
1462.790, 54.202
1463.968, 100.089
1465.146, 28.407
1466.324, 33.921
1467.502, 83.795
1468.680, 29.372
1469.858, 93.396
1471.035, 66.655
1472.212, 15.644
1473.389, 132.427
1474.566, 1.364
1475.742, 85.474
1476.919, 111.609
1478.095, 1.171
1479.271, 83.717
1480.447, 53.718
1481.623, 7.586
1482.798, 61.469
1483.974, 62.365
1485.149, 25.032
1486.324, 77.908
1487.499, 48.326
1488.674, 57.779
1489.848, 76.690
1491.022, 35.856
1492.196, 21.540
1493.370, 86.284
1494.544, 10.081
1495.718, 45.564
1496.891, 137.732
1498.064, 10.635
1499.237, 95.708
1500.410, 90.032
1501.583, 36.281
1502.755, 54.969
1503.928, 4.491
1505.100, 66.690
1506.272, 122.266
1507.443, 25.825
1508.615, 61.876
1509.786, 25.612
1510.958, 8.455
1512.129, 63.156
1513.300, 24.750
1514.470, 23.722
1515.641, 94.950
