##NAMES=Monazite-(Ce)
##RRUFFID=R040106
##IDEAL CHEMISTRY=CePO_4_
##LOCALITY=Angola
##OWNER=RRUFF
##SOURCE=University of Arizona Mineral Museum
##DESCRIPTION=Brown massive fragment
##STATUS=The identification of this mineral has been confirmed by X-ray diffraction and chemical analysis
##URL=rruff.info/R040106
##MEASURED CHEMISTRY=(Ce_0.41_La_0.17_Nd_0.17_Th_0.14_Ca_0.06_Y_0.04_)(P_0.95_Si_0.05_)O_4_
##PIN_ID=M00462
##ORIENTATION=Laser parallel to -a* (-1 0 0). Fiducial mark perpendicular to laser is parallel to b [0 1 0]
54.966, 0.000
56.365, 83.881
57.765, 180.713
59.164, 306.915
60.563, 279.521
61.962, 338.559
63.360, 322.571
64.758, 90.021
66.157, 66.090
67.554, 14.585
68.952, 8.299
70.349, 49.050
71.747, 139.967
73.144, 304.247
74.540, 431.412
75.937, 584.145
77.333, 782.242
78.729, 908.573
80.125, 1048.054
81.521, 1131.637
82.916, 1384.323
84.311, 1488.487
85.706, 1663.153
87.101, 1855.470
88.496, 2059.710
89.890, 2210.539
91.284, 2469.586
92.678, 2730.967
94.071, 2899.779
95.465, 3068.108
96.858, 3189.026
98.251, 3263.597
99.644, 3335.871
101.036, 3166.887
102.428, 3039.681
103.820, 2984.288
105.212, 2866.739
106.604, 2717.088
107.995, 2565.305
109.387, 2407.438
110.777, 2272.768
112.168, 2183.479
113.559, 2063.807
114.949, 2068.325
116.339, 2041.688
117.729, 2047.587
119.119, 1899.879
120.508, 1770.733
121.897, 1621.829
123.286, 1650.463
124.675, 1586.912
126.063, 1406.562
127.452, 1395.406
128.840, 1307.434
130.228, 1257.640
131.615, 1092.022
133.003, 1184.584
134.390, 875.329
135.777, 1005.262
137.164, 803.385
138.550, 786.695
139.937, 740.167
141.323, 703.785
142.709, 582.526
144.094, 527.381
145.480, 454.293
146.865, 397.312
148.250, 395.460
149.635, 292.740
151.019, 315.149
152.403, 249.690
153.788, 181.360
155.171, 216.159
156.555, 231.086
157.939, 77.139
159.322, 99.316
160.705, 129.620
162.088, 109.047
163.470, 107.418
164.853, 44.275
166.235, 47.076
167.617, 3.000
168.998, 64.958
170.380, 46.806
171.761, 81.545
173.142, 129.178
174.523, 41.702
175.904, 91.115
177.284, 160.415
178.664, 131.599
180.044, 192.668
181.424, 40.618
182.803, 103.450
184.183, 52.160
185.562, 136.749
186.940, 48.214
188.319, 57.553
189.698, 3.768
191.076, 12.854
192.454, 51.187
193.831, 34.353
195.209, 113.609
196.586, 134.915
197.963, 126.243
199.340, 209.600
200.717, 259.942
202.093, 379.330
203.470, 335.780
204.846, 480.309
206.221, 488.962
207.597, 587.761
208.972, 721.718
210.347, 631.862
211.722, 642.207
213.097, 733.743
214.472, 695.462
215.846, 898.333
217.220, 861.355
218.594, 959.529
219.967, 1062.855
221.341, 1102.858
222.714, 1127.765
224.087, 1055.521
225.460, 1134.079
226.832, 1271.502
228.204, 1184.467
229.577, 1273.549
230.948, 1268.448
232.320, 1226.343
233.692, 1255.895
235.063, 1287.161
236.434, 1247.637
237.805, 1364.421
239.175, 1378.304
240.545, 1388.279
241.916, 1619.348
243.286, 1508.508
244.655, 1803.758
246.025, 1811.073
247.394, 1950.528
248.763, 1975.050
250.132, 2109.653
251.501, 2298.331
252.869, 2284.071
254.237, 2388.869
255.605, 2509.729
256.973, 2540.653
258.340, 2660.644
259.708, 2541.708
261.075, 2655.846
262.442, 2530.061
263.808, 2681.355
265.175, 2484.730
266.541, 2678.189
267.907, 2587.732
269.273, 2535.361
270.639, 2542.078
272.004, 2534.654
273.369, 2593.777
274.734, 2561.763
276.099, 2548.834
277.463, 2475.922
278.828, 2472.491
280.192, 2544.061
281.556, 2401.062
282.919, 2476.981
284.283, 2373.923
285.646, 2458.874
287.009, 2272.880
288.372, 2129.983
289.734, 2201.200
291.097, 2121.533
292.459, 2095.980
293.821, 2009.543
295.183, 1850.219
296.544, 1911.010
297.905, 1787.915
299.266, 1871.934
300.627, 1593.067
301.988, 1637.312
303.348, 1544.673
304.709, 1396.146
306.069, 1327.731
307.428, 1405.431
308.788, 1305.243
310.147, 1236.170
311.507, 1182.210
312.865, 1102.364
314.224, 1016.632
315.583, 928.014
316.941, 858.474
318.299, 794.119
319.657, 751.842
321.015, 723.680
322.372, 637.116
323.729, 619.686
325.086, 505.864
326.443, 465.156
327.800, 462.561
329.156, 434.855
330.512, 363.365
331.868, 362.786
333.224, 323.303
334.579, 334.868
335.935, 158.047
337.290, 351.123
338.645, 189.560
339.999, 257.934
341.354, 286.159
342.708, 188.071
344.062, 412.153
345.416, 355.640
346.769, 320.500
348.123, 397.879
349.476, 285.624
350.829, 498.541
352.182, 539.254
353.534, 557.275
354.887, 601.126
356.239, 634.920
357.591, 781.828
358.942, 752.368
360.294, 841.505
361.645, 1016.314
362.996, 1055.632
364.347, 1149.952
365.698, 1127.852
367.048, 1366.289
368.398, 1450.441
369.748, 1460.226
371.098, 1623.636
372.448, 1701.803
373.797, 1876.084
375.146, 1836.479
376.495, 1894.984
377.844, 2127.604
379.192, 1981.335
380.540, 2443.178
381.889, 2269.133
383.236, 2372.197
384.584, 2536.377
385.932, 2620.670
387.279, 2783.079
388.626, 2821.604
389.973, 3023.248
391.319, 2978.010
392.666, 3197.893
394.012, 3089.896
395.358, 3160.021
396.704, 3257.278
398.049, 3373.663
399.394, 3526.429
400.740, 3581.793
402.084, 3888.537
403.429, 4098.398
404.774, 4304.381
406.118, 4744.479
407.462, 5078.696
408.806, 5339.033
410.150, 5768.486
411.493, 6325.061
412.836, 6810.751
414.179, 7225.561
415.522, 7356.439
416.865, 7471.563
418.207, 7285.756
419.549, 6929.083
420.891, 6554.561
422.233, 6071.207
423.575, 5512.002
424.916, 4689.942
426.257, 4380.016
427.598, 3741.221
428.939, 3376.551
430.279, 3111.051
431.619, 2695.719
432.959, 2488.539
434.299, 2307.525
435.639, 2382.665
436.978, 2166.979
438.318, 2305.471
439.657, 2207.129
440.996, 2369.941
442.334, 2345.910
443.673, 2565.043
445.011, 2680.329
446.349, 2909.769
447.687, 3083.344
449.024, 3441.077
450.361, 3679.941
451.699, 3827.938
453.036, 4198.082
454.372, 4471.373
455.709, 4973.812
457.045, 5100.400
458.381, 5598.130
459.717, 5811.006
461.053, 5935.013
462.388, 5968.168
463.724, 6213.449
465.059, 6273.871
466.394, 6153.426
467.728, 6036.125
469.063, 6022.951
470.397, 5469.929
471.731, 5169.043
473.065, 5053.293
474.398, 4622.682
475.732, 4444.192
477.065, 3891.819
478.398, 3627.591
479.731, 3440.475
481.063, 3057.484
482.396, 2749.614
483.728, 2649.854
485.060, 2477.209
486.391, 2213.675
487.723, 2060.252
489.054, 1808.939
490.385, 1663.739
491.716, 1512.654
493.047, 1252.687
494.377, 1245.846
495.708, 1129.128
497.038, 1085.550
498.368, 941.109
499.697, 824.788
501.027, 720.597
502.356, 725.546
503.685, 567.631
505.014, 573.861
506.342, 428.208
507.671, 366.681
508.999, 392.270
510.327, 244.989
511.655, 200.823
512.982, 111.771
514.310, 223.824
515.637, 42.982
516.964, 82.242
518.291, 49.397
519.617, 64.056
520.944, 52.392
522.270, 270.747
523.596, 69.058
524.921, 140.278
526.247, 114.424
527.572, 140.489
528.897, 119.480
530.222, 35.393
531.547, 96.786
532.871, 135.060
534.196, 94.428
535.520, 112.891
536.844, 281.445
538.167, 394.095
539.491, 296.836
540.814, 213.669
542.137, 256.594
543.460, 167.609
544.783, 300.716
546.105, 83.912
547.427, 341.199
548.749, 211.574
550.071, 123.038
551.393, 229.591
552.714, 274.230
554.035, 261.957
555.356, 388.771
556.677, 194.669
557.998, 175.653
559.318, 382.722
560.638, 374.876
561.958, 237.112
563.278, 324.433
564.597, 475.835
565.917, 357.320
567.236, 406.886
568.555, 623.533
569.874, 439.261
571.192, 686.068
572.511, 659.955
573.829, 708.921
575.147, 620.653
576.464, 771.909
577.782, 829.294
579.099, 745.509
580.416, 848.889
581.733, 1066.410
583.050, 1017.011
584.366, 1027.649
585.683, 1418.231
586.999, 1313.902
588.315, 1270.389
589.630, 1440.299
590.946, 1444.408
592.261, 1572.521
593.576, 1435.656
594.891, 1455.668
596.206, 1556.457
597.520, 1561.921
598.834, 1636.832
600.148, 1636.054
601.462, 1757.409
602.776, 2016.036
604.089, 1872.156
605.402, 2134.908
606.715, 2340.191
608.028, 2729.912
609.341, 2822.091
610.653, 3146.346
611.965, 3558.984
613.277, 3774.450
614.589, 4318.830
615.901, 4575.439
617.212, 4857.900
618.523, 4982.755
619.834, 5114.690
621.145, 4991.288
622.456, 4851.176
623.766, 4455.802
625.076, 4332.872
626.386, 3829.570
627.696, 3567.578
629.006, 3203.693
630.315, 3171.371
631.624, 2912.348
632.933, 2624.570
634.242, 2635.717
635.551, 2293.594
636.859, 2231.207
638.167, 2063.415
639.475, 2134.815
640.783, 1915.557
642.090, 1875.619
643.398, 1883.648
644.705, 1952.645
646.012, 1819.474
647.318, 1866.806
648.625, 1976.580
649.931, 1722.742
651.237, 1795.697
652.543, 1586.663
653.849, 1695.796
655.155, 1736.812
656.460, 1674.852
657.765, 1812.915
659.070, 1833.003
660.375, 1593.111
661.679, 1850.241
662.984, 1702.393
664.288, 1646.563
665.592, 1784.755
666.895, 1818.965
668.199, 1691.193
669.502, 1756.440
670.805, 1613.704
672.108, 1871.984
673.411, 1747.281
674.713, 1682.595
676.016, 1916.404
677.318, 1779.697
678.620, 1802.475
679.921, 1702.964
681.223, 1709.508
682.524, 1588.602
683.825, 1528.285
685.126, 1600.381
686.427, 1516.883
687.727, 1595.066
689.028, 1485.526
690.328, 1513.000
691.628, 1500.482
692.927, 1489.976
694.227, 1538.479
695.526, 1449.571
696.825, 1415.514
698.124, 1310.043
699.423, 1224.581
700.721, 1182.128
702.020, 1227.681
703.318, 1130.240
704.616, 1041.807
705.913, 930.379
707.211, 885.956
708.508, 949.538
709.805, 902.126
711.102, 646.718
712.399, 881.312
713.695, 484.911
714.992, 685.513
716.288, 550.117
717.584, 462.724
718.879, 448.333
720.175, 357.304
721.470, 358.554
722.765, 270.165
724.060, 211.778
725.355, 188.391
726.649, 97.003
727.944, 179.615
729.238, 131.227
730.532, 62.163
731.825, 59.393
733.119, 14.057
734.412, 80.539
735.705, 149.088
736.998, 80.736
738.291, 45.453
739.584, 7.221
740.876, 4.023
742.168, 41.142
743.460, 153.709
744.752, 141.667
746.043, 91.728
747.334, 123.867
748.626, 88.101
749.916, 169.413
751.207, 180.845
752.498, 139.400
753.788, 77.062
755.078, 97.797
756.368, 115.619
757.658, 67.535
758.947, 74.522
760.237, 1.415
761.526, 91.686
762.815, 24.129
764.104, 15.916
765.392, 53.330
766.680, 41.641
767.969, 54.668
769.257, 52.170
770.544, 37.959
771.832, 34.524
773.119, 6.148
774.406, 40.816
775.693, 18.454
776.980, 21.308
778.267, 16.122
779.553, 22.985
780.839, 1.099
782.125, 71.859
783.411, 21.894
784.697, 30.980
785.982, 23.124
787.267, 45.679
788.552, 80.459
789.837, 66.775
791.122, 166.915
792.406, 14.599
793.690, 36.247
794.974, 136.869
796.258, 100.483
797.542, 106.085
798.825, 113.676
800.108, 157.255
801.391, 87.826
802.674, 66.383
803.957, 106.922
805.239, 142.449
806.522, 154.968
807.804, 20.478
809.085, 180.958
810.367, 218.430
811.649, 151.893
812.930, 283.348
814.211, 297.794
815.492, 178.232
816.772, 291.662
818.053, 412.083
819.333, 346.497
820.613, 259.900
821.893, 383.297
823.173, 396.685
824.452, 375.064
825.732, 481.437
827.011, 379.800
828.290, 460.155
829.568, 525.502
830.847, 463.844
832.125, 663.178
833.403, 672.506
834.681, 605.854
835.959, 619.197
837.236, 625.544
838.514, 690.891
839.791, 733.242
841.068, 781.594
842.345, 709.939
843.621, 920.277
844.898, 816.607
846.174, 820.930
847.450, 914.246
848.726, 858.554
850.001, 890.854
851.277, 990.148
852.552, 1022.437
853.827, 1073.717
855.102, 1130.990
856.376, 1066.257
857.651, 1257.518
858.925, 1400.771
860.199, 1287.019
861.473, 1289.260
862.746, 1333.494
864.020, 1487.722
865.293, 1344.944
866.566, 1488.162
867.839, 1569.374
869.112, 1498.581
870.384, 1546.782
871.656, 1555.005
872.928, 1410.223
874.200, 1439.442
875.472, 1413.674
876.744, 1413.906
878.015, 1424.138
879.286, 1312.383
880.557, 1372.625
881.828, 1346.868
883.098, 1242.141
884.369, 1280.721
885.639, 1288.854
886.909, 1165.949
888.178, 1134.295
889.448, 1117.552
890.717, 1110.760
891.987, 998.965
893.256, 972.205
894.524, 972.592
895.793, 848.979
897.061, 876.622
898.330, 805.924
899.598, 829.117
900.865, 808.389
902.133, 702.725
903.401, 733.259
904.668, 661.100
905.935, 719.340
907.202, 698.225
908.468, 670.865
909.735, 741.468
911.001, 773.866
912.267, 676.868
913.533, 702.303
914.799, 838.305
916.064, 750.961
917.330, 862.235
918.595, 769.515
919.860, 841.484
921.124, 987.693
922.389, 1032.062
923.653, 1045.265
924.918, 1184.682
926.182, 1256.789
927.445, 1444.880
928.709, 1511.371
929.972, 1575.653
931.236, 1816.263
932.499, 2046.504
933.761, 2373.178
935.024, 2501.614
936.286, 2800.006
937.549, 3149.890
938.811, 3322.270
940.073, 3881.006
941.334, 4224.601
942.596, 4784.531
943.857, 5450.779
945.118, 5896.481
946.379, 6450.041
947.640, 7223.314
948.900, 8168.316
950.161, 8957.398
951.421, 9833.568
952.681, 11149.952
953.940, 12357.887
955.200, 13563.427
956.459, 15241.960
957.719, 16978.074
958.978, 18781.564
960.236, 20783.930
961.495, 22871.455
962.753, 25913.008
964.012, 28364.578
965.270, 31503.174
966.527, 35588.781
967.785, 39032.410
969.043, 42659.062
970.300, 46046.715
971.557, 48809.406
972.814, 50769.102
974.071, 51161.824
975.327, 50332.570
976.583, 47447.316
977.840, 44449.098
979.095, 39900.887
980.351, 35282.695
981.607, 31326.535
982.862, 27235.393
984.117, 23783.264
985.372, 21110.146
986.627, 17794.059
987.882, 16041.982
989.136, 14025.933
990.390, 12438.896
991.644, 11209.878
992.898, 9879.877
994.152, 8949.893
995.405, 8068.923
996.659, 7157.968
997.912, 6773.031
999.165, 6375.108
1000.417, 5711.200
1001.670, 5468.847
1002.922, 4811.778
1004.174, 4736.918
1005.426, 4566.237
1006.678, 4041.404
1007.930, 3938.624
1009.181, 3616.704
1010.432, 3629.353
1011.683, 3202.600
1012.934, 2888.840
1014.185, 2897.347
1015.435, 2806.674
1016.685, 2713.421
1017.935, 2538.953
1019.185, 2533.483
1020.435, 2593.097
1021.684, 2376.726
1022.934, 2400.354
1024.183, 2500.096
1025.432, 2315.825
1026.680, 2379.172
1027.929, 2338.932
1029.177, 2395.522
1030.425, 2373.603
1031.673, 2440.376
1032.921, 2381.666
1034.169, 2359.732
1035.416, 2292.223
1036.663, 2326.412
1037.911, 2348.041
1039.157, 2419.069
1040.404, 2474.842
1041.650, 2564.427
1042.897, 2710.036
1044.143, 2638.090
1045.389, 2799.194
1046.634, 3029.819
1047.880, 2992.219
1049.125, 3263.229
1050.371, 3376.630
1051.615, 3666.152
1052.860, 3879.909
1054.105, 4168.510
1055.349, 4428.625
1056.593, 4654.335
1057.837, 4785.106
1059.081, 5191.172
1060.325, 5211.593
1061.568, 5461.754
1062.812, 5347.401
1064.055, 5516.372
1065.298, 5365.822
1066.540, 5352.344
1067.783, 5168.695
1069.025, 4903.572
1070.267, 4920.941
1071.509, 4487.039
1072.751, 4298.918
1073.993, 4144.052
1075.234, 3889.372
1076.475, 3666.366
1077.716, 3454.838
1078.957, 3211.197
1080.198, 3033.688
1081.438, 2927.633
1082.679, 2608.998
1083.919, 2454.466
1085.159, 2145.354
1086.398, 2110.159
1087.638, 1968.902
1088.877, 1833.627
1090.116, 1722.508
1091.355, 1630.698
1092.594, 1576.721
1093.833, 1460.185
1095.071, 1360.662
1096.309, 1213.108
1097.547, 1211.484
1098.785, 1066.289
1100.023, 1054.672
1101.260, 906.552
1102.498, 967.688
1103.735, 811.203
1104.972, 878.007
1106.208, 782.795
1107.445, 721.826
1108.681, 706.000
1109.918, 722.364
1111.154, 619.751
1112.389, 652.762
1113.625, 552.617
1114.860, 550.565
1116.096, 532.432
1117.331, 481.147
1118.566, 455.181
1119.800, 405.315
1121.035, 504.082
1122.269, 508.584
1123.503, 483.677
1124.737, 447.953
1125.971, 426.597
1127.205, 399.944
1128.438, 334.969
1129.671, 367.659
1130.904, 269.735
1132.137, 282.121
1133.370, 302.988
1134.602, 304.427
1135.834, 167.705
1137.066, 165.849
1138.298, 182.777
1139.530, 80.989
1140.762, 203.667
1141.993, 134.142
1143.224, 74.602
1144.455, 101.232
1145.686, 79.639
1146.917, 121.061
1148.147, 161.338
1149.377, 6.378
1150.607, 137.955
1151.837, 78.230
1153.067, 23.336
1154.296, 81.339
1155.526, 61.325
1156.755, 5.315
1157.984, 116.366
1159.213, 76.494
1160.441, 105.049
1161.670, 29.051
1162.898, 80.771
1164.126, 7.070
1165.354, 45.781
1166.581, 53.882
1167.809, 41.194
1169.036, 106.979
1170.263, 51.435
1171.490, 22.797
1172.717, 72.391
1173.943, 8.901
1175.170, 19.076
1176.396, 65.920
1177.622, 16.436
1178.848, 15.269
1180.073, 120.715
1181.299, 30.261
1182.524, 2.571
1183.749, 53.829
1184.974, 21.663
1186.199, 11.686
1187.423, 70.766
1188.648, 10.274
1189.872, 13.937
1191.096, 70.287
1192.320, 53.714
1193.543, 26.637
1194.767, 39.206
1195.990, 62.911
1197.213, 35.550
1198.436, 51.567
1199.659, 5.837
1200.881, 49.186
1202.104, 7.590
1203.326, 78.985
1204.548, 85.427
1205.770, 97.428
1206.991, 25.781
1208.213, 95.820
1209.434, 17.051
1210.655, 106.162
1211.876, 80.494
1213.096, 32.845
1214.317, 45.075
1215.537, 20.355
1216.757, 4.887
1217.977, 21.504
1219.197, 25.839
1220.417, 3.823
1221.636, 53.515
1222.855, 0.381
1224.074, 10.576
1225.293, 51.350
1226.512, 4.679
1227.731, 42.912
1228.949, 17.890
1230.167, 33.598
1231.385, 9.059
1232.603, 63.375
1233.820, 3.326
1235.038, 2.242
1236.255, 61.226
1237.472, 8.576
1238.689, 53.382
1239.906, 115.129
1241.122, 115.168
1242.338, 27.985
1243.555, 127.643
1244.771, 76.387
1245.986, 31.832
1247.202, 67.314
1248.417, 46.934
1249.633, 109.151
1250.848, 74.470
1252.063, 76.083
1253.277, 55.104
1254.492, 44.625
1255.706, 125.008
1256.920, 34.896
1258.134, 55.783
1259.348, 67.727
1260.562, 192.391
1261.775, 208.166
1262.988, 76.979
1264.201, 162.057
1265.414, 142.413
1266.627, 217.711
1267.839, 95.092
1269.052, 142.313
1270.264, 118.578
1271.476, 76.707
1272.688, 88.958
1273.899, 164.828
1275.111, 69.606
1276.322, 132.333
1277.533, 93.195
1278.744, 152.751
1279.955, 84.473
1281.165, 98.990
1282.376, 112.327
1283.586, 135.589
1284.796, 98.777
1286.006, 159.892
1287.215, 200.955
1288.425, 197.923
1289.634, 156.927
1290.843, 197.767
1292.052, 187.517
1293.261, 215.198
1294.469, 206.991
1295.678, 187.154
1296.886, 193.633
1298.094, 227.328
1299.302, 244.084
1300.509, 240.707
1301.717, 231.992
1302.924, 208.816
1304.131, 182.899
1305.338, 119.945
1306.545, 196.893
1307.752, 94.582
1308.958, 138.339
1310.164, 239.625
1311.370, 153.073
1312.576, 123.472
1313.782, 184.735
1314.987, 255.932
1316.193, 163.080
1317.398, 235.061
1318.603, 193.004
1319.807, 203.275
1321.012, 153.081
1322.216, 178.007
1323.421, 181.390
1324.625, 132.023
1325.829, 211.145
1327.032, 154.374
1328.236, 243.153
1329.439, 135.053
1330.642, 149.783
1331.845, 148.912
1333.048, 119.709
1334.251, 171.837
1335.453, 138.333
1336.656, 154.350
1337.858, 183.278
1339.060, 216.641
1340.261, 162.229
1341.463, 126.206
1342.664, 188.877
1343.866, 224.319
1345.067, 226.514
1346.267, 214.871
1347.468, 194.853
1348.669, 210.108
1349.869, 295.375
1351.069, 210.249
1352.269, 149.809
1353.469, 240.565
1354.668, 265.822
1355.868, 235.720
1357.067, 207.128
1358.266, 153.564
1359.465, 186.998
1360.664, 129.005
1361.862, 176.472
1363.061, 164.105
1364.259, 149.080
1365.457, 135.640
1366.655, 203.990
1367.852, 112.637
1369.050, 122.794
1370.247, 189.026
1371.444, 150.160
1372.641, 112.761
1373.838, 163.996
1375.035, 102.015
1376.231, 163.609
1377.427, 151.272
1378.623, 179.704
1379.819, 65.073
1381.015, 112.167
1382.211, 144.815
1383.406, 191.548
1384.601, 90.753
1385.796, 127.890
1386.991, 149.601
1388.185, 112.019
1389.380, 166.865
1390.574, 140.581
1391.768, 89.441
1392.962, 179.578
1394.156, 125.365
1395.350, 48.132
1396.543, 171.677
1397.736, 148.928
1398.929, 166.188
1400.122, 143.844
1401.315, 125.867
1402.507, 93.188
1403.700, 141.833
1404.892, 96.676
1406.084, 69.992
1407.276, 19.246
1408.467, 143.365
1409.659, 140.090
1410.850, 102.949
1412.041, 123.625
1413.232, 95.305
1414.423, 110.185
1415.614, 62.703
1416.804, 134.085
1417.994, 189.082
1419.184, 128.664
1420.374, 76.366
1421.564, 130.243
1422.753, 71.820
1423.943, 101.370
1425.132, 146.437
1426.321, 161.213
1427.510, 227.500
1428.698, 189.036
1429.887, 111.474
1431.075, 137.039
1432.263, 86.666
1433.451, 107.044
1434.639, 161.694
1435.827, 187.259
1437.014, 71.046
1438.201, 134.666
1439.388, 137.814
1440.575, 32.539
1441.762, 149.034
1442.949, 154.952
1444.135, 89.682
1445.321, 148.629
1446.507, 125.180
1447.693, 79.094
1448.879, 116.042
1450.064, 74.671
1451.250, 115.415
1452.435, 106.210
1453.620, 195.287
1454.805, 119.126
1455.989, 108.093
1457.174, 147.099
1458.358, 112.088
1459.542, 84.630
1460.726, 106.738
1461.910, 120.991
1463.093, 220.184
1464.277, 141.008
1465.460, 113.521
1466.643, 129.393
1467.826, 57.899
1469.009, 168.513
1470.191, 77.884
1471.373, 56.765
1472.556, 146.765
1473.738, 97.157
1474.919, 124.595
1476.101, 98.401
1477.283, 112.545
