##NAMES=Monazite-(Ce)
##RRUFFID=R040106
##IDEAL CHEMISTRY=CePO_4_
##LOCALITY=Angola
##OWNER=RRUFF
##SOURCE=University of Arizona Mineral Museum
##DESCRIPTION=Brown massive fragment
##STATUS=The identification of this mineral has been confirmed by X-ray diffraction and chemical analysis
##URL=rruff.info/R040106
##MEASURED CHEMISTRY=(Ce_0.41_La_0.17_Nd_0.17_Th_0.14_Ca_0.06_Y_0.04_)(P_0.95_Si_0.05_)O_4_
##PIN_ID=M00462
##ORIENTATION=Laser parallel to -a* (-1 0 0). Fiducial mark perpendicular to laser is parallel to b [0 1 0]
54.966, 0.000
56.365, 7.409
57.765, 138.616
59.164, 289.955
60.563, 287.331
61.962, 419.814
63.360, 323.853
64.758, 106.167
66.157, 43.925
67.554, 32.972
68.952, 16.137
70.349, 302.251
71.747, 406.766
73.144, 790.804
74.540, 1175.141
75.937, 1544.622
77.333, 1831.092
78.729, 2083.389
80.125, 2352.356
81.521, 2725.851
82.916, 3089.745
84.311, 3265.926
85.706, 3394.296
87.101, 3431.767
88.496, 3483.260
89.890, 3481.710
91.284, 3747.076
92.678, 3811.422
94.071, 3695.823
95.465, 3819.228
96.858, 3634.547
98.251, 3721.684
99.644, 3706.556
101.036, 3545.085
102.428, 3527.216
103.820, 3322.899
105.212, 3198.098
106.604, 3165.776
107.995, 3137.906
109.387, 3219.465
110.777, 3098.431
112.168, 3078.021
113.559, 2982.512
114.949, 2970.595
116.339, 3110.023
117.729, 3151.785
119.119, 3071.870
120.508, 2854.267
121.897, 2755.967
123.286, 2808.964
124.675, 2465.254
126.063, 2541.931
127.452, 2403.389
128.840, 2144.185
130.228, 2065.426
131.615, 1821.758
133.003, 1809.587
134.390, 1687.499
135.777, 1737.460
137.164, 1614.477
138.550, 1347.511
139.937, 1239.437
141.323, 1277.273
142.709, 1125.722
144.094, 1101.502
145.480, 1016.318
146.865, 1024.916
148.250, 955.522
149.635, 981.153
151.019, 975.293
152.403, 932.529
153.788, 1010.296
155.171, 1011.126
156.555, 1054.025
157.939, 1120.001
159.322, 1082.060
160.705, 1036.203
162.088, 1036.438
163.470, 1086.766
164.853, 1030.190
166.235, 986.716
167.617, 1052.343
168.998, 923.076
170.380, 907.916
171.761, 902.864
173.142, 738.922
174.523, 755.094
175.904, 721.378
177.284, 611.776
178.664, 680.289
180.044, 516.916
181.424, 518.659
182.803, 585.517
184.183, 452.490
185.562, 488.582
186.940, 577.790
188.319, 585.117
189.698, 536.563
191.076, 469.128
192.454, 537.813
193.831, 588.619
195.209, 475.629
196.586, 490.744
197.963, 516.336
199.340, 581.666
200.717, 579.137
202.093, 696.339
203.470, 710.443
204.846, 794.915
206.221, 827.319
207.597, 892.905
208.972, 1005.400
210.347, 745.660
211.722, 738.089
213.097, 735.651
214.472, 769.343
215.846, 824.160
217.220, 785.104
218.594, 898.175
219.967, 901.373
221.341, 852.945
222.714, 849.493
224.087, 821.324
225.460, 914.333
226.832, 926.274
228.204, 921.406
229.577, 796.893
230.948, 782.711
232.320, 715.013
233.692, 731.869
235.063, 775.567
236.434, 600.526
237.805, 611.734
239.175, 551.180
240.545, 430.853
241.916, 534.743
243.286, 457.844
244.655, 497.144
246.025, 496.638
247.394, 517.318
248.763, 535.180
250.132, 489.217
251.501, 563.424
252.869, 482.796
254.237, 503.329
255.605, 580.021
256.973, 495.865
258.340, 633.859
259.708, 620.998
261.075, 557.277
262.442, 659.694
263.808, 684.243
265.175, 612.924
266.541, 701.732
267.907, 654.667
269.273, 693.726
270.639, 736.905
272.004, 604.205
273.369, 740.623
274.734, 865.159
276.099, 871.811
277.463, 712.577
278.828, 854.457
280.192, 806.449
281.556, 760.553
282.919, 755.768
284.283, 835.093
285.646, 888.525
287.009, 802.067
288.372, 781.717
289.734, 916.474
291.097, 970.335
292.459, 920.300
293.821, 1071.360
295.183, 980.513
296.544, 961.753
297.905, 880.077
299.266, 965.487
300.627, 892.984
301.988, 1047.565
303.348, 881.234
304.709, 904.991
306.069, 887.837
307.428, 889.772
308.788, 925.799
310.147, 801.918
311.507, 823.129
312.865, 786.433
314.224, 794.831
315.583, 639.322
316.941, 639.909
318.299, 593.590
319.657, 497.366
321.015, 565.237
322.372, 434.204
323.729, 408.267
325.086, 288.425
326.443, 323.679
327.800, 172.030
329.156, 210.477
330.512, 31.019
331.868, 22.657
333.224, 15.391
334.579, 2.218
335.935, 129.863
337.290, 68.125
338.645, 226.790
339.999, 201.654
341.354, 165.461
342.708, 306.206
344.062, 278.916
345.416, 311.584
346.769, 353.022
348.123, 286.827
349.476, 365.396
350.829, 354.941
352.182, 315.462
353.534, 292.949
354.887, 228.398
356.239, 201.798
357.591, 210.143
358.942, 154.438
360.294, 68.706
361.645, 43.055
362.996, 87.175
364.347, 150.543
365.698, 120.210
367.048, 261.832
368.398, 336.380
369.748, 312.970
371.098, 458.547
372.448, 509.176
373.797, 564.888
375.146, 631.702
376.495, 749.618
377.844, 983.637
379.192, 894.758
380.540, 1113.980
381.889, 1115.304
383.236, 1263.729
384.584, 1382.277
385.932, 1437.951
387.279, 1572.747
388.626, 1587.666
389.973, 1842.708
391.319, 1837.874
392.666, 2126.160
394.012, 2031.567
395.358, 2304.105
396.704, 2362.770
398.049, 2584.551
399.394, 2877.448
400.740, 2926.462
402.084, 3119.590
403.429, 3395.832
404.774, 3708.188
406.118, 3977.177
407.462, 4364.237
408.806, 4585.931
410.150, 5095.733
411.493, 5396.648
412.836, 5871.673
414.179, 6037.807
415.522, 6176.050
416.865, 6303.103
418.207, 6308.041
419.549, 6269.430
420.891, 6213.106
422.233, 6080.889
423.575, 5929.779
424.916, 5364.776
426.257, 5683.879
427.598, 5661.087
428.939, 5528.400
430.279, 5923.827
431.619, 5770.359
432.959, 6136.006
434.299, 6439.766
435.639, 7142.652
436.978, 7480.679
438.318, 8254.848
439.657, 8761.168
440.996, 9749.625
442.334, 10724.230
443.673, 11529.979
445.011, 12405.853
446.349, 13753.868
447.687, 14866.013
449.024, 16245.312
450.361, 17581.742
451.699, 18811.344
453.036, 20531.090
454.372, 22107.984
455.709, 23799.035
457.045, 24760.186
458.381, 26575.482
459.717, 27289.926
461.053, 28364.504
462.388, 28492.219
463.724, 28963.061
465.059, 28988.072
466.394, 27995.203
467.728, 27108.482
469.063, 26273.910
470.397, 24427.461
471.731, 22845.160
473.065, 21634.988
474.398, 19599.947
475.732, 18435.041
477.065, 16486.252
478.398, 15140.597
479.731, 13881.053
481.063, 12738.636
482.396, 11410.329
483.728, 10604.161
485.060, 9759.115
486.391, 8579.184
487.723, 7896.375
489.054, 7168.672
490.385, 6541.092
491.716, 6091.629
493.047, 5449.273
494.377, 5018.957
495.708, 4472.361
497.038, 4240.764
498.368, 3664.871
499.697, 3501.151
501.027, 3130.696
502.356, 2961.003
503.685, 2520.936
505.014, 2373.236
506.342, 1999.134
507.671, 2025.169
508.999, 1643.413
510.327, 1583.043
511.655, 1435.304
512.982, 1296.551
514.310, 1354.937
515.637, 1069.400
516.964, 957.197
518.291, 795.726
519.617, 844.884
520.944, 809.729
522.270, 681.636
523.596, 795.931
524.921, 709.019
526.247, 867.196
527.572, 837.469
528.897, 1082.832
530.222, 1441.285
531.547, 1660.828
532.871, 2077.464
534.196, 2317.188
535.520, 2498.002
536.844, 2775.906
538.167, 2798.896
539.491, 2706.975
540.814, 2544.140
542.137, 2184.391
543.460, 1966.727
544.783, 1854.147
546.105, 1625.654
547.427, 1535.244
548.749, 1395.916
550.071, 1436.671
551.393, 1295.506
552.714, 1430.424
554.035, 1212.421
555.356, 1339.498
556.677, 1205.653
557.998, 1226.887
559.318, 1299.197
560.638, 1327.586
561.958, 1289.049
563.278, 1138.588
564.597, 1352.203
565.917, 1245.891
567.236, 1282.652
568.555, 1465.486
569.874, 1252.393
571.192, 1371.370
572.511, 1540.420
573.829, 1459.537
575.147, 1395.727
576.464, 1406.983
577.782, 1419.308
579.099, 1320.701
580.416, 1297.160
581.733, 1386.686
583.050, 1459.276
584.366, 1398.932
585.683, 1580.652
586.999, 1483.472
588.315, 1478.123
589.630, 1725.229
590.946, 1593.874
592.261, 1586.503
593.576, 1414.675
594.891, 1278.150
596.206, 1339.713
597.520, 1367.321
598.834, 1377.603
600.148, 1253.929
601.462, 1309.820
602.776, 1339.601
604.089, 1363.078
605.402, 1507.016
606.715, 1576.970
608.028, 1651.992
609.341, 1808.136
610.653, 1946.725
611.965, 2210.787
613.277, 2312.022
614.589, 2622.751
615.901, 2821.556
617.212, 3084.923
618.523, 3195.641
619.834, 3484.481
621.145, 3384.433
622.456, 3438.858
623.766, 3210.696
625.076, 3235.188
626.386, 3037.747
627.696, 2918.380
629.006, 2603.229
630.315, 2657.726
631.624, 2300.484
632.933, 2257.922
634.242, 2280.191
635.551, 2067.945
636.859, 1998.842
638.167, 1843.690
639.475, 1814.181
640.783, 1761.852
642.090, 1832.420
643.398, 1826.917
644.705, 1889.616
646.012, 1884.980
647.318, 1855.497
648.625, 1873.395
649.931, 1767.434
651.237, 1730.303
652.543, 1687.757
653.849, 1692.160
655.155, 1832.291
656.460, 1803.758
657.765, 1999.476
659.070, 1987.701
660.375, 1889.964
661.679, 2039.381
662.984, 1955.596
664.288, 1999.463
665.592, 2071.219
666.895, 2086.580
668.199, 2024.131
669.502, 2114.551
670.805, 2128.919
672.108, 2219.929
673.411, 2290.311
674.713, 2197.766
676.016, 2478.173
677.318, 2371.953
678.620, 2516.334
679.921, 2395.705
681.223, 2523.285
682.524, 2583.652
683.825, 2330.598
685.126, 2674.107
686.427, 2666.435
687.727, 2551.748
689.028, 2541.318
690.328, 2443.600
691.628, 2582.938
692.927, 2692.187
694.227, 2696.418
695.526, 2703.471
696.825, 2713.824
698.124, 2575.999
699.423, 2454.152
700.721, 2346.287
702.020, 2473.399
703.318, 2317.489
704.616, 2257.556
705.913, 2111.600
707.211, 2005.619
708.508, 2126.615
709.805, 1904.586
711.102, 1692.530
712.399, 1771.449
713.695, 1563.340
714.992, 1625.205
716.288, 1423.041
717.584, 1246.850
718.879, 1175.627
720.175, 908.376
721.470, 1105.095
722.765, 802.782
724.060, 689.438
725.355, 812.063
726.649, 610.655
727.944, 555.215
729.238, 546.740
730.532, 261.232
731.825, 426.689
733.119, 209.111
734.412, 193.498
735.705, 131.849
736.998, 180.163
738.291, 187.439
739.584, 125.679
740.876, 103.880
742.168, 68.043
743.460, 21.165
744.752, 55.238
746.043, 4.623
747.334, 7.235
748.626, 33.857
749.916, 105.031
751.207, 104.322
752.498, 136.234
753.788, 95.278
755.078, 126.940
756.368, 101.735
757.658, 29.652
758.947, 122.655
760.237, 45.793
761.526, 142.026
762.815, 77.407
764.104, 204.901
765.392, 114.577
766.680, 120.389
767.969, 153.338
769.257, 22.554
770.544, 79.620
771.832, 134.915
773.119, 75.358
774.406, 91.921
775.693, 44.613
776.980, 178.408
778.267, 56.378
779.553, 129.460
780.839, 97.692
782.125, 66.059
783.411, 100.542
784.697, 78.163
785.982, 65.690
787.267, 91.771
788.552, 24.766
789.837, 47.859
791.122, 17.751
792.406, 48.416
793.690, 4.233
794.974, 107.258
796.258, 42.890
797.542, 9.629
798.825, 60.460
800.108, 22.591
801.391, 50.430
802.674, 32.563
803.957, 1.799
805.239, 0.878
806.522, 7.471
807.804, 167.017
809.085, 47.322
810.367, 72.406
811.649, 12.257
812.930, 47.801
814.211, 11.792
815.492, 22.294
816.772, 54.522
818.053, 28.273
819.333, 34.952
820.613, 14.561
821.893, 113.094
823.173, 15.568
824.452, 150.966
825.732, 88.630
827.011, 68.427
828.290, 17.810
829.568, 69.954
830.847, 49.034
832.125, 206.047
833.403, 221.006
834.681, 139.913
835.959, 191.765
837.236, 98.563
838.514, 146.302
839.791, 199.987
841.068, 210.620
842.345, 124.201
843.621, 341.727
844.898, 165.201
846.174, 191.623
847.450, 284.992
848.726, 237.311
850.001, 244.580
851.277, 308.798
852.552, 270.965
853.827, 291.083
855.102, 376.150
856.376, 299.167
857.651, 304.136
858.925, 459.055
860.199, 308.925
861.473, 407.746
862.746, 432.518
864.020, 493.241
865.293, 387.917
866.566, 571.544
867.839, 451.125
869.112, 516.658
870.384, 450.144
871.656, 514.583
872.928, 450.976
874.200, 501.323
875.472, 498.624
876.744, 458.879
878.015, 512.089
879.286, 409.254
880.557, 620.375
881.828, 422.451
883.098, 545.482
884.369, 474.471
885.639, 539.416
886.909, 528.318
888.178, 570.177
889.448, 558.865
890.717, 562.065
891.987, 513.502
893.256, 535.193
894.524, 491.844
895.793, 433.417
897.061, 483.180
898.330, 444.511
899.598, 409.324
900.865, 542.175
902.133, 520.503
903.401, 448.549
904.668, 431.526
905.935, 515.479
907.202, 501.778
908.468, 526.052
909.735, 560.778
911.001, 550.493
912.267, 561.813
913.533, 550.551
914.799, 500.289
916.064, 505.937
917.330, 486.814
918.595, 571.724
919.860, 526.426
921.124, 648.972
922.389, 777.040
923.653, 716.047
924.918, 792.509
926.182, 934.639
927.445, 925.661
928.709, 1082.589
929.972, 1081.060
931.236, 1098.137
932.499, 1382.575
933.761, 1547.958
935.024, 1622.290
936.286, 1847.418
937.549, 2120.913
938.811, 2214.159
940.073, 2651.756
941.334, 2859.554
942.596, 3224.878
943.857, 3683.073
945.118, 4089.324
946.379, 4539.866
947.640, 5046.397
948.900, 5641.951
950.161, 6349.621
951.421, 7090.101
952.681, 7914.568
953.940, 8961.688
955.200, 9884.927
956.459, 10870.107
957.719, 12543.469
958.978, 13823.253
960.236, 15374.104
961.495, 17138.279
962.753, 19082.125
964.012, 21245.775
965.270, 23789.982
966.527, 26430.176
967.785, 29383.291
969.043, 32486.678
970.300, 34954.465
971.557, 37305.449
972.814, 39185.895
974.071, 39736.230
975.327, 39684.797
976.583, 37811.500
977.840, 36139.633
979.095, 32878.484
980.351, 29679.295
981.607, 27091.203
982.862, 24051.773
984.117, 21320.770
985.372, 19821.793
986.627, 17125.639
987.882, 15904.700
989.136, 14475.193
990.390, 12998.142
991.644, 12311.282
992.898, 11261.444
994.152, 10514.345
995.405, 9719.541
996.659, 8882.698
997.912, 8473.964
999.165, 7868.275
1000.417, 7432.615
1001.670, 6635.973
1002.922, 6545.348
1004.174, 5862.741
1005.426, 5747.150
1006.678, 5384.582
1007.930, 5119.035
1009.181, 4859.505
1010.432, 4559.000
1011.683, 4493.522
1012.934, 4146.063
1014.185, 4012.637
1015.435, 3888.237
1016.685, 3671.870
1017.935, 3640.551
1019.185, 3541.260
1020.435, 3441.997
1021.684, 3408.757
1022.934, 3272.545
1024.183, 3247.364
1025.432, 3009.212
1026.680, 3026.080
1027.929, 2822.979
1029.177, 2824.922
1030.425, 2800.890
1031.673, 2692.885
1032.921, 2489.922
1034.169, 2401.004
1035.416, 2413.119
1036.663, 2440.260
1037.911, 2216.432
1039.157, 2215.633
1040.404, 2232.862
1041.650, 2099.117
1042.897, 2032.397
1044.143, 2027.706
1045.389, 2059.044
1046.634, 1956.408
1047.880, 1919.810
1049.125, 1803.237
1050.371, 1836.702
1051.615, 1927.203
1052.860, 1862.751
1054.105, 2031.378
1055.349, 1886.067
1056.593, 1920.832
1057.837, 1956.659
1059.081, 1987.558
1060.325, 1999.532
1061.568, 1946.544
1062.812, 2033.821
1064.055, 2003.984
1065.298, 2025.906
1066.540, 1869.232
1067.783, 1900.603
1069.025, 1891.318
1070.267, 1929.856
1071.509, 1788.455
1072.751, 1797.160
1073.993, 1782.290
1075.234, 1690.615
1076.475, 1652.802
1077.716, 1652.287
1078.957, 1513.622
1080.198, 1414.819
1081.438, 1462.072
1082.679, 1365.574
1083.919, 1409.534
1085.159, 1343.396
1086.398, 1329.794
1087.638, 1202.777
1088.877, 1158.382
1090.116, 1146.836
1091.355, 1168.582
1092.594, 1192.561
1093.833, 1113.307
1095.071, 1033.551
1096.309, 993.434
1097.547, 986.334
1098.785, 981.972
1100.023, 1026.178
1101.260, 1050.285
1102.498, 1067.592
1103.735, 1064.369
1104.972, 1054.281
1106.208, 1016.929
1107.445, 1019.353
1108.681, 1011.067
1109.918, 1043.045
1111.154, 1023.090
1112.389, 1018.173
1113.625, 1040.837
1114.860, 988.659
1116.096, 957.979
1117.331, 1023.878
1118.566, 909.813
1119.800, 997.709
1121.035, 1007.846
1122.269, 1038.596
1123.503, 1157.681
1124.737, 1124.639
1125.971, 1106.918
1127.205, 1072.927
1128.438, 988.337
1129.671, 1036.804
1130.904, 1013.079
1132.137, 959.471
1133.370, 1034.021
1134.602, 1022.268
1135.834, 907.854
1137.066, 925.970
1138.298, 1108.510
1139.530, 901.764
1140.762, 1075.104
1141.993, 881.595
1143.224, 886.231
1144.455, 961.424
1145.686, 964.102
1146.917, 1013.601
1148.147, 1042.699
1149.377, 1034.157
1150.607, 1002.161
1151.837, 962.734
1153.067, 922.352
1154.296, 875.093
1155.526, 958.208
1156.755, 884.770
1157.984, 931.726
1159.213, 886.172
1160.441, 844.034
1161.670, 904.466
1162.898, 892.159
1164.126, 822.339
1165.354, 870.677
1166.581, 854.209
1167.809, 847.632
1169.036, 776.717
1170.263, 882.277
1171.490, 767.737
1172.717, 762.153
1173.943, 652.947
1175.170, 627.373
1176.396, 583.290
1177.622, 520.032
1178.848, 503.547
1180.073, 460.631
1181.299, 449.290
1182.524, 492.198
1183.749, 442.396
1184.974, 412.151
1186.199, 510.801
1187.423, 374.639
1188.648, 381.805
1189.872, 410.512
1191.096, 241.195
1192.320, 290.674
1193.543, 331.749
1194.767, 226.885
1195.990, 187.475
1197.213, 160.559
1198.436, 180.469
1199.659, 163.302
1200.881, 165.432
1202.104, 103.934
1203.326, 141.135
1204.548, 89.722
1205.770, 28.132
1206.991, 2.405
1208.213, 28.620
1209.434, 17.317
1210.655, 1.124
1211.876, 42.617
1213.096, 4.042
1214.317, 9.736
1215.537, 20.826
1216.757, 0.225
1217.977, 17.504
1219.197, 5.885
1220.417, 27.182
1221.636, 31.713
1222.855, 22.345
1224.074, 30.859
1225.293, 22.526
1226.512, 46.137
1227.731, 9.875
1228.949, 17.049
1230.167, 56.898
1231.385, 23.553
1232.603, 63.917
1233.820, 20.764
1235.038, 98.434
1236.255, 109.164
1237.472, 0.165
1238.689, 7.938
1239.906, 52.009
1241.122, 12.267
1242.338, 24.031
1243.555, 13.596
1244.771, 76.491
1245.986, 68.923
1247.202, 24.410
1248.417, 5.082
1249.633, 25.515
1250.848, 15.351
1252.063, 2.005
1253.277, 36.465
1254.492, 24.125
1255.706, 62.771
1256.920, 4.585
1258.134, 25.398
1259.348, 14.877
1260.562, 30.186
1261.775, 3.560
1262.988, 13.594
1264.201, 39.336
1265.414, 59.210
1266.627, 11.994
1267.839, 37.133
1269.052, 104.434
1270.264, 20.802
1271.476, 24.210
1272.688, 129.678
1273.899, 14.770
1275.111, 15.157
1276.322, 52.461
1277.533, 17.278
1278.744, 50.087
1279.955, 11.833
1281.165, 24.293
1282.376, 6.703
1283.586, 59.711
1284.796, 5.901
1286.006, 10.841
1287.215, 62.624
1288.425, 7.736
1289.634, 31.150
1290.843, 37.503
1292.052, 97.056
1293.261, 9.711
1294.469, 103.819
1295.678, 33.062
1296.886, 86.255
1298.094, 80.518
1299.302, 20.628
1300.509, 37.674
1301.717, 107.667
1302.924, 20.688
1304.131, 12.573
1305.338, 67.400
1306.545, 1.824
1307.752, 11.885
1308.958, 4.522
1310.164, 60.821
1311.370, 18.665
1312.576, 22.089
1313.782, 62.451
1314.987, 21.759
1316.193, 25.002
1317.398, 27.183
1318.603, 104.298
1319.807, 29.358
1321.012, 29.643
1322.216, 74.277
1323.421, 46.140
1324.625, 18.056
1325.829, 22.258
1327.032, 25.397
1328.236, 76.044
1329.439, 30.580
1330.642, 60.053
1331.845, 55.468
1333.048, 83.822
1334.251, 144.122
1335.453, 63.369
1336.656, 71.560
1337.858, 95.693
1339.060, 52.773
1340.261, 174.932
1341.463, 97.899
1342.664, 117.941
1343.866, 127.799
1345.067, 14.605
1346.267, 174.343
1347.468, 93.029
1348.669, 173.661
1349.869, 215.522
1351.069, 247.053
1352.269, 94.567
1353.469, 168.995
1354.668, 158.179
1355.868, 174.479
1357.067, 164.047
1358.266, 132.428
1359.465, 192.605
1360.664, 180.569
1361.862, 120.656
1363.061, 151.924
1364.259, 139.831
1365.457, 173.332
1366.655, 192.790
1367.852, 160.357
1369.050, 191.590
1370.247, 173.080
1371.444, 196.619
1372.641, 114.110
1373.838, 213.251
1375.035, 158.942
1376.231, 78.830
1377.427, 157.043
1378.623, 152.646
1379.819, 149.614
1381.015, 130.702
1382.211, 203.821
1383.406, 184.993
1384.601, 238.599
1385.796, 131.445
1386.991, 277.446
1388.185, 178.969
1389.380, 103.369
1390.574, 266.480
1391.768, 259.824
1392.962, 283.979
1394.156, 169.910
1395.350, 211.108
1396.543, 250.877
1397.736, 257.314
1398.929, 247.832
1400.122, 293.649
1401.315, 253.174
1402.507, 163.655
1403.700, 261.282
1404.892, 200.587
1406.084, 253.793
1407.276, 266.983
1408.467, 300.072
1409.659, 292.577
1410.850, 199.940
1412.041, 292.043
1413.232, 236.109
1414.423, 237.974
1415.614, 264.262
1416.804, 294.554
1417.994, 250.623
1419.184, 306.162
1420.374, 212.970
1421.564, 289.576
1422.753, 178.491
1423.943, 180.091
1425.132, 196.933
1426.321, 163.168
1427.510, 238.958
1428.698, 301.102
1429.887, 157.097
1431.075, 301.832
1432.263, 176.143
1433.451, 143.006
1434.639, 285.808
1435.827, 290.870
1437.014, 109.562
1438.201, 319.346
1439.388, 220.146
1440.575, 137.194
1441.762, 161.175
1442.949, 275.772
1444.135, 174.927
1445.321, 140.853
1446.507, 262.342
1447.693, 199.584
1448.879, 182.829
1450.064, 249.151
1451.250, 197.502
1452.435, 128.701
1453.620, 269.521
1454.805, 182.426
1455.989, 208.610
1457.174, 284.528
1458.358, 138.696
1459.542, 190.850
1460.726, 235.394
1461.910, 169.806
1463.093, 238.488
1464.277, 201.270
1465.460, 151.438
1466.643, 186.099
1467.826, 105.848
1469.009, 220.276
1470.191, 104.859
1471.373, 173.370
1472.556, 146.987
1473.738, 177.665
