##NAMES=Monticellite
##RRUFFID=R040115
##IDEAL CHEMISTRY=CaMgSiO_4_
##LOCALITY=Magnet Cove, Arkansas, USA
##OWNER=RRUFF
##SOURCE=University of Arizona Mineral Museum
##DESCRIPTION=Brown blebs in matrix
##STATUS=The identification of this mineral has been confirmed by X-ray diffraction and chemical analysis
##URL=rruff.info/R040115
##MEASURED CHEMISTRY=Ca_0.99_(Mg_0.85_ Fe_0.12_Mn_0.03_)Si_1.00_O_4_
##PIN_ID=M00451
##ORIENTATION=Laser parallel to c* (0 0 1). Fiducial mark perpendicular to laser is parallel to -a [-1 0 0]
105.212, 0.000
106.604, 30.590
107.995, 6.172
109.387, 58.190
110.777, 4.671
112.168, 52.401
113.559, 70.665
114.949, 66.628
116.339, 148.955
117.729, 124.420
119.119, 174.812
120.508, 194.978
121.897, 152.818
123.286, 213.234
124.675, 207.144
126.063, 199.477
127.452, 286.384
128.840, 243.625
130.228, 327.158
131.615, 313.906
133.003, 495.863
134.390, 448.027
135.777, 680.515
137.164, 793.172
138.550, 1134.988
139.937, 1338.971
141.323, 1537.066
142.709, 1705.263
144.094, 1859.551
145.480, 1922.925
146.865, 1779.373
148.250, 1493.106
149.635, 1088.583
151.019, 802.124
152.403, 617.292
153.788, 442.912
155.171, 456.595
156.555, 492.340
157.939, 452.144
159.322, 538.175
160.705, 577.258
162.088, 726.380
163.470, 838.993
164.853, 1033.034
166.235, 1178.233
167.617, 1204.547
168.998, 1361.604
170.380, 1412.050
171.761, 1435.531
173.142, 1359.835
174.523, 1169.327
175.904, 782.830
177.284, 476.341
178.664, 329.860
180.044, 180.384
181.424, 131.914
182.803, 106.447
184.183, 42.983
185.562, 32.520
186.940, 60.058
188.319, 44.595
189.698, 31.880
191.076, 17.630
192.454, 26.135
193.831, 63.643
195.209, 3.192
196.586, 50.780
197.963, 20.609
199.340, 57.038
200.717, 108.729
202.093, 92.456
203.470, 77.208
204.846, 46.008
206.221, 53.843
207.597, 37.207
208.972, 37.227
210.347, 43.412
211.722, 45.471
213.097, 86.974
214.472, 82.810
215.846, 95.655
217.220, 90.525
218.594, 34.407
219.967, 83.296
221.341, 8.801
222.714, 11.235
224.087, 33.839
225.460, 51.126
226.832, 0.955
228.204, 0.000
229.577, 69.462
230.948, 84.593
232.320, 12.231
233.692, 53.589
235.063, 0.854
236.434, 57.309
237.805, 67.139
239.175, 12.995
240.545, 46.763
241.916, 78.539
243.286, 99.278
244.655, 60.009
246.025, 132.729
247.394, 156.434
248.763, 272.125
250.132, 324.214
251.501, 340.473
252.869, 460.130
254.237, 591.776
255.605, 641.407
256.973, 763.026
258.340, 807.632
259.708, 738.227
261.075, 640.810
262.442, 490.380
263.808, 422.937
265.175, 280.480
266.541, 390.013
267.907, 378.530
269.273, 395.036
270.639, 374.518
272.004, 388.650
273.369, 402.778
274.734, 454.872
276.099, 370.114
277.463, 362.362
278.828, 351.083
280.192, 202.812
281.556, 90.205
282.919, 154.458
284.283, 79.680
285.646, 143.295
287.009, 17.965
288.372, 19.274
289.734, 82.122
291.097, 101.180
292.459, 49.355
293.821, 39.347
295.183, 38.126
296.544, 109.105
297.905, 189.896
299.266, 165.129
300.627, 190.887
301.988, 187.502
303.348, 252.112
304.709, 159.932
306.069, 123.428
307.428, 188.560
308.788, 114.392
310.147, 101.321
311.507, 112.535
312.865, 94.180
314.224, 23.341
315.583, 69.999
316.941, 68.755
318.299, 6.326
319.657, 2.435
321.015, 76.360
322.372, 103.426
323.729, 60.795
325.086, 103.675
326.443, 63.848
327.800, 79.485
329.156, 158.760
330.512, 78.798
331.868, 86.173
333.224, 134.048
334.579, 152.975
335.935, 98.687
337.290, 90.792
338.645, 5.694
339.999, 50.551
341.354, 40.166
342.708, 25.965
344.062, 69.826
345.416, 44.488
346.769, 87.173
348.123, 14.802
349.476, 43.267
350.829, 1.253
352.182, 14.526
353.534, 9.606
354.887, 28.323
356.239, 30.632
357.591, 3.469
358.942, 8.833
360.294, 41.729
361.645, 1.232
362.996, 22.640
364.347, 152.034
365.698, 2.584
367.048, 85.782
368.398, 44.135
369.748, 36.474
371.098, 115.799
372.448, 120.110
373.797, 106.407
375.146, 54.686
376.495, 144.946
377.844, 213.192
379.192, 63.425
380.540, 284.694
381.889, 203.949
383.236, 239.188
384.584, 384.251
385.932, 366.461
387.279, 451.641
388.626, 637.819
389.973, 803.968
391.319, 909.103
392.666, 1199.226
394.012, 1387.421
395.358, 1614.434
396.704, 1897.490
398.049, 2229.526
399.394, 2550.546
400.740, 2568.550
402.084, 2648.203
403.429, 2618.174
404.774, 2487.130
406.118, 2266.075
407.462, 1950.004
408.806, 1705.939
410.150, 1375.837
411.493, 1099.850
412.836, 995.714
414.179, 809.563
415.522, 569.396
416.865, 566.236
418.207, 387.060
419.549, 325.868
420.891, 290.706
422.233, 252.521
423.575, 203.344
424.916, 117.085
426.257, 172.810
427.598, 123.519
428.939, 160.287
430.279, 210.275
431.619, 7.933
432.959, 46.571
434.299, 68.194
435.639, 100.882
436.978, 57.279
438.318, 112.035
439.657, 24.846
440.996, 28.384
442.334, 126.152
443.673, 7.932
445.011, 40.522
446.349, 77.406
447.687, 1.410
449.024, 10.788
450.361, 42.141
451.699, 3.389
453.036, 4.860
454.372, 1.594
455.709, 2.160
457.045, 0.759
458.381, 2.720
459.717, 20.403
461.053, 3.974
462.388, 9.830
463.724, 9.550
465.059, 3.417
466.394, 16.807
467.728, 35.762
469.063, 83.917
470.397, 60.825
471.731, 0.390
473.065, 146.240
474.398, 37.411
475.732, 162.374
477.065, 24.847
478.398, 61.733
479.731, 67.145
481.063, 12.571
482.396, 49.226
483.728, 28.510
485.060, 78.223
486.391, 3.800
487.723, 17.343
489.054, 36.204
490.385, 53.881
491.716, 30.584
493.047, 75.013
494.377, 11.303
495.708, 111.878
497.038, 46.375
498.368, 66.788
499.697, 5.870
501.027, 128.380
502.356, 91.865
503.685, 75.252
505.014, 120.429
506.342, 112.764
507.671, 123.892
508.999, 13.111
510.327, 49.256
511.655, 79.703
512.982, 57.743
514.310, 96.170
515.637, 35.073
516.964, 151.950
518.291, 82.820
519.617, 284.547
520.944, 211.518
522.270, 222.599
523.596, 348.389
524.921, 454.186
526.247, 609.430
527.572, 865.181
528.897, 1104.865
530.222, 1415.489
531.547, 1573.170
532.871, 1705.828
534.196, 2034.487
535.520, 1258.077
536.844, 1151.666
538.167, 765.231
539.491, 678.845
540.814, 495.363
542.137, 444.940
543.460, 386.412
544.783, 387.859
546.105, 157.366
547.427, 323.771
548.749, 229.152
550.071, 311.009
551.393, 183.344
552.714, 142.655
554.035, 114.942
555.356, 227.205
556.677, 176.444
557.998, 182.661
559.318, 274.854
560.638, 225.023
561.958, 189.172
563.278, 176.297
564.597, 233.494
565.917, 164.573
567.236, 155.629
568.555, 195.662
569.874, 128.671
571.192, 192.657
572.511, 174.619
573.829, 233.559
575.147, 181.964
576.464, 186.116
577.782, 265.729
579.099, 150.577
580.416, 151.401
581.733, 145.203
583.050, 191.981
584.366, 164.736
585.683, 330.468
586.999, 140.179
588.315, 82.866
589.630, 225.527
590.946, 168.462
592.261, 216.858
593.576, 135.319
594.891, 41.891
596.206, 27.246
597.520, 92.756
598.834, 189.825
600.148, 91.910
601.462, 84.350
602.776, 132.939
604.089, 52.568
605.402, 45.807
606.715, 176.988
608.028, 212.529
609.341, 108.528
610.653, 85.310
611.965, 140.965
613.277, 76.793
614.589, 99.822
615.901, 26.638
617.212, 181.624
618.523, 44.155
619.834, 103.142
621.145, 101.254
622.456, 42.354
623.766, 67.776
625.076, 193.372
626.386, 66.865
627.696, 138.639
629.006, 24.294
630.315, 144.642
631.624, 26.477
632.933, 8.853
634.242, 124.657
635.551, 4.660
636.859, 110.828
638.167, 69.677
639.475, 180.866
640.783, 17.118
642.090, 77.041
643.398, 137.429
644.705, 153.500
646.012, 47.919
647.318, 50.971
648.625, 37.071
649.931, 126.812
651.237, 6.024
652.543, 42.157
653.849, 0.479
655.155, 66.372
656.460, 53.446
657.765, 109.537
659.070, 67.151
660.375, 30.677
661.679, 184.920
662.984, 36.087
664.288, 173.205
665.592, 26.356
666.895, 88.196
668.199, 30.070
669.502, 38.861
670.805, 44.380
672.108, 122.550
673.411, 93.863
674.713, 34.001
676.016, 112.837
677.318, 52.948
678.620, 13.938
679.921, 40.157
681.223, 88.240
682.524, 79.319
683.825, 112.867
685.126, 119.446
686.427, 149.494
687.727, 88.531
689.028, 142.557
690.328, 74.427
691.628, 169.534
692.927, 103.485
694.227, 81.427
695.526, 188.642
696.825, 134.178
698.124, 20.997
699.423, 82.807
700.721, 114.608
702.020, 16.399
703.318, 67.158
704.616, 46.933
705.913, 40.304
707.211, 53.430
708.508, 183.155
709.805, 140.783
711.102, 179.959
712.399, 237.989
713.695, 92.684
714.992, 147.369
716.288, 25.048
717.584, 134.719
718.879, 137.384
720.175, 22.958
721.470, 194.684
722.765, 153.318
724.060, 120.924
725.355, 126.546
726.649, 8.032
727.944, 29.642
729.238, 265.247
730.532, 98.154
731.825, 284.393
733.119, 217.934
734.412, 144.471
735.705, 27.954
736.998, 89.439
738.291, 108.896
739.584, 180.414
740.876, 251.929
742.168, 206.438
743.460, 191.867
744.752, 126.056
746.043, 174.555
747.334, 153.213
748.626, 163.550
749.916, 133.961
751.207, 266.647
752.498, 184.955
753.788, 337.190
755.078, 187.678
756.368, 341.914
757.658, 293.121
758.947, 280.538
760.237, 398.537
761.526, 214.440
762.815, 280.945
764.104, 272.453
765.392, 357.822
766.680, 342.106
767.969, 367.607
769.257, 458.903
770.544, 364.289
771.832, 423.979
773.119, 369.522
774.406, 435.616
775.693, 611.061
776.980, 360.517
778.267, 659.677
779.553, 580.183
780.839, 704.765
782.125, 620.128
783.411, 796.717
784.697, 751.630
785.982, 719.231
787.267, 969.494
788.552, 1025.944
789.837, 983.557
791.122, 1174.340
792.406, 1231.972
793.690, 1442.727
794.974, 1517.396
796.258, 1754.418
797.542, 2147.991
798.825, 2158.689
800.108, 2871.398
801.391, 3070.768
802.674, 3696.301
803.957, 4297.789
805.239, 5032.529
806.522, 6369.393
807.804, 7563.946
809.085, 10000.571
810.367, 12994.265
811.649, 16880.916
812.930, 22279.734
814.211, 28565.344
815.492, 34659.953
816.772, 39880.789
818.053, 42326.461
819.333, 40856.312
820.613, 35810.957
821.893, 29968.822
823.173, 23455.980
824.452, 18132.732
825.732, 14669.062
827.011, 11220.970
828.290, 9037.890
829.568, 7420.685
830.847, 6166.623
832.125, 5379.553
833.403, 4379.719
834.681, 3805.623
835.959, 3312.166
837.236, 2972.180
838.514, 2665.218
839.791, 2778.265
841.068, 2706.359
842.345, 2878.463
843.621, 3585.602
844.898, 4007.724
846.174, 4903.880
847.450, 6303.073
848.726, 7028.279
850.001, 7747.420
851.277, 8176.034
852.552, 6629.188
853.827, 5420.433
855.102, 4103.691
856.376, 3320.880
857.651, 2726.160
858.925, 2410.463
860.199, 1844.275
861.473, 1403.600
862.746, 1384.934
864.020, 1318.281
865.293, 809.641
866.566, 1009.011
867.839, 899.394
869.112, 735.788
870.384, 697.193
871.656, 691.643
872.928, 576.104
874.200, 652.480
875.472, 570.965
876.744, 432.462
878.015, 387.973
879.286, 475.495
880.557, 543.031
881.828, 504.580
883.098, 507.140
884.369, 393.226
885.639, 570.811
886.909, 420.410
888.178, 420.020
889.448, 315.645
890.717, 664.283
891.987, 589.934
893.256, 740.598
894.524, 868.275
895.793, 927.966
897.061, 1252.671
898.330, 1539.392
899.598, 1318.125
900.865, 1351.870
902.133, 1079.631
903.401, 688.405
904.668, 636.197
905.935, 611.007
907.202, 292.832
908.468, 395.672
909.735, 377.525
911.001, 333.395
912.267, 202.277
913.533, 160.176
914.799, 298.092
916.064, 191.020
917.330, 340.962
918.595, 134.920
919.860, 38.892
921.124, 247.877
922.389, 148.876
923.653, 313.891
924.918, 191.923
926.182, 276.987
927.445, 103.052
928.709, 271.130
929.972, 104.243
931.236, 247.371
932.499, 260.540
933.761, 391.722
935.024, 86.918
936.286, 257.130
937.549, 562.356
938.811, 376.597
940.073, 695.876
941.334, 769.174
942.596, 992.485
943.857, 1626.819
945.118, 2213.166
946.379, 2391.968
947.640, 2658.367
948.900, 2641.782
950.161, 1874.388
951.421, 1414.828
952.681, 1088.285
953.940, 923.776
955.200, 523.278
956.459, 279.800
957.719, 360.332
958.978, 288.884
960.236, 220.599
961.495, 135.183
962.753, 60.878
964.012, 109.487
965.270, 3.894
966.527, 94.760
967.785, 119.427
969.043, 53.104
970.300, 138.797
971.557, 118.500
972.814, 20.181
974.071, 124.872
975.327, 201.587
976.583, 8.319
977.840, 113.078
979.095, 10.863
980.351, 76.657
981.607, 187.468
982.862, 50.236
984.117, 62.931
985.372, 275.910
986.627, 59.235
987.882, 149.321
989.136, 7.527
990.390, 81.398
991.644, 245.395
992.898, 21.302
994.152, 46.763
995.405, 225.688
996.659, 60.647
997.912, 175.125
999.165, 80.101
1000.417, 167.086
1001.670, 68.870
1002.922, 314.161
1004.174, 125.200
1005.426, 508.585
1006.678, 303.650
1007.930, 434.713
1009.181, 445.103
1010.432, 382.181
1011.683, 424.489
1012.934, 243.385
1014.185, 342.499
1015.435, 301.620
1016.685, 171.750
1017.935, 164.886
1019.185, 284.038
1020.435, 175.188
1021.684, 237.602
1022.934, 332.765
1024.183, 334.934
1025.432, 178.134
1026.680, 279.331
1027.929, 256.826
1029.177, 330.025
1030.425, 173.230
1031.673, 461.441
1032.921, 298.742
1034.169, 110.964
1035.416, 259.216
1036.663, 467.473
1037.911, 310.733
1039.157, 271.031
1040.404, 265.338
1041.650, 244.112
1042.897, 587.032
1044.143, 372.419
1045.389, 363.811
1046.634, 559.207
1047.880, 281.607
1049.125, 255.012
1050.371, 177.422
1051.615, 483.835
1052.860, 163.253
1054.105, 356.673
1055.349, 181.098
1056.593, 220.527
1057.837, 100.960
1059.081, 319.395
1060.325, 176.833
1061.568, 273.274
1062.812, 132.721
1064.055, 132.168
1065.298, 114.618
1066.540, 111.072
1067.783, 78.528
1069.025, 15.986
1070.267, 297.448
1071.509, 8.912
1072.751, 178.391
1073.993, 226.859
1075.234, 4.331
1076.475, 188.623
1077.716, 213.097
1078.957, 157.215
1080.198, 100.689
1081.438, 119.068
1082.679, 76.826
1083.919, 155.399
1085.159, 69.881
1086.398, 151.362
1087.638, 188.920
1088.877, 123.701
1090.116, 30.186
1091.355, 36.669
1092.594, 166.299
1093.833, 29.782
1095.071, 87.543
1096.309, 41.893
1097.547, 173.326
1098.785, 34.239
1100.023, 53.174
1101.260, 113.285
1102.498, 168.009
1103.735, 22.418
1104.972, 114.679
1106.208, 86.086
1107.445, 155.131
1108.681, 30.466
1109.918, 190.917
1111.154, 11.703
1112.389, 166.664
1113.625, 112.028
1114.860, 52.346
1116.096, 153.706
1117.331, 161.063
1118.566, 190.620
1119.800, 88.973
1121.035, 207.320
1122.269, 120.666
1123.503, 70.009
1124.737, 130.537
1125.971, 57.875
1127.205, 172.056
1128.438, 37.462
1129.671, 115.224
1130.904, 85.203
1132.137, 214.373
1133.370, 88.954
1134.602, 62.942
1135.834, 18.347
1137.066, 44.091
1138.298, 127.345
1139.530, 135.299
1140.762, 129.447
1141.993, 76.443
1143.224, 60.612
1144.455, 62.918
1145.686, 91.037
1146.917, 86.977
1148.147, 168.054
1149.377, 65.026
1150.607, 141.603
1151.837, 122.562
1153.067, 8.518
1154.296, 36.462
1155.526, 149.399
1156.755, 23.668
1157.984, 68.251
1159.213, 104.208
1160.441, 85.259
1161.670, 194.257
1162.898, 159.312
1164.126, 98.344
1165.354, 73.211
1166.581, 46.069
1167.809, 203.922
1169.036, 100.232
1170.263, 232.543
1171.490, 70.312
1172.717, 48.074
1173.943, 50.828
1175.170, 13.576
1176.396, 89.424
1177.622, 132.152
1178.848, 163.875
1180.073, 37.803
1181.299, 155.512
1182.524, 75.209
1183.749, 128.902
1184.974, 234.586
1186.199, 221.400
1187.423, 170.719
1188.648, 153.271
1189.872, 255.924
1191.096, 88.195
1192.320, 168.916
1193.543, 297.545
1194.767, 344.162
1195.990, 118.773
1197.213, 303.375
1198.436, 132.967
1199.659, 290.551
1200.881, 190.127
1202.104, 241.691
1203.326, 229.252
1204.548, 234.799
1205.770, 264.250
1206.991, 260.873
1208.213, 229.395
1209.434, 302.908
1210.655, 129.414
1211.876, 141.912
1213.096, 159.400
1214.317, 132.883
1215.537, 331.354
1216.757, 156.834
1217.977, 219.307
1219.197, 98.770
1220.417, 196.229
1221.636, 170.682
1222.855, 22.105
1224.074, 197.531
1225.293, 43.051
1226.512, 224.320
1227.731, 238.686
1228.949, 182.041
1230.167, 48.389
1231.385, 246.725
1232.603, 199.064
1233.820, 91.395
1235.038, 5.283
1236.255, 249.010
1237.472, 184.291
1238.689, 76.559
1239.906, 241.816
1241.122, 67.061
1242.338, 133.883
1243.555, 162.111
1244.771, 136.326
1245.986, 147.354
1247.202, 22.547
1248.417, 43.729
1249.633, 276.902
1250.848, 18.066
1252.063, 157.221
1253.277, 25.363
1254.492, 121.498
1255.706, 201.465
1256.920, 209.562
1258.134, 243.926
1259.348, 221.240
1260.562, 240.680
1261.775, 130.729
1262.988, 123.768
1264.201, 63.781
1265.414, 224.783
1266.627, 239.779
1267.839, 142.783
1269.052, 142.783
1270.264, 7.777
1271.476, 191.756
1272.688, 19.273
1273.899, 97.678
1275.111, 36.619
1276.322, 56.551
1277.533, 44.531
1278.744, 8.447
1279.955, 16.361
1281.165, 182.266
1282.376, 106.467
1283.586, 53.020
1284.796, 70.912
1286.006, 41.359
1287.215, 131.402
1288.425, 119.568
1289.634, 36.268
1290.843, 96.961
1292.052, 83.957
1293.261, 67.816
1294.469, 136.486
1295.678, 143.150
1296.886, 147.820
1298.094, 152.482
1299.302, 133.434
1300.509, 136.441
1301.717, 97.084
1302.924, 87.662
1304.131, 77.453
1305.338, 53.656
1306.545, 65.273
1307.752, 49.883
1308.958, 54.475
1310.164, 92.369
1311.370, 122.668
1312.576, 173.242
1313.782, 230.820
1314.987, 254.133
1316.193, 277.100
1317.398, 360.258
1318.603, 234.793
1319.807, 222.330
1321.012, 61.570
1322.216, 162.107
1323.421, 141.641
1324.625, 37.168
1325.829, 216.609
1327.032, 93.127
1328.236, 190.641
1329.439, 115.150
1330.642, 110.344
1331.845, 4.875
1333.048, 122.559
1334.251, 263.018
1335.453, 118.559
1336.656, 69.830
1337.858, 234.219
1339.060, 212.607
1340.261, 253.996
1341.463, 228.387
1342.664, 231.779
1343.866, 216.635
1345.067, 248.570
1346.267, 192.969
1347.468, 155.371
1348.669, 200.775
1349.869, 362.186
1351.069, 334.602
1352.269, 175.021
1353.469, 380.449
1354.668, 154.885
1355.868, 254.324
1357.067, 479.777
1358.266, 123.238
1359.465, 332.711
1360.664, 508.127
1361.862, 219.627
1363.061, 309.322
1364.259, 153.508
1365.457, 291.057
1366.655, 436.627
1367.852, 283.398
1369.050, 296.051
1370.247, 406.080
1371.444, 358.824
1372.641, 245.316
1373.838, 252.811
1375.035, 321.992
1376.231, 307.148
1377.427, 338.574
1378.623, 288.896
1379.819, 343.996
1381.015, 192.842
1382.211, 323.340
1383.406, 357.387
1384.601, 209.793
1385.796, 403.428
1386.991, 308.061
1388.185, 290.645
1389.380, 306.367
1390.574, 397.289
1391.768, 158.877
1392.962, 255.471
1394.156, 175.062
1395.350, 182.641
1396.543, 345.990
1397.736, 343.551
1398.929, 357.768
1400.122, 345.070
1401.315, 442.975
1402.507, 296.828
1403.700, 485.344
1404.892, 582.816
1406.084, 447.881
1407.276, 222.135
1408.467, 450.451
1409.659, 309.066
1410.850, 472.633
1412.041, 461.320
1413.232, 310.008
1414.423, 449.701
1415.614, 318.324
1416.804, 484.688
1417.994, 304.957
1419.184, 478.668
1420.374, 380.383
1421.564, 461.184
1422.753, 367.990
1423.943, 494.648
1425.132, 366.469
1426.321, 494.986
1427.510, 430.814
1428.698, 505.182
1429.887, 478.215
1431.075, 329.307
1432.263, 400.590
1433.451, 369.000
1434.639, 483.410
1435.827, 394.818
1437.014, 355.225
1438.201, 592.631
1439.388, 718.033
1440.575, 375.432
1441.762, 542.828
1442.949, 544.219
1444.135, 526.541
1445.321, 492.852
1446.507, 593.145
1447.693, 393.439
1448.879, 427.795
1450.064, 533.139
1451.250, 394.457
1452.435, 276.746
1453.620, 733.068
1454.805, 511.414
1455.989, 455.764
1457.174, 653.113
1458.358, 408.484
1459.542, 499.852
1460.726, 517.205
1461.910, 444.555
1463.093, 581.953
1464.277, 358.398
1465.460, 582.891
1466.643, 576.432
1467.826, 409.021
1469.009, 671.609
1470.191, 357.184
1471.373, 242.756
1472.556, 591.330
1473.738, 637.893
1474.919, 268.443
1476.101, 427.977
1477.283, 529.627
1478.464, 399.887
1479.645, 405.340
1480.826, 315.842
1482.007, 338.396
1483.187, 654.006
1484.368, 320.678
1485.548, 490.424
1486.728, 351.252
1487.908, 238.164
1489.088, 321.170
1490.268, 537.281
1491.447, 276.506
1492.626, 359.855
1493.805, 238.344
1494.984, 325.982
1496.163, 354.779
1497.341, 301.748
1498.520, 465.910
1499.698, 148.291
1500.876, 438.924
1502.054, 47.174
1503.232, 209.961
1504.409, 114.354
1505.586, 46.033
1506.763, 295.037
1507.940, 195.396
1509.117, 196.152
1510.294, 175.355
1511.470, 184.057
1512.647, 181.316
1513.823, 289.775
1514.999, 320.037
1516.174, 252.102
1517.350, 9.244
1518.526, 247.811
1519.701, 293.957
1520.876, 180.195
1522.051, 237.957
1523.226, 51.072
1524.400, 0.000
##END=



