##NAMES=Montebrasite
##RRUFFID=R040060
##IDEAL CHEMISTRY=LiAlPO_4_(OH)
##LOCALITY=Oxford County, Maine, USA
##OWNER=RRUFF
##SOURCE=University of Arizona Mineral Museum
##DESCRIPTION=White massive
##STATUS=The identification of this mineral has been confirmed by X-ray diffraction and chemical analysis
##URL=rruff.info/R040060
##MEASURED CHEMISTRY=LiAl(PO_4_)((OH)_0.79_F_0.21_)
##PIN_ID=L00466
##ORIENTATION=Laser parallel to (-1 0 -1). Fiducial mark perpendicular to laser is parallel to b [0 1 0]
108.603, 0.000
109.998, 7.956
111.393, 108.281
112.787, 744.601
114.182, 1605.822
115.576, 2084.843
116.970, 2980.888
118.363, 3390.519
119.757, 2276.282
121.150, 1560.913
122.543, 1071.479
123.936, 925.210
125.328, 793.390
126.720, 951.902
128.112, 1163.000
129.504, 1742.291
130.896, 2263.131
132.287, 2763.065
133.678, 3263.854
135.069, 3525.693
136.460, 3428.599
137.850, 3331.660
139.240, 2844.727
140.630, 2237.855
142.020, 1497.330
143.410, 947.031
144.799, 586.561
146.188, 388.881
147.577, 301.390
148.965, 166.083
150.354, 109.722
151.742, 58.404
153.130, 130.224
154.517, 147.265
155.905, 229.607
157.292, 213.316
158.679, 317.625
160.066, 417.091
161.452, 511.820
162.839, 697.213
164.225, 715.863
165.611, 850.638
166.996, 860.655
168.381, 940.708
169.767, 1031.396
171.152, 1063.508
172.536, 984.786
173.921, 879.810
175.305, 752.526
176.689, 693.596
178.073, 618.899
179.456, 657.783
180.839, 709.021
182.222, 690.377
183.605, 846.040
184.988, 1019.123
186.370, 1171.644
187.752, 1241.061
189.134, 1252.767
190.516, 1320.398
191.898, 1528.978
193.279, 1487.554
194.660, 1615.169
196.041, 1582.840
197.421, 1461.575
198.801, 1323.380
200.182, 1114.258
201.561, 865.211
202.941, 592.234
204.321, 467.319
205.700, 276.459
207.079, 168.649
208.457, 6.881
209.836, 60.151
211.214, 3.547
212.592, 48.780
213.970, 3.126
215.348, 33.512
216.725, 24.859
218.102, 38.236
219.479, 23.614
220.856, 122.986
222.232, 140.354
223.608, 250.712
224.984, 200.745
226.360, 135.443
227.736, 217.899
229.111, 208.911
230.486, 167.903
231.861, 243.160
233.236, 158.931
234.610, 49.267
235.984, 127.096
237.358, 73.478
238.732, 59.849
240.105, 0.397
241.479, 32.566
242.852, 112.978
244.224, 54.499
245.597, 140.431
246.969, 32.051
248.342, 107.503
249.713, 120.345
251.085, 149.222
252.457, 93.131
253.828, 180.077
255.199, 118.061
256.570, 97.080
257.940, 137.160
259.310, 69.387
260.681, 97.786
262.050, 76.359
263.420, 42.857
264.790, 163.841
266.159, 351.630
267.528, 488.244
268.896, 713.729
270.265, 968.178
271.633, 1363.598
273.001, 1726.990
274.369, 2002.879
275.737, 2208.205
277.104, 2264.688
278.471, 2171.543
279.838, 2048.670
281.205, 1766.002
282.572, 1593.486
283.938, 1611.087
285.304, 1538.776
286.670, 1896.525
288.035, 2064.734
289.401, 2732.759
290.766, 3580.593
292.131, 4948.801
293.495, 6847.121
294.860, 8915.005
296.224, 11213.233
297.588, 12611.136
298.952, 13328.876
300.315, 12886.654
301.679, 11654.262
303.042, 10022.022
304.405, 8199.531
305.767, 6966.988
307.130, 5704.389
308.492, 5081.727
309.854, 4528.987
311.216, 4076.159
312.578, 3773.235
313.939, 3490.219
315.300, 3297.115
316.661, 3063.928
318.021, 2980.660
319.382, 3017.315
320.742, 2753.896
322.102, 2580.404
323.462, 2486.830
324.821, 2063.161
326.181, 1809.406
327.540, 1465.538
328.899, 1211.596
330.257, 1077.593
331.616, 843.532
332.974, 717.414
334.332, 449.238
335.690, 410.005
337.047, 402.702
338.405, 323.328
339.762, 317.860
341.119, 171.183
342.475, 188.296
343.832, 107.171
345.188, 164.805
346.544, 157.174
347.900, 145.325
349.255, 56.300
350.610, 53.161
351.965, 73.980
353.320, 46.206
354.675, 37.812
356.029, 6.906
357.384, 34.411
358.738, 51.334
360.091, 21.925
361.445, 96.148
362.798, 14.749
364.151, 10.179
365.504, 9.492
366.857, 105.128
368.209, 128.833
369.561, 119.355
370.913, 156.949
372.265, 178.132
373.617, 167.021
374.968, 268.246
376.319, 189.634
377.670, 237.088
379.021, 352.129
380.371, 347.013
381.721, 431.023
383.071, 404.547
384.421, 429.091
385.770, 373.377
387.120, 547.528
388.469, 440.690
389.818, 474.124
391.166, 597.019
392.515, 480.460
393.863, 493.771
395.211, 576.672
396.559, 609.700
397.906, 642.656
399.254, 625.795
400.601, 648.696
401.948, 621.062
403.294, 552.168
404.641, 784.890
405.987, 748.767
407.333, 856.744
408.679, 848.990
410.025, 978.133
411.370, 862.295
412.715, 1075.618
414.060, 1197.133
415.405, 1312.050
416.749, 1550.809
418.093, 1963.473
419.437, 2847.466
420.781, 4068.935
422.125, 5834.290
423.468, 8578.170
424.811, 11463.085
426.154, 13583.894
427.497, 13885.268
428.839, 12206.915
430.182, 9418.544
431.524, 6690.142
432.866, 4671.714
434.207, 3273.261
435.549, 2314.793
436.890, 1626.288
438.231, 1247.744
439.572, 999.158
440.912, 760.527
442.252, 741.850
443.593, 633.141
444.932, 584.384
446.272, 415.578
447.611, 376.729
448.951, 267.830
450.290, 318.876
451.628, 469.868
452.967, 280.810
454.305, 251.694
455.644, 352.521
456.981, 263.295
458.319, 334.010
459.657, 364.669
460.994, 345.271
462.331, 535.818
463.668, 326.311
465.004, 456.744
466.341, 467.122
467.677, 507.446
469.013, 707.712
470.348, 787.924
471.684, 1098.080
473.019, 1008.179
474.354, 1388.224
475.689, 1638.214
477.024, 1988.148
478.358, 2338.027
479.692, 2517.852
481.026, 2767.622
482.360, 3027.338
483.694, 3106.998
485.027, 3126.605
486.360, 2946.157
487.693, 3025.655
489.026, 2825.100
490.358, 2644.491
491.691, 2813.829
493.023, 2623.112
494.354, 2612.342
495.686, 2341.519
497.017, 2310.641
498.349, 2099.709
499.680, 1818.497
501.010, 1697.201
502.341, 1495.229
503.671, 1243.267
505.001, 1210.694
506.331, 928.518
507.661, 766.244
508.990, 613.814
510.319, 580.284
511.648, 576.631
512.977, 373.307
514.306, 304.428
515.634, 230.199
516.962, 163.816
518.290, 85.507
519.618, 111.539
520.945, 186.463
522.273, 16.095
523.600, 36.939
524.927, 38.943
526.253, 55.782
527.580, 42.726
528.906, 59.800
530.232, 62.745
531.558, 35.599
532.883, 57.828
534.208, 49.381
535.534, 18.628
536.858, 91.641
538.183, 78.971
539.508, 12.982
540.832, 34.654
542.156, 88.274
543.480, 16.154
544.803, 45.401
546.127, 67.203
547.450, 275.196
548.773, 188.285
550.096, 326.331
551.418, 184.540
552.741, 203.966
554.063, 283.312
555.385, 210.963
556.706, 91.094
558.028, 108.600
559.349, 87.023
560.670, 174.705
561.991, 164.041
563.312, 52.921
564.632, 180.903
565.952, 78.508
567.272, 137.339
568.592, 105.512
569.911, 152.899
571.231, 149.734
572.550, 156.574
573.869, 173.598
575.187, 330.748
576.506, 319.202
577.824, 306.833
579.142, 309.856
580.460, 426.957
581.778, 322.510
583.095, 465.514
584.412, 392.443
585.729, 560.794
587.046, 557.544
588.363, 596.225
589.679, 732.740
590.995, 900.279
592.311, 1166.928
593.627, 1197.258
594.942, 1413.538
596.258, 2089.384
597.573, 2485.338
598.888, 3041.570
600.202, 3527.450
601.517, 3667.201
602.831, 3613.441
604.145, 3069.201
605.459, 2536.362
606.772, 2212.381
608.086, 1967.716
609.399, 1643.330
610.712, 1358.843
612.024, 1304.010
613.337, 1308.670
614.649, 1213.817
615.961, 1288.282
617.273, 1303.067
618.585, 1367.964
619.896, 1682.464
621.208, 2037.023
622.519, 2231.335
623.829, 2925.791
625.140, 3310.191
626.450, 4084.537
627.761, 4638.829
629.071, 4813.066
630.380, 5047.246
631.690, 4831.373
632.999, 4485.444
634.308, 4319.461
635.617, 4123.424
636.926, 4557.332
638.235, 5351.186
639.543, 6564.984
640.851, 8728.729
642.159, 11322.420
643.466, 14336.057
644.774, 17019.643
646.081, 17543.168
647.388, 16556.641
648.695, 13680.062
650.002, 10883.430
651.308, 8286.746
652.614, 6180.002
653.920, 4793.209
655.226, 3526.362
656.531, 2769.461
657.837, 2202.507
659.142, 1795.502
660.447, 1568.446
661.752, 1231.342
663.056, 964.189
664.360, 806.988
665.664, 769.738
666.968, 812.440
668.272, 575.099
669.575, 557.715
670.879, 500.254
672.182, 402.507
673.484, 344.413
674.787, 406.024
676.089, 357.303
677.392, 378.652
678.694, 160.284
679.995, 279.951
681.297, 400.820
682.598, 179.265
683.899, 220.139
685.200, 220.857
686.501, 101.894
687.802, 208.608
689.102, 87.240
690.402, 154.395
691.702, 35.086
693.002, 204.017
694.301, 21.508
695.600, 79.591
696.899, 138.782
698.198, 58.014
699.497, 112.301
700.795, 11.926
702.093, 33.937
703.391, 86.085
704.689, 51.002
705.987, 73.611
707.284, 54.458
708.581, 13.946
709.878, 14.307
711.175, 106.398
712.472, 1.224
713.768, 120.732
715.064, 45.090
716.360, 84.443
717.656, 14.123
718.951, 23.679
720.247, 52.532
721.542, 72.023
722.837, 20.972
724.131, 40.357
725.426, 79.333
726.720, 178.450
728.014, 112.498
729.308, 128.931
730.601, 98.659
731.895, 31.806
733.188, 61.211
734.481, 49.498
735.774, 99.680
737.067, 90.874
738.359, 48.930
739.651, 120.283
740.943, 32.574
742.235, 141.661
743.526, 20.695
744.818, 171.323
746.109, 50.229
747.400, 109.072
748.691, 12.137
749.981, 166.566
751.271, 255.215
752.562, 213.820
753.851, 132.371
755.141, 200.871
756.431, 10.680
757.720, 89.811
759.009, 188.123
760.298, 36.387
761.587, 94.588
762.875, 142.736
764.163, 110.836
765.451, 168.887
766.739, 146.891
768.027, 226.754
769.314, 194.664
770.601, 252.529
771.888, 230.352
773.175, 218.129
774.462, 355.863
775.748, 383.555
777.034, 271.203
778.320, 369.947
779.606, 337.514
780.892, 425.037
782.177, 392.520
783.462, 429.963
784.747, 567.363
786.032, 764.725
787.317, 862.047
788.601, 969.326
789.885, 1206.568
791.169, 1323.770
792.453, 1380.930
793.736, 1818.053
795.019, 1975.139
796.303, 2192.184
797.585, 2239.193
798.868, 2426.164
800.151, 2503.098
801.433, 2669.992
802.715, 2436.854
803.997, 2343.674
805.279, 2210.461
806.560, 2157.209
807.841, 2113.922
809.122, 1870.598
810.403, 1717.240
811.684, 1613.846
812.964, 1390.418
814.245, 1266.955
815.525, 1153.459
816.804, 1119.928
818.084, 976.365
819.363, 962.768
820.643, 739.137
821.922, 725.473
823.201, 651.773
824.479, 558.045
825.758, 354.285
827.036, 500.494
828.314, 286.531
829.592, 332.682
830.869, 358.727
832.147, 264.826
833.424, 170.000
834.701, 125.664
835.977, 111.693
837.254, 266.916
838.530, 152.291
839.807, 87.650
841.082, 122.461
842.358, 57.760
843.634, 62.480
844.909, 147.562
846.184, 228.256
847.459, 143.529
848.734, 15.250
850.008, 159.955
851.283, 35.043
852.557, 114.229
853.831, 149.051
855.105, 57.479
856.378, 63.100
857.651, 22.316
858.925, 62.916
860.197, 81.438
861.470, 144.443
862.743, 28.346
864.015, 18.861
865.287, 74.455
866.559, 57.379
867.831, 78.234
869.102, 465.141
870.373, 139.186
871.645, 111.508
872.915, 94.223
874.186, 67.766
875.457, 241.654
876.727, 4.268
877.997, 97.514
879.267, 101.492
880.536, 15.992
881.806, 49.541
883.075, 15.291
884.344, 71.209
885.613, 161.545
886.882, 105.098
888.150, 13.227
889.419, 117.256
890.687, 67.199
891.954, 10.852
893.222, 75.061
894.490, 97.535
895.757, 71.672
897.024, 46.188
898.291, 58.049
899.557, 161.197
900.824, 95.176
902.090, 165.412
903.356, 199.633
904.622, 4.232
905.888, 68.656
907.153, 122.746
908.418, 147.125
909.683, 62.424
910.948, 41.465
912.213, 165.779
913.477, 48.629
914.741, 122.566
916.005, 106.709
917.269, 20.727
918.533, 164.996
919.796, 60.818
921.060, 63.686
922.323, 58.062
923.585, 102.693
924.848, 17.240
926.111, 21.744
927.373, 166.508
928.635, 301.277
929.897, 43.961
931.158, 100.797
932.420, 75.559
933.681, 160.324
934.942, 235.090
936.203, 159.855
937.463, 284.641
938.724, 119.428
939.984, 164.219
941.244, 89.014
942.504, 243.814
943.764, 358.619
945.023, 133.432
946.282, 258.248
947.541, 173.070
948.800, 457.896
950.059, 302.732
951.317, 327.574
952.575, 182.424
953.833, 377.281
955.091, 442.150
956.349, 407.023
957.606, 621.906
958.864, 496.801
960.121, 781.701
961.377, 886.613
962.634, 1451.533
963.891, 2036.467
965.147, 2321.408
966.403, 2456.361
967.659, 1771.328
968.914, 1526.307
970.170, 1261.297
971.425, 1026.320
972.680, 1011.354
973.935, 986.404
975.190, 1111.465
976.444, 1076.541
977.698, 1191.629
978.952, 1136.732
980.206, 1571.854
981.460, 1396.986
982.713, 1582.135
983.967, 1567.301
985.220, 1572.486
986.473, 2037.578
987.725, 1982.641
988.978, 2367.881
990.230, 2543.141
991.482, 2798.223
992.734, 3193.486
993.986, 3468.512
995.237, 3993.590
996.488, 4530.512
997.739, 5185.949
998.990, 6061.406
1000.241, 6856.309
1001.492, 8051.828
1002.742, 9454.195
1003.992, 11109.789
1005.242, 13055.404
1006.492, 14966.766
1007.741, 16972.355
1008.990, 19165.967
1010.239, 20578.016
1011.488, 21463.809
1012.737, 21190.336
1013.986, 19976.035
1015.234, 18570.289
1016.482, 16021.480
1017.730, 13987.445
1018.978, 12038.602
1020.225, 10184.621
1021.473, 8810.676
1022.720, 7766.781
1023.967, 6902.910
1025.213, 6419.078
1026.460, 5785.273
1027.706, 5641.293
1028.953, 5447.549
1030.198, 5313.828
1031.444, 5450.135
1032.690, 5783.984
1033.935, 6209.574
1035.180, 6902.377
1036.425, 7468.832
1037.670, 8345.316
1038.915, 9361.855
1040.159, 10778.418
1041.403, 12522.115
1042.647, 14038.801
1043.891, 15452.336
1045.135, 16439.084
1046.378, 16795.859
1047.621, 16681.010
1048.864, 15687.844
1050.107, 14874.719
1051.350, 14421.629
1052.592, 14218.582
1053.835, 14665.562
1055.077, 15492.574
1056.318, 16789.615
1057.560, 18286.689
1058.802, 19103.793
1060.043, 19388.820
1061.284, 18506.008
1062.525, 16413.217
1063.765, 14330.475
1065.006, 11997.762
1066.246, 9715.082
1067.486, 8132.436
1068.726, 6379.826
1069.966, 5325.334
1071.205, 4572.789
1072.445, 3770.273
1073.684, 3367.793
1074.923, 2865.344
1076.161, 2342.930
1077.400, 2290.547
1078.638, 1948.197
1079.876, 1834.773
1081.114, 1792.492
1082.352, 1500.240
1083.590, 1518.023
1084.827, 1335.842
1086.064, 1296.164
1087.301, 1394.035
1088.538, 961.943
1089.775, 1139.885
1091.011, 957.861
1092.247, 975.873
1093.483, 1073.914
1094.719, 1101.990
1095.955, 950.102
1097.190, 1048.248
1098.425, 1026.432
1099.660, 1414.648
1100.895, 1222.902
1102.130, 1441.553
1103.364, 2029.877
1104.598, 2208.240
1105.833, 2816.639
1107.066, 3185.078
1108.300, 3273.555
1109.534, 3552.068
1110.767, 3460.621
1112.000, 3159.217
1113.233, 3157.850
1114.466, 2526.521
1115.698, 2415.680
1116.930, 2494.436
1118.163, 1963.230
1119.394, 2126.445
1120.626, 1685.326
1121.858, 1644.248
1123.089, 1623.215
1124.320, 1382.225
1125.551, 1351.279
1126.782, 1210.377
1128.013, 679.520
1129.243, 968.707
1130.473, 937.939
1131.703, 717.297
1132.933, 606.586
1134.163, 425.924
1135.392, 455.307
1136.621, 434.740
1137.850, 144.223
1139.079, 339.674
1140.308, 169.250
1141.536, 168.877
1142.765, 388.553
1143.993, 81.717
1145.221, 328.223
1146.448, 78.043
1147.676, 167.812
1148.903, 87.734
1150.130, 187.609
1151.357, 137.547
1152.584, 187.535
1153.810, 137.570
1155.037, 237.678
1156.263, 227.838
1157.489, 42.148
1158.715, 78.166
1159.940, 68.268
1161.166, 118.436
1162.391, 149.039
1163.616, 89.277
1164.841, 159.564
1166.065, 200.096
1167.290, 180.445
1168.514, 211.443
1169.738, 1.830
1170.962, 312.217
1172.185, 343.896
1173.409, 54.135
1174.632, 452.918
1175.855, 392.227
1177.078, 321.588
1178.301, 481.029
1179.523, 530.566
1180.746, 720.152
1181.968, 769.809
1183.190, 759.549
1184.412, 1269.355
1185.633, 1269.238
1186.855, 1179.172
1188.076, 1609.162
1189.297, 1509.209
1190.518, 1489.309
1191.738, 1579.486
1192.959, 1399.721
1194.179, 1580.012
1195.399, 1360.357
1196.619, 1120.781
1197.838, 1141.260
1199.058, 991.799
1200.277, 1062.393
1201.496, 1043.059
1202.715, 543.781
1203.934, 964.551
1205.152, 735.361
1206.371, 496.230
1207.589, 717.160
1208.807, 178.148
1210.024, 419.197
1211.242, 340.303
1212.459, 291.463
1213.677, 362.684
1214.894, 383.963
1216.110, 135.303
1217.327, 516.701
1218.543, 8.158
1219.760, 199.670
1220.976, 421.186
1222.192, 22.760
1223.407, 224.389
1224.623, 306.078
1225.838, 2.182
1227.053, 209.617
1228.268, 41.471
1229.483, 293.383
1230.697, 115.268
1231.912, 82.795
1233.126, 256.641
1234.340, 338.643
1235.554, 70.695
1236.767, 242.795
1237.981, 94.943
1239.194, 116.119
1240.407, 148.352
1241.620, 140.629
1242.832, 282.949
1244.045, 245.322
1245.257, 77.711
1246.469, 270.158
1247.681, 17.338
1248.893, 15.266
1250.104, 187.969
1251.315, 150.770
1252.527, 363.668
1253.738, 206.664
1254.948, 219.758
1256.159, 322.947
1257.369, 266.240
1258.579, 189.629
1259.789, 343.119
1260.999, 13.291
1262.209, 320.398
1263.418, 374.191
1264.628, 91.916
1265.837, 322.082
1267.046, 126.186
1268.254, 170.396
1269.463, 354.717
1270.671, 129.148
1271.879, 333.693
1273.087, 458.260
1274.295, 153.039
1275.502, 397.941
1276.710, 4.699
1277.917, 119.709
1279.124, 154.852
1280.331, 30.176
1281.537, 165.646
1282.744, 311.279
1283.950, 84.381
1285.156, 191.543
1286.362, 87.635
1287.568, 113.904
1288.773, 340.350
1289.978, 46.980
1291.184, 211.541
1292.389, 295.195
1293.593, 61.211
1294.798, 287.311
1296.002, 213.484
1297.206, 129.727
1298.410, 465.486
1299.614, 222.293
1300.818, 219.154
1302.021, 477.232
1303.225, 40.602
1304.428, 313.320
1305.631, 233.598
1306.833, 25.592
1308.036, 297.695
1309.238, 248.594
1310.440, 67.676
1311.642, 467.418
1312.844, 21.145
1314.045, 314.488
1315.247, 478.971
1316.448, 0.891
1317.649, 380.541
1318.850, 0.000
##END=



