##NAMES=Montebrasite
##RRUFFID=R060890
##IDEAL CHEMISTRY=LiAlPO_4_(OH)
##LOCALITY=Mount Marie, Paris, Maine, USA
##OWNER=RRUFF
##SOURCE=Bob Jenkins
##DESCRIPTION=Colorless massive
##STATUS=The identification of this mineral is confirmed by single-crystal X-ray diffraction and chemical analysis.
##URL=rruff.info/R060890
##MEASURED CHEMISTRY=Li_1.00_Al_1.00_(P_1.00_O_4_)(OH)_0.63_F_0.37_)_Î£=1_ ; Li not measured but estimated by stoichiometry
##PIN_ID=M01503
##ORIENTATION=Laser parallel to (-1 0 -1). Fiducial mark perpendicular to laser is parallel to b [0 1 0]
90.67800, 0.0000000E+00
91.91600, 241.2505
93.15500, 256.5674
94.39300, 151.9248
95.63100, 143.7354
96.86900, 35.89795
98.10600, 35.68799
99.34400, 2.5878999E-02
100.5810, 20.49854
101.8190, 29.49463
103.0560, 84.60693
104.2930, 158.5659
105.5290, 304.1357
106.7660, 474.5576
108.0020, 651.7319
109.2390, 523.5889
110.4750, 384.0684
111.7110, 401.1133
112.9460, 345.6699
114.1820, 412.6909
115.4170, 439.2505
116.6530, 470.5303
117.8880, 572.4023
119.1230, 565.9712
120.3580, 663.8301
121.5920, 694.9585
122.8270, 943.3369
124.0610, 866.9531
125.2950, 915.8213
126.5290, 797.9526
127.7630, 899.3359
128.9970, 1125.943
130.2300, 1079.749
131.4640, 1113.733
132.6970, 952.8794
133.9300, 861.1729
135.1630, 694.6045
136.3950, 544.1631
137.6280, 634.8408
138.8600, 528.4277
140.0920, 504.2798
141.3240, 366.2334
142.5560, 325.2842
143.7880, 332.4268
145.0190, 327.6562
146.2510, 317.9697
147.4820, 364.3628
148.7130, 355.8325
149.9440, 394.3750
151.1750, 391.9878
152.4050, 425.8770
153.6360, 537.4111
154.8660, 498.2163
156.0960, 648.1094
157.3260, 704.2446
158.5560, 756.6855
159.7850, 812.3540
161.0150, 731.3330
162.2440, 765.4517
163.4730, 775.5732
164.7020, 805.6802
165.9310, 725.7407
167.1590, 608.7642
168.3880, 624.7588
169.6160, 425.7241
170.8440, 440.6685
172.0720, 395.6035
173.3000, 183.5342
174.5280, 158.4644
175.7550, 145.3979
176.9820, 138.3374
178.2100, 69.28516
179.4370, 107.2417
180.6630, 49.20996
181.8900, 6.190430
183.1170, 42.18457
184.3430, 68.19434
185.5690, 38.78076
186.7950, 148.2603
188.0210, 107.3179
189.2470, 52.39062
190.4720, 173.4810
191.6970, 139.5869
192.9230, 156.7109
194.1480, 190.8506
195.3730, 158.0073
196.5970, 182.1807
197.8220, 285.3706
199.0460, 295.5771
200.2700, 402.7998
201.4940, 454.0391
202.7180, 270.2935
203.9420, 222.5635
205.1660, 215.8486
206.3890, 100.1489
207.6120, 182.4634
208.8350, 308.7925
210.0580, 238.1357
211.2810, 307.4927
212.5040, 311.8574
213.7260, 236.2354
214.9480, 285.6274
216.1700, 313.0322
217.3920, 205.4502
218.6140, 392.8813
219.8360, 382.3247
221.0570, 406.4814
222.2790, 408.0654
223.5000, 406.0781
224.7210, 436.2964
225.9410, 435.9829
227.1620, 484.0186
228.3820, 371.0620
229.6030, 247.0596
230.8230, 355.2231
232.0430, 362.8066
233.2630, 382.4199
234.4820, 320.4912
235.7020, 342.5732
236.9210, 208.6641
238.1400, 173.4731
239.3590, 204.4468
240.5780, 202.5229
241.7970, 171.6978
243.0150, 189.8765
244.2340, 109.1660
245.4520, 132.5566
246.6700, 148.9819
247.8880, 106.8071
249.1060, 193.4419
250.3230, 226.1455
251.5400, 223.9165
252.7580, 294.7520
253.9750, 351.6597
255.1920, 396.6411
256.4080, 525.6699
257.6250, 604.7598
258.8410, 762.8940
260.0580, 948.0674
261.2740, 1140.278
262.4900, 1378.466
263.7050, 1587.813
264.9210, 1885.132
266.1360, 2161.482
267.3520, 2402.868
268.5670, 2799.280
269.7820, 2928.718
270.9960, 3257.202
272.2110, 3308.708
273.4250, 3355.247
274.6400, 3512.808
275.8540, 3251.388
277.0680, 3154.992
278.2810, 3016.613
279.4950, 2738.252
280.7090, 2671.908
281.9220, 2600.582
283.1350, 2520.271
284.3480, 2583.975
285.5610, 2708.685
286.7730, 2981.409
287.9860, 3342.146
289.1980, 3873.898
290.4100, 4613.661
291.6220, 5402.437
292.8340, 6517.227
294.0460, 7769.026
295.2570, 9102.837
296.4690, 10629.66
297.6800, 12427.49
298.8910, 14106.33
300.1020, 15697.19
301.3120, 16575.05
302.5230, 16507.92
303.7330, 15271.81
304.9440, 13321.69
306.1540, 11202.59
307.3630, 9385.486
308.5730, 7781.386
309.7830, 6460.292
310.9920, 5509.202
312.2010, 4793.113
313.4100, 4158.031
314.6190, 3807.952
315.8280, 3369.877
317.0370, 3013.807
318.2450, 2638.742
319.4530, 2346.681
320.6610, 2021.674
321.8690, 1696.574
323.0770, 1469.527
324.2850, 1282.485
325.4920, 1093.447
326.6990, 881.4146
327.9060, 793.3857
329.1130, 722.3613
330.3200, 537.3418
331.5270, 517.7319
332.7330, 428.7910
333.9390, 493.7119
335.1450, 329.7085
336.3510, 326.7080
337.5570, 297.7114
338.7630, 285.7188
339.9680, 299.7300
341.1740, 260.6987
342.3790, 238.5747
343.5840, 195.7842
344.7890, 158.8091
345.9930, 102.8369
347.1980, 51.86768
348.4020, 42.09863
349.6060, 16.92676
350.8100, 45.04443
352.0140, 34.02539
353.2180, 5.986328
354.4210, 83.99902
355.6250, 68.99512
356.8280, 132.0083
358.0310, 67.04492
359.2340, 15.90283
360.4360, 3.146973
361.6390, 64.19678
362.8410, 39.26367
364.0430, 63.33936
365.2450, 47.43115
366.4470, 70.54688
367.6490, 83.70459
368.8510, 52.90918
370.0520, 9.834961
371.2530, 36.43945
372.4540, 18.25586
373.6550, 2.077148
374.8560, 88.55371
376.0560, 114.1479
377.2570, 55.73291
378.4570, 110.3184
379.6570, 103.9067
380.8570, 67.49805
382.0570, 183.0928
383.2560, 84.69678
384.4560, 178.3091
385.6550, 102.9292
386.8540, 158.5576
388.0530, 296.1929
389.2520, 261.8345
390.4510, 181.4834
391.6490, 147.1382
392.8470, 313.8013
394.0450, 422.5034
395.2430, 347.1914
396.4410, 325.0474
397.6390, 331.9590
398.8360, 347.9790
400.0340, 380.6519
401.2310, 447.0088
402.4280, 487.2490
403.6250, 556.9424
404.8210, 450.6382
406.0180, 455.4253
407.2140, 814.3550
408.4100, 641.0396
409.6060, 740.7769
410.8020, 675.7822
411.9980, 782.4824
413.1930, 1002.182
414.3890, 1184.651
415.5840, 1621.352
416.7790, 1988.901
417.9740, 2500.985
419.1680, 3088.685
420.3630, 3667.910
421.5570, 4197.692
422.7510, 5053.413
423.9450, 5853.385
425.1390, 6515.181
426.3330, 6649.899
427.5270, 5817.615
428.7200, 4902.335
429.9130, 3647.051
431.1060, 2644.773
432.2990, 2082.495
433.4920, 1514.215
434.6840, 1212.951
435.8770, 1178.691
437.0690, 860.4326
438.2610, 833.1709
439.4530, 766.9233
440.6450, 640.6738
441.8360, 650.4258
443.0280, 625.1772
444.2190, 652.9248
445.4100, 653.6733
446.6010, 649.3540
447.7920, 669.1724
448.9820, 673.9204
450.1730, 671.6660
451.3630, 739.4102
452.5530, 859.1602
453.7430, 907.9082
454.9330, 833.6562
456.1230, 1075.426
457.3120, 1035.193
458.5010, 1075.957
459.6910, 1292.720
460.8800, 1372.487
462.0680, 1613.251
463.2570, 1652.021
464.4460, 1870.808
465.6340, 2292.594
466.8220, 2561.379
468.0100, 2946.174
469.1980, 3266.974
470.3860, 3806.769
471.5730, 4241.561
472.7600, 4880.349
473.9480, 5542.130
475.1350, 6149.916
476.3210, 7073.698
477.5080, 7694.494
478.6950, 8416.290
479.8810, 8705.079
481.0670, 9277.864
482.2530, 9373.644
483.4390, 9603.419
484.6250, 9631.194
485.8100, 9356.969
486.9960, 8984.734
488.1810, 8690.501
489.3660, 8408.266
490.5510, 7953.038
491.7360, 7649.406
492.9200, 7120.176
494.1050, 6848.338
495.2890, 6317.083
496.4730, 5887.797
497.6570, 5586.505
498.8400, 4898.254
500.0240, 4607.890
501.2070, 4054.572
502.3910, 3627.327
503.5740, 3232.581
504.7570, 2929.381
505.9400, 2570.392
507.1220, 2236.456
508.3050, 1946.211
509.4870, 1688.141
510.6690, 1467.934
511.8510, 1248.278
513.0330, 1128.954
514.2140, 935.2539
515.3960, 755.9448
516.5770, 697.0977
517.7580, 609.7773
518.9390, 494.4512
520.1200, 450.3120
521.3010, 328.7817
522.4810, 342.4380
523.6610, 262.0879
524.8420, 226.7319
526.0220, 234.3691
527.2010, 214.0005
528.3810, 161.1055
529.5610, 88.24170
530.7400, 80.85205
531.9190, 74.45557
533.0980, 109.0522
534.2770, 57.64111
535.4560, 50.22217
536.6340, 9.205078
537.8120, 11.64990
538.9910, 60.11475
540.1690, 75.62305
541.3460, 36.81152
542.5240, 50.76221
543.7020, 0.3764650
544.8790, 135.9946
546.0560, 86.35742
547.2330, 9.289063
548.4100, 20.04443
549.5870, 0.3666990
550.7630, 14.67432
551.9400, 15.03027
553.1160, 83.24072
554.2920, 107.5029
555.4680, 67.24414
556.6440, 81.11670
557.8190, 20.57520
558.9950, 11.17871
560.1700, 134.3354
561.3450, 3.561523
562.5200, 66.54102
563.6950, 83.89307
564.8690, 30.00195
566.0440, 64.33594
567.2180, 142.8052
568.3920, 181.4595
569.5660, 224.9355
570.7400, 236.3657
571.9130, 96.22461
573.0870, 147.5259
574.2600, 215.9194
575.4330, 149.1489
576.6060, 212.9917
577.7790, 232.6958
578.9520, 151.8965
580.1240, 220.5420
581.2960, 270.1562
582.4690, 261.1763
583.6410, 335.7266
584.8120, 290.6567
585.9840, 307.5879
587.1560, 422.4883
588.3270, 369.6191
589.4980, 406.8442
590.6690, 379.1821
591.8400, 513.6797
593.0110, 554.7095
594.1810, 581.2710
595.3510, 606.8892
596.5220, 682.8569
597.6920, 644.9932
598.8610, 859.1895
600.0310, 994.9585
601.2010, 1049.651
602.3700, 1053.798
603.5390, 1092.859
604.7080, 1177.651
605.8770, 1151.530
607.0460, 1043.125
608.2140, 1216.201
609.3830, 1220.190
610.5510, 1166.999
611.7190, 1266.111
612.8870, 1284.909
614.0550, 1335.723
615.2220, 1553.720
616.3900, 1665.968
617.5570, 1804.010
618.7240, 1996.867
619.8910, 2284.586
621.0580, 2331.309
622.2240, 2691.081
623.3910, 2903.197
624.5570, 3387.350
625.7230, 3809.935
626.8890, 4258.028
628.0550, 4830.242
629.2200, 5573.937
630.3860, 6486.422
631.5510, 7355.762
632.7160, 8476.319
633.8810, 9922.188
635.0460, 11815.85
636.2100, 14235.63
637.3750, 17253.40
638.5390, 21693.72
639.7030, 26275.37
640.8670, 32023.76
642.0310, 37915.62
643.1950, 44629.17
644.3580, 50423.70
645.5210, 53988.10
646.6850, 54005.45
647.8480, 48982.85
649.0100, 41296.20
650.1730, 32584.54
651.3350, 25349.88
652.4980, 19454.21
653.6600, 14890.52
654.8220, 11754.82
655.9840, 9190.093
657.1450, 7540.349
658.3070, 6187.583
659.4680, 5206.793
660.6300, 4453.979
661.7910, 3763.144
662.9510, 3244.288
664.1120, 2875.408
665.2730, 2385.505
666.4330, 2197.578
667.5930, 1836.627
668.7530, 1666.652
669.9130, 1462.655
671.0730, 1420.632
672.2320, 1199.586
673.3920, 1122.516
674.5510, 1015.422
675.7100, 878.2705
676.8690, 803.1133
678.0280, 657.7676
679.1860, 729.3462
680.3450, 730.9189
681.5030, 639.5718
682.6610, 496.6416
683.8190, 422.8071
684.9770, 422.4966
686.1340, 414.1621
687.2920, 354.7139
688.4490, 345.1006
689.6060, 379.1411
690.7630, 329.4116
691.9200, 254.4819
693.0760, 261.0054
694.2330, 191.5039
695.3890, 125.1006
696.5450, 135.5503
697.7010, 58.39062
698.8570, 240.4355
700.0130, 141.8076
701.1680, 62.37109
702.3230, 104.8413
703.4780, 161.0889
704.6330, 103.0610
705.7880, 79.18066
706.9430, 58.35107
708.0970, 75.49219
709.2520, 80.02686
710.4060, 2.473633
711.5600, 96.00244
712.7140, 84.63477
713.8670, 34.37402
715.0210, 3.556641
716.1740, 50.49268
717.3270, 109.3516
718.4800, 25.81592
719.6330, 53.95947
720.7860, 28.70459
721.9380, 56.41602
723.0910, 178.3062
724.2430, 38.61230
725.3950, 39.23633
726.5470, 28.99658
727.6980, 93.55127
728.8500, 81.26660
730.0010, 64.76416
731.1530, 3.231445
732.3040, 56.65381
733.4550, 52.45996
734.6050, 60.18066
735.7560, 93.91064
736.9060, 86.79736
738.0560, 42.02148
739.2060, 9.213867
740.3560, 85.36328
741.5060, 1.483398
742.6560, 42.44238
743.8050, 32.14844
744.9540, 44.11865
746.1030, 15.94336
747.2520, 0.9394530
748.4010, 121.8555
749.5500, 72.63525
750.6980, 116.4170
751.8460, 107.1719
752.9950, 21.90088
754.1420, 55.83789
755.2900, 29.83789
756.4380, 33.77979
757.5850, 131.1484
758.7330, 130.4062
759.8800, 114.7314
761.0270, 73.21094
762.1730, 26.66016
763.3200, 142.0684
764.4670, 74.29004
765.6130, 29.55664
766.7590, 113.8682
767.9050, 13.07812
769.0510, 25.14551
770.1960, 141.3955
771.3420, 39.54980
772.4870, 107.6660
773.6320, 93.70410
774.7770, 92.05664
775.9220, 57.08789
777.0670, 103.6094
778.2110, 185.5791
779.3560, 35.47656
780.5000, 115.3965
781.6440, 46.04004
782.7880, 146.8770
783.9320, 183.9844
785.0750, 142.3799
786.2180, 304.1172
787.3620, 222.8252
788.5050, 246.5068
789.6480, 184.1650
790.7900, 282.7979
791.9330, 330.4053
793.0750, 336.9873
794.2170, 358.5449
795.3590, 322.0859
796.5010, 243.5947
797.6430, 377.0781
798.7850, 489.5381
799.9260, 431.5879
801.0670, 537.9990
802.2080, 465.3867
803.3490, 621.7520
804.4900, 680.0918
805.6310, 534.4102
806.7710, 490.7041
807.9110, 737.9746
809.0510, 500.2227
810.1910, 621.4482
811.3310, 561.6504
812.4710, 431.8311
813.6100, 580.9883
814.7490, 620.1289
815.8880, 505.2549
817.0270, 456.3770
818.1660, 490.5000
819.3050, 420.6025
820.4430, 397.6992
821.5820, 410.7783
822.7200, 316.8359
823.8580, 400.8730
824.9950, 369.8955
826.1330, 424.8975
827.2710, 209.8818
828.4080, 331.8486
829.5450, 389.8027
830.6820, 304.7197
831.8190, 21.65137
832.9560, 284.4023
834.0920, 38.17773
835.2280, 62.46777
836.3650, 178.3252
837.5010, 145.0850
838.6360, 69.05957
839.7720, 144.6328
840.9080, 156.4209
842.0430, 112.9551
843.1780, 51.32422
844.3130, 56.37988
845.4480, 19.56348
846.5830, 20.11133
847.7170, 15.97461
848.8520, 20.63379
849.9860, 35.62500
851.1200, 31.02148
852.2540, 22.77734
853.3870, 63.47559
854.5210, 54.98730
855.6540, 95.85938
856.7880, 82.73633
857.9210, 65.18066
859.0540, 22.93066
860.1860, 78.45996
861.3190, 114.9600
862.4510, 8.615234
863.5840, 117.5488
864.7160, 26.40723
865.8480, 114.4873
866.9790, 46.19629
868.1110, 104.3496
869.2420, 1.946289
870.3740, 121.4590
871.5050, 8.403320
872.6360, 24.46094
873.7660, 101.3877
874.8970, 21.64062
876.0280, 32.94531
877.1580, 28.77344
878.2880, 25.84180
879.4180, 8.203125
880.5480, 36.81836
881.6770, 93.10254
882.8070, 43.88086
883.9360, 21.27539
885.0650, 19.28125
886.1940, 56.38281
887.3230, 15.33887
888.4520, 18.25488
889.5800, 27.03223
890.7090, 90.59961
891.8370, 81.80469
892.9650, 78.70215
894.0930, 59.42188
895.2200, 20.61914
896.3480, 55.11035
897.4750, 63.47266
898.6020, 6.777344
899.7290, 101.3691
900.8560, 67.06738
901.9830, 11.08008
903.1090, 45.27441
904.2360, 48.45020
905.3620, 73.49316
906.4880, 112.2188
907.6140, 81.60059
908.7400, 29.82520
909.8650, 11.37402
910.9900, 33.06934
912.1160, 45.04102
913.2410, 79.49707
914.3660, 21.30371
915.4900, 62.64551
916.6150, 29.71582
917.7390, 60.08496
918.8640, 15.33203
919.9880, 26.07422
921.1120, 3.247070
922.2350, 48.00391
923.3590, 78.80664
924.4820, 102.6152
925.6060, 166.4307
926.7290, 119.2520
927.8520, 132.0791
928.9740, 96.91211
930.0970, 2.752930
931.2190, 120.5996
932.3420, 217.4541
933.4640, 82.31641
934.5860, 29.81445
935.7080, 130.0576
936.8290, 118.9375
937.9510, 57.82617
939.0720, 122.7227
940.1930, 266.6299
941.3140, 212.5459
942.4350, 274.4414
943.5560, 279.7373
944.6760, 270.3535
945.7960, 268.3096
946.9170, 237.2764
948.0370, 249.2549
949.1560, 262.2734
950.2760, 249.2451
951.3960, 307.2568
952.5150, 304.2822
953.6340, 314.3174
954.7530, 323.3662
955.8720, 252.4258
956.9910, 314.5898
958.1090, 322.3457
959.2280, 419.6865
960.3460, 451.7998
961.4640, 561.9258
962.5820, 608.7266
963.6990, 695.2266
964.8170, 700.4014
965.9340, 815.5996
967.0510, 822.9209
968.1690, 772.1660
969.2850, 853.9043
970.4020, 876.4434
971.5190, 920.7617
972.6350, 999.0947
973.7510, 1034.471
974.8670, 1137.880
975.9830, 1343.305
977.0990, 1499.750
978.2150, 1740.214
979.3300, 1791.697
980.4450, 1824.800
981.5600, 2163.998
982.6750, 2311.100
983.7900, 2503.094
984.9050, 2948.724
986.0190, 3165.391
987.1340, 3522.061
988.2480, 4010.801
989.3620, 4618.574
990.4750, 5237.015
991.5890, 5884.244
992.7020, 6803.133
993.8160, 7824.836
994.9290, 8885.117
996.0420, 10383.09
997.1550, 11305.95
998.2670, 12879.00
999.3800, 14457.91
1000.492, 16509.05
1001.604, 18278.22
1002.716, 20453.42
1003.828, 22397.23
1004.940, 24894.51
1006.051, 26828.04
1007.163, 28683.76
1008.274, 30715.16
1009.385, 31325.58
1010.496, 31659.04
1011.606, 31246.52
1012.717, 29975.03
1013.827, 28537.02
1014.937, 26583.61
1016.047, 24480.22
1017.157, 22089.88
1018.267, 19518.50
1019.377, 17759.25
1020.486, 15775.01
1021.595, 14347.79
1022.704, 13022.59
1023.813, 12038.18
1024.922, 11229.38
1026.030, 10622.27
1027.139, 10271.41
1028.247, 9995.653
1029.355, 10381.83
1030.463, 10429.86
1031.571, 11197.92
1032.678, 11521.01
1033.786, 12416.30
1034.893, 13614.54
1036.000, 14621.73
1037.107, 15643.18
1038.214, 16749.45
1039.321, 17691.68
1040.427, 18842.02
1041.533, 19502.40
1042.639, 20297.87
1043.745, 20806.03
1044.851, 21100.51
1045.957, 21197.87
1047.062, 20893.05
1048.168, 20764.63
1049.273, 20214.26
1050.378, 19582.14
1051.482, 19030.82
1052.587, 18366.22
1053.692, 17967.36
1054.796, 17671.15
1055.900, 17335.98
1057.004, 16823.84
1058.108, 17206.73
1059.212, 16956.65
1060.315, 16613.60
1061.418, 16550.58
1062.522, 15740.59
1063.625, 14836.63
1064.728, 13379.70
1065.830, 11834.81
1066.933, 10612.94
1068.035, 9088.499
1069.137, 7912.698
1070.239, 6691.929
1071.341, 5794.189
1072.443, 5216.486
1073.545, 4520.814
1074.646, 4095.176
1075.747, 3566.578
1076.848, 3337.011
1077.949, 3005.476
1079.050, 2587.974
1080.150, 2472.504
1081.251, 2264.063
1082.351, 2022.655
1083.451, 1931.285
1084.551, 1708.946
1085.651, 1533.640
1086.750, 1515.363
1087.850, 1419.118
1088.949, 1086.904
1090.048, 1122.722
1091.147, 995.5693
1092.246, 1046.449
1093.345, 893.3711
1094.443, 800.3252
1095.541, 898.3496
1096.639, 865.3652
1097.737, 722.4053
1098.835, 588.4854
1099.933, 771.1270
1101.030, 682.2734
1102.128, 524.3867
1103.225, 644.6074
1104.322, 649.8662
1105.419, 649.1543
1106.515, 731.8818
1107.612, 760.2324
1108.708, 903.8477
1109.804, 909.2578
1110.900, 858.6963
1111.996, 779.8682
1113.092, 1014.731
1114.187, 1052.275
1115.283, 1136.482
1116.378, 1052.102
1117.473, 1006.750
1118.568, 1149.949
1119.662, 1142.654
1120.757, 1065.893
1121.851, 948.0859
1122.946, 1038.634
1124.040, 950.1436
1125.134, 883.9844
1126.227, 904.8945
1127.321, 1034.229
1128.414, 821.7539
1129.508, 892.7725
1130.601, 803.3916
1131.693, 681.1475
1132.786, 880.1738
1133.879, 694.3350
1134.971, 488.5205
1136.064, 569.1484
1137.156, 693.4082
1138.248, 394.6943
1139.339, 529.4824
1140.431, 510.8271
1141.522, 428.1953
1142.614, 362.5859
1143.705, 340.9980
1144.796, 317.4326
1145.887, 206.8926
1146.977, 195.3760
1148.068, 172.8818
1149.158, 175.4102
1150.248, 224.9648
1151.338, 119.5449
1152.428, 37.14551
1153.518, 71.76660
1154.607, 142.4111
1155.696, 93.08105
1156.785, 176.7920
1157.874, 210.5420
1158.963, 236.3281
1160.052, 266.3721
1161.141, 210.0010
1162.229, 243.8682
1163.317, 182.7568
1164.405, 74.66504
1165.493, 231.6123
1166.581, 232.5938
1167.668, 248.8018
1168.756, 427.8281
1169.843, 269.8711
1170.930, 333.9473
1172.017, 291.8594
1173.103, 355.9697
1174.190, 335.1035
1175.276, 481.2549
1176.363, 508.4229
1177.449, 504.6719
1178.535, 542.2588
1179.620, 588.2588
1180.706, 559.0391
1181.791, 704.2998
1182.877, 707.5840
1183.962, 767.8867
1185.047, 913.2061
1186.131, 968.5400
1187.216, 851.4482
1188.300, 972.8232
1189.385, 1038.571
1190.469, 1051.682
1191.553, 854.4854
1192.637, 928.8936
1193.720, 894.4854
1194.804, 855.6094
1195.887, 968.2871
1196.970, 801.7461
1198.053, 912.0371
1199.136, 911.8438
1200.219, 962.2422
1201.301, 903.1328
1202.383, 1015.106
1203.465, 891.6484
1204.547, 980.2021
1205.629, 1042.366
1206.711, 856.4023
1207.792, 610.5264
1208.874, 595.5215
1209.955, 686.1279
1211.036, 705.7432
1212.117, 803.3691
1213.198, 431.6055
1214.278, 305.2490
1215.359, 307.9004
1216.439, 412.5605
1217.519, 240.2305
1218.599, 306.9082
1219.678, 100.5908
1220.758, 168.2832
1221.837, 166.9834
1222.917, 94.18848
1223.996, 36.26758
1225.075, 32.01172
1226.153, 8.704102
1227.232, 51.32520
1228.310, 18.87012
1229.389, 79.07031
1230.467, 68.56934
1231.545, 47.29883
1232.622, 90.34375
1233.700, 19.54004
1234.777, 32.19727
1235.855, 72.22852
1236.932, 69.40918
1238.009, 5.955078
1239.086, 21.68164
1240.162, 93.32031
1241.239, 91.03711
1242.315, 67.16895
1243.391, 104.5918
1244.467, 12.79004
1245.543, 84.57520
1246.619, 45.14551
1247.694, 99.21289
1248.769, 27.31055
1249.844, 46.04590
1250.919, 5.544922
1251.994, 99.53613
1253.069, 10.09180
1254.144, 12.34473
1255.218, 64.32812
1256.292, 37.23535
1257.366, 120.8242
1258.440, 100.5215
1259.514, 72.13672
1260.587, 39.83691
1261.661, 25.94824
1262.734, 59.72070
1263.807, 67.96875
1264.880, 92.55762
1265.952, 83.03418
1267.025, 61.21875
1268.097, 27.48730
1269.170, 69.66699
1270.242, 141.8184
