##NAMES=Monticellite
##RRUFFID=R040115
##IDEAL CHEMISTRY=CaMgSiO_4_
##LOCALITY=Magnet Cove, Arkansas, USA
##OWNER=RRUFF
##SOURCE=University of Arizona Mineral Museum
##DESCRIPTION=Brown blebs in matrix
##STATUS=The identification of this mineral has been confirmed by X-ray diffraction and chemical analysis
##URL=rruff.info/R040115
##MEASURED CHEMISTRY=Ca_0.99_(Mg_0.85_ Fe_0.12_Mn_0.03_)Si_1.00_O_4_
##PIN_ID=M00492
##ORIENTATION=Laser parallel to b* (0 1 0). Fiducial mark perpendicular to laser is parallel to -c [0 0 -1]
107.995, 0.000
109.387, 75.622
110.777, 0.538
112.168, 55.420
113.559, 4.963
114.949, 88.337
116.339, 106.202
117.729, 142.129
119.119, 118.795
120.508, 52.584
121.897, 23.036
123.286, 54.373
124.675, 56.584
126.063, 22.814
127.452, 30.083
128.840, 61.212
130.228, 43.625
131.615, 75.425
133.003, 80.873
134.390, 48.708
135.777, 63.178
137.164, 92.267
138.550, 131.163
139.937, 124.799
141.323, 117.212
142.709, 29.427
144.094, 38.710
145.480, 11.935
146.865, 29.470
148.250, 8.981
149.635, 39.250
151.019, 3.908
152.403, 2.162
153.788, 21.199
155.171, 42.980
156.555, 55.690
157.939, 49.320
159.322, 92.190
160.705, 118.280
162.088, 214.035
163.470, 272.412
164.853, 401.047
166.235, 566.773
167.617, 783.915
168.998, 908.824
170.380, 978.725
171.761, 832.668
173.142, 605.658
174.523, 424.627
175.904, 239.593
177.284, 181.509
178.664, 95.353
180.044, 80.126
181.424, 58.829
182.803, 53.464
184.183, 47.035
185.562, 11.542
186.940, 48.986
188.319, 27.373
189.698, 105.710
191.076, 34.047
192.454, 20.391
193.831, 87.823
195.209, 94.718
196.586, 140.731
197.963, 83.878
199.340, 77.054
200.717, 100.154
202.093, 161.144
203.470, 140.621
204.846, 209.937
206.221, 196.255
207.597, 233.559
208.972, 158.846
210.347, 77.413
211.722, 33.631
213.097, 56.068
214.472, 8.810
215.846, 5.582
217.220, 42.167
218.594, 14.706
219.967, 39.605
221.341, 35.738
222.714, 54.266
224.087, 22.158
225.460, 29.750
226.832, 89.735
228.204, 107.394
229.577, 122.908
230.948, 155.291
232.320, 129.865
233.692, 159.074
235.063, 190.656
236.434, 237.230
237.805, 282.785
239.175, 353.245
240.545, 417.922
241.916, 500.128
243.286, 500.738
244.655, 624.305
246.025, 849.578
247.394, 1148.680
248.763, 1569.754
250.132, 2172.777
251.501, 3276.777
252.869, 4662.754
254.237, 6256.708
255.605, 7431.642
256.973, 7428.550
258.340, 6140.436
259.708, 4371.297
261.075, 2964.135
262.442, 2000.949
263.808, 1449.739
265.175, 1025.505
266.541, 763.248
267.907, 577.201
269.273, 434.219
270.639, 369.204
272.004, 285.010
273.369, 246.820
274.734, 241.237
276.099, 187.056
277.463, 115.438
278.828, 167.032
280.192, 112.327
281.556, 71.854
282.919, 91.388
284.283, 78.317
285.646, 93.223
287.009, 60.379
288.372, 72.827
289.734, 75.304
291.097, 82.378
292.459, 73.534
293.821, 74.902
295.183, 93.844
296.544, 122.208
297.905, 120.600
299.266, 165.799
300.627, 182.539
301.988, 297.934
303.348, 364.134
304.709, 378.802
306.069, 352.746
307.428, 267.453
308.788, 174.998
310.147, 154.925
311.507, 98.124
312.865, 61.542
314.224, 75.882
315.583, 0.016
316.941, 66.527
318.299, 34.263
319.657, 19.809
321.015, 58.474
322.372, 57.365
323.729, 57.911
325.086, 40.449
326.443, 34.880
327.800, 9.053
329.156, 70.499
330.512, 39.615
331.868, 6.478
333.224, 92.874
334.579, 78.954
335.935, 51.034
337.290, 69.904
338.645, 60.837
339.999, 61.348
341.354, 14.754
342.708, 45.756
344.062, 8.468
345.416, 36.095
346.769, 19.612
348.123, 4.276
349.476, 7.462
350.829, 5.104
352.182, 50.165
353.534, 87.745
354.887, 51.046
356.239, 7.219
357.591, 6.739
358.942, 12.295
360.294, 67.773
361.645, 10.801
362.996, 47.562
364.347, 66.988
365.698, 40.396
367.048, 84.782
368.398, 36.165
369.748, 24.528
371.098, 67.867
372.448, 44.190
373.797, 7.391
375.146, 42.355
376.495, 39.399
377.844, 117.309
379.192, 108.397
380.540, 139.173
381.889, 122.604
383.236, 141.423
384.584, 146.451
385.932, 136.275
387.279, 199.854
388.626, 244.465
389.973, 334.342
391.319, 397.263
392.666, 449.178
394.012, 585.062
395.358, 658.924
396.704, 597.771
398.049, 748.587
399.394, 857.371
400.740, 808.133
402.084, 907.872
403.429, 830.587
404.774, 886.277
406.118, 901.943
407.462, 1008.591
408.806, 888.221
410.150, 886.833
411.493, 758.429
412.836, 644.007
414.179, 599.569
415.522, 431.113
416.865, 415.640
418.207, 301.151
419.549, 228.645
420.891, 173.123
422.233, 148.583
423.575, 149.027
424.916, 81.454
426.257, 143.863
427.598, 59.256
428.939, 81.631
430.279, 112.988
431.619, 6.326
432.959, 0.358
434.299, 80.927
435.639, 97.185
436.978, 9.419
438.318, 86.624
439.657, 31.760
440.996, 93.913
442.334, 44.981
443.673, 39.852
445.011, 8.776
446.349, 8.275
447.687, 82.475
449.024, 34.177
450.361, 28.901
451.699, 74.607
453.036, 54.317
454.372, 27.963
455.709, 82.585
457.045, 21.262
458.381, 23.972
459.717, 29.733
461.053, 1.471
462.388, 12.176
463.724, 21.854
465.059, 95.504
466.394, 39.132
467.728, 53.735
469.063, 91.315
470.397, 17.873
471.731, 12.596
473.065, 125.721
474.398, 51.864
475.732, 101.244
477.065, 17.571
478.398, 21.179
479.731, 43.334
481.063, 34.446
482.396, 15.427
483.728, 45.871
485.060, 42.793
486.391, 0.455
487.723, 104.210
489.054, 21.293
490.385, 68.475
491.716, 111.079
493.047, 29.602
494.377, 59.112
495.708, 54.905
497.038, 99.660
498.368, 78.372
499.697, 15.810
501.027, 4.772
502.356, 59.942
503.685, 94.771
505.014, 137.504
506.342, 120.940
507.671, 74.569
508.999, 111.364
510.327, 139.729
511.655, 174.080
512.982, 147.415
514.310, 147.499
515.637, 128.664
516.964, 168.832
518.291, 227.742
519.617, 264.705
520.944, 383.054
522.270, 453.793
523.596, 574.952
524.921, 787.647
526.247, 1042.708
527.572, 1502.368
528.897, 1950.875
530.222, 2414.704
531.547, 2702.796
532.871, 2596.793
534.196, 2097.277
535.520, 2111.223
536.844, 1810.125
538.167, 1107.450
539.491, 836.886
540.814, 691.300
542.137, 857.640
543.460, 649.042
544.783, 548.447
546.105, 449.818
547.427, 471.191
548.749, 372.549
550.071, 412.892
551.393, 404.024
552.714, 451.332
554.035, 445.623
555.356, 465.306
556.677, 501.564
557.998, 485.805
559.318, 499.030
560.638, 607.238
561.958, 616.431
563.278, 719.599
564.597, 760.768
565.917, 906.912
567.236, 994.041
568.555, 1070.155
569.874, 1100.252
571.192, 1382.335
572.511, 1533.402
573.829, 1769.454
575.147, 1993.490
576.464, 2287.512
577.782, 2556.519
579.099, 2842.510
580.416, 3237.487
581.733, 3667.448
583.050, 4098.396
584.366, 4249.101
585.683, 4377.946
586.999, 4382.605
588.315, 4189.272
589.630, 3933.056
590.946, 3468.966
592.261, 3007.602
593.576, 2498.214
594.891, 2123.600
596.206, 1744.812
597.520, 1391.412
598.834, 1178.653
600.148, 892.261
601.462, 714.598
602.776, 651.882
604.089, 518.729
605.402, 439.555
606.715, 409.064
608.028, 430.265
609.341, 362.392
610.653, 310.842
611.965, 288.186
613.277, 256.277
614.589, 183.734
615.901, 150.727
617.212, 180.652
618.523, 149.735
619.834, 202.239
621.145, 166.045
622.456, 212.008
623.766, 140.463
625.076, 201.605
626.386, 108.862
627.696, 163.279
629.006, 55.148
630.315, 125.709
631.624, 71.231
632.933, 14.448
634.242, 37.874
635.551, 42.278
636.859, 9.548
638.167, 10.379
639.475, 54.585
640.783, 11.734
642.090, 47.305
643.398, 75.318
644.705, 60.376
646.012, 86.636
647.318, 5.515
648.625, 70.661
649.931, 22.014
651.237, 18.104
652.543, 51.016
653.849, 10.891
655.155, 121.381
656.460, 5.436
657.765, 5.861
659.070, 84.209
660.375, 17.204
661.679, 36.836
662.984, 5.170
664.288, 20.604
665.592, 17.417
666.895, 3.402
668.199, 4.806
669.502, 42.015
670.805, 71.777
672.108, 28.612
673.411, 53.464
674.713, 19.344
676.016, 1.234
677.318, 17.877
678.620, 7.989
679.921, 22.107
681.223, 23.775
682.524, 21.340
683.825, 73.545
685.126, 8.467
686.427, 37.616
687.727, 16.298
689.028, 66.779
690.328, 20.859
691.628, 101.943
692.927, 52.028
694.227, 33.116
695.526, 41.795
696.825, 145.275
698.124, 19.345
699.423, 96.417
700.721, 124.490
702.020, 87.563
703.318, 10.638
704.616, 23.713
705.913, 29.790
707.211, 20.132
708.508, 141.940
709.805, 33.015
711.102, 68.909
712.399, 161.139
713.695, 13.189
714.992, 112.242
716.288, 68.297
717.584, 75.355
718.879, 28.416
720.175, 28.480
721.470, 111.548
722.765, 89.618
724.060, 104.692
725.355, 68.771
726.649, 88.853
727.944, 99.939
729.238, 180.029
730.532, 164.975
731.825, 190.223
733.119, 173.326
734.412, 105.435
735.705, 103.549
736.998, 99.668
738.291, 145.792
739.584, 107.921
740.876, 211.058
742.168, 181.769
743.460, 153.349
744.752, 197.506
746.043, 221.669
747.334, 282.843
748.626, 232.029
749.916, 144.222
751.207, 247.426
752.498, 202.640
753.788, 341.862
755.078, 219.094
756.368, 325.333
757.658, 284.583
758.947, 349.842
760.237, 439.113
761.526, 386.396
762.815, 420.688
764.104, 351.990
765.392, 493.303
766.680, 483.626
767.969, 432.959
769.257, 580.304
770.544, 545.661
771.832, 585.030
773.119, 669.420
774.406, 597.822
775.693, 702.239
776.980, 588.668
778.267, 749.111
779.553, 858.564
780.839, 853.028
782.125, 828.506
783.411, 987.993
784.697, 945.495
785.982, 1029.015
787.267, 1174.547
788.552, 1271.897
789.837, 1293.458
791.122, 1469.518
792.406, 1581.791
793.690, 1807.934
794.974, 1967.556
796.258, 2205.704
797.542, 2650.366
798.825, 2718.049
800.108, 3331.750
801.391, 3738.463
802.674, 4534.277
803.957, 5155.030
805.239, 5978.793
806.522, 7532.942
807.804, 9014.746
809.085, 11640.438
810.367, 15186.291
811.649, 19684.381
812.930, 25946.480
814.211, 33785.793
815.492, 40965.332
816.772, 46705.703
818.053, 48143.543
819.333, 45123.984
820.613, 37596.984
821.893, 30733.484
823.173, 24334.428
824.452, 18910.475
825.732, 15512.973
827.011, 12391.188
828.290, 10539.933
829.568, 9202.790
830.847, 8148.656
832.125, 7690.829
833.403, 6876.096
834.681, 6615.301
835.959, 6423.310
837.236, 6483.566
838.514, 6729.525
839.791, 8016.494
841.068, 9581.852
842.345, 11759.332
843.621, 15745.733
844.898, 20419.154
846.174, 27015.586
847.450, 34948.047
848.726, 40714.516
850.001, 43618.855
851.277, 40378.359
852.552, 32621.885
853.827, 25087.434
855.102, 18375.000
856.376, 13746.582
857.651, 10708.187
858.925, 8412.810
860.199, 6605.449
861.473, 5112.344
862.746, 4438.025
864.020, 3796.721
865.293, 2834.030
866.566, 2756.767
867.839, 2235.522
869.112, 1974.299
870.384, 1843.094
871.656, 1697.909
872.928, 1559.694
874.200, 1402.598
875.472, 1354.472
876.744, 1131.366
878.015, 1011.280
879.286, 1055.214
880.557, 944.169
881.828, 948.143
883.098, 801.137
884.369, 659.151
885.639, 649.187
886.909, 471.241
888.178, 517.316
889.448, 387.411
890.717, 580.527
891.987, 369.664
893.256, 330.821
894.524, 463.998
895.793, 339.195
897.061, 387.413
898.330, 289.652
899.598, 288.911
900.865, 290.190
902.133, 348.490
903.401, 188.243
904.668, 383.585
905.935, 245.947
907.202, 102.329
908.468, 334.732
909.735, 294.155
911.001, 232.599
912.267, 182.063
913.533, 177.549
914.799, 227.055
916.064, 125.581
917.330, 303.127
918.595, 152.695
919.860, 74.283
921.124, 131.891
922.389, 146.071
923.653, 140.721
924.918, 237.391
926.182, 298.082
927.445, 226.792
928.709, 406.524
929.972, 356.279
931.236, 409.054
932.499, 480.850
933.761, 567.666
935.024, 548.502
936.286, 821.358
937.549, 1221.235
938.811, 1264.132
940.073, 2071.203
941.334, 2873.141
942.596, 4140.100
943.857, 6500.305
945.118, 9215.318
946.379, 11016.362
947.640, 12095.790
948.900, 10831.882
950.161, 8383.239
951.421, 6080.367
952.681, 4462.519
953.940, 3315.688
955.200, 2369.882
956.459, 1774.119
957.719, 1532.668
958.978, 1208.270
960.236, 1003.467
961.495, 835.794
962.753, 629.828
964.012, 466.207
965.270, 485.613
966.527, 461.951
967.785, 357.446
969.043, 372.991
970.300, 213.557
971.557, 147.147
972.814, 84.756
974.071, 116.386
975.327, 141.034
976.583, 116.701
977.840, 208.406
979.095, 156.511
980.351, 159.461
981.607, 87.255
982.862, 61.322
984.117, 7.847
985.372, 212.016
986.627, 78.105
987.882, 28.321
989.136, 34.371
990.390, 74.692
991.644, 110.404
992.898, 58.354
994.152, 86.895
995.405, 46.881
996.659, 37.885
997.912, 129.905
999.165, 180.974
1000.417, 162.057
1001.670, 92.172
1002.922, 208.300
1004.174, 143.444
1005.426, 209.604
1006.678, 48.782
1007.930, 165.975
1009.181, 34.183
1010.432, 129.406
1011.683, 3.356
1012.934, 44.899
1014.185, 99.170
1015.435, 85.454
1016.685, 128.769
1017.935, 130.142
1019.185, 46.441
1020.435, 151.799
1021.684, 41.170
1022.934, 81.554
1024.183, 99.954
1025.432, 91.366
1026.680, 144.792
1027.929, 33.231
1029.177, 131.685
1030.425, 155.151
1031.673, 220.632
1032.921, 94.137
1034.169, 91.653
1035.416, 51.184
1036.663, 22.577
1037.911, 20.282
1039.157, 26.851
1040.404, 122.432
1041.650, 162.025
1042.897, 190.632
1044.143, 182.026
1045.389, 181.181
1046.634, 119.524
1047.880, 129.179
1049.125, 128.402
1050.371, 87.088
1051.615, 178.214
1052.860, 16.084
1054.105, 196.624
1055.349, 205.344
1056.593, 96.074
1057.837, 38.816
1059.081, 94.569
1060.325, 46.334
1061.568, 138.109
1062.812, 39.896
1064.055, 105.691
1065.298, 82.499
1066.540, 113.317
1067.783, 40.146
1069.025, 57.983
1070.267, 186.832
1071.509, 15.310
1072.751, 106.553
1073.993, 196.426
1075.234, 11.309
1076.475, 80.201
1077.716, 137.179
1078.957, 50.562
1080.198, 110.482
1081.438, 86.413
1082.679, 94.353
1083.919, 51.301
1085.159, 3.258
1086.398, 86.224
1087.638, 21.198
1088.877, 23.819
1090.116, 56.161
1091.355, 89.150
1092.594, 23.852
1093.833, 20.143
1095.071, 37.145
1096.309, 44.845
1097.547, 29.152
1098.785, 22.843
1100.023, 27.157
1101.260, 41.451
1102.498, 52.466
1103.735, 45.170
1104.972, 9.145
1106.208, 19.820
1107.445, 0.209
1108.681, 83.730
1109.918, 55.266
1111.154, 25.733
1112.389, 106.250
1113.625, 67.610
1114.860, 6.864
1116.096, 65.135
1117.331, 72.969
1118.566, 119.978
1119.800, 135.991
1121.035, 77.009
1122.269, 91.031
1123.503, 104.058
1124.737, 225.087
1125.971, 106.122
1127.205, 159.159
1128.438, 49.799
1129.671, 80.482
1130.904, 43.501
1132.137, 144.488
1133.370, 125.047
1134.602, 102.044
1135.834, 47.148
1137.066, 57.179
1138.298, 70.758
1139.530, 109.484
1140.762, 159.395
1141.993, 12.724
1143.224, 38.146
1144.455, 43.244
1145.686, 39.119
1146.917, 48.744
1148.147, 135.622
1149.377, 101.420
1150.607, 92.300
1151.837, 143.183
1153.067, 38.065
1154.296, 70.776
1155.526, 114.662
1156.755, 62.549
1157.984, 161.437
1159.213, 101.326
1160.441, 45.171
1161.670, 131.062
1162.898, 201.953
1164.126, 47.931
1165.354, 94.822
1166.581, 188.714
1167.809, 239.606
1169.036, 86.500
1170.263, 104.394
1171.490, 180.286
1172.717, 281.180
1173.943, 159.071
1175.170, 143.965
1176.396, 117.858
1177.622, 261.750
1178.848, 131.643
1180.073, 94.035
1181.299, 250.926
1182.524, 184.817
1183.749, 140.708
1184.974, 144.598
1186.199, 237.487
1187.423, 158.376
1188.648, 221.263
1189.872, 155.150
1191.096, 182.036
1192.320, 174.921
1193.543, 172.806
1194.767, 248.689
1195.990, 234.571
1197.213, 252.695
1198.436, 134.333
1199.659, 241.212
1200.881, 258.657
1202.104, 214.534
1203.326, 277.410
1204.548, 270.284
1205.770, 202.158
1206.991, 271.030
1208.213, 204.901
1209.434, 223.771
1210.655, 97.641
1211.876, 122.507
1213.096, 105.374
1214.317, 78.238
1215.537, 194.103
1216.757, 148.966
1217.977, 141.827
1219.197, 162.144
1220.417, 146.012
1221.636, 75.876
1222.855, 168.742
1224.074, 45.606
1225.293, 27.468
1226.512, 185.325
1227.731, 160.182
1228.949, 118.038
1230.167, 76.893
1231.385, 68.675
1232.603, 78.257
1233.820, 69.454
1235.038, 99.309
1236.255, 143.010
1237.472, 77.862
1238.689, 166.719
1239.906, 196.361
1241.122, 65.211
1242.338, 67.061
1243.555, 182.543
1244.771, 56.387
1245.986, 154.955
1247.202, 30.770
1248.417, 239.582
1249.633, 153.382
1250.848, 65.849
1252.063, 178.873
1253.277, 144.300
1254.492, 44.701
1255.706, 222.521
1256.920, 142.234
1258.134, 11.750
1259.348, 1.058
1260.562, 52.582
1261.775, 117.385
1262.988, 57.973
1264.201, 46.649
1265.414, 54.267
1266.627, 95.843
1267.839, 126.411
1269.052, 157.978
1270.264, 106.537
1271.476, 99.095
1272.688, 116.651
1273.899, 135.207
1275.111, 2.801
1276.322, 104.744
1277.533, 83.030
1278.744, 43.429
1279.955, 59.096
1281.165, 118.618
1282.376, 170.605
1283.586, 113.969
1284.796, 172.330
1286.006, 33.840
1287.215, 164.358
1288.425, 89.310
1289.634, 4.826
1290.843, 85.341
1292.052, 118.146
1293.261, 178.333
1294.469, 8.189
1295.678, 133.284
1296.886, 89.756
1298.094, 130.226
1299.302, 7.305
1300.509, 85.159
1301.717, 162.622
1302.924, 39.084
1304.131, 189.545
1305.338, 104.005
1306.545, 82.463
1307.752, 93.919
1308.958, 5.376
1310.164, 130.829
1311.370, 179.282
1312.576, 128.732
1313.782, 133.182
1314.987, 226.628
1316.193, 31.074
1317.398, 216.519
1318.603, 213.964
1319.807, 229.408
1321.012, 96.854
1322.216, 239.298
1323.421, 115.742
1324.625, 38.813
1325.829, 192.623
1327.032, 170.061
1328.236, 216.499
1329.439, 142.941
1330.642, 83.387
1331.845, 169.833
1333.048, 146.281
1334.251, 224.734
1335.453, 89.190
1336.656, 98.649
1337.858, 147.112
1339.060, 73.579
1340.261, 156.051
1341.463, 45.526
1342.664, 126.008
1343.866, 113.494
1345.067, 143.985
1346.267, 118.484
1347.468, 140.991
1348.669, 120.505
1349.869, 142.266
1351.069, 206.554
1352.269, 170.091
1353.469, 253.639
1354.668, 239.195
1355.868, 83.762
1357.067, 313.341
1358.266, 130.932
1359.465, 308.535
1360.664, 291.151
1361.862, 168.783
1363.061, 345.050
1364.259, 191.717
1365.457, 231.401
1366.655, 300.106
1367.852, 186.832
1369.050, 188.507
1370.247, 266.808
1371.444, 185.606
1372.641, 207.437
1373.838, 237.221
1375.035, 229.003
1376.231, 196.144
1377.427, 244.969
1378.623, 289.808
1379.819, 196.757
1381.015, 166.632
1382.211, 369.517
1383.406, 204.274
1384.601, 179.947
1385.796, 324.625
1386.991, 179.315
1388.185, 224.712
1389.380, 139.523
1390.574, 178.161
1391.768, 204.798
1392.962, 128.357
1394.156, 98.674
1395.350, 105.036
1396.543, 75.777
1397.736, 125.198
1398.929, 115.775
1400.122, 147.351
1401.315, 254.494
1402.507, 212.105
1403.700, 173.486
1404.892, 285.092
1406.084, 162.759
1407.276, 212.500
1408.467, 218.987
1409.659, 107.252
1410.850, 223.782
1412.041, 299.440
1413.232, 198.056
1414.423, 206.705
1415.614, 217.357
1416.804, 292.012
1417.994, 160.555
1419.184, 312.212
1420.374, 233.873
1421.564, 391.534
1422.753, 128.199
1423.943, 397.867
1425.132, 155.538
1426.321, 288.633
1427.510, 169.267
1428.698, 214.902
1429.887, 329.540
1431.075, 260.181
1432.263, 328.824
1433.451, 242.470
1434.639, 372.116
1435.827, 388.764
1437.014, 349.414
1438.201, 382.062
1439.388, 384.715
1440.575, 346.364
1441.762, 317.014
1442.949, 340.662
1444.135, 368.308
1445.321, 369.924
1446.507, 460.534
1447.693, 350.139
1448.879, 233.741
1450.064, 361.334
1451.250, 299.913
1452.435, 315.477
1453.620, 461.022
1454.805, 452.542
1455.989, 417.060
1457.174, 519.572
1458.358, 351.185
1459.542, 373.812
1460.726, 439.631
1461.910, 339.504
1463.093, 448.385
1464.277, 292.304
1465.460, 263.317
1466.643, 319.342
1467.826, 235.479
1469.009, 359.762
1470.191, 264.092
1471.373, 270.447
1472.556, 255.833
1473.738, 394.247
1474.919, 195.690
1476.101, 291.211
1477.283, 400.815
1478.464, 182.463
1479.645, 178.156
1480.826, 283.897
1482.007, 214.691
1483.187, 341.543
1484.368, 277.456
1485.548, 333.438
1486.728, 257.494
1487.908, 234.636
1489.088, 83.869
1490.268, 100.951
1491.447, 226.669
1492.626, 120.254
1493.805, 133.963
1494.984, 218.803
1496.163, 263.777
1497.341, 110.894
1498.520, 307.150
1499.698, 109.562
1500.876, 331.144
1502.054, 81.905
1503.232, 97.863
1504.409, 36.962
1505.586, 154.453
1506.763, 114.133
1507.940, 146.106
1509.117, 151.401
1510.294, 196.050
1511.470, 73.090
1512.647, 108.576
1513.823, 164.570
1514.999, 65.405
1516.174, 141.630
1517.350, 11.721
1518.526, 168.321
1519.701, 201.674
1520.876, 79.492
1522.051, 98.972
1523.226, 0.824
1524.400, 0.000
##END=



