##NAMES=Montebrasite
##RRUFFID=R060890
##IDEAL CHEMISTRY=LiAlPO_4_(OH)
##LOCALITY=Mount Marie, Paris, Maine, USA
##OWNER=RRUFF
##SOURCE=Bob Jenkins
##DESCRIPTION=Colorless massive
##STATUS=The identification of this mineral is confirmed by single-crystal X-ray diffraction and chemical analysis.
##URL=rruff.info/R060890
##MEASURED CHEMISTRY=Li_1.00_Al_1.00_(P_1.00_O_4_)(OH)_0.63_F_0.37_)_Î£=1_ ; Li not measured but estimated by stoichiometry
##PIN_ID=M01677
##ORIENTATION=Laser parallel to b* (0 1 0). Fiducial mark perpendicular to laser is parallel to c [0 0 1]
90.67800, 0.0000000E+00
91.91600, 171.8438
93.15500, 169.3535
94.39300, 251.4131
95.63100, 148.2988
96.86900, 392.7520
98.10600, 217.1641
99.34400, 152.8301
100.5810, 216.2207
101.8190, 25.91992
103.0560, 41.91797
104.2930, 143.8779
105.5290, 232.1523
106.7660, 434.6504
108.0020, 510.1689
109.2390, 541.7207
110.4750, 702.6514
111.7110, 558.8398
112.9460, 544.9785
114.1820, 772.8340
115.4170, 1006.231
116.6530, 1249.047
117.8880, 1512.183
119.1230, 1586.566
120.3580, 1964.141
121.5920, 2242.864
122.8270, 2658.705
124.0610, 2777.635
125.2950, 2783.860
126.5290, 2856.792
127.7630, 3252.314
128.9970, 3242.228
130.2300, 3451.898
131.4640, 3221.354
132.6970, 2831.260
133.9300, 2532.672
135.1630, 2153.643
136.3950, 1833.216
137.6280, 1517.433
138.8600, 1353.328
140.0920, 1204.933
141.3240, 1064.274
142.5560, 962.3779
143.7880, 1000.266
145.0190, 1024.956
146.2510, 1179.467
147.4820, 1238.812
148.7130, 1557.005
149.9440, 1806.057
151.1750, 2295.979
152.4050, 2796.777
153.6360, 3229.467
154.8660, 3856.052
156.0960, 4312.539
157.3260, 5023.938
158.5560, 5279.517
159.7850, 5806.025
161.0150, 6443.703
162.2440, 6846.901
163.4730, 7335.389
164.7020, 7504.205
165.9310, 7440.893
167.1590, 7659.887
168.3880, 7198.491
169.6160, 7162.197
170.8440, 6736.971
172.0720, 6278.445
173.3000, 5744.010
174.5280, 5298.656
175.7550, 5085.387
176.9820, 4555.197
178.2100, 4338.088
179.4370, 3991.058
180.6630, 3801.105
181.8900, 3531.499
183.1170, 3337.429
184.3430, 3085.700
185.5690, 2895.489
186.7950, 2606.445
188.0210, 2512.912
189.2470, 2386.439
190.4720, 2177.024
191.6970, 2097.664
192.9230, 1885.356
194.1480, 1827.100
195.3730, 1560.892
196.5970, 1387.729
197.8220, 1422.614
199.0460, 1219.541
200.2700, 1101.508
201.4940, 1021.508
202.7180, 936.5322
203.9420, 745.5742
205.1660, 673.6318
206.3890, 531.7051
207.6120, 492.7939
208.8350, 466.9014
210.0580, 413.6953
211.2810, 418.1660
212.5040, 373.3252
213.7260, 404.4980
214.9480, 369.6895
216.1700, 393.8975
217.3920, 330.1230
218.6140, 314.3623
219.8360, 249.6191
221.0570, 195.8926
222.2790, 296.1807
223.5000, 225.4854
224.7210, 193.8047
225.9410, 21.14062
227.1620, 107.4912
228.3820, 37.14258
229.6030, 148.2383
230.8230, 37.63281
232.0430, 72.96094
233.2630, 93.56445
234.4820, 137.1738
235.7020, 136.8574
236.9210, 167.8799
238.1400, 170.4072
239.3590, 181.0146
240.5780, 128.6504
241.7970, 73.39551
243.0150, 142.3379
244.2340, 70.50586
245.4520, 10.42969
246.6700, 107.4658
247.8880, 44.30566
249.1060, 56.07715
250.3230, 170.9199
251.5400, 210.3330
252.7580, 301.7773
253.9750, 450.2744
255.1920, 617.2344
256.4080, 862.5078
257.6250, 1124.468
258.8410, 1454.159
260.0580, 1748.896
261.2740, 2099.664
262.4900, 2498.464
263.7050, 2696.296
264.9210, 3251.152
266.1360, 3517.034
267.3520, 3925.945
268.5670, 4124.922
269.7820, 4246.928
270.9960, 4304.961
272.2110, 4422.000
273.4250, 4504.047
274.6400, 4336.086
275.8540, 4088.104
277.0680, 4007.132
278.2810, 4015.139
279.4950, 3993.134
280.7090, 3901.113
281.9220, 4100.085
283.1350, 4130.045
284.3480, 4540.987
285.5610, 4977.922
286.7730, 5568.843
287.9860, 6687.754
289.1980, 8074.655
290.4100, 9679.547
291.6220, 11499.43
292.8340, 13436.31
294.0460, 15474.18
295.2570, 17346.04
296.4690, 18724.90
297.6800, 19657.75
298.8910, 20624.60
300.1020, 21229.45
301.3120, 21614.28
302.5230, 21096.12
303.7330, 19684.95
304.9440, 17982.77
306.1540, 15866.54
307.3630, 13589.32
308.5730, 11643.96
309.7830, 10081.44
310.9920, 8614.707
312.2010, 7687.798
313.4100, 6656.764
314.6190, 6002.684
315.8280, 5074.516
317.0370, 4565.359
318.2450, 3981.216
319.4530, 3440.086
320.6610, 3075.969
321.8690, 2550.864
323.0770, 2394.771
324.2850, 1981.688
325.4920, 1784.618
326.6990, 1621.557
327.9060, 1467.507
329.1130, 1151.465
330.3200, 1070.435
331.5270, 995.4111
332.7330, 1085.397
333.9390, 879.3916
335.1450, 921.3955
336.3510, 737.4062
337.5570, 556.4238
338.7630, 563.4492
339.9680, 560.4814
341.1740, 554.5195
342.3790, 556.5654
343.5840, 411.6162
344.7890, 346.6729
345.9930, 245.7344
347.1980, 369.8018
348.4020, 305.8740
349.6060, 380.9512
350.8100, 366.0342
352.0140, 354.1211
353.2180, 427.2119
354.4210, 402.3076
355.6250, 484.4072
356.8280, 301.5107
358.0310, 321.6191
359.2340, 356.9014
360.4360, 514.8457
361.6390, 516.9648
362.8410, 568.0879
364.0430, 632.6436
365.2450, 644.3408
366.4470, 698.4717
367.6490, 651.6064
368.8510, 652.7432
370.0520, 697.8809
371.2530, 696.4336
372.4540, 615.5635
373.6550, 588.8008
374.8560, 498.9482
376.0560, 581.7715
377.2570, 527.8760
378.4570, 587.7246
379.6570, 339.8730
380.8570, 312.0811
382.0570, 334.3857
383.2560, 425.6895
384.4560, 187.1602
385.6550, 263.0225
386.8540, 26.98828
388.0530, 81.92676
389.2520, 166.2705
390.4510, 47.80664
391.6490, 288.8271
392.8470, 51.26367
394.0450, 110.8467
395.2430, 52.62598
396.4410, 87.85156
397.6390, 163.0205
398.8360, 9.154297
400.0340, 187.1689
401.2310, 237.3232
402.4280, 411.5684
403.6250, 297.0654
404.8210, 300.5752
406.0180, 589.9189
407.2140, 674.6631
408.4100, 1056.864
409.6060, 1287.410
410.8020, 1612.176
411.9980, 2058.805
413.1930, 2874.092
414.3890, 4128.067
415.5840, 5675.484
416.7790, 7488.900
417.9740, 9655.260
419.1680, 11029.19
420.3630, 11723.62
421.5570, 12266.55
422.7510, 12964.87
423.9450, 13656.62
425.1390, 13580.89
426.3330, 12995.50
427.5270, 11494.70
428.7200, 9545.344
429.9130, 7439.486
431.1060, 5359.651
432.2990, 4227.707
433.4920, 3073.859
434.6840, 2506.945
435.8770, 1870.034
437.0690, 1534.990
438.2610, 1316.935
439.4530, 1273.095
440.6450, 941.0176
441.8360, 886.9316
443.0280, 924.8320
444.2190, 958.7246
445.4100, 801.6045
446.6010, 681.4707
447.7920, 704.3301
448.9820, 776.1826
450.1730, 684.0234
451.3630, 800.8506
452.5530, 673.6895
453.7430, 869.5166
454.9330, 974.3682
456.1230, 906.2100
457.3120, 919.0488
458.5010, 846.8828
459.6910, 1111.709
460.8800, 1218.535
462.0680, 1322.383
463.2570, 1433.223
464.4460, 1609.057
465.6340, 1863.885
466.8220, 2078.706
468.0100, 2279.518
469.1980, 2635.320
470.3860, 2882.115
471.5730, 3154.899
472.7600, 3672.675
473.9480, 4065.441
475.1350, 4303.227
476.3210, 4602.002
477.5080, 5004.771
478.6950, 5225.531
479.8810, 5467.280
481.0670, 5617.018
482.2530, 5698.747
483.4390, 5649.464
484.6250, 5738.170
485.8100, 5647.863
486.9960, 5388.546
488.1810, 5203.217
489.3660, 5017.877
490.5510, 4845.495
491.7360, 4594.161
492.9200, 4474.787
494.1050, 4200.396
495.2890, 3835.995
496.4730, 3494.582
497.6570, 3353.156
498.8400, 3127.715
500.0240, 2950.263
501.2070, 2634.797
502.3910, 2475.316
503.5740, 2199.823
504.7570, 2032.316
505.9400, 1859.796
507.1220, 1653.262
508.3050, 1517.083
509.4870, 1336.221
510.6690, 1186.572
511.8510, 1038.982
513.0330, 790.3760
514.2140, 695.7578
515.3960, 513.1260
516.5770, 486.4971
517.7580, 495.8535
518.9390, 312.1953
520.1200, 241.5488
521.3010, 501.9199
522.4810, 307.3184
523.6610, 300.7432
524.8420, 160.2041
526.0220, 7.700195
527.2010, 15.77441
528.3810, 40.75488
529.5610, 45.52246
530.7400, 24.00195
531.9190, 92.47266
533.0980, 105.0557
534.2770, 63.65430
535.4560, 55.67383
536.6340, 58.00781
537.8120, 9.292969
538.9910, 14.57617
540.1690, 53.83203
541.3460, 12.35352
542.5240, 25.16113
543.7020, 74.01562
544.8790, 61.72266
546.0560, 29.71680
547.2330, 26.76074
548.4100, 48.74121
549.5870, 23.89453
550.7630, 29.09668
551.9400, 48.29883
553.1160, 189.2314
554.2920, 56.13574
555.4680, 50.97559
556.6440, 138.3320
557.8190, 6.198242
558.9950, 150.1641
560.1700, 41.89746
561.3450, 89.37598
562.5200, 40.94043
563.6950, 7.641602
564.8690, 61.76074
566.0440, 6.510742
567.2180, 77.57422
568.3920, 182.0146
569.5660, 77.20801
570.7400, 191.6211
571.9130, 186.4990
573.0870, 209.8740
574.2600, 185.7930
575.4330, 199.7080
576.6060, 198.3682
577.7790, 332.7607
578.9520, 251.8779
580.1240, 181.9404
581.2960, 313.0068
582.4690, 297.1816
583.6410, 326.1621
584.8120, 480.2939
585.9840, 523.0488
587.1560, 640.7939
588.3270, 890.5010
589.4980, 861.3398
590.6690, 1037.014
591.8400, 1389.665
593.0110, 2017.344
594.1810, 2214.344
595.3510, 2520.568
596.5220, 2840.139
597.6920, 3205.829
598.8610, 3401.608
600.0310, 3587.184
601.2010, 3644.403
602.3700, 3602.976
603.5390, 3501.248
604.7080, 3300.166
605.8770, 2954.404
607.0460, 2687.395
608.2140, 2238.944
609.3830, 1978.463
610.5510, 1869.277
611.7190, 1781.788
612.8870, 1605.304
614.0550, 1703.559
615.2220, 1841.105
616.3900, 1644.416
617.5570, 2170.869
618.7240, 2347.324
619.8910, 2488.490
621.0580, 2770.837
622.2240, 3254.363
623.3910, 3614.525
624.5570, 4309.619
625.7230, 4553.951
626.8890, 5131.044
628.0550, 5587.121
629.2200, 6049.602
630.3860, 6358.643
631.5510, 6654.792
632.7160, 7047.797
633.8810, 7470.771
635.0460, 8168.729
636.2100, 8925.671
637.3750, 10044.61
638.5390, 11352.52
639.7030, 12779.42
640.8670, 13578.29
642.0310, 14273.13
643.1950, 15069.95
644.3580, 15118.75
645.5210, 15039.53
646.6850, 14239.28
647.8480, 13113.00
649.0100, 11262.70
650.1730, 8987.357
651.3350, 7235.990
652.4980, 5744.594
653.6600, 4704.165
654.8220, 3786.707
655.9840, 3179.219
657.1450, 2503.699
658.3070, 2251.150
659.4680, 1886.570
660.6300, 1718.958
661.7910, 1496.316
662.9510, 1398.644
664.1120, 1179.938
665.2730, 1176.061
666.4330, 1002.333
667.5930, 812.4814
668.7530, 759.9580
669.9130, 751.1494
671.0730, 718.4199
672.2320, 657.5361
673.3920, 611.7988
674.5510, 586.5977
675.7100, 650.9697
676.8690, 396.3135
678.0280, 493.1787
679.1860, 460.0654
680.3450, 337.2627
681.5030, 364.9209
682.6610, 370.7148
683.8190, 197.3818
684.9770, 346.7588
686.1340, 353.0879
687.2920, 213.5469
688.4490, 411.5674
689.6060, 302.0938
690.7630, 219.2383
691.9200, 136.1260
693.0760, 92.10156
694.2330, 72.39844
695.3890, 49.95508
696.5450, 94.03027
697.7010, 77.06445
698.8570, 111.1191
700.0130, 105.5605
701.1680, 176.4551
702.3230, 144.8193
703.4780, 24.75488
704.6330, 69.21582
705.7880, 193.1162
706.9430, 33.36914
708.0970, 154.5000
709.2520, 94.89258
710.4060, 41.73828
711.5600, 91.52637
712.7140, 36.37988
713.8670, 198.0938
715.0210, 19.83789
716.1740, 25.46777
717.3270, 122.3047
718.4800, 129.0469
719.6330, 121.5352
720.7860, 107.2129
721.9380, 148.6729
723.0910, 106.2979
724.2430, 189.8926
725.3950, 252.7285
726.5470, 45.26855
727.6980, 37.81250
728.8500, 198.2783
730.0010, 204.7168
731.1530, 37.87207
732.3040, 180.4678
733.4550, 84.14160
734.6050, 188.0732
735.7560, 40.91699
736.9060, 36.25098
738.0560, 173.3633
739.2060, 23.73633
740.3560, 67.18164
741.5060, 62.76855
742.6560, 86.68457
743.8050, 57.56934
744.9540, 72.41895
746.1030, 138.2363
747.2520, 141.1797
748.4010, 81.66406
749.5500, 129.3936
750.6980, 120.0918
751.8460, 174.7617
752.9950, 71.59473
754.1420, 151.7764
755.2900, 36.52832
756.4380, 110.1514
757.5850, 306.6748
758.7330, 154.2061
759.8800, 111.4961
761.0270, 185.8662
762.1730, 233.2090
763.3200, 142.4219
764.4670, 293.4805
765.6130, 230.3359
766.7590, 119.0645
767.9050, 259.5928
769.0510, 171.7617
770.1960, 240.2607
771.3420, 309.3730
772.4870, 312.6973
773.6320, 338.9277
774.7770, 398.0693
775.9220, 486.6816
777.0670, 488.6240
778.2110, 528.5693
779.3560, 557.4854
780.5000, 574.8867
781.6440, 624.7471
782.7880, 696.2021
783.9320, 788.3799
785.0750, 887.2861
786.2180, 1014.036
787.3620, 1155.820
788.5050, 1259.516
789.6480, 1498.183
790.7900, 1673.824
791.9330, 1823.788
793.0750, 2016.027
794.2170, 2159.595
795.3590, 2255.131
796.5010, 2449.639
797.6430, 2570.122
798.7850, 2802.645
799.9260, 2855.076
801.0670, 3000.483
802.2080, 3137.864
803.3490, 3146.340
804.4900, 3361.792
805.6310, 3263.162
806.7710, 3563.300
807.9110, 3282.595
809.0510, 3329.869
810.1910, 3252.149
811.3310, 3081.659
812.4710, 3199.949
813.6100, 3085.220
814.7490, 2986.468
815.8880, 3015.699
817.0270, 2665.914
818.1660, 2566.107
819.3050, 2506.287
820.4430, 2248.461
821.5820, 2258.419
822.7200, 2122.599
823.8580, 1958.772
824.9950, 1697.829
826.1330, 1784.997
827.2710, 1371.157
828.4080, 1431.262
829.5450, 1233.035
830.6820, 1065.685
831.8190, 889.2041
832.9560, 795.5156
834.0920, 794.2266
835.2280, 627.7930
836.3650, 668.5508
837.5010, 737.2715
838.6360, 584.3311
839.7720, 467.2461
840.9080, 488.1260
842.0430, 334.6387
843.1780, 275.7432
844.3130, 378.4541
845.4480, 222.3721
846.5830, 202.0293
847.7170, 244.1846
848.8520, 182.8008
849.9860, 154.8379
851.1200, 145.8398
852.2540, 168.4492
853.3870, 300.5078
854.5210, 221.1973
855.6540, 173.9033
856.7880, 105.4307
857.9210, 29.05273
859.0540, 117.6885
860.1860, 260.1367
861.3190, 33.07324
862.4510, 301.6729
863.5840, 48.41992
864.7160, 101.0020
865.8480, 189.7119
866.9790, 159.4121
868.1110, 114.0508
869.2420, 5.306641
870.3740, 151.3467
871.5050, 35.01660
872.6360, 26.44727
873.7660, 50.78809
874.8970, 47.70215
876.0280, 3.112305
877.1580, 163.4854
878.2880, 35.22559
879.4180, 83.23828
880.5480, 103.8984
881.6770, 41.77441
882.8070, 4.941406
883.9360, 2.336914
885.0650, 57.28320
886.1940, 101.5020
887.3230, 49.68262
888.4520, 92.09570
889.5800, 40.81641
890.7090, 6.465820
891.8370, 63.97070
892.9650, 159.3740
894.0930, 113.1045
895.2200, 28.07520
896.3480, 85.73340
897.4750, 28.87793
898.6020, 113.9375
899.7290, 97.05273
900.8560, 44.98242
901.9830, 78.93652
903.1090, 2.345703
904.2360, 65.65332
905.3620, 79.47949
906.4880, 25.48340
907.6140, 43.55273
908.7400, 61.60742
909.8650, 96.69043
910.9900, 12.81836
912.1160, 78.94922
913.2410, 88.88574
914.3660, 48.72461
915.4900, 73.43262
916.6150, 13.38086
917.7390, 45.80078
918.8640, 30.99707
919.9880, 47.79980
921.1120, 163.6016
922.2350, 0.5908200
923.3590, 78.22070
924.4820, 46.03809
925.6060, 7.863281
926.7290, 76.69336
927.8520, 22.53320
928.9740, 4.377930
930.0970, 156.2314
931.2190, 75.09375
932.3420, 112.9629
933.4640, 2.159180
934.5860, 120.7266
935.7080, 181.6221
936.8290, 140.5264
937.9510, 6.558594
939.0720, 6.636719
940.1930, 1.584961
941.3140, 60.76465
942.4350, 98.16895
943.5560, 97.11328
944.6760, 171.0693
945.7960, 13.96387
946.9170, 215.0127
948.0370, 173.0000
949.1560, 362.0000
950.2760, 403.0117
951.3960, 308.0371
952.5150, 305.0742
953.6340, 442.1270
954.7530, 358.5918
955.8720, 271.2695
956.9910, 287.3633
958.1090, 419.4707
959.2280, 291.5918
960.3460, 504.7285
961.4640, 560.8809
962.5820, 460.0469
963.6990, 673.2266
964.8170, 490.4258
965.9340, 600.6406
967.0510, 630.8750
968.1690, 621.1289
969.2850, 526.4004
970.4020, 644.6914
971.5190, 601.6660
972.6350, 848.3398
973.7510, 727.6914
974.8670, 926.0605
975.9830, 1214.453
977.0990, 1221.865
978.2150, 1348.359
979.3300, 1433.895
980.4450, 1590.475
981.5600, 1722.078
982.6750, 1901.707
983.7900, 2036.387
984.9050, 2330.598
986.0190, 2700.818
987.1340, 2991.576
988.2480, 3411.371
989.3620, 3847.203
990.4750, 4450.068
991.5890, 5125.008
992.7020, 5609.154
993.8160, 6689.182
994.9290, 7388.232
996.0420, 8458.035
997.1550, 9623.139
998.2670, 10797.25
999.3800, 11862.43
1000.492, 13196.65
1001.604, 14901.89
1002.716, 16438.18
1003.828, 17705.41
1004.940, 19360.79
1006.051, 20267.54
1007.163, 21281.79
1008.274, 21850.30
1009.385, 21946.55
1010.496, 21666.07
1011.606, 20732.71
1012.717, 19686.38
1013.827, 18921.07
1014.937, 17500.80
1016.047, 15819.55
1017.157, 14428.18
1018.267, 12898.27
1019.377, 11828.12
1020.486, 10625.99
1021.595, 9690.910
1022.704, 8810.855
1023.813, 8316.047
1024.922, 7835.855
1026.030, 7394.789
1027.139, 7350.828
1028.247, 7395.863
1029.355, 7386.160
1030.463, 7621.377
1031.571, 7730.625
1032.678, 8232.004
1033.786, 8721.547
1034.893, 9449.312
1036.000, 10032.21
1037.107, 10490.31
1038.214, 11366.78
1039.321, 11721.93
1040.427, 12411.13
1041.533, 13117.87
1042.639, 13675.24
1043.745, 14426.75
1044.851, 15163.84
1045.957, 15631.58
1047.062, 16184.33
1048.168, 16701.10
1049.273, 17910.41
1050.378, 18671.28
1051.482, 19917.24
1052.587, 21207.99
1053.692, 22988.97
1054.796, 24829.98
1055.900, 26986.97
1057.004, 29691.05
1058.108, 31500.17
1059.212, 33532.34
1060.315, 34698.52
1061.418, 34971.75
1062.522, 34226.01
1063.625, 32387.31
1064.728, 29796.65
1065.830, 26453.02
1066.933, 22907.38
1068.035, 19353.82
1069.137, 16377.31
1070.239, 13328.83
1071.341, 11273.27
1072.443, 9314.758
1073.545, 8149.342
1074.646, 6790.172
1075.747, 5666.883
1076.848, 4851.625
1077.949, 4433.406
1079.050, 3906.006
1080.150, 3360.859
1081.251, 3069.754
1082.351, 2798.682
1083.451, 2404.650
1084.551, 2369.656
1085.651, 2307.697
1086.750, 1932.777
1087.850, 2088.893
1088.949, 1803.045
1090.048, 1627.234
1091.147, 1676.463
1092.246, 1592.729
1093.345, 1747.029
1094.443, 1750.369
1095.541, 1585.742
1096.639, 1773.160
1097.737, 1763.611
1098.835, 1926.104
1099.933, 2110.629
1101.030, 2166.193
1102.128, 2266.799
1103.225, 2638.379
1104.322, 2492.338
1105.419, 3045.051
1106.515, 3170.805
1107.612, 3318.594
1108.708, 3719.420
1109.804, 3825.371
1110.900, 3871.285
1111.996, 4031.736
1113.092, 4218.707
1114.187, 4098.305
1115.283, 4338.943
1116.378, 4362.016
1117.473, 4584.115
1118.568, 4428.266
1119.662, 4437.439
1120.757, 4406.111
1121.851, 4505.160
1122.946, 4407.100
1124.040, 4224.449
1125.134, 3861.662
1126.227, 3905.078
1127.321, 3685.527
1128.414, 3612.912
1129.508, 3520.318
1130.601, 3278.598
1131.693, 3162.490
1132.786, 2789.113
1133.879, 2714.768
1134.971, 2403.461
1136.064, 2341.645
1137.156, 1905.406
1138.248, 1884.631
1139.339, 1687.621
1140.431, 1524.490
1141.522, 1076.408
1142.614, 1181.559
1143.705, 818.5586
1144.796, 959.5977
1145.887, 690.6621
1146.977, 752.7539
1148.068, 599.8750
1149.158, 478.6875
1150.248, 607.8965
1151.338, 323.1309
1152.428, 499.4277
1153.518, 434.7188
1154.607, 274.0332
1155.696, 536.3887
1156.785, 223.7695
1157.874, 306.7656
1158.963, 280.0879
1160.052, 191.9316
1161.141, 163.5332
1162.229, 159.3105
1163.317, 217.8145
1164.405, 170.6973
1165.493, 249.2266
1166.581, 244.9277
1167.668, 356.0000
1168.756, 324.8633
1169.843, 330.8125
1170.930, 348.6113
1172.017, 295.6973
1173.103, 334.6855
1174.190, 258.7109
1175.276, 260.7832
1176.363, 421.8809
1177.449, 373.0176
1178.535, 488.1797
1179.620, 385.3613
1180.706, 476.8906
1181.791, 591.1328
1182.877, 623.4043
1183.962, 579.7012
1185.047, 845.0195
1186.131, 710.3574
1187.216, 904.8242
1188.300, 923.2051
1189.385, 1023.602
1190.469, 1096.021
1191.553, 1112.459
1192.637, 1402.916
1193.720, 1199.939
1194.804, 1421.434
1195.887, 1332.945
1196.970, 1467.477
1198.053, 1411.025
1199.136, 1368.592
1200.219, 1301.779
1201.301, 1461.383
1202.383, 1454.000
1203.465, 1448.637
1204.547, 1475.293
1205.629, 1381.973
1206.711, 1214.670
1207.792, 1398.383
1208.874, 1309.109
1209.955, 1094.855
1211.036, 1217.617
1212.117, 1064.391
1213.198, 956.5586
1214.278, 937.3613
1215.359, 918.1816
1216.439, 869.0137
1217.519, 768.8594
1218.599, 761.7207
1219.678, 550.5957
1220.758, 499.4824
1221.837, 493.3828
1222.917, 343.2969
1223.996, 320.2207
1225.075, 110.1602
1226.153, 114.8340
1227.232, 177.7969
1228.310, 206.7695
1229.389, 242.7559
1230.467, 99.75000
1231.545, 25.92188
1232.622, 32.06055
1233.700, 12.04102
1234.777, 53.98047
1235.855, 98.01367
1236.932, 49.05664
1238.009, 63.34766
1239.086, 269.5918
1240.162, 3.347656
1241.239, 128.7051
1242.315, 168.1895
1243.391, 38.90625
1244.467, 110.0098
1245.543, 114.8457
1246.619, 44.29688
1247.694, 4.550781
1248.769, 14.40430
1249.844, 68.73633
1250.919, 55.88477
1251.994, 170.0547
1253.069, 190.6992
1254.144, 202.5449
1255.218, 85.11719
1256.292, 76.77930
1257.366, 15.54883
1258.440, 85.88281
1259.514, 48.25586
1260.587, 1.634766
1261.661, 70.96875
1262.734, 7.576172
1263.807, 63.39258
1264.880, 39.38477
1265.952, 39.20898
1267.025, 19.19531
1268.097, 131.6113
1269.170, 35.90430
1270.242, 73.44141
