##NAMES=Montebrasite
##RRUFFID=R040062
##IDEAL CHEMISTRY=LiAlPO_4_(OH)
##LOCALITY=Hebron, Maine, USA
##OWNER=RRUFF
##SOURCE=University of Arizona Mineral Museum
##DESCRIPTION=White massive
##STATUS=The identification of this mineral has been confirmed by X-ray diffraction and chemical analysis
##URL=rruff.info/R040062
##MEASURED CHEMISTRY=LiAl(PO_4_)((OH)_0.62_F_0.38_)
##PIN_ID=L00490
##ORIENTATION=Laser parallel to (1 0 1). Fiducial mark perpendicular to laser is parallel to b [0 1 0]
111.932, 0.000
113.329, 42.178
114.726, 116.392
116.123, 153.072
117.519, 183.521
118.915, 108.555
120.311, 321.160
121.706, 764.098
123.102, 1086.564
124.497, 1624.172
125.892, 2355.019
127.286, 3278.781
128.681, 4405.393
130.075, 5254.609
131.469, 5825.646
132.862, 6157.705
134.256, 5500.242
135.649, 4543.506
137.042, 3717.664
138.435, 2862.204
139.827, 1937.044
141.219, 1274.693
142.611, 873.600
144.003, 658.710
145.394, 353.439
146.786, 370.331
148.177, 122.662
149.567, 182.414
150.958, 76.256
152.348, 169.308
153.738, 76.698
155.128, 154.860
156.517, 109.899
157.907, 266.397
159.296, 214.519
160.685, 361.648
162.073, 515.380
163.462, 659.706
164.850, 695.459
166.237, 687.049
167.625, 748.107
169.012, 790.508
170.400, 803.719
171.786, 721.106
173.173, 697.949
174.559, 670.929
175.946, 571.997
177.332, 613.447
178.717, 517.451
180.103, 544.422
181.488, 517.147
182.873, 497.224
184.258, 481.545
185.642, 592.990
187.026, 434.705
188.410, 527.051
189.794, 489.740
191.178, 457.431
192.561, 361.119
193.944, 452.810
195.327, 238.526
196.709, 325.377
198.092, 281.389
199.474, 268.570
200.856, 331.914
202.237, 241.414
203.618, 42.068
205.000, 77.872
206.380, 79.806
207.761, 41.864
209.142, 66.035
210.522, 10.302
211.902, 63.651
213.281, 74.077
214.661, 50.567
216.040, 93.112
217.419, 106.707
218.798, 78.338
220.176, 61.549
221.554, 4.698
222.932, 13.592
224.310, 95.872
225.688, 101.153
227.065, 53.554
228.442, 62.761
229.819, 11.896
231.196, 24.483
232.572, 123.898
233.948, 54.351
235.324, 124.837
236.700, 87.358
238.075, 43.908
239.450, 15.513
240.825, 118.100
242.200, 111.763
243.574, 10.523
244.948, 168.200
246.322, 33.956
247.696, 155.731
249.070, 115.471
250.443, 4.205
251.816, 88.101
253.189, 79.912
254.561, 25.865
255.933, 61.672
257.306, 33.286
258.677, 7.800
260.049, 158.169
261.420, 115.426
262.791, 222.520
264.162, 317.454
265.533, 408.307
266.903, 602.134
268.274, 515.926
269.643, 719.697
271.013, 883.461
272.383, 857.221
273.752, 1040.978
275.121, 1194.730
276.490, 1278.479
277.858, 1395.816
279.226, 1413.987
280.595, 1642.617
281.962, 1791.565
283.330, 2030.670
284.697, 2310.149
286.064, 2849.604
287.431, 3408.943
288.798, 4228.293
290.164, 5577.637
291.530, 7246.975
292.896, 9546.557
294.262, 12356.072
295.627, 15735.847
296.993, 18805.033
298.358, 20904.049
299.722, 21403.471
301.087, 20802.504
302.451, 18901.518
303.815, 16880.430
305.179, 15159.023
306.543, 13767.494
307.906, 12755.853
309.269, 12064.089
310.632, 11182.197
311.995, 9800.170
313.357, 8718.011
314.719, 7555.725
316.081, 6643.322
317.443, 5980.812
318.804, 5628.192
320.166, 5275.475
321.527, 5132.665
322.887, 4869.736
324.248, 4426.691
325.608, 4093.525
326.968, 3760.227
328.328, 3446.824
329.688, 3003.332
331.047, 2719.748
332.406, 2426.008
333.765, 2301.979
335.124, 2157.797
336.482, 1803.481
337.840, 1768.920
339.198, 1484.101
340.556, 1469.156
341.913, 1413.961
343.271, 1308.571
344.628, 1252.975
345.984, 1227.221
347.341, 1221.357
348.697, 1175.455
350.053, 1089.499
351.409, 1203.523
352.765, 1127.537
354.120, 1041.543
355.475, 1135.542
356.830, 1159.532
358.185, 1243.515
359.539, 1157.401
360.894, 1261.765
362.248, 1425.890
363.601, 1199.731
364.955, 1394.473
366.308, 1438.926
367.661, 1541.081
369.014, 1584.423
370.367, 1647.650
371.719, 1680.714
373.071, 1753.443
374.423, 1770.338
375.775, 1790.241
377.126, 1807.449
378.478, 1770.658
379.828, 1745.859
381.179, 1669.153
382.530, 1609.653
383.880, 1522.787
385.230, 1562.404
386.580, 1432.461
387.929, 1407.382
389.279, 1506.997
390.628, 1369.729
391.977, 1326.771
393.325, 1139.953
394.674, 1224.328
396.022, 1098.154
397.370, 1045.992
398.718, 1069.009
400.065, 1055.062
401.413, 912.973
402.760, 898.812
404.106, 872.893
405.453, 766.960
406.799, 800.639
408.146, 812.479
409.491, 705.462
410.837, 863.143
412.182, 626.629
413.528, 531.008
414.873, 716.221
416.217, 649.355
417.562, 561.402
418.906, 773.831
420.250, 945.956
421.594, 1287.140
422.938, 1740.400
424.281, 1933.499
425.624, 2106.893
426.967, 1990.403
428.310, 1743.900
429.652, 1367.387
430.994, 1090.881
432.336, 874.361
433.678, 677.828
435.020, 551.296
436.361, 494.751
437.702, 458.191
439.043, 441.619
440.383, 365.020
441.724, 408.390
443.064, 271.730
444.404, 305.043
445.743, 218.319
447.083, 241.554
448.422, 284.750
449.761, 327.905
451.100, 295.261
452.438, 274.096
453.777, 207.165
455.115, 210.192
456.453, 133.176
457.790, 256.118
459.128, 309.020
460.465, 161.881
461.802, 234.706
463.139, 217.489
464.475, 220.231
465.811, 272.934
467.147, 286.957
468.483, 298.221
469.819, 380.807
471.154, 403.355
472.489, 475.868
473.824, 428.344
475.159, 410.783
476.493, 393.187
477.827, 615.553
479.161, 637.885
480.495, 690.183
481.829, 732.445
483.162, 774.675
484.495, 836.869
485.828, 911.960
487.161, 1131.158
488.493, 1113.255
489.825, 1215.318
491.157, 1377.349
492.489, 1269.348
493.820, 1371.316
495.151, 1503.254
496.482, 1365.162
497.813, 1507.042
499.144, 1378.893
500.474, 1460.717
501.804, 1172.515
503.134, 1124.287
504.464, 1026.034
505.793, 997.756
507.123, 809.454
508.451, 721.130
509.780, 682.781
511.109, 614.410
512.437, 536.016
513.765, 447.597
515.093, 379.156
516.421, 290.691
517.748, 322.203
519.075, 223.691
520.402, 165.154
521.729, 206.592
523.055, 288.003
524.382, 69.391
525.708, 80.807
527.034, 282.134
528.359, 113.788
529.685, 145.172
531.010, 56.787
532.335, 218.467
533.659, 70.289
534.984, 160.940
536.308, 2.233
537.632, 53.332
538.956, 13.767
540.279, 157.578
541.603, 100.827
542.926, 80.145
544.249, 118.895
545.571, 112.230
546.894, 103.141
548.216, 66.002
549.538, 125.212
550.860, 87.800
552.181, 10.914
553.503, 61.848
554.824, 19.932
556.145, 51.290
557.465, 122.122
558.786, 32.653
560.106, 187.735
561.426, 41.479
562.746, 49.068
564.065, 99.947
565.385, 4.731
566.704, 6.383
568.023, 67.886
569.341, 108.763
570.660, 200.416
571.978, 21.854
573.296, 212.417
574.614, 124.038
575.931, 202.442
577.248, 253.054
578.565, 228.017
579.882, 238.660
581.199, 219.331
582.515, 216.048
583.831, 256.587
585.147, 327.467
586.463, 318.248
587.779, 378.919
589.094, 394.537
590.409, 524.862
591.724, 565.245
593.038, 598.819
594.353, 769.317
595.667, 1279.663
596.981, 1470.150
598.295, 1880.569
599.608, 2291.354
600.922, 2462.229
602.235, 2544.395
603.547, 2174.625
604.860, 1784.410
606.172, 1524.349
607.485, 1304.268
608.797, 1084.154
610.108, 1044.009
611.420, 971.769
612.731, 821.262
614.042, 790.736
615.353, 890.469
616.664, 930.073
617.974, 879.743
619.284, 1010.067
620.594, 1309.492
621.904, 1308.866
623.213, 1648.169
624.523, 1987.664
625.832, 2267.149
627.141, 2616.602
628.449, 2986.027
629.758, 3215.420
631.066, 3474.785
632.374, 3694.118
633.681, 3803.424
634.989, 3672.698
636.296, 4341.944
637.603, 5201.161
638.910, 6780.346
640.217, 9239.502
641.523, 12348.633
642.829, 15287.731
644.135, 18076.803
645.441, 18955.842
646.747, 17234.857
648.052, 14673.841
649.357, 11262.796
650.662, 8401.725
651.967, 6210.624
653.271, 4899.496
654.575, 3568.337
655.879, 2927.151
657.183, 2395.939
658.486, 2094.698
659.790, 1733.430
661.093, 1512.133
662.396, 1260.450
663.698, 1139.458
665.001, 918.079
666.303, 836.673
667.605, 825.238
668.907, 673.777
670.209, 712.290
671.510, 480.774
672.811, 509.232
674.112, 367.664
675.413, 426.068
676.713, 424.291
678.013, 352.244
679.313, 310.347
680.613, 258.646
681.913, 223.221
683.212, 293.615
684.511, 151.834
685.810, 209.427
687.109, 147.128
688.407, 124.369
689.706, 222.323
691.004, 204.452
692.302, 182.119
693.599, 238.596
694.897, 27.670
696.194, 143.231
697.491, 85.743
698.788, 205.873
700.084, 201.330
701.380, 132.180
702.677, 179.438
703.972, 200.078
705.268, 103.219
706.564, 20.466
707.859, 77.517
709.154, 86.979
710.449, 37.488
711.743, 55.188
713.037, 161.793
714.332, 111.236
715.626, 23.954
716.919, 173.077
718.213, 114.231
719.506, 131.871
720.799, 31.646
722.092, 62.806
723.384, 132.110
724.677, 113.849
725.969, 30.096
727.261, 73.304
728.553, 20.676
729.844, 25.805
731.136, 88.114
732.427, 178.180
733.718, 35.333
735.008, 120.977
736.299, 107.312
737.589, 66.452
738.879, 119.677
740.169, 35.956
741.458, 42.384
742.748, 58.788
744.037, 54.830
745.326, 141.487
746.614, 97.785
747.903, 25.936
749.191, 50.294
750.479, 76.503
751.767, 32.693
753.055, 38.861
754.342, 15.012
755.629, 11.135
756.916, 12.766
758.203, 43.295
759.490, 79.338
760.776, 55.480
762.062, 91.488
763.348, 87.482
764.634, 133.461
765.919, 110.576
767.204, 215.301
768.489, 161.164
769.774, 7.014
771.059, 322.846
772.343, 168.662
773.627, 5.533
774.911, 320.244
776.195, 46.010
777.479, 371.764
778.762, 317.504
780.045, 333.232
781.328, 348.945
782.611, 394.650
783.893, 580.342
785.175, 626.020
786.457, 791.688
787.739, 767.344
789.021, 892.988
790.302, 938.621
791.583, 1124.242
792.864, 1349.855
794.145, 1485.457
795.425, 1511.049
796.706, 1776.633
797.986, 1922.203
799.266, 1857.766
800.545, 1983.320
801.825, 1998.865
803.104, 2034.402
804.383, 2179.930
805.662, 2095.451
806.940, 1970.965
808.219, 1816.469
809.497, 1831.965
810.775, 1877.455
812.053, 1532.938
813.330, 1388.416
814.608, 1523.885
815.885, 1119.348
817.162, 1294.809
818.438, 1280.262
819.715, 1195.709
820.991, 781.150
822.267, 856.588
823.543, 692.021
824.818, 537.449
826.094, 522.875
827.369, 518.293
828.644, 273.711
829.919, 609.125
831.193, 344.533
832.468, 249.943
833.742, 135.352
835.016, 220.756
836.289, 326.104
837.563, 81.512
838.836, 176.572
840.109, 31.881
841.382, 116.938
842.654, 81.906
843.927, 127.291
845.199, 142.656
846.471, 107.936
847.743, 56.613
849.014, 107.002
850.286, 117.855
851.557, 2.982
852.828, 182.461
854.099, 12.104
855.369, 113.113
856.639, 91.457
857.909, 35.977
859.179, 69.137
860.449, 152.857
861.718, 157.887
862.988, 74.844
864.257, 50.324
865.525, 334.646
866.794, 30.148
868.062, 44.020
869.331, 217.270
870.599, 22.857
871.866, 198.664
873.134, 54.166
874.401, 395.248
875.668, 180.559
876.935, 285.514
878.202, 151.092
879.468, 135.951
880.735, 144.121
882.001, 117.004
883.267, 151.916
884.532, 170.031
885.798, 225.926
887.063, 255.180
888.328, 323.301
889.593, 340.496
890.857, 370.922
892.122, 414.760
893.386, 390.311
894.650, 445.945
895.913, 371.674
897.177, 512.438
898.440, 398.479
899.703, 404.449
900.966, 557.213
902.229, 483.039
903.491, 369.002
904.754, 654.807
906.016, 110.668
907.278, 196.148
908.539, 341.525
909.801, 135.570
911.062, 361.564
912.323, 12.258
913.584, 233.844
914.844, 270.113
916.105, 306.402
917.365, 319.633
918.625, 290.498
919.885, 187.436
921.144, 233.803
922.404, 169.582
923.663, 175.992
924.922, 272.420
926.180, 237.695
927.439, 244.164
928.697, 60.602
929.955, 407.111
931.213, 163.643
932.471, 190.195
933.728, 376.766
934.985, 333.361
936.242, 239.979
937.499, 276.619
938.756, 213.277
940.012, 224.568
941.269, 306.660
942.525, 263.393
943.780, 230.148
945.036, 266.926
946.291, 343.727
947.546, 460.549
948.801, 447.393
950.056, 524.264
951.311, 461.156
952.565, 678.074
953.819, 535.018
955.073, 341.984
956.327, 508.975
957.580, 375.990
958.834, 543.031
960.087, 670.098
961.339, 607.191
962.592, 864.311
963.845, 661.455
965.097, 878.625
966.349, 695.822
967.601, 763.049
968.852, 1150.299
970.104, 787.586
971.355, 1094.896
972.606, 1252.230
973.857, 1159.586
975.107, 1056.969
976.358, 1414.375
977.608, 1551.807
978.858, 1739.262
980.108, 1746.746
981.357, 1904.254
982.607, 2191.789
983.856, 2009.352
985.105, 2966.938
986.353, 2614.553
987.602, 3192.197
988.850, 3739.867
990.098, 3967.566
991.346, 4785.297
992.594, 5433.055
993.841, 6150.848
995.089, 7249.578
996.336, 8017.428
997.583, 9645.309
998.829, 10861.240
1000.076, 12399.186
1001.322, 14998.797
1002.568, 17096.721
1003.814, 19374.762
1005.060, 21972.566
1006.305, 23940.668
1007.550, 26265.354
1008.795, 27442.520
1010.040, 27510.707
1011.285, 27279.309
1012.529, 26596.264
1013.773, 23632.143
1015.017, 20663.047
1016.261, 18341.445
1017.505, 15871.027
1018.748, 13898.469
1019.991, 11947.027
1021.234, 10457.398
1022.477, 9187.773
1023.719, 8386.477
1024.962, 7565.240
1026.204, 6964.027
1027.446, 6432.893
1028.688, 6487.211
1029.929, 6156.152
1031.170, 6495.154
1032.411, 6644.207
1033.652, 7083.297
1034.893, 7292.457
1036.134, 8041.652
1037.374, 8630.898
1038.614, 9330.184
1039.854, 10159.504
1041.094, 11218.883
1042.333, 11788.297
1043.572, 12747.752
1044.811, 13027.240
1046.050, 13516.770
1047.289, 13936.357
1048.527, 14365.984
1049.766, 14505.645
1051.004, 15265.359
1052.241, 16415.113
1053.479, 17884.906
1054.717, 19634.738
1055.954, 21974.609
1057.191, 24464.527
1058.428, 25094.473
1059.664, 25082.508
1060.901, 24554.438
1062.137, 22164.330
1063.373, 18784.375
1064.609, 15014.459
1065.844, 12544.578
1067.080, 9574.629
1068.315, 7934.703
1069.550, 6784.799
1070.785, 5434.906
1072.019, 4765.031
1073.254, 4035.051
1074.488, 3215.023
1075.722, 3085.035
1076.955, 2475.074
1078.189, 2325.143
1079.422, 2245.238
1080.656, 1715.363
1081.889, 1845.514
1083.121, 1505.695
1084.354, 1435.898
1085.586, 1536.127
1086.818, 1336.383
1088.050, 1436.707
1089.282, 1227.004
1090.514, 928.533
1091.745, 968.871
1092.976, 1009.227
1094.207, 799.609
1095.438, 910.014
1096.668, 660.449
1097.899, 901.096
1099.129, 821.605
1100.359, 812.154
1101.588, 1042.744
1102.818, 823.377
1104.047, 1094.049
1105.276, 1224.713
1106.505, 1235.770
1107.734, 1346.590
1108.962, 1177.396
1110.191, 1088.256
1111.419, 1429.176
1112.647, 1170.166
1113.874, 1111.191
1115.102, 1382.301
1116.329, 1123.562
1117.556, 1737.137
1118.783, 1106.324
1120.010, 1126.881
1121.236, 1497.492
1122.463, 1098.158
1123.689, 788.883
1124.914, 959.662
1126.140, 510.500
1127.366, 901.393
1128.591, 502.344
1129.816, 543.352
1131.041, 414.416
1132.266, 235.533
1133.490, 556.727
1134.714, 307.969
1135.938, 209.273
1137.162, 500.656
1138.386, 152.133
1139.609, 233.623
1140.833, 325.139
1142.056, 33.301
1143.279, 308.322
1144.501, 59.975
1145.724, 221.623
1146.946, 213.271
1148.168, 155.086
1149.390, 176.613
1150.612, 218.361
1151.833, 80.162
1153.054, 222.010
1154.275, 13.914
1155.496, 45.863
1156.717, 277.865
1157.937, 10.086
1159.158, 177.990
1160.378, 334.156
1161.598, 93.650
1162.817, 88.588
1164.037, 29.125
1165.256, 173.213
1166.475, 195.598
1167.694, 41.967
1168.913, 39.479
1170.131, 223.062
1171.349, 184.336
1172.567, 498.322
1173.785, 131.039
1175.003, 106.186
1176.220, 166.650
1177.438, 39.547
1178.655, 172.488
1179.872, 85.492
1181.088, 248.562
1182.305, 301.693
1183.521, 154.887
1184.737, 358.150
1185.953, 501.473
1187.169, 424.857
1188.384, 248.311
1189.599, 661.828
1190.814, 155.406
1192.029, 529.020
1193.244, 532.736
1194.459, 276.547
1195.673, 480.453
1196.887, 494.453
1198.101, 98.545
1199.314, 452.736
1200.528, 197.021
1201.741, 711.402
1202.954, 325.879
1204.167, 168.254
1205.380, 522.883
1206.592, 320.998
1207.805, 405.479
1209.017, 380.057
1210.229, 134.730
1211.440, 438.484
1212.652, 288.896
1213.863, 121.898
1215.074, 252.646
1216.285, 481.393
1217.496, 210.125
1218.707, 292.152
1219.917, 377.512
1221.127, 250.084
1222.337, 462.594
1223.547, 295.031
1224.756, 117.379
1225.966, 209.617
1227.175, 341.727
1228.384, 303.689
1229.592, 115.475
1230.801, 307.047
1232.009, 408.369
1233.217, 39.396
1234.425, 380.121
1235.633, 29.131
1236.841, 311.586
1238.048, 241.889
1239.255, 73.248
1240.462, 294.889
1241.669, 137.551
1242.876, 32.076
1244.082, 386.744
1245.288, 261.605
1246.494, 166.727
1247.700, 362.217
1248.906, 257.742
1250.111, 131.902
1251.316, 28.453
1252.521, 105.943
1253.726, 241.812
1254.931, 300.439
1256.135, 399.723
1257.339, 351.008
1258.543, 294.334
1259.747, 578.465
1260.951, 534.619
1262.154, 1.709
1263.357, 0.000
##END=



