##NAMES=Montebrasite
##RRUFFID=R040062
##IDEAL CHEMISTRY=LiAlPO_4_(OH)
##LOCALITY=Hebron, Maine, USA
##OWNER=RRUFF
##SOURCE=University of Arizona Mineral Museum
##DESCRIPTION=White massive
##STATUS=The identification of this mineral has been confirmed by X-ray diffraction and chemical analysis
##URL=rruff.info/R040062
##MEASURED CHEMISTRY=LiAl(PO_4_)((OH)_0.62_F_0.38_)
##PIN_ID=L00144
##ORIENTATION=Laser parallel to (1 1 0). Fiducial mark perpendicular to laser is parallel to -c [0 0 -1]
113.329, 0.000
114.726, 64.492
116.123, 229.583
117.519, 223.053
118.915, 327.754
120.311, 300.324
121.706, 150.185
123.102, 537.112
124.497, 817.908
125.892, 1261.918
127.286, 1838.245
128.681, 2616.192
130.075, 3415.746
131.469, 3787.922
132.862, 4121.014
134.256, 3805.369
135.649, 3340.868
137.042, 2617.991
138.435, 1845.004
139.827, 1341.686
141.219, 827.975
142.611, 573.897
144.003, 369.962
145.394, 137.665
146.786, 148.890
148.177, 35.593
149.567, 48.367
150.958, 17.676
152.348, 11.951
153.738, 184.644
155.128, 165.911
156.517, 178.773
157.907, 385.779
159.296, 430.841
160.685, 759.341
162.073, 965.053
163.462, 1349.567
164.850, 1513.444
166.237, 1776.738
167.625, 1699.500
169.012, 1851.771
170.400, 1853.590
171.786, 1597.386
173.173, 1682.943
174.559, 1366.941
175.946, 1296.813
177.332, 1328.970
178.717, 1253.718
180.103, 1049.188
181.488, 1263.777
182.873, 1277.116
184.258, 1169.481
185.642, 1248.646
187.026, 1195.008
188.410, 1086.225
189.794, 987.475
191.178, 858.740
192.561, 670.015
193.944, 591.297
195.327, 442.585
196.709, 380.264
198.092, 235.339
199.474, 246.915
200.856, 228.644
202.237, 90.516
203.618, 32.524
205.000, 134.661
206.380, 236.916
207.761, 249.282
209.142, 291.749
210.522, 334.310
211.902, 343.378
213.281, 370.164
214.661, 372.470
216.040, 385.311
217.419, 398.206
218.798, 385.180
220.176, 384.134
221.554, 397.150
222.932, 370.197
224.310, 383.270
225.688, 356.363
227.065, 379.477
228.442, 222.601
229.819, 225.724
231.196, 278.832
232.572, 92.279
233.948, 166.331
235.324, 9.662
236.700, 32.676
238.075, 5.687
239.450, 28.718
240.825, 138.258
242.200, 135.260
243.574, 72.218
244.948, 149.168
246.322, 16.075
247.696, 242.877
249.070, 129.582
250.443, 216.273
251.816, 102.979
253.189, 79.691
254.561, 46.434
255.933, 63.158
257.306, 20.060
258.677, 63.190
260.049, 246.188
261.420, 438.938
262.791, 591.471
264.162, 773.720
265.533, 1075.684
266.903, 1557.464
268.274, 1819.106
269.643, 2320.710
271.013, 2842.308
272.383, 3143.904
273.752, 3415.495
275.121, 3667.084
276.490, 3508.669
277.858, 3300.251
279.226, 2784.894
280.595, 2850.209
281.962, 2675.896
283.330, 2681.816
284.697, 2758.149
286.064, 3074.749
287.431, 3381.241
288.798, 4177.678
290.164, 5104.064
291.530, 6510.341
292.896, 8556.682
294.262, 10982.998
295.627, 14109.209
296.993, 16815.338
298.358, 18701.406
299.722, 18707.428
301.087, 17573.414
302.451, 15069.306
303.815, 12845.137
305.179, 10890.900
306.543, 9506.599
307.906, 8502.235
309.269, 7837.809
310.632, 7203.312
311.995, 6558.726
313.357, 5693.596
314.719, 5038.064
316.081, 4713.152
317.443, 4348.137
318.804, 4123.028
320.166, 3827.831
321.527, 3652.538
322.887, 3347.129
324.248, 2791.569
325.608, 2575.932
326.968, 2130.229
328.328, 1874.465
329.688, 1638.643
331.047, 1392.765
332.406, 1266.834
333.765, 1020.852
335.124, 984.818
336.482, 878.728
337.840, 732.568
339.198, 716.304
340.556, 649.908
341.913, 553.285
343.271, 466.384
344.628, 479.240
345.984, 521.735
347.341, 476.837
348.697, 365.911
350.053, 427.776
351.409, 389.809
352.765, 292.088
354.120, 374.489
355.475, 487.095
356.830, 499.655
358.185, 502.253
359.539, 557.316
360.894, 538.344
362.248, 593.637
363.601, 625.235
364.955, 618.048
366.308, 681.386
367.661, 710.046
369.014, 756.741
370.367, 881.007
371.719, 914.712
373.071, 965.772
374.423, 951.420
375.775, 1024.836
377.126, 1113.903
378.478, 1120.487
379.828, 1059.530
381.179, 1108.136
382.530, 1023.510
383.880, 1106.639
385.230, 1019.426
386.580, 1011.856
387.929, 884.535
389.279, 997.873
390.628, 869.718
391.977, 941.660
393.325, 813.410
394.674, 959.896
396.022, 790.897
397.370, 892.103
398.718, 820.067
400.065, 820.290
401.413, 667.698
402.760, 707.251
404.106, 805.885
405.453, 674.799
406.799, 838.325
408.146, 736.246
409.491, 852.134
410.837, 684.544
412.182, 703.228
413.528, 747.337
414.873, 847.654
416.217, 889.428
417.562, 1043.423
418.906, 1686.243
420.250, 2434.200
421.594, 3493.689
422.938, 5024.713
424.281, 6266.105
425.624, 7167.479
426.967, 6528.850
428.310, 5470.221
429.652, 3801.575
430.994, 2762.931
432.336, 1924.270
433.678, 1385.600
435.020, 1106.912
436.361, 798.212
437.702, 799.496
439.043, 540.764
440.383, 502.014
441.724, 513.235
443.064, 454.425
444.404, 345.583
445.743, 276.707
447.083, 237.794
448.422, 278.842
449.761, 299.850
451.100, 315.477
452.438, 341.742
453.777, 322.630
455.115, 323.476
456.453, 368.381
457.790, 339.709
459.128, 425.775
460.465, 386.463
461.802, 337.111
463.139, 497.718
464.475, 488.286
465.811, 578.813
467.147, 667.852
468.483, 689.750
469.819, 850.158
471.154, 1040.528
472.489, 1180.857
473.824, 1371.147
475.159, 1461.401
476.493, 1771.619
477.827, 2011.799
479.161, 2371.940
480.495, 2622.045
481.829, 2692.110
483.162, 2702.138
484.495, 2782.129
485.828, 2472.082
487.161, 2493.948
488.493, 2571.880
489.825, 2241.724
491.157, 2251.532
492.489, 2051.304
493.820, 1811.039
495.151, 1860.736
496.482, 1690.398
497.813, 1600.023
499.144, 1329.613
500.474, 1319.167
501.804, 1128.684
503.134, 1058.165
504.464, 907.615
505.793, 827.031
507.123, 626.416
508.451, 555.771
509.780, 414.834
511.109, 294.126
512.437, 233.230
513.765, 201.890
515.093, 150.861
516.421, 160.022
517.748, 149.254
519.075, 28.340
520.402, 107.538
521.729, 33.457
523.055, 295.938
524.382, 34.844
525.708, 25.410
527.034, 153.471
528.359, 67.480
529.685, 17.938
531.010, 8.385
532.335, 81.059
533.659, 9.723
534.984, 8.783
536.308, 88.932
537.632, 49.705
538.956, 88.799
540.279, 63.756
541.603, 49.248
542.926, 31.688
544.249, 71.992
545.571, 140.547
546.894, 79.551
548.216, 8.156
549.538, 266.605
550.860, 135.510
552.181, 188.932
553.503, 52.627
554.824, 106.488
556.145, 234.729
557.465, 143.332
558.786, 14.502
560.106, 259.275
561.426, 67.383
562.746, 213.088
564.065, 191.316
565.385, 75.512
566.704, 237.096
568.023, 342.322
569.341, 160.918
570.660, 359.613
571.978, 166.266
573.296, 414.504
574.614, 403.350
575.931, 357.127
577.248, 485.109
578.565, 392.355
579.882, 560.699
581.199, 439.752
582.515, 622.094
583.831, 610.152
585.147, 721.525
586.463, 832.734
587.779, 790.746
589.094, 991.629
590.409, 1109.867
591.724, 1308.119
593.038, 1626.195
594.353, 2064.129
595.667, 2751.836
596.981, 3769.406
598.295, 4606.543
599.608, 5553.871
600.922, 5669.383
602.235, 6429.273
603.547, 5317.004
604.860, 4504.094
606.172, 3481.170
607.485, 2927.820
608.797, 2544.387
610.108, 2280.975
611.420, 2078.002
612.731, 1904.529
614.042, 1991.016
615.353, 1998.125
616.664, 2174.590
617.974, 2251.018
619.284, 2577.629
620.594, 3013.947
621.904, 3500.246
623.213, 4316.529
624.523, 5152.770
625.832, 6358.965
627.141, 7775.115
628.449, 8841.223
629.758, 9597.289
631.066, 9333.312
632.374, 8209.293
633.681, 7095.229
634.989, 6131.121
636.296, 5986.971
637.603, 5742.775
638.910, 6488.539
640.217, 7774.258
641.523, 9789.934
642.829, 11705.562
644.135, 14051.152
645.441, 14446.695
646.747, 13242.195
648.052, 11377.658
649.357, 8963.070
650.662, 6708.443
651.967, 4933.773
653.271, 4009.059
654.575, 2954.299
655.879, 2519.498
657.183, 2084.654
658.486, 1729.768
659.790, 1454.838
661.093, 1379.867
662.396, 1034.854
663.698, 921.143
665.001, 994.691
666.303, 679.547
667.605, 674.361
668.907, 698.936
670.209, 743.213
671.510, 437.322
672.811, 441.172
674.112, 345.023
675.413, 598.785
676.713, 331.762
678.013, 375.266
679.313, 255.773
680.613, 399.979
681.913, 152.844
683.212, 343.734
684.511, 297.211
685.810, 155.383
687.109, 136.621
688.407, 148.416
689.706, 191.404
691.004, 383.031
692.302, 4.738
693.599, 131.768
694.897, 12.305
696.194, 168.777
697.491, 8.016
698.788, 6.037
700.084, 18.152
701.380, 190.812
702.677, 83.721
703.972, 156.230
705.268, 195.756
706.564, 90.797
707.859, 30.404
709.154, 182.203
710.449, 63.580
711.743, 208.334
713.037, 111.002
714.332, 155.648
715.626, 54.586
716.919, 207.816
718.213, 70.742
719.506, 171.293
720.799, 46.801
722.092, 5.623
723.384, 63.727
724.677, 88.482
725.969, 79.887
727.261, 84.631
728.553, 186.604
729.844, 68.688
731.136, 39.275
732.427, 242.557
733.718, 95.539
735.008, 146.240
736.299, 47.979
737.589, 20.336
738.879, 181.270
740.169, 7.170
741.458, 5.680
742.748, 155.734
744.037, 2.891
745.326, 78.412
746.614, 69.672
747.903, 90.885
749.191, 112.057
750.479, 153.184
751.767, 174.350
753.055, 265.393
754.342, 206.400
755.629, 167.371
756.916, 48.344
758.203, 73.191
759.490, 150.072
760.776, 100.877
762.062, 231.641
763.348, 272.371
764.634, 263.068
765.919, 163.730
767.204, 414.355
768.489, 274.945
769.774, 105.504
771.059, 546.023
772.343, 296.672
773.627, 187.125
774.911, 507.543
776.195, 317.930
777.479, 434.959
778.762, 615.279
780.045, 705.568
781.328, 715.822
782.611, 922.166
783.893, 1076.238
785.175, 1246.793
786.457, 1466.924
787.739, 1637.033
789.021, 1767.102
790.302, 2048.520
791.583, 2227.148
792.864, 2587.129
794.145, 2827.078
795.425, 3116.998
796.706, 3296.889
797.986, 3462.867
799.266, 3566.584
800.545, 3606.389
801.825, 3866.166
803.104, 3715.914
804.383, 3995.637
805.662, 3785.334
806.940, 3695.000
808.219, 3364.641
809.497, 3084.258
810.775, 3203.846
812.053, 2763.406
813.330, 2642.945
814.608, 2582.457
815.885, 1931.943
817.162, 2241.406
818.438, 1950.844
819.715, 1990.256
820.991, 1369.643
822.267, 1349.008
823.543, 1248.350
824.818, 947.668
826.094, 976.967
827.369, 776.246
828.644, 535.398
829.919, 864.639
831.193, 603.707
832.468, 452.914
833.742, 401.662
835.016, 250.846
836.289, 212.014
837.563, 188.229
838.836, 177.115
840.109, 125.436
841.382, 203.682
842.654, 181.975
843.927, 150.439
845.199, 289.553
846.471, 184.826
847.743, 16.924
849.014, 79.564
850.286, 11.986
851.557, 145.445
852.828, 190.738
854.099, 17.492
855.369, 25.941
856.639, 43.887
857.909, 127.828
859.179, 29.475
860.449, 104.428
861.718, 251.602
862.988, 100.199
864.257, 37.229
865.525, 185.492
866.794, 16.660
868.062, 118.588
869.331, 300.191
870.599, 28.430
871.866, 369.033
873.134, 137.119
874.401, 309.246
875.668, 123.975
876.935, 345.072
878.202, 272.777
879.468, 79.582
880.735, 310.096
882.001, 128.217
883.267, 95.730
884.532, 158.312
885.798, 276.672
887.063, 65.766
888.328, 293.732
889.593, 130.951
890.857, 164.840
892.122, 302.971
893.386, 257.738
894.650, 342.629
895.913, 150.674
897.177, 455.801
898.440, 393.533
899.703, 211.207
900.966, 399.014
902.229, 306.922
903.491, 4.988
904.754, 116.191
906.016, 131.781
907.278, 90.127
908.539, 1.680
909.801, 35.951
911.062, 123.777
912.323, 31.936
913.584, 269.902
914.844, 118.432
916.105, 207.088
917.365, 45.750
918.625, 95.816
919.885, 132.709
921.144, 121.391
922.404, 69.479
923.663, 11.828
924.922, 146.867
926.180, 35.350
927.439, 194.061
928.697, 177.221
929.955, 191.447
931.213, 20.125
932.471, 18.812
933.728, 167.508
934.985, 196.213
936.242, 25.037
937.499, 283.721
938.756, 2.488
940.012, 181.273
941.269, 270.068
942.525, 138.877
943.780, 77.697
945.036, 176.529
946.291, 185.375
947.546, 294.234
948.801, 253.107
950.056, 361.996
951.311, 316.186
952.565, 209.812
953.819, 268.740
955.073, 217.684
956.327, 266.641
957.580, 205.615
958.834, 214.600
960.087, 403.604
961.339, 262.625
962.592, 621.658
963.845, 300.707
965.097, 409.768
966.349, 338.834
967.601, 467.914
968.852, 817.002
970.104, 496.104
971.355, 805.215
972.606, 804.336
973.857, 753.469
975.107, 722.617
976.358, 911.775
977.608, 1120.947
978.858, 1310.129
980.108, 1249.328
981.357, 1228.537
982.607, 1797.762
983.856, 1477.002
985.105, 2236.258
986.353, 2415.529
987.602, 2824.820
988.850, 3004.129
990.098, 3063.453
991.346, 3792.797
992.594, 4402.166
993.841, 4941.555
995.089, 5860.963
996.336, 6130.387
997.583, 7449.852
998.829, 8507.729
1000.076, 9607.172
1001.322, 11955.414
1002.568, 13295.738
1003.814, 14845.344
1005.060, 16944.703
1006.305, 18284.137
1007.550, 20183.670
1008.795, 21025.502
1010.040, 21153.273
1011.285, 20896.717
1012.529, 19132.484
1013.773, 17816.465
1015.017, 15827.561
1016.261, 13937.447
1017.505, 12056.254
1018.748, 10566.250
1019.991, 9226.305
1021.234, 8056.385
1022.477, 7256.605
1023.719, 6846.773
1024.962, 6456.996
1026.204, 5987.266
1027.446, 5757.594
1028.688, 6027.949
1029.929, 6135.047
1031.170, 6615.498
1032.411, 6965.982
1033.652, 7856.498
1034.893, 8537.066
1036.134, 9407.666
1037.374, 10488.332
1038.614, 11379.031
1039.854, 12369.762
1041.094, 14000.551
1042.333, 14561.363
1043.572, 15632.227
1044.811, 15983.139
1046.050, 15824.080
1047.289, 16085.070
1048.527, 15666.096
1049.766, 15047.156
1051.004, 15348.258
1052.241, 15359.393
1053.479, 15920.480
1054.717, 16511.689
1055.954, 17772.932
1057.191, 19394.211
1058.428, 19125.490
1059.664, 19806.850
1060.901, 18278.246
1062.137, 16109.686
1063.373, 13751.090
1064.609, 10982.510
1065.844, 9323.969
1067.080, 7075.463
1068.315, 6016.996
1069.550, 5288.566
1070.785, 4420.176
1072.019, 3641.826
1073.254, 3363.355
1074.488, 2715.088
1075.722, 2666.863
1076.955, 2198.682
1078.189, 2053.865
1079.422, 2005.768
1080.656, 1737.713
1081.889, 1719.707
1083.121, 1581.744
1084.354, 1432.234
1085.586, 1583.973
1086.818, 1626.152
1088.050, 1709.410
1089.282, 1431.689
1090.514, 1334.146
1091.745, 1466.539
1092.976, 1368.516
1094.207, 1381.566
1095.438, 1594.141
1096.668, 1736.777
1097.899, 2139.484
1099.129, 2301.887
1100.359, 2474.328
1101.588, 3116.742
1102.818, 3339.166
1104.047, 3941.596
1105.276, 4684.445
1106.505, 5076.850
1107.734, 5200.262
1108.962, 5582.838
1110.191, 5275.201
1111.419, 5447.148
1112.647, 5578.686
1113.874, 4960.098
1115.102, 5121.551
1116.329, 4603.045
1117.556, 4564.582
1118.783, 4606.160
1120.010, 4067.783
1121.236, 4239.449
1122.463, 3861.158
1123.689, 4182.914
1124.914, 4184.715
1126.140, 2866.559
1127.366, 2698.453
1128.591, 2220.393
1129.816, 1882.391
1131.041, 1794.451
1132.266, 1206.660
1133.490, 1498.926
1134.714, 1391.285
1135.938, 803.793
1137.162, 1106.354
1138.386, 698.988
1139.609, 671.688
1140.833, 804.445
1142.056, 267.252
1143.279, 780.113
1144.501, 363.025
1145.724, 476.031
1146.946, 629.088
1148.168, 112.197
1149.390, 255.355
1150.612, 268.568
1151.833, 261.832
1153.054, 75.148
1154.275, 68.512
1155.496, 251.928
1156.717, 295.395
1157.937, 38.912
1159.158, 167.521
1160.378, 406.096
1161.598, 60.234
1162.817, 73.482
1164.037, 77.250
1165.256, 31.070
1166.475, 74.943
1167.694, 36.268
1168.913, 7.111
1170.131, 14.311
1171.349, 21.180
1172.567, 55.281
1173.785, 69.426
1175.003, 76.814
1176.220, 147.822
1177.438, 142.082
1178.655, 106.375
1179.872, 250.715
1181.088, 237.934
1182.305, 259.535
1183.521, 344.002
1184.737, 208.514
1185.953, 273.094
1187.169, 667.771
1188.384, 552.551
1189.599, 707.436
1190.814, 763.924
1192.029, 537.521
1193.244, 792.730
1194.459, 498.053
1195.673, 513.486
1196.887, 649.035
1198.101, 464.693
1199.314, 730.455
1200.528, 236.332
1201.741, 802.314
1202.954, 728.418
1204.167, 224.633
1205.380, 690.963
1206.592, 397.414
1207.805, 193.984
1209.017, 643.096
1210.229, 125.488
1211.440, 501.883
1212.652, 458.385
1213.863, 124.740
1215.074, 351.451
1216.285, 498.281
1217.496, 225.230
1218.707, 242.309
1219.917, 439.521
1221.127, 296.873
1222.337, 384.377
1223.547, 312.033
1224.756, 89.840
1225.966, 307.799
1227.175, 195.908
1228.384, 174.164
1229.592, 117.436
1230.801, 401.107
1232.009, 609.787
1233.217, 8.600
1234.425, 398.613
1235.633, 79.035
1236.841, 419.809
1238.048, 110.939
1239.255, 252.463
1240.462, 514.416
1241.669, 396.840
1242.876, 199.793
1244.082, 475.996
1245.288, 201.951
1246.494, 253.822
1247.700, 483.957
1248.906, 181.629
1250.111, 25.582
1251.316, 280.039
1252.521, 0.682
1253.726, 58.842
1254.931, 399.801
1256.135, 68.225
1257.339, 0.000
##END=



