##NAMES=Montebrasite
##RRUFFID=R040060
##IDEAL CHEMISTRY=LiAlPO_4_(OH)
##LOCALITY=Oxford County, Maine, USA
##OWNER=RRUFF
##SOURCE=University of Arizona Mineral Museum
##DESCRIPTION=White massive
##STATUS=The identification of this mineral has been confirmed by X-ray diffraction and chemical analysis
##URL=rruff.info/R040060
##MEASURED CHEMISTRY=LiAl(PO_4_)((OH)_0.79_F_0.21_)
##PIN_ID=L00548
##ORIENTATION=Laser parallel to b* (0 1 0). Fiducial mark perpendicular to laser is parallel to -c [0 0 -1]
125.328, 0.000
126.720, 66.244
128.112, 86.090
129.504, 350.110
130.896, 501.647
132.287, 633.050
133.678, 838.524
135.069, 1130.194
136.460, 1143.719
137.850, 1193.819
139.240, 1048.173
140.630, 886.120
142.020, 684.082
143.410, 458.569
144.799, 273.946
146.188, 142.024
147.577, 10.123
148.965, 17.595
150.354, 29.377
151.742, 10.415
153.130, 8.671
154.517, 11.831
155.905, 136.087
157.292, 45.127
158.679, 93.179
160.066, 179.064
161.452, 178.069
162.839, 168.012
164.225, 204.895
165.611, 335.715
166.996, 361.477
168.381, 271.354
169.767, 429.782
171.152, 290.173
172.536, 413.532
173.921, 258.863
175.305, 296.167
176.689, 200.444
178.073, 179.698
179.456, 188.943
180.839, 175.245
182.222, 234.725
183.605, 159.485
184.988, 239.945
186.370, 245.896
187.752, 338.984
189.134, 359.259
190.516, 438.750
191.898, 371.697
193.279, 417.802
194.660, 613.630
196.041, 541.827
197.421, 581.986
198.801, 556.107
200.182, 520.189
201.561, 444.231
202.941, 268.232
204.321, 235.192
205.700, 110.112
207.079, 230.989
208.457, 61.826
209.836, 41.368
211.214, 88.422
212.592, 84.211
213.970, 94.000
215.348, 35.797
216.725, 83.607
218.102, 84.427
219.479, 100.244
220.856, 128.060
222.232, 121.872
223.608, 95.677
224.984, 259.462
226.360, 213.243
227.736, 167.018
229.111, 160.787
230.486, 174.688
231.861, 208.626
233.236, 132.836
234.610, 236.993
235.984, 55.457
237.358, 139.827
238.732, 173.750
240.105, 110.720
241.479, 3.286
242.852, 21.338
244.224, 45.581
245.597, 94.122
246.969, 61.442
248.342, 25.991
249.713, 66.094
251.085, 31.794
252.457, 6.560
253.828, 8.260
255.199, 12.713
256.570, 53.353
257.940, 109.787
259.310, 23.362
260.681, 23.508
262.050, 50.226
263.420, 102.910
264.790, 56.215
266.159, 109.355
267.528, 182.494
268.896, 175.646
270.265, 308.780
271.633, 481.856
273.001, 644.903
274.369, 747.892
275.737, 910.843
277.104, 923.723
278.471, 916.574
279.838, 699.398
281.205, 652.194
282.572, 594.961
283.938, 607.699
285.304, 570.409
286.670, 693.089
288.035, 805.750
289.401, 1108.371
290.766, 1461.192
292.131, 2064.134
293.495, 2597.211
294.860, 3350.553
296.224, 4114.262
297.588, 4308.018
298.952, 4201.513
300.315, 3715.547
301.679, 3269.201
303.042, 2663.221
304.405, 2187.391
305.767, 1811.616
307.130, 1565.855
308.492, 1279.983
309.854, 1313.606
311.216, 1227.232
312.578, 1141.088
313.939, 974.710
315.300, 918.327
316.661, 871.938
318.021, 905.541
319.382, 968.983
320.742, 932.566
322.102, 845.116
323.462, 858.666
324.821, 742.195
326.181, 675.701
327.540, 559.188
328.899, 422.653
330.257, 266.095
331.616, 279.517
332.974, 202.887
334.332, 96.235
335.690, 99.563
337.047, 112.870
338.405, 76.157
339.762, 99.423
341.119, 82.668
342.475, 105.893
343.832, 20.904
345.188, 42.265
346.544, 45.452
347.900, 108.701
349.255, 47.707
350.610, 14.233
351.965, 10.959
353.320, 123.328
354.675, 6.979
356.029, 30.791
357.384, 56.074
358.738, 17.929
360.091, 11.481
361.445, 4.932
362.798, 18.281
364.151, 18.552
365.504, 12.801
366.857, 80.844
368.209, 53.995
369.561, 48.219
370.913, 22.458
372.265, 10.185
373.617, 78.554
374.968, 6.604
376.319, 99.773
377.670, 15.067
379.021, 58.249
380.371, 35.865
381.721, 158.771
383.071, 32.096
384.421, 85.413
385.770, 158.152
387.120, 221.214
388.469, 243.927
389.818, 117.506
391.166, 320.360
392.515, 252.949
393.863, 236.229
395.211, 179.806
396.559, 272.621
397.906, 255.962
399.254, 229.396
400.601, 253.565
401.948, 185.989
403.294, 279.159
404.641, 302.027
405.987, 223.133
407.333, 319.959
408.679, 363.299
410.025, 475.174
411.370, 319.627
412.715, 497.444
414.060, 478.442
415.405, 569.545
416.749, 561.375
418.093, 692.777
419.437, 981.266
420.781, 1322.812
422.125, 1894.203
423.468, 2753.715
424.811, 3681.502
426.154, 4422.820
427.497, 4644.116
428.839, 4295.552
430.182, 3306.795
431.524, 2348.012
432.866, 1759.198
434.207, 1200.360
435.549, 851.496
436.890, 662.604
438.231, 653.688
439.572, 634.749
440.912, 305.788
442.252, 416.799
443.593, 377.782
444.932, 358.742
446.272, 299.671
447.611, 250.573
448.951, 281.449
450.290, 262.300
451.628, 163.123
452.967, 233.917
454.305, 284.684
455.644, 235.418
456.981, 176.124
458.319, 186.793
459.657, 327.427
460.994, 148.031
462.331, 248.598
463.668, 169.129
465.004, 139.623
466.341, 130.078
467.677, 120.495
469.013, 150.869
470.348, 301.204
471.684, 411.503
473.019, 221.764
474.354, 541.985
475.689, 522.168
477.024, 692.312
478.358, 862.419
479.692, 872.486
481.026, 1112.516
482.360, 1042.504
483.694, 1022.457
485.027, 1042.371
486.360, 1012.245
487.693, 1072.078
489.026, 961.871
490.358, 841.625
491.691, 1041.337
493.023, 871.009
494.354, 920.641
495.686, 690.141
497.017, 639.604
498.349, 699.075
499.680, 668.343
501.010, 457.657
502.341, 436.851
503.671, 386.093
505.001, 402.570
506.331, 291.619
507.661, 270.456
508.990, 179.822
510.319, 194.406
511.648, 221.769
512.977, 28.476
514.306, 107.974
515.634, 66.607
516.962, 205.744
518.290, 30.062
519.618, 78.526
520.945, 96.621
522.273, 115.323
523.600, 153.714
524.927, 19.503
526.253, 47.508
527.580, 136.203
528.906, 5.227
530.232, 4.069
531.558, 47.648
532.883, 51.739
534.208, 16.274
535.534, 91.326
536.858, 19.373
538.183, 78.334
539.508, 51.613
540.832, 155.695
542.156, 64.078
543.480, 62.129
544.803, 180.650
546.127, 99.672
547.450, 178.113
548.773, 26.699
550.096, 135.131
551.418, 193.611
552.741, 56.771
554.063, 26.008
555.385, 134.152
556.706, 42.410
558.028, 30.314
559.349, 0.564
560.670, 203.990
561.991, 52.172
563.312, 39.926
564.632, 178.207
565.952, 43.848
567.272, 23.424
568.592, 287.053
569.911, 5.410
571.231, 233.010
572.550, 20.799
573.869, 219.494
575.187, 206.811
576.506, 335.672
577.824, 152.607
579.142, 316.252
580.460, 393.686
581.778, 342.025
583.095, 499.539
584.412, 446.557
585.729, 504.035
587.046, 311.246
588.363, 478.113
589.679, 534.643
590.995, 481.289
592.311, 638.199
593.627, 695.105
594.942, 621.752
596.258, 848.727
597.573, 1016.199
598.888, 1073.906
600.202, 1099.986
601.517, 1186.436
602.831, 1243.166
604.145, 979.016
605.459, 825.150
606.772, 631.951
608.086, 718.363
609.399, 514.812
610.712, 560.357
612.024, 476.398
613.337, 512.494
614.649, 438.393
615.961, 523.574
617.273, 519.080
618.585, 495.586
619.896, 590.824
621.208, 856.094
622.519, 881.230
623.829, 965.969
625.140, 1231.328
626.450, 1415.590
627.761, 1500.512
629.071, 1515.566
630.380, 1530.217
631.690, 1494.697
632.999, 1279.240
634.308, 1293.941
635.617, 1348.375
636.926, 1382.754
638.235, 1717.080
639.543, 2241.354
640.851, 2965.572
642.159, 3689.736
643.466, 4723.844
644.774, 5537.898
646.081, 5541.896
647.388, 5405.842
648.695, 4219.730
650.002, 3453.562
651.308, 2577.344
652.614, 1771.066
653.920, 1444.732
655.226, 1128.348
656.531, 891.908
657.837, 775.414
659.142, 628.863
660.447, 552.258
661.752, 465.598
663.056, 328.895
664.360, 522.098
665.664, 295.154
666.968, 357.787
668.272, 180.439
669.575, 373.164
670.879, 225.355
672.182, 137.494
673.484, 189.855
674.787, 203.104
676.089, 244.711
677.392, 256.625
678.694, 60.020
679.995, 221.865
681.297, 105.078
682.598, 105.037
683.899, 236.873
685.200, 119.141
686.501, 140.646
687.802, 172.076
689.102, 19.885
690.402, 211.500
691.702, 111.396
693.002, 43.051
694.301, 132.561
695.600, 158.076
696.899, 329.025
698.198, 211.523
699.497, 103.215
700.795, 84.387
702.093, 60.297
703.391, 190.881
704.689, 160.559
705.987, 103.395
707.284, 164.590
708.581, 43.504
709.878, 36.576
711.175, 177.408
712.472, 168.410
713.768, 238.572
715.064, 29.072
716.360, 71.664
717.656, 99.947
718.951, 219.670
720.247, 90.037
721.542, 150.432
722.837, 285.760
724.131, 64.396
725.426, 195.684
726.720, 34.139
728.014, 120.062
729.308, 18.406
730.601, 208.703
731.895, 12.531
733.188, 283.059
734.481, 67.469
735.774, 142.873
737.067, 23.689
738.359, 104.346
739.651, 214.242
740.943, 94.189
742.235, 144.014
743.526, 213.145
744.818, 284.209
746.109, 243.721
747.400, 179.262
748.691, 169.400
749.981, 218.396
751.271, 127.904
752.562, 48.812
753.851, 27.869
755.141, 307.221
756.431, 205.912
757.720, 125.471
759.009, 324.225
760.298, 242.727
761.587, 81.627
762.875, 150.367
764.163, 128.990
765.451, 237.375
766.739, 175.574
768.027, 175.018
769.314, 183.352
770.601, 281.990
771.888, 199.957
773.175, 57.865
774.462, 195.709
775.748, 273.494
777.034, 211.238
778.320, 277.051
779.606, 104.674
780.892, 342.377
782.177, 199.889
783.462, 277.344
784.747, 394.846
786.032, 332.193
787.317, 489.488
788.601, 306.834
789.885, 574.023
791.169, 571.160
792.453, 618.246
793.736, 845.619
795.019, 872.680
796.303, 859.611
797.585, 1116.490
798.868, 963.320
800.151, 990.096
801.433, 1076.824
802.715, 923.500
803.997, 900.125
805.279, 776.701
806.560, 713.225
807.841, 599.699
809.122, 706.125
810.403, 542.500
811.684, 578.826
812.964, 655.102
814.245, 541.328
815.525, 467.508
816.804, 353.637
818.084, 449.543
819.363, 485.574
820.643, 331.240
821.922, 427.127
823.201, 332.221
824.479, 188.066
825.758, 333.256
827.036, 208.035
828.314, 132.986
829.592, 287.936
830.869, 303.021
832.147, 18.111
833.424, 412.164
834.701, 47.010
835.977, 161.309
837.254, 195.580
838.530, 190.355
839.807, 94.605
841.082, 88.902
842.358, 133.291
843.634, 224.703
844.909, 169.201
846.184, 203.248
847.459, 186.768
848.734, 99.166
850.008, 143.180
851.283, 7.918
852.557, 42.117
853.831, 135.814
855.105, 50.639
856.378, 302.602
857.651, 113.508
858.925, 19.885
860.197, 133.434
861.470, 26.965
862.743, 245.723
864.015, 8.316
865.287, 91.781
866.559, 145.172
867.831, 28.822
869.102, 111.166
870.373, 2.021
871.645, 170.936
872.915, 4.365
874.186, 137.176
875.457, 320.236
876.727, 13.867
877.997, 251.045
879.267, 14.219
880.536, 83.615
881.806, 239.109
883.075, 60.828
884.344, 56.164
885.613, 85.207
886.882, 138.414
888.150, 54.842
889.419, 2.611
890.687, 1.096
891.954, 141.178
893.222, 113.863
894.490, 126.000
895.757, 238.318
897.024, 19.105
898.291, 153.723
899.557, 93.648
900.824, 1.379
902.090, 250.812
903.356, 93.180
904.622, 24.865
905.888, 166.469
907.153, 77.482
908.418, 220.045
909.683, 2.152
910.948, 173.891
912.213, 236.432
913.477, 108.602
914.741, 130.014
916.005, 141.740
917.269, 183.352
918.533, 245.385
919.796, 12.863
921.060, 148.850
922.323, 60.572
923.585, 222.678
924.848, 214.416
926.111, 355.393
927.373, 217.061
928.635, 199.033
929.897, 129.283
931.158, 332.588
932.420, 163.717
933.681, 245.814
934.942, 247.293
936.203, 169.070
937.463, 371.166
938.724, 193.129
939.984, 165.174
941.244, 266.982
942.504, 308.979
943.764, 390.949
945.023, 102.895
946.282, 164.816
947.541, 276.711
948.800, 298.588
950.059, 210.439
951.317, 492.268
952.575, 404.072
953.833, 535.857
955.091, 277.621
956.349, 509.361
957.606, 611.082
958.864, 522.781
960.121, 844.465
961.377, 1336.127
962.634, 1987.771
963.891, 2969.398
965.147, 3571.010
966.403, 3202.604
967.659, 2174.184
968.914, 1585.746
970.170, 1217.295
971.425, 738.828
972.680, 930.334
973.935, 641.844
975.190, 393.340
976.444, 854.225
977.698, 675.705
978.952, 606.664
980.206, 867.307
981.460, 478.594
982.713, 929.941
983.967, 819.822
985.220, 581.266
986.473, 981.443
987.725, 662.201
988.978, 983.107
990.230, 1056.398
991.482, 886.889
992.734, 1308.879
993.986, 1169.541
995.237, 1420.613
996.488, 1591.533
997.739, 1772.533
998.990, 1933.578
1000.241, 2056.703
1001.492, 2457.582
1002.742, 2867.701
1003.992, 3168.137
1005.242, 3959.025
1006.492, 4535.830
1007.741, 5477.424
1008.990, 6370.207
1010.239, 6749.084
1011.488, 7049.934
1012.737, 7110.270
1013.986, 6461.801
1015.234, 5922.070
1016.482, 5034.781
1017.730, 4255.807
1018.978, 3816.992
1020.225, 3188.178
1021.473, 2568.357
1022.720, 2390.061
1023.967, 2220.275
1025.213, 1940.996
1026.460, 1752.779
1027.706, 1752.480
1028.953, 1912.355
1030.198, 1696.727
1031.444, 1837.506
1032.690, 1823.881
1033.935, 2224.207
1035.180, 2573.404
1036.425, 2664.027
1037.670, 2975.113
1038.915, 3254.359
1040.159, 3977.777
1041.403, 4848.602
1042.647, 5847.508
1043.891, 6308.219
1045.135, 6608.328
1046.378, 6679.168
1047.621, 6109.750
1048.864, 5740.938
1050.107, 5080.441
1051.350, 5251.008
1052.592, 4882.289
1053.835, 5173.551
1055.077, 5464.941
1056.318, 5905.926
1057.560, 6056.945
1058.802, 6358.070
1060.043, 6019.047
1061.284, 5650.141
1062.525, 4740.672
1063.765, 4041.719
1065.006, 3492.750
1066.246, 2733.766
1067.486, 2484.762
1068.726, 1685.742
1069.966, 1666.707
1071.205, 1477.656
1072.445, 1298.594
1073.684, 1279.508
1074.923, 1000.410
1076.161, 741.297
1077.400, 1002.176
1078.638, 723.039
1079.876, 943.906
1081.114, 794.766
1082.352, 635.633
1083.590, 806.500
1084.827, 667.328
1086.064, 588.148
1087.301, 548.961
1088.538, 599.766
1089.775, 530.684
1091.011, 581.605
1092.247, 542.566
1093.483, 423.605
1094.719, 464.746
1095.955, 505.891
1097.190, 567.031
1098.425, 558.152
1099.660, 799.277
1100.895, 530.402
1102.130, 381.531
1103.364, 1122.680
1104.598, 763.957
1105.833, 1265.336
1107.066, 1526.773
1108.300, 1318.246
1109.534, 1659.895
1110.767, 1371.609
1112.000, 1023.375
1113.233, 1205.180
1114.466, 917.039
1115.698, 688.934
1116.930, 711.059
1118.163, 483.227
1119.394, 805.438
1120.626, 597.707
1121.858, 980.027
1123.089, 1152.398
1124.320, 734.836
1125.551, 497.332
1126.782, 639.902
1128.013, 222.551
1129.243, 445.277
1130.473, 248.105
1131.703, 251.023
1132.933, 364.055
1134.163, 267.199
1135.392, 350.461
1136.621, 323.840
1137.850, 52.648
1139.079, 451.000
1140.308, 35.188
1141.536, 368.781
1142.765, 362.918
1143.993, 57.223
1145.221, 391.703
1146.448, 56.367
1147.676, 281.223
1148.903, 346.277
1150.130, 111.551
1151.357, 237.059
1152.584, 462.820
1153.810, 68.855
1155.037, 365.188
1156.263, 251.840
1157.489, 40.289
1158.715, 463.852
1159.940, 229.219
1161.166, 73.938
1162.391, 338.227
1163.616, 16.648
1164.841, 578.180
1166.065, 10.426
1167.290, 60.570
1168.514, 386.992
1169.738, 50.418
1170.962, 295.238
1172.185, 163.980
1173.409, 0.023
1174.632, 482.672
1175.855, 0.000
##END=



