##NAMES=Montebrasite
##RRUFFID=R040060
##IDEAL CHEMISTRY=LiAlPO_4_(OH)
##LOCALITY=Oxford County, Maine, USA
##OWNER=RRUFF
##SOURCE=University of Arizona Mineral Museum
##DESCRIPTION=White massive
##STATUS=The identification of this mineral has been confirmed by X-ray diffraction and chemical analysis
##URL=rruff.info/R040060
##MEASURED CHEMISTRY=LiAl(PO_4_)((OH)_0.79_F_0.21_)
##PIN_ID=L00066
##ORIENTATION=Laser parallel to (0 -1 -1). Fiducial mark perpendicular to laser is parallel to a [1 0 0]
136.460, 0.000
137.850, 72.221
139.240, 312.000
140.630, 76.359
142.020, 254.916
143.410, 159.638
144.799, 175.226
146.188, 1.496
147.577, 142.821
148.965, 68.045
150.354, 25.939
151.742, 150.774
153.130, 48.110
154.517, 146.004
155.905, 134.400
157.292, 113.255
158.679, 212.529
160.066, 172.187
161.452, 512.193
162.839, 752.520
164.225, 453.137
165.611, 444.027
166.996, 445.176
168.381, 486.559
169.767, 598.170
171.152, 619.992
172.536, 612.016
173.921, 514.230
175.305, 586.625
176.689, 619.193
178.073, 571.928
179.456, 434.814
180.839, 567.848
182.222, 551.012
183.605, 534.291
184.988, 567.680
186.370, 631.178
187.752, 634.771
189.134, 598.465
190.516, 502.244
191.898, 536.115
193.279, 550.096
194.660, 674.188
196.041, 498.354
197.421, 482.604
198.801, 526.934
200.182, 421.352
201.561, 395.850
202.941, 250.430
204.321, 215.086
205.700, 259.818
207.079, 254.625
208.457, 179.502
209.836, 104.447
211.214, 119.461
212.592, 264.541
213.970, 149.682
215.348, 174.883
216.725, 180.162
218.102, 175.510
219.479, 240.916
220.856, 106.359
222.232, 181.824
223.608, 297.293
224.984, 252.734
226.360, 198.166
227.736, 323.592
229.111, 219.031
230.486, 184.492
231.861, 239.975
233.236, 175.480
234.610, 391.012
235.984, 226.566
237.358, 172.146
238.732, 167.752
240.105, 153.387
241.479, 269.047
242.852, 54.734
244.224, 80.449
245.597, 76.191
246.969, 182.000
248.342, 107.836
249.713, 115.781
251.085, 151.646
252.457, 107.547
253.828, 63.486
255.199, 9.523
256.570, 35.648
257.940, 61.852
259.310, 108.129
260.681, 114.496
262.050, 160.906
263.420, 57.338
264.790, 313.879
266.159, 230.438
267.528, 407.018
268.896, 443.619
270.265, 540.240
271.633, 656.887
273.001, 763.549
274.369, 860.230
275.737, 916.930
277.104, 783.660
278.471, 870.408
279.838, 727.186
281.205, 803.996
282.572, 720.830
283.938, 767.678
285.304, 564.539
286.670, 771.416
288.035, 568.305
289.401, 765.209
290.766, 872.125
292.131, 1119.055
293.495, 1405.998
294.860, 1884.105
296.224, 2241.064
297.588, 2728.035
298.952, 2906.100
300.315, 2893.088
301.679, 2729.920
303.042, 2276.578
304.405, 1883.494
305.767, 1709.734
307.130, 1385.693
308.492, 1251.398
309.854, 1137.180
311.216, 1091.059
312.578, 1056.975
313.939, 1042.752
315.300, 856.217
316.661, 812.297
318.021, 798.266
319.382, 854.443
320.742, 760.664
322.102, 686.926
323.462, 713.229
324.821, 509.566
326.181, 555.943
327.540, 512.355
328.899, 408.799
330.257, 325.275
331.616, 401.781
332.974, 228.316
334.332, 244.881
335.690, 261.475
337.047, 58.092
338.405, 194.734
339.762, 161.402
341.119, 108.094
342.475, 144.809
343.832, 141.543
345.188, 228.301
346.544, 115.080
347.900, 241.881
349.255, 188.699
350.610, 85.537
351.965, 172.398
353.320, 29.279
354.675, 19.055
356.029, 165.979
357.384, 42.920
358.738, 119.879
360.091, 73.133
361.445, 163.924
362.798, 210.967
364.151, 28.029
365.504, 105.680
366.857, 142.816
368.209, 120.652
369.561, 177.781
370.913, 260.574
372.265, 207.965
373.617, 159.840
374.968, 298.279
376.319, 175.480
377.670, 209.834
379.021, 187.242
380.371, 136.336
381.721, 228.127
383.071, 105.783
384.421, 134.846
385.770, 112.264
387.120, 189.561
388.469, 337.037
389.818, 92.428
391.166, 199.762
392.515, 287.104
393.863, 74.605
395.211, 102.352
396.559, 279.914
397.906, 197.303
399.254, 74.752
400.601, 322.641
401.948, 190.391
403.294, 208.162
404.641, 305.709
405.987, 253.141
407.333, 380.588
408.679, 288.127
410.025, 285.588
411.370, 73.264
412.715, 151.078
414.060, 299.355
415.405, 257.217
416.749, 194.893
418.093, 382.785
419.437, 330.303
420.781, 639.984
422.125, 847.516
423.468, 1146.223
424.811, 1683.832
426.154, 2051.547
427.497, 2219.109
428.839, 2086.676
430.182, 1534.240
431.524, 1381.809
432.866, 919.498
434.207, 677.066
435.549, 504.635
436.890, 432.205
438.231, 329.785
439.572, 327.385
440.912, 254.984
442.252, 342.582
443.593, 250.209
444.932, 87.836
446.272, 95.469
447.611, 153.119
448.951, 39.232
450.290, 88.408
451.628, 216.043
452.967, 183.678
454.305, 121.309
455.644, 278.947
456.981, 46.574
458.319, 35.803
459.657, 261.828
460.994, 79.762
462.331, 307.383
463.668, 154.996
465.004, 17.391
466.341, 140.217
467.677, 117.822
469.013, 185.430
470.348, 213.037
471.684, 550.643
473.019, 228.258
474.354, 325.869
475.689, 263.484
477.024, 581.105
478.358, 628.727
479.692, 616.346
481.026, 753.957
482.360, 861.570
483.694, 789.176
485.027, 816.777
486.360, 764.375
487.693, 871.967
489.026, 729.555
490.358, 737.137
491.691, 764.711
493.023, 452.283
494.354, 639.846
495.686, 567.400
497.017, 464.951
498.349, 592.494
499.680, 630.027
501.010, 497.553
502.341, 315.072
503.671, 352.584
505.001, 460.084
506.331, 217.580
507.661, 305.117
508.990, 142.592
510.319, 340.807
511.648, 228.564
512.977, 176.693
514.306, 55.223
515.634, 223.320
516.962, 91.158
518.290, 78.930
519.618, 66.883
520.945, 52.910
522.273, 270.164
523.600, 148.969
524.927, 3.607
526.253, 74.051
527.580, 6.629
528.906, 121.799
530.232, 89.818
531.558, 38.299
532.883, 73.625
534.208, 16.338
535.534, 181.424
536.858, 110.916
538.183, 56.574
539.508, 25.576
540.832, 67.992
542.156, 9.357
543.480, 23.154
544.803, 74.545
546.127, 204.404
547.450, 71.826
548.773, 120.969
550.096, 277.879
551.418, 165.127
552.741, 82.469
554.063, 32.238
555.385, 79.182
556.706, 167.223
558.028, 114.045
559.349, 11.318
560.670, 48.645
561.991, 45.604
563.312, 102.822
564.632, 209.539
565.952, 177.938
567.272, 115.438
568.592, 292.648
569.911, 90.379
571.231, 57.033
572.550, 4.658
573.869, 51.482
575.187, 98.057
576.506, 61.822
577.824, 168.350
579.142, 12.977
580.460, 243.484
581.778, 6.047
583.095, 152.734
584.412, 129.115
585.729, 245.941
587.046, 262.820
588.363, 339.203
589.679, 406.146
590.995, 142.547
592.311, 418.910
593.627, 466.066
594.942, 302.447
596.258, 491.523
597.573, 812.342
598.888, 629.240
600.202, 925.773
601.517, 998.080
602.831, 1135.484
604.145, 1083.420
605.459, 734.104
606.772, 680.377
608.086, 665.176
609.399, 671.252
610.712, 617.334
612.024, 473.545
613.337, 461.717
614.649, 357.607
615.961, 323.879
617.273, 481.879
618.585, 137.869
619.896, 314.338
621.208, 699.959
622.519, 416.006
623.829, 581.590
625.140, 657.188
626.450, 822.914
627.761, 808.383
629.071, 973.828
630.380, 1079.361
631.690, 1144.738
632.999, 1060.086
634.308, 835.594
635.617, 850.875
636.926, 946.125
638.235, 1081.344
639.543, 1186.531
640.851, 1361.686
642.159, 1896.809
643.466, 2311.898
644.774, 2916.957
646.081, 3201.980
647.388, 3066.973
648.695, 2521.934
650.002, 2206.861
651.308, 1711.756
652.614, 1126.619
653.920, 1091.447
655.226, 1236.242
656.531, 601.006
657.837, 425.734
659.142, 390.432
660.447, 285.094
661.752, 379.721
663.056, 254.316
664.360, 228.875
665.664, 263.402
666.968, 79.449
668.272, 174.066
669.575, 88.977
670.879, 93.355
672.182, 45.492
673.484, 140.543
674.787, 155.121
676.089, 109.336
677.392, 223.496
678.694, 106.723
679.995, 42.785
681.297, 247.684
682.598, 194.789
683.899, 28.645
685.200, 71.344
686.501, 83.566
687.802, 102.055
689.102, 107.246
690.402, 406.387
691.702, 148.938
693.002, 175.695
694.301, 192.234
695.600, 106.434
696.899, 158.051
698.198, 197.516
699.497, 160.852
700.795, 102.414
702.093, 6.168
703.391, 159.426
704.689, 218.977
705.987, 24.543
707.284, 177.719
708.581, 151.277
709.878, 4.168
711.175, 237.004
712.472, 51.953
713.768, 304.852
715.064, 147.977
716.360, 130.309
717.656, 212.754
718.951, 145.336
720.247, 338.539
721.542, 31.441
722.837, 84.340
724.131, 146.305
725.426, 68.828
726.720, 301.105
728.014, 73.199
729.308, 214.887
730.601, 296.863
731.895, 60.957
733.188, 330.891
734.481, 23.078
735.774, 273.062
737.067, 44.840
738.359, 196.215
739.651, 418.250
740.943, 150.027
742.235, 131.914
743.526, 243.762
744.818, 105.578
746.109, 227.344
747.400, 228.953
748.691, 70.699
749.981, 212.352
751.271, 3.965
752.562, 24.492
753.851, 86.984
755.141, 148.414
756.431, 50.191
757.720, 41.109
759.009, 22.363
760.298, 26.438
761.587, 174.684
762.875, 255.762
764.163, 206.816
765.451, 197.867
766.739, 158.844
768.027, 9.789
769.314, 220.672
770.601, 121.523
771.888, 7.672
773.175, 173.078
774.462, 73.477
775.748, 244.145
777.034, 134.777
778.320, 125.371
779.606, 225.934
780.892, 186.461
782.177, 276.949
783.462, 237.402
784.747, 207.820
786.032, 338.207
787.317, 298.559
788.601, 188.875
789.885, 249.160
791.169, 249.406
792.453, 319.621
793.736, 319.805
795.019, 469.957
796.303, 400.074
797.585, 560.156
798.868, 490.211
800.151, 550.234
801.433, 660.406
802.715, 570.359
803.997, 710.281
805.279, 710.172
806.560, 540.031
807.841, 629.863
809.122, 599.656
810.403, 379.422
811.684, 669.160
812.964, 278.863
814.245, 678.539
815.525, 468.184
816.804, 257.797
818.084, 487.379
819.363, 506.887
820.643, 6.414
821.922, 165.152
823.201, 84.312
824.479, 243.059
825.758, 51.812
827.036, 40.051
828.314, 118.957
829.592, 247.887
830.869, 236.598
832.147, 64.242
833.424, 64.926
834.701, 12.777
835.977, 38.180
837.254, 230.574
838.530, 132.371
839.807, 114.508
841.082, 83.328
842.358, 8.637
843.634, 129.395
844.909, 128.164
846.184, 33.586
847.459, 134.715
848.734, 3.117
850.008, 161.121
851.283, 29.352
852.557, 77.754
853.831, 175.984
855.105, 23.945
856.378, 219.680
857.651, 92.199
858.925, 36.098
860.197, 132.664
861.470, 30.785
862.743, 208.770
864.015, 84.281
865.287, 27.426
866.559, 139.680
867.831, 57.957
869.102, 275.738
870.373, 143.426
871.645, 81.434
872.915, 0.859
874.186, 67.301
875.457, 53.734
876.727, 148.969
877.997, 188.566
879.267, 185.543
880.536, 183.551
881.806, 90.543
883.075, 338.297
884.344, 96.246
885.613, 156.965
886.882, 284.883
888.150, 120.609
889.419, 158.496
890.687, 40.238
891.954, 57.809
893.222, 85.648
894.490, 152.996
895.757, 170.246
897.024, 147.953
898.291, 185.059
899.557, 482.668
900.824, 60.270
902.090, 267.035
903.356, 414.539
904.622, 289.305
905.888, 512.281
907.153, 219.145
908.418, 56.328
909.683, 217.695
910.948, 243.922
912.213, 359.582
913.477, 182.449
914.741, 289.688
916.005, 447.238
917.269, 24.590
918.533, 271.895
919.796, 39.023
921.060, 214.160
922.323, 121.535
923.585, 248.492
924.848, 112.602
926.111, 149.758
927.373, 356.402
928.635, 503.848
929.897, 120.832
931.158, 377.773
932.420, 395.129
933.681, 182.320
934.942, 529.734
936.203, 207.137
937.463, 554.410
938.724, 741.809
939.984, 169.203
941.244, 446.402
942.504, 233.789
943.764, 441.176
945.023, 98.566
946.282, 85.949
947.541, 313.336
948.800, 440.719
950.059, 78.109
951.317, 495.496
952.575, 17.113
953.833, 480.277
955.091, 277.676
956.349, 295.074
957.606, 432.480
958.864, 69.895
960.121, 277.312
961.377, 424.738
962.634, 522.180
963.891, 799.625
965.147, 967.082
966.403, 1104.547
967.659, 1112.031
968.914, 669.527
970.170, 767.039
971.425, 574.570
972.680, 450.562
973.935, 767.973
975.190, 435.070
976.444, 622.691
977.698, 619.664
978.952, 526.586
980.206, 903.969
981.460, 611.719
982.713, 919.500
983.967, 973.387
985.220, 635.809
986.473, 1112.840
987.725, 407.102
988.978, 895.152
990.230, 1033.691
991.482, 973.453
992.734, 1091.328
993.986, 1307.945
995.237, 1006.059
996.488, 1324.898
997.739, 1260.152
998.990, 1448.508
1000.241, 1496.207
1001.492, 1634.727
1002.742, 2112.707
1003.992, 2360.984
1005.242, 2817.719
1006.492, 3198.430
1007.741, 3495.160
1008.990, 3901.926
1010.239, 4406.664
1011.488, 4473.562
1012.737, 4820.789
1013.986, 4387.125
1015.234, 4203.762
1016.482, 3930.617
1017.730, 3237.727
1018.978, 2814.727
1020.225, 2601.793
1021.473, 2158.945
1022.720, 2015.906
1023.967, 1892.980
1025.213, 1630.184
1026.460, 1617.379
1027.706, 1344.516
1028.953, 1561.715
1030.198, 1628.969
1031.444, 1296.242
1032.690, 1613.594
1033.935, 1511.000
1035.180, 1788.430
1036.425, 1755.828
1037.670, 1843.285
1038.915, 2010.754
1040.159, 2468.281
1041.403, 2825.812
1042.647, 3373.359
1043.891, 3260.914
1045.135, 3568.480
1046.378, 3826.051
1047.621, 3533.633
1048.864, 3591.215
1050.107, 3338.805
1051.350, 3246.406
1052.592, 3354.008
1053.835, 3251.336
1055.077, 3558.949
1056.318, 3666.570
1057.560, 4074.199
1058.802, 4351.824
1060.043, 4219.465
1061.284, 4447.105
1062.525, 4014.746
1063.765, 3162.422
1065.006, 2900.102
1066.246, 2407.801
1067.486, 1965.504
1068.726, 1733.238
1069.966, 1261.082
1071.205, 1208.988
1072.445, 1287.109
1073.684, 885.309
1074.923, 1023.512
1076.161, 701.754
1077.400, 1070.000
1078.638, 618.242
1079.876, 676.570
1081.114, 955.008
1082.352, 583.555
1083.590, 652.156
1084.827, 590.926
1086.064, 499.863
1087.301, 648.867
1088.538, 357.949
1089.775, 467.109
1091.011, 686.348
1092.247, 255.668
1093.483, 385.070
1094.719, 584.551
1095.955, 264.129
1097.190, 363.789
1098.425, 433.547
1099.660, 483.402
1100.895, 553.367
1102.130, 303.434
1103.364, 873.633
1104.598, 463.965
1105.833, 804.426
1107.066, 1225.039
1108.300, 865.809
1109.534, 1086.750
1110.767, 1177.875
1112.000, 789.188
1113.233, 1050.695
1114.466, 742.402
1115.698, 434.332
1116.930, 766.496
1118.163, 488.906
1119.394, 331.570
1120.626, 684.496
1121.858, 647.703
1123.089, 1371.211
1124.320, 1075.039
1125.551, 529.219
1126.782, 943.773
1128.013, 158.734
1129.243, 384.141
1130.473, 220.027
1131.703, 53.562
1132.933, 203.418
1134.163, 121.023
1135.392, 49.312
1136.621, 328.355
1137.850, 8.246
1139.079, 129.078
1140.308, 410.977
1141.536, 294.082
1142.765, 270.367
1143.993, 7.895
1145.221, 254.117
1146.448, 25.641
1147.676, 219.051
1148.903, 235.363
1150.130, 295.492
1151.357, 0.000
##END=



