##NAMES=Montebrasite
##RRUFFID=R040062
##IDEAL CHEMISTRY=LiAlPO_4_(OH)
##LOCALITY=Hebron, Maine, USA
##OWNER=RRUFF
##SOURCE=University of Arizona Mineral Museum
##DESCRIPTION=White massive
##STATUS=The identification of this mineral has been confirmed by X-ray diffraction and chemical analysis
##URL=rruff.info/R040062
##MEASURED CHEMISTRY=LiAl(PO_4_)((OH)_0.62_F_0.38_)
##PIN_ID=L00090
##ORIENTATION=Laser parallel to -b* (0 -1 0). Fiducial mark perpendicular to laser is parallel to c [0 0 1]
131.469, 0.000
132.862, 275.029
134.256, 118.519
135.649, 84.675
137.042, 228.086
138.435, 208.010
139.827, 6.061
141.219, 41.434
142.611, 10.230
144.003, 70.125
145.394, 9.040
146.786, 62.686
148.177, 75.185
149.567, 168.343
150.958, 82.073
152.348, 196.311
153.738, 161.002
155.128, 336.101
156.517, 391.565
157.907, 587.362
159.296, 653.552
160.685, 910.524
162.073, 1027.722
163.462, 1435.090
164.850, 1432.624
166.237, 1560.324
167.625, 1708.185
169.012, 1766.204
170.400, 1924.380
171.786, 1622.706
173.173, 1441.180
174.559, 1259.788
175.946, 1268.521
177.332, 1257.370
178.717, 1036.329
180.103, 985.390
181.488, 964.548
182.873, 943.800
184.258, 773.142
185.642, 872.607
187.026, 685.375
188.410, 712.848
189.794, 584.099
191.178, 543.586
192.561, 417.394
193.944, 326.146
195.327, 162.583
196.709, 182.440
198.092, 132.402
199.474, 182.467
200.856, 132.631
202.237, 162.381
203.618, 43.240
205.000, 223.678
206.380, 124.201
207.761, 174.805
209.142, 85.486
210.522, 286.244
211.902, 427.070
213.281, 267.965
214.661, 438.912
216.040, 359.859
217.419, 480.816
218.798, 331.779
220.176, 332.750
221.554, 423.744
222.932, 314.756
224.310, 295.795
225.688, 116.857
227.065, 197.953
228.442, 129.074
229.819, 310.230
231.196, 221.416
232.572, 122.633
233.948, 163.877
235.324, 75.154
236.700, 96.461
238.075, 48.967
239.450, 130.471
240.825, 41.857
242.200, 56.727
243.574, 134.721
244.948, 103.801
246.322, 97.707
247.696, 40.752
249.070, 40.832
250.443, 22.461
251.816, 14.141
253.189, 75.869
254.561, 47.639
255.933, 169.559
257.306, 191.596
258.677, 213.791
260.049, 386.131
261.420, 458.559
262.791, 561.115
264.162, 763.764
265.533, 1066.438
266.903, 1269.145
268.274, 1661.883
269.643, 2124.645
271.013, 2547.418
272.383, 2760.195
273.752, 2983.000
275.121, 2905.838
276.490, 2738.684
277.858, 2611.547
279.226, 2394.426
280.595, 2127.320
281.962, 2000.229
283.330, 1763.145
284.697, 1646.070
286.064, 1779.004
287.431, 1771.945
288.798, 1994.895
290.164, 2287.852
291.530, 2880.814
292.896, 3783.785
294.262, 4326.758
295.627, 5729.736
296.993, 6871.023
298.358, 7712.402
299.722, 7933.828
301.087, 7735.246
302.451, 6716.758
303.815, 5668.334
305.179, 4819.480
306.543, 3981.211
307.906, 3333.012
309.269, 2964.875
310.632, 2666.572
311.995, 2398.547
313.357, 2160.572
314.719, 1854.324
316.081, 1674.766
317.443, 1266.926
318.804, 1119.125
320.166, 821.365
321.527, 723.641
322.887, 575.951
324.248, 538.295
325.608, 590.668
326.968, 313.066
328.328, 545.496
329.688, 327.951
331.047, 280.430
332.406, 282.936
333.765, 185.467
335.124, 258.016
336.482, 300.590
337.840, 153.186
339.198, 155.801
340.556, 38.438
341.913, 71.094
343.271, 46.232
344.628, 146.459
345.984, 10.832
347.341, 211.893
348.697, 54.637
350.053, 87.396
351.409, 140.158
352.765, 92.898
354.120, 25.648
355.475, 208.414
356.830, 161.197
358.185, 194.000
359.539, 6.986
360.894, 229.814
362.248, 193.117
363.601, 125.971
364.955, 170.746
366.308, 104.033
367.661, 136.926
369.014, 157.682
370.367, 216.092
371.719, 229.328
373.071, 272.264
374.423, 316.268
375.775, 199.395
377.126, 233.004
378.478, 222.723
379.828, 337.729
381.179, 230.840
382.530, 241.992
383.880, 243.051
385.230, 183.334
386.580, 226.764
387.929, 160.488
389.279, 190.238
390.628, 378.535
391.977, 281.430
393.325, 215.969
394.674, 381.123
396.022, 264.895
397.370, 238.061
398.718, 202.256
400.065, 257.121
401.413, 160.311
402.760, 145.951
404.106, 289.193
405.453, 102.564
406.799, 166.854
408.146, 168.719
409.491, 222.221
410.837, 25.078
412.182, 28.391
413.528, 175.479
414.873, 69.117
416.217, 192.715
417.562, 306.100
418.906, 469.480
420.250, 648.424
421.594, 646.682
422.938, 1120.936
424.281, 1234.398
425.624, 1608.395
426.967, 1511.854
428.310, 1335.549
429.652, 878.994
430.994, 772.434
432.336, 585.867
433.678, 409.293
435.020, 182.711
436.361, 326.125
437.702, 349.525
439.043, 312.924
440.383, 196.311
441.724, 459.688
443.064, 243.057
444.404, 316.416
445.743, 299.766
447.083, 123.105
448.422, 156.436
449.761, 299.758
451.100, 213.066
452.438, 456.365
453.777, 259.652
455.115, 402.930
456.453, 176.197
457.790, 179.453
459.128, 462.703
460.465, 335.949
461.802, 369.193
463.139, 462.430
464.475, 405.662
465.811, 458.887
467.147, 432.111
468.483, 675.326
469.819, 688.537
471.154, 991.740
472.489, 1064.936
473.824, 988.123
475.159, 1201.301
476.493, 1514.469
477.827, 1767.629
479.161, 1940.779
480.495, 2183.920
481.829, 2207.049
483.162, 2310.168
484.495, 2293.275
485.828, 1956.371
487.161, 2489.457
488.493, 2012.529
489.825, 1945.588
491.157, 2068.635
492.489, 1861.672
493.820, 1714.693
495.151, 1767.703
496.482, 1360.697
497.813, 1523.680
499.144, 1396.645
500.474, 1279.598
501.804, 1032.537
503.134, 945.461
504.464, 827.611
505.793, 740.807
507.123, 843.586
508.451, 536.445
509.780, 729.291
511.109, 622.119
512.437, 264.932
513.765, 407.727
515.093, 340.971
516.421, 303.730
517.748, 267.486
519.075, 110.213
520.402, 192.922
521.729, 45.611
523.055, 428.281
524.382, 9.070
525.708, 63.551
527.034, 286.246
528.359, 148.955
529.685, 28.486
531.010, 94.436
532.335, 247.564
533.659, 10.938
534.984, 133.373
536.308, 142.273
537.632, 110.029
538.956, 106.410
540.279, 155.844
541.603, 99.998
542.926, 97.807
544.249, 84.727
545.571, 97.633
546.894, 50.229
548.216, 157.781
549.538, 274.100
550.860, 123.258
552.181, 17.668
553.503, 10.039
554.824, 81.834
556.145, 234.031
557.465, 45.621
558.786, 22.352
560.106, 264.104
561.426, 6.131
562.746, 258.475
564.065, 49.891
565.385, 71.898
566.704, 53.582
568.023, 207.652
569.341, 209.301
570.660, 351.801
571.978, 2.486
573.296, 188.744
574.614, 199.943
575.931, 334.473
577.248, 335.611
578.565, 194.199
579.882, 415.273
581.199, 116.795
582.515, 442.869
583.831, 173.846
585.147, 456.240
586.463, 247.670
587.779, 438.543
589.094, 429.664
590.409, 400.803
591.724, 741.611
593.038, 672.832
594.353, 883.578
595.667, 1334.457
596.981, 1555.279
598.295, 1785.928
599.608, 2356.543
600.922, 2627.127
602.235, 2907.982
603.547, 2528.498
604.860, 2068.982
606.172, 1899.562
607.485, 1589.992
608.797, 1190.379
610.108, 1180.730
611.420, 1121.047
612.731, 1021.332
614.042, 1057.859
615.353, 891.799
616.664, 1081.980
617.974, 982.129
619.284, 962.244
620.594, 1342.324
621.904, 1212.369
623.213, 1622.424
624.523, 1792.443
625.832, 2242.428
627.141, 2662.377
628.449, 3072.293
629.758, 3502.176
631.066, 3552.021
632.374, 3071.832
633.681, 2661.609
634.989, 2511.352
636.296, 2511.057
637.603, 2250.727
638.910, 2390.363
640.217, 2929.965
641.523, 3689.529
642.829, 4019.059
644.135, 5248.551
645.441, 5268.010
646.747, 5097.434
648.052, 4596.822
649.357, 3766.174
650.662, 2905.490
651.967, 2044.773
653.271, 1964.020
654.575, 1393.229
655.879, 1272.402
657.183, 1031.539
658.486, 910.643
659.790, 669.709
661.093, 768.742
662.396, 267.738
663.698, 646.697
665.001, 425.621
666.303, 424.533
667.605, 463.410
668.907, 622.252
670.209, 491.057
671.510, 229.826
672.811, 438.553
674.112, 147.246
675.413, 545.893
676.713, 374.332
678.013, 382.908
679.313, 390.990
680.613, 389.494
681.913, 387.465
683.212, 315.488
684.511, 307.803
685.810, 372.176
687.109, 237.211
688.407, 185.186
689.706, 153.426
691.004, 460.568
692.302, 88.559
693.599, 476.035
694.897, 117.906
696.194, 307.477
697.491, 82.654
698.788, 338.975
700.084, 138.844
701.380, 241.605
702.677, 179.043
703.972, 316.150
705.268, 302.035
706.564, 139.754
707.859, 72.396
709.154, 96.270
710.449, 259.678
711.743, 157.246
713.037, 514.615
714.332, 9.055
715.626, 236.533
716.919, 163.758
718.213, 101.502
719.506, 605.561
720.799, 96.260
722.092, 209.650
723.384, 35.197
724.677, 201.820
725.969, 88.410
727.261, 6.059
728.553, 378.975
729.844, 305.303
731.136, 138.355
732.427, 328.109
733.718, 45.453
735.008, 620.504
736.299, 166.812
737.589, 167.762
738.879, 308.355
740.169, 73.902
741.458, 149.945
742.748, 305.713
744.037, 219.131
745.326, 205.080
746.614, 391.000
747.903, 166.889
749.191, 392.746
750.479, 228.572
751.767, 234.838
753.055, 400.607
754.342, 316.346
755.629, 352.061
756.916, 187.742
758.203, 383.396
759.490, 299.021
760.776, 224.861
762.062, 250.436
763.348, 325.979
764.634, 301.496
765.919, 286.984
767.204, 442.445
768.489, 257.887
769.774, 263.297
771.059, 678.680
772.343, 294.039
773.627, 249.371
774.911, 494.684
776.195, 349.969
777.479, 724.844
778.762, 360.078
780.045, 485.289
781.328, 580.469
782.611, 425.625
783.893, 720.758
785.175, 885.945
786.457, 931.031
787.739, 976.090
789.021, 1031.125
790.302, 906.137
791.583, 1231.133
792.864, 1316.102
794.145, 1611.043
795.425, 1645.965
796.706, 1620.863
797.986, 2295.738
799.266, 1910.594
800.545, 1715.621
801.825, 2220.430
803.104, 1995.219
804.383, 2259.992
805.662, 1884.738
806.940, 2269.469
808.219, 1994.176
809.497, 1978.863
810.775, 2023.527
812.053, 1608.172
813.330, 1622.801
814.608, 1827.410
815.885, 1112.000
817.162, 1446.262
818.438, 1490.812
819.715, 1460.754
820.991, 1383.230
822.267, 889.766
823.543, 1024.246
824.818, 728.707
826.094, 712.688
827.369, 667.117
828.644, 490.520
829.919, 874.906
831.193, 529.285
832.468, 503.645
833.742, 537.992
835.016, 12.324
836.289, 626.637
837.563, 220.836
838.836, 514.988
840.109, 219.254
841.382, 373.109
842.654, 196.723
843.927, 280.059
845.199, 364.297
846.471, 446.578
847.743, 39.168
849.014, 283.773
850.286, 92.047
851.557, 239.836
852.828, 364.199
854.099, 12.723
855.369, 381.000
856.639, 164.457
857.909, 78.477
859.179, 282.531
860.449, 115.785
861.718, 340.680
862.988, 4.113
864.257, 1.922
865.525, 621.637
866.794, 55.770
868.062, 64.723
869.331, 368.617
870.599, 202.207
871.866, 435.430
873.134, 40.430
874.401, 373.082
875.668, 96.949
876.935, 368.410
878.202, 82.258
879.468, 184.766
880.735, 604.922
882.001, 199.039
883.267, 33.156
884.532, 113.910
885.798, 208.023
887.063, 264.664
888.328, 168.781
889.593, 237.449
890.857, 211.473
892.122, 245.598
893.386, 188.266
894.650, 241.875
895.913, 154.000
897.177, 149.824
898.440, 373.598
899.703, 157.668
900.966, 451.305
902.229, 455.387
903.491, 20.695
904.754, 553.250
906.016, 67.332
907.278, 181.426
908.539, 35.527
909.801, 239.320
911.062, 393.434
912.323, 12.453
913.584, 481.535
914.844, 195.648
916.105, 399.777
917.365, 263.914
918.625, 271.809
919.885, 352.211
921.144, 246.371
922.404, 260.539
923.663, 104.715
924.922, 538.898
926.180, 173.086
927.439, 467.289
928.697, 208.496
929.955, 655.637
931.213, 409.781
932.471, 113.934
933.728, 298.102
934.985, 552.277
936.242, 3.535
937.499, 480.660
938.756, 174.867
940.012, 289.086
941.269, 503.312
942.525, 247.555
943.780, 291.805
945.036, 66.066
946.291, 370.340
947.546, 414.625
948.801, 308.926
950.056, 713.234
951.311, 12.445
952.565, 731.887
953.819, 346.230
955.073, 170.590
956.327, 384.957
957.580, 159.348
958.834, 153.742
960.087, 518.160
961.339, 242.582
962.592, 577.023
963.845, 171.484
965.097, 385.957
966.349, 190.445
967.601, 294.945
968.852, 559.469
970.104, 155.949
971.355, 388.602
972.606, 383.168
973.857, 197.754
975.107, 322.355
976.358, 476.973
977.608, 481.609
978.858, 706.266
980.108, 360.941
981.357, 515.645
982.607, 950.359
983.856, 275.094
985.105, 1349.848
986.353, 623.215
987.602, 1028.008
988.850, 1512.824
990.098, 1057.660
991.346, 1532.516
992.594, 1777.391
993.841, 1672.297
995.089, 2337.219
996.336, 2302.172
997.583, 3167.152
998.829, 3208.070
1000.076, 3473.102
1001.322, 4680.855
1002.568, 5089.422
1003.814, 5714.523
1005.060, 6337.504
1006.305, 6532.656
1007.550, 7387.828
1008.795, 7902.961
1010.040, 7588.172
1011.285, 8033.414
1012.529, 7103.438
1013.773, 6878.297
1015.017, 6231.223
1016.261, 5626.633
1017.505, 4942.047
1018.748, 4247.520
1019.991, 3783.016
1021.234, 3318.531
1022.477, 2718.199
1023.719, 2580.258
1024.962, 2645.379
1026.204, 2351.074
1027.446, 2386.809
1028.688, 2374.020
1029.929, 2248.898
1031.170, 2844.730
1032.411, 2680.582
1033.652, 3416.465
1034.893, 3102.422
1036.134, 3738.406
1037.374, 4124.449
1038.614, 4450.516
1039.854, 4566.609
1041.094, 5642.793
1042.333, 5349.000
1043.572, 5955.242
1044.811, 6151.512
1046.050, 5820.375
1047.289, 6396.703
1048.527, 6223.062
1049.766, 5899.445
1051.004, 6085.863
1052.241, 5992.301
1053.479, 5858.305
1054.717, 6064.809
1055.954, 6521.332
1057.191, 7037.898
1058.428, 6144.488
1059.664, 6981.109
1060.901, 6517.762
1062.137, 5724.195
1063.373, 5150.910
1064.609, 3917.652
1065.844, 3734.426
1067.080, 2681.230
1068.315, 2348.070
1069.550, 2384.941
1070.785, 1961.844
1072.019, 1618.777
1073.254, 1545.738
1074.488, 1122.738
1075.722, 1369.770
1076.955, 1136.836
1078.189, 1044.316
1079.422, 1271.449
1080.656, 878.617
1081.889, 895.820
1083.121, 1003.059
1084.354, 680.285
1085.586, 877.398
1086.818, 934.617
1088.050, 1131.871
1089.282, 809.121
1090.514, 516.219
1091.745, 883.336
1092.976, 1370.484
1094.207, 607.660
1095.438, 1114.867
1096.668, 992.109
1097.899, 1459.387
1099.129, 1616.691
1100.359, 1343.844
1101.588, 2111.219
1102.818, 1808.625
1104.047, 2346.062
1105.276, 3043.535
1106.505, 3081.039
1107.734, 3118.578
1108.962, 3556.148
1110.191, 3063.754
1111.419, 3471.391
1112.647, 3679.062
1113.874, 3096.766
1115.102, 3414.504
1116.329, 2932.270
1117.556, 2990.793
1118.783, 3133.215
1120.010, 2311.082
1121.236, 2788.980
1122.463, 2556.922
1123.689, 2124.910
1124.914, 2292.945
1126.140, 1421.031
1127.366, 1969.164
1128.591, 1317.348
1129.816, 1405.578
1131.041, 1293.863
1132.266, 1042.211
1133.490, 1280.605
1134.714, 1179.074
1135.938, 627.227
1137.162, 1185.418
1138.386, 523.648
1139.609, 911.914
1140.833, 880.215
1142.056, 128.539
1143.279, 868.434
1144.501, 317.246
1145.724, 795.695
1146.946, 674.172
1148.168, 82.699
1149.390, 501.031
1150.612, 669.477
1151.833, 248.332
1153.054, 505.844
1154.275, 194.055
1155.496, 192.320
1156.717, 330.613
1157.937, 278.910
1159.158, 132.773
1160.378, 555.590
1161.598, 196.008
1162.817, 482.359
1164.037, 310.691
1165.256, 109.102
1166.475, 377.617
1167.694, 66.180
1168.913, 115.215
1170.131, 593.441
1171.349, 347.855
1172.567, 530.895
1173.785, 429.766
1175.003, 51.312
1176.220, 297.648
1177.438, 366.676
1178.655, 265.750
1179.872, 714.867
1181.088, 374.035
1182.305, 813.250
1183.521, 492.516
1184.737, 521.840
1185.953, 581.203
1187.169, 770.621
1188.384, 750.082
1189.599, 1199.707
1190.814, 189.379
1192.029, 849.109
1193.244, 1048.891
1194.459, 478.719
1195.673, 868.613
1196.887, 1038.562
1198.101, 618.574
1199.314, 1168.648
1200.528, 288.789
1201.741, 1288.992
1202.954, 1269.258
1204.167, 539.586
1205.380, 1309.980
1206.592, 850.434
1207.805, 450.949
1209.017, 961.422
1210.229, 522.004
1211.440, 922.645
1212.652, 833.344
1213.863, 444.113
1215.074, 784.941
1216.285, 1035.832
1217.496, 496.781
1218.707, 917.805
1219.917, 788.895
1221.127, 850.047
1222.337, 991.246
1223.547, 662.520
1224.756, 613.871
1225.966, 895.297
1227.175, 586.824
1228.384, 688.453
1229.592, 320.195
1230.801, 793.953
1232.009, 1145.395
1233.217, 196.930
1234.425, 759.273
1235.633, 398.445
1236.841, 655.816
1238.048, 466.602
1239.255, 257.438
1240.462, 948.324
1241.669, 599.254
1242.876, 420.234
1244.082, 831.262
1245.288, 642.316
1246.494, 283.410
1247.700, 764.531
1248.906, 525.676
1250.111, 246.844
1251.316, 928.027
1252.521, 469.215
1253.726, 670.406
1254.931, 781.594
1256.135, 562.766
1257.339, 603.918
1258.543, 555.035
1259.747, 826.109
1260.951, 977.121
1262.154, 161.938
1263.357, 1018.906
1264.560, 750.367
1265.763, 82.125
1266.966, 805.078
1268.168, 509.176
1269.371, 593.484
1270.573, 808.012
1271.775, 312.785
1272.976, 757.832
1274.178, 233.180
1275.379, 828.875
1276.580, 334.973
1277.781, 261.547
1278.982, 868.680
1280.182, 588.148
1281.383, 130.285
1282.583, 292.246
1283.783, 583.645
1284.982, 254.164
1286.182, 283.402
1287.381, 9.277
1288.580, 15.098
1289.779, 90.758
1290.978, 343.246
1292.177, 268.059
1293.375, 197.578
1294.573, 58.891
1295.771, 0.293
1296.969, 0.000
##END=



