##NAMES=Monticellite
##RRUFFID=R040115
##IDEAL CHEMISTRY=CaMgSiO_4_
##LOCALITY=Magnet Cove, Arkansas, USA
##OWNER=RRUFF
##SOURCE=University of Arizona Mineral Museum
##DESCRIPTION=Brown blebs in matrix
##STATUS=The identification of this mineral has been confirmed by X-ray diffraction and chemical analysis
##URL=rruff.info/R040115
##MEASURED CHEMISTRY=Ca_0.99_(Mg_0.85_ Fe_0.12_Mn_0.03_)Si_1.00_O_4_
##PIN_ID=M00451
##ORIENTATION=Laser parallel to c* (0 0 1). Fiducial mark perpendicular to laser is parallel to -a [-1 0 0]
113.559, 0.000
114.949, 0.017
116.339, 7.719
117.729, 84.228
119.119, 101.331
120.508, 146.492
121.897, 30.215
123.286, 150.657
124.675, 118.317
126.063, 128.582
127.452, 175.039
128.840, 158.641
130.228, 209.140
131.615, 235.486
133.003, 358.158
134.390, 363.402
135.777, 522.904
137.164, 702.417
138.550, 919.937
139.937, 1094.547
141.323, 1323.637
142.709, 1413.117
144.094, 1446.566
145.480, 1412.823
146.865, 1344.921
148.250, 1181.884
149.635, 853.528
151.019, 707.479
152.403, 675.638
153.788, 726.138
155.171, 785.020
156.555, 1152.851
157.939, 1437.585
159.322, 1849.304
160.705, 2191.014
162.088, 2418.719
163.470, 2755.425
164.853, 2893.136
166.235, 2696.719
167.617, 2372.066
168.998, 2117.865
170.380, 1844.875
171.761, 1618.959
173.142, 1325.356
174.523, 1102.547
175.904, 697.843
177.284, 498.234
178.664, 344.647
180.044, 129.081
181.424, 152.529
182.803, 106.992
184.183, 70.463
185.562, 19.062
186.940, 30.582
188.319, 3.901
189.698, 78.385
191.076, 17.130
192.454, 7.645
193.831, 4.162
195.209, 77.318
196.586, 45.792
197.963, 14.747
199.340, 71.725
200.717, 55.211
202.093, 45.717
203.470, 139.255
204.846, 109.821
206.221, 106.424
207.597, 270.076
208.972, 174.764
210.347, 57.480
211.722, 123.225
213.097, 59.994
214.472, 72.816
215.846, 149.733
217.220, 57.721
218.594, 19.279
219.967, 8.788
221.341, 32.165
222.714, 43.091
224.087, 46.021
225.460, 79.834
226.832, 82.684
228.204, 38.937
229.577, 23.866
230.948, 17.415
232.320, 13.358
233.692, 67.309
235.063, 109.150
236.434, 21.786
237.805, 23.862
239.175, 120.499
240.545, 114.761
241.916, 163.660
243.286, 163.547
244.655, 258.422
246.025, 318.284
247.394, 448.135
248.763, 619.969
250.132, 784.778
251.501, 1090.545
252.869, 1273.234
254.237, 1760.882
255.605, 2070.504
256.973, 2185.115
258.340, 2229.714
259.708, 2056.301
261.075, 1654.875
262.442, 1303.436
263.808, 1068.982
265.175, 920.516
266.541, 816.035
267.907, 856.539
269.273, 726.028
270.639, 683.502
272.004, 530.961
273.369, 568.404
274.734, 554.830
276.099, 481.240
277.463, 314.632
278.828, 398.600
280.192, 289.890
281.556, 194.379
282.919, 212.157
284.283, 212.360
285.646, 238.157
287.009, 247.258
288.372, 197.380
289.734, 302.555
291.097, 316.376
292.459, 402.741
293.821, 516.126
295.183, 526.712
296.544, 723.614
297.905, 812.356
299.266, 949.917
300.627, 1039.681
301.988, 1162.758
303.348, 1125.107
304.709, 1087.633
306.069, 873.064
307.428, 770.339
308.788, 542.775
310.147, 310.396
311.507, 330.260
312.865, 226.799
314.224, 191.388
315.583, 164.614
316.941, 102.563
318.299, 70.451
319.657, 109.864
321.015, 91.198
322.372, 82.820
323.729, 57.193
325.086, 187.381
326.443, 166.658
327.800, 134.436
329.156, 346.973
330.512, 241.145
331.868, 218.657
333.224, 258.554
334.579, 256.965
335.935, 138.080
337.290, 265.215
338.645, 148.112
339.999, 42.919
341.354, 73.245
342.708, 97.312
344.062, 99.606
345.416, 38.338
346.769, 12.332
348.123, 71.229
349.476, 53.521
350.829, 0.850
352.182, 6.197
353.534, 37.729
354.887, 28.351
356.239, 49.525
357.591, 50.372
358.942, 25.113
360.294, 49.317
361.645, 46.948
362.996, 43.643
364.347, 156.032
365.698, 48.409
367.048, 256.772
368.398, 125.122
369.748, 174.458
371.098, 198.777
372.448, 253.083
373.797, 213.373
375.146, 162.667
376.495, 188.944
377.844, 439.206
379.192, 358.468
380.540, 554.761
381.889, 443.115
383.236, 561.371
384.584, 774.062
385.932, 878.185
387.279, 928.397
388.626, 1192.246
389.973, 1585.886
391.319, 1730.039
392.666, 2296.037
394.012, 2718.276
395.358, 3397.324
396.704, 4208.351
398.049, 5060.355
399.394, 6188.349
400.740, 6976.305
402.084, 8008.238
403.429, 8664.147
404.774, 9275.038
406.118, 9127.479
407.462, 9018.794
408.806, 8018.638
410.150, 6963.462
411.493, 5654.265
412.836, 4602.047
414.179, 3567.807
415.522, 2741.547
416.865, 2358.279
418.207, 1813.990
419.549, 1472.680
420.891, 1257.349
422.233, 977.996
423.575, 898.623
424.916, 647.226
426.257, 667.809
427.598, 573.369
428.939, 431.908
430.279, 555.425
431.619, 363.919
432.959, 293.392
434.299, 277.843
435.639, 264.271
436.978, 233.676
438.318, 211.059
439.657, 190.419
440.996, 225.759
442.334, 181.078
443.673, 127.372
445.011, 52.642
446.349, 202.936
447.687, 117.151
449.024, 105.394
450.361, 110.741
451.699, 22.080
453.036, 78.398
454.372, 77.652
455.709, 46.080
457.045, 22.400
458.381, 32.844
459.717, 2.184
461.053, 31.622
462.388, 15.755
463.724, 93.087
465.059, 56.301
466.394, 5.418
467.728, 108.135
469.063, 68.122
470.397, 42.919
471.731, 30.708
473.065, 58.290
474.398, 42.719
475.732, 110.182
477.065, 97.195
478.398, 25.972
479.731, 62.747
481.063, 76.434
482.396, 46.629
483.728, 83.191
485.060, 124.998
486.391, 1.404
487.723, 43.195
489.054, 12.806
490.385, 119.344
491.716, 58.994
493.047, 44.531
494.377, 55.290
495.708, 86.771
497.038, 82.136
498.368, 25.872
499.697, 29.813
501.027, 57.705
502.356, 99.666
503.685, 67.556
505.014, 175.087
506.342, 66.807
507.671, 53.740
508.999, 21.318
510.327, 110.920
511.655, 54.863
512.982, 46.892
514.310, 211.551
515.637, 41.729
516.964, 171.024
518.291, 110.488
519.617, 303.125
520.944, 303.532
522.270, 163.681
523.596, 398.838
524.921, 462.590
526.247, 770.748
527.572, 907.284
528.897, 1172.495
530.222, 1610.334
531.547, 1810.723
532.871, 1909.495
534.196, 1589.379
535.520, 1392.214
536.844, 1230.151
538.167, 897.076
539.491, 871.258
540.814, 674.826
542.137, 679.851
543.460, 508.528
544.783, 460.929
546.105, 384.446
547.427, 399.100
548.749, 388.560
550.071, 347.340
551.393, 412.103
552.714, 510.418
554.035, 368.703
555.356, 508.844
556.677, 541.059
557.998, 541.324
559.318, 619.468
560.638, 577.909
561.958, 526.983
563.278, 444.208
564.597, 456.997
565.917, 367.967
567.236, 433.900
568.555, 542.799
569.874, 398.662
571.192, 571.550
572.511, 682.343
573.829, 600.102
575.147, 580.864
576.464, 738.551
577.782, 766.203
579.099, 815.819
580.416, 802.399
581.733, 915.945
583.050, 1046.456
584.366, 972.932
585.683, 1179.372
586.999, 985.776
588.315, 932.146
589.630, 1127.482
590.946, 940.783
592.261, 948.048
593.576, 797.278
594.891, 634.475
596.206, 603.635
597.520, 640.761
598.834, 509.852
600.148, 389.908
601.462, 427.930
602.776, 342.762
604.089, 239.233
605.402, 268.150
606.715, 237.823
608.028, 205.173
609.341, 199.977
610.653, 195.889
611.965, 203.243
613.277, 180.445
614.589, 144.638
615.901, 132.375
617.212, 148.236
618.523, 113.239
619.834, 176.996
621.145, 119.399
622.456, 139.490
623.766, 39.363
625.076, 239.282
626.386, 40.310
627.696, 202.120
629.006, 51.301
630.315, 235.961
631.624, 8.497
632.933, 127.911
634.242, 185.603
635.551, 54.509
636.859, 107.412
638.167, 46.252
639.475, 9.163
640.783, 93.919
642.090, 65.253
643.398, 102.564
644.705, 86.745
646.012, 73.384
647.318, 77.660
648.625, 56.265
649.931, 73.104
651.237, 28.392
652.543, 51.009
653.849, 59.869
655.155, 211.656
656.460, 53.646
657.765, 166.684
659.070, 88.836
660.375, 106.831
661.679, 182.230
662.984, 42.845
664.288, 76.579
665.592, 110.391
666.895, 17.563
668.199, 21.019
669.502, 33.998
670.805, 49.171
672.108, 105.575
673.411, 44.840
674.713, 39.631
676.016, 79.828
677.318, 33.531
678.620, 78.208
679.921, 61.572
681.223, 12.202
682.524, 44.817
683.825, 21.406
685.126, 77.967
686.427, 246.510
687.727, 23.031
689.028, 200.522
690.328, 64.007
691.628, 120.395
692.927, 85.774
694.227, 51.872
695.526, 168.577
696.825, 224.598
698.124, 26.748
699.423, 99.876
700.721, 33.020
702.020, 122.037
703.318, 79.072
704.616, 120.084
705.913, 38.077
707.211, 32.045
708.508, 241.989
709.805, 236.914
711.102, 37.182
712.399, 223.677
713.695, 41.482
714.992, 203.310
716.288, 40.083
717.584, 140.834
718.879, 71.567
720.175, 55.721
721.470, 295.940
722.765, 149.584
724.060, 188.210
725.355, 209.816
726.649, 90.406
727.944, 145.979
729.238, 289.535
730.532, 48.926
731.825, 341.568
733.119, 227.048
734.412, 216.510
735.705, 130.955
736.998, 255.387
738.291, 230.803
739.584, 203.203
740.876, 314.589
742.168, 333.959
743.460, 187.315
744.752, 144.657
746.043, 261.984
747.334, 331.298
748.626, 231.598
749.916, 174.884
751.207, 206.156
752.498, 252.417
753.788, 373.664
755.078, 315.897
756.368, 399.119
757.658, 241.328
758.947, 260.525
760.237, 367.660
761.526, 315.836
762.815, 492.948
764.104, 284.916
765.392, 422.854
766.680, 426.772
767.969, 205.715
769.257, 584.555
770.544, 373.241
771.832, 568.874
773.119, 422.568
774.406, 597.123
775.693, 711.940
776.980, 510.518
778.267, 573.174
779.553, 683.888
780.839, 796.958
782.125, 763.721
783.411, 877.634
784.697, 904.187
785.982, 799.565
787.267, 1002.166
788.552, 1091.803
789.837, 1163.679
791.122, 1334.940
792.406, 1300.554
793.690, 1532.218
794.974, 1676.335
796.258, 1922.055
797.542, 2272.457
798.825, 2468.094
800.108, 3085.696
801.391, 3344.249
802.674, 3940.830
803.957, 4804.291
805.239, 5457.890
806.522, 6983.086
807.804, 8222.582
809.085, 11155.167
810.367, 14346.346
811.649, 18682.902
812.930, 24613.004
814.211, 31466.748
815.492, 38090.609
816.772, 43577.797
818.053, 46330.512
819.333, 44127.148
820.613, 38421.066
821.893, 32271.377
823.173, 25469.420
824.452, 19949.996
825.732, 16442.549
827.011, 12963.502
828.290, 10818.395
829.568, 8900.957
830.847, 7656.857
832.125, 6816.622
833.403, 5819.076
834.681, 4963.960
835.959, 4678.984
837.236, 4201.832
838.514, 4211.540
839.791, 4596.701
841.068, 5195.045
842.345, 6036.812
843.621, 7734.166
844.898, 9374.380
846.174, 12099.634
847.450, 15693.766
848.726, 17988.885
850.001, 19646.721
851.277, 18774.146
852.552, 16123.089
853.827, 13354.363
855.102, 10158.917
856.376, 7969.338
857.651, 6454.592
858.925, 5292.033
860.199, 4079.146
861.473, 3255.246
862.746, 2603.771
864.020, 2505.302
865.293, 1759.949
866.566, 1746.496
867.839, 1493.966
869.112, 1434.528
870.384, 1226.767
871.656, 1178.345
872.928, 875.746
874.200, 1012.556
875.472, 799.160
876.744, 803.791
878.015, 784.433
879.286, 692.082
880.557, 815.681
881.828, 732.348
883.098, 688.061
884.369, 609.742
885.639, 683.474
886.909, 554.215
888.178, 681.967
889.448, 594.728
890.717, 836.501
891.987, 902.283
893.256, 936.077
894.524, 1294.881
895.793, 1589.694
897.061, 2253.518
898.330, 2364.352
899.598, 2348.197
900.865, 2145.053
902.133, 1523.918
903.401, 1027.795
904.668, 800.684
905.935, 657.581
907.202, 508.489
908.468, 482.409
909.735, 468.340
911.001, 420.281
912.267, 195.234
913.533, 219.199
914.799, 390.174
916.064, 138.160
917.330, 344.159
918.595, 248.170
919.860, 104.193
921.124, 248.229
922.389, 269.277
923.653, 162.340
924.918, 140.415
926.182, 234.502
927.445, 238.604
928.709, 331.720
929.972, 357.948
931.236, 385.881
932.499, 372.151
933.761, 423.323
935.024, 325.513
936.286, 308.714
937.549, 744.954
938.811, 605.206
940.073, 1194.488
941.334, 1386.780
942.596, 1985.086
943.857, 2997.408
945.118, 4108.742
946.379, 4692.116
947.640, 5088.927
948.900, 5066.367
950.161, 3958.798
951.421, 2922.172
952.681, 2301.653
953.940, 1755.147
955.200, 1343.275
956.459, 882.817
957.719, 854.370
958.978, 680.938
960.236, 453.566
961.495, 309.162
962.753, 286.779
964.012, 152.395
965.270, 32.057
966.527, 273.086
967.785, 171.801
969.043, 237.562
970.300, 20.352
971.557, 60.182
972.814, 62.021
974.071, 37.080
975.327, 133.795
976.583, 25.684
977.840, 219.605
979.095, 136.559
980.351, 73.004
981.607, 8.973
982.862, 4.211
984.117, 61.887
985.372, 298.125
986.627, 107.748
987.882, 274.510
989.136, 7.525
990.390, 76.451
991.644, 289.566
992.898, 10.596
994.152, 33.662
995.405, 131.795
996.659, 98.846
997.912, 243.041
999.165, 150.330
1000.417, 146.463
1001.670, 56.195
1002.922, 358.391
1004.174, 54.627
1005.426, 373.229
1006.678, 170.469
1007.930, 296.715
1009.181, 268.414
1010.432, 206.674
1011.683, 361.939
1012.934, 293.215
1014.185, 284.496
1015.435, 334.781
1016.685, 144.184
1017.935, 91.494
1019.185, 144.826
1020.435, 397.160
1021.684, 135.502
1022.934, 266.848
1024.183, 428.201
1025.432, 293.576
1026.680, 318.445
1027.929, 312.830
1029.177, 366.227
1030.425, 429.619
1031.673, 447.018
1032.921, 331.490
1034.169, 377.896
1035.416, 322.412
1036.663, 332.059
1037.911, 370.268
1039.157, 402.699
1040.404, 406.586
1041.650, 489.025
1042.897, 576.469
1044.143, 557.912
1045.389, 481.359
1046.634, 544.809
1047.880, 356.264
1049.125, 358.719
1050.371, 127.178
1051.615, 395.639
1052.860, 178.100
1054.105, 441.568
1055.349, 322.035
1056.593, 239.504
1057.837, 200.977
1059.081, 171.309
1060.325, 176.291
1061.568, 181.398
1062.812, 233.875
1064.055, 240.355
1065.298, 268.836
1066.540, 232.316
1067.783, 160.799
1069.025, 61.281
1070.267, 294.766
1071.509, 86.252
1072.751, 57.738
1073.993, 425.227
1075.234, 370.785
1076.475, 101.273
1077.716, 338.760
1078.957, 206.455
1080.198, 141.945
1081.438, 287.434
1082.679, 211.922
1083.919, 223.410
1085.159, 166.896
1086.398, 275.385
1087.638, 141.873
1088.877, 5.455
1090.116, 110.941
1091.355, 40.428
1092.594, 46.240
1093.833, 85.723
1095.071, 157.848
1096.309, 22.672
1097.547, 190.791
1098.785, 95.746
1100.023, 46.340
1101.260, 29.055
1102.498, 174.434
1103.735, 88.193
1104.972, 195.488
1106.208, 156.807
1107.445, 232.123
1108.681, 10.566
1109.918, 136.732
1111.154, 20.023
1112.389, 240.312
1113.625, 279.828
1114.860, 8.109
1116.096, 201.383
1117.331, 248.689
1118.566, 134.129
1119.800, 140.385
1121.035, 329.637
1122.269, 43.223
1123.503, 59.830
1124.737, 225.502
1125.971, 179.758
1127.205, 61.916
1128.438, 49.766
1129.671, 76.553
1130.904, 56.285
1132.137, 13.967
1133.370, 224.766
1134.602, 39.936
1135.834, 31.484
1137.066, 65.547
1138.298, 306.842
1139.530, 168.576
1140.762, 279.766
1141.993, 58.770
1143.224, 3.764
1144.455, 40.883
1145.686, 10.920
1146.917, 3.986
1148.147, 81.871
1149.377, 1.248
1150.607, 129.607
1151.837, 7.582
1153.067, 76.762
1154.296, 177.992
1155.526, 266.738
1156.755, 23.477
1157.984, 198.201
1159.213, 169.916
1160.441, 136.623
1161.670, 137.320
1162.898, 121.240
1164.126, 58.691
1165.354, 163.361
1166.581, 179.023
1167.809, 304.676
1169.036, 309.369
1170.263, 278.953
1171.490, 279.576
1172.717, 112.191
1173.943, 43.203
1175.170, 149.355
1176.396, 85.900
1177.622, 228.438
1178.848, 290.967
1180.073, 99.516
1181.299, 210.922
1182.524, 68.350
1183.749, 133.768
1184.974, 375.178
1186.199, 269.576
1187.423, 30.965
1188.648, 236.340
1189.872, 430.705
1191.096, 187.059
1192.320, 249.404
1193.543, 329.740
1194.767, 278.068
1195.990, 200.385
1197.213, 356.689
1198.436, 156.988
1199.659, 412.273
1200.881, 283.617
1202.104, 407.889
1203.326, 281.146
1204.548, 310.457
1205.770, 154.635
1206.991, 346.865
1208.213, 301.088
1209.434, 355.299
1210.655, 335.750
1211.876, 316.666
1213.096, 244.881
1214.317, 238.055
1215.537, 253.223
1216.757, 144.393
1217.977, 339.557
1219.197, 187.711
1220.417, 174.857
1221.636, 84.996
1222.855, 167.125
1224.074, 321.248
1225.293, 53.361
1226.512, 139.465
1227.731, 288.562
1228.949, 170.650
1230.167, 266.570
1231.385, 206.801
1232.603, 287.869
1233.820, 295.729
1235.038, 81.982
1236.255, 282.018
1237.472, 161.047
1238.689, 42.066
1239.906, 193.072
1241.122, 29.066
1242.338, 246.049
1243.555, 208.604
1244.771, 124.549
1245.986, 225.508
1247.202, 93.529
1248.417, 261.404
1249.633, 263.275
1250.848, 46.523
1252.063, 201.268
1253.277, 159.031
1254.492, 125.785
1255.706, 205.455
1256.920, 223.164
1258.134, 178.826
1259.348, 109.510
1260.562, 281.111
1261.775, 223.391
1262.988, 107.014
1264.201, 48.523
1265.414, 180.053
1266.627, 195.570
1267.839, 32.934
1269.052, 181.512
1270.264, 19.980
1271.476, 82.438
1272.688, 59.113
1273.899, 64.307
1275.111, 152.258
1276.322, 84.670
1277.533, 55.758
1278.744, 138.311
1279.955, 55.686
1281.165, 152.949
1282.376, 135.072
1283.586, 14.441
1284.796, 72.801
1286.006, 5.836
1287.215, 92.516
1288.425, 102.834
1289.634, 27.912
1290.843, 61.445
1292.052, 177.658
1293.261, 286.781
1294.469, 322.084
1295.678, 181.834
1296.886, 25.879
1298.094, 78.375
1299.302, 105.262
1300.509, 301.523
1301.717, 270.781
1302.924, 149.590
1304.131, 216.836
1305.338, 87.074
1306.545, 152.311
1307.752, 63.537
1308.958, 166.760
1310.164, 281.879
1311.370, 211.090
1312.576, 247.295
1313.782, 252.496
1314.987, 273.689
1316.193, 231.881
1317.398, 463.068
1318.603, 187.254
1319.807, 258.945
1321.012, 91.127
1322.216, 269.299
1323.421, 250.479
1324.625, 131.658
1325.829, 215.768
1327.032, 167.949
1328.236, 371.039
1329.439, 202.223
1330.642, 245.768
1331.845, 126.596
1333.048, 179.340
1334.251, 174.531
1335.453, 133.729
1336.656, 180.930
1337.858, 112.135
1339.060, 132.346
1340.261, 54.559
1341.463, 211.777
1342.664, 97.004
1343.866, 242.236
1345.067, 16.479
1346.267, 94.727
1347.468, 325.986
1348.669, 151.254
1349.869, 464.533
1351.069, 285.826
1352.269, 255.131
1353.469, 387.449
1354.668, 285.783
1355.868, 387.131
1357.067, 341.496
1358.266, 136.881
1359.465, 267.287
1360.664, 402.908
1361.862, 149.357
1363.061, 202.834
1364.259, 226.336
1365.457, 336.867
1366.655, 422.361
1367.852, 351.020
1369.050, 393.656
1370.247, 239.129
1371.444, 396.633
1372.641, 246.156
1373.838, 480.689
1375.035, 211.213
1376.231, 435.713
1377.427, 399.248
1378.623, 271.949
1379.819, 297.338
1381.015, 242.660
1382.211, 441.633
1383.406, 289.266
1384.601, 270.555
1385.796, 421.887
1386.991, 306.234
1388.185, 227.994
1389.380, 241.338
1390.574, 302.682
1391.768, 343.037
1392.962, 408.291
1394.156, 190.402
1395.350, 381.555
1396.543, 342.916
1397.736, 181.482
1398.929, 426.752
1400.122, 327.824
1401.315, 373.748
1402.507, 274.721
1403.700, 389.510
1404.892, 290.330
1406.084, 329.412
1407.276, 147.543
1408.467, 279.672
1409.659, 312.816
1410.850, 191.467
1412.041, 515.680
1413.232, 329.893
1414.423, 365.105
1415.614, 220.318
1416.804, 425.533
1417.994, 394.746
1419.184, 571.959
1420.374, 176.170
1421.564, 506.408
1422.753, 322.674
1423.943, 299.939
1425.132, 267.307
1426.321, 248.318
1427.510, 301.773
1428.698, 338.438
1429.887, 345.824
1431.075, 447.215
1432.263, 283.607
1433.451, 386.002
1434.639, 482.291
1435.827, 555.688
1437.014, 264.084
1438.201, 607.482
1439.388, 768.879
1440.575, 316.273
1441.762, 614.637
1442.949, 679.973
1444.135, 453.295
1445.321, 490.607
1446.507, 459.904
1447.693, 338.191
1448.879, 546.463
1450.064, 517.703
1451.250, 573.934
1452.435, 248.170
1453.620, 841.420
1454.805, 509.660
1455.989, 504.982
1457.174, 618.385
1458.358, 327.963
1459.542, 556.682
1460.726, 599.531
1461.910, 372.521
1463.093, 774.607
1464.277, 449.766
1465.460, 414.031
1466.643, 553.371
1467.826, 218.787
1469.009, 839.254
1470.191, 272.770
1471.373, 499.340
1472.556, 634.969
1473.738, 671.658
1474.919, 408.408
1476.101, 655.221
1477.283, 556.100
1478.464, 355.055
1479.645, 457.090
1480.826, 621.211
1482.007, 287.424
1483.187, 684.742
1484.368, 433.178
1485.548, 577.740
1486.728, 438.453
1487.908, 466.328
1489.088, 236.377
1490.268, 286.217
1491.447, 313.023
1492.626, 344.619
1493.805, 264.396
1494.984, 355.367
1496.163, 344.543
1497.341, 323.941
1498.520, 467.586
1499.698, 75.496
1500.876, 356.701
1502.054, 50.771
1503.232, 81.117
1504.409, 118.396
1505.586, 201.105
1506.763, 260.283
1507.940, 132.979
1509.117, 96.256
1510.294, 141.195
1511.470, 204.891
1512.647, 185.574
1513.823, 228.316
1514.999, 246.389
1516.174, 288.592
1517.350, 1.771
1518.526, 282.982
1519.701, 2.984
1520.876, 0.000
##END=



