##NAMES=Montebrasite
##RRUFFID=R040062
##IDEAL CHEMISTRY=LiAlPO_4_(OH)
##LOCALITY=Hebron, Maine, USA
##OWNER=RRUFF
##SOURCE=University of Arizona Mineral Museum
##DESCRIPTION=White massive
##STATUS=The identification of this mineral has been confirmed by X-ray diffraction and chemical analysis
##URL=rruff.info/R040062
##MEASURED CHEMISTRY=LiAl(PO_4_)((OH)_0.62_F_0.38_)
##PIN_ID=L00072
##ORIENTATION=Laser parallel to (0 1 1). Fiducial mark perpendicular to laser is parallel to a [1 0 0]
117.519, 0.000
118.915, 3.990
120.311, 52.265
121.706, 112.234
123.102, 351.016
124.497, 295.896
125.892, 475.173
127.286, 577.936
128.681, 1073.410
130.075, 1141.034
131.469, 1090.244
132.862, 1260.732
134.256, 972.777
135.649, 876.244
137.042, 840.633
138.435, 645.613
139.827, 611.328
141.219, 417.693
142.611, 414.115
144.003, 320.505
145.394, 286.750
146.786, 333.024
148.177, 301.667
149.567, 302.092
150.958, 363.875
152.348, 545.768
153.738, 556.701
155.128, 617.009
156.517, 615.955
157.907, 745.193
159.296, 903.644
160.685, 1054.589
162.073, 1118.112
163.462, 1149.987
164.850, 1218.088
166.237, 1104.825
167.625, 1080.930
169.012, 896.456
170.400, 913.933
171.786, 617.622
173.173, 542.511
174.559, 358.014
175.946, 407.772
177.332, 354.068
178.717, 329.419
180.103, 309.866
181.488, 399.279
182.873, 331.834
184.258, 342.080
185.642, 481.629
187.026, 523.179
188.410, 552.562
189.794, 399.796
191.178, 526.621
192.561, 203.372
193.944, 470.045
195.327, 266.642
196.709, 223.163
198.092, 159.611
199.474, 215.990
200.856, 162.331
202.237, 198.695
203.618, 25.104
205.000, 31.562
206.380, 18.065
207.761, 24.615
209.142, 41.208
210.522, 167.839
211.902, 44.504
213.281, 71.197
214.661, 167.918
216.040, 124.658
217.419, 121.413
218.798, 138.180
220.176, 114.951
221.554, 131.726
222.932, 8.497
224.310, 225.274
225.688, 102.029
227.065, 178.783
228.442, 45.700
229.819, 13.509
231.196, 173.760
232.572, 15.425
233.948, 85.849
235.324, 54.784
236.700, 105.331
238.075, 96.766
239.450, 127.556
240.825, 20.007
242.200, 78.408
243.574, 32.262
244.948, 138.915
246.322, 80.094
247.696, 12.907
249.070, 94.145
250.443, 55.825
251.816, 28.213
253.189, 9.427
254.561, 40.616
255.933, 82.273
257.306, 110.194
258.677, 176.434
260.049, 231.835
261.420, 297.909
262.791, 503.029
264.162, 738.038
265.533, 1122.896
266.903, 1337.641
268.274, 1532.312
269.643, 2096.940
271.013, 2351.534
272.383, 2546.100
273.752, 2710.645
275.121, 2685.164
276.490, 2299.657
277.858, 2134.122
279.226, 1848.561
280.595, 1712.970
281.962, 1507.352
283.330, 1405.639
284.697, 1342.259
286.064, 1570.038
287.431, 1527.940
288.798, 1955.922
290.164, 2323.954
291.530, 3122.013
292.896, 4190.079
294.262, 5328.146
295.627, 7056.195
296.993, 8174.225
298.358, 8982.224
299.722, 9080.188
301.087, 8218.110
302.451, 6805.982
303.815, 5563.805
305.179, 4491.572
306.543, 3649.281
307.906, 3096.932
309.269, 2654.524
310.632, 2432.057
311.995, 2319.531
313.357, 2056.935
314.719, 1954.261
316.081, 1711.504
317.443, 1658.660
318.804, 1465.737
320.166, 1312.734
321.527, 1029.659
322.887, 976.510
324.248, 813.288
325.608, 619.985
326.968, 476.588
328.328, 398.425
329.688, 319.550
331.047, 335.931
332.406, 342.250
333.765, 418.507
335.124, 324.696
336.482, 355.291
337.840, 297.859
339.198, 302.926
340.556, 178.860
341.913, 94.597
343.271, 50.096
344.628, 35.463
345.984, 60.658
347.341, 58.161
348.697, 10.588
350.053, 115.375
351.409, 80.112
352.765, 124.808
354.120, 59.472
355.475, 134.105
356.830, 138.614
358.185, 93.188
359.539, 88.208
360.894, 86.931
362.248, 177.568
363.601, 38.045
364.955, 73.139
366.308, 101.826
367.661, 4.766
369.014, 129.396
370.367, 43.043
371.719, 118.389
373.071, 42.303
374.423, 116.965
375.775, 260.895
377.126, 35.865
378.478, 120.752
379.828, 71.668
381.179, 135.988
382.530, 102.643
383.880, 206.875
385.230, 150.502
386.580, 137.525
387.929, 32.307
389.279, 317.920
390.628, 221.633
391.977, 308.191
393.325, 211.115
394.674, 411.904
396.022, 316.799
397.370, 291.617
398.718, 481.113
400.065, 428.715
401.413, 285.340
402.760, 261.316
404.106, 514.432
405.453, 451.795
406.799, 475.016
408.146, 448.561
409.491, 445.572
410.837, 516.992
412.182, 663.162
413.528, 554.498
414.873, 774.709
416.217, 926.887
417.562, 1269.408
418.906, 1801.664
420.250, 2384.650
421.594, 3607.311
422.938, 4930.582
424.281, 5663.697
425.624, 5827.059
426.967, 4870.604
428.310, 3883.701
429.652, 2626.703
430.994, 2019.684
432.336, 1532.635
433.678, 1265.559
435.020, 908.455
436.361, 831.328
437.702, 764.174
439.043, 616.998
440.383, 439.799
441.724, 782.572
443.064, 695.320
444.404, 538.051
445.743, 690.734
447.083, 513.387
448.422, 495.998
449.761, 628.566
451.100, 551.090
452.438, 673.570
453.777, 636.021
455.115, 658.430
456.453, 620.789
457.790, 643.105
459.128, 865.375
460.465, 957.600
461.802, 969.793
463.139, 1091.938
464.475, 1074.045
465.811, 1366.111
467.147, 1348.127
468.483, 1750.096
469.819, 2032.023
471.154, 2403.902
472.489, 2765.734
473.824, 3157.521
475.159, 3649.266
476.493, 4200.963
477.827, 5202.617
479.161, 5368.572
480.495, 5755.924
481.829, 5777.303
483.162, 5868.773
484.495, 5630.201
485.828, 5251.582
487.161, 5482.922
488.493, 5064.219
489.825, 4685.465
491.157, 4726.664
492.489, 4387.828
493.820, 3998.947
495.151, 4010.023
496.482, 3541.047
497.813, 3182.037
499.144, 2972.852
500.474, 2583.639
501.804, 2253.859
503.134, 1983.627
504.464, 1732.977
505.793, 1452.104
507.123, 1351.449
508.451, 1220.732
509.780, 909.344
511.109, 808.994
512.437, 498.334
513.765, 567.939
515.093, 647.025
516.421, 456.588
517.748, 526.129
519.075, 235.369
520.402, 264.525
521.729, 266.896
523.055, 386.428
524.382, 151.789
525.708, 155.361
527.034, 294.412
528.359, 122.303
529.685, 201.543
531.010, 0.250
532.335, 179.271
533.659, 148.055
534.984, 167.641
536.308, 37.998
537.632, 87.090
538.956, 82.658
540.279, 146.170
541.603, 14.688
542.926, 144.018
544.249, 26.936
545.571, 171.682
546.894, 100.193
548.216, 162.012
549.538, 287.031
550.860, 23.693
552.181, 236.943
553.503, 81.623
554.824, 22.189
556.145, 17.156
557.465, 135.814
558.786, 14.842
560.106, 193.734
561.426, 22.680
562.746, 114.088
564.065, 122.883
565.385, 108.977
566.704, 137.959
568.023, 189.953
569.341, 138.953
570.660, 168.596
571.978, 3.344
573.296, 195.869
574.614, 224.822
575.931, 229.152
577.248, 447.646
578.565, 244.006
579.882, 452.416
581.199, 282.268
582.515, 374.730
583.831, 318.148
585.147, 266.861
586.463, 384.199
587.779, 603.857
589.094, 462.762
590.409, 570.900
591.724, 538.936
593.038, 687.357
594.353, 805.627
595.667, 1183.744
596.981, 1442.859
598.295, 1591.336
599.608, 1829.412
600.922, 1977.738
602.235, 2077.322
603.547, 1655.111
604.860, 1533.127
606.172, 1190.986
607.485, 1238.865
608.797, 1046.297
610.108, 1083.871
611.420, 974.799
612.731, 1112.109
614.042, 1129.373
615.353, 1166.592
616.664, 1443.766
617.974, 1280.893
619.284, 1410.982
620.594, 1898.020
621.904, 2036.582
623.213, 2413.535
624.523, 2830.449
625.832, 3177.314
627.141, 3914.137
628.449, 4340.910
629.758, 4527.641
631.066, 4594.332
632.374, 4490.979
633.681, 4627.582
634.989, 4854.137
636.296, 5870.648
637.603, 7017.117
638.910, 8843.539
640.217, 11819.918
641.523, 16066.252
642.829, 19752.541
644.135, 23088.787
645.441, 23244.988
646.747, 20701.145
648.052, 16937.260
649.357, 12743.330
650.662, 9369.359
651.967, 6815.340
653.271, 5431.281
654.575, 3907.176
655.879, 3323.031
657.183, 2568.840
658.486, 2204.607
659.790, 1810.336
661.093, 1706.025
662.396, 1221.678
663.698, 1307.297
665.001, 1112.879
666.303, 968.422
667.605, 733.932
668.907, 719.402
670.209, 774.838
671.510, 470.236
672.811, 635.596
674.112, 450.920
675.413, 566.203
676.713, 400.973
678.013, 356.361
679.313, 461.246
680.613, 336.412
681.913, 220.770
683.212, 335.152
684.511, 208.049
685.810, 312.229
687.109, 276.027
688.407, 382.535
689.706, 226.844
691.004, 170.986
692.302, 135.170
693.599, 122.941
694.897, 95.393
696.194, 193.504
697.491, 220.629
698.788, 268.125
700.084, 291.961
701.380, 313.709
702.677, 346.490
703.972, 263.004
705.268, 365.117
706.564, 139.383
707.859, 70.088
709.154, 34.049
710.449, 197.463
711.743, 138.055
713.037, 260.373
714.332, 85.613
715.626, 276.348
716.919, 179.758
718.213, 31.809
719.506, 354.781
720.799, 202.244
722.092, 210.350
723.384, 23.105
724.677, 196.004
725.969, 88.654
727.261, 78.615
728.553, 111.250
729.844, 163.906
731.136, 23.352
732.427, 269.307
733.718, 217.502
735.008, 294.934
736.299, 57.904
737.589, 159.582
738.879, 16.883
740.169, 115.484
741.458, 82.398
742.748, 50.066
744.037, 72.562
745.326, 195.018
746.614, 207.438
747.903, 99.826
749.191, 122.180
750.479, 144.500
751.767, 46.787
753.055, 64.641
754.342, 111.238
755.629, 63.408
756.916, 25.545
758.203, 137.635
759.490, 69.691
760.776, 91.715
762.062, 73.707
763.348, 165.666
764.634, 117.598
765.919, 10.500
767.204, 300.736
768.489, 182.549
769.774, 474.334
771.059, 636.092
772.343, 387.822
773.627, 0.473
774.911, 351.422
776.195, 23.047
777.479, 326.160
778.762, 258.104
780.045, 369.635
781.328, 211.143
782.611, 192.623
783.893, 534.080
785.175, 496.787
786.457, 598.197
787.739, 469.582
789.021, 780.945
790.302, 642.285
791.583, 683.602
792.864, 914.895
794.145, 976.168
795.425, 917.418
796.706, 1158.646
797.986, 1319.855
799.266, 1121.043
800.545, 1182.209
801.825, 1233.355
803.104, 1124.480
804.383, 1425.590
805.662, 1376.680
806.940, 1237.748
808.219, 1098.799
809.497, 979.832
810.775, 1150.848
812.053, 1231.846
813.330, 1212.824
814.608, 1433.789
815.885, 1305.545
817.162, 885.664
818.438, 986.580
819.715, 1047.479
820.991, 588.359
822.267, 1069.229
823.543, 780.080
824.818, 450.920
826.094, 451.746
827.369, 192.555
828.644, 243.354
829.919, 304.137
831.193, 4.910
832.468, 135.666
833.742, 66.410
835.016, 37.145
836.289, 427.410
837.563, 131.873
838.836, 238.232
840.109, 51.225
841.382, 329.125
842.654, 69.717
843.927, 59.873
845.199, 189.801
846.471, 79.510
847.743, 60.873
849.014, 6.486
850.286, 61.715
851.557, 111.543
852.828, 278.770
854.099, 99.188
855.369, 149.729
856.639, 59.725
857.909, 170.574
859.179, 141.143
860.449, 81.027
861.718, 249.848
862.988, 132.576
864.257, 117.564
865.525, 357.488
866.794, 12.059
868.062, 218.365
869.331, 218.902
870.599, 219.049
871.866, 466.648
873.134, 127.229
874.401, 430.490
875.668, 170.828
876.935, 448.158
878.202, 238.465
879.468, 178.102
880.735, 699.314
882.001, 259.340
883.267, 339.607
884.532, 264.459
885.798, 265.111
887.063, 277.865
888.328, 308.535
889.593, 197.732
890.857, 314.277
892.122, 349.830
893.386, 620.055
894.650, 391.619
895.913, 310.826
897.177, 540.752
898.440, 451.408
899.703, 402.143
900.966, 642.449
902.229, 462.879
903.491, 233.426
904.754, 532.949
906.016, 263.074
907.278, 303.566
908.539, 233.781
909.801, 402.705
911.062, 293.396
912.323, 13.830
913.584, 414.391
914.844, 214.902
916.105, 255.832
917.365, 36.592
918.625, 256.029
919.885, 254.895
921.144, 215.838
922.404, 116.805
923.663, 97.787
924.922, 47.729
926.180, 18.162
927.439, 7.850
928.697, 72.656
929.955, 27.139
931.213, 69.498
932.471, 150.604
933.728, 131.732
934.985, 362.883
936.242, 65.941
937.499, 45.242
938.756, 166.451
940.012, 227.684
941.269, 318.939
942.525, 300.223
943.780, 314.537
945.036, 355.785
946.291, 264.211
947.546, 385.592
948.801, 376.998
950.056, 348.432
951.311, 99.891
952.565, 451.381
953.819, 182.896
955.073, 384.439
956.327, 276.010
957.580, 227.611
958.834, 189.240
960.087, 280.898
961.339, 232.586
962.592, 564.303
963.845, 156.053
965.097, 407.832
966.349, 169.641
967.601, 401.482
968.852, 683.355
970.104, 35.262
971.355, 797.201
972.606, 569.172
973.857, 531.178
975.107, 733.217
976.358, 745.291
977.608, 937.398
978.858, 1149.543
980.108, 1021.721
981.357, 1163.936
982.607, 1505.656
983.856, 1267.941
985.105, 1970.268
986.353, 1662.691
987.602, 2215.156
988.850, 2579.691
990.098, 2592.264
991.346, 3281.840
992.594, 3984.492
993.841, 4237.188
995.089, 5360.973
996.336, 5523.758
997.583, 6798.129
998.829, 7557.766
1000.076, 8469.992
1001.322, 10361.566
1002.568, 11608.660
1003.814, 13421.703
1005.060, 14694.789
1006.305, 15867.906
1007.550, 17568.156
1008.795, 18101.348
1010.040, 17894.578
1011.285, 17377.844
1012.529, 15921.148
1013.773, 15127.992
1015.017, 12801.430
1016.261, 11314.859
1017.505, 9867.672
1018.748, 8601.211
1019.991, 7754.797
1021.234, 6478.414
1022.477, 5892.086
1023.719, 5715.789
1024.962, 5189.773
1026.204, 4983.629
1027.446, 4727.543
1028.688, 4791.488
1029.929, 4975.484
1031.170, 5389.559
1032.411, 5743.672
1033.652, 6477.824
1034.893, 6682.051
1036.134, 7696.312
1037.374, 8100.695
1038.614, 8875.113
1039.854, 9799.582
1041.094, 10754.156
1042.333, 11078.789
1043.572, 11753.480
1044.811, 11558.242
1046.050, 11563.062
1047.289, 11467.930
1048.527, 10852.840
1049.766, 10577.793
1051.004, 10372.797
1052.241, 10407.852
1053.479, 10292.945
1054.717, 10408.094
1055.954, 11083.293
1057.191, 11768.539
1058.428, 11193.840
1059.664, 11759.195
1060.901, 10484.602
1062.137, 9290.055
1063.373, 7865.559
1064.609, 6321.117
1065.844, 5676.723
1067.080, 4152.379
1068.315, 3788.707
1069.550, 3234.477
1070.785, 2790.305
1072.019, 2456.176
1073.254, 1992.105
1074.488, 1698.078
1075.722, 1763.879
1076.955, 1279.957
1078.189, 1244.555
1079.422, 1120.344
1080.656, 966.473
1081.889, 1122.652
1083.121, 848.883
1084.354, 925.164
1085.586, 840.215
1086.818, 636.598
1088.050, 673.480
1089.282, 769.516
1090.514, 636.051
1091.745, 712.637
1092.976, 819.277
1094.207, 685.977
1095.438, 672.727
1096.668, 389.531
1097.899, 806.398
1099.129, 693.316
1100.359, 670.289
1101.588, 1147.324
1102.818, 924.414
1104.047, 1321.562
1105.276, 1528.770
1106.505, 1496.039
1107.734, 1593.363
1108.962, 1480.750
1110.191, 1538.199
1111.419, 1665.707
1112.647, 1523.281
1113.874, 1310.914
1115.102, 1448.609
1116.329, 1236.375
1117.556, 1344.395
1118.783, 1362.281
1120.010, 1400.246
1121.236, 1488.277
1122.463, 1266.387
1123.689, 1154.566
1124.914, 852.820
1126.140, 776.238
1127.366, 1119.559
1128.591, 528.047
1129.816, 676.621
1131.041, 495.277
1132.266, 298.562
1133.490, 399.191
1134.714, 346.355
1135.938, 175.371
1137.162, 760.406
1138.386, 199.648
1139.609, 459.000
1140.833, 398.465
1142.056, 71.969
1143.279, 638.297
1144.501, 91.902
1145.724, 417.230
1146.946, 466.422
1148.168, 344.770
1149.390, 423.938
1150.612, 122.773
1151.833, 201.129
1153.054, 119.367
1154.275, 47.379
1155.496, 215.262
1156.717, 203.086
1157.937, 40.832
1159.158, 68.680
1160.378, 526.641
1161.598, 5.312
1162.817, 452.809
1164.037, 81.016
1165.256, 279.305
1166.475, 637.664
1167.694, 226.105
1168.913, 404.625
1170.131, 493.230
1171.349, 18.094
1172.567, 830.672
1173.785, 659.508
1175.003, 608.418
1176.220, 757.414
1177.438, 766.480
1178.655, 1095.629
1179.872, 964.855
1181.088, 1074.160
1182.305, 1333.543
1183.521, 1173.004
1184.737, 1682.543
1185.953, 1692.215
1187.169, 1942.016
1188.384, 1971.895
1189.599, 1991.855
1190.814, 1441.910
1192.029, 2152.062
1193.244, 1662.305
1194.459, 1652.637
1195.673, 1813.066
1196.887, 1513.578
1198.101, 1764.180
1199.314, 1484.859
1200.528, 1085.637
1201.741, 1856.500
1202.954, 1167.445
1204.167, 768.480
1205.380, 1519.602
1206.592, 730.809
1207.805, 1002.102
1209.017, 953.484
1210.229, 584.949
1211.440, 1136.492
1212.652, 688.129
1213.863, 469.848
1215.074, 771.645
1216.285, 713.527
1217.496, 665.480
1218.707, 537.305
1219.917, 589.145
1221.127, 751.004
1222.337, 351.008
1223.547, 830.078
1224.756, 522.027
1225.966, 431.457
1227.175, 753.199
1228.384, 425.031
1229.592, 116.977
1230.801, 629.043
1232.009, 681.145
1233.217, 103.477
1234.425, 605.938
1235.633, 58.531
1236.841, 630.887
1238.048, 363.734
1239.255, 66.715
1240.462, 659.836
1241.669, 363.090
1242.876, 286.480
1244.082, 600.008
1245.288, 223.672
1246.494, 337.477
1247.700, 781.414
1248.906, 875.484
1250.111, 589.691
1251.316, 304.039
1252.521, 518.520
1253.726, 593.137
1254.931, 497.895
1256.135, 972.793
1257.339, 527.828
1258.543, 313.004
1259.747, 758.328
1260.951, 873.805
1262.154, 9.484
1263.357, 885.492
1264.560, 362.473
1265.763, 439.746
1266.966, 577.332
1268.168, 375.230
1269.371, 793.477
1270.573, 672.074
1271.775, 411.035
1272.976, 750.387
1274.178, 220.141
1275.379, 930.340
1276.580, 311.012
1277.781, 167.805
1278.982, 1303.941
1280.182, 586.312
1281.383, 10.617
1282.583, 791.730
1283.783, 446.242
1284.982, 571.551
1286.182, 657.734
1287.381, 244.879
1288.580, 423.078
1289.779, 569.180
1290.978, 448.320
1292.177, 579.418
1293.375, 183.336
1294.573, 58.191
1295.771, 655.484
1296.969, 39.707
1298.166, 42.973
1299.364, 297.418
1300.561, 0.000
##END=



