##NAMES=Monticellite
##RRUFFID=R040115
##IDEAL CHEMISTRY=CaMgSiO_4_
##LOCALITY=Magnet Cove, Arkansas, USA
##OWNER=RRUFF
##SOURCE=University of Arizona Mineral Museum
##DESCRIPTION=Brown blebs in matrix
##STATUS=The identification of this mineral has been confirmed by X-ray diffraction and chemical analysis
##URL=rruff.info/R040115
##MEASURED CHEMISTRY=Ca_0.99_(Mg_0.85_ Fe_0.12_Mn_0.03_)Si_1.00_O_4_
##PIN_ID=M00492
##ORIENTATION=Laser parallel to b* (0 1 0). Fiducial mark perpendicular to laser is parallel to -c [0 0 -1]
102.428, 0.000
103.820, 0.323
105.212, 5.641
106.604, 80.346
107.995, 153.031
109.387, 126.182
110.777, 58.336
112.168, 89.103
113.559, 51.312
114.949, 77.478
116.339, 125.348
117.729, 187.005
119.119, 142.696
120.508, 90.449
121.897, 55.281
123.286, 38.541
124.675, 39.186
126.063, 18.041
127.452, 21.655
128.840, 0.190
130.228, 47.607
131.615, 20.494
133.003, 62.464
134.390, 26.518
135.777, 77.680
137.164, 77.959
138.550, 168.344
139.937, 112.815
141.323, 117.237
142.709, 96.581
144.094, 79.600
145.480, 71.812
146.865, 50.993
148.250, 43.730
149.635, 10.509
151.019, 31.729
152.403, 14.070
153.788, 4.117
155.171, 72.711
156.555, 108.550
157.939, 112.397
159.322, 168.252
160.705, 252.113
162.088, 382.987
163.470, 606.271
164.853, 896.518
166.235, 1151.112
167.617, 1516.569
168.998, 1817.131
170.380, 1905.824
171.761, 1520.552
173.142, 1059.261
174.523, 571.917
175.904, 353.519
177.284, 196.068
178.664, 121.568
180.044, 52.019
181.424, 39.423
182.803, 17.782
184.183, 67.098
185.562, 10.373
186.940, 36.620
188.319, 7.844
189.698, 39.049
191.076, 23.235
192.454, 33.406
193.831, 50.574
195.209, 93.739
196.586, 92.895
197.963, 89.041
199.340, 146.177
200.717, 114.302
202.093, 167.418
203.470, 193.535
204.846, 162.641
206.221, 232.746
207.597, 248.841
208.972, 256.921
210.347, 153.973
211.722, 56.017
213.097, 96.050
214.472, 103.070
215.846, 127.080
217.220, 83.077
218.594, 82.063
219.967, 113.210
221.341, 73.573
222.714, 88.896
224.087, 104.436
225.460, 101.807
226.832, 138.137
228.204, 172.462
229.577, 157.304
230.948, 182.789
232.320, 167.871
233.692, 201.790
235.063, 273.702
236.434, 290.790
237.805, 344.133
239.175, 426.100
240.545, 473.854
241.916, 561.696
243.286, 604.239
244.655, 742.495
246.025, 924.743
247.394, 1235.982
248.763, 1595.212
250.132, 2279.430
251.501, 3229.636
252.869, 4499.832
254.237, 5985.013
255.605, 6898.181
256.973, 6684.336
258.340, 5317.477
259.708, 3786.607
261.075, 2454.721
262.442, 1663.823
263.808, 1239.913
265.175, 947.988
266.541, 852.050
267.907, 831.428
269.273, 910.888
270.639, 966.448
272.004, 1113.989
273.369, 1248.751
274.734, 1165.332
276.099, 1023.999
277.463, 840.598
278.828, 630.353
280.192, 474.959
281.556, 398.673
282.919, 364.667
284.283, 295.547
285.646, 300.320
287.009, 283.078
288.372, 266.993
289.734, 355.820
291.097, 338.717
292.459, 365.531
293.821, 471.349
295.183, 549.067
296.544, 690.930
297.905, 943.722
299.266, 1330.500
300.627, 1797.332
301.988, 2404.799
303.348, 2926.600
304.709, 3104.314
306.069, 2830.971
307.428, 2190.499
308.788, 1484.125
310.147, 943.827
311.507, 667.641
312.865, 446.151
314.224, 304.532
315.583, 208.853
316.941, 189.827
318.299, 136.494
319.657, 142.267
321.015, 177.776
322.372, 116.381
323.729, 105.880
325.086, 156.370
326.443, 139.964
327.800, 111.653
329.156, 143.114
330.512, 132.565
331.868, 137.013
333.224, 121.599
334.579, 106.012
335.935, 55.444
337.290, 51.833
338.645, 50.272
339.999, 67.776
341.354, 43.125
342.708, 47.661
344.062, 33.461
345.416, 30.170
346.769, 6.497
348.123, 14.191
349.476, 16.900
350.829, 17.631
352.182, 14.382
353.534, 23.154
354.887, 3.938
356.239, 39.740
357.591, 4.431
358.942, 37.413
360.294, 7.285
361.645, 8.824
362.996, 3.918
364.347, 4.995
365.698, 0.056
367.048, 27.900
368.398, 6.881
369.748, 9.882
371.098, 18.097
372.448, 2.063
373.797, 47.014
375.146, 1.959
376.495, 6.886
377.844, 44.797
379.192, 52.695
380.540, 60.593
381.889, 82.477
383.236, 117.349
384.584, 117.206
385.932, 201.050
387.279, 226.878
388.626, 294.688
389.973, 447.463
391.319, 498.202
392.666, 666.907
394.012, 887.576
395.358, 1138.207
396.704, 1333.818
398.049, 1492.406
399.394, 1649.960
400.740, 1592.491
402.084, 1659.004
403.429, 1496.497
404.774, 1338.977
406.118, 1390.446
407.462, 1222.905
408.806, 1083.354
410.150, 986.793
411.493, 853.222
412.836, 767.641
414.179, 619.050
415.522, 443.450
416.865, 450.839
418.207, 383.219
419.549, 259.588
420.891, 243.948
422.233, 207.298
423.575, 211.638
424.916, 167.969
426.257, 139.289
427.598, 130.600
428.939, 107.901
430.279, 176.191
431.619, 90.469
432.959, 103.736
434.299, 56.991
435.639, 139.232
436.978, 84.461
438.318, 110.677
439.657, 66.881
440.996, 117.071
442.334, 76.249
443.673, 36.658
445.011, 1.842
446.349, 62.532
447.687, 70.141
449.024, 46.294
450.361, 56.375
451.699, 46.496
453.036, 54.248
454.372, 53.031
455.709, 70.886
457.045, 48.933
458.381, 56.925
459.717, 58.181
461.053, 53.107
462.388, 14.999
463.724, 56.723
465.059, 68.679
466.394, 80.693
467.728, 12.457
469.063, 84.419
470.397, 64.265
471.731, 49.139
473.065, 108.955
474.398, 71.758
475.732, 110.548
477.065, 33.884
478.398, 55.188
479.731, 53.952
481.063, 106.980
482.396, 83.947
483.728, 116.810
485.060, 145.501
486.391, 87.179
487.723, 66.842
489.054, 123.490
490.385, 119.124
491.716, 110.744
493.047, 74.351
494.377, 147.942
495.708, 104.941
497.038, 117.389
498.368, 95.797
499.697, 77.499
501.027, 124.941
502.356, 123.552
503.685, 131.257
505.014, 169.450
506.342, 172.090
507.671, 148.772
508.999, 199.236
510.327, 177.508
511.655, 219.809
512.982, 244.192
514.310, 268.379
515.637, 312.373
516.964, 373.292
518.291, 418.722
519.617, 540.550
520.944, 664.247
522.270, 791.771
523.596, 1040.098
524.921, 1419.451
526.247, 2036.529
527.572, 2708.832
528.897, 3464.436
530.222, 4267.833
531.547, 4578.685
532.871, 4286.256
534.196, 3439.593
535.520, 2658.691
536.844, 1982.952
538.167, 1532.852
539.491, 1147.631
540.814, 963.616
542.137, 754.679
543.460, 622.804
544.783, 553.919
546.105, 447.021
547.427, 402.954
548.749, 431.195
550.071, 353.265
551.393, 339.324
552.714, 355.374
554.035, 338.413
555.356, 341.348
556.677, 319.644
557.998, 345.653
559.318, 352.652
560.638, 369.641
561.958, 386.951
563.278, 346.591
564.597, 419.553
565.917, 355.504
567.236, 366.447
568.555, 386.380
569.874, 393.304
571.192, 459.219
572.511, 465.125
573.829, 496.022
575.147, 473.910
576.464, 514.789
577.782, 477.659
579.099, 449.521
580.416, 446.374
581.733, 418.435
583.050, 399.053
584.366, 385.881
585.683, 354.699
586.999, 334.510
588.315, 303.312
589.630, 267.105
590.946, 231.839
592.261, 186.616
593.576, 143.188
594.891, 116.949
596.206, 96.627
597.520, 109.373
598.834, 76.962
600.148, 71.050
601.462, 15.308
602.776, 36.632
604.089, 5.063
605.402, 26.411
606.715, 28.109
608.028, 45.464
609.341, 26.896
610.653, 14.760
611.965, 12.384
613.277, 25.952
614.589, 26.397
615.901, 45.688
617.212, 8.041
618.523, 13.605
619.834, 4.678
621.145, 2.686
622.456, 18.600
623.766, 31.960
625.076, 46.367
626.386, 9.888
627.696, 28.300
629.006, 13.717
630.315, 36.822
631.624, 23.498
632.933, 31.654
634.242, 1.866
635.551, 17.883
636.859, 41.683
638.167, 30.544
639.475, 14.165
640.783, 60.900
642.090, 14.440
643.398, 45.776
644.705, 44.995
646.012, 52.106
647.318, 29.431
648.625, 13.754
649.931, 38.063
651.237, 54.219
652.543, 4.468
653.849, 2.807
655.155, 38.109
656.460, 3.656
657.765, 5.498
659.070, 68.210
660.375, 37.956
661.679, 5.275
662.984, 8.494
664.288, 52.730
665.592, 6.957
666.895, 19.190
668.199, 1.570
669.502, 23.677
670.805, 41.068
672.108, 37.175
673.411, 4.578
674.713, 9.682
676.016, 12.946
677.318, 18.224
678.620, 24.724
679.921, 48.796
681.223, 33.087
682.524, 32.381
683.825, 37.030
685.126, 19.713
686.427, 43.316
687.727, 7.352
689.028, 13.013
690.328, 30.673
691.628, 1.344
692.927, 4.990
694.227, 49.328
695.526, 55.332
696.825, 96.985
698.124, 13.302
699.423, 72.622
700.721, 21.942
702.020, 43.263
703.318, 44.586
704.616, 63.910
705.913, 32.235
707.211, 22.561
708.508, 97.889
709.805, 58.219
711.102, 8.449
712.399, 114.883
713.695, 37.216
714.992, 106.552
716.288, 99.889
717.584, 82.229
718.879, 56.572
720.175, 24.917
721.470, 154.264
722.765, 108.614
724.060, 163.967
725.355, 114.322
726.649, 88.681
727.944, 71.043
729.238, 163.408
730.532, 84.775
731.825, 169.147
733.119, 163.522
734.412, 84.900
735.705, 163.351
736.998, 134.760
738.291, 223.057
739.584, 149.451
740.876, 160.849
742.168, 150.250
743.460, 157.656
744.752, 193.066
746.043, 194.741
747.334, 178.910
748.626, 229.340
749.916, 201.775
751.207, 215.221
752.498, 173.672
753.788, 284.132
755.078, 231.599
756.368, 260.071
757.658, 219.304
758.947, 290.754
760.237, 316.683
761.526, 285.692
762.815, 292.147
764.104, 236.666
765.392, 307.138
766.680, 293.969
767.969, 234.980
769.257, 359.491
770.544, 343.016
771.832, 352.593
773.119, 355.899
774.406, 385.967
775.693, 414.182
776.980, 428.889
778.267, 427.572
779.553, 460.200
780.839, 478.836
782.125, 468.391
783.411, 501.055
784.697, 486.686
785.982, 520.366
787.267, 517.055
788.552, 548.753
789.837, 605.906
791.122, 646.910
792.406, 698.899
793.690, 778.239
794.974, 843.740
796.258, 921.354
797.542, 1068.135
798.825, 1096.940
800.108, 1307.768
801.391, 1496.606
802.674, 1669.455
803.957, 1941.322
805.239, 2241.204
806.522, 2708.095
807.804, 3194.577
809.085, 3989.478
810.367, 5089.401
811.649, 6681.015
812.930, 8761.957
814.211, 11315.605
815.492, 13834.188
816.772, 15890.159
818.053, 16636.641
819.333, 15680.635
820.613, 13466.640
821.893, 11272.654
823.173, 9287.579
824.452, 7555.613
825.732, 6650.282
827.011, 5763.339
828.290, 5240.212
829.568, 4990.494
830.847, 4684.583
832.125, 4817.683
833.403, 4834.793
834.681, 4919.915
835.959, 5323.048
837.236, 5853.418
838.514, 6847.572
839.791, 8604.867
841.068, 10958.468
842.345, 14348.165
843.621, 19880.988
844.898, 26562.990
846.174, 35757.176
847.450, 46483.406
848.726, 54534.645
850.001, 58351.066
851.277, 53750.332
852.552, 43439.609
853.827, 33233.891
855.102, 24560.191
856.376, 18486.496
857.651, 14312.818
858.925, 11365.152
860.199, 8936.493
861.473, 7090.847
862.746, 5993.212
864.020, 5131.589
865.293, 4280.794
866.566, 3789.195
867.839, 3255.606
869.112, 2988.028
870.384, 2631.462
871.656, 2388.908
872.928, 2030.365
874.200, 1920.834
875.472, 1789.314
876.744, 1626.807
878.015, 1593.311
879.286, 1419.826
880.557, 1363.354
881.828, 1245.894
883.098, 1225.445
884.369, 1070.009
885.639, 990.583
886.909, 996.170
888.178, 889.768
889.448, 812.378
890.717, 897.999
891.987, 890.633
893.256, 919.278
894.524, 990.934
895.793, 1092.603
897.061, 1264.283
898.330, 1345.839
899.598, 1361.007
900.865, 1254.722
902.133, 1001.448
903.401, 773.475
904.668, 741.223
905.935, 639.757
907.202, 538.625
908.468, 516.551
909.735, 463.345
911.001, 443.151
912.267, 417.969
913.533, 370.480
914.799, 391.334
916.064, 382.199
917.330, 372.075
918.595, 330.963
919.860, 337.044
921.124, 382.708
922.389, 423.783
923.653, 388.837
924.918, 296.797
926.182, 443.771
927.445, 408.765
928.709, 489.771
929.972, 512.044
931.236, 514.079
932.499, 622.125
933.761, 713.013
935.024, 850.080
936.286, 972.157
937.549, 1257.245
938.811, 1516.376
940.073, 2233.486
941.334, 3088.087
942.596, 4314.231
943.857, 6510.402
945.118, 8869.915
946.379, 10401.133
947.640, 10856.036
948.900, 9457.368
950.161, 6960.862
951.421, 4898.173
952.681, 3435.467
953.940, 2407.242
955.200, 1790.404
956.459, 1237.814
957.719, 1020.155
958.978, 741.504
960.236, 620.865
961.495, 469.235
962.753, 419.612
964.012, 273.001
965.270, 250.399
966.527, 213.824
967.785, 149.267
969.043, 108.719
970.300, 79.576
971.557, 84.650
972.814, 28.128
974.071, 48.623
975.327, 24.126
976.583, 10.638
977.840, 26.168
979.095, 18.426
980.351, 11.727
981.607, 36.836
982.862, 27.458
984.117, 43.041
985.372, 77.632
986.627, 18.230
987.882, 12.164
989.136, 52.454
990.390, 7.920
991.644, 18.288
992.898, 48.652
994.152, 6.024
995.405, 9.352
996.659, 38.297
997.912, 24.953
999.165, 70.625
1000.417, 40.304
1001.670, 31.002
1002.922, 155.706
1004.174, 66.417
1005.426, 102.134
1006.678, 59.866
1007.930, 53.604
1009.181, 92.348
1010.432, 64.097
1011.683, 23.852
1012.934, 76.613
1014.185, 127.380
1015.435, 97.152
1016.685, 52.930
1017.935, 74.714
1019.185, 61.209
1020.435, 109.297
1021.684, 101.096
1022.934, 109.900
1024.183, 171.708
1025.432, 58.521
1026.680, 140.339
1027.929, 116.190
1029.177, 150.017
1030.425, 88.071
1031.673, 174.906
1032.921, 103.849
1034.169, 70.691
1035.416, 66.538
1036.663, 88.388
1037.911, 11.243
1039.157, 118.101
1040.404, 44.970
1041.650, 16.940
1042.897, 99.809
1044.143, 52.682
1045.389, 86.559
1046.634, 117.439
1047.880, 20.677
1049.125, 11.798
1050.371, 14.079
1051.615, 27.959
1052.860, 28.158
1054.105, 55.715
1055.349, 17.409
1056.593, 1.538
1057.837, 2.666
1059.081, 21.206
1060.325, 53.080
1061.568, 4.956
1062.812, 14.166
1064.055, 94.738
1065.298, 35.613
1066.540, 37.490
1067.783, 6.368
1069.025, 22.725
1070.267, 14.022
1071.509, 0.938
1072.751, 20.692
1073.993, 36.499
1075.234, 7.716
1076.475, 18.127
1077.716, 73.163
1078.957, 2.454
1080.198, 57.476
1081.438, 83.399
1082.679, 31.715
1083.919, 49.144
1085.159, 45.998
1086.398, 25.850
1087.638, 4.104
1088.877, 11.921
1090.116, 4.806
1091.355, 8.303
1092.594, 34.548
1093.833, 0.615
1095.071, 52.579
1096.309, 55.948
1097.547, 5.908
1098.785, 48.204
1100.023, 44.689
1101.260, 30.360
1102.498, 2.001
1103.735, 24.833
1104.972, 12.191
1106.208, 26.673
1107.445, 38.540
1108.681, 21.246
1109.918, 73.020
1111.154, 52.712
1112.389, 127.564
1113.625, 82.450
1114.860, 76.135
1116.096, 84.819
1117.331, 104.499
1118.566, 115.616
1119.800, 78.851
1121.035, 148.543
1122.269, 165.432
1123.503, 164.222
1124.737, 99.882
1125.971, 96.595
1127.205, 111.548
1128.438, 76.418
1129.671, 66.112
1130.904, 14.751
1132.137, 44.526
1133.370, 66.446
1134.602, 125.128
1135.834, 20.036
1137.066, 22.854
1138.298, 73.711
1139.530, 29.663
1140.762, 118.085
1141.993, 94.958
1143.224, 17.580
1144.455, 55.342
1145.686, 31.019
1146.917, 78.875
1148.147, 64.564
1149.377, 135.130
1150.607, 111.751
1151.837, 143.526
1153.067, 95.076
1154.296, 156.775
1155.526, 101.312
1156.755, 123.844
1157.984, 139.404
1159.213, 129.954
1160.441, 124.612
1161.670, 123.122
1162.898, 110.720
1164.126, 124.337
1165.354, 69.825
1166.581, 93.308
1167.809, 123.783
1169.036, 44.252
1170.263, 82.715
1171.490, 84.171
1172.717, 142.621
1173.943, 99.063
1175.170, 36.499
1176.396, 46.927
1177.622, 22.658
1178.848, 106.761
1180.073, 29.166
1181.299, 72.563
1182.524, 87.953
1183.749, 71.335
1184.974, 132.710
1186.199, 153.139
1187.423, 48.568
1188.648, 32.005
1189.872, 60.349
1191.096, 61.979
1192.320, 80.308
1193.543, 114.629
1194.767, 132.314
1195.990, 102.755
1197.213, 112.588
1198.436, 84.879
1199.659, 121.162
1200.881, 95.148
1202.104, 196.415
1203.326, 101.901
1204.548, 143.056
1205.770, 114.157
1206.991, 222.394
1208.213, 89.623
1209.434, 131.843
1210.655, 50.376
1211.876, 100.581
1213.096, 102.778
1214.317, 64.059
1215.537, 53.240
1216.757, 63.242
1217.977, 46.671
1219.197, 19.728
1220.417, 20.772
1221.636, 19.984
1222.855, 13.345
1224.074, 30.482
1225.293, 14.596
1226.512, 43.442
1227.731, 45.529
1228.949, 55.159
1230.167, 56.457
1231.385, 57.907
1232.603, 58.962
1233.820, 18.010
1235.038, 34.120
1236.255, 17.760
1237.472, 24.768
1238.689, 20.187
1239.906, 62.771
1241.122, 20.401
1242.338, 10.339
1243.555, 46.589
1244.771, 38.566
1245.986, 3.281
1247.202, 15.142
1248.417, 0.859
1249.633, 9.536
1250.848, 2.372
1252.063, 22.478
1253.277, 22.314
1254.492, 52.972
1255.706, 36.794
1256.920, 80.792
1258.134, 24.937
1259.348, 21.716
1260.562, 60.487
1261.775, 83.244
1262.988, 86.848
1264.201, 62.832
1265.414, 70.555
1266.627, 53.271
1267.839, 23.023
1269.052, 30.654
1270.264, 63.372
1271.476, 46.032
1272.688, 24.326
1273.899, 21.298
1275.111, 18.913
1276.322, 90.521
1277.533, 5.932
1278.744, 16.655
1279.955, 47.233
1281.165, 16.804
1282.376, 10.635
1283.586, 19.945
1284.796, 7.486
1286.006, 20.017
1287.215, 58.543
1288.425, 33.068
1289.634, 13.550
1290.843, 39.057
1292.052, 24.446
1293.261, 34.032
1294.469, 62.504
1295.678, 47.967
1296.886, 22.423
1298.094, 119.870
1299.302, 22.691
1300.509, 114.731
1301.717, 74.145
1302.924, 54.551
1304.131, 55.949
1305.338, 31.338
1306.545, 62.717
1307.752, 40.088
1308.958, 34.451
1310.164, 121.805
1311.370, 82.152
1312.576, 102.489
1313.782, 101.818
1314.987, 82.139
1316.193, 80.453
1317.398, 163.758
1318.603, 218.054
1319.807, 123.343
1321.012, 111.594
1322.216, 229.858
1323.421, 92.885
1324.625, 79.130
1325.829, 122.263
1327.032, 64.492
1328.236, 157.715
1329.439, 159.930
1330.642, 49.138
1331.845, 47.339
1333.048, 43.527
1334.251, 157.610
1335.453, 15.792
1336.656, 140.965
1337.858, 68.131
1339.060, 10.292
1340.261, 93.444
1341.463, 75.594
1342.664, 108.741
1343.866, 67.882
1345.067, 78.016
1346.267, 109.149
1347.468, 68.278
1348.669, 113.404
1349.869, 116.525
1351.069, 88.698
1352.269, 72.829
1353.469, 88.934
1354.668, 127.035
1355.868, 70.103
1357.067, 133.198
1358.266, 41.288
1359.465, 68.374
1360.664, 94.640
1361.862, 81.724
1363.061, 55.792
1364.259, 69.682
1365.457, 46.625
1366.655, 48.274
1367.852, 24.905
1369.050, 61.804
1370.247, 73.353
1371.444, 111.352
1372.641, 80.356
1373.838, 95.399
1375.035, 63.402
1376.231, 74.888
1377.427, 104.861
1378.623, 37.502
1379.819, 40.315
1381.015, 109.040
1382.211, 46.636
1383.406, 114.056
1384.601, 120.826
1385.796, 64.354
1386.991, 65.238
1388.185, 26.437
1389.380, 48.739
1390.574, 73.740
1391.768, 25.986
1392.962, 67.162
1394.156, 36.428
1395.350, 35.384
1396.543, 71.707
1397.736, 6.981
1398.929, 99.300
1400.122, 16.008
1401.315, 3.208
1402.507, 122.631
1403.700, 56.562
1404.892, 152.136
1406.084, 108.922
1407.276, 24.141
1408.467, 81.436
1409.659, 102.400
1410.850, 65.986
1412.041, 134.178
1413.232, 35.167
1414.423, 137.945
1415.614, 88.287
1416.804, 78.245
1417.994, 74.014
1419.184, 144.866
1420.374, 81.677
1421.564, 106.634
1422.753, 50.583
1423.943, 87.522
1425.132, 83.451
1426.321, 36.373
1427.510, 72.287
1428.698, 90.194
1429.887, 109.093
1431.075, 126.796
1432.263, 133.552
1433.451, 43.989
1434.639, 85.288
1435.827, 96.128
1437.014, 90.960
1438.201, 166.782
1439.388, 171.595
1440.575, 175.398
1441.762, 155.190
1442.949, 112.972
1444.135, 207.593
1445.321, 94.345
1446.507, 209.019
1447.693, 191.618
1448.879, 247.896
1450.064, 180.601
1451.250, 191.308
1452.435, 221.003
1453.620, 261.679
1454.805, 287.972
1455.989, 199.556
1457.174, 317.287
1458.358, 155.026
1459.542, 216.431
1460.726, 186.933
1461.910, 142.508
1463.093, 283.052
1464.277, 165.937
1465.460, 164.427
1466.643, 287.133
1467.826, 131.858
1469.009, 277.365
1470.191, 146.119
1471.373, 198.807
1472.556, 157.634
1473.738, 187.484
1474.919, 173.335
1476.101, 171.180
1477.283, 205.018
1478.464, 191.765
1479.645, 221.589
1480.826, 171.414
1482.007, 138.254
1483.187, 221.099
1484.368, 128.942
1485.548, 115.786
1486.728, 147.632
1487.908, 202.483
1489.088, 78.351
1490.268, 151.232
1491.447, 131.122
1492.626, 25.037
1493.805, 33.963
1494.984, 113.916
1496.163, 98.893
1497.341, 154.984
1498.520, 108.126
1499.698, 52.305
1500.876, 85.516
1502.054, 15.248
1503.232, 59.020
1504.409, 34.326
1505.586, 8.673
1506.763, 9.066
1507.940, 61.513
1509.117, 37.020
1510.294, 70.595
1511.470, 62.615
1512.647, 73.309
1513.823, 108.084
1514.999, 95.939
1516.174, 159.107
1517.350, 2.127
1518.526, 63.179
1519.701, 19.849
1520.876, 61.287
1522.051, 24.425
1523.226, 32.757
1524.400, 63.925
1525.574, 39.396
1526.749, 0.118
1527.923, 0.000
##END=



