##NAMES=Montebrasite
##RRUFFID=R040062
##IDEAL CHEMISTRY=LiAlPO_4_(OH)
##LOCALITY=Hebron, Maine, USA
##OWNER=RRUFF
##SOURCE=University of Arizona Mineral Museum
##DESCRIPTION=White massive
##STATUS=The identification of this mineral has been confirmed by X-ray diffraction and chemical analysis
##URL=rruff.info/R040062
##MEASURED CHEMISTRY=LiAl(PO_4_)((OH)_0.62_F_0.38_)
##PIN_ID=L00490
##ORIENTATION=Laser parallel to (1 0 1). Fiducial mark perpendicular to laser is parallel to b [0 1 0]
111.932, 0.000
113.329, 99.192
114.726, 125.806
116.123, 78.486
117.519, 208.838
118.915, 55.719
120.311, 321.203
121.706, 610.064
123.102, 972.475
124.497, 1486.895
125.892, 2109.573
127.286, 2835.368
128.681, 3754.106
130.075, 4635.371
131.469, 4728.441
132.862, 5142.502
134.256, 4556.985
135.649, 3721.555
137.042, 3096.594
138.435, 2292.810
139.827, 1590.982
141.219, 1083.315
142.611, 719.999
144.003, 527.816
145.394, 325.498
146.786, 372.668
148.177, 190.522
149.567, 253.215
150.958, 153.008
152.348, 331.007
153.738, 289.387
155.128, 428.312
156.517, 331.938
157.907, 380.400
159.296, 485.689
160.685, 457.521
162.073, 525.219
163.462, 669.477
164.850, 584.002
166.237, 626.661
167.625, 678.298
169.012, 733.887
170.400, 680.505
171.786, 643.100
173.173, 659.680
174.559, 705.125
175.946, 718.374
177.332, 850.421
178.717, 797.871
180.103, 947.344
181.488, 934.286
182.873, 1095.506
184.258, 1088.175
185.642, 1384.856
187.026, 1301.976
188.410, 1377.344
189.794, 1505.943
191.178, 1457.535
192.561, 1398.116
193.944, 1446.688
195.327, 1358.280
196.709, 1214.003
198.092, 1051.882
199.474, 928.920
200.856, 813.123
202.237, 548.487
203.618, 441.998
205.000, 266.650
206.380, 284.432
207.761, 171.337
209.142, 99.352
210.522, 33.463
211.902, 59.657
213.281, 35.924
214.661, 11.595
216.040, 26.634
217.419, 0.062
218.798, 46.471
220.176, 0.029
221.554, 25.554
222.932, 66.907
224.310, 40.362
225.688, 44.823
227.065, 45.299
228.442, 57.797
229.819, 55.326
231.196, 47.108
232.572, 110.493
233.948, 15.131
235.324, 97.800
236.700, 136.499
238.075, 13.219
239.450, 31.932
240.825, 96.604
242.200, 37.284
243.574, 21.986
244.948, 99.729
246.322, 12.480
247.696, 106.196
249.070, 17.027
250.443, 46.964
251.816, 22.037
253.189, 44.250
254.561, 20.591
255.933, 7.248
257.306, 22.732
258.677, 45.474
260.049, 103.533
261.420, 164.471
262.791, 259.560
264.162, 268.965
265.533, 437.550
266.903, 448.043
268.274, 493.469
269.643, 745.874
271.013, 848.276
272.383, 876.675
273.752, 973.075
275.121, 1128.475
276.490, 1043.875
277.858, 1152.975
279.226, 1132.896
280.595, 1223.272
281.962, 1293.937
283.330, 1514.788
284.697, 1625.762
286.064, 2056.811
287.431, 2398.114
288.798, 3039.323
290.164, 3890.840
291.530, 5212.017
292.896, 6793.220
294.262, 8764.264
295.627, 11405.179
296.993, 13596.674
298.358, 14987.524
299.722, 15458.230
301.087, 14949.337
302.451, 13220.046
303.815, 11580.560
305.179, 10201.204
306.543, 9071.510
307.906, 8311.609
309.269, 7581.584
310.632, 7111.430
311.995, 6581.144
313.357, 5970.727
314.719, 5580.183
316.081, 5269.521
317.443, 5038.749
318.804, 4857.873
320.166, 4676.898
321.527, 4285.835
322.887, 3944.685
324.248, 3423.446
325.608, 3002.105
326.968, 2620.643
328.328, 2399.040
329.688, 2057.295
331.047, 1925.358
332.406, 1703.240
333.765, 1530.920
335.124, 1418.392
336.482, 1345.723
337.840, 1112.847
339.198, 999.699
340.556, 1016.416
341.913, 952.946
343.271, 759.307
344.628, 785.501
345.984, 691.572
347.341, 837.525
348.697, 713.383
350.053, 859.173
351.409, 734.939
352.765, 680.695
354.120, 626.801
355.475, 652.541
356.830, 620.139
358.185, 704.671
359.539, 650.762
360.894, 687.204
362.248, 773.579
363.601, 689.508
364.955, 721.352
366.308, 770.437
367.661, 836.407
369.014, 843.180
370.367, 890.876
371.719, 976.805
373.071, 981.990
374.423, 1007.715
375.775, 995.607
377.126, 961.010
378.478, 945.860
379.828, 950.449
381.179, 952.987
382.530, 843.515
383.880, 926.603
385.230, 880.205
386.580, 988.500
387.929, 808.647
389.279, 841.247
390.628, 790.490
391.977, 809.438
393.325, 728.401
394.674, 803.138
396.022, 629.136
397.370, 720.742
398.718, 707.462
400.065, 721.583
401.413, 623.201
402.760, 563.996
404.106, 640.808
405.453, 610.814
406.799, 702.073
408.146, 618.553
409.491, 790.617
410.837, 596.311
412.182, 787.406
413.528, 797.247
414.873, 948.020
416.217, 1207.636
417.562, 1458.509
418.906, 2180.220
420.250, 3201.234
421.594, 4724.980
422.938, 6569.346
424.281, 8064.079
425.624, 9049.222
426.967, 8454.412
428.310, 7079.764
429.652, 5065.107
430.994, 3550.464
432.336, 2435.811
433.678, 1751.146
435.020, 1216.495
436.361, 921.831
437.702, 907.158
439.043, 612.474
440.383, 447.764
441.724, 563.025
443.064, 538.255
444.404, 403.460
445.743, 368.628
447.083, 323.761
448.422, 208.858
449.761, 233.916
451.100, 158.935
452.438, 233.913
453.777, 218.850
455.115, 243.749
456.453, 264.917
457.790, 103.440
459.128, 238.229
460.465, 252.979
461.802, 137.691
463.139, 212.362
464.475, 236.995
465.811, 181.589
467.147, 236.145
468.483, 350.662
469.819, 335.146
471.154, 459.592
472.489, 424.004
473.824, 438.382
475.159, 532.726
476.493, 587.034
477.827, 671.311
479.161, 815.554
480.495, 859.765
481.829, 983.943
483.162, 1148.088
484.495, 1102.201
485.828, 1026.284
487.161, 1330.334
488.493, 1184.355
489.825, 1238.345
491.157, 1312.305
492.489, 1316.236
493.820, 1370.137
495.151, 1454.012
496.482, 1257.859
497.813, 1201.681
499.144, 1205.477
500.474, 1129.247
501.804, 912.993
503.134, 886.716
504.464, 850.417
505.793, 644.094
507.123, 717.750
508.451, 511.385
509.780, 454.998
511.109, 388.592
512.437, 332.162
513.765, 155.714
515.093, 259.240
516.421, 102.744
517.748, 216.225
519.075, 149.680
520.402, 63.114
521.729, 76.520
523.055, 179.932
524.382, 76.715
525.708, 32.993
527.034, 160.230
528.359, 3.531
529.685, 13.079
531.010, 40.098
532.335, 83.705
533.659, 12.618
534.984, 60.424
536.308, 55.670
537.632, 12.504
538.956, 157.065
540.279, 126.178
541.603, 1.858
542.926, 24.952
544.249, 168.070
545.571, 131.000
546.894, 84.522
548.216, 32.218
549.538, 221.112
550.860, 107.568
552.181, 143.414
553.503, 28.646
554.824, 46.409
556.145, 119.512
557.465, 52.308
558.786, 88.239
560.106, 159.876
561.426, 73.069
562.746, 81.032
564.065, 203.971
565.385, 143.229
566.704, 116.271
568.023, 91.857
569.341, 205.060
570.660, 248.146
571.978, 106.348
573.296, 304.604
574.614, 208.211
575.931, 294.015
577.248, 476.884
578.565, 218.377
579.882, 391.119
581.199, 387.016
582.515, 461.078
583.831, 438.255
585.147, 474.816
586.463, 582.021
587.779, 755.576
589.094, 722.817
590.409, 725.965
591.724, 918.565
593.038, 966.501
594.353, 1479.286
595.667, 1911.911
596.981, 2354.629
598.295, 2827.145
599.608, 3469.919
600.922, 3672.451
602.235, 3816.824
603.547, 3169.043
604.860, 2751.559
606.172, 2213.998
607.485, 1955.912
608.797, 1618.009
610.108, 1359.653
611.420, 1251.645
612.731, 1243.482
614.042, 1105.397
615.353, 1339.527
616.664, 1280.795
617.974, 1402.600
619.284, 1524.483
620.594, 1825.809
621.904, 2077.418
623.213, 2499.102
624.523, 3050.525
625.832, 3562.149
627.141, 4433.832
628.449, 4875.488
629.758, 5277.113
631.066, 5298.711
632.374, 5090.277
633.681, 4701.817
634.989, 4493.328
636.296, 4694.811
637.603, 5116.263
638.910, 6197.689
640.217, 8039.086
641.523, 10480.454
642.829, 12971.796
644.135, 15173.107
645.441, 15504.396
646.747, 13965.649
648.052, 11766.880
649.357, 9098.079
650.662, 6819.256
651.967, 4960.401
653.271, 4011.521
654.575, 2842.613
655.879, 2483.678
657.183, 1994.714
658.486, 1715.725
659.790, 1396.708
661.093, 1227.664
662.396, 888.594
663.698, 1009.496
665.001, 720.371
666.303, 741.220
667.605, 652.042
668.907, 522.837
670.209, 573.607
671.510, 373.992
672.811, 394.709
674.112, 364.825
675.413, 265.393
676.713, 235.658
678.013, 305.539
679.313, 225.450
680.613, 325.771
681.913, 120.143
683.212, 227.230
684.511, 197.398
685.810, 166.559
687.109, 204.834
688.407, 94.365
689.706, 74.117
691.004, 212.353
692.302, 52.026
693.599, 157.514
694.897, 7.595
696.194, 96.627
697.491, 3.615
698.788, 125.677
700.084, 114.810
701.380, 154.771
702.677, 44.430
703.972, 73.867
705.268, 50.537
706.564, 19.502
707.859, 10.082
709.154, 0.403
710.449, 41.540
711.743, 100.845
713.037, 170.105
714.332, 9.448
715.626, 100.396
716.919, 78.828
718.213, 202.334
719.506, 136.331
720.799, 64.507
722.092, 104.298
723.384, 7.032
724.677, 61.481
725.969, 90.446
727.261, 50.431
728.553, 51.989
729.844, 27.031
731.136, 14.217
732.427, 124.724
733.718, 106.359
735.008, 172.231
736.299, 18.969
737.589, 9.781
738.879, 41.505
740.169, 32.851
741.458, 44.254
742.748, 14.282
744.037, 47.212
745.326, 21.231
746.614, 99.648
747.903, 61.955
749.191, 36.373
750.479, 64.680
751.767, 32.966
753.055, 71.229
754.342, 19.473
755.629, 47.692
756.916, 14.107
758.203, 144.053
759.490, 22.196
760.776, 30.318
762.062, 118.419
763.348, 66.506
764.634, 204.573
765.919, 72.628
767.204, 221.113
768.489, 139.321
769.774, 22.673
771.059, 285.297
772.343, 83.253
773.627, 61.193
774.911, 219.119
776.195, 187.031
777.479, 374.929
778.762, 212.814
780.045, 220.687
781.328, 418.544
782.611, 346.389
783.893, 504.219
785.175, 692.037
786.457, 749.840
787.739, 757.632
789.021, 1035.410
790.302, 883.177
791.583, 1190.931
792.864, 1188.674
794.145, 1506.404
795.425, 1564.123
796.706, 1741.831
797.986, 2119.528
799.266, 1877.215
800.545, 2014.891
801.825, 2132.557
803.104, 1930.211
804.383, 2217.855
805.662, 1995.491
806.940, 2003.119
808.219, 1890.735
809.497, 1858.343
810.775, 1865.941
812.053, 1633.532
813.330, 1331.114
814.608, 1538.688
815.885, 1176.255
817.162, 1333.813
818.438, 1221.365
819.715, 1108.909
820.991, 816.446
822.267, 803.978
823.543, 751.501
824.818, 549.020
826.094, 696.533
827.369, 414.040
828.644, 451.545
829.919, 519.045
831.193, 326.537
832.468, 284.033
833.742, 331.490
835.016, 88.979
836.289, 266.049
837.563, 133.572
838.836, 210.992
840.109, 68.295
841.382, 95.773
842.654, 82.795
843.927, 149.725
845.199, 2.736
846.471, 193.918
847.743, 58.727
849.014, 116.326
850.286, 23.514
851.557, 21.746
852.828, 185.576
854.099, 7.139
855.369, 60.322
856.639, 7.197
857.909, 94.336
859.179, 61.393
860.449, 85.330
861.718, 10.117
862.988, 65.076
864.257, 102.285
865.525, 95.051
866.794, 57.312
868.062, 77.219
869.331, 186.082
870.599, 113.389
871.866, 235.947
873.134, 3.551
874.401, 274.838
875.668, 212.359
876.935, 277.359
878.202, 84.738
879.468, 102.256
880.735, 304.658
882.001, 157.016
883.267, 164.021
884.532, 268.840
885.798, 286.596
887.063, 195.729
888.328, 203.613
889.593, 238.336
890.857, 174.877
892.122, 408.295
893.386, 462.309
894.650, 375.666
895.913, 192.658
897.177, 425.949
898.440, 543.320
899.703, 311.223
900.966, 453.775
902.229, 421.463
903.491, 169.301
904.754, 577.029
906.016, 94.949
907.278, 292.594
908.539, 130.467
909.801, 256.488
911.062, 204.648
912.323, 62.502
913.584, 260.414
914.844, 198.627
916.105, 76.748
917.365, 4.998
918.625, 36.799
919.885, 19.482
921.144, 39.775
922.404, 65.908
923.663, 104.244
924.922, 92.598
926.180, 80.924
927.439, 149.318
928.697, 37.730
929.955, 50.512
931.213, 164.617
932.471, 53.090
933.728, 81.586
934.985, 240.104
936.242, 158.646
937.499, 187.213
938.756, 205.803
940.012, 344.414
941.269, 233.051
942.525, 221.709
943.780, 130.391
945.036, 389.096
946.291, 327.834
947.546, 326.586
948.801, 315.361
950.056, 374.152
951.311, 132.965
952.565, 321.795
953.819, 250.648
955.073, 429.521
956.327, 438.414
957.580, 327.330
958.834, 296.266
960.087, 485.223
961.339, 364.203
962.592, 503.205
963.845, 512.230
965.097, 481.279
966.349, 460.352
967.601, 669.447
968.852, 828.568
970.104, 816.580
971.355, 876.879
972.606, 876.072
973.857, 895.289
975.107, 974.533
976.358, 1036.541
977.608, 1083.100
978.858, 1232.422
980.108, 1381.771
981.357, 1491.148
982.607, 1860.555
983.856, 1549.984
985.105, 2109.445
986.353, 2188.932
987.602, 2698.449
988.850, 3107.992
990.098, 3217.562
991.346, 3807.164
992.594, 4456.795
993.841, 4976.455
995.089, 6076.146
996.336, 6615.805
997.583, 7765.562
998.829, 8933.443
1000.076, 10173.273
1001.322, 12423.133
1002.568, 14032.551
1003.814, 15922.484
1005.060, 17902.320
1006.305, 19842.318
1007.550, 21472.350
1008.795, 22502.420
1010.040, 22652.514
1011.285, 22472.668
1012.529, 20666.701
1013.773, 19746.938
1015.017, 17330.365
1016.261, 15410.691
1017.505, 13423.395
1018.748, 11876.426
1019.991, 10456.906
1021.234, 9283.588
1022.477, 8283.711
1023.719, 7624.355
1024.962, 7039.539
1026.204, 6700.285
1027.446, 6341.082
1028.688, 6381.914
1029.929, 6372.785
1031.170, 6823.713
1032.411, 7184.703
1033.652, 8065.734
1034.893, 8306.820
1036.134, 9187.945
1037.374, 9929.145
1038.614, 10670.387
1039.854, 11631.680
1041.094, 12943.020
1042.333, 13324.424
1043.572, 14175.887
1044.811, 14447.408
1046.050, 14478.902
1047.289, 15310.615
1048.527, 14322.297
1049.766, 14284.021
1051.004, 14435.820
1052.241, 15067.660
1053.479, 15969.551
1054.717, 17011.428
1055.954, 18683.244
1057.191, 20545.041
1058.428, 20896.828
1059.664, 20687.678
1060.901, 20480.256
1062.137, 18021.984
1063.373, 15543.752
1064.609, 12515.547
1065.844, 10467.375
1067.080, 8199.234
1068.315, 6810.678
1069.550, 5732.412
1070.785, 4854.361
1072.019, 3986.346
1073.254, 3498.355
1074.488, 3090.387
1075.722, 2593.398
1076.955, 2334.514
1078.189, 1946.625
1079.422, 1918.781
1080.656, 1700.984
1081.889, 1603.230
1083.121, 1455.525
1084.354, 1299.262
1085.586, 1351.666
1086.818, 1174.139
1088.050, 1085.656
1089.282, 1089.312
1090.514, 962.033
1091.745, 954.646
1092.976, 899.932
1094.207, 741.703
1095.438, 872.680
1096.668, 744.439
1097.899, 856.252
1099.129, 778.115
1100.359, 800.035
1101.588, 1062.008
1102.818, 744.031
1104.047, 836.113
1105.276, 1108.248
1106.505, 1060.441
1107.734, 1112.689
1108.962, 1214.996
1110.191, 1007.355
1111.419, 1139.777
1112.647, 1172.258
1113.874, 1054.799
1115.102, 1087.396
1116.329, 890.055
1117.556, 842.777
1118.783, 1005.557
1120.010, 1198.400
1121.236, 1371.318
1122.463, 1164.309
1123.689, 767.367
1124.914, 830.494
1126.140, 413.682
1127.366, 746.938
1128.591, 360.213
1129.816, 513.518
1131.041, 456.842
1132.266, 70.178
1133.490, 433.537
1134.714, 276.902
1135.938, 60.324
1137.162, 513.799
1138.386, 156.100
1139.609, 276.549
1140.833, 339.719
1142.056, 348.689
1143.279, 140.984
1144.501, 213.189
1145.724, 173.283
1146.946, 128.824
1148.168, 240.561
1149.390, 64.617
1150.612, 173.975
1151.833, 169.516
1153.054, 217.225
1154.275, 37.932
1155.496, 102.199
1156.717, 206.535
1157.937, 100.928
1159.158, 94.617
1160.378, 459.896
1161.598, 135.525
1162.817, 219.109
1164.037, 86.217
1165.256, 61.486
1166.475, 133.293
1167.694, 111.871
1168.913, 163.008
1170.131, 407.986
1171.349, 86.936
1172.567, 348.242
1173.785, 183.521
1175.003, 138.904
1176.220, 174.389
1177.438, 319.977
1178.655, 225.670
1179.872, 311.469
1181.088, 187.377
1182.305, 453.391
1183.521, 359.512
1184.737, 405.740
1185.953, 412.076
1187.169, 548.531
1188.384, 445.104
1189.599, 537.424
1190.814, 488.633
1192.029, 555.596
1193.244, 552.695
1194.459, 419.934
1195.673, 527.320
1196.887, 674.861
1198.101, 372.559
1199.314, 660.420
1200.528, 284.176
1201.741, 597.688
1202.954, 470.193
1204.167, 276.707
1205.380, 382.850
1206.592, 238.275
1207.805, 312.400
1209.017, 277.432
1210.229, 212.359
1211.440, 427.152
1212.652, 421.773
1213.863, 286.176
1215.074, 370.305
1216.285, 404.096
1217.496, 207.463
1218.707, 220.309
1219.917, 172.498
1221.127, 304.338
1222.337, 347.924
1223.547, 233.072
1224.756, 240.354
1225.966, 237.838
1227.175, 455.615
1228.384, 223.838
1229.592, 17.219
1230.801, 332.922
1232.009, 464.854
1233.217, 248.412
1234.425, 493.588
1235.633, 114.188
1236.841, 393.988
1238.048, 218.764
1239.255, 0.922
1240.462, 0.000
##END=



