##NAMES=Montebrasite
##RRUFFID=R060890
##IDEAL CHEMISTRY=LiAlPO_4_(OH)
##LOCALITY=Mount Marie, Paris, Maine, USA
##OWNER=RRUFF
##SOURCE=Bob Jenkins
##DESCRIPTION=Colorless massive
##STATUS=The identification of this mineral is confirmed by single-crystal X-ray diffraction and chemical analysis.
##URL=rruff.info/R060890
##MEASURED CHEMISTRY=Li_1.00_Al_1.00_(P_1.00_O_4_)(OH)_0.63_F_0.37_)_Î£=1_ ; Li not measured but estimated by stoichiometry
##PIN_ID=M01503
##ORIENTATION=Laser parallel to (-1 0 -1). Fiducial mark perpendicular to laser is parallel to b [0 1 0]
90.67800, 0.0000000E+00
91.91600, 360.5281
93.15500, 88.40771
94.39300, 99.15137
95.63100, 112.9419
96.86900, 0.9824220
98.10600, 16.84814
99.34400, 140.5415
100.5810, 223.5742
101.8190, 200.7974
103.0560, 118.8438
104.2930, 198.3850
105.5290, 455.2324
106.7660, 703.4331
108.0020, 709.6987
109.2390, 666.7915
110.4750, 693.6526
111.7110, 746.3240
112.9460, 698.6375
114.1820, 1054.446
115.4170, 1189.639
116.6530, 1231.135
117.8880, 1382.872
119.1230, 1459.802
120.3580, 1583.828
121.5920, 1806.516
122.8270, 2279.026
124.0610, 2616.378
125.2950, 2811.587
126.5290, 2940.670
127.7630, 3318.640
128.9970, 3684.204
130.2300, 3871.042
131.4640, 3871.350
132.6970, 3492.395
133.9300, 3233.164
135.1630, 2818.685
136.3950, 2352.986
137.6280, 1861.088
138.8600, 1692.015
140.0920, 1602.782
141.3240, 1441.407
142.5560, 1313.913
143.7880, 1151.281
145.0190, 1097.554
146.2510, 1057.715
147.4820, 1147.819
148.7130, 1143.740
149.9440, 1220.449
151.1750, 1350.488
152.4050, 1244.067
153.6360, 1348.635
154.8660, 1546.195
156.0960, 1526.750
157.3260, 1533.295
158.5560, 1521.833
159.7850, 1554.366
161.0150, 1533.891
162.2440, 1499.408
163.4730, 1556.921
164.7020, 1411.486
165.9310, 1270.189
167.1590, 1031.551
168.3880, 1085.972
169.6160, 944.0706
170.8440, 768.6733
172.0720, 687.9082
173.3000, 561.9702
174.5280, 475.5530
175.7550, 437.9470
176.9820, 429.3979
178.2100, 477.9058
179.4370, 516.4688
180.6630, 512.6165
181.8900, 496.7544
183.1170, 530.4736
184.3430, 505.2415
185.5690, 529.0562
186.7950, 659.9148
188.0210, 592.8164
189.2470, 628.7583
190.4720, 657.7397
191.6970, 593.7585
192.9230, 623.8140
194.1480, 607.9016
195.3730, 557.0161
196.5970, 571.2129
197.8220, 497.3245
199.0460, 529.5171
200.2700, 512.7351
201.4940, 445.9773
202.7180, 288.2422
203.9420, 75.52539
205.1660, 119.1763
206.3890, 57.86353
207.6120, 100.5359
208.8350, 34.19336
210.0580, 17.83618
211.2810, 24.53613
212.5040, 54.92285
213.7260, 157.3252
214.9480, 189.7422
216.1700, 158.1748
217.3920, 80.62158
218.6140, 170.0837
219.8360, 178.5608
221.0570, 143.0530
222.2790, 207.4548
223.5000, 101.7659
224.7210, 143.0574
225.9410, 196.7000
227.1620, 290.0254
228.3820, 63.36963
229.6030, 149.7319
230.8230, 160.1130
232.0430, 45.51270
233.2630, 70.92993
234.4820, 72.36523
235.7020, 37.81860
236.9210, 63.28955
238.1400, 17.47070
239.3590, 53.11108
240.5780, 35.56885
241.7970, 83.98804
243.0150, 39.27930
244.2340, 58.53149
245.4520, 130.1274
246.6700, 123.1414
247.8880, 95.10303
249.1060, 45.02222
250.3230, 34.89526
251.5400, 67.27710
252.7580, 60.49683
253.9750, 0.2377930
255.1920, 135.0596
256.4080, 288.3933
257.6250, 352.7600
258.8410, 536.1558
260.0580, 723.5708
261.2740, 866.0024
262.4900, 1058.477
263.7050, 1385.966
264.9210, 1601.481
266.1360, 1951.009
267.3520, 2232.537
268.5670, 2559.070
269.7820, 2797.604
270.9960, 2974.150
272.2110, 3136.714
273.4250, 3322.279
274.6400, 3221.847
275.8540, 3120.414
277.0680, 2884.974
278.2810, 2870.523
279.4950, 2754.064
280.7090, 2546.599
281.9220, 2592.127
283.1350, 2587.649
284.3480, 2607.167
285.5610, 2858.679
286.7730, 3145.189
287.9860, 3647.696
289.1980, 4304.200
290.4100, 5030.702
291.6220, 6066.204
292.8340, 7232.703
294.0460, 8767.200
295.2570, 10389.56
296.4690, 12612.80
297.6800, 14442.03
298.8910, 16671.26
300.1020, 18388.50
301.3120, 19026.74
302.5230, 18756.99
303.7330, 17357.24
304.9440, 15561.51
306.1540, 13509.78
307.3630, 11573.05
308.5730, 9738.334
309.7830, 8611.622
310.9920, 7671.917
312.2010, 6700.163
313.4100, 6051.343
314.6190, 5628.430
315.8280, 5053.412
317.0370, 4575.358
318.2450, 4213.317
319.4530, 3813.283
320.6610, 3444.260
321.8690, 3112.249
323.0770, 2796.251
324.2850, 2549.263
325.4920, 2269.287
326.6990, 2035.771
327.9060, 1803.072
329.1130, 1624.425
330.3200, 1368.493
331.5270, 1225.571
332.7330, 1028.659
333.9390, 913.7571
335.1450, 775.8652
336.3510, 723.9829
337.5570, 670.1104
338.7630, 606.2471
339.9680, 519.3933
341.1740, 419.5488
342.3790, 407.7131
343.5840, 404.8865
344.7890, 224.0686
345.9930, 124.2595
347.1980, 144.4590
348.4020, 114.6670
349.6060, 94.88354
350.8100, 144.6301
352.0140, 40.25928
353.2180, 15.24365
354.4210, 10.42041
355.6250, 75.58667
356.8280, 32.73486
358.0310, 114.0107
359.2340, 9.705078
360.4360, 27.58521
361.6390, 59.88330
362.8410, 122.1899
364.0430, 14.50439
365.2450, 143.8271
366.4470, 104.4163
367.6490, 191.4961
368.8510, 97.84351
370.0520, 156.1995
371.2530, 142.5615
372.4540, 133.9324
373.6550, 183.3120
374.8560, 107.6992
376.0560, 143.0947
377.2570, 137.4985
378.4570, 209.9104
379.6570, 28.32983
380.8570, 64.75732
382.0570, 117.1924
383.2560, 75.60693
384.4560, 191.3887
385.6550, 88.23779
386.8540, 95.11621
388.0530, 158.8672
389.2520, 13.74414
390.4510, 141.6631
391.6490, 96.97168
392.8470, 152.6528
394.0450, 185.3774
395.2430, 96.54102
396.4410, 166.4663
397.6390, 117.4990
398.8360, 154.8062
400.0340, 172.7544
401.2310, 228.9756
402.4280, 251.0298
403.6250, 251.7363
404.8210, 264.4639
406.0180, 270.7354
407.2140, 307.4663
408.4100, 270.5898
409.6060, 379.3999
410.8020, 417.9775
411.9980, 506.9897
413.1930, 702.0464
414.3890, 986.3691
415.5840, 1286.282
416.7790, 1685.121
417.9740, 2252.084
419.1680, 2862.857
420.3630, 3288.726
421.5570, 4118.310
422.7510, 4689.994
423.9450, 5344.764
425.1390, 5428.587
426.3330, 5250.182
427.5270, 4511.779
428.7200, 3580.378
429.9130, 2746.996
431.1060, 2049.619
432.2990, 1482.246
433.4920, 1163.877
434.6840, 913.5122
435.8770, 690.1504
437.0690, 611.7935
438.2610, 644.4385
439.4530, 542.0864
440.6450, 534.7490
441.8360, 457.4258
443.0280, 452.1187
444.2190, 488.8145
445.4100, 398.5225
446.6010, 430.2358
447.7920, 484.9678
448.9820, 539.7051
450.1730, 508.4497
451.3630, 543.2021
452.5530, 588.9604
453.7430, 762.7290
454.9330, 712.5098
456.1230, 823.3042
457.3120, 1006.106
458.5010, 1074.912
459.6910, 1139.724
460.8800, 1308.541
462.0680, 1511.368
463.2570, 1652.203
464.4460, 1934.064
465.6340, 2079.940
466.8220, 2478.822
468.0100, 2831.717
469.1980, 3167.613
470.3860, 3603.521
471.5730, 4127.439
472.7600, 4778.361
473.9480, 5499.300
475.1350, 6232.249
476.3210, 7064.209
477.5080, 7574.176
478.6950, 8353.155
479.8810, 8682.141
481.0670, 9296.130
482.2530, 9312.122
483.4390, 9529.118
484.6250, 9487.115
485.8100, 9426.111
486.9960, 9025.114
488.1810, 8810.116
489.3660, 8578.120
490.5510, 7994.125
491.7360, 7673.136
492.9200, 7212.152
494.1050, 6877.204
495.2890, 6593.279
496.4730, 5894.384
497.6570, 5623.507
498.8400, 5172.640
500.0240, 4622.775
501.2070, 4219.909
502.3910, 3793.122
503.5740, 3409.874
504.7570, 3011.008
505.9400, 2673.266
507.1220, 2352.164
508.3050, 2040.395
509.4870, 1787.519
510.6690, 1506.640
511.8510, 1274.757
513.0330, 1179.873
514.2140, 963.9839
515.3960, 751.0908
516.5770, 709.1953
517.7580, 564.2949
518.9390, 464.3916
520.1200, 411.4834
521.3010, 360.5713
522.4810, 257.6543
523.6610, 244.7324
524.8420, 172.8062
526.0220, 162.8750
527.2010, 123.9556
528.3810, 56.04297
529.5610, 12.14893
530.7400, 8.793457
531.9190, 67.61816
533.0980, 34.50098
534.2770, 9.372559
535.4560, 6.228027
536.6340, 23.07861
537.8120, 7.963379
538.9910, 27.80518
540.1690, 5.695801
541.3460, 25.59375
542.5240, 29.51270
543.7020, 26.45508
544.8790, 10.57959
546.0560, 7.605957
547.2330, 108.3779
548.4100, 10.57227
549.5870, 57.48779
550.7630, 1.412598
551.9400, 52.30127
553.1160, 22.81885
554.2920, 5.953125
555.4680, 43.02734
556.6440, 68.02686
557.8190, 3.961914
558.9950, 1.893555
560.1700, 16.96484
561.3450, 3.861816
562.5200, 120.0161
563.6950, 43.01318
564.8690, 24.50391
566.0440, 14.64648
567.2180, 134.3291
568.3920, 90.44629
569.5660, 163.4336
570.7400, 136.8711
571.9130, 214.5371
573.0870, 168.9551
574.2600, 150.4614
575.4330, 209.7168
576.6060, 206.7632
577.7790, 282.3765
578.9520, 330.1802
580.1240, 195.2065
581.2960, 377.6865
582.4690, 294.0210
583.6410, 383.8506
584.8120, 443.7686
585.9840, 396.7188
587.1560, 490.9702
588.3270, 639.5049
589.4980, 685.0444
590.6690, 710.7256
591.8400, 842.7886
593.0110, 837.3960
594.1810, 1112.949
595.3510, 1252.866
596.5220, 1551.173
597.6920, 1769.098
598.8610, 1933.955
600.0310, 2293.098
601.2010, 2415.167
602.3700, 2557.638
603.5390, 2605.047
604.7080, 2463.194
605.8770, 2372.570
607.0460, 2183.684
608.2140, 2144.573
609.3830, 2074.193
610.5510, 2015.502
611.7190, 2157.723
612.8870, 2196.800
614.0550, 2370.668
615.2220, 2451.006
616.3900, 2644.762
617.5570, 2910.334
618.7240, 3136.677
619.8910, 3476.753
621.0580, 3881.342
622.2240, 4443.360
623.3910, 5001.406
624.5570, 5801.681
625.7230, 6696.994
626.8890, 7635.646
628.0550, 8874.191
629.2200, 9825.490
630.3860, 10906.41
631.5510, 11988.61
632.7160, 12948.05
633.8810, 13836.13
635.0460, 15210.48
636.2100, 16735.66
637.3750, 19337.60
638.5390, 22897.80
639.7030, 27406.55
640.8670, 33189.41
642.0310, 39758.43
643.1950, 46840.26
644.3580, 52755.15
645.5210, 55808.93
646.6850, 54898.68
647.8480, 49727.40
649.0100, 41862.09
650.1730, 33350.77
651.3350, 25800.41
652.4980, 20313.03
653.6600, 15626.62
654.8220, 13057.18
655.9840, 10596.71
657.1450, 7851.220
658.3070, 6451.698
659.4680, 5384.151
660.6300, 4576.574
661.7910, 3803.969
662.9510, 3402.336
664.1120, 2913.672
665.2730, 2581.981
666.4330, 2256.261
667.5930, 2007.511
668.7530, 1779.833
669.9130, 1537.837
671.0730, 1435.629
672.2320, 1230.891
673.3920, 1111.180
674.5510, 996.8320
675.7100, 829.2710
676.8690, 780.2417
678.0280, 728.0786
679.1860, 671.3281
680.3450, 593.0483
681.5030, 549.4946
682.6610, 495.3296
683.8190, 443.6343
684.9770, 414.4902
686.1340, 354.3726
687.2920, 324.0566
688.4490, 289.7661
689.6060, 261.0474
690.7630, 225.2144
691.9200, 196.5493
693.0760, 182.5776
694.2330, 165.0308
695.3890, 136.5181
696.5450, 124.4326
697.7010, 92.12256
698.8570, 149.1919
700.0130, 137.3916
701.1680, 86.46484
702.3230, 107.7925
703.4780, 52.98926
704.6330, 84.06592
705.7880, 174.0596
706.9430, 84.25146
708.0970, 98.40869
709.2520, 23.46729
710.4060, 38.63086
711.5600, 52.89258
712.7140, 46.87500
713.8670, 63.81836
715.0210, 82.72559
716.1740, 38.59717
717.3270, 115.4297
718.4800, 84.04639
719.6330, 6.821777
720.7860, 4.393066
721.9380, 12.26221
723.0910, 96.10840
724.2430, 1.662598
725.3950, 61.70557
726.5470, 23.83105
727.6980, 42.56494
728.8500, 34.92041
730.0010, 20.45020
731.1530, 36.71680
732.3040, 6.944336
733.4550, 1.750977
734.6050, 4.351074
735.7560, 24.71143
736.9060, 81.72852
738.0560, 58.12744
739.2060, 61.09131
740.3560, 8.275879
741.5060, 44.39404
742.6560, 47.32812
743.8050, 3.599121
744.9540, 62.76270
746.1030, 4.392090
747.2520, 98.96729
748.4010, 20.60059
749.5500, 23.11914
750.6980, 65.55762
751.8460, 4.732422
752.9950, 23.60205
754.1420, 15.29248
755.2900, 49.40430
756.4380, 26.69824
757.5850, 33.61768
758.7330, 107.7788
759.8800, 77.43262
761.0270, 75.68701
762.1730, 150.4688
763.3200, 134.3984
764.4670, 96.14355
765.6130, 102.6836
766.7590, 127.6401
767.9050, 79.20850
769.0510, 67.72363
770.1960, 61.88818
771.3420, 167.9502
772.4870, 115.7598
773.6320, 140.5869
774.7770, 82.36768
775.9220, 131.5337
777.0670, 88.96094
778.2110, 209.3647
779.3560, 75.72021
780.5000, 284.0728
781.6440, 162.9395
782.7880, 192.2666
783.9320, 216.5859
785.0750, 257.8081
786.2180, 333.9980
787.3620, 230.1562
788.5050, 346.2827
789.6480, 395.3774
790.7900, 392.6177
791.9330, 516.6499
793.0750, 496.6504
794.2170, 510.9824
795.3590, 631.9214
796.5010, 654.8301
797.6430, 693.7075
798.7850, 720.5557
799.9260, 779.3730
801.0670, 768.1606
802.2080, 733.9185
803.3490, 884.6470
804.4900, 869.3462
805.6310, 980.0156
806.7710, 915.6567
807.9110, 909.2695
809.0510, 954.8560
810.1910, 901.4312
811.3310, 944.9868
812.4710, 883.5166
813.6100, 884.0210
814.7490, 838.5039
815.8880, 783.9609
817.0270, 827.3984
818.1660, 790.8115
819.3050, 783.2046
820.4430, 633.5796
821.5820, 693.9351
822.7200, 589.2651
823.8580, 529.5708
824.9950, 495.8799
826.1330, 433.5371
827.2710, 423.4404
828.4080, 371.6924
829.5450, 363.9209
830.6820, 366.1216
831.8190, 321.8960
832.9560, 289.8994
834.0920, 267.1592
835.2280, 206.9141
836.3650, 190.9209
837.5010, 189.8560
838.6360, 155.4990
839.7720, 149.7007
840.9080, 96.50928
842.0430, 137.0669
843.1780, 100.0503
844.3130, 124.5674
845.4480, 126.1831
846.5830, 46.31689
847.7170, 36.19092
848.8520, 51.27930
849.9860, 82.24756
851.1200, 120.4365
852.2540, 77.80371
853.3870, 133.5728
854.5210, 18.87891
855.6540, 12.59668
856.7880, 13.19092
857.9210, 17.08936
859.0540, 8.460449
860.1860, 89.70947
861.3190, 11.89600
862.4510, 60.74951
863.5840, 133.2905
864.7160, 28.79736
865.8480, 16.13379
866.9790, 65.05957
868.1110, 24.41211
869.2420, 32.20898
870.3740, 0.2353520
871.5050, 37.31787
872.6360, 56.22510
873.7660, 68.17334
874.8970, 23.80762
876.0280, 2.510254
877.1580, 50.26123
878.2880, 70.99121
879.4180, 50.49268
880.5480, 26.27637
881.6770, 45.18066
882.8070, 17.83838
883.9360, 121.2617
885.0650, 16.10742
886.1940, 20.10449
887.3230, 128.5645
888.4520, 36.91797
889.5800, 47.09277
890.7090, 37.55908
891.8370, 42.87354
892.9650, 15.99414
894.0930, 81.87500
895.2200, 35.31201
896.3480, 28.20850
897.4750, 41.16113
898.6020, 4.624023
899.7290, 21.21729
900.8560, 17.84570
901.9830, 50.85498
903.1090, 44.20410
904.2360, 65.19922
905.3620, 98.51660
906.4880, 13.11328
907.6140, 6.370117
908.7400, 115.9238
909.8650, 36.34619
910.9900, 22.56445
912.1160, 31.05957
913.2410, 32.14014
914.3660, 32.35449
915.4900, 5.252441
916.6150, 21.96045
917.7390, 60.27832
918.8640, 2.504395
919.9880, 6.275879
921.1120, 48.06299
922.2350, 51.85791
923.3590, 125.6611
924.4820, 100.4727
925.6060, 10.70703
926.7290, 37.12012
927.8520, 36.95752
928.9740, 20.19580
930.0970, 114.6572
931.2190, 110.5200
932.3420, 113.3945
933.4640, 173.3540
934.5860, 181.0068
935.7080, 178.0884
936.8290, 234.0103
937.9510, 144.9448
939.0720, 138.8931
940.1930, 70.85498
941.3140, 69.30908
942.4350, 122.8193
943.5560, 98.82275
944.6760, 175.8418
945.7960, 243.8750
946.9170, 222.9248
948.0370, 167.9893
949.1560, 300.0703
950.2760, 266.1670
951.3960, 254.2803
952.5150, 397.4106
953.6340, 259.5586
954.7530, 381.7241
955.8720, 451.9072
956.9910, 441.1079
958.1090, 390.3276
959.2280, 455.5659
960.3460, 562.8242
961.4640, 661.1006
962.5820, 671.3975
963.6990, 731.7134
964.8170, 818.0498
965.9340, 834.4067
967.0510, 918.1641
968.1690, 968.1040
969.2850, 1036.612
970.4020, 1105.063
971.5190, 1134.536
972.6350, 1255.038
973.7510, 1357.576
974.8670, 1377.137
975.9830, 1498.726
977.0990, 1647.342
978.2150, 1886.987
979.3300, 2013.679
980.4450, 2251.397
981.5600, 2438.122
982.6750, 2607.673
983.7900, 2935.498
984.9050, 3134.360
986.0190, 3605.261
987.1340, 4100.188
988.2480, 4553.170
989.3620, 5332.392
990.4750, 5950.094
991.5890, 7027.504
992.7020, 7997.208
993.8160, 9303.658
994.9290, 10589.93
996.0420, 12087.70
997.1550, 13760.07
998.2670, 15373.51
999.3800, 17331.99
1000.492, 19431.31
1001.604, 21791.89
1002.716, 24605.53
1003.828, 27463.58
1004.940, 30096.54
1006.051, 32710.34
1007.163, 34781.18
1008.274, 36763.05
1009.385, 37865.98
1010.496, 38317.22
1011.606, 38074.95
1012.717, 37102.52
1013.827, 35072.62
1014.937, 32431.09
1016.047, 29578.30
1017.157, 27530.56
1018.267, 24156.77
1019.377, 21529.09
1020.486, 19274.47
1021.595, 17204.62
1022.704, 15473.14
1023.813, 14280.29
1024.922, 13176.04
1026.030, 12326.61
1027.139, 12024.55
1028.247, 11621.27
1029.355, 11594.50
1030.463, 11718.12
1031.571, 12167.23
1032.678, 12974.19
1033.786, 13680.33
1034.893, 14654.69
1036.000, 15462.63
1037.107, 16762.96
1038.214, 18067.36
1039.321, 18772.10
1040.427, 19928.95
1041.533, 21032.06
1042.639, 21757.16
1043.745, 22376.31
1044.851, 22927.09
1045.957, 23107.60
1047.062, 23363.15
1048.168, 22929.75
1049.273, 22864.36
1050.378, 22655.46
1051.482, 22586.11
1052.587, 22264.77
1053.692, 22186.55
1054.796, 22832.37
1055.900, 23118.22
1057.004, 23846.11
1058.108, 24613.05
1059.212, 25340.86
1060.315, 26010.89
1061.418, 26260.96
1062.522, 25624.72
1063.625, 24094.88
1064.728, 22002.08
1065.830, 19350.33
1066.933, 16754.61
1068.035, 14413.94
1069.137, 12196.31
1070.239, 10225.72
1071.341, 8785.179
1072.443, 7489.676
1073.545, 6494.215
1074.646, 5697.796
1075.747, 5038.420
1076.848, 4468.084
1077.949, 3949.793
1079.050, 3543.542
1080.150, 3192.334
1081.251, 2903.165
1082.351, 2632.150
1083.451, 2428.960
1084.551, 2228.923
1085.651, 2042.931
1086.750, 1920.984
1087.850, 1686.079
1088.949, 1662.218
1090.048, 1447.397
1091.147, 1402.619
1092.246, 1458.882
1093.345, 1360.187
1094.443, 1301.533
1095.541, 1325.920
1096.639, 1158.348
1097.737, 1253.817
1098.835, 1296.334
1099.933, 1245.895
1101.030, 1421.423
1102.128, 1340.069
1103.225, 1501.755
1104.322, 1651.609
1105.419, 1713.766
1106.515, 1830.574
1107.612, 2047.432
1108.708, 2118.442
1109.804, 2192.463
1110.900, 2486.179
1111.996, 2613.190
1113.092, 2624.812
1114.187, 2735.902
1115.283, 2738.853
1116.378, 2853.277
1117.473, 2872.238
1118.568, 2862.721
1119.662, 2909.225
1120.757, 2923.144
1121.851, 2905.103
1122.946, 2750.872
1124.040, 2692.892
1125.134, 2706.896
1126.227, 2499.752
1127.321, 2475.573
1128.414, 2276.897
1129.508, 2383.734
1130.601, 2231.537
1131.693, 2071.370
1132.786, 1948.122
1133.879, 1859.402
1134.971, 1858.830
1136.064, 1665.742
1137.156, 1594.525
1138.248, 1522.965
1139.339, 1247.527
1140.431, 1066.708
1141.522, 997.5215
1142.614, 974.5947
1143.705, 768.7158
1144.796, 752.8882
1145.887, 643.4570
1146.977, 594.7773
1148.068, 533.1641
1149.158, 558.5557
1150.248, 548.9150
1151.338, 499.3408
1152.428, 528.0381
1153.518, 505.6611
1154.607, 495.1709
1155.696, 556.0098
1156.785, 507.0693
1157.874, 592.6860
1158.963, 540.5508
1160.052, 516.2397
1161.141, 640.1704
1162.229, 522.9219
1163.317, 473.7065
1164.405, 588.5156
1165.493, 593.3579
1166.581, 646.2329
1167.668, 699.6787
1168.756, 695.6235
1169.843, 736.0098
1170.930, 775.5913
1172.017, 767.0913
1173.103, 840.4697
1174.190, 847.5991
1175.276, 839.9033
1176.363, 948.5044
1177.449, 1014.893
1178.535, 1016.126
1179.620, 1063.385
1180.706, 1160.663
1181.791, 1194.962
1182.877, 1372.291
1183.962, 1366.639
1185.047, 1514.005
1186.131, 1583.389
1187.216, 1616.791
1188.300, 1676.375
1189.385, 1700.812
1190.469, 1766.718
1191.553, 1902.189
1192.637, 1875.679
1193.720, 1955.185
1194.804, 1956.503
1195.887, 1893.040
1196.970, 1767.592
1198.053, 1713.158
1199.136, 1748.752
1200.219, 1601.347
1201.301, 1654.955
1202.383, 1554.578
1203.465, 1592.504
1204.547, 1384.152
1205.629, 1373.813
1206.711, 1216.528
1207.792, 1140.333
1208.874, 1017.029
1209.955, 952.7373
1211.036, 781.4565
1212.117, 739.1870
1213.198, 706.5859
1214.278, 569.7417
1215.359, 510.4014
1216.439, 408.6147
1217.519, 313.7563
1218.599, 284.2261
1219.678, 267.6753
1220.758, 220.5542
1221.837, 221.3711
1222.917, 193.1953
1223.996, 63.02734
1225.075, 139.8936
1226.153, 68.74463
1227.232, 126.6060
1228.310, 96.80469
1229.389, 22.30908
1230.467, 32.68359
1231.545, 13.00293
1232.622, 112.8799
1233.700, 35.23828
1234.777, 60.36475
1235.855, 91.73730
1236.932, 3.640137
1238.009, 4.205566
1239.086, 30.32861
1240.162, 97.29639
1241.239, 10.82666
1242.315, 16.28027
1243.391, 81.68848
1244.467, 20.50098
1245.543, 28.66748
1246.619, 41.84717
1247.694, 33.92432
1248.769, 96.30371
1249.844, 117.5791
1250.919, 10.91260
1251.994, 78.25439
1253.069, 46.63672
1254.144, 7.044434
1255.218, 40.40723
1256.292, 19.84570
1257.366, 45.22852
1258.440, 117.6689
1259.514, 33.21875
1260.587, 66.30762
1261.661, 21.26221
1262.734, 102.2930
1263.807, 20.58545
1264.880, 44.28467
1265.952, 23.48438
1267.025, 1.911621
1268.097, 16.80664
1269.170, 10.40674
1270.242, 18.38867
