##NAMES=Montebrasite
##RRUFFID=R060890
##IDEAL CHEMISTRY=LiAlPO_4_(OH)
##LOCALITY=Mount Marie, Paris, Maine, USA
##OWNER=RRUFF
##SOURCE=Bob Jenkins
##DESCRIPTION=Colorless massive
##STATUS=The identification of this mineral is confirmed by single-crystal X-ray diffraction and chemical analysis.
##URL=rruff.info/R060890
##MEASURED CHEMISTRY=Li_1.00_Al_1.00_(P_1.00_O_4_)(OH)_0.63_F_0.37_)_Î£=1_ ; Li not measured but estimated by stoichiometry
##PIN_ID=M01307
##ORIENTATION=Laser parallel to -c* (0 0 -1). Fiducial mark perpendicular to laser is parallel to a [1 0 0]
90.67800, 0.0000000E+00
91.91600, 112.4863
93.15500, 55.85254
94.39300, 0.4003910
95.63100, 230.8867
96.86900, 13.29395
98.10600, 8.375000
99.34400, 191.9609
100.5810, 255.7539
101.8190, 309.4219
103.0560, 365.2803
104.2930, 388.6631
105.5290, 786.0176
106.7660, 1381.943
108.0020, 1717.399
109.2390, 1662.760
110.4750, 1329.109
111.7110, 1597.054
112.9460, 1719.098
114.1820, 2241.863
115.4170, 2540.083
116.6530, 2689.562
117.8880, 2983.159
119.1230, 2920.771
120.3580, 3200.349
121.5920, 3572.105
122.8270, 3983.906
124.0610, 4515.494
125.2950, 5182.014
126.5290, 5784.539
127.7630, 6405.273
128.9970, 7189.424
130.2300, 7364.348
131.4640, 7396.659
132.6970, 6749.800
133.9300, 5840.816
135.1630, 5063.812
136.3950, 4221.883
137.6280, 3518.432
138.8600, 2612.567
140.0920, 2274.316
141.3240, 1895.413
142.5560, 1520.909
143.7880, 1441.851
145.0190, 1372.277
146.2510, 1224.223
147.4820, 1283.720
148.7130, 1254.794
149.9440, 1181.343
151.1750, 1250.848
152.4050, 1525.840
153.6360, 1485.971
154.8660, 1558.403
156.0960, 1707.276
157.3260, 1579.686
158.5560, 1912.241
159.7850, 1842.694
161.0150, 2066.982
162.2440, 1948.750
163.4730, 2021.141
164.7020, 1911.540
165.9310, 1840.752
167.1590, 1698.457
168.3880, 1543.422
169.6160, 1462.938
170.8440, 1229.448
172.0720, 1219.695
173.3000, 1111.456
174.5280, 902.1309
175.7550, 907.9209
176.9820, 905.8242
178.2100, 861.8320
179.4370, 735.9404
180.6630, 794.1436
181.8900, 775.4326
183.1170, 701.8027
184.3430, 751.2480
185.5690, 829.7588
186.7950, 830.3301
188.0210, 889.9551
189.2470, 914.6289
190.4720, 980.1982
191.6970, 1137.110
192.9230, 1153.908
194.1480, 1155.741
195.3730, 1295.604
196.5970, 1162.497
197.8220, 1097.411
199.0460, 1308.338
200.2700, 1411.266
201.4940, 1211.187
202.7180, 824.0908
203.9420, 731.9756
205.1660, 445.8389
206.3890, 411.6807
207.6120, 200.5039
208.8350, 330.3076
210.0580, 136.0947
211.2810, 123.8662
212.5040, 152.6221
213.7260, 223.3633
214.9480, 143.0908
216.1700, 185.4033
217.3920, 141.5049
218.6140, 144.1953
219.8360, 57.87305
221.0570, 44.45898
222.2790, 2.198242
223.5000, 115.1572
224.7210, 22.53711
225.9410, 121.9404
227.1620, 74.35938
228.3820, 145.7998
229.6030, 90.31055
230.8230, 77.96289
232.0430, 172.7852
233.2630, 163.8076
234.4820, 120.0186
235.7020, 37.46094
236.9210, 216.0840
238.1400, 85.46582
239.3590, 98.50977
240.5780, 102.3799
241.7970, 13.31738
243.0150, 61.87891
244.2340, 8.658203
245.4520, 7.488281
246.6700, 64.75684
247.8880, 4.414063
249.1060, 57.44922
250.3230, 39.65625
251.5400, 163.2422
252.7580, 107.1768
253.9750, 112.1543
255.1920, 323.1357
256.4080, 417.1162
257.6250, 438.0820
258.8410, 505.0254
260.0580, 670.9570
261.2740, 811.8643
262.4900, 907.7510
263.7050, 1129.600
264.9210, 1274.410
266.1360, 1355.183
267.3520, 1624.916
268.5670, 1747.611
269.7820, 1865.266
270.9960, 2012.874
272.2110, 2142.430
273.4250, 2212.915
274.6400, 2175.320
275.8540, 1994.639
277.0680, 2158.872
278.2810, 2006.022
279.4950, 2013.094
280.7090, 1936.093
281.9220, 1854.023
283.1350, 2219.890
284.3480, 2271.693
285.5610, 2505.440
286.7730, 2871.133
287.9860, 3251.774
289.1980, 3892.365
290.4100, 4459.911
291.6220, 5336.415
292.8340, 6341.874
294.0460, 7620.295
295.2570, 9081.678
296.4690, 10682.02
297.6800, 12602.30
298.8910, 14513.54
300.1020, 15994.74
301.3120, 17458.89
302.5230, 17464.91
303.7330, 16483.74
304.9440, 14662.37
306.1540, 12714.77
307.3630, 11138.97
308.5730, 9327.908
309.7830, 7864.678
310.9920, 6991.213
312.2010, 5815.572
313.4100, 5325.828
314.6190, 4744.021
315.8280, 4096.170
317.0370, 3749.259
318.2450, 3495.352
319.4530, 3025.446
320.6610, 3048.551
321.8690, 2944.664
323.0770, 2768.785
324.2850, 2620.914
325.4920, 2435.051
326.6990, 2380.193
327.9060, 2269.346
329.1130, 1953.502
330.3200, 1948.666
331.5270, 1601.836
332.7330, 1495.012
333.9390, 1215.194
335.1450, 1386.382
336.3510, 1106.575
337.5570, 1124.774
338.7630, 935.9795
339.9680, 837.2383
341.1740, 819.4043
342.3790, 666.6240
343.5840, 765.8496
344.7890, 720.0801
345.9930, 684.3174
347.1980, 672.5596
348.4020, 588.8066
349.6060, 652.0605
350.8100, 509.3193
352.0140, 597.5850
353.2180, 472.5029
354.4210, 528.7822
355.6250, 666.0723
356.8280, 621.1953
358.0310, 601.7734
359.2340, 628.6172
360.4360, 415.4082
361.6390, 544.3691
362.8410, 537.9355
364.0430, 384.5664
365.2450, 508.4141
366.4470, 520.9092
367.6490, 597.4023
368.8510, 597.6279
370.0520, 623.2168
371.2530, 569.5879
372.4540, 583.5527
373.6550, 553.1064
374.8560, 405.2129
376.0560, 383.1689
377.2570, 391.2529
378.4570, 355.9844
379.6570, 411.5547
380.8570, 450.4033
382.0570, 354.1416
383.2560, 382.1104
384.4560, 253.2861
385.6550, 401.2461
386.8540, 353.8281
388.0530, 356.4814
389.2520, 279.4043
390.4510, 314.3535
391.6490, 212.3711
392.8470, 241.5898
394.0450, 278.4414
395.2430, 398.5977
396.4410, 403.3643
397.6390, 333.4375
398.8360, 377.1816
400.0340, 301.1338
401.2310, 346.9609
402.4280, 366.9834
403.6250, 219.4424
404.8210, 331.6523
406.0180, 263.3770
407.2140, 410.8994
408.4100, 490.4014
409.6060, 525.8223
410.8020, 695.4639
411.9980, 724.9863
413.1930, 749.5088
414.3890, 976.0381
415.5840, 1272.843
416.7790, 1750.369
417.9740, 2295.896
419.1680, 2747.440
420.3630, 3376.988
421.5570, 4153.539
422.7510, 4684.099
423.9450, 5649.658
425.1390, 6225.225
426.3330, 6023.796
427.5270, 5378.372
428.7200, 4353.954
429.9130, 3297.555
431.1060, 2415.178
432.2990, 1768.831
433.4920, 1356.506
434.6840, 935.2119
435.8770, 970.9248
437.0690, 751.6455
438.2610, 643.3740
439.4530, 567.1084
440.6450, 535.8516
441.8360, 428.6035
443.0280, 593.3613
444.2190, 470.1416
445.4100, 547.9297
446.6010, 441.7441
447.7920, 517.5713
448.9820, 488.4082
450.1730, 586.2588
451.3630, 599.1230
452.5530, 704.0039
453.7430, 708.8984
454.9330, 837.8105
456.1230, 949.7402
457.3120, 1096.688
458.5010, 1160.657
459.6910, 1398.676
460.8800, 1449.727
462.0680, 1702.813
463.2570, 1842.919
464.4460, 1782.044
465.6340, 1867.188
466.8220, 1986.354
468.0100, 2125.564
469.1980, 2280.796
470.3860, 2419.045
471.5730, 2503.322
472.7600, 2725.635
473.9480, 2944.970
475.1350, 3362.325
476.3210, 3744.712
477.5080, 4173.127
478.6950, 4391.564
479.8810, 4814.023
481.0670, 4913.501
482.2530, 4883.001
483.4390, 5057.518
484.6250, 4997.061
485.8100, 4827.335
486.9960, 4483.221
488.1810, 4282.846
489.3660, 3988.490
490.5510, 3538.155
491.7360, 3526.840
492.9200, 3253.544
494.1050, 3115.283
495.2890, 2750.041
496.4730, 2587.801
497.6570, 2428.619
498.8400, 2182.443
500.0240, 2035.291
501.2070, 1844.163
502.3910, 1542.055
503.5740, 1533.970
504.7570, 1358.907
505.9400, 1026.867
507.1220, 1139.850
508.3050, 700.8643
509.4870, 806.9316
510.6690, 705.0400
511.8510, 482.2227
513.0330, 496.4521
514.2140, 452.7549
515.3960, 492.1182
516.5770, 320.5605
517.7580, 325.0684
518.9390, 274.6348
520.1200, 202.2881
521.3010, 128.0225
522.4810, 249.8271
523.6610, 134.6807
524.8420, 142.6299
526.0220, 73.63770
527.2010, 72.70996
528.3810, 87.84570
529.5610, 78.97656
530.7400, 47.23438
531.9190, 29.48340
533.0980, 100.2324
534.2770, 8.050781
535.4560, 110.3691
536.6340, 50.28516
537.8120, 132.9053
538.9910, 205.5459
540.1690, 41.23926
541.3460, 57.92188
542.5240, 17.60059
543.7020, 26.26660
544.8790, 118.9209
546.0560, 64.59375
547.2330, 102.2666
548.4100, 39.04980
549.5870, 123.3828
550.7630, 40.73145
551.9400, 73.09668
553.1160, 35.21973
554.2920, 116.8779
555.4680, 4.293945
556.6440, 51.27539
557.8190, 60.16016
558.9950, 57.61230
560.1700, 37.47949
561.3450, 60.96387
562.5200, 107.4629
563.6950, 92.70801
564.8690, 57.23828
566.0440, 129.7852
567.2180, 162.3467
568.3920, 68.02441
569.5660, 33.61719
570.7400, 68.93457
571.9130, 127.2676
573.0870, 141.5957
574.2600, 234.6553
575.4330, 292.9062
576.6060, 89.58496
577.7790, 49.29004
578.9520, 234.1084
580.1240, 223.8428
581.2960, 290.5889
582.4690, 189.3477
583.6410, 330.1240
584.8120, 388.2461
585.9840, 466.1807
587.1560, 444.6475
588.3270, 441.7803
589.4980, 402.6504
590.6690, 587.6914
591.8400, 598.6123
593.0110, 848.5615
594.1810, 1064.691
595.3510, 1257.686
596.5220, 1502.691
597.6920, 1642.776
598.8610, 1887.609
600.0310, 2078.269
601.2010, 2194.387
602.3700, 2455.266
603.5390, 2540.367
604.7080, 2387.719
605.8770, 2054.946
607.0460, 1983.072
608.2140, 1974.901
609.3830, 1759.059
610.5510, 1858.236
611.7190, 1695.995
612.8870, 1644.829
614.0550, 1692.969
615.2220, 1921.388
616.3900, 1949.146
617.5570, 2141.564
618.7240, 2297.448
619.8910, 2595.309
621.0580, 2729.598
622.2240, 2978.897
623.3910, 3397.748
624.5570, 3771.816
625.7230, 4478.461
626.8890, 4803.281
628.0550, 5485.486
629.2200, 6118.918
630.3860, 7081.482
631.5510, 7891.926
632.7160, 8661.539
633.8810, 9585.180
635.0460, 10440.68
636.2100, 12124.19
637.3750, 14002.70
638.5390, 16604.35
639.7030, 20286.86
640.8670, 24330.37
642.0310, 29250.90
643.1950, 35480.54
644.3580, 41032.10
645.5210, 44518.65
646.6850, 45410.29
647.8480, 42228.85
649.0100, 36215.41
650.1730, 28732.01
651.3350, 22485.59
652.4980, 17488.17
653.6600, 13446.75
654.8220, 10600.32
655.9840, 8424.902
657.1450, 6865.481
658.3070, 5671.053
659.4680, 4491.618
660.6300, 3853.179
661.7910, 3387.732
662.9510, 2904.277
664.1120, 2621.814
665.2730, 2132.345
666.4330, 1855.865
667.5930, 1790.378
668.7530, 1584.881
669.9130, 1259.278
671.0730, 1246.765
672.2320, 1062.241
673.3920, 971.7246
674.5510, 1038.181
675.7100, 912.6279
676.8690, 866.9180
678.0280, 770.8438
679.1860, 667.1758
680.3450, 659.4844
681.5030, 507.4453
682.6610, 441.5215
683.8190, 422.3877
684.9770, 395.8076
686.1340, 365.5127
687.2920, 286.5908
688.4490, 322.9111
689.6060, 345.2178
690.7630, 311.5127
691.9200, 359.7949
693.0760, 214.0645
694.2330, 165.3213
695.3890, 109.5576
696.5450, 147.5088
697.7010, 138.7266
698.8570, 41.07031
700.0130, 87.08789
701.1680, 90.23242
702.3230, 3.362305
703.4780, 139.4697
704.6330, 238.5625
705.7880, 69.75977
706.9430, 21.82227
708.0970, 49.86816
709.2520, 30.51172
710.4060, 34.11426
711.5600, 70.99902
712.7140, 34.12500
713.8670, 68.29785
715.0210, 83.49414
716.1740, 152.0459
717.3270, 31.77441
718.4800, 101.1758
719.6330, 64.86914
720.7860, 213.5869
721.9380, 118.2500
723.0910, 11.97070
724.2430, 45.21289
725.3950, 29.20801
726.5470, 35.65918
727.6980, 172.1660
728.8500, 49.71094
730.0010, 82.17676
731.1530, 141.6602
732.3040, 52.08789
733.4550, 108.3154
734.6050, 122.2891
735.7560, 78.75879
736.9060, 33.10156
738.0560, 66.95312
739.2060, 9.904297
740.3560, 18.05566
741.5060, 182.7178
742.6560, 64.82422
743.8050, 82.90625
744.9540, 149.9648
746.1030, 62.81445
747.2520, 112.6738
748.4010, 178.2520
749.5500, 25.16113
750.6980, 8.141602
751.8460, 48.67285
752.9950, 84.45703
754.1420, 10.21680
755.2900, 17.00977
756.4380, 67.12793
757.5850, 68.76270
758.7330, 137.4219
759.8800, 134.0020
761.0270, 74.89746
762.1730, 60.42285
763.3200, 97.91504
764.4670, 0.3798830
765.6130, 33.97363
766.7590, 130.7432
767.9050, 122.8975
769.0510, 200.3848
770.1960, 144.8652
771.3420, 25.12109
772.4870, 248.4717
773.6320, 266.8945
774.7770, 196.0381
775.9220, 145.1543
777.0670, 230.2402
778.2110, 331.3340
779.3560, 337.5859
780.5000, 158.5684
781.6440, 375.2354
782.7880, 346.3750
783.9320, 172.4648
785.0750, 343.3506
786.2180, 399.2646
787.3620, 278.0430
788.5050, 337.8408
789.6480, 278.6104
790.7900, 627.3496
791.9330, 660.0596
793.0750, 685.4307
794.2170, 737.0830
795.3590, 757.8135
796.5010, 749.2969
797.6430, 813.8594
798.7850, 875.3926
799.9260, 906.8955
801.0670, 1208.370
802.2080, 985.8145
803.3490, 1418.229
804.4900, 1682.616
805.6310, 1229.975
806.7710, 1209.897
807.9110, 1087.206
809.0510, 1204.484
810.1910, 1206.736
811.3310, 989.3047
812.4710, 1136.510
813.6100, 1063.687
814.7490, 1045.842
815.8880, 1106.986
817.0270, 1049.142
818.1660, 1008.270
819.3050, 980.3789
820.4430, 1012.461
821.5820, 775.5176
822.7200, 699.5605
823.8580, 741.5879
824.9950, 572.3398
826.1330, 574.5820
827.2710, 474.5391
828.4080, 409.4668
829.5450, 511.3652
830.6820, 479.2402
831.8190, 466.0840
832.9560, 390.9004
834.0920, 375.6953
835.2280, 364.4648
836.3650, 330.8047
837.5010, 286.5215
838.6360, 211.2090
839.7720, 219.1406
840.9080, 325.7734
842.0430, 134.3809
843.1780, 245.9629
844.3130, 255.4160
845.4480, 225.9434
846.5830, 268.3672
847.7170, 109.5039
848.8520, 229.2617
849.9860, 227.2793
851.1200, 127.0957
852.2540, 8.474609
853.3870, 147.8047
854.5210, 59.00781
855.6540, 268.2832
856.7880, 117.5391
857.9210, 44.76953
859.0540, 91.96680
860.1860, 57.18945
861.3190, 222.8027
862.4510, 28.25391
863.5840, 145.0195
864.7160, 52.96094
865.8480, 203.8516
866.9790, 22.22266
868.1110, 238.6445
869.2420, 45.67578
870.3740, 118.1074
871.5050, 76.86914
872.6360, 129.5430
873.7660, 36.45898
874.8970, 25.53516
876.0280, 83.85547
877.1580, 72.94922
878.2880, 135.5254
879.4180, 82.84180
880.5480, 96.27539
881.6770, 7.800781
882.8070, 1.390625
883.9360, 35.92773
885.0650, 131.4902
886.1940, 88.67969
887.3230, 73.03711
888.4520, 122.4375
889.5800, 47.55273
890.7090, 24.31836
891.8370, 105.5801
892.9650, 56.01172
894.0930, 22.62109
895.2200, 78.79297
896.3480, 60.05469
897.4750, 137.5195
898.6020, 176.7383
899.7290, 24.63477
900.8560, 46.78125
901.9830, 51.60547
903.1090, 186.6816
904.2360, 97.94922
905.3620, 163.1309
906.4880, 89.46680
907.6140, 37.96680
908.7400, 24.28516
909.8650, 55.37500
910.9900, 38.02930
912.1160, 121.5352
913.2410, 2.173828
914.3660, 78.19922
915.4900, 25.61328
916.6150, 104.1504
917.7390, 6.642578
918.8640, 6.142578
919.9880, 76.28125
921.1120, 67.23438
922.2350, 82.78320
923.3590, 51.62305
924.4820, 95.02930
925.6060, 203.4277
926.7290, 21.82227
927.8520, 68.78320
928.9740, 150.5801
930.0970, 84.93945
931.2190, 184.2969
932.3420, 69.65234
933.4640, 84.00391
934.5860, 157.3555
935.7080, 127.7031
936.8290, 114.0508
937.9510, 34.39648
939.0720, 91.74219
940.1930, 6.087891
941.3140, 30.56836
942.4350, 197.7695
943.5560, 59.10742
944.6760, 144.4473
945.7960, 21.21484
946.9170, 27.12109
948.0370, 43.45703
949.1560, 234.7969
950.2760, 11.14062
951.3960, 381.4824
952.5150, 178.8262
953.6340, 179.1738
954.7530, 301.5234
955.8720, 366.8770
956.9910, 299.2324
958.1090, 329.5918
959.2280, 371.9551
960.3460, 431.3223
961.4640, 309.6934
962.5820, 416.0703
963.6990, 619.4512
964.8170, 400.8359
965.9340, 614.2266
967.0510, 599.6230
968.1690, 539.0254
969.2850, 674.4336
970.4020, 758.8477
971.5190, 748.2852
972.6350, 740.7285
973.7510, 625.1777
974.8670, 970.6406
975.9830, 993.1172
977.0990, 1173.486
978.2150, 1119.996
979.3300, 1444.539
980.4450, 1410.094
981.5600, 1610.672
982.6750, 1550.121
983.7900, 1682.781
984.9050, 2068.488
986.0190, 2232.254
987.1340, 2441.254
988.2480, 2762.074
989.3620, 3020.234
990.4750, 3235.102
991.5890, 3751.934
992.7020, 4298.818
993.8160, 4875.582
994.9290, 5612.926
996.0420, 6532.902
997.1550, 7183.574
998.2670, 8298.672
999.3800, 8993.727
1000.492, 10315.90
1001.604, 11531.05
1002.716, 12861.32
1003.828, 14427.20
1004.940, 16007.53
1006.051, 17462.79
1007.163, 18803.19
1008.274, 20180.99
1009.385, 20945.66
1010.496, 21394.93
1011.606, 21472.47
1012.717, 21063.07
1013.827, 20065.69
1014.937, 19153.32
1016.047, 17733.79
1017.157, 16206.97
1018.267, 15030.05
1019.377, 13839.85
1020.486, 12556.88
1021.595, 11499.77
1022.704, 10599.69
1023.813, 9906.713
1024.922, 9416.510
1026.030, 9090.055
1027.139, 8994.078
1028.247, 9101.072
1029.355, 9100.160
1030.463, 9369.932
1031.571, 9894.068
1032.678, 10738.23
1033.786, 11520.41
1034.893, 12555.45
1036.000, 13749.29
1037.107, 14473.76
1038.214, 15790.89
1039.321, 16734.02
1040.427, 17913.37
1041.533, 18592.61
1042.639, 19274.77
1043.745, 19860.21
1044.851, 20575.68
1045.957, 21069.17
1047.062, 21023.65
1048.168, 20851.97
1049.273, 20718.56
1050.378, 20961.46
1051.482, 20591.89
1052.587, 20829.38
1053.692, 20897.07
1054.796, 21390.72
1055.900, 22128.52
1057.004, 23092.29
1058.108, 24344.09
1059.212, 25363.92
1060.315, 26319.78
1061.418, 27027.97
1062.522, 26645.89
1063.625, 26166.82
1064.728, 23949.80
1065.830, 21320.79
1066.933, 18856.82
1068.035, 15908.87
1069.137, 13507.95
1070.239, 11272.06
1071.341, 9615.199
1072.443, 7921.367
1073.545, 6769.498
1074.646, 5983.186
1075.747, 5148.438
1076.848, 4574.715
1077.949, 4214.021
1079.050, 3942.020
1080.150, 3420.383
1081.251, 3347.773
1082.351, 2893.193
1083.451, 2502.641
1084.551, 2356.115
1085.651, 2140.619
1086.750, 2075.152
1087.850, 1842.711
1088.949, 1714.301
1090.048, 1665.928
1091.147, 1519.582
1092.246, 1475.109
1093.345, 1300.006
1094.443, 1359.762
1095.541, 1391.545
1096.639, 1323.393
1097.737, 1218.191
1098.835, 1387.059
1099.933, 1309.949
1101.030, 1315.871
1102.128, 1438.816
1103.225, 1499.793
1104.322, 1449.795
1105.419, 1764.826
1106.515, 1624.000
1107.612, 1818.006
1108.708, 2001.031
1109.804, 2038.531
1110.900, 2214.029
1111.996, 2371.498
1113.092, 2537.744
1114.187, 2611.033
1115.283, 2760.338
1116.378, 2788.822
1117.473, 2881.518
1118.568, 2936.049
1119.662, 2984.475
1120.757, 2987.164
1121.851, 2952.633
1122.946, 2715.150
1124.040, 2812.885
1125.134, 2641.648
1126.227, 2545.221
1127.321, 2552.840
1128.414, 2339.807
1129.508, 2096.787
1130.601, 2106.484
1131.693, 2087.742
1132.786, 2154.504
1133.879, 1943.658
1134.971, 1950.625
1136.064, 1858.361
1137.156, 1820.059
1138.248, 1638.773
1139.339, 1494.525
1140.431, 1220.637
1141.522, 1166.344
1142.614, 969.5527
1143.705, 923.8906
1144.796, 979.9316
1145.887, 772.9902
1146.977, 563.7305
1148.068, 689.0332
1149.158, 517.3652
1150.248, 554.0352
1151.338, 494.7383
1152.428, 566.9473
1153.518, 678.1914
1154.607, 546.4434
1155.696, 526.8770
1156.785, 439.1367
1157.874, 392.4414
1158.963, 465.2402
1160.052, 406.6113
1161.141, 672.5859
1162.229, 422.0332
1163.317, 344.4336
1164.405, 411.8418
1165.493, 618.2617
1166.581, 470.2773
1167.668, 496.8945
1168.756, 624.9023
1169.843, 636.4883
1170.930, 527.4004
1172.017, 575.0488
1173.103, 570.9473
1174.190, 650.6309
1175.276, 896.3242
1176.363, 848.2461
1177.449, 816.9590
1178.535, 651.9590
1179.620, 888.9961
1180.706, 857.7559
1181.791, 861.5703
1182.877, 967.8477
1183.962, 986.9512
1185.047, 1042.801
1186.131, 1152.258
1187.216, 1033.512
1188.300, 1215.387
1189.385, 1251.111
1190.469, 1519.094
1191.553, 1456.996
1192.637, 1461.969
1193.720, 1610.932
1194.804, 1583.982
1195.887, 1498.924
1196.970, 1316.273
1198.053, 1400.283
1199.136, 1505.217
1200.219, 1309.395
1201.301, 1250.332
1202.383, 1115.799
1203.465, 1068.391
1204.547, 1023.586
1205.629, 1036.635
1206.711, 952.5840
1207.792, 985.7109
1208.874, 915.6660
1209.955, 882.6211
1211.036, 903.6035
1212.117, 714.8398
1213.198, 846.8672
1214.278, 563.8438
1215.359, 339.8184
1216.439, 691.7910
1217.519, 443.2090
1218.599, 378.1797
1219.678, 350.2402
1220.758, 406.2969
1221.837, 203.9453
1222.917, 398.9609
1223.996, 237.9180
1225.075, 26.86914
1226.153, 117.7168
1227.232, 137.7852
1228.310, 48.72461
1229.389, 145.6602
1230.467, 34.63477
1231.545, 48.56055
1232.622, 102.4805
1233.700, 144.3926
1234.777, 101.3008
1235.855, 0.1992190
1236.932, 23.04883
1238.009, 20.09766
1239.086, 46.24219
1240.162, 92.41797
1241.239, 0.6484380
1242.315, 166.1074
1243.391, 84.14453
1244.467, 189.2852
1245.543, 84.01172
1246.619, 197.3848
1247.694, 18.48828
1248.769, 64.98828
1249.844, 80.52148
1250.919, 58.11328
1251.994, 155.5332
1253.069, 15.10156
1254.144, 18.49609
1255.218, 124.8809
1256.292, 133.7461
1257.366, 180.5352
1258.440, 269.1934
1259.514, 217.9121
1260.587, 137.9922
1261.661, 161.0098
1262.734, 261.0039
1263.807, 56.87500
1264.880, 92.30273
1265.952, 26.74414
1267.025, 56.04883
1268.097, 29.41406
1269.170, 95.17969
1270.242, 70.24023
