##NAMES=Montebrasite
##RRUFFID=R040060
##IDEAL CHEMISTRY=LiAlPO_4_(OH)
##LOCALITY=Oxford County, Maine, USA
##OWNER=RRUFF
##SOURCE=University of Arizona Mineral Museum
##DESCRIPTION=White massive
##STATUS=The identification of this mineral has been confirmed by X-ray diffraction and chemical analysis
##URL=rruff.info/R040060
##MEASURED CHEMISTRY=LiAl(PO_4_)((OH)_0.79_F_0.21_)
##PIN_ID=L00181
##ORIENTATION=Laser parallel to a* (1 0 0). Fiducial mark perpendicular to laser is parallel to -b [0 -1 0]
112.787, 0.000
114.182, 552.018
115.576, 882.689
116.970, 1295.073
118.363, 1655.335
119.757, 1072.406
121.150, 583.713
122.543, 253.060
123.936, 230.696
125.328, 111.621
126.720, 145.347
128.112, 292.969
129.504, 593.540
130.896, 976.643
132.287, 1331.311
133.678, 1791.983
135.069, 1943.087
136.460, 2016.906
137.850, 2034.854
139.240, 1840.228
140.630, 1476.544
142.020, 1032.709
143.410, 616.757
144.799, 417.810
146.188, 149.838
147.577, 87.239
148.965, 57.537
150.354, 30.194
151.742, 120.764
153.130, 33.701
154.517, 14.460
155.905, 8.195
157.292, 100.418
158.679, 142.373
160.066, 221.489
161.452, 343.468
162.839, 515.098
164.225, 627.981
165.611, 710.945
166.996, 750.030
168.381, 838.312
169.767, 943.523
171.152, 877.084
172.536, 877.111
173.921, 802.268
175.305, 578.442
176.689, 580.535
178.073, 571.726
179.456, 461.350
180.839, 446.916
182.222, 526.065
183.605, 557.482
184.988, 644.812
186.370, 686.471
187.752, 772.271
189.134, 813.888
190.516, 869.877
191.898, 830.449
193.279, 832.926
194.660, 886.309
196.041, 1013.630
197.421, 818.999
198.801, 781.436
200.182, 606.941
201.561, 620.512
202.941, 414.146
204.321, 264.845
205.700, 187.598
207.079, 164.390
208.457, 18.219
209.836, 30.069
211.214, 57.936
212.592, 25.810
213.970, 1.331
215.348, 16.529
216.725, 59.209
218.102, 112.934
219.479, 172.646
220.856, 81.339
222.232, 84.008
223.608, 118.649
224.984, 140.300
226.360, 110.897
227.736, 89.341
229.111, 116.681
230.486, 60.699
231.861, 122.902
233.236, 116.435
234.610, 113.524
235.984, 81.796
237.358, 69.674
238.732, 61.414
240.105, 54.864
241.479, 55.598
242.852, 47.302
244.224, 7.859
245.597, 44.145
246.969, 26.997
248.342, 7.407
249.713, 109.906
251.085, 34.922
252.457, 70.286
253.828, 87.745
255.199, 3.527
256.570, 60.419
257.940, 29.450
259.310, 30.110
260.681, 35.163
262.050, 10.128
263.420, 48.465
264.790, 223.891
266.159, 274.147
267.528, 348.261
268.896, 552.229
270.265, 846.096
271.633, 1039.887
273.001, 1259.628
274.369, 1570.324
275.737, 1768.974
277.104, 1767.577
278.471, 1769.920
279.838, 1572.887
281.205, 1466.146
282.572, 1274.555
283.938, 1273.219
285.304, 1162.713
286.670, 1310.197
288.035, 1403.801
289.401, 1917.161
290.766, 2510.750
292.131, 3334.459
293.495, 4567.992
294.860, 5951.562
296.224, 7395.170
297.588, 8458.146
298.952, 8921.043
300.315, 8644.233
301.679, 7777.131
303.042, 6669.863
304.405, 5612.293
305.767, 4684.843
307.130, 4237.217
308.492, 3709.271
309.854, 3431.248
311.216, 3163.150
312.578, 3064.966
313.939, 2744.742
315.300, 2426.369
316.661, 2292.145
318.021, 2052.535
319.382, 2063.895
320.742, 1964.957
322.102, 1816.154
323.462, 1747.273
324.821, 1508.311
326.181, 1359.220
327.540, 1190.021
328.899, 920.654
330.257, 711.205
331.616, 540.684
332.974, 481.083
334.332, 439.413
335.690, 394.668
337.047, 264.849
338.405, 208.955
339.762, 324.976
341.119, 166.909
342.475, 249.700
343.832, 44.330
345.188, 164.817
346.544, 84.094
347.900, 129.154
349.255, 6.065
350.610, 66.153
351.965, 105.223
353.320, 22.437
354.675, 35.237
356.029, 13.445
357.384, 60.925
358.738, 80.595
360.091, 17.524
361.445, 62.805
362.798, 49.638
364.151, 60.245
365.504, 61.719
366.857, 59.458
368.209, 115.080
369.561, 184.898
370.913, 174.439
372.265, 126.379
373.617, 174.641
374.968, 173.120
376.319, 241.761
377.670, 250.090
379.021, 256.668
380.371, 209.300
381.721, 247.775
383.071, 267.538
384.421, 328.533
385.770, 346.970
387.120, 385.404
388.469, 443.589
389.818, 351.935
391.166, 439.485
392.515, 367.678
393.863, 415.617
395.211, 453.504
396.559, 432.222
397.906, 479.833
399.254, 487.193
400.601, 555.757
401.948, 432.928
403.294, 389.818
404.641, 596.781
405.987, 358.646
407.333, 603.026
408.679, 615.368
410.025, 648.742
411.370, 583.897
412.715, 651.215
414.060, 673.524
415.405, 703.454
416.749, 872.086
418.093, 945.471
419.437, 1235.503
420.781, 1746.988
422.125, 2458.315
423.468, 3673.027
424.811, 4845.557
426.154, 5680.318
427.497, 5856.090
428.839, 5432.028
430.182, 4408.080
431.524, 3414.097
432.866, 2480.074
434.207, 1926.014
435.549, 1391.918
436.890, 997.784
438.231, 763.612
439.572, 709.402
440.912, 445.141
442.252, 550.818
443.593, 546.439
444.932, 372.000
446.272, 467.497
447.611, 432.932
448.951, 378.307
450.290, 433.617
451.628, 348.869
452.967, 304.056
454.305, 329.180
455.644, 304.238
456.981, 259.228
458.319, 344.151
459.657, 339.010
460.994, 253.804
462.331, 308.530
463.668, 333.191
465.004, 387.788
466.341, 342.320
467.677, 366.788
469.013, 511.188
470.348, 475.524
471.684, 669.796
473.019, 644.003
474.354, 798.145
475.689, 1032.231
477.024, 1196.253
478.358, 1460.237
479.692, 1664.161
481.026, 1868.021
482.360, 1991.818
483.694, 1985.551
485.027, 1989.219
486.360, 1912.823
487.693, 1946.363
489.026, 1899.840
490.358, 1833.253
491.691, 1836.603
493.023, 1629.890
494.354, 1593.112
495.686, 1536.272
497.017, 1489.342
498.349, 1381.797
499.680, 1223.949
501.010, 1166.518
502.341, 1048.354
503.671, 800.468
505.001, 731.104
506.331, 722.728
507.661, 603.740
508.990, 505.064
510.319, 354.450
511.648, 335.465
512.977, 287.058
514.306, 246.812
515.634, 144.376
516.962, 143.968
518.290, 149.598
519.618, 29.238
520.945, 168.775
522.273, 50.557
523.600, 80.925
524.927, 101.770
526.253, 14.562
527.580, 56.042
528.906, 7.387
530.232, 19.006
531.558, 69.676
532.883, 11.739
534.208, 53.019
535.534, 10.810
536.858, 29.168
538.183, 16.885
539.508, 65.008
540.832, 96.204
542.156, 6.391
543.480, 35.338
544.803, 57.189
546.127, 79.119
547.450, 152.605
548.773, 77.342
550.096, 228.682
551.418, 90.100
552.741, 70.479
554.063, 151.861
555.385, 13.543
556.706, 165.866
558.028, 137.235
559.349, 1.884
560.670, 110.222
561.991, 141.399
563.312, 113.046
564.632, 154.169
565.952, 134.678
567.272, 76.650
568.592, 77.559
569.911, 149.791
571.231, 260.654
572.550, 199.333
573.869, 229.665
575.187, 270.165
576.506, 392.025
577.824, 332.636
579.142, 443.720
580.460, 564.188
581.778, 435.734
583.095, 646.853
584.412, 577.186
585.729, 727.643
587.046, 597.901
588.363, 688.215
589.679, 918.212
590.995, 848.178
592.311, 1107.819
593.627, 1117.913
594.942, 1207.626
596.258, 1737.313
597.573, 1976.803
598.888, 2396.430
600.202, 2725.107
601.517, 2874.633
602.831, 3093.754
604.145, 2652.404
605.459, 2201.215
606.772, 1850.231
608.086, 1679.008
609.399, 1408.136
610.712, 1116.434
612.024, 995.304
613.337, 962.882
614.649, 820.576
615.961, 988.596
617.273, 1025.854
618.585, 1023.855
619.896, 1090.803
621.208, 1278.410
622.519, 1575.842
623.829, 1882.932
625.140, 2440.139
626.450, 2766.688
627.761, 3213.412
629.071, 3410.271
630.380, 3196.852
631.690, 3323.358
632.999, 3019.795
634.308, 2686.156
635.617, 2482.444
636.926, 2698.658
638.235, 3014.801
639.543, 3500.871
640.851, 4526.865
642.159, 5852.787
643.466, 7248.634
644.774, 8784.405
646.081, 9150.104
647.388, 8785.729
648.695, 7601.279
650.002, 6186.754
651.308, 4702.154
652.614, 3417.481
653.920, 2752.732
655.226, 2067.910
656.531, 1553.016
657.837, 1258.051
659.142, 993.012
660.447, 907.900
661.752, 712.721
663.056, 517.476
664.360, 692.159
665.664, 516.773
666.968, 531.319
668.272, 365.476
669.575, 299.481
670.879, 453.212
672.182, 226.711
673.484, 399.741
674.787, 273.725
676.089, 266.928
677.392, 307.410
678.694, 50.861
679.995, 303.152
681.297, 206.629
682.598, 10.068
683.899, 221.777
685.200, 154.852
686.501, 156.840
687.802, 198.990
689.102, 86.850
690.402, 159.273
691.702, 47.953
693.002, 103.777
694.301, 23.602
695.600, 44.805
696.899, 102.553
698.198, 69.105
699.497, 172.811
700.795, 12.271
702.093, 36.729
703.391, 2.418
704.689, 18.963
705.987, 110.674
707.284, 162.920
708.581, 110.385
709.878, 120.908
711.175, 77.629
712.472, 32.580
713.768, 123.369
715.064, 111.213
716.360, 38.141
717.656, 98.488
718.951, 38.785
720.247, 99.361
721.542, 140.053
722.837, 30.525
724.131, 110.455
725.426, 20.168
726.720, 90.305
728.014, 85.213
729.308, 205.480
730.601, 157.057
731.895, 27.178
733.188, 107.576
734.481, 47.672
735.774, 118.256
737.067, 28.912
738.359, 39.346
739.651, 109.211
740.943, 75.551
742.235, 105.688
743.526, 75.773
744.818, 137.941
746.109, 127.801
747.400, 187.355
748.691, 68.668
749.981, 138.123
751.271, 129.217
752.562, 158.447
753.851, 107.754
755.141, 317.684
756.431, 96.643
757.720, 175.889
759.009, 224.256
760.298, 212.545
761.587, 158.482
762.875, 156.613
764.163, 95.000
765.451, 203.342
766.739, 51.805
768.027, 322.463
769.314, 250.631
770.601, 108.965
771.888, 356.713
773.175, 154.338
774.462, 302.342
775.748, 179.695
777.034, 227.324
778.320, 345.609
779.606, 252.738
780.892, 582.410
782.177, 509.398
783.462, 366.314
784.747, 654.145
786.032, 620.922
787.317, 888.172
788.601, 795.094
789.885, 881.666
791.169, 1138.436
792.453, 1174.873
793.736, 1451.902
795.019, 1438.203
796.303, 1674.438
797.585, 2120.605
798.868, 1886.707
800.151, 2042.742
801.433, 2178.711
802.715, 1964.613
803.997, 1950.451
805.279, 1926.223
806.560, 1731.928
807.841, 1607.568
809.122, 1423.146
810.403, 1438.658
811.684, 1284.105
812.964, 1029.490
814.245, 1134.811
815.525, 920.064
816.804, 925.258
818.084, 810.389
819.363, 635.457
820.643, 880.461
821.922, 515.404
823.201, 509.893
824.479, 464.047
825.758, 418.787
827.036, 512.523
828.314, 116.928
829.592, 300.742
830.869, 404.471
832.147, 228.334
833.424, 390.959
834.701, 94.693
835.977, 137.963
837.254, 148.295
838.530, 91.520
839.807, 224.408
841.082, 197.254
842.358, 200.227
843.634, 72.709
844.909, 55.439
846.184, 43.189
847.459, 215.627
848.734, 47.330
850.008, 129.361
851.283, 78.305
852.557, 7.842
853.831, 50.287
855.105, 28.635
856.378, 362.980
857.651, 6.924
858.925, 117.967
860.197, 43.846
861.470, 74.174
862.743, 28.400
864.015, 79.949
865.287, 68.596
866.559, 181.893
867.831, 66.701
869.102, 95.059
870.373, 125.473
871.645, 146.604
872.915, 26.973
874.186, 18.031
875.457, 29.213
876.727, 69.227
877.997, 100.209
879.267, 49.770
880.536, 69.410
881.806, 6.494
883.075, 25.332
884.344, 55.572
885.613, 85.035
886.882, 75.652
888.150, 45.711
889.419, 26.297
890.687, 25.713
891.954, 165.453
893.222, 114.115
894.490, 56.064
895.757, 46.332
897.024, 43.562
898.291, 56.738
899.557, 106.961
900.824, 32.602
902.090, 87.271
903.356, 32.582
904.622, 97.471
905.888, 57.615
907.153, 12.486
908.418, 98.250
909.683, 8.033
910.948, 198.111
912.213, 208.369
913.477, 141.449
914.741, 238.391
916.005, 108.195
917.269, 97.721
918.533, 47.670
919.796, 53.246
921.060, 77.123
922.323, 17.164
923.585, 136.588
924.848, 147.025
926.111, 36.598
927.373, 236.764
928.635, 86.395
929.897, 13.795
931.158, 296.479
932.420, 53.652
933.681, 296.859
934.942, 277.348
936.203, 12.396
937.463, 388.033
938.724, 28.441
939.984, 88.822
941.244, 209.180
942.504, 89.514
943.764, 289.826
945.023, 0.119
946.282, 210.381
947.541, 260.623
948.800, 340.844
950.059, 281.043
951.317, 381.225
952.575, 191.387
953.833, 511.531
955.091, 351.654
956.349, 601.760
957.606, 771.848
958.864, 471.916
960.121, 1151.965
961.377, 1362.002
962.634, 2572.016
963.891, 4142.016
965.147, 5811.996
966.403, 6481.961
967.659, 4771.910
968.914, 3361.844
970.170, 2421.760
971.425, 1501.670
972.680, 1471.561
973.935, 1291.439
975.190, 841.309
976.444, 1201.160
977.698, 941.004
978.952, 960.832
980.206, 1489.631
981.460, 959.201
982.713, 1268.998
983.967, 1408.254
985.220, 988.035
986.473, 1616.773
987.725, 1255.656
988.978, 1584.607
990.230, 1743.998
991.482, 1693.312
992.734, 2222.654
993.986, 2171.871
995.237, 2420.605
996.488, 2659.480
997.739, 3018.160
998.990, 3667.711
1000.241, 4096.781
1001.492, 4865.861
1002.742, 6009.039
1003.992, 6597.180
1005.242, 8166.324
1006.492, 9453.760
1007.741, 10483.672
1008.990, 12131.195
1010.239, 13133.678
1011.488, 13812.559
1012.737, 13957.973
1013.986, 12957.795
1015.234, 12301.668
1016.482, 10797.527
1017.730, 9097.203
1018.978, 8202.094
1020.225, 6682.570
1021.473, 5822.232
1022.720, 5123.062
1023.967, 4283.080
1025.213, 4122.463
1026.460, 3763.186
1027.706, 3512.803
1028.953, 3422.615
1030.198, 3172.232
1031.444, 3347.889
1032.690, 3526.961
1033.935, 3665.193
1035.180, 4525.070
1036.425, 4495.090
1037.670, 5135.082
1038.915, 5735.041
1040.159, 6284.926
1041.403, 7524.832
1042.647, 8825.355
1043.891, 9329.320
1045.135, 10139.439
1046.378, 10309.531
1047.621, 10317.453
1048.864, 9987.609
1050.107, 9087.984
1051.350, 9276.512
1052.592, 9146.824
1053.835, 9615.410
1055.077, 10355.785
1056.318, 11156.004
1057.560, 12385.516
1058.802, 13025.922
1060.043, 13055.961
1061.284, 13516.797
1062.525, 11268.055
1063.765, 9601.176
1065.006, 8292.023
1066.246, 6473.365
1067.486, 5663.844
1068.726, 4294.125
1069.966, 3633.211
1071.205, 3323.635
1072.445, 2494.510
1073.684, 2545.615
1074.923, 2046.352
1076.161, 1467.379
1077.400, 1808.242
1078.638, 1318.750
1079.876, 1439.488
1081.114, 1510.348
1082.352, 998.621
1083.590, 1369.648
1084.827, 1030.498
1086.064, 831.162
1087.301, 1052.012
1088.538, 672.320
1089.775, 993.852
1091.011, 1024.689
1092.247, 746.391
1093.483, 1017.217
1094.719, 797.377
1095.955, 868.965
1097.190, 1039.764
1098.425, 870.553
1099.660, 1342.344
1100.895, 1143.113
1102.130, 1244.592
1103.364, 1946.080
1104.598, 1736.814
1105.833, 2428.283
1107.066, 3149.469
1108.300, 2800.158
1109.534, 3292.199
1110.767, 3132.863
1112.000, 2563.584
1113.233, 2655.150
1114.466, 2195.770
1115.698, 2097.941
1116.930, 1958.531
1118.163, 1419.102
1119.394, 1752.344
1120.626, 1482.883
1121.858, 1464.219
1123.089, 1655.984
1124.320, 1236.469
1125.551, 1128.504
1126.782, 1169.125
1128.013, 599.836
1129.243, 1091.941
1130.473, 642.328
1131.703, 323.738
1132.933, 734.281
1134.163, 154.957
1135.392, 548.461
1136.621, 579.578
1137.850, 9.844
1139.079, 502.762
1140.308, 153.738
1141.536, 335.016
1142.765, 557.355
1143.993, 222.352
1145.221, 654.785
1146.448, 176.441
1147.676, 126.848
1148.903, 324.184
1150.130, 154.605
1151.357, 234.645
1152.584, 147.668
1153.810, 12.453
1155.037, 398.879
1156.263, 240.820
1157.489, 29.246
1158.715, 489.199
1159.940, 29.988
1161.166, 31.020
1162.391, 627.578
1163.616, 2.465
1164.841, 478.648
1166.065, 320.699
1167.290, 50.336
1168.514, 557.438
1169.738, 58.918
1170.962, 139.863
1172.185, 742.750
1173.409, 43.312
1174.632, 783.355
1175.855, 448.004
1177.078, 377.660
1178.301, 848.461
1179.523, 456.902
1180.746, 656.426
1181.968, 901.672
1183.190, 893.211
1184.412, 1303.578
1185.633, 1073.285
1186.855, 1023.098
1188.076, 1514.633
1189.297, 1208.562
1190.518, 1258.012
1191.738, 1507.844
1192.959, 927.973
1194.179, 1677.398
1195.399, 1298.820
1196.619, 958.227
1197.838, 1107.875
1199.058, 808.934
1200.277, 918.301
1201.496, 1118.516
1202.715, 519.645
1203.934, 1168.957
1205.152, 790.184
1206.371, 709.461
1207.589, 1118.719
1208.807, 401.797
1210.024, 771.004
1211.242, 760.219
1212.459, 311.051
1213.677, 810.223
1214.894, 540.613
1216.110, 260.234
1217.327, 929.324
1218.543, 359.891
1219.760, 428.926
1220.976, 1097.934
1222.192, 358.035
1223.407, 666.980
1224.623, 675.984
1225.838, 314.910
1227.053, 783.668
1228.268, 542.895
1229.483, 511.781
1230.697, 760.316
1231.912, 372.328
1233.126, 790.758
1234.340, 749.742
1235.554, 338.500
1236.767, 756.730
1237.981, 305.004
1239.194, 733.184
1240.407, 770.977
1241.620, 398.602
1242.832, 866.160
1244.045, 693.391
1245.257, 350.961
1246.469, 1067.949
1247.681, 424.812
1248.893, 421.859
1250.104, 788.152
1251.315, 424.363
1252.527, 490.469
1253.738, 806.391
1254.948, 282.918
1256.159, 788.676
1257.369, 594.352
1258.579, 390.902
1259.789, 916.371
1260.999, 241.762
1262.209, 837.727
1263.418, 782.883
1264.628, 88.383
1265.837, 793.320
1267.046, 428.145
1268.254, 324.168
1269.463, 788.762
1270.671, 253.246
1271.879, 588.898
1273.087, 563.094
1274.295, 227.391
1275.502, 791.328
1276.710, 385.137
1277.917, 589.426
1279.124, 553.000
1280.331, 66.410
1281.537, 440.887
1282.744, 784.109
1283.950, 103.449
1285.156, 459.754
1286.362, 382.461
1287.568, 94.801
1288.773, 608.805
1289.978, 18.945
1291.184, 243.359
1292.389, 535.406
1293.593, 22.891
1294.798, 519.316
1296.002, 610.855
1297.206, 72.598
1298.410, 864.996
1299.614, 285.324
1300.818, 176.754
1302.021, 608.062
1303.225, 42.293
1304.428, 388.805
1305.631, 338.195
##END=



