##NAMES=Montebrasite
##RRUFFID=R060890
##IDEAL CHEMISTRY=LiAlPO_4_(OH)
##LOCALITY=Mount Marie, Paris, Maine, USA
##OWNER=RRUFF
##SOURCE=Bob Jenkins
##DESCRIPTION=Colorless massive
##STATUS=The identification of this mineral is confirmed by single-crystal X-ray diffraction and chemical analysis.
##URL=rruff.info/R060890
##MEASURED CHEMISTRY=Li_1.00_Al_1.00_(P_1.00_O_4_)(OH)_0.63_F_0.37_)_Î£=1_ ; Li not measured but estimated by stoichiometry
##PIN_ID=M00747
##ORIENTATION=Laser parallel to (0 1 1). Fiducial mark perpendicular to laser is parallel to a [1 0 0]
90.67800, 0.0000000E+00
91.91600, 545.4258
93.15500, 0.4257810
94.39300, 1547.062
95.63100, 956.3867
96.86900, 840.4648
98.10600, 1621.117
99.34400, 1540.984
100.5810, 929.0938
101.8190, 433.9727
103.0560, 124.3906
104.2930, 12.49609
105.5290, 44.29688
106.7660, 812.2461
108.0020, 1062.613
109.2390, 1081.918
110.4750, 2205.770
111.7110, 1070.297
112.9460, 122.2773
114.1820, 1213.008
115.4170, 975.9258
116.6530, 1480.488
117.8880, 804.5195
119.1230, 671.7891
120.3580, 1225.867
121.5920, 1252.301
122.8270, 1864.818
124.0610, 2103.652
125.2950, 959.8125
126.5290, 1210.184
127.7630, 1713.400
128.9970, 1562.330
130.2300, 2554.379
131.4640, 2612.422
132.6970, 1666.184
133.9300, 2304.818
135.1630, 1730.143
136.3950, 1441.115
137.6280, 1619.928
138.8600, 2102.809
140.0920, 1712.570
141.3240, 2433.527
142.5560, 1435.691
143.7880, 1378.576
145.0190, 1487.314
146.2510, 1487.309
147.4820, 1643.156
148.7130, 901.4648
149.9440, 943.2441
151.1750, 877.3984
152.4050, 1429.441
153.6360, 1560.803
154.8660, 2221.381
156.0960, 2356.162
157.3260, 2939.955
158.5560, 3701.559
159.7850, 3102.293
161.0150, 2702.180
162.2440, 3161.348
163.4730, 4424.109
164.7020, 4214.621
165.9310, 4255.551
167.1590, 4352.719
168.3880, 4835.553
169.6160, 4718.758
170.8440, 4697.725
172.0720, 4727.762
173.3000, 4603.898
174.5280, 3896.092
175.7550, 4059.812
176.9820, 4082.953
178.2100, 3457.381
179.4370, 3684.695
180.6630, 3344.332
181.8900, 2913.346
183.1170, 3370.184
184.3430, 3120.832
185.5690, 3221.275
186.7950, 2876.084
188.0210, 3139.062
189.2470, 2742.791
190.4720, 3043.258
191.6970, 3454.451
192.9230, 2591.359
194.1480, 2279.936
195.3730, 2546.191
196.5970, 2580.148
197.8220, 2719.824
199.0460, 2755.197
200.2700, 2353.240
201.4940, 1675.916
202.7180, 749.2090
203.9420, 518.1055
205.1660, 904.5879
206.3890, 1643.643
207.6120, 791.6504
208.8350, 578.6211
210.0580, 214.9766
211.2810, 226.1738
212.5040, 299.8047
213.7260, 64.38281
214.9480, 495.6973
216.1700, 12.69531
217.3920, 324.0234
218.6140, 839.1289
219.8360, 69.17188
221.0570, 588.5195
222.2790, 446.6582
223.5000, 704.5977
224.7210, 398.2324
225.9410, 93.48828
227.1620, 575.6074
228.3820, 118.4062
229.6030, 317.9414
230.8230, 87.55664
232.0430, 341.6016
233.2630, 299.7637
234.4820, 195.7832
235.7020, 312.2637
236.9210, 16.94922
238.1400, 177.1270
239.3590, 381.2969
240.5780, 616.7656
241.7970, 396.5859
243.0150, 807.9160
244.2340, 37.37109
245.4520, 264.3281
246.6700, 163.7754
247.8880, 36.72461
249.1060, 141.6152
250.3230, 93.57227
251.5400, 170.0918
252.7580, 405.4121
253.9750, 425.9746
255.1920, 77.68750
256.4080, 199.5508
257.6250, 268.6582
258.8410, 120.9648
260.0580, 764.2344
261.2740, 865.3184
262.4900, 968.6855
263.7050, 1999.072
264.9210, 2161.391
266.1360, 1789.076
267.3520, 2316.756
268.5670, 2163.730
269.7820, 2408.238
270.9960, 2556.725
272.2110, 2862.314
273.4250, 2791.279
274.6400, 2598.770
275.8540, 2391.795
277.0680, 2700.340
278.2810, 2372.406
279.4950, 2521.980
280.7090, 2286.070
281.9220, 2146.688
283.1350, 2580.852
284.3480, 2602.564
285.5610, 2965.848
286.7730, 3461.703
287.9860, 4313.037
289.1980, 4899.031
290.4100, 6596.213
291.6220, 7612.395
292.8340, 9031.105
294.0460, 10455.40
295.2570, 12066.69
296.4690, 13309.56
297.6800, 14445.46
298.8910, 15946.27
300.1020, 17258.17
301.3120, 17699.76
302.5230, 17440.48
303.7330, 16013.93
304.9440, 14303.92
306.1540, 13340.65
307.3630, 11594.59
308.5730, 9792.547
309.7830, 8329.301
310.9920, 7581.355
312.2010, 6963.904
313.4100, 6339.789
314.6190, 5754.006
315.8280, 5255.486
317.0370, 4593.283
318.2450, 4065.645
319.4530, 3292.949
320.6610, 2993.883
321.8690, 2387.395
323.0770, 2074.582
324.2850, 1960.514
325.4920, 1591.186
326.6990, 1643.598
327.9060, 1322.758
329.1130, 931.6562
330.3200, 949.2891
331.5270, 802.6523
332.7330, 837.7461
333.9390, 847.5723
335.1450, 847.1328
336.3510, 699.4238
337.5570, 690.5977
338.7630, 741.2012
339.9680, 552.6875
341.1740, 577.9082
342.3790, 511.8574
343.5840, 603.5371
344.7890, 434.9492
345.9930, 191.0898
347.1980, 408.5605
348.4020, 561.2852
349.6060, 341.8340
350.8100, 181.2969
352.0140, 185.5859
353.2180, 111.6855
354.4210, 400.7363
355.6250, 536.0332
356.8280, 599.2852
358.0310, 419.5020
359.2340, 326.9160
360.4360, 218.8867
361.6390, 297.3379
362.8410, 284.7793
364.0430, 509.7598
365.2450, 536.2734
366.4470, 843.7285
367.6490, 780.6562
368.8510, 856.4629
370.0520, 723.6992
371.2530, 672.7754
372.4540, 688.3594
373.6550, 624.5449
374.8560, 523.5840
376.0560, 567.2441
377.2570, 434.8145
378.4570, 567.6582
379.6570, 318.6426
380.8570, 259.5840
382.0570, 267.1953
383.2560, 140.5898
384.4560, 218.6133
385.6550, 219.9609
386.8540, 229.9668
388.0530, 302.6816
389.2520, 178.8672
390.4510, 168.5508
391.6490, 209.4141
392.8470, 217.3633
394.0450, 504.0605
395.2430, 298.6367
396.4410, 308.7793
397.6390, 305.4141
398.8360, 18.15137
400.0340, 210.3008
401.2310, 267.7197
402.4280, 336.1670
403.6250, 337.5918
404.8210, 6.715820
406.0180, 165.1016
407.2140, 317.2930
408.4100, 218.9854
409.6060, 591.0215
410.8020, 609.1191
411.9980, 886.3828
413.1930, 643.3711
414.3890, 1254.025
415.5840, 1764.005
416.7790, 2114.889
417.9740, 2883.322
419.1680, 3483.518
420.3630, 4067.812
421.5570, 4851.469
422.7510, 5253.814
423.9450, 5884.406
425.1390, 6387.004
426.3330, 6700.379
427.5270, 6187.520
428.7200, 5397.887
429.9130, 4318.517
431.1060, 3484.032
432.2990, 2588.704
433.4920, 2123.253
434.6840, 1847.330
435.8770, 1386.676
437.0690, 1478.199
438.2610, 1233.390
439.4530, 988.9551
440.6450, 737.7832
441.8360, 878.2295
443.0280, 800.3799
444.2190, 863.3184
445.4100, 458.0205
446.6010, 879.4951
447.7920, 618.7393
448.9820, 793.7480
450.1730, 850.5068
451.3630, 908.2266
452.5530, 981.0703
453.7430, 1018.290
454.9330, 1035.630
456.1230, 1094.402
457.3120, 1086.968
458.5010, 1110.333
459.6910, 1226.498
460.8800, 1061.465
462.0680, 1199.235
463.2570, 1126.812
464.4460, 1271.198
465.6340, 1308.396
466.8220, 1410.089
468.0100, 1426.138
469.1980, 1593.477
470.3860, 2048.869
471.5730, 2199.758
472.7600, 2544.846
473.9480, 2599.879
475.1350, 2722.139
476.3210, 3114.384
477.5080, 3478.512
478.6950, 3501.478
479.8810, 3789.668
481.0670, 4061.666
482.2530, 4032.719
483.4390, 4088.828
484.6250, 4145.885
485.8100, 4001.404
486.9960, 3920.265
488.1810, 3734.873
489.3660, 3635.378
490.5510, 3543.441
491.7360, 3389.557
492.9200, 3269.943
494.1050, 3115.882
495.2890, 2836.734
496.4730, 2726.691
497.6570, 2382.155
498.8400, 2211.492
500.0240, 2172.014
501.2070, 2195.466
502.3910, 1960.138
503.5740, 1539.823
504.7570, 1418.188
505.9400, 1144.385
507.1220, 1149.081
508.3050, 863.8467
509.4870, 867.7959
510.6690, 621.3877
511.8510, 769.1826
513.0330, 456.3320
514.2140, 452.2041
515.3960, 442.0312
516.5770, 371.5254
517.7580, 312.5010
518.9390, 273.5957
520.1200, 306.2764
521.3010, 283.4189
522.4810, 181.5332
523.6610, 369.3887
524.8420, 45.30664
526.0220, 221.1016
527.2010, 43.53027
528.3810, 57.73828
529.5610, 31.99316
530.7400, 153.6592
531.9190, 46.21875
533.0980, 90.30664
534.2770, 60.43848
535.4560, 14.17871
536.6340, 157.8438
537.8120, 9.259766
538.9910, 155.3281
540.1690, 7.679688
541.3460, 75.81738
542.5240, 51.48242
543.7020, 187.4072
544.8790, 279.3867
546.0560, 236.5508
547.2330, 13.31934
548.4100, 22.19238
549.5870, 138.1191
550.7630, 66.15820
551.9400, 158.9697
553.1160, 252.2471
554.2920, 182.0762
555.4680, 23.02734
556.6440, 124.2529
557.8190, 83.20020
558.9950, 126.6611
560.1700, 119.1904
561.3450, 271.3271
562.5200, 121.5732
563.6950, 140.7764
564.8690, 263.5479
566.0440, 448.8135
567.2180, 116.0303
568.3920, 202.5400
569.5660, 325.4170
570.7400, 441.1221
571.9130, 176.5918
573.0870, 318.5137
574.2600, 294.7412
575.4330, 348.4902
576.6060, 463.6602
577.7790, 368.0283
578.9520, 407.9971
580.1240, 504.7432
581.2960, 384.9941
582.4690, 669.1113
583.6410, 774.3848
584.8120, 684.5898
585.9840, 1024.472
587.1560, 1053.942
588.3270, 1197.744
589.4980, 1531.519
590.6690, 1670.938
591.8400, 1963.180
593.0110, 2279.913
594.1810, 2954.171
595.3510, 3401.740
596.5220, 4164.961
597.6920, 4554.332
598.8610, 5545.420
600.0310, 5599.552
601.2010, 6200.640
602.3700, 6424.254
603.5390, 6744.049
604.7080, 7221.659
605.8770, 5812.286
607.0460, 5287.809
608.2140, 3651.072
609.3830, 3323.339
610.5510, 2833.367
611.7190, 2619.167
612.8870, 2757.932
614.0550, 2443.656
615.2220, 2588.764
616.3900, 2807.711
617.5570, 2734.593
618.7240, 2847.307
619.8910, 3265.870
621.0580, 3493.849
622.2240, 4030.104
623.3910, 4498.301
624.5570, 5136.426
625.7230, 5725.912
626.8890, 6329.108
628.0550, 6665.641
629.2200, 7200.465
630.3860, 7446.713
631.5510, 7626.799
632.7160, 7820.268
633.8810, 7804.649
635.0460, 7831.698
636.2100, 7891.934
637.3750, 8484.729
638.5390, 8810.674
639.7030, 9762.077
640.8670, 10675.42
642.0310, 11645.77
643.1950, 12738.06
644.3580, 13315.26
645.5210, 13994.46
646.6850, 13567.59
647.8480, 12277.66
649.0100, 10555.51
650.1730, 8615.345
651.3350, 6778.104
652.4980, 5432.434
653.6600, 4149.411
654.8220, 3460.352
655.9840, 2723.212
657.1450, 2306.732
658.3070, 2081.963
659.4680, 1586.986
660.6300, 1446.104
661.7910, 1314.080
662.9510, 1091.598
664.1120, 886.8604
665.2730, 854.7256
666.4330, 820.2900
667.5930, 604.1260
668.7530, 594.9287
669.9130, 542.9238
671.0730, 446.0469
672.2320, 518.6465
673.3920, 391.9863
674.5510, 304.1367
675.7100, 317.2275
676.8690, 372.9805
678.0280, 322.2119
679.1860, 286.9424
680.3450, 355.9102
681.5030, 298.2891
682.6610, 188.4912
683.8190, 226.2021
684.9770, 220.2393
686.1340, 387.0371
687.2920, 102.6016
688.4490, 129.3984
689.6060, 289.6182
690.7630, 50.79297
691.9200, 16.97656
693.0760, 38.51953
694.2330, 60.58105
695.3890, 39.05176
696.5450, 36.62109
697.7010, 117.0430
698.8570, 65.56641
700.0130, 123.9785
701.1680, 65.04785
702.3230, 57.77832
703.4780, 33.42773
704.6330, 62.81543
705.7880, 45.34277
706.9430, 73.50586
708.0970, 191.9131
709.2520, 201.1025
710.4060, 57.35645
711.5600, 89.49023
712.7140, 38.08594
713.8670, 71.42188
715.0210, 179.2773
716.1740, 27.23438
717.3270, 139.2588
718.4800, 3.993164
719.6330, 30.26270
720.7860, 84.84082
721.9380, 79.46094
723.0910, 66.83496
724.2430, 115.1211
725.3950, 46.65137
726.5470, 108.9385
727.6980, 72.29395
728.8500, 6.109375
730.0010, 2.539063
731.1530, 55.90430
732.3040, 43.65527
733.4550, 30.09180
734.6050, 6.197266
735.7560, 44.45996
736.9060, 71.16016
738.0560, 63.60156
739.2060, 98.36035
740.3560, 97.67383
741.5060, 115.8203
742.6560, 123.6055
743.8050, 103.3760
744.9540, 102.4102
746.1030, 138.7217
747.2520, 112.8613
748.4010, 159.6523
749.5500, 38.57031
750.6980, 183.7559
751.8460, 88.76562
752.9950, 75.37012
754.1420, 97.92188
755.2900, 99.47266
756.4380, 125.9863
757.5850, 145.6143
758.7330, 65.28906
759.8800, 185.5117
761.0270, 180.7764
762.1730, 186.1006
763.3200, 82.16797
764.4670, 134.4775
765.6130, 281.7686
766.7590, 195.5996
767.9050, 220.0166
769.0510, 203.4580
770.1960, 240.6709
771.3420, 249.7656
772.4870, 324.0801
773.6320, 265.1963
774.7770, 359.6963
775.9220, 307.1172
777.0670, 456.8555
778.2110, 445.5283
779.3560, 415.2051
780.5000, 411.7432
781.6440, 464.2139
782.7880, 629.2539
783.9320, 742.5928
785.0750, 857.8633
786.2180, 861.0674
787.3620, 1045.023
788.5050, 1049.271
789.6480, 1449.287
790.7900, 1473.668
791.9330, 1823.422
793.0750, 1673.920
794.2170, 1942.692
795.3590, 1979.408
796.5010, 2232.067
797.6430, 2328.672
798.7850, 2499.222
799.9260, 2684.474
801.0670, 2838.775
802.2080, 2941.160
803.3490, 2878.497
804.4900, 2808.778
805.6310, 2841.016
806.7710, 2771.390
807.9110, 2945.521
809.0510, 2851.205
810.1910, 2799.155
811.3310, 2675.551
812.4710, 2646.547
813.6100, 2551.557
814.7490, 2532.793
815.8880, 2304.776
817.0270, 2232.608
818.1660, 2130.685
819.3050, 1783.495
820.4430, 1825.805
821.5820, 1718.228
822.7200, 1744.580
823.8580, 1512.588
824.9950, 1331.365
826.1330, 1428.215
827.2710, 1265.693
828.4080, 1040.147
829.5450, 894.3652
830.6820, 936.0342
831.8190, 702.4023
832.9560, 778.8867
834.0920, 646.0762
835.2280, 675.5664
836.3650, 574.8027
837.5010, 485.2461
838.6360, 308.4023
839.7720, 271.4199
840.9080, 358.6895
842.0430, 239.9043
843.1780, 259.7578
844.3130, 191.7617
845.4480, 107.2227
846.5830, 118.6797
847.7170, 38.52930
848.8520, 204.0879
849.9860, 26.50195
851.1200, 87.21484
852.2540, 265.3379
853.3870, 262.0996
854.5210, 165.1016
855.6540, 307.0039
856.7880, 182.2520
857.9210, 87.44727
859.0540, 261.9453
860.1860, 125.0645
861.3190, 59.64453
862.4510, 157.8105
863.5840, 192.2930
864.7160, 113.5859
865.8480, 49.14844
866.9790, 68.38477
868.1110, 138.5508
869.2420, 156.3789
870.3740, 229.9395
871.5050, 157.8008
872.6360, 124.6504
873.7660, 171.6348
874.8970, 176.5625
876.0280, 53.61328
877.1580, 163.6328
878.2880, 165.7051
879.4180, 64.78711
880.5480, 127.7559
881.6770, 40.70117
882.8070, 58.76953
883.9360, 92.29102
885.0650, 68.73242
886.1940, 35.13281
887.3230, 145.9062
888.4520, 111.1211
889.5800, 17.66992
890.7090, 37.17383
891.8370, 38.72852
892.9650, 14.23438
894.0930, 22.12695
895.2200, 20.31641
896.3480, 12.95117
897.4750, 46.45117
898.6020, 12.10547
899.7290, 3.210938
900.8560, 52.49219
901.9830, 8.363281
903.1090, 54.83594
904.2360, 28.39844
905.3620, 128.1191
906.4880, 121.4043
907.6140, 83.04102
908.7400, 23.74414
909.8650, 31.72852
910.9900, 93.16016
912.1160, 139.8164
913.2410, 107.9316
914.3660, 169.9727
915.4900, 124.9863
916.6150, 87.92578
917.7390, 198.1172
918.8640, 141.7246
919.9880, 136.5527
921.1120, 167.3633
922.2350, 34.83789
923.3590, 24.07422
924.4820, 15.66602
925.6060, 16.60742
926.7290, 105.9043
927.8520, 37.26562
928.9740, 114.3457
930.0970, 27.94531
931.2190, 254.5332
932.3420, 118.3223
933.4640, 190.6758
934.5860, 42.76562
935.7080, 39.76367
936.8290, 84.28516
937.9510, 100.7969
939.0720, 62.29883
940.1930, 222.7910
941.3140, 11.72070
942.4350, 144.0625
943.5560, 78.83789
944.6760, 313.6816
945.7960, 71.13867
946.9170, 169.5879
948.0370, 293.0371
949.1560, 79.48438
950.2760, 298.9297
951.3960, 76.37305
952.5150, 253.8125
953.6340, 276.2539
954.7530, 82.69336
955.8720, 362.1309
956.9910, 432.5742
958.1090, 296.0195
959.2280, 289.4609
960.3460, 378.9102
961.4640, 519.3633
962.5820, 457.8145
963.6990, 718.2754
964.8170, 676.7461
965.9340, 696.2363
967.0510, 610.7344
968.1690, 670.6523
969.2850, 856.8145
970.4020, 800.3672
971.5190, 836.9258
972.6350, 979.4922
973.7510, 867.0586
974.8670, 1106.525
975.9830, 1142.148
977.0990, 1346.582
978.2150, 1403.170
979.3300, 1611.494
980.4450, 1782.482
981.5600, 1761.607
982.6750, 2088.219
983.7900, 2398.836
984.9050, 2555.180
986.0190, 3085.342
987.1340, 3316.301
988.2480, 3799.289
989.3620, 4349.025
990.4750, 5101.137
991.5890, 5810.664
992.7020, 6495.748
993.8160, 7610.020
994.9290, 8630.975
996.0420, 9858.598
997.1550, 10903.80
998.2670, 12657.17
999.3800, 14223.24
1000.492, 15965.20
1001.604, 18132.17
1002.716, 19880.52
1003.828, 22166.00
1004.940, 24227.61
1006.051, 25784.21
1007.163, 27581.74
1008.274, 28780.45
1009.385, 29649.20
1010.496, 29569.54
1011.606, 28994.34
1012.717, 28013.18
1013.827, 26100.71
1014.937, 24189.55
1016.047, 22147.07
1017.157, 20064.71
1018.267, 17868.64
1019.377, 15771.38
1020.486, 13838.79
1021.595, 12626.85
1022.704, 10850.15
1023.813, 9819.984
1024.922, 8752.762
1026.030, 8293.516
1027.139, 7673.734
1028.247, 7214.590
1029.355, 6896.469
1030.463, 6516.252
1031.571, 6639.922
1032.678, 6749.793
1033.786, 6537.365
1034.893, 6849.902
1036.000, 7165.850
1037.107, 7589.156
1038.214, 7951.387
1039.321, 8107.795
1040.427, 8616.266
1041.533, 9016.473
1042.639, 9476.830
1043.745, 9991.137
1044.851, 10458.70
1045.957, 10923.29
1047.062, 12544.90
1048.168, 13610.46
1049.273, 13471.11
1050.378, 13638.78
1051.482, 14642.83
1052.587, 16137.55
1053.692, 17756.29
1054.796, 19569.05
1055.900, 21848.02
1057.004, 24067.65
1058.108, 26302.48
1059.212, 27980.64
1060.315, 29714.91
1061.418, 30287.15
1062.522, 29620.07
1063.625, 28318.03
1064.728, 25941.01
1065.830, 22888.00
1066.933, 19879.03
1068.035, 16398.46
1069.137, 13466.54
1070.239, 11014.63
1071.341, 9105.754
1072.443, 7408.902
1073.545, 6198.076
1074.646, 5264.086
1075.747, 4449.309
1076.848, 3878.559
1077.949, 3425.834
1079.050, 2900.133
1080.150, 2660.457
1081.251, 2319.807
1082.351, 2085.184
1083.451, 1889.584
1084.551, 1834.012
1085.651, 1697.465
1086.750, 1632.943
1087.850, 1902.447
1088.949, 1423.975
1090.048, 1440.529
1091.147, 1119.109
1092.246, 1248.715
1093.345, 1159.346
1094.443, 1158.000
1095.541, 1074.684
1096.639, 1155.990
1097.737, 1296.723
1098.835, 1462.480
1099.933, 1501.164
1101.030, 1722.271
1102.128, 1628.805
1103.225, 2003.662
1104.322, 2165.543
1105.419, 2101.449
1106.515, 2538.381
1107.612, 2683.338
1108.708, 3007.320
1109.804, 3157.510
1110.900, 3198.539
1111.996, 3085.596
1113.092, 3442.551
1114.187, 3328.658
1115.283, 3431.975
1116.378, 3359.139
1117.473, 3268.305
1118.568, 3251.262
1119.662, 3201.506
1120.757, 3122.709
1121.851, 3077.576
1122.946, 3069.115
1124.040, 2880.129
1125.134, 2791.318
1126.227, 2546.961
1127.321, 2631.229
1128.414, 2252.590
1129.508, 2133.023
1130.601, 2111.082
1131.693, 1806.963
1132.786, 1819.656
1133.879, 1520.396
1134.971, 1353.059
1136.064, 1471.078
1137.156, 1184.062
1138.248, 1007.992
1139.339, 900.6484
1140.431, 832.2754
1141.522, 860.4961
1142.614, 664.4277
1143.705, 729.9492
1144.796, 496.9062
1145.887, 470.5547
1146.977, 595.8906
1148.068, 419.7441
1149.158, 366.7031
1150.248, 411.6035
1151.338, 449.4512
1152.428, 435.3281
1153.518, 341.2168
1154.607, 350.1504
1155.696, 319.1074
1156.785, 316.4004
1157.874, 325.9219
1158.963, 338.0820
1160.052, 344.2305
1161.141, 332.3184
1162.229, 104.4219
1163.317, 180.5488
1164.405, 333.6914
1165.493, 389.8477
1166.581, 125.0312
1167.668, 167.2266
1168.756, 197.4316
1169.843, 226.6465
1170.930, 160.9062
1172.017, 377.1738
1173.103, 321.4746
1174.190, 121.7852
1175.276, 302.1133
1176.363, 257.4492
1177.449, 260.7949
1178.535, 301.1465
1179.620, 360.5527
1180.706, 364.9648
1181.791, 522.3848
1182.877, 512.8633
1183.962, 456.3477
1185.047, 497.8379
1186.131, 682.3359
1187.216, 874.8516
1188.300, 881.3770
1189.385, 927.9102
1190.469, 1057.453
1191.553, 1227.029
1192.637, 965.6172
1193.720, 1086.211
1194.804, 1133.811
1195.887, 999.4160
1196.970, 1082.025
1198.053, 1219.639
1199.136, 1040.266
1200.219, 1272.898
1201.301, 1221.533
1202.383, 1183.174
1203.465, 1133.816
1204.547, 1011.463
1205.629, 1114.113
1206.711, 938.7715
1207.792, 1044.428
1208.874, 1005.088
1209.955, 783.7520
1211.036, 803.4180
1212.117, 689.2051
1213.198, 465.8750
1214.278, 521.5488
1215.359, 536.2188
1216.439, 357.8945
1217.519, 333.5703
1218.599, 366.2461
1219.678, 421.9238
1220.758, 399.0312
1221.837, 372.2285
1222.917, 318.9609
1223.996, 255.6406
1225.075, 49.32031
1226.153, 20.00000
1227.232, 416.6738
1228.310, 21.34375
1229.389, 73.98633
1230.467, 283.6484
1231.545, 21.27930
1232.622, 27.92383
1233.700, 29.56445
1234.777, 58.20312
1235.855, 91.84180
1236.932, 17.47852
1238.009, 235.1094
1239.086, 69.25977
1240.162, 167.3281
1241.239, 43.91211
1242.315, 252.5078
1243.391, 88.93359
1244.467, 207.6309
1245.543, 40.68945
1246.619, 9.998047
1247.694, 38.69922
1248.769, 139.5684
1249.844, 40.16797
1250.919, 109.5918
1251.994, 142.4316
1253.069, 113.3613
1254.144, 51.36328
1255.218, 57.51367
1256.292, 1.912109
1257.366, 51.01562
1258.440, 55.83594
1259.514, 12.31836
1260.587, 36.50391
1261.661, 8.697266
1262.734, 2.541016
1263.807, 41.75781
1264.880, 2.281250
1265.952, 80.48047
1267.025, 62.79688
1268.097, 76.83203
1269.170, 40.36328
1270.242, 17.38281
