##NAMES=Montebrasite
##RRUFFID=R040060
##IDEAL CHEMISTRY=LiAlPO_4_(OH)
##LOCALITY=Oxford County, Maine, USA
##OWNER=RRUFF
##SOURCE=University of Arizona Mineral Museum
##DESCRIPTION=White massive
##STATUS=The identification of this mineral has been confirmed by X-ray diffraction and chemical analysis
##URL=rruff.info/R040060
##MEASURED CHEMISTRY=LiAl(PO_4_)((OH)_0.79_F_0.21_)
##PIN_ID=L00218
##ORIENTATION=Laser parallel to -c* (0 0 -1). Fiducial mark perpendicular to laser is parallel to a [1 0 0]
109.998, 0.000
111.393, 8.530
112.787, 598.123
114.182, 1426.704
115.576, 1860.488
116.970, 2136.875
118.363, 2476.187
119.757, 1903.577
121.150, 1261.344
122.543, 864.945
123.936, 661.168
125.328, 613.015
126.720, 774.773
128.112, 1129.666
129.504, 1603.896
130.896, 2333.673
132.287, 2966.285
133.678, 3653.229
135.069, 4177.146
136.460, 4322.113
137.850, 4137.556
139.240, 3733.344
140.630, 3139.383
142.020, 2218.645
143.410, 1481.392
144.799, 902.375
146.188, 590.767
147.577, 344.373
148.965, 251.202
150.354, 116.859
151.742, 30.463
153.130, 26.116
154.517, 109.917
155.905, 200.954
157.292, 290.309
158.679, 390.052
160.066, 592.244
161.452, 727.838
162.839, 1052.959
164.225, 1322.678
165.611, 1642.031
166.996, 1900.049
168.381, 2112.760
169.767, 2272.211
171.152, 2363.535
172.536, 2182.050
173.921, 1985.530
175.305, 1772.947
176.689, 1635.571
178.073, 1488.641
179.456, 1416.507
180.839, 1434.913
182.222, 1383.178
183.605, 1493.622
184.988, 1574.024
186.370, 1574.604
187.752, 1613.218
189.134, 1653.847
190.516, 1818.486
191.898, 1866.137
193.279, 1986.797
194.660, 2050.486
196.041, 2007.248
197.421, 1956.104
198.801, 1687.066
200.182, 1468.138
201.561, 1155.320
202.941, 1003.612
204.321, 657.010
205.700, 353.511
207.079, 245.110
208.457, 90.802
209.836, 77.583
211.214, 1.446
212.592, 70.386
213.970, 66.395
215.348, 44.467
216.725, 119.598
218.102, 206.781
219.479, 283.014
220.856, 328.290
222.232, 343.607
223.608, 370.963
224.984, 348.353
226.360, 414.773
227.736, 336.652
229.111, 336.937
230.486, 311.482
231.861, 337.008
233.236, 151.964
234.610, 230.828
235.984, 121.134
237.358, 85.121
238.732, 90.019
240.105, 41.035
241.479, 48.729
242.852, 130.332
244.224, 92.107
245.597, 206.871
246.969, 178.608
248.342, 195.332
249.713, 121.054
251.085, 267.776
252.457, 165.507
253.828, 198.247
255.199, 162.997
256.570, 82.752
257.940, 81.536
259.310, 44.441
260.681, 95.463
262.050, 213.106
263.420, 226.510
264.790, 405.655
266.159, 642.600
267.528, 984.437
268.896, 1359.265
270.265, 1863.107
271.633, 2538.963
273.001, 3219.831
274.369, 3900.713
275.737, 4362.109
277.104, 4613.678
278.471, 4476.307
279.838, 4179.415
281.205, 3722.881
282.572, 3136.625
283.938, 2879.589
285.304, 2710.729
286.670, 2916.009
288.035, 3083.400
289.401, 3947.881
290.766, 5042.433
292.131, 6907.042
293.495, 9371.690
294.860, 12276.371
296.224, 15231.060
297.588, 17795.760
298.952, 19010.451
300.315, 18795.141
301.679, 17349.816
303.042, 15234.479
304.405, 12819.126
305.767, 10803.751
307.130, 9208.359
308.492, 8042.942
309.854, 7367.479
311.216, 6771.949
312.578, 6146.344
313.939, 5630.668
315.300, 5024.923
316.661, 4559.116
318.021, 4233.250
319.382, 4047.330
320.742, 3831.355
322.102, 3765.333
323.462, 3469.262
324.821, 3103.146
326.181, 2696.960
327.540, 2232.734
328.899, 1992.468
330.257, 1551.165
331.616, 1201.825
332.974, 1039.450
334.332, 851.042
335.690, 612.599
337.047, 571.121
338.405, 463.608
339.762, 368.009
341.119, 317.212
342.475, 229.150
343.832, 153.787
345.188, 238.121
346.544, 103.182
347.900, 128.045
349.255, 69.787
350.610, 4.521
351.965, 81.237
353.320, 18.054
354.675, 32.629
356.029, 16.701
357.384, 0.056
358.738, 89.636
360.091, 47.449
361.445, 75.581
362.798, 127.898
364.151, 157.240
365.504, 169.726
366.857, 113.177
368.209, 238.103
369.561, 255.997
370.913, 237.310
372.265, 229.924
373.617, 294.936
374.968, 395.806
376.319, 381.325
377.670, 487.913
379.021, 493.256
380.371, 561.261
381.721, 571.881
383.071, 642.419
384.421, 687.354
385.770, 691.006
387.120, 676.115
388.469, 824.186
389.818, 777.124
391.166, 920.679
392.515, 948.228
393.863, 931.783
395.211, 978.373
396.559, 1084.859
397.906, 1051.478
399.254, 1086.217
400.601, 1088.023
401.948, 1023.702
403.294, 1011.080
404.641, 1107.419
405.987, 1062.152
407.333, 1197.791
408.679, 1183.589
410.025, 1308.070
411.370, 1359.397
412.715, 1386.395
414.060, 1500.418
415.405, 1626.619
416.749, 1857.779
418.093, 2170.154
419.437, 2736.554
420.781, 3851.042
422.125, 5527.854
423.468, 7839.284
424.811, 10690.709
426.154, 12792.140
427.497, 13433.555
428.839, 12684.983
430.182, 10416.406
431.524, 8027.825
432.866, 5709.237
434.207, 4120.640
435.549, 2932.039
436.890, 2123.430
438.231, 1632.813
439.572, 1301.202
440.912, 972.575
442.252, 938.931
443.593, 838.268
444.932, 743.583
446.272, 608.875
447.611, 585.146
448.951, 474.393
450.290, 505.614
451.628, 459.809
452.967, 381.975
454.305, 376.115
455.644, 376.227
456.981, 469.310
458.319, 379.362
459.657, 479.386
460.994, 425.380
462.331, 503.344
463.668, 569.276
465.004, 605.177
466.341, 707.047
467.677, 859.886
469.013, 941.692
470.348, 1124.467
471.684, 1387.209
473.019, 1686.920
474.354, 1993.600
475.689, 2444.247
477.024, 2854.863
478.358, 3475.448
479.692, 4016.002
481.026, 4396.524
482.360, 4787.014
483.694, 4967.475
485.027, 4977.902
486.360, 4768.297
487.693, 4758.662
489.026, 4598.998
490.358, 4459.299
491.691, 4389.572
493.023, 4119.811
494.354, 4010.019
495.686, 3970.195
497.017, 3680.341
498.349, 3430.453
499.680, 3060.535
501.010, 2750.584
502.341, 2550.604
503.671, 2150.592
505.001, 1880.235
506.331, 1620.168
507.661, 1243.459
508.990, 1058.898
510.319, 873.634
511.648, 858.827
512.977, 543.713
514.306, 470.448
515.634, 515.008
516.962, 287.785
518.290, 206.584
519.618, 176.606
520.945, 97.570
522.273, 51.392
523.600, 44.921
524.927, 23.232
526.253, 22.571
527.580, 110.477
528.906, 46.278
530.232, 53.004
531.558, 25.949
532.883, 48.262
534.208, 29.710
535.534, 16.681
536.858, 8.207
538.183, 37.947
539.508, 29.875
540.832, 10.987
542.156, 20.066
543.480, 2.713
544.803, 230.181
546.127, 127.344
547.450, 140.590
548.773, 170.479
550.096, 338.607
551.418, 361.010
552.741, 310.463
554.063, 253.507
555.385, 316.507
556.706, 239.555
558.028, 205.003
559.349, 207.120
560.670, 240.838
561.991, 206.711
563.312, 114.012
564.632, 229.091
565.952, 107.111
567.272, 259.493
568.592, 285.087
569.911, 342.362
571.231, 455.502
572.550, 261.614
573.869, 326.591
575.187, 462.079
576.506, 541.333
577.824, 608.835
579.142, 607.662
580.460, 676.398
581.778, 683.446
583.095, 654.027
584.412, 755.401
585.729, 834.657
587.046, 915.531
588.363, 1067.094
589.679, 1192.436
590.995, 1421.784
592.311, 1640.897
593.627, 1940.512
594.942, 2489.348
596.258, 3078.379
597.573, 3910.570
598.888, 4889.150
600.202, 5897.853
601.517, 6416.746
602.831, 6455.252
604.145, 5903.823
605.459, 5152.504
606.772, 4291.261
608.086, 3589.623
609.399, 2977.720
610.712, 2475.686
612.024, 2244.016
613.337, 2072.078
614.649, 1949.963
615.961, 1977.620
617.273, 2105.515
618.585, 2123.434
619.896, 2440.900
621.208, 2838.319
622.519, 3215.692
623.829, 3963.018
625.140, 4820.298
626.450, 5727.531
627.761, 6694.717
629.071, 7131.855
630.380, 7268.948
631.690, 7085.992
632.999, 6672.991
634.308, 6129.941
635.617, 5716.845
636.926, 5773.701
638.235, 6230.510
639.543, 7507.271
640.851, 9303.985
642.159, 12270.650
643.466, 15467.271
644.774, 18663.844
646.081, 20270.367
647.388, 19806.842
648.695, 17443.273
650.002, 14379.653
651.308, 11005.984
652.614, 8492.268
653.920, 6318.506
655.226, 4694.694
656.531, 3680.834
657.837, 2986.928
659.142, 2302.973
660.447, 1918.969
661.752, 1584.918
663.056, 1270.819
664.360, 1276.672
665.664, 1042.481
666.968, 938.242
668.272, 773.960
669.575, 739.647
670.879, 645.290
672.182, 560.907
673.484, 546.485
674.787, 402.038
676.089, 337.491
677.392, 452.771
678.694, 317.679
679.995, 272.346
681.297, 216.933
682.598, 260.317
683.899, 313.680
685.200, 151.511
686.501, 133.313
687.802, 144.638
689.102, 67.765
690.402, 159.262
691.702, 53.302
693.002, 77.371
694.301, 61.348
695.600, 53.601
696.899, 138.804
698.198, 102.778
699.497, 88.525
700.795, 20.281
702.093, 24.294
703.391, 10.220
704.689, 103.643
705.987, 78.231
707.284, 22.514
708.581, 63.135
709.878, 30.927
711.175, 25.188
712.472, 54.688
713.768, 138.659
715.064, 135.022
716.360, 1.954
717.656, 81.042
718.951, 76.167
720.247, 71.279
721.542, 74.029
722.837, 61.680
724.131, 4.425
725.426, 67.089
726.720, 19.698
728.014, 15.596
729.308, 88.892
730.601, 38.651
731.895, 15.659
733.188, 147.925
734.481, 23.147
735.774, 121.660
737.067, 98.132
738.359, 75.263
739.651, 49.891
740.943, 201.729
742.235, 13.511
743.526, 126.260
744.818, 147.894
746.109, 141.664
747.400, 183.181
748.691, 105.831
749.981, 227.229
751.271, 168.574
752.562, 19.920
753.851, 251.124
755.141, 214.221
756.431, 155.316
757.720, 236.781
759.009, 207.768
760.298, 168.700
761.587, 140.618
762.875, 221.440
764.163, 272.209
765.451, 295.484
766.739, 196.153
768.027, 247.371
769.314, 278.361
770.601, 318.877
771.888, 249.344
773.175, 229.761
774.462, 400.127
775.748, 520.446
777.034, 560.720
778.320, 540.946
779.606, 671.127
780.892, 691.261
782.177, 801.349
783.462, 921.392
784.747, 1111.389
786.032, 1191.342
787.317, 1451.249
788.601, 1651.111
789.885, 1860.931
791.169, 2200.704
792.453, 2510.436
793.736, 2860.122
795.019, 3269.766
796.303, 3719.365
797.585, 3978.923
798.868, 4288.439
800.151, 4487.910
801.433, 4527.342
802.715, 4496.729
803.997, 4316.076
805.279, 4195.383
806.560, 3864.646
807.841, 3633.870
809.122, 3303.053
810.403, 2932.195
811.684, 2761.299
812.964, 2550.362
814.245, 2409.386
815.525, 2078.370
816.804, 1967.315
818.084, 1786.222
819.363, 1675.091
820.643, 1393.921
821.922, 1242.713
823.201, 1101.468
824.479, 900.184
825.758, 858.865
827.036, 837.509
828.314, 606.115
829.592, 634.686
830.869, 483.056
832.147, 481.555
833.424, 309.774
834.701, 337.771
835.977, 225.506
837.254, 273.400
838.530, 291.496
839.807, 218.938
841.082, 186.288
842.358, 143.688
843.634, 210.343
844.909, 187.779
846.184, 124.158
847.459, 110.918
848.734, 17.398
850.008, 98.371
851.283, 35.587
852.557, 102.519
853.831, 81.246
855.105, 5.769
856.378, 26.880
857.651, 60.382
858.925, 7.180
860.197, 43.672
861.470, 18.831
862.743, 38.880
864.015, 44.278
865.287, 103.338
866.559, 96.910
867.831, 46.299
869.102, 38.751
870.373, 92.140
871.645, 78.318
872.915, 92.968
874.186, 22.910
875.457, 101.166
876.727, 14.348
877.997, 37.654
879.267, 6.716
880.536, 54.945
881.806, 21.173
883.075, 44.757
884.344, 44.824
885.613, 18.827
886.882, 134.769
888.150, 63.742
889.419, 97.658
890.687, 111.934
891.954, 66.818
893.222, 7.440
894.490, 23.765
895.757, 33.579
897.024, 142.331
898.291, 61.588
899.557, 24.423
900.824, 39.378
902.090, 126.263
903.356, 62.630
904.622, 1.246
905.888, 151.668
907.153, 61.857
908.418, 54.438
909.683, 19.507
910.948, 46.885
912.213, 133.161
913.477, 40.721
914.741, 95.271
916.005, 81.608
917.269, 81.836
918.533, 14.792
919.796, 28.989
921.060, 22.557
922.323, 34.009
923.585, 50.751
924.848, 97.213
926.111, 93.604
927.373, 40.403
928.635, 77.204
929.897, 24.007
931.158, 190.812
932.420, 157.619
933.681, 164.431
934.942, 281.244
936.203, 18.062
937.463, 134.883
938.724, 141.708
939.984, 138.539
941.244, 105.393
942.504, 202.252
943.764, 239.117
945.023, 215.987
946.282, 132.865
947.541, 349.750
948.800, 226.643
950.059, 273.541
951.317, 410.448
952.575, 267.363
953.833, 414.285
955.091, 321.218
956.349, 428.159
957.606, 485.110
958.864, 542.072
960.121, 569.044
961.377, 866.028
962.634, 1073.022
963.891, 1390.028
965.147, 1817.046
966.403, 1884.074
967.659, 1581.116
968.914, 1338.170
970.170, 1205.235
971.425, 1292.322
972.680, 1159.421
973.935, 1286.534
975.190, 1193.662
976.444, 1440.804
977.698, 1457.961
978.952, 1665.136
980.206, 2072.324
981.460, 1819.536
982.713, 2166.783
983.967, 2194.044
985.220, 2241.325
986.473, 2508.631
987.725, 2625.953
988.978, 2853.338
990.230, 3200.741
991.482, 3658.165
992.734, 4135.656
993.986, 4603.003
995.237, 5100.560
996.488, 5868.137
997.739, 6795.553
998.990, 7882.960
1000.241, 9099.495
1001.492, 10456.977
1002.742, 12334.243
1003.992, 14331.829
1005.242, 16759.455
1006.492, 19355.580
1007.741, 22253.127
1008.990, 25260.896
1010.239, 27668.027
1011.488, 29135.828
1012.737, 29863.512
1013.986, 28631.438
1015.234, 26629.439
1016.482, 23950.840
1017.730, 20919.178
1018.978, 18004.387
1020.225, 15722.736
1021.473, 13401.281
1022.720, 11899.874
1023.967, 10513.325
1025.213, 9491.967
1026.460, 8755.178
1027.706, 8083.893
1028.953, 7832.805
1030.198, 7731.234
1031.444, 7727.535
1032.690, 8035.619
1033.935, 8504.739
1035.180, 9091.958
1036.425, 9951.187
1037.670, 11003.727
1038.915, 12470.367
1040.159, 14035.316
1041.403, 16139.574
1042.647, 18586.330
1043.891, 20545.842
1045.135, 22395.373
1046.378, 23463.902
1047.621, 23133.521
1048.864, 22610.959
1050.107, 21210.637
1051.350, 20789.154
1052.592, 20428.895
1053.835, 20798.662
1055.077, 22188.410
1056.318, 24168.285
1057.560, 26206.248
1058.802, 28296.184
1060.043, 28845.744
1061.284, 28445.744
1062.525, 26175.818
1063.765, 22974.873
1065.006, 19574.996
1066.246, 16075.151
1067.486, 13242.779
1068.726, 10732.986
1069.966, 8762.641
1071.205, 7442.498
1072.445, 6182.811
1073.684, 5273.150
1074.923, 4543.516
1076.161, 4043.910
1077.400, 3774.332
1078.638, 3224.779
1079.876, 3055.256
1081.114, 2795.764
1082.352, 2636.299
1083.590, 2416.863
1084.827, 2347.455
1086.064, 1918.076
1087.301, 2008.721
1088.538, 1809.389
1089.775, 1854.029
1091.011, 1914.750
1092.247, 1695.562
1093.483, 1676.363
1094.719, 1777.268
1095.955, 1768.160
1097.190, 1869.211
1098.425, 1990.105
1099.660, 2251.025
1100.895, 2781.973
1102.130, 2952.938
1103.364, 3674.014
1104.598, 4395.121
1105.833, 5176.508
1107.066, 6227.758
1108.300, 6668.838
1109.534, 6940.461
1110.767, 7031.926
1112.000, 6383.072
1113.233, 6154.348
1114.466, 5635.652
1115.698, 4907.027
1116.930, 4668.598
1118.163, 4159.854
1119.394, 3962.594
1120.626, 3764.000
1121.858, 3485.688
1123.089, 3807.279
1124.320, 3318.980
1125.551, 2630.836
1126.782, 2512.844
1128.013, 1964.420
1129.243, 1917.490
1130.473, 1823.133
1131.703, 1424.957
1132.933, 1416.975
1134.163, 1159.701
1135.392, 1091.352
1136.621, 1023.029
1137.850, 744.646
1139.079, 756.621
1140.308, 849.197
1141.536, 581.613
1142.765, 646.838
1143.993, 348.992
1145.221, 505.000
1146.448, 369.234
1147.676, 471.084
1148.903, 463.379
1150.130, 417.963
1151.357, 340.324
1152.584, 308.289
1153.810, 270.594
1155.037, 293.479
1156.263, 239.938
1157.489, 162.271
1158.715, 368.359
1159.940, 380.359
1161.166, 222.506
1162.391, 396.520
1163.616, 299.447
1164.841, 461.232
1166.065, 280.133
1167.290, 292.498
1168.514, 374.230
1169.738, 490.480
1170.962, 502.600
1172.185, 515.494
1173.409, 461.027
1174.632, 633.031
1175.855, 690.881
1177.078, 643.520
1178.301, 975.980
1179.523, 911.906
1180.746, 1114.115
1181.968, 1367.180
1183.190, 1401.805
1184.412, 1803.844
1185.633, 1993.932
1186.855, 2236.953
1188.076, 2479.334
1189.297, 2527.617
1190.518, 2610.357
1191.738, 2522.590
1192.959, 2435.082
1194.179, 2367.822
1195.399, 2410.252
1196.619, 1982.740
1197.838, 2025.193
1199.058, 1908.238
1200.277, 1510.877
1201.496, 1683.312
1202.715, 1462.988
1203.934, 1315.352
1205.152, 1269.490
1206.371, 1083.812
1207.589, 1025.740
1208.807, 984.850
1210.024, 727.674
1211.242, 799.391
1212.459, 601.676
1213.677, 553.588
1214.894, 655.850
1216.110, 342.238
1217.327, 484.176
1218.543, 386.975
1219.760, 279.303
1220.976, 340.893
1222.192, 303.457
1223.407, 285.615
1224.623, 317.318
1225.838, 320.404
1227.053, 223.869
1228.268, 226.043
1229.483, 159.205
1230.697, 160.713
1231.912, 114.148
1233.126, 215.836
1234.340, 257.227
1235.554, 90.059
1236.767, 221.332
1237.981, 52.777
1239.194, 142.512
1240.407, 63.859
1241.620, 75.289
1242.832, 47.188
1244.045, 168.512
1245.257, 111.283
1246.469, 262.590
1247.681, 213.885
1248.893, 85.652
1250.104, 87.008
1251.315, 28.287
1252.527, 69.615
1253.738, 160.834
1254.948, 2.400
1256.159, 44.133
1257.369, 215.227
1258.579, 107.391
1259.789, 108.396
1260.999, 99.363
1262.209, 60.641
1263.418, 221.531
1264.628, 17.613
1265.837, 123.455
1267.046, 64.197
1268.254, 95.264
1269.463, 76.459
1270.671, 47.090
1271.879, 17.986
1273.087, 128.469
1274.295, 11.100
1275.502, 50.742
1276.710, 89.430
1277.917, 49.566
1279.124, 0.414
1280.331, 149.545
1281.537, 140.576
1282.744, 169.221
1283.950, 88.941
1285.156, 151.377
1286.362, 18.471
1287.568, 31.975
1288.773, 68.326
1289.978, 42.273
1291.184, 12.947
1292.389, 156.316
1293.593, 55.480
1294.798, 15.398
1296.002, 53.670
1297.206, 67.338
1298.410, 71.959
1299.614, 20.824
1300.818, 40.359
1302.021, 78.732
1303.225, 32.605
1304.428, 165.979
1305.631, 134.521
1306.833, 3.006
1308.036, 31.357
1309.238, 279.660
1310.440, 72.092
1311.642, 106.334
1312.844, 115.570
1314.045, 27.572
1315.247, 170.354
1316.448, 131.789
1317.649, 14.043
1318.850, 213.629
1320.051, 208.762
1321.251, 78.721
1322.451, 106.133
1323.651, 176.518
1324.851, 170.709
1326.051, 47.873
1327.251, 4.979
1328.450, 212.018
1329.649, 81.002
1330.848, 55.889
1332.047, 142.719
1333.245, 50.521
1334.444, 86.152
1335.642, 182.771
1336.840, 119.334
1338.038, 85.836
1339.236, 132.271
1340.433, 118.650
1341.630, 124.973
1342.828, 61.240
1344.025, 97.445
1345.221, 123.594
1346.418, 70.309
1347.614, 135.703
1348.810, 21.662
1350.006, 17.562
1351.202, 233.406
1352.398, 60.797
1353.593, 74.920
1354.789, 310.590
1355.984, 136.217
1357.179, 221.801
1358.373, 137.348
1359.568, 17.145
1360.762, 208.307
1361.956, 73.779
1363.150, 119.168
1364.344, 374.527
1365.538, 89.865
1366.731, 135.186
1367.924, 240.529
1369.117, 55.828
1370.310, 41.127
1371.503, 127.904
1372.695, 53.232
1373.888, 268.102
1375.080, 42.551
1376.272, 222.053
1377.464, 297.496
1378.655, 76.793
1379.847, 285.963
1381.038, 274.936
1382.229, 65.920
1383.420, 403.172
1384.610, 282.021
1385.801, 170.418
1386.991, 468.781
1388.181, 87.273
1389.371, 355.838
1390.561, 334.025
1391.750, 201.055
1392.940, 299.121
1394.129, 316.982
1395.318, 304.199
1396.507, 460.502
1397.696, 233.441
1398.884, 189.568
1400.072, 435.266
1401.260, 122.660
1402.448, 415.947
1403.636, 368.471
1404.824, 217.275
1406.011, 413.697
1407.198, 406.494
1408.385, 234.854
1409.572, 304.256
1410.758, 204.717
1411.945, 170.795
1413.131, 553.025
1414.317, 210.031
1415.503, 352.051
1416.689, 361.783
1417.874, 246.979
1419.060, 339.619
1420.245, 253.252
1421.430, 247.455
1422.615, 246.766
1423.799, 289.125
1424.984, 301.537
1426.168, 495.113
1427.352, 208.254
1428.536, 140.533
1429.720, 343.020
1430.903, 44.104
1432.087, 224.205
1433.270, 253.271
1434.453, 272.484
1435.635, 281.469
1436.818, 283.891
1438.001, 275.793
1439.183, 399.898
1440.365, 69.441
1441.547, 290.475
1442.728, 481.768
1443.910, 67.535
1445.091, 425.217
1446.272, 413.254
1447.453, 194.670
1448.634, 393.580
1449.815, 307.078
1450.995, 307.676
1452.176, 406.918
1453.356, 53.801
1454.535, 312.461
1455.715, 401.627
1456.895, 110.516
1458.074, 477.080
1459.253, 483.123
1460.432, 171.758
1461.611, 559.334
1462.790, 436.918
1463.968, 324.156
1465.146, 570.680
1466.324, 267.727
1467.502, 255.725
1468.680, 484.334
1469.858, 183.234
1471.035, 372.256
1472.212, 401.314
1473.389, 309.338
1474.566, 435.451
1475.742, 364.309
1476.919, 323.404
1478.095, 382.424
1479.271, 290.002
1480.447, 387.498
1481.623, 466.486
1482.798, 245.395
1483.974, 394.830
1485.149, 443.055
1486.324, 192.539
1487.499, 482.102
1488.674, 281.883
1489.848, 351.826
1491.022, 292.012
1492.196, 282.473
1493.370, 313.105
1494.544, 273.891
1495.718, 134.988
1496.891, 466.400
1498.064, 248.129
1499.237, 40.342
1500.410, 342.973
1501.583, 146.145
1502.755, 29.865
1503.928, 474.211
1505.100, 129.270
1506.272, 235.184
1507.443, 552.119
1508.615, 60.270
1509.786, 298.721
1510.958, 309.945
1512.129, 6.576
1513.300, 288.361
1514.470, 321.209
1515.641, 0.000
##END=



