##NAMES=Montebrasite
##RRUFFID=R040062
##IDEAL CHEMISTRY=LiAlPO_4_(OH)
##LOCALITY=Hebron, Maine, USA
##OWNER=RRUFF
##SOURCE=University of Arizona Mineral Museum
##DESCRIPTION=White massive
##STATUS=The identification of this mineral has been confirmed by X-ray diffraction and chemical analysis
##URL=rruff.info/R040062
##MEASURED CHEMISTRY=LiAl(PO_4_)((OH)_0.62_F_0.38_)
##PIN_ID=L00144
##ORIENTATION=Laser parallel to (1 1 0). Fiducial mark perpendicular to laser is parallel to -c [0 0 -1]
111.932, 0.000
113.329, 105.397
114.726, 166.034
116.123, 206.824
117.519, 255.248
118.915, 155.414
120.311, 223.970
121.706, 408.552
123.102, 703.153
124.497, 1050.959
125.892, 1647.752
127.286, 2276.988
128.681, 2987.929
130.075, 3890.238
131.469, 4443.782
132.862, 4788.211
134.256, 4453.264
135.649, 3724.782
137.042, 3015.161
138.435, 2207.239
139.827, 1528.739
141.219, 1039.568
142.611, 639.831
144.003, 549.647
145.394, 269.370
146.786, 239.138
148.177, 170.235
149.567, 181.432
150.958, 52.104
152.348, 262.306
153.738, 22.085
155.128, 71.482
156.517, 70.535
157.907, 40.677
159.296, 118.220
160.685, 187.871
162.073, 224.981
163.462, 285.348
164.850, 269.790
166.237, 306.611
167.625, 171.497
169.012, 315.881
170.400, 320.274
171.786, 234.754
173.173, 339.510
174.559, 154.563
175.946, 219.889
177.332, 449.387
178.717, 497.322
180.103, 402.504
181.488, 463.239
182.873, 722.504
184.258, 807.027
185.642, 886.481
187.026, 960.312
188.410, 994.150
189.794, 1016.545
191.178, 1041.837
192.561, 965.679
193.944, 999.517
195.327, 863.350
196.709, 747.188
198.092, 531.062
199.474, 294.986
200.856, 288.965
202.237, 63.001
203.618, 17.094
205.000, 228.759
206.380, 94.559
207.761, 10.308
209.142, 323.987
210.522, 121.677
211.902, 27.300
213.281, 12.890
214.661, 108.448
216.040, 146.023
217.419, 120.521
218.798, 105.032
220.176, 10.444
221.554, 234.084
222.932, 158.617
224.310, 243.154
225.688, 207.693
227.065, 272.237
228.442, 246.938
229.819, 273.984
231.196, 189.370
232.572, 228.396
233.948, 201.385
235.324, 182.113
236.700, 175.952
238.075, 154.943
239.450, 176.728
240.825, 112.151
242.200, 12.891
243.574, 101.452
244.948, 4.047
246.322, 100.104
247.696, 54.201
249.070, 41.697
250.443, 37.584
251.816, 63.149
253.189, 79.251
254.561, 35.066
255.933, 80.878
257.306, 26.691
258.677, 107.491
260.049, 151.663
261.420, 175.820
262.791, 159.969
264.162, 344.058
265.533, 518.051
266.903, 641.951
268.274, 835.792
269.643, 1039.629
271.013, 1243.457
272.383, 1327.280
273.752, 1521.097
275.121, 1634.907
276.490, 1638.712
277.858, 1582.246
279.226, 1426.547
280.595, 1481.297
281.962, 1496.353
283.330, 1561.626
284.697, 1697.064
286.064, 2052.624
287.431, 2418.278
288.798, 3154.004
290.164, 4159.782
291.530, 5575.594
292.896, 7751.430
294.262, 10407.282
295.627, 13603.140
296.993, 16828.996
298.358, 18844.859
299.722, 19150.709
301.087, 18086.525
302.451, 15132.313
303.815, 12408.064
305.179, 9743.778
306.543, 7669.461
307.906, 6415.111
309.269, 5390.734
310.632, 4856.327
311.995, 4361.893
313.357, 4007.420
314.719, 3752.911
316.081, 3658.370
317.443, 3483.795
318.804, 3129.191
320.166, 2794.558
321.527, 2469.897
322.887, 2064.634
324.248, 1689.615
325.608, 1403.863
326.968, 1049.359
328.328, 884.029
329.688, 728.691
331.047, 593.330
332.406, 627.960
333.765, 452.583
335.124, 487.196
336.482, 321.802
337.840, 306.397
339.198, 310.979
340.556, 265.550
341.913, 350.084
343.271, 134.592
344.628, 159.085
345.984, 13.494
347.341, 217.774
348.697, 51.954
350.053, 46.097
351.409, 0.229
352.765, 55.659
354.120, 11.582
355.475, 22.577
356.830, 116.803
358.185, 31.225
359.539, 54.325
360.894, 9.187
362.248, 75.455
363.601, 29.398
364.955, 26.734
366.308, 87.219
367.661, 111.881
369.014, 153.817
370.367, 72.981
371.719, 153.767
373.071, 208.276
374.423, 125.465
375.775, 168.515
377.126, 193.262
378.478, 231.219
379.828, 236.823
381.179, 321.733
382.530, 246.220
383.880, 319.653
385.230, 275.298
386.580, 419.573
387.929, 314.725
389.279, 444.417
390.628, 528.184
391.977, 412.310
393.325, 506.658
394.674, 591.318
396.022, 495.851
397.370, 589.582
398.718, 703.662
400.065, 738.141
401.413, 751.785
402.760, 785.923
404.106, 830.846
405.453, 892.469
406.799, 976.828
408.146, 1119.573
409.491, 1303.751
410.837, 1447.326
412.182, 1587.314
413.528, 2008.284
414.873, 2446.953
416.217, 3284.984
417.562, 4395.399
418.906, 6652.924
420.250, 9673.960
421.594, 14287.369
422.938, 20840.826
424.281, 26354.363
425.624, 29687.805
426.967, 27561.232
428.310, 22254.693
429.652, 15248.151
430.994, 10271.618
432.336, 6705.064
433.678, 4598.498
435.020, 3361.916
436.361, 2505.319
437.702, 2058.706
439.043, 1562.076
440.383, 1165.432
441.724, 1138.770
443.064, 1032.084
444.404, 875.408
445.743, 698.709
447.083, 641.983
448.422, 565.252
449.761, 487.062
451.100, 463.595
452.438, 384.892
453.777, 408.061
455.115, 351.200
456.453, 304.312
457.790, 337.427
459.128, 329.501
460.465, 413.565
461.802, 386.629
463.139, 419.661
464.475, 442.675
465.811, 475.660
467.147, 548.612
468.483, 821.532
469.819, 894.421
471.154, 1057.277
472.489, 1310.102
473.824, 1402.896
475.159, 1595.654
476.493, 1948.381
477.827, 2321.075
479.161, 2743.736
480.495, 2986.367
481.829, 3178.963
483.162, 3421.525
484.495, 3334.059
485.828, 3196.561
487.161, 3509.029
488.493, 3351.469
489.825, 3213.876
491.157, 3436.253
492.489, 3238.598
493.820, 3090.912
495.151, 3033.193
496.482, 2685.443
497.813, 2537.664
499.144, 2369.851
500.474, 2112.004
501.804, 1854.127
503.134, 1656.217
504.464, 1518.165
505.793, 1230.175
507.123, 1070.391
508.451, 932.351
509.780, 723.645
511.109, 524.783
512.437, 424.086
513.765, 323.301
515.093, 268.319
516.421, 248.610
517.748, 200.099
519.075, 190.589
520.402, 66.209
521.729, 124.610
523.055, 355.725
524.382, 114.032
525.708, 117.179
527.034, 103.608
528.359, 4.518
529.685, 55.671
531.010, 83.162
532.335, 128.111
533.659, 79.286
534.984, 70.484
536.308, 148.113
537.632, 83.111
538.956, 26.560
540.279, 67.832
541.603, 119.880
542.926, 141.408
544.249, 24.615
545.571, 166.399
546.894, 48.912
548.216, 50.036
549.538, 281.521
550.860, 193.151
552.181, 134.883
553.503, 88.831
554.824, 99.892
556.145, 263.261
557.465, 174.104
558.786, 104.721
560.106, 275.513
561.426, 146.030
562.746, 193.088
564.065, 133.680
565.385, 122.578
566.704, 233.127
568.023, 163.249
569.341, 304.002
570.660, 354.438
571.978, 187.310
573.296, 427.726
574.614, 258.056
575.931, 361.836
577.248, 402.197
578.565, 341.608
579.882, 401.401
581.199, 356.388
582.515, 361.088
583.831, 541.108
585.147, 441.604
586.463, 494.079
587.779, 566.826
589.094, 561.768
590.409, 631.409
591.724, 731.781
593.038, 682.061
594.353, 912.250
595.667, 1142.244
596.981, 1422.043
598.295, 1531.857
599.608, 1801.936
600.922, 1971.152
602.235, 2158.115
603.547, 1827.656
604.860, 1597.002
606.172, 1460.600
607.485, 1310.059
608.797, 1269.283
610.108, 1278.814
611.420, 1230.051
612.731, 1359.195
614.042, 1338.395
615.353, 1385.102
616.664, 1573.662
617.974, 1492.492
619.284, 1780.297
620.594, 2028.711
621.904, 2170.361
623.213, 2659.080
624.523, 3077.355
625.832, 3685.584
627.141, 4373.889
628.449, 4892.041
629.758, 5480.129
631.066, 5728.170
632.374, 5746.160
633.681, 6114.109
634.989, 6532.008
636.296, 7899.861
637.603, 9477.670
638.910, 12435.430
640.217, 16673.139
641.523, 22360.807
642.829, 27778.430
644.135, 33376.008
645.441, 34693.531
646.747, 31761.016
648.052, 26878.443
649.357, 20525.834
650.662, 15203.172
651.967, 11070.469
653.271, 8587.717
654.575, 6204.922
655.879, 5222.078
657.183, 4129.191
658.486, 3346.254
659.790, 2843.273
661.093, 2460.246
662.396, 1937.172
663.698, 1904.055
665.001, 1620.900
666.303, 1317.701
667.605, 1314.457
668.907, 1071.172
670.209, 1077.855
671.510, 814.518
672.811, 911.047
674.112, 777.455
675.413, 853.613
676.713, 539.689
678.013, 665.020
679.313, 580.797
680.613, 637.217
681.913, 513.826
683.212, 430.127
684.511, 365.660
685.810, 359.727
687.109, 264.838
688.407, 294.234
689.706, 349.805
691.004, 275.027
692.302, 259.992
693.599, 273.945
694.897, 39.328
696.194, 253.398
697.491, 98.490
698.788, 177.119
700.084, 42.230
701.380, 118.113
702.677, 63.203
703.972, 247.355
705.268, 118.484
706.564, 103.898
707.859, 88.895
709.154, 13.590
710.449, 178.422
711.743, 22.775
713.037, 207.805
714.332, 97.586
715.626, 196.484
716.919, 251.311
718.213, 44.451
719.506, 209.863
720.799, 76.115
722.092, 197.656
723.384, 98.094
724.677, 125.701
725.969, 190.041
727.261, 145.514
728.553, 178.100
729.844, 192.354
731.136, 3.820
732.427, 170.320
733.718, 95.580
735.008, 388.311
736.299, 27.748
737.589, 183.934
738.879, 199.684
740.169, 83.342
741.458, 153.047
742.748, 0.420
744.037, 36.180
745.326, 227.139
746.614, 60.420
747.903, 63.658
749.191, 66.855
750.479, 90.010
751.767, 123.125
753.055, 106.201
754.342, 49.238
755.629, 222.234
756.916, 84.803
758.203, 118.057
759.490, 150.879
760.776, 36.332
762.062, 96.381
763.348, 139.059
764.634, 51.701
765.919, 5.691
767.204, 116.855
768.489, 89.373
769.774, 98.148
771.059, 214.234
772.343, 136.584
773.627, 121.096
774.911, 241.111
776.195, 26.709
777.479, 105.410
778.762, 287.502
780.045, 229.562
781.328, 161.596
782.611, 183.602
783.893, 212.561
785.175, 437.531
786.457, 349.457
787.739, 481.355
789.021, 543.230
790.302, 425.076
791.583, 616.902
792.864, 548.699
794.145, 810.473
795.425, 742.223
796.706, 613.947
797.986, 1165.652
799.266, 807.330
800.545, 868.986
801.825, 1150.621
803.104, 1002.232
804.383, 1093.820
805.662, 905.391
806.940, 886.936
808.219, 808.461
809.497, 929.967
810.775, 961.451
812.053, 632.916
813.330, 794.361
814.608, 795.785
815.885, 277.191
817.162, 738.578
818.438, 649.947
819.715, 741.297
820.991, 342.629
822.267, 353.943
823.543, 445.242
824.818, 156.521
826.094, 317.783
827.369, 249.029
828.644, 120.262
829.919, 311.479
831.193, 122.680
832.468, 173.873
833.742, 85.055
835.016, 16.217
836.289, 187.408
837.563, 48.627
838.836, 0.182
840.109, 10.988
841.382, 34.234
842.654, 12.686
843.927, 3.842
845.199, 54.680
846.471, 125.453
847.743, 13.625
849.014, 25.084
850.286, 14.084
851.557, 94.055
852.828, 236.428
854.099, 64.809
855.369, 95.314
856.639, 34.664
857.909, 54.576
859.179, 185.602
860.449, 245.660
861.718, 215.576
862.988, 26.742
864.257, 183.781
865.525, 137.801
866.794, 162.625
868.062, 243.469
869.331, 544.098
870.599, 534.957
871.866, 629.234
873.134, 379.938
874.401, 702.295
875.668, 683.023
876.935, 864.143
878.202, 794.588
879.468, 515.311
880.735, 853.578
882.001, 634.271
883.267, 685.033
884.532, 632.332
885.798, 683.027
887.063, 594.662
888.328, 715.885
889.593, 551.879
890.857, 698.125
892.122, 789.012
893.386, 909.391
894.650, 977.748
895.913, 983.152
897.177, 941.625
898.440, 942.713
899.703, 913.037
900.966, 863.416
902.229, 913.854
903.491, 564.451
904.754, 955.209
906.016, 455.920
907.278, 426.336
908.539, 477.576
909.801, 423.922
911.062, 409.564
912.323, 385.400
913.584, 339.645
914.844, 290.484
916.105, 251.562
917.365, 192.301
918.625, 167.422
919.885, 222.367
921.144, 143.342
922.404, 86.781
923.663, 128.334
924.922, 219.590
926.180, 71.836
927.439, 213.445
928.697, 51.789
929.955, 88.176
931.213, 54.695
932.471, 86.373
933.728, 227.949
934.985, 209.648
936.242, 101.387
937.499, 213.141
938.756, 124.918
940.012, 131.896
941.269, 328.553
942.525, 90.400
943.780, 222.266
945.036, 154.152
946.291, 256.062
947.546, 397.994
948.801, 219.947
950.056, 481.924
951.311, 103.920
952.565, 395.939
953.819, 437.979
955.073, 340.039
956.327, 502.123
957.580, 544.236
958.834, 446.369
960.087, 608.523
961.339, 340.699
962.592, 712.895
963.845, 495.109
965.097, 697.342
966.349, 579.592
967.601, 741.865
968.852, 964.160
970.104, 716.479
971.355, 1048.816
972.606, 1021.180
973.857, 923.562
975.107, 1065.973
976.358, 1448.404
977.608, 1270.859
978.858, 1663.338
980.108, 1675.842
981.357, 1878.373
982.607, 2320.928
983.856, 2023.508
985.105, 2846.117
986.353, 2788.582
987.602, 3101.246
988.850, 3723.928
990.098, 3786.408
991.346, 4799.016
992.594, 5390.627
993.841, 6073.326
995.089, 7056.021
996.336, 7978.887
997.583, 9401.777
998.829, 10744.293
1000.076, 12167.252
1001.322, 14935.211
1002.568, 16984.680
1003.814, 19507.740
1005.060, 21818.742
1006.305, 24201.881
1007.550, 26445.053
1008.795, 27956.684
1010.040, 28189.928
1011.285, 27893.207
1012.529, 26114.170
1013.773, 24517.010
1015.017, 21842.713
1016.261, 19286.158
1017.505, 16789.643
1018.748, 14693.848
1019.991, 13097.438
1021.234, 11311.066
1022.477, 10214.758
1023.719, 9278.488
1024.962, 8746.777
1026.204, 8250.609
1027.446, 8004.527
1028.688, 8098.477
1029.929, 8362.467
1031.170, 9076.545
1032.411, 9390.660
1033.652, 10814.816
1034.893, 11159.023
1036.134, 12713.270
1037.374, 13757.594
1038.614, 15191.949
1039.854, 16276.371
1041.094, 18330.895
1042.333, 19085.459
1043.572, 20400.061
1044.811, 20604.760
1046.050, 20329.514
1047.289, 20134.336
1048.527, 19349.193
1049.766, 18564.098
1051.004, 18319.045
1052.241, 17684.041
1053.479, 17849.080
1054.717, 18164.162
1055.954, 18969.293
1057.191, 20154.471
1058.428, 19619.629
1059.664, 19994.859
1060.901, 18350.143
1062.137, 16195.465
1063.373, 13720.758
1064.609, 11204.004
1065.844, 9479.348
1067.080, 7624.730
1068.315, 6360.166
1069.550, 5555.438
1070.785, 4870.744
1072.019, 4086.123
1073.254, 3981.541
1074.488, 3066.996
1075.722, 3172.525
1076.955, 2488.090
1078.189, 2323.707
1079.422, 2399.359
1080.656, 1985.045
1081.889, 1970.764
1083.121, 1816.514
1084.354, 1662.645
1085.586, 1668.457
1086.818, 1504.297
1088.050, 1692.520
1089.282, 1328.213
1090.514, 1113.967
1091.745, 1189.711
1092.976, 1305.482
1094.207, 992.371
1095.438, 1078.203
1096.668, 864.061
1097.899, 1070.426
1099.129, 1056.314
1100.359, 962.219
1101.588, 1288.025
1102.818, 1143.846
1104.047, 1199.848
1105.276, 1617.402
1106.505, 1593.105
1107.734, 1518.789
1108.962, 1734.498
1110.191, 1499.738
1111.419, 1735.039
1112.647, 1669.342
1113.874, 1315.027
1115.102, 1390.777
1116.329, 1166.584
1117.556, 1342.447
1118.783, 1538.375
1120.010, 1324.363
1121.236, 1700.412
1122.463, 1336.523
1123.689, 1052.697
1124.914, 1028.936
1126.140, 465.244
1127.366, 941.631
1128.591, 598.084
1129.816, 474.609
1131.041, 581.174
1132.266, 317.824
1133.490, 474.562
1134.714, 461.377
1135.938, 178.271
1137.162, 575.156
1138.386, 362.086
1139.609, 289.080
1140.833, 306.137
1142.056, 186.160
1143.279, 430.295
1144.501, 137.389
1145.724, 194.547
1146.946, 271.770
1148.168, 140.949
1149.390, 106.395
1150.612, 273.793
1151.833, 211.254
1153.054, 218.775
1154.275, 136.352
1155.496, 3.984
1156.717, 101.674
1157.937, 59.416
1159.158, 162.783
1160.378, 245.066
1161.598, 67.031
1162.817, 210.826
1164.037, 78.736
1165.256, 23.295
1166.475, 104.736
1167.694, 132.822
1168.913, 30.965
1170.131, 499.166
1171.349, 252.580
1172.567, 315.729
1173.785, 214.074
1175.003, 32.465
1176.220, 260.918
1177.438, 339.418
1178.655, 207.980
1179.872, 406.605
1181.088, 295.295
1182.305, 514.045
1183.521, 532.859
1184.737, 421.760
1185.953, 700.771
1187.169, 1219.893
1188.384, 809.111
1189.599, 1008.434
1190.814, 427.859
1192.029, 737.385
1193.244, 817.014
1194.459, 446.748
1195.673, 666.580
1196.887, 886.514
1198.101, 406.549
1199.314, 876.689
1200.528, 426.936
1201.741, 887.291
1202.954, 617.760
1204.167, 203.982
1205.380, 834.352
1206.592, 304.824
1207.805, 345.400
1209.017, 623.525
1210.229, 93.215
1211.440, 466.906
1212.652, 495.051
1213.863, 255.266
1215.074, 446.787
1216.285, 385.727
1217.496, 254.654
1218.707, 273.557
1219.917, 442.424
1221.127, 371.244
1222.337, 610.004
1223.547, 358.676
1224.756, 157.232
1225.966, 345.650
1227.175, 303.891
1228.384, 481.908
1229.592, 79.662
1230.801, 557.092
1232.009, 1124.848
1233.217, 2.238
1234.425, 421.939
1235.633, 127.648
1236.841, 504.217
1238.048, 251.834
1239.255, 9.143
1240.462, 366.088
1241.669, 342.607
1242.876, 58.635
1244.082, 370.482
1245.288, 244.979
1246.494, 141.605
1247.700, 346.346
1248.906, 83.338
1250.111, 6.375
1251.316, 301.115
1252.521, 186.539
1253.726, 124.467
1254.931, 212.438
1256.135, 3.600
1257.339, 0.000
##END=



