##NAMES=Montebrasite
##RRUFFID=R040062
##IDEAL CHEMISTRY=LiAlPO_4_(OH)
##LOCALITY=Hebron, Maine, USA
##OWNER=RRUFF
##SOURCE=University of Arizona Mineral Museum
##DESCRIPTION=White massive
##STATUS=The identification of this mineral has been confirmed by X-ray diffraction and chemical analysis
##URL=rruff.info/R040062
##MEASURED CHEMISTRY=LiAl(PO_4_)((OH)_0.62_F_0.38_)
##PIN_ID=L00408
##ORIENTATION=Laser parallel to c* (0 0 1). Fiducial mark perpendicular to laser is parallel to a [1 0 0]
111.932, 0.000
113.329, 68.132
114.726, 110.445
116.123, 138.091
117.519, 200.949
118.915, 112.570
120.311, 209.099
121.706, 338.348
123.102, 533.808
124.497, 742.768
125.892, 1064.491
127.286, 1508.799
128.681, 2074.836
130.075, 2712.145
131.469, 3030.514
132.862, 3249.630
134.256, 3079.258
135.649, 2599.580
137.042, 1975.998
138.435, 1464.760
139.827, 1002.386
141.219, 659.325
142.611, 496.880
144.003, 236.037
145.394, 155.698
146.786, 198.119
148.177, 154.059
149.567, 190.050
150.958, 216.523
152.348, 161.532
153.738, 126.120
155.128, 187.325
156.517, 234.188
157.907, 281.747
159.296, 294.053
160.685, 386.247
162.073, 477.404
163.462, 441.948
164.850, 347.102
166.237, 281.311
167.625, 264.570
169.012, 221.878
170.400, 279.229
171.786, 215.634
173.173, 151.227
174.559, 146.085
175.946, 349.372
177.332, 379.018
178.717, 489.342
180.103, 687.402
181.488, 734.426
182.873, 861.086
184.258, 1070.260
185.642, 1221.832
187.026, 1399.500
188.410, 1507.160
189.794, 1624.810
191.178, 1672.444
192.561, 1600.064
193.944, 1568.320
195.327, 1455.260
196.709, 1302.855
198.092, 1070.484
199.474, 828.158
200.856, 615.881
202.237, 373.657
203.618, 128.485
205.000, 35.363
206.380, 50.711
207.761, 96.739
209.142, 241.729
210.522, 122.681
211.902, 167.599
213.281, 135.488
214.661, 10.351
216.040, 50.811
217.419, 180.992
218.798, 180.191
220.176, 99.398
221.554, 296.602
222.932, 184.800
224.310, 202.993
225.688, 291.183
227.065, 309.365
228.442, 287.543
229.819, 305.986
231.196, 354.684
232.572, 275.338
233.948, 310.257
235.324, 199.831
236.700, 188.555
238.075, 223.646
239.450, 193.534
240.825, 177.655
242.200, 49.098
243.574, 189.026
244.948, 7.447
246.322, 106.006
247.696, 53.702
249.070, 8.945
250.443, 21.634
251.816, 14.307
253.189, 16.969
254.561, 79.622
255.933, 42.270
257.306, 14.901
258.677, 92.490
260.049, 179.897
261.420, 127.316
262.791, 224.728
264.162, 472.102
265.533, 629.423
266.903, 896.652
268.274, 1083.840
269.643, 1441.018
271.013, 1678.185
272.383, 1905.343
273.752, 2042.894
275.121, 2124.393
276.490, 2166.765
277.858, 2104.065
279.226, 2072.055
280.595, 1900.454
281.962, 1769.132
283.330, 1908.011
284.697, 1887.040
286.064, 2236.178
287.431, 2485.399
288.798, 3124.686
290.164, 3994.018
291.530, 5093.378
292.896, 7172.753
294.262, 9312.137
295.627, 12891.523
296.993, 16260.905
298.358, 19330.279
299.722, 20799.639
301.087, 20268.986
302.451, 17728.295
303.815, 14657.548
305.179, 11766.753
306.543, 9215.916
307.906, 7535.037
309.269, 6274.122
310.632, 5643.168
311.995, 4952.181
313.357, 4681.154
314.719, 4410.088
316.081, 4388.986
317.443, 4227.850
318.804, 4016.677
320.166, 3465.475
321.527, 2984.242
322.887, 2582.980
324.248, 2021.638
325.608, 1669.962
326.968, 1378.011
328.328, 1225.918
329.688, 923.817
331.047, 781.710
332.406, 639.596
333.765, 627.474
335.124, 615.343
336.482, 523.203
337.840, 411.055
339.198, 348.894
340.556, 236.722
341.913, 214.532
343.271, 182.321
344.628, 190.095
345.984, 137.812
347.341, 155.475
348.697, 124.810
350.053, 20.551
351.409, 78.057
352.765, 15.547
354.120, 16.982
355.475, 50.463
356.830, 97.891
358.185, 4.694
359.539, 46.928
360.894, 31.043
362.248, 30.453
363.601, 6.186
364.955, 63.417
366.308, 6.023
367.661, 5.482
369.014, 3.241
370.367, 69.634
371.719, 52.314
373.071, 15.658
374.423, 80.010
375.775, 81.299
377.126, 16.228
378.478, 154.375
379.828, 156.010
381.179, 144.135
382.530, 181.607
383.880, 319.845
385.230, 217.504
386.580, 295.173
387.929, 222.558
389.279, 351.598
390.628, 348.791
391.977, 396.677
393.325, 304.238
394.674, 377.146
396.022, 499.389
397.370, 476.848
398.718, 624.183
400.065, 724.352
401.413, 691.140
402.760, 700.990
404.106, 898.621
405.453, 975.999
406.799, 1064.644
408.146, 1101.611
409.491, 1228.832
410.837, 1365.751
412.182, 1581.060
413.528, 1905.517
414.873, 2360.363
416.217, 3215.067
417.562, 4215.840
418.906, 5968.951
420.250, 8674.059
421.594, 13050.605
422.938, 19357.131
424.281, 25973.822
425.624, 30690.385
426.967, 30346.959
428.310, 25693.510
429.652, 18040.066
430.994, 12166.612
432.336, 8113.146
433.678, 5399.674
435.020, 3716.206
436.361, 2632.744
437.702, 2189.290
439.043, 1715.854
440.383, 1312.413
441.724, 1178.950
443.064, 1025.469
444.404, 811.985
445.743, 728.475
447.083, 494.949
448.422, 521.394
449.761, 607.808
451.100, 434.193
452.438, 450.547
453.777, 446.870
455.115, 493.158
456.453, 379.413
457.790, 345.641
459.128, 431.834
460.465, 457.994
461.802, 464.122
463.139, 590.214
464.475, 566.280
465.811, 782.312
467.147, 869.469
468.483, 954.271
469.819, 1180.199
471.154, 1376.091
472.489, 1601.949
473.824, 1949.392
475.159, 2213.561
476.493, 2709.313
477.827, 3115.030
479.161, 3550.712
480.495, 4046.359
481.829, 4281.973
483.162, 4477.549
484.495, 4613.088
485.828, 4468.596
487.161, 4804.067
488.493, 4449.506
489.825, 4184.912
491.157, 4340.285
492.489, 4125.625
493.820, 3930.932
495.151, 3996.206
496.482, 3471.447
497.813, 3276.652
499.144, 3141.824
500.474, 2756.965
501.804, 2422.068
503.134, 2087.139
504.464, 1892.174
505.793, 1567.176
507.123, 1321.947
508.451, 1076.752
509.780, 991.388
511.109, 844.892
512.437, 559.238
513.765, 432.461
515.093, 473.743
516.421, 387.705
517.748, 371.987
519.075, 193.908
520.402, 133.130
521.729, 56.562
523.055, 15.633
524.382, 108.323
525.708, 3.709
527.034, 38.532
528.359, 20.006
529.685, 8.033
531.010, 15.555
532.335, 29.005
533.659, 47.926
534.984, 44.184
536.308, 70.169
537.632, 3.412
538.956, 41.889
540.279, 52.251
541.603, 156.986
542.926, 41.770
544.249, 105.699
545.571, 100.014
546.894, 164.401
548.216, 0.672
549.538, 203.498
550.860, 68.005
552.181, 116.840
553.503, 101.050
554.824, 115.176
556.145, 119.443
557.465, 143.318
558.786, 18.118
560.106, 276.278
561.426, 9.826
562.746, 87.910
564.065, 111.571
565.385, 21.401
566.704, 117.169
568.023, 157.902
569.341, 222.093
570.660, 275.818
571.978, 295.735
573.296, 338.328
574.614, 318.466
575.931, 356.613
577.248, 330.352
578.565, 271.228
579.882, 374.381
581.199, 356.917
582.515, 314.111
583.831, 439.756
585.147, 459.271
586.463, 472.908
587.779, 549.507
589.094, 595.592
590.409, 639.233
591.724, 741.320
593.038, 752.628
594.353, 951.082
595.667, 1099.664
596.981, 1220.892
598.295, 1596.606
599.608, 1749.194
600.922, 2033.309
602.235, 2130.705
603.547, 2003.209
604.860, 1678.391
606.172, 1460.752
607.485, 1433.026
608.797, 1385.404
610.108, 1297.253
611.420, 1449.307
612.731, 1400.972
614.042, 1292.588
615.353, 1485.275
616.664, 1546.796
617.974, 1678.334
619.284, 1860.160
620.594, 2076.888
621.904, 2384.438
623.213, 2675.720
624.523, 3146.955
625.832, 3588.142
627.141, 4269.281
628.449, 4830.372
629.758, 5541.417
631.066, 6122.413
632.374, 6423.361
633.681, 6954.266
634.989, 7675.120
636.296, 9265.927
637.603, 11506.688
638.910, 14857.398
640.217, 20028.068
641.523, 26878.682
642.829, 34539.262
644.135, 42449.781
645.441, 44950.262
646.747, 43220.684
648.052, 36701.070
649.357, 28541.418
650.662, 21441.707
651.967, 15641.953
653.271, 12022.150
654.575, 8952.303
655.879, 7062.408
657.183, 5642.469
658.486, 4532.481
659.790, 3792.449
661.093, 3192.371
662.396, 2552.246
663.698, 2522.076
665.001, 2041.861
666.303, 1791.602
667.605, 1551.298
668.907, 1360.955
670.209, 1250.568
671.510, 1080.143
672.811, 949.689
674.112, 819.194
675.413, 838.655
676.713, 747.708
678.013, 546.500
679.313, 644.699
680.613, 562.290
681.913, 510.901
683.212, 527.993
684.511, 450.943
685.810, 363.665
687.109, 370.646
688.407, 348.197
689.706, 330.921
691.004, 380.069
692.302, 234.391
693.599, 197.028
694.897, 124.158
696.194, 218.461
697.491, 102.550
698.788, 119.340
700.084, 336.851
701.380, 194.042
702.677, 164.640
703.972, 92.819
705.268, 189.713
706.564, 117.956
707.859, 14.555
709.154, 143.175
710.449, 150.772
711.743, 118.401
713.037, 186.002
714.332, 16.343
715.626, 111.649
716.919, 136.288
718.213, 8.953
719.506, 157.920
720.799, 45.052
722.092, 20.636
723.384, 62.502
724.677, 64.440
725.969, 91.604
727.261, 21.054
728.553, 3.723
729.844, 26.384
731.136, 29.140
732.427, 68.034
733.718, 74.837
735.008, 141.931
736.299, 68.915
737.589, 164.144
738.879, 2.521
740.169, 60.752
741.458, 45.882
742.748, 17.530
744.037, 11.013
745.326, 35.438
746.614, 1.842
747.903, 51.812
749.191, 55.552
750.479, 59.379
751.767, 103.294
753.055, 17.320
754.342, 68.590
755.629, 4.465
756.916, 49.714
758.203, 46.030
759.490, 18.262
760.776, 47.385
762.062, 52.999
763.348, 28.577
764.634, 124.120
765.919, 59.634
767.204, 325.114
768.489, 150.568
769.774, 5.990
771.059, 221.375
772.343, 106.730
773.627, 22.059
774.911, 177.355
776.195, 7.375
777.479, 167.854
778.762, 113.055
780.045, 198.230
781.328, 283.379
782.611, 158.506
783.893, 393.607
785.175, 388.684
786.457, 523.736
787.739, 458.766
789.021, 613.771
790.302, 558.756
791.583, 743.717
792.864, 958.652
794.145, 1123.570
795.425, 1058.465
796.706, 1263.338
797.986, 1508.191
799.266, 1393.023
800.545, 1357.836
801.825, 1532.629
803.104, 1467.402
804.383, 1642.156
805.662, 1486.893
806.940, 1331.609
808.219, 1476.311
809.497, 1380.992
810.775, 1355.656
812.053, 1320.965
813.330, 1054.938
814.608, 1199.553
815.885, 974.152
817.162, 988.738
818.438, 983.309
819.715, 977.865
820.991, 552.408
822.267, 546.934
823.543, 591.449
824.818, 325.953
826.094, 530.441
827.369, 334.922
828.644, 419.387
829.919, 253.840
831.193, 188.285
832.468, 242.723
833.742, 117.154
835.016, 61.582
836.289, 106.004
837.563, 70.428
838.836, 54.846
840.109, 10.740
841.382, 33.674
842.654, 18.090
843.927, 112.502
845.199, 126.939
846.471, 161.115
847.743, 4.811
849.014, 178.916
850.286, 156.869
851.557, 193.326
852.828, 100.236
854.099, 65.348
855.369, 48.629
856.639, 32.490
857.909, 24.221
859.179, 119.771
860.449, 43.387
861.718, 292.637
862.988, 16.469
864.257, 170.346
865.525, 424.086
866.794, 228.176
868.062, 377.537
869.331, 401.014
870.599, 454.951
871.866, 665.004
873.134, 489.088
874.401, 896.969
875.668, 778.873
876.935, 885.773
878.202, 919.182
879.468, 673.020
880.735, 1102.676
882.001, 673.477
883.267, 882.906
884.532, 772.219
885.798, 835.936
887.063, 732.498
888.328, 756.758
889.593, 640.613
890.857, 811.758
892.122, 863.432
893.386, 981.205
894.650, 1094.824
895.913, 825.453
897.177, 1256.562
898.440, 1030.088
899.703, 1052.158
900.966, 1190.939
902.229, 1069.564
903.491, 798.033
904.754, 1103.830
906.016, 545.111
907.278, 559.492
908.539, 562.318
909.801, 511.834
911.062, 316.219
912.323, 317.898
913.584, 432.373
914.844, 176.912
916.105, 281.316
917.365, 96.230
918.625, 100.912
919.885, 295.959
921.144, 61.033
922.404, 145.008
923.663, 70.129
924.922, 65.209
926.180, 79.977
927.439, 155.172
928.697, 8.820
929.955, 234.066
931.213, 9.336
932.471, 124.635
933.728, 229.957
934.985, 215.309
936.242, 239.541
937.499, 186.100
938.756, 181.535
940.012, 197.000
941.269, 192.494
942.525, 338.016
943.780, 326.381
945.036, 609.152
946.291, 364.773
947.546, 280.422
948.801, 216.105
950.056, 411.818
951.311, 147.561
952.565, 503.336
953.819, 249.145
955.073, 274.986
956.327, 360.861
957.580, 316.771
958.834, 452.715
960.087, 518.691
961.339, 454.703
962.592, 760.754
963.845, 436.836
965.097, 732.955
966.349, 609.111
967.601, 765.307
968.852, 1001.537
970.104, 577.834
971.355, 1174.172
972.606, 1060.547
973.857, 1126.961
975.107, 1273.420
976.358, 1359.916
977.608, 1479.674
978.858, 1673.027
980.108, 1759.643
981.357, 2056.295
982.607, 2292.986
983.856, 2289.713
985.105, 3156.469
986.353, 3103.258
987.602, 3700.082
988.850, 4216.939
990.098, 4473.830
991.346, 5540.562
992.594, 6287.523
993.841, 7204.521
995.089, 8474.191
996.336, 9351.262
997.583, 11440.203
998.829, 12507.453
1000.076, 14854.645
1001.322, 17658.131
1002.568, 19966.941
1003.814, 23474.248
1005.060, 26099.799
1006.305, 28687.189
1007.550, 31906.605
1008.795, 32853.715
1010.040, 34161.238
1011.285, 34000.219
1012.529, 31467.844
1013.773, 30325.508
1015.017, 26783.779
1016.261, 23851.539
1017.505, 20879.336
1018.748, 18147.201
1019.991, 16405.160
1021.234, 13993.904
1022.477, 12411.971
1023.719, 11880.082
1024.962, 10739.668
1026.204, 10417.908
1027.446, 9836.227
1028.688, 9974.598
1029.929, 10313.014
1031.170, 10861.496
1032.411, 11670.047
1033.652, 12908.662
1034.893, 13647.352
1036.134, 15576.090
1037.374, 16604.914
1038.614, 18193.783
1039.854, 20142.701
1041.094, 21581.732
1042.333, 22800.822
1043.572, 24129.992
1044.811, 23879.223
1046.050, 24208.516
1047.289, 23347.873
1048.527, 22527.289
1049.766, 21776.770
1051.004, 20716.322
1052.241, 20285.953
1053.479, 19955.668
1054.717, 19665.471
1055.954, 20535.342
1057.191, 20915.268
1058.428, 20515.248
1059.664, 19918.277
1060.901, 18845.434
1062.137, 17105.617
1063.373, 14365.836
1064.609, 11826.096
1065.844, 10416.402
1067.080, 8116.645
1068.315, 6976.936
1069.550, 6157.262
1070.785, 5187.637
1072.019, 4698.057
1073.254, 3988.412
1074.488, 3438.820
1075.722, 3409.285
1076.955, 2959.787
1078.189, 2630.336
1079.422, 2520.936
1080.656, 2111.588
1081.889, 2082.295
1083.121, 1773.053
1084.354, 1614.248
1085.586, 1605.113
1086.818, 1416.035
1088.050, 1318.889
1089.282, 1378.039
1090.514, 1149.121
1091.745, 1200.258
1092.976, 1301.453
1094.207, 983.893
1095.438, 925.193
1096.668, 766.551
1097.899, 1207.961
1099.129, 819.430
1100.359, 950.959
1101.588, 1172.553
1102.818, 844.217
1104.047, 1225.949
1105.276, 1347.758
1106.505, 1359.641
1107.734, 1451.586
1108.962, 1413.611
1110.191, 1305.719
1111.419, 1537.912
1112.647, 1430.143
1113.874, 1262.461
1115.102, 1314.873
1116.329, 1237.383
1117.556, 1276.459
1118.783, 1149.176
1120.010, 852.008
1121.236, 1034.961
1122.463, 908.047
1123.689, 1041.285
1124.914, 793.947
1126.140, 556.584
1127.366, 839.059
1128.591, 501.482
1129.816, 523.982
1131.041, 455.307
1132.266, 146.709
1133.490, 428.188
1134.714, 339.754
1135.938, 91.404
1137.162, 523.111
1138.386, 204.881
1139.609, 246.707
1140.833, 378.668
1142.056, 99.264
1143.279, 412.871
1144.501, 74.914
1145.724, 12.621
1146.946, 279.656
1148.168, 307.982
1149.390, 114.461
1150.612, 236.984
1151.833, 69.576
1153.054, 72.252
1154.275, 74.988
1155.496, 2.145
1156.717, 140.783
1157.937, 56.207
1159.158, 66.887
1160.378, 230.061
1161.598, 256.684
1162.817, 486.652
1164.037, 60.068
1165.256, 343.562
1166.475, 237.137
1167.694, 29.211
1168.913, 364.516
1170.131, 358.320
1171.349, 47.799
1172.567, 446.160
1173.785, 310.199
1175.003, 324.318
1176.220, 548.523
1177.438, 512.812
1178.655, 807.186
1179.872, 691.645
1181.088, 666.180
1182.305, 960.801
1183.521, 815.506
1184.737, 1150.297
1185.953, 1185.152
1187.169, 1320.096
1188.384, 1415.121
1189.599, 1330.234
1190.814, 925.426
1192.029, 1470.705
1193.244, 1376.062
1194.459, 1061.500
1195.673, 1337.016
1196.887, 1072.557
1198.101, 1118.115
1199.314, 1043.734
1200.528, 649.420
1201.741, 1175.182
1202.954, 841.033
1204.167, 617.012
1205.380, 923.133
1206.592, 589.398
1207.805, 495.807
1209.017, 566.576
1210.229, 279.082
1211.440, 645.305
1212.652, 332.867
1213.863, 349.236
1215.074, 420.920
1216.285, 507.295
1217.496, 489.328
1218.707, 189.908
1219.917, 396.121
1221.127, 402.422
1222.337, 236.777
1223.547, 339.266
1224.756, 85.689
1225.966, 272.188
1227.175, 338.760
1228.384, 175.402
1229.592, 7.889
1230.801, 358.881
1232.009, 455.703
1233.217, 152.578
1234.425, 209.496
1235.633, 96.451
1236.841, 313.439
1238.048, 220.459
1239.255, 22.504
1240.462, 284.543
1241.669, 291.576
1242.876, 48.896
1244.082, 396.902
1245.288, 95.672
1246.494, 314.762
1247.700, 375.332
1248.906, 306.252
1250.111, 197.791
1251.316, 329.732
1252.521, 259.678
1253.726, 302.441
1254.931, 255.773
1256.135, 579.771
1257.339, 384.721
1258.543, 139.746
1259.747, 505.773
1260.951, 512.832
1262.154, 59.123
1263.357, 499.932
1264.560, 290.541
1265.763, 422.564
1266.966, 658.004
1268.168, 306.074
1269.371, 515.916
1270.573, 433.053
1271.775, 177.078
1272.976, 466.205
1274.178, 0.000
##END=



