##NAMES=Montebrasite
##RRUFFID=R060890
##IDEAL CHEMISTRY=LiAlPO_4_(OH)
##LOCALITY=Mount Marie, Paris, Maine, USA
##OWNER=RRUFF
##SOURCE=Bob Jenkins
##DESCRIPTION=Colorless massive
##STATUS=The identification of this mineral is confirmed by single-crystal X-ray diffraction and chemical analysis.
##URL=rruff.info/R060890
##MEASURED CHEMISTRY=Li_1.00_Al_1.00_(P_1.00_O_4_)(OH)_0.63_F_0.37_)_Î£=1_ ; Li not measured but estimated by stoichiometry
##PIN_ID=M00747
##ORIENTATION=Laser parallel to (0 1 1). Fiducial mark perpendicular to laser is parallel to a [1 0 0]
90.67800, 0.0000000E+00
91.91600, 558.2676
93.15500, 418.4434
94.39300, 459.0566
95.63100, 379.2285
96.86900, 373.2930
98.10600, 443.3086
99.34400, 515.6055
100.5810, 400.9707
101.8190, 310.7539
103.0560, 104.8906
104.2930, 25.41602
105.5290, 258.8184
106.7660, 567.8340
108.0020, 825.9805
109.2390, 716.5078
110.4750, 1013.812
111.7110, 367.6523
112.9460, 222.5039
114.1820, 591.9941
115.4170, 957.8496
116.6530, 1079.876
117.8880, 603.9307
119.1230, 599.9639
120.3580, 245.2988
121.5920, 645.0605
122.8270, 1086.988
124.0610, 917.9941
125.2950, 881.8223
126.5290, 981.2871
127.7630, 870.9346
128.9970, 1423.833
130.2300, 1481.083
131.4640, 1544.255
132.6970, 1305.097
133.9300, 1298.716
135.1630, 1400.217
136.3950, 1182.694
137.6280, 1387.230
138.8600, 1813.896
140.0920, 2156.757
141.3240, 2271.869
142.5560, 1845.287
143.7880, 2077.052
145.0190, 2126.207
146.2510, 2529.788
147.4820, 2793.541
148.7130, 2877.589
149.9440, 3388.152
151.1750, 3817.559
152.4050, 4855.811
153.6360, 5737.158
154.8660, 7011.634
156.0960, 8475.189
157.3260, 9648.988
158.5560, 10884.33
159.7850, 11775.19
161.0150, 12730.61
162.2440, 13898.66
163.4730, 14942.50
164.7020, 15611.72
165.9310, 15889.11
167.1590, 15892.48
168.3880, 15341.09
169.6160, 14487.55
170.8440, 14140.12
172.0720, 12492.48
173.3000, 11731.98
174.5280, 10748.56
175.7550, 9762.205
176.9820, 8875.909
178.2100, 8036.093
179.4370, 7272.471
180.6630, 6536.193
181.8900, 5924.991
183.1170, 5340.799
184.3430, 4778.613
185.5690, 4226.427
186.7950, 3877.230
188.0210, 3514.021
189.2470, 3212.797
190.4720, 3225.550
191.6970, 2558.276
192.9230, 1995.975
194.1480, 1620.641
195.3730, 1675.266
196.5970, 1490.852
197.8220, 1369.391
199.0460, 1571.879
200.2700, 1095.308
201.4940, 1219.664
202.7180, 850.9365
203.9420, 496.1162
205.1660, 371.2021
206.3890, 594.1943
207.6120, 520.0947
208.8350, 225.9023
210.0580, 389.6182
211.2810, 305.2461
212.5040, 334.7812
213.7260, 199.1406
214.9480, 475.0078
216.1700, 377.4053
217.3920, 503.8867
218.6140, 409.7617
219.8360, 324.4355
221.0570, 464.9619
222.2790, 440.9238
223.5000, 339.9551
224.7210, 218.8574
225.9410, 60.09375
227.1620, 34.33008
228.3820, 34.36035
229.6030, 30.51367
230.8230, 88.18164
232.0430, 116.7393
233.2630, 172.4336
234.4820, 166.2412
235.7020, 151.7549
236.9210, 120.7617
238.1400, 20.64941
239.3590, 73.08594
240.5780, 229.5039
241.7970, 237.5596
243.0150, 136.5479
244.2340, 208.9072
245.4520, 41.70117
246.6700, 99.00977
247.8880, 225.4541
249.1060, 290.9932
250.3230, 455.2510
251.5400, 639.8125
252.7580, 1011.810
253.9750, 1053.341
255.1920, 1630.703
256.4080, 1994.053
257.6250, 2780.243
258.8410, 3596.553
260.0580, 4151.285
261.2740, 5010.029
262.4900, 5756.952
263.7050, 6662.328
264.9210, 7715.572
266.1360, 8649.503
267.3520, 9387.009
268.5670, 10207.59
269.7820, 10581.12
270.9960, 11176.59
272.2110, 11424.99
273.4250, 11203.29
274.6400, 11050.52
275.8540, 10427.64
277.0680, 10039.64
278.2810, 9378.517
279.4950, 9012.263
280.7090, 8569.888
281.9220, 8141.393
283.1350, 8201.782
284.3480, 8324.060
285.5610, 8907.234
286.7730, 9586.300
287.9860, 10884.26
289.1980, 12598.13
290.4100, 15159.89
291.6220, 17468.56
292.8340, 20289.14
294.0460, 23190.61
295.2570, 25796.96
296.4690, 27751.20
297.6800, 30440.31
298.8910, 32332.29
300.1020, 34110.16
301.3120, 34265.92
302.5230, 33217.55
303.7330, 30632.09
304.9440, 27237.46
306.1540, 23668.62
307.3630, 19933.50
308.5730, 16885.04
309.7830, 14240.22
310.9920, 12225.15
312.2010, 10632.81
313.4100, 9287.104
314.6190, 8129.151
315.8280, 6809.095
317.0370, 5644.957
318.2450, 4794.764
319.4530, 3836.515
320.6610, 3503.211
321.8690, 2762.852
323.0770, 2665.435
324.2850, 2341.962
325.4920, 1855.432
326.6990, 1756.843
327.9060, 1474.337
329.1130, 1264.492
330.3200, 1145.730
331.5270, 999.9082
332.7330, 851.0264
333.9390, 606.0859
335.1450, 618.0820
336.3510, 276.0146
337.5570, 410.8779
338.7630, 430.6738
339.9680, 173.4023
341.1740, 135.0576
342.3790, 0.3613280
343.5840, 194.1357
344.7890, 109.5615
345.9930, 70.91113
347.1980, 31.81641
348.4020, 169.3652
349.6060, 34.58398
350.8100, 172.1465
352.0140, 148.0977
353.2180, 131.9609
354.4210, 249.1182
355.6250, 80.29590
356.8280, 164.9902
358.0310, 396.7959
359.2340, 401.4746
360.4360, 268.7109
361.6390, 285.4482
362.8410, 239.5967
364.0430, 477.2539
365.2450, 435.4189
366.4470, 515.0459
367.6490, 526.3682
368.8510, 314.1836
370.0520, 706.9941
371.2530, 673.8018
372.4540, 784.9619
373.6550, 485.3545
374.8560, 559.9707
376.0560, 405.9502
377.2570, 631.1250
378.4570, 481.7979
379.6570, 451.8486
380.8570, 450.8066
382.0570, 308.7109
383.2560, 341.1455
384.4560, 324.1816
385.6550, 268.0625
386.8540, 139.2852
388.0530, 170.0566
389.2520, 101.2266
390.4510, 170.8184
391.6490, 134.7666
392.8470, 100.0859
394.0450, 160.0547
395.2430, 298.0176
396.4410, 420.0752
397.6390, 312.2852
398.8360, 345.1973
400.0340, 338.7305
401.2310, 121.8584
402.4280, 317.0566
403.6250, 391.4961
404.8210, 442.1221
406.0180, 956.8301
407.2140, 513.1416
408.4100, 554.4043
409.6060, 608.5107
410.8020, 1000.296
411.9980, 1141.731
413.1930, 1353.650
414.3890, 1902.430
415.5840, 2775.102
416.7790, 3647.799
417.9740, 4556.350
419.1680, 5447.812
420.3630, 6443.689
421.5570, 7374.004
422.7510, 8158.314
423.9450, 9032.182
425.1390, 9518.396
426.3330, 9436.002
427.5270, 8761.826
428.7200, 7418.073
429.9130, 6076.803
431.1060, 4595.982
432.2990, 3596.983
433.4920, 2964.396
434.6840, 2502.710
435.8770, 2094.404
437.0690, 1767.426
438.2610, 1783.521
439.4530, 1792.801
440.6450, 1616.712
441.8360, 1744.817
443.0280, 1709.119
444.2190, 1738.773
445.4100, 1611.356
446.6010, 1499.895
447.7920, 1575.379
448.9820, 1747.817
450.1730, 1830.199
451.3630, 1960.490
452.5530, 2199.756
453.7430, 2185.933
454.9330, 2326.041
456.1230, 2392.098
457.3120, 2375.087
458.5010, 2640.010
459.6910, 2733.868
460.8800, 3031.680
462.0680, 3462.427
463.2570, 3764.109
464.4460, 4020.742
465.6340, 4537.309
466.8220, 4936.807
468.0100, 5685.242
469.1980, 6301.607
470.3860, 7088.906
471.5730, 7833.139
472.7600, 8628.301
473.9480, 9848.402
475.1350, 10664.43
476.3210, 11441.39
477.5080, 12485.45
478.6950, 13129.50
479.8810, 14028.04
481.0670, 14408.09
482.2530, 14625.15
483.4390, 14530.80
484.6250, 14528.06
485.8100, 14238.53
486.9960, 14058.17
488.1810, 13697.04
489.3660, 13228.49
490.5510, 12638.84
491.7360, 12278.02
492.9200, 11605.11
494.1050, 11114.52
495.2890, 10589.35
496.4730, 9926.990
497.6570, 9217.456
498.8400, 8522.560
500.0240, 8034.316
501.2070, 7204.227
502.3910, 6689.104
503.5740, 5990.367
504.7570, 5385.642
505.9400, 4897.661
507.1220, 4402.618
508.3050, 3716.343
509.4870, 3274.343
510.6690, 2969.332
511.8510, 2562.379
513.0330, 2303.698
514.2140, 2148.483
515.3960, 1872.361
516.5770, 1539.006
517.7580, 1438.960
518.9390, 1237.296
520.1200, 1037.614
521.3010, 985.3760
522.4810, 835.0762
523.6610, 803.8291
524.8420, 514.0273
526.0220, 440.3496
527.2010, 325.5557
528.3810, 341.6133
529.5610, 419.2227
530.7400, 363.0059
531.9190, 312.5771
533.0980, 181.3955
534.2770, 126.0068
535.4560, 79.08887
536.6340, 36.52930
537.8120, 0.9287110
538.9910, 22.57715
540.1690, 35.45215
541.3460, 26.45312
542.5240, 127.6387
543.7020, 2.476563
544.8790, 31.86328
546.0560, 191.6562
547.2330, 169.0176
548.4100, 13.66016
549.5870, 239.9072
550.7630, 53.97070
551.9400, 88.22461
553.1160, 2.149414
554.2920, 126.7266
555.4680, 93.61523
556.6440, 76.98242
557.8190, 46.56055
558.9950, 124.9150
560.1700, 92.67773
561.3450, 52.59277
562.5200, 52.69043
563.6950, 43.72363
564.8690, 95.87012
566.0440, 232.8027
567.2180, 119.6611
568.3920, 63.33301
569.5660, 167.4541
570.7400, 272.1309
571.9130, 145.9004
573.0870, 168.6670
574.2600, 289.6680
575.4330, 66.58691
576.6060, 183.8789
577.7790, 326.5000
578.9520, 289.6416
580.1240, 228.9727
581.2960, 314.0684
582.4690, 494.2969
583.6410, 434.2637
584.8120, 636.0049
585.9840, 707.7061
587.1560, 808.0352
588.3270, 879.2266
589.4980, 964.8379
590.6690, 1247.078
591.8400, 1515.348
593.0110, 2137.208
594.1810, 2475.703
595.3510, 2906.194
596.5220, 3434.121
597.6920, 3740.274
598.8610, 4056.355
600.0310, 4519.639
601.2010, 4626.669
602.3700, 4630.644
603.5390, 4659.713
604.7080, 4106.215
605.8770, 3501.521
607.0460, 3163.836
608.2140, 2747.883
609.3830, 2465.458
610.5510, 2194.653
611.7190, 2042.649
612.8870, 1919.595
614.0550, 1888.727
615.2220, 1969.604
616.3900, 1981.266
617.5570, 2030.663
618.7240, 2291.669
619.8910, 2546.784
621.0580, 2667.086
622.2240, 3134.359
623.3910, 3485.982
624.5570, 4029.767
625.7230, 4276.726
626.8890, 4716.990
628.0550, 5244.444
629.2200, 5628.938
630.3860, 5790.363
631.5510, 6340.764
632.7160, 6649.377
633.8810, 7092.705
635.0460, 7706.033
636.2100, 8509.306
637.3750, 10007.53
638.5390, 11358.71
639.7030, 13122.82
640.8670, 14681.90
642.0310, 16077.90
643.1950, 17623.87
644.3580, 18729.83
645.5210, 19195.75
646.6850, 18412.61
647.8480, 16684.42
649.0100, 14577.17
650.1730, 11762.86
651.3350, 9499.512
652.4980, 7506.105
653.6600, 5869.646
654.8220, 4777.121
655.9840, 3785.542
657.1450, 3322.897
658.3070, 2792.189
659.4680, 2407.420
660.6300, 2061.581
661.7910, 1887.680
662.9510, 1637.723
664.1120, 1427.708
665.2730, 1353.333
666.4330, 1277.588
667.5930, 1057.301
668.7530, 926.0195
669.9130, 849.0039
671.0730, 1020.689
672.2320, 860.1152
673.3920, 805.9287
674.5510, 622.4482
675.7100, 657.7100
676.8690, 637.5869
678.0280, 648.9961
679.1860, 735.6191
680.3450, 544.3887
681.5030, 478.5547
682.6610, 559.6309
683.8190, 580.6504
684.9770, 433.2764
686.1340, 313.7822
687.2920, 277.6143
688.4490, 270.9082
689.6060, 203.4473
690.7630, 386.2910
691.9200, 248.6562
693.0760, 178.2188
694.2330, 375.1465
695.3890, 211.0654
696.5450, 224.9414
697.7010, 140.6396
698.8570, 193.3320
700.0130, 189.9658
701.1680, 111.0332
702.3230, 149.5117
703.4780, 100.8467
704.6330, 131.4736
705.7880, 129.6045
706.9430, 154.1934
708.0970, 53.41895
709.2520, 112.0684
710.4060, 76.08789
711.5600, 290.5098
712.7140, 213.9658
713.8670, 214.8623
715.0210, 104.7148
716.1740, 46.03809
717.3270, 101.8848
718.4800, 14.51270
719.6330, 95.92090
720.7860, 19.44141
721.9380, 16.23926
723.0910, 104.5264
724.2430, 21.95898
725.3950, 72.85059
726.5470, 39.78711
727.6980, 63.45410
728.8500, 24.52832
730.0010, 123.1973
731.1530, 12.03516
732.3040, 58.61328
733.4550, 52.41797
734.6050, 9.155273
735.7560, 72.17773
736.9060, 71.44043
738.0560, 52.94922
739.2060, 27.25488
740.3560, 68.77930
741.5060, 58.28906
742.6560, 20.83789
743.8050, 163.1045
744.9540, 143.0186
746.1030, 85.25781
747.2520, 185.8271
748.4010, 149.7070
749.5500, 179.1250
750.6980, 174.0889
751.8460, 111.5801
752.9950, 153.9668
754.1420, 195.5273
755.2900, 250.6875
756.4380, 336.9980
757.5850, 296.3633
758.7330, 251.6504
759.8800, 255.7783
761.0270, 167.9395
762.1730, 353.8594
763.3200, 308.7832
764.4670, 231.9238
765.6130, 413.8584
766.7590, 400.4990
767.9050, 514.3604
769.0510, 462.4922
770.1960, 364.8721
771.3420, 554.1289
772.4870, 449.3262
773.6320, 593.4658
774.7770, 547.4609
775.9220, 748.4824
777.0670, 721.4648
778.2110, 766.6084
779.3560, 847.4551
780.5000, 1078.014
781.6440, 1184.779
782.7880, 1280.067
783.9320, 1285.682
785.0750, 1672.146
786.2180, 1775.771
787.3620, 2129.211
788.5050, 2304.119
789.6480, 2506.442
790.7900, 2887.313
791.9330, 3170.522
793.0750, 3447.078
794.2170, 3681.172
795.3590, 4057.210
796.5010, 4205.191
797.6430, 4703.116
798.7850, 4828.984
799.9260, 5121.984
801.0670, 5373.883
802.2080, 5419.850
803.3490, 5746.512
804.4900, 5758.279
805.6310, 5611.826
806.7710, 5677.320
807.9110, 5527.764
809.0510, 5640.465
810.1910, 5502.810
811.3310, 5369.107
812.4710, 5070.361
813.6100, 4904.570
814.7490, 4695.060
815.8880, 4418.028
817.0270, 4304.955
818.1660, 3978.011
819.3050, 3810.811
820.4430, 3782.791
821.5820, 3359.732
822.7200, 3090.255
823.8580, 2654.337
824.9950, 2658.321
826.1330, 2534.250
827.2710, 2257.985
828.4080, 2105.453
829.5450, 1828.310
830.6820, 1644.843
831.8190, 1547.232
832.9560, 1288.954
834.0920, 994.7432
835.2280, 1152.174
836.3650, 1048.860
837.5010, 1035.551
838.6360, 687.9111
839.7720, 808.4023
840.9080, 609.6631
842.0430, 552.0205
843.1780, 496.3398
844.3130, 473.7324
845.4480, 402.5586
846.5830, 312.7197
847.7170, 411.6748
848.8520, 278.5244
849.9860, 269.0254
851.1200, 362.5020
852.2540, 332.4922
853.3870, 303.0449
854.5210, 326.9688
855.6540, 162.5996
856.7880, 244.3555
857.9210, 192.8760
859.0540, 239.5566
860.1860, 163.3594
861.3190, 291.1035
862.4510, 248.1211
863.5840, 89.17773
864.7160, 31.28418
865.8480, 211.5049
866.9790, 117.1689
868.1110, 154.1465
869.2420, 79.39355
870.3740, 201.5459
871.5050, 164.1709
872.6360, 158.4756
873.7660, 61.24316
874.8970, 4.283203
876.0280, 118.8262
877.1580, 22.10449
878.2880, 234.7646
879.4180, 67.11133
880.5480, 54.56055
881.6770, 92.09082
882.8070, 107.8760
883.9360, 121.7168
885.0650, 79.41016
886.1940, 21.65039
887.3230, 36.84961
888.4520, 41.77441
889.5800, 49.13379
890.7090, 60.93359
891.8370, 65.57715
892.9650, 1.935547
894.0930, 117.4902
895.2200, 101.3447
896.3480, 88.28125
897.4750, 18.32617
898.6020, 89.29590
899.7290, 63.19238
900.8560, 10.47461
901.9830, 92.02441
903.1090, 161.7061
904.2360, 38.42969
905.3620, 62.19336
906.4880, 54.74707
907.6140, 46.92383
908.7400, 69.40918
909.8650, 30.75488
910.9900, 79.37012
912.1160, 6.487305
913.2410, 22.40723
914.3660, 127.6758
915.4900, 70.25000
916.6150, 206.2188
917.7390, 53.29980
918.8640, 31.58691
919.9880, 61.53418
921.1120, 27.68848
922.2350, 11.13867
923.3590, 94.03906
924.4820, 43.73730
925.6060, 81.49121
926.7290, 71.24316
927.8520, 61.02539
928.9740, 46.67969
930.0970, 33.38379
931.2190, 112.0869
932.3420, 114.7881
933.4640, 27.49121
934.5860, 63.80664
935.7080, 41.12500
936.8290, 13.45508
937.9510, 5.212891
939.0720, 9.119141
940.1930, 147.5498
941.3140, 172.2207
942.4350, 108.8965
943.5560, 75.42383
944.6760, 54.23828
945.7960, 92.90430
946.9170, 63.57617
948.0370, 250.2549
949.1560, 306.9385
950.2760, 237.6309
951.3960, 86.32910
952.5150, 269.0361
953.6340, 189.7510
954.7530, 383.4746
955.8720, 336.2070
956.9910, 399.9512
958.1090, 578.7041
959.2280, 452.4727
960.3460, 413.2539
961.4640, 498.0508
962.5820, 774.8633
963.6990, 734.6875
964.8170, 763.5283
965.9340, 675.3848
967.0510, 785.2578
968.1690, 889.1475
969.2850, 884.0547
970.4020, 875.9795
971.5190, 1031.923
972.6350, 1172.884
973.7510, 1100.877
974.8670, 1176.887
975.9830, 1412.920
977.0990, 1507.972
978.2150, 1524.076
979.3300, 1756.223
980.4450, 1837.413
981.5600, 1948.628
982.6750, 2389.865
983.7900, 2747.141
984.9050, 2860.459
986.0190, 3218.806
987.1340, 3539.192
988.2480, 4009.642
989.3620, 4465.132
990.4750, 5287.402
991.5890, 6175.018
992.7020, 7091.623
993.8160, 7517.359
994.9290, 8543.975
996.0420, 9790.788
997.1550, 10834.18
998.2670, 12484.24
999.3800, 13839.17
1000.492, 15484.28
1001.604, 17778.27
1002.716, 19132.48
1003.828, 21215.43
1004.940, 22561.73
1006.051, 24504.07
1007.163, 26217.48
1008.274, 26824.61
1009.385, 26984.44
1010.496, 27030.00
1011.606, 26482.05
1012.717, 25028.73
1013.827, 23651.28
1014.937, 22104.83
1016.047, 20217.03
1017.157, 18102.90
1018.267, 16678.48
1019.377, 14833.37
1020.486, 13376.75
1021.595, 12321.58
1022.704, 11330.52
1023.813, 10428.26
1024.922, 9946.380
1026.030, 9650.333
1027.139, 9397.209
1028.247, 9662.138
1029.355, 9735.200
1030.463, 10062.20
1031.571, 10530.42
1032.678, 11018.62
1033.786, 11955.57
1034.893, 12902.70
1036.000, 14023.11
1037.107, 15024.28
1038.214, 16178.16
1039.321, 16967.77
1040.427, 18034.49
1041.533, 18729.24
1042.639, 20011.04
1043.745, 20819.95
1044.851, 21858.84
1045.957, 22367.74
1047.062, 23428.45
1048.168, 24060.46
1049.273, 24807.73
1050.378, 25972.78
1051.482, 27177.29
1052.587, 28834.47
1053.692, 30600.77
1054.796, 32876.91
1055.900, 35597.21
1057.004, 38444.04
1058.108, 41320.43
1059.212, 42884.27
1060.315, 44625.75
1061.418, 44822.89
1062.522, 43698.46
1063.625, 41200.07
1064.728, 37779.75
1065.830, 32994.48
1066.933, 28519.22
1068.035, 23930.85
1069.137, 19959.58
1070.239, 15967.23
1071.341, 13450.17
1072.443, 11064.01
1073.545, 9521.069
1074.646, 8039.174
1075.747, 6931.326
1076.848, 5899.221
1077.949, 5311.468
1079.050, 4709.762
1080.150, 4057.105
1081.251, 3667.497
1082.351, 3325.937
1083.451, 3170.423
1084.551, 3179.957
1085.651, 2992.545
1086.750, 2938.183
1087.850, 3001.867
1088.949, 2727.601
1090.048, 2651.382
1091.147, 2265.212
1092.246, 2187.090
1093.345, 2430.017
1094.443, 2345.991
1095.541, 2626.015
1096.639, 2494.087
1097.737, 2794.206
1098.835, 2800.374
1099.933, 2992.590
1101.030, 3295.878
1102.128, 3622.190
1103.225, 4109.551
1104.322, 4439.959
1105.419, 5101.425
1106.515, 5217.938
1107.612, 5603.504
1108.708, 6348.121
1109.804, 6354.465
1110.900, 6520.643
1111.996, 6660.885
1113.092, 6838.742
1114.187, 7114.619
1115.283, 7089.227
1116.378, 6970.297
1117.473, 7314.512
1118.568, 7209.871
1119.662, 6954.525
1120.757, 6925.102
1121.851, 6690.990
1122.946, 6530.340
1124.040, 6099.402
1125.134, 5819.613
1126.227, 5573.268
1127.321, 5249.689
1128.414, 5132.330
1129.508, 4787.086
1130.601, 4418.490
1131.693, 4297.963
1132.786, 3854.145
1133.879, 3551.053
1134.971, 3449.621
1136.064, 3070.367
1137.156, 2743.037
1138.248, 2595.928
1139.339, 2147.357
1140.431, 1921.957
1141.522, 1779.193
1142.614, 1692.277
1143.705, 1541.756
1144.796, 1350.801
1145.887, 1329.016
1146.977, 1139.506
1148.068, 1018.953
1149.158, 1052.330
1150.248, 1110.781
1151.338, 1113.473
1152.428, 1107.996
1153.518, 952.8965
1154.607, 1115.488
1155.696, 909.1309
1156.785, 891.2188
1157.874, 1170.973
1158.963, 909.7637
1160.052, 760.6250
1161.141, 895.5488
1162.229, 787.5312
1163.317, 798.5527
1164.405, 628.6328
1165.493, 626.7871
1166.581, 710.9805
1167.668, 628.2578
1168.756, 672.6113
1169.843, 720.0078
1170.930, 673.4512
1172.017, 749.9238
1173.103, 701.4199
1174.190, 1048.949
1175.276, 756.5137
1176.363, 1071.105
1177.449, 1030.727
1178.535, 959.3789
1179.620, 999.0605
1180.706, 1090.064
1181.791, 1234.109
1182.877, 1429.498
1183.962, 1658.365
1185.047, 1952.273
1186.131, 2166.213
1187.216, 2430.180
1188.300, 2496.188
1189.385, 2703.223
1190.469, 2979.297
1191.553, 2934.395
1192.637, 3127.529
1193.720, 3233.686
1194.804, 3099.863
1195.887, 3442.064
1196.970, 3456.289
1198.053, 3566.533
1199.136, 3565.027
1200.219, 3460.631
1201.301, 3476.656
1202.383, 3338.002
1203.465, 3181.475
1204.547, 3464.863
1205.629, 3174.270
1206.711, 3128.691
1207.792, 2740.146
1208.874, 2788.621
1209.955, 2465.113
1211.036, 2443.621
1212.117, 2423.148
1213.198, 2169.691
1214.278, 1878.252
1215.359, 1782.695
1216.439, 1460.668
1217.519, 1575.275
1218.599, 1099.920
1219.678, 1105.557
1220.758, 894.2070
1221.837, 986.8730
1222.917, 862.5527
1223.996, 452.4492
1225.075, 465.1543
1226.153, 420.8730
1227.232, 370.6035
1228.310, 242.3477
1229.389, 366.0996
1230.467, 3.865234
1231.545, 247.6387
1232.622, 270.4238
1233.700, 200.2188
1234.777, 59.60938
1235.855, 62.52539
1236.932, 77.07812
1238.009, 134.8867
1239.086, 141.2969
1240.162, 100.5332
1241.239, 99.50977
1242.315, 2.357422
1243.391, 5.054688
1244.467, 81.24414
1245.543, 87.57031
1246.619, 30.93164
1247.694, 70.30078
1248.769, 141.7012
1249.844, 70.16211
1250.919, 108.8730
1251.994, 24.05664
1253.069, 107.5195
1254.144, 34.29102
1255.218, 58.91211
1256.292, 73.64648
1257.366, 89.00000
1258.440, 3.498047
1259.514, 110.9980
1260.587, 109.7246
1261.661, 119.0039
1262.734, 11.89453
1263.807, 40.53906
1264.880, 5.496094
1265.952, 2.443359
1267.025, 73.04492
1268.097, 12.52344
1269.170, 79.54883
1270.242, 103.4180
