##NAMES=Montebrasite
##RRUFFID=R060890
##IDEAL CHEMISTRY=LiAlPO_4_(OH)
##LOCALITY=Mount Marie, Paris, Maine, USA
##OWNER=RRUFF
##SOURCE=Bob Jenkins
##DESCRIPTION=Colorless massive
##STATUS=The identification of this mineral is confirmed by single-crystal X-ray diffraction and chemical analysis.
##URL=rruff.info/R060890
##MEASURED CHEMISTRY=Li_1.00_Al_1.00_(P_1.00_O_4_)(OH)_0.63_F_0.37_)_Î£=1_ ; Li not measured but estimated by stoichiometry
##PIN_ID=M01084
##ORIENTATION=Laser parallel to -a* (-1 0 0). Fiducial mark perpendicular to laser is parallel to b [0 1 0]
90.67800, 0.0000000E+00
91.91600, 245.1074
93.15500, 57.82227
94.39300, 113.0840
95.63100, 312.4531
96.86900, 3.015625
98.10600, 100.3965
99.34400, 244.7363
100.5810, 246.8262
101.8190, 164.3633
103.0560, 108.9453
104.2930, 50.82031
105.5290, 309.2402
106.7660, 575.4062
108.0020, 770.4570
109.2390, 395.2891
110.4750, 435.7949
111.7110, 548.6797
112.9460, 558.6230
114.1820, 1088.387
115.4170, 1237.812
116.6530, 1296.795
117.8880, 1695.367
119.1230, 1873.191
120.3580, 2143.814
121.5920, 2477.246
122.8270, 2991.568
124.0610, 3450.703
125.2950, 3725.770
126.5290, 4049.104
127.7630, 4477.609
128.9970, 4838.412
130.2300, 5135.551
131.4640, 4892.564
132.6970, 4493.357
133.9300, 4180.982
135.1630, 3375.445
136.3950, 2692.848
137.6280, 2089.271
138.8600, 1630.861
140.0920, 1376.561
141.3240, 897.4961
142.5560, 801.7207
143.7880, 561.8652
145.0190, 512.8418
146.2510, 375.8809
147.4820, 261.5742
148.7130, 261.3711
149.9440, 437.8203
151.1750, 297.6582
152.4050, 511.8555
153.6360, 623.9258
154.8660, 604.5664
156.0960, 605.5645
157.3260, 816.6992
158.5560, 914.1602
159.7850, 964.7676
161.0150, 972.3926
162.2440, 1037.744
163.4730, 1101.615
164.7020, 1154.869
165.9310, 1108.400
167.1590, 1167.873
168.3880, 1029.904
169.6160, 1027.752
170.8440, 1145.996
172.0720, 931.0117
173.3000, 870.2129
174.5280, 810.4219
175.7550, 881.4746
176.9820, 837.3789
178.2100, 801.2344
179.4370, 927.1582
180.6630, 751.1445
181.8900, 816.1836
183.1170, 740.2695
184.3430, 692.3926
185.5690, 764.5449
186.7950, 642.7246
188.0210, 715.9199
189.2470, 844.1309
190.4720, 836.3516
191.6970, 841.5391
192.9230, 656.8066
194.1480, 720.0156
195.3730, 638.2070
196.5970, 495.3750
197.8220, 624.5117
199.0460, 541.6191
200.2700, 619.6895
201.4940, 385.7168
202.7180, 456.7109
203.9420, 219.6602
205.1660, 99.56055
206.3890, 118.5918
207.6120, 105.7930
208.8350, 117.9590
210.0580, 58.66016
211.2810, 170.3164
212.5040, 2.074219
213.7260, 38.50781
214.9480, 31.99023
216.1700, 71.51367
217.3920, 54.91797
218.6140, 137.7012
219.8360, 23.36523
221.0570, 123.9062
222.2790, 72.96680
223.5000, 45.91992
224.7210, 99.70898
225.9410, 50.35742
227.1620, 56.81445
228.3820, 6.906250
229.6030, 78.78906
230.8230, 23.13477
232.0430, 115.0859
233.2630, 82.89648
234.4820, 27.43359
235.7020, 49.21875
236.9210, 168.0098
238.1400, 82.84375
239.3590, 22.92188
240.5780, 13.01367
241.7970, 46.33594
243.0150, 16.85547
244.2340, 30.55273
245.4520, 41.90430
246.6700, 121.7695
247.8880, 140.5195
249.1060, 187.3496
250.3230, 193.0859
251.5400, 300.6250
252.7580, 377.2305
253.9750, 372.5625
255.1920, 417.8867
256.4080, 338.5371
257.6250, 456.5312
258.8410, 363.7090
260.0580, 458.4023
261.2740, 597.3867
262.4900, 556.0293
263.7050, 713.7520
264.9210, 846.3359
266.1360, 954.9277
267.3520, 968.4238
268.5670, 1104.473
269.7820, 1191.223
270.9960, 1174.832
272.2110, 1285.898
273.4250, 1579.852
274.6400, 1495.695
275.8540, 1616.428
277.0680, 1461.047
278.2810, 1561.553
279.4950, 1869.955
280.7090, 1852.256
281.9220, 2086.459
283.1350, 2299.574
284.3480, 2519.613
285.5610, 2819.576
286.7730, 3353.477
287.9860, 3712.305
289.1980, 4574.059
290.4100, 5213.736
291.6220, 6342.340
292.8340, 7545.869
294.0460, 8440.805
295.2570, 9766.348
296.4690, 10776.28
297.6800, 11884.48
298.8910, 13211.12
300.1020, 14299.54
301.3120, 15243.74
302.5230, 15602.80
303.7330, 14976.71
304.9440, 13997.91
306.1540, 12675.61
307.3630, 11230.14
308.5730, 9954.594
309.7830, 9097.943
310.9920, 8391.354
312.2010, 7463.531
313.4100, 7031.664
314.6190, 6193.494
315.8280, 5767.777
317.0370, 5554.562
318.2450, 4948.307
319.4530, 4764.000
320.6610, 4389.668
321.8690, 4097.355
323.0770, 3651.986
324.2850, 3439.605
325.4920, 3316.207
326.6990, 2742.795
327.9060, 2707.367
329.1130, 2382.928
330.3200, 2117.469
331.5270, 1910.996
332.7330, 1754.678
333.9390, 1755.984
335.1450, 1599.465
336.3510, 1538.520
337.5570, 1564.377
338.7630, 1344.811
339.9680, 1308.225
341.1740, 1228.625
342.3790, 1104.312
343.5840, 1183.770
344.7890, 999.7539
345.9930, 1080.055
347.1980, 1202.367
348.4020, 1104.969
349.6060, 1223.238
350.8100, 1021.121
352.0140, 963.3789
353.2180, 1065.486
354.4210, 968.7051
355.6250, 862.8750
356.8280, 1069.744
358.0310, 1018.559
359.2340, 1066.139
360.4360, 1073.176
361.6390, 1166.781
362.8410, 1138.035
364.0430, 1058.586
365.2450, 1126.361
366.4470, 1269.773
367.6490, 1405.537
368.8510, 1226.734
370.0520, 1165.895
371.2530, 1159.256
372.4540, 1093.789
373.6550, 1155.520
374.8560, 1103.176
376.0560, 1033.760
377.2570, 945.0781
378.4570, 1005.904
379.6570, 906.4336
380.8570, 992.8672
382.0570, 773.9902
383.2560, 688.4199
384.4560, 569.3828
385.6550, 612.4277
386.8540, 600.9727
388.0530, 611.4492
389.2520, 526.2539
390.4510, 426.7402
391.6490, 538.2422
392.8470, 287.4316
394.0450, 622.0137
395.2430, 491.2402
396.4410, 415.4766
397.6390, 602.6875
398.8360, 461.9922
400.0340, 513.7676
401.2310, 102.8730
402.4280, 382.0801
403.6250, 126.3809
404.8210, 335.4863
406.0180, 371.5781
407.2140, 555.2715
408.4100, 521.4746
409.6060, 447.4141
410.8020, 712.7168
411.9980, 714.1230
413.1930, 874.5156
414.3890, 1579.232
415.5840, 1792.941
416.7790, 2264.762
417.9740, 3109.684
419.1680, 3730.980
420.3630, 4391.539
421.5570, 5128.848
422.7510, 6017.055
423.9450, 7409.223
425.1390, 8421.656
426.3330, 8882.309
427.5270, 8137.324
428.7200, 6428.273
429.9130, 5045.129
431.1060, 3659.170
432.2990, 2712.850
433.4920, 2096.188
434.6840, 1556.518
435.8770, 1171.590
437.0690, 972.7969
438.2610, 878.8457
439.4530, 840.8848
440.6450, 602.9316
441.8360, 666.0098
443.0280, 467.0762
444.2190, 435.1309
445.4100, 284.1719
446.6010, 378.2031
447.7920, 133.2852
448.9820, 401.3594
450.1730, 279.4258
451.3630, 351.4961
452.5530, 287.5527
453.7430, 148.6094
454.9330, 15.34180
456.1230, 161.6895
457.3120, 330.7090
458.5010, 95.72266
459.6910, 202.7227
460.8800, 205.7129
462.0680, 287.6914
463.2570, 340.6621
464.4460, 199.6387
465.6340, 314.6055
466.8220, 296.5781
468.0100, 289.5625
469.1980, 384.5371
470.3860, 395.5039
471.5730, 597.4609
472.7600, 619.4062
473.9480, 686.3496
475.1350, 640.2793
476.3210, 865.2031
477.5080, 758.1133
478.6950, 1004.014
479.8810, 900.9160
481.0670, 1091.809
482.2530, 1242.689
483.4390, 1232.562
484.6250, 1079.422
485.8100, 1170.273
486.9960, 1129.113
488.1810, 1372.945
489.3660, 1117.764
490.5510, 1371.580
491.7360, 1204.387
492.9200, 1120.193
494.1050, 1218.000
495.2890, 1050.859
496.4730, 1095.770
497.6570, 974.6836
498.8400, 869.6035
500.0240, 911.5195
501.2070, 776.4531
502.3910, 558.4121
503.5740, 731.3926
504.7570, 627.4082
505.9400, 279.4258
507.1220, 422.4961
508.3050, 528.5820
509.4870, 265.6699
510.6690, 327.7871
511.8510, 342.9121
513.0330, 232.0352
514.2140, 179.1621
515.3960, 51.29102
516.5770, 8.572266
517.7580, 52.41211
518.9390, 104.2559
520.1200, 5.855469
521.3010, 158.9570
522.4810, 213.0762
523.6610, 40.19531
524.8420, 31.63672
526.0220, 94.54883
527.2010, 95.74414
528.3810, 72.16016
529.5610, 34.84766
530.7400, 16.35742
531.9190, 17.44336
533.0980, 68.25391
534.2770, 15.90234
535.4560, 9.050781
536.6340, 98.19141
537.8120, 4.318359
538.9910, 79.42969
540.1690, 44.53125
541.3460, 5.384766
542.5240, 92.29492
543.7020, 128.9941
544.8790, 6.996094
546.0560, 140.8457
547.2330, 13.21289
548.4100, 49.07031
549.5870, 3.882813
550.7630, 32.01367
551.9400, 242.5918
553.1160, 148.1738
554.2920, 145.0215
555.4680, 25.14453
556.6440, 58.16992
557.8190, 26.32031
558.9950, 31.43164
560.1700, 40.64844
561.3450, 77.48828
562.5200, 140.3262
563.6950, 166.1250
564.8690, 169.9746
566.0440, 129.1309
567.2180, 71.41992
568.3920, 46.60938
569.5660, 25.70117
570.7400, 60.77148
571.9130, 0.1210940
573.0870, 73.55469
574.2600, 166.5117
575.4330, 163.5762
576.6060, 366.5273
577.7790, 185.9766
578.9520, 365.9492
580.1240, 443.4746
581.2960, 354.2266
582.4690, 380.2520
583.6410, 584.2637
584.8120, 767.1797
585.9840, 598.2793
587.1560, 629.6621
588.3270, 975.8867
589.4980, 1012.844
590.6690, 1326.357
591.8400, 1423.910
593.0110, 1560.162
594.1810, 1906.137
595.3510, 2101.676
596.5220, 2496.484
597.6920, 2996.898
598.8610, 2969.350
600.0310, 2991.021
601.2010, 3430.125
602.3700, 3842.389
603.5390, 3767.566
604.7080, 3445.248
605.8770, 3071.320
607.0460, 2603.654
608.2140, 2385.793
609.3830, 2034.586
610.5510, 1891.807
611.7190, 1514.859
612.8870, 1797.578
614.0550, 2012.535
615.2220, 1932.426
616.3900, 1978.230
617.5570, 2177.910
618.7240, 2094.760
619.8910, 2494.848
621.0580, 2852.596
622.2240, 3058.549
623.3910, 3452.049
624.5570, 4241.586
625.7230, 4485.031
626.8890, 5117.457
628.0550, 5615.018
629.2200, 5814.389
630.3860, 6163.520
631.5510, 6641.840
632.7160, 6912.578
633.8810, 6996.848
635.0460, 6930.090
636.2100, 7227.615
637.3750, 7453.037
638.5390, 8038.434
639.7030, 8584.574
640.8670, 9694.840
642.0310, 10429.92
643.1950, 11496.98
644.3580, 12358.05
645.5210, 13123.10
646.6850, 13178.12
647.8480, 12373.11
649.0100, 10496.08
650.1730, 8658.020
651.3350, 6989.982
652.4980, 5805.916
653.6600, 4610.832
654.8220, 3750.721
655.9840, 3093.047
657.1450, 2708.969
658.3070, 2072.496
659.4680, 1678.467
660.6300, 1680.523
661.7910, 1501.197
662.9510, 1111.920
664.1120, 1129.041
665.2730, 646.1523
666.4330, 756.4414
667.5930, 897.7012
668.7530, 624.8359
669.9130, 609.6953
671.0730, 520.5410
672.2320, 427.8867
673.3920, 607.2324
674.5510, 363.9863
675.7100, 454.6797
676.8690, 379.7148
678.0280, 505.3281
679.1860, 347.2246
680.3450, 430.9414
681.5030, 260.3203
682.6610, 307.9766
683.8190, 352.9570
684.9770, 148.4004
686.1340, 167.3711
687.2920, 83.77344
688.4490, 195.4395
689.6060, 259.6133
690.7630, 91.99414
691.9200, 87.94531
693.0760, 361.7402
694.2330, 295.4902
695.3890, 135.8594
696.5450, 170.1797
697.7010, 17.33398
698.8570, 58.31641
700.0130, 150.8711
701.1680, 27.89453
702.3230, 4.509766
703.4780, 205.9551
704.6330, 176.6172
705.7880, 91.43555
706.9430, 1.210938
708.0970, 164.5566
709.2520, 75.91797
710.4060, 60.68555
711.5600, 59.55273
712.7140, 84.13672
713.8670, 95.53320
715.0210, 93.15430
716.1740, 51.98438
717.3270, 10.62695
718.4800, 47.36719
719.6330, 34.93555
720.7860, 119.3125
721.9380, 30.18945
723.0910, 79.64844
724.2430, 61.07422
725.3950, 191.4609
726.5470, 204.1836
727.6980, 19.00977
728.8500, 141.1543
730.0010, 19.73242
731.1530, 191.3145
732.3040, 4.332031
733.4550, 63.29688
734.6050, 54.22461
735.7560, 75.12695
736.9060, 110.9551
738.0560, 171.8301
739.2060, 169.6387
740.3560, 128.4160
741.5060, 149.1660
742.6560, 12.11523
743.8050, 150.5430
744.9540, 7.826172
746.1030, 37.25586
747.2520, 274.2402
748.4010, 96.70898
749.5500, 129.1504
750.6980, 276.5625
751.8460, 34.94922
752.9950, 145.2949
754.1420, 159.6133
755.2900, 180.9023
756.4380, 133.1680
757.5850, 4.406250
758.7330, 142.5957
759.8800, 85.75586
761.0270, 327.8887
762.1730, 169.9961
763.3200, 255.0762
764.4670, 300.1328
765.6130, 141.1680
766.7590, 435.1719
767.9050, 43.15625
769.0510, 307.1035
770.1960, 67.03125
771.3420, 226.9277
772.4870, 246.8047
773.6320, 2.658203
774.7770, 110.4629
775.9220, 108.2461
777.0670, 273.0020
778.2110, 122.7383
779.3560, 289.4512
780.5000, 307.1387
781.6440, 340.7695
782.7880, 545.4141
783.9320, 321.9121
785.0750, 457.5117
786.2180, 888.9551
787.3620, 697.5137
788.5050, 771.5762
789.6480, 648.0879
790.7900, 1003.857
791.9330, 907.6816
793.0750, 1320.129
794.2170, 1032.557
795.3590, 1193.965
796.5010, 1280.645
797.6430, 1441.297
798.7850, 1381.990
799.9260, 1301.350
801.0670, 1652.691
802.2080, 1600.014
803.3490, 1815.322
804.4900, 1795.611
805.6310, 1716.883
806.7710, 1883.135
807.9110, 1890.596
809.0510, 1687.820
810.1910, 1754.139
811.3310, 1704.344
812.4710, 1795.531
813.6100, 1795.703
814.7490, 1650.857
815.8880, 1704.998
817.0270, 1645.121
818.1660, 1457.229
819.3050, 1527.299
820.4430, 1380.395
821.5820, 1279.473
822.7200, 1561.062
823.8580, 1324.715
824.9950, 1386.984
826.1330, 1159.742
827.2710, 1235.756
828.4080, 904.0566
829.5450, 943.3242
830.6820, 807.2930
831.8190, 692.2461
832.9560, 862.6836
834.0920, 657.2539
835.2280, 697.6934
836.3650, 466.5664
837.5010, 445.0449
838.6360, 552.7930
839.7720, 452.5469
840.9080, 467.2227
842.0430, 416.5645
843.1780, 580.7441
844.3130, 436.2129
845.4480, 466.7031
846.5830, 691.7773
847.7170, 465.5605
848.8520, 368.4141
849.9860, 406.7129
851.1200, 250.9277
852.2540, 232.1289
853.3870, 603.8555
854.5210, 635.0332
855.6540, 499.6289
856.7880, 360.9707
857.9210, 608.0156
859.0540, 548.0488
860.1860, 633.1523
861.3190, 610.0410
862.4510, 658.6289
863.5840, 394.3457
864.7160, 594.9219
865.8480, 216.3008
866.9790, 182.6133
868.1110, 709.2031
869.2420, 140.0449
870.3740, 384.0039
871.5050, 343.7988
872.6360, 362.8984
873.7660, 477.1660
874.8970, 376.6973
876.0280, 79.22070
877.1580, 143.5820
878.2880, 105.0352
879.4180, 152.9609
880.5480, 211.7812
881.6770, 98.65820
882.8070, 333.0547
883.9360, 338.7754
885.0650, 375.0449
886.1940, 312.4590
887.3230, 184.1973
888.4520, 386.6758
889.5800, 66.19336
890.7090, 98.78320
891.8370, 101.4688
892.9650, 337.9766
894.0930, 316.2266
895.2200, 96.80469
896.3480, 98.15234
897.4750, 16.93750
898.6020, 32.55469
899.7290, 77.46094
900.8560, 206.2578
901.9830, 203.8906
903.1090, 203.8477
904.2360, 118.8047
905.3620, 142.7031
906.4880, 104.1602
907.6140, 102.0898
908.7400, 358.0234
909.8650, 115.6680
910.9900, 20.38672
912.1160, 352.1133
913.2410, 135.0742
914.3660, 66.89062
915.4900, 64.89062
916.6150, 196.1055
917.7390, 248.8594
918.8640, 31.17188
919.9880, 62.79297
921.1120, 31.23047
922.2350, 12.74219
923.3590, 223.2773
924.4820, 162.6133
925.6060, 63.49219
926.7290, 16.60938
927.8520, 68.27734
928.9740, 148.1758
930.0970, 73.08984
931.2190, 157.9141
932.3420, 12.97266
933.4640, 43.89844
934.5860, 55.91406
935.7080, 97.86328
936.8290, 105.8242
937.9510, 124.7969
939.0720, 175.7734
940.1930, 135.7617
941.3140, 14.76172
942.4350, 43.23047
943.5560, 270.7773
944.6760, 6.207031
945.7960, 216.8242
946.9170, 296.8711
948.0370, 98.92969
949.1560, 248.0000
950.2760, 246.0781
951.3960, 160.1680
952.5150, 185.2734
953.6340, 38.38672
954.7530, 236.5117
955.8720, 360.6523
956.9910, 36.80078
958.1090, 408.9648
959.2280, 596.1406
960.3460, 348.3320
961.4640, 313.5664
962.5820, 236.8125
963.6990, 293.3320
964.8170, 670.4688
965.9340, 450.8125
967.0510, 675.1758
968.1690, 570.5469
969.2850, 681.9414
970.4020, 144.3555
971.5190, 418.7852
972.6350, 337.2344
973.7510, 88.71875
974.8670, 443.2266
975.9830, 709.7578
977.0990, 808.3594
978.2150, 792.9805
979.3300, 666.6289
980.4450, 1072.293
981.5600, 1118.977
982.6750, 1416.703
983.7900, 1452.477
984.9050, 1703.301
986.0190, 1893.145
987.1340, 1961.000
988.2480, 2472.883
989.3620, 2699.789
990.4750, 3211.711
991.5890, 3497.676
992.7020, 4258.699
993.8160, 4620.750
994.9290, 5401.820
996.0420, 6471.906
997.1550, 7045.012
998.2670, 8061.199
999.3800, 9270.414
1000.492, 10698.64
1001.604, 11878.91
1002.716, 13155.20
1003.828, 14303.51
1004.940, 15491.84
1006.051, 16692.19
1007.163, 17106.56
1008.274, 17958.95
1009.385, 18627.35
1010.496, 18321.77
1011.606, 18306.21
1012.717, 17460.67
1013.827, 16818.16
1014.937, 15456.67
1016.047, 14415.21
1017.157, 12972.80
1018.267, 11900.39
1019.377, 10715.01
1020.486, 9629.586
1021.595, 8491.234
1022.704, 8110.914
1023.813, 6866.602
1024.922, 6738.332
1026.030, 6204.391
1027.139, 6154.137
1028.247, 5967.438
1029.355, 5894.230
1030.463, 5919.285
1031.571, 6019.590
1032.678, 6242.492
1033.786, 6508.816
1034.893, 6852.695
1036.000, 7312.594
1037.107, 7634.336
1038.214, 8151.598
1039.321, 8458.543
1040.427, 9195.438
1041.533, 9199.414
1042.639, 9495.703
1043.745, 10277.72
1044.851, 11106.77
1045.957, 10583.82
1047.062, 10444.89
1048.168, 10913.04
1049.273, 11132.14
1050.378, 11210.71
1051.482, 11432.84
1052.587, 12037.12
1053.692, 12509.29
1054.796, 12826.60
1055.900, 13768.80
1057.004, 14578.64
1058.108, 15749.87
1059.212, 16766.84
1060.315, 17116.74
1061.418, 17675.02
1062.522, 17438.69
1063.625, 17042.72
1064.728, 15516.77
1065.830, 14030.85
1066.933, 12075.91
1068.035, 10438.28
1069.137, 8935.668
1070.239, 7390.078
1071.341, 6147.500
1072.443, 5292.938
1073.545, 4454.391
1074.646, 4076.859
1075.747, 3298.125
1076.848, 2966.625
1077.949, 2931.035
1079.050, 2499.750
1080.150, 2312.297
1081.251, 2029.871
1082.351, 1881.469
1083.451, 1679.074
1084.551, 1860.703
1085.651, 1411.340
1086.750, 1520.996
1087.850, 1434.668
1088.949, 1159.355
1090.048, 1169.059
1091.147, 1145.773
1092.246, 756.5117
1093.345, 1017.582
1094.443, 870.3516
1095.541, 917.9102
1096.639, 700.7031
1097.737, 642.5117
1098.835, 861.3398
1099.933, 740.1758
1101.030, 846.0273
1102.128, 654.8945
1103.225, 830.7773
1104.322, 723.6680
1105.419, 1037.578
1106.515, 925.5000
1107.612, 692.4414
1108.708, 824.3945
1109.804, 906.3594
1110.900, 857.3320
1111.996, 1022.328
1113.092, 787.3320
1114.187, 1098.352
1115.283, 1098.383
1116.378, 1043.430
1117.473, 1157.484
1118.568, 1098.363
1119.662, 1055.637
1120.757, 1056.730
1121.851, 1053.844
1122.946, 1010.973
1124.040, 1037.059
1125.134, 878.2578
1126.227, 1009.422
1127.321, 1018.594
1128.414, 886.7812
1129.508, 926.9766
1130.601, 825.1875
1131.693, 759.4102
1132.786, 775.6406
1133.879, 438.8828
1134.971, 653.1445
1136.064, 436.4102
1137.156, 515.6875
1138.248, 476.9766
1139.339, 438.2773
1140.431, 34.58984
1141.522, 12.08203
1142.614, 141.2422
1143.705, 178.5820
1144.796, 311.9297
1145.887, 108.2852
1146.977, 109.6562
1148.068, 192.0352
1149.158, 53.46484
1150.248, 243.9102
1151.338, 46.64062
1152.428, 237.8320
1153.518, 119.3125
1154.607, 264.8047
1155.696, 13.30469
1156.785, 34.18750
1157.874, 38.30859
1158.963, 37.34375
1160.052, 243.3086
1161.141, 6.816406
1162.229, 147.3203
1163.317, 130.8398
1164.405, 21.37109
1165.493, 128.9062
1166.581, 133.4805
1167.668, 306.9375
1168.756, 6.492188
1169.843, 154.9336
1170.930, 78.60938
1172.017, 306.8047
1173.103, 11.77344
1174.190, 92.65234
1175.276, 24.08203
1176.363, 67.52344
1177.449, 239.9727
1178.535, 79.56641
1179.620, 130.8555
1180.706, 136.7148
1181.791, 72.69531
1182.877, 91.11328
1183.962, 125.5430
1185.047, 166.9883
1186.131, 209.4414
1187.216, 13.90625
1188.300, 39.42578
1189.385, 352.9570
1190.469, 50.50781
1191.553, 355.0664
1192.637, 29.36328
1193.720, 268.8086
1194.804, 69.60938
1195.887, 232.0781
1196.970, 357.5469
1198.053, 456.3398
1199.136, 593.2891
1200.219, 649.1445
1201.301, 760.5469
1202.383, 751.0664
1203.465, 684.5977
1204.547, 705.0859
1205.629, 139.6875
1206.711, 458.2461
1207.792, 229.8164
1208.874, 24.60547
1209.955, 71.96094
1211.036, 158.8359
1212.117, 314.4180
1213.198, 391.0078
1214.278, 291.6055
1215.359, 263.2148
1216.439, 224.8320
1217.519, 95.45312
1218.599, 83.08203
1219.678, 387.7227
1220.758, 115.3711
1221.837, 333.0273
1222.917, 95.31641
1223.996, 252.3008
1225.075, 201.0742
1226.153, 153.4453
1227.232, 117.9727
1228.310, 67.50391
1229.389, 225.0508
1230.467, 186.5977
1231.545, 320.1562
1232.622, 433.7227
1233.700, 262.2969
1234.777, 192.8750
1235.855, 196.4648
1236.932, 320.0586
1238.009, 167.6641
1239.086, 268.2773
1240.162, 341.8945
1241.239, 379.5195
1242.315, 416.1523
1243.391, 513.7930
1244.467, 204.4453
1245.543, 159.0977
1246.619, 362.7539
1247.694, 300.4258
1248.769, 370.1055
1249.844, 333.7852
1250.919, 307.3555
1251.994, 316.0508
1253.069, 363.7539
1254.144, 311.4648
1255.218, 545.1836
1256.292, 159.9062
1257.366, 182.6328
1258.440, 462.3711
1259.514, 128.1172
1260.587, 395.8711
1261.661, 189.6250
1262.734, 485.4258
1263.807, 424.2344
1264.880, 262.0508
1265.952, 610.8711
1267.025, 523.6953
1268.097, 484.5312
1269.170, 764.7305
1270.242, 592.5820
