##NAMES=Montebrasite
##RRUFFID=R040062
##IDEAL CHEMISTRY=LiAlPO_4_(OH)
##LOCALITY=Hebron, Maine, USA
##OWNER=RRUFF
##SOURCE=University of Arizona Mineral Museum
##DESCRIPTION=White massive
##STATUS=The identification of this mineral has been confirmed by X-ray diffraction and chemical analysis
##URL=rruff.info/R040062
##MEASURED CHEMISTRY=LiAl(PO_4_)((OH)_0.62_F_0.38_)
##PIN_ID=L00090
##ORIENTATION=Laser parallel to -b* (0 -1 0). Fiducial mark perpendicular to laser is parallel to c [0 0 1]
125.892, 0.000
127.286, 272.732
128.681, 567.231
130.075, 983.137
131.469, 1015.087
132.862, 1120.576
134.256, 1369.223
135.649, 985.690
137.042, 866.583
138.435, 640.015
139.827, 445.460
141.219, 142.367
142.611, 101.057
144.003, 191.470
145.394, 57.427
146.786, 44.356
148.177, 26.634
149.567, 109.770
150.958, 74.205
152.348, 138.281
153.738, 102.428
155.128, 216.399
156.517, 240.210
157.907, 403.764
159.296, 594.478
160.685, 582.849
162.073, 624.951
163.462, 746.970
164.850, 772.462
166.237, 663.914
167.625, 800.401
169.012, 651.693
170.400, 665.572
171.786, 466.532
173.173, 408.836
174.559, 378.214
175.946, 318.785
177.332, 268.908
178.717, 189.138
180.103, 103.935
181.488, 142.435
182.873, 152.655
184.258, 42.980
185.642, 236.627
187.026, 147.072
188.410, 217.614
189.794, 70.218
191.178, 120.916
192.561, 48.293
193.944, 6.291
195.327, 53.559
196.709, 64.611
198.092, 45.744
199.474, 116.958
200.856, 158.246
202.237, 69.606
203.618, 48.964
205.000, 52.535
206.380, 154.099
207.761, 14.273
209.142, 147.402
210.522, 19.104
211.902, 160.850
213.281, 57.352
214.661, 114.496
216.040, 106.396
217.419, 188.350
218.798, 39.658
220.176, 67.629
221.554, 174.449
222.932, 83.424
224.310, 28.748
225.688, 19.035
227.065, 43.221
228.442, 85.514
229.819, 67.842
231.196, 180.205
232.572, 27.400
233.948, 145.025
235.324, 12.525
236.700, 40.049
238.075, 32.455
239.450, 174.984
240.825, 7.537
242.200, 20.094
243.574, 2.639
244.948, 24.783
246.322, 137.822
247.696, 20.547
249.070, 93.381
250.443, 126.311
251.816, 59.260
253.189, 17.750
254.561, 35.279
255.933, 48.285
257.306, 21.338
258.677, 64.422
260.049, 157.557
261.420, 10.713
262.791, 93.871
264.162, 127.033
265.533, 330.217
266.903, 183.475
268.274, 116.756
269.643, 330.047
271.013, 363.354
272.383, 346.674
273.752, 350.008
275.121, 443.359
276.490, 366.730
277.858, 450.117
279.226, 483.523
280.595, 596.947
281.962, 630.387
283.330, 623.842
284.697, 617.318
286.064, 910.809
287.431, 1034.314
288.798, 1297.836
290.164, 1701.369
291.530, 2013.574
292.896, 2976.330
294.262, 3609.383
295.627, 5052.625
296.993, 6065.980
298.358, 6989.428
299.722, 7592.953
301.087, 7626.428
302.451, 6969.967
303.815, 6073.559
305.179, 5557.197
306.543, 4710.867
307.906, 4324.568
309.269, 4048.289
310.632, 3660.463
311.995, 3224.211
313.357, 2967.975
314.719, 2521.742
316.081, 2245.512
317.443, 1819.285
318.804, 1783.061
320.166, 1466.836
321.527, 1420.615
322.887, 1374.400
324.248, 1228.115
325.608, 1281.809
326.968, 1125.514
328.328, 1129.229
329.688, 962.896
331.047, 1006.576
332.406, 890.246
333.765, 673.930
335.124, 817.570
336.482, 701.229
337.840, 464.807
339.198, 638.334
340.556, 521.863
341.913, 605.410
343.271, 388.979
344.628, 492.541
345.984, 296.084
347.341, 479.646
348.697, 333.227
350.053, 426.807
351.409, 470.404
352.765, 354.020
354.120, 407.645
355.475, 491.281
356.830, 471.375
358.185, 493.828
359.539, 197.775
360.894, 411.660
362.248, 445.705
363.601, 239.434
364.955, 463.408
366.308, 351.990
367.661, 420.932
369.014, 494.711
370.367, 268.885
371.719, 434.018
373.071, 457.834
374.423, 371.662
375.775, 505.555
377.126, 471.334
378.478, 585.199
379.828, 320.715
381.179, 384.605
382.530, 356.252
383.880, 556.717
385.230, 287.480
386.580, 376.795
387.929, 360.742
389.279, 491.541
390.628, 505.504
391.977, 289.479
393.325, 393.617
394.674, 338.006
396.022, 350.562
397.370, 504.617
398.718, 347.988
400.065, 340.473
401.413, 224.594
402.760, 250.984
404.106, 318.930
405.453, 193.307
406.799, 338.562
408.146, 301.551
409.491, 395.756
410.837, 239.967
412.182, 164.180
413.528, 178.400
414.873, 172.621
416.217, 248.055
417.562, 350.350
418.906, 464.615
420.250, 678.934
421.594, 803.256
422.938, 1117.580
424.281, 1411.951
425.624, 1716.322
426.967, 1710.697
428.310, 1715.074
429.652, 1069.457
430.994, 893.836
432.336, 668.215
433.678, 382.594
435.020, 266.977
436.361, 187.117
437.702, 365.740
439.043, 220.121
440.383, 214.504
441.724, 348.889
443.064, 233.271
444.404, 197.656
445.743, 242.037
447.083, 306.420
448.422, 180.799
449.761, 395.176
451.100, 159.553
452.438, 273.928
453.777, 178.309
455.115, 72.691
456.453, 167.072
457.790, 81.504
459.128, 235.934
460.465, 310.361
461.802, 214.818
463.139, 369.271
464.475, 354.291
465.811, 508.207
467.147, 392.668
468.483, 377.127
469.819, 341.582
471.154, 396.064
472.489, 560.551
473.824, 455.033
475.159, 399.508
476.493, 763.979
477.827, 668.447
479.161, 932.908
480.495, 917.363
481.829, 801.812
483.162, 836.258
484.495, 770.697
485.828, 685.129
487.161, 1039.555
488.493, 783.979
489.825, 658.400
491.157, 692.816
492.489, 407.227
493.820, 541.629
495.151, 766.023
496.482, 330.414
497.813, 604.799
499.144, 619.178
500.474, 643.553
501.804, 567.920
503.134, 412.281
504.464, 586.637
505.793, 431.002
507.123, 455.363
508.451, 309.719
509.780, 444.066
511.109, 288.428
512.437, 242.783
513.765, 147.131
515.093, 101.471
516.421, 125.803
517.748, 58.652
519.075, 14.482
520.402, 28.809
521.729, 12.705
523.055, 247.430
524.382, 21.727
525.708, 63.988
527.034, 120.557
528.359, 164.420
529.685, 151.418
531.010, 27.352
532.335, 237.154
533.659, 91.182
534.984, 75.199
536.308, 69.596
537.632, 364.369
538.956, 9.688
540.279, 194.260
541.603, 79.482
542.926, 23.463
544.249, 91.139
545.571, 122.771
546.894, 147.172
548.216, 108.922
549.538, 274.914
550.860, 150.352
552.181, 78.203
553.503, 35.971
554.824, 119.770
556.145, 113.754
557.465, 107.531
558.786, 44.926
560.106, 169.361
561.426, 6.898
562.746, 30.791
564.065, 82.863
565.385, 17.240
566.704, 230.852
568.023, 154.260
569.341, 277.846
570.660, 361.566
571.978, 311.881
573.296, 319.191
574.614, 313.062
575.931, 284.803
577.248, 358.295
578.565, 413.682
579.882, 383.520
581.199, 261.199
582.515, 414.543
583.831, 317.945
585.147, 441.723
586.463, 385.996
587.779, 519.338
589.094, 392.660
590.409, 525.967
591.724, 639.250
593.038, 662.512
594.353, 935.754
595.667, 1319.678
596.981, 1732.908
598.295, 2126.406
599.608, 2569.924
600.922, 2903.064
602.235, 2768.182
603.547, 2570.041
604.860, 2263.117
606.172, 1786.172
607.485, 1429.420
608.797, 1352.602
610.108, 1185.594
611.420, 938.854
612.731, 811.801
614.042, 674.729
615.353, 605.225
616.664, 642.598
617.974, 575.457
619.284, 685.369
620.594, 788.184
621.904, 654.932
623.213, 977.699
624.523, 770.709
625.832, 833.428
627.141, 1036.125
628.449, 1256.594
629.758, 1309.244
631.066, 1511.867
632.374, 1624.678
633.681, 1617.256
634.989, 1689.807
636.296, 2222.414
637.603, 2514.916
638.910, 3147.395
640.217, 4259.848
641.523, 5812.277
642.829, 6864.680
644.135, 8567.061
645.441, 8939.902
646.747, 8502.949
648.052, 7515.262
649.357, 6097.551
650.662, 4519.812
651.967, 3262.051
653.271, 2754.264
654.575, 1916.449
655.879, 1809.090
657.183, 1411.227
658.486, 1213.338
659.790, 1125.428
661.093, 1037.490
662.396, 877.510
663.698, 795.744
665.001, 627.732
666.303, 539.693
667.605, 476.643
668.907, 558.555
670.209, 610.438
671.510, 392.516
672.811, 524.348
674.112, 326.154
675.413, 468.148
676.713, 489.641
678.013, 321.184
679.313, 332.557
680.613, 296.020
681.913, 275.648
683.212, 262.443
684.511, 307.602
685.810, 309.172
687.109, 330.338
688.407, 129.246
689.706, 300.738
691.004, 472.205
692.302, 63.596
693.599, 299.658
694.897, 36.045
696.194, 295.750
697.491, 63.555
698.788, 368.248
700.084, 59.133
701.380, 373.516
702.677, 124.711
703.972, 295.902
705.268, 339.893
706.564, 41.010
707.859, 7.914
709.154, 7.035
710.449, 327.553
711.743, 188.486
713.037, 489.377
714.332, 159.779
715.626, 90.537
716.919, 411.250
718.213, 19.674
719.506, 436.512
720.799, 76.969
722.092, 406.455
723.384, 102.977
724.677, 277.484
725.969, 187.924
727.261, 99.609
728.553, 240.000
729.844, 140.365
731.136, 79.295
732.427, 340.953
733.718, 138.824
735.008, 371.277
736.299, 81.357
737.589, 108.592
738.879, 411.355
740.169, 121.277
741.458, 51.174
742.748, 261.043
744.037, 220.891
745.326, 210.717
746.614, 210.520
747.903, 260.305
749.191, 210.068
750.479, 59.811
751.767, 199.527
753.055, 129.221
754.342, 118.895
755.629, 228.543
756.916, 48.172
758.203, 347.771
759.490, 217.355
760.776, 236.918
762.062, 146.461
763.348, 155.984
764.634, 335.486
765.919, 124.969
767.204, 364.430
768.489, 343.871
769.774, 156.705
771.059, 532.596
772.343, 231.879
773.627, 78.857
774.911, 460.324
776.195, 30.510
777.479, 258.604
778.762, 117.699
780.045, 226.771
781.328, 395.830
782.611, 95.131
783.893, 263.824
785.175, 322.762
786.457, 121.686
787.739, 290.588
789.021, 399.473
790.302, 148.346
791.583, 207.199
792.864, 176.035
794.145, 444.859
795.425, 173.668
796.706, 252.459
797.986, 681.238
799.266, 40.000
800.545, 10.332
801.825, 339.055
803.104, 237.762
804.383, 526.453
805.662, 185.133
806.940, 343.797
808.219, 182.449
809.497, 31.086
810.775, 519.703
812.053, 158.312
813.330, 217.328
814.608, 545.910
815.885, 55.523
817.162, 542.992
818.438, 471.496
819.715, 659.984
820.991, 71.539
822.267, 296.883
823.543, 235.293
824.818, 73.691
826.094, 282.074
827.369, 240.453
828.644, 58.812
829.919, 347.164
831.193, 185.504
832.468, 223.836
833.742, 280.699
835.016, 210.469
836.289, 398.773
837.563, 32.910
838.836, 205.418
840.109, 133.738
841.382, 312.094
842.654, 139.980
843.927, 138.328
845.199, 216.695
846.471, 203.852
847.743, 87.777
849.014, 398.574
850.286, 113.109
851.557, 66.070
852.828, 502.188
854.099, 139.023
855.369, 287.301
856.639, 75.086
857.909, 16.648
859.179, 531.641
860.449, 258.305
861.718, 412.535
862.988, 83.105
864.257, 185.184
865.525, 473.293
866.794, 61.594
868.062, 316.258
869.331, 623.879
870.599, 142.172
871.866, 478.074
873.134, 26.395
874.401, 533.977
875.668, 352.383
876.935, 370.980
878.202, 369.387
879.468, 42.355
880.735, 245.520
882.001, 133.914
883.267, 61.969
884.532, 272.137
885.798, 460.539
887.063, 217.031
888.328, 425.434
889.593, 33.219
890.857, 321.703
892.122, 510.121
893.386, 358.141
894.650, 635.648
895.913, 204.078
897.177, 252.508
898.440, 390.938
899.703, 139.383
900.966, 437.832
902.229, 666.285
903.491, 164.043
904.754, 712.477
906.016, 110.637
907.278, 268.758
908.539, 457.246
909.801, 294.980
911.062, 403.480
912.323, 221.992
913.584, 540.508
914.844, 318.820
916.105, 357.180
917.365, 305.723
918.625, 267.840
919.885, 412.531
921.144, 261.094
922.404, 167.578
923.663, 116.156
924.922, 454.738
926.180, 316.254
927.439, 364.852
928.697, 49.500
929.955, 568.117
931.213, 166.473
932.471, 125.109
933.728, 483.754
934.985, 434.605
936.242, 283.285
937.499, 391.965
938.756, 150.453
940.012, 389.199
941.269, 437.949
942.525, 296.637
943.780, 345.410
945.036, 94.195
946.291, 312.992
947.546, 361.797
948.801, 220.617
950.056, 719.453
951.311, 82.188
952.565, 595.945
953.819, 494.801
955.073, 313.660
956.327, 502.535
957.580, 271.414
958.834, 300.312
960.087, 449.215
961.339, 127.652
962.592, 826.566
963.845, 34.512
965.097, 474.418
966.349, 253.359
967.601, 328.102
968.852, 477.059
970.104, 86.031
971.355, 405.012
972.606, 589.000
973.857, 208.016
975.107, 257.047
976.358, 465.875
977.608, 374.941
978.858, 814.020
980.108, 562.859
981.357, 621.973
982.607, 901.105
983.856, 550.258
985.105, 1499.426
986.353, 798.613
987.602, 1467.816
988.850, 1496.102
990.098, 1195.348
991.346, 1974.609
992.594, 2173.895
993.841, 2143.195
995.089, 2787.570
996.336, 2836.910
997.583, 3626.277
998.829, 4050.656
1000.076, 4220.070
1001.322, 6062.805
1002.568, 6578.973
1003.814, 7408.449
1005.060, 8207.957
1006.305, 8857.480
1007.550, 10127.125
1008.795, 10825.836
1010.040, 11055.422
1011.285, 11265.043
1012.529, 10388.934
1013.773, 10274.637
1015.017, 9197.777
1016.261, 8147.520
1017.505, 7267.273
1018.748, 6217.484
1019.991, 5467.359
1021.234, 4747.250
1022.477, 4187.172
1023.719, 3627.059
1024.962, 3407.402
1026.204, 2877.402
1027.446, 2807.469
1028.688, 2388.262
1029.929, 2377.105
1031.170, 2537.238
1032.411, 2327.402
1033.652, 2587.590
1034.893, 2157.840
1036.134, 2458.113
1037.374, 2648.461
1038.614, 2868.840
1039.854, 2829.246
1041.094, 3689.723
1042.333, 3370.227
1043.572, 3900.758
1044.811, 4191.855
1046.050, 4212.449
1047.289, 4923.062
1048.527, 5223.715
1049.766, 5824.398
1051.004, 6455.109
1052.241, 7025.852
1053.479, 8296.613
1054.717, 9057.555
1055.954, 10668.328
1057.191, 12529.125
1058.428, 12470.836
1059.664, 14361.590
1060.901, 13912.371
1062.137, 13173.180
1063.373, 11404.023
1064.609, 8974.719
1065.844, 7415.391
1067.080, 6096.094
1068.315, 5057.203
1069.550, 4087.945
1070.785, 3168.430
1072.019, 2688.988
1073.254, 2539.547
1074.488, 1790.121
1075.722, 1910.742
1076.955, 1451.383
1078.189, 1302.051
1079.422, 1632.727
1080.656, 863.410
1081.889, 1154.102
1083.121, 1194.793
1084.354, 798.484
1085.586, 1019.219
1086.818, 879.953
1088.050, 1159.957
1089.282, 880.680
1090.514, 611.402
1091.745, 752.141
1092.976, 606.066
1094.207, 653.801
1095.438, 824.566
1096.668, 605.348
1097.899, 1057.789
1099.129, 948.613
1100.359, 677.750
1101.588, 1278.488
1102.818, 758.793
1104.047, 1099.074
1105.276, 1560.090
1106.505, 1690.266
1107.734, 1560.336
1108.962, 1840.191
1110.191, 1399.977
1111.419, 1729.551
1112.647, 1718.578
1113.874, 1379.180
1115.102, 1737.215
1116.329, 1248.594
1117.556, 1320.012
1118.783, 1611.523
1120.010, 1113.082
1121.236, 1444.680
1122.463, 1316.328
1123.689, 1108.020
1124.914, 1259.754
1126.140, 1034.367
1127.366, 1223.379
1128.591, 795.270
1129.816, 857.145
1131.041, 759.102
1132.266, 411.113
1133.490, 663.191
1134.714, 695.324
1135.938, 22.496
1137.162, 879.738
1138.386, 341.906
1139.609, 544.102
1140.833, 716.340
1142.056, 91.371
1143.279, 870.961
1144.501, 233.129
1145.724, 575.336
1146.946, 787.594
1148.168, 160.109
1149.390, 92.230
1150.612, 534.613
1151.833, 237.035
1153.054, 429.496
1154.275, 121.992
1155.496, 194.523
1156.717, 477.098
1157.937, 369.707
1159.158, 217.645
1160.378, 975.039
1161.598, 42.242
1162.817, 490.512
1164.037, 273.316
1165.256, 96.164
1166.475, 429.059
1167.694, 232.008
1168.913, 295.016
1170.131, 768.070
1171.349, 298.812
1172.567, 654.363
1173.785, 417.555
1175.003, 60.742
1176.220, 463.918
1177.438, 457.156
1178.655, 560.453
1179.872, 733.805
1181.088, 527.223
1182.305, 580.730
1183.521, 784.316
1184.737, 457.996
1185.953, 871.789
1187.169, 915.703
1188.384, 699.746
1189.599, 1253.898
1190.814, 148.129
1192.029, 1092.449
1193.244, 986.844
1194.459, 451.328
1195.673, 715.895
1196.887, 1030.543
1198.101, 565.285
1199.314, 1087.676
1200.528, 282.539
1201.741, 1095.027
1202.954, 899.816
1204.167, 144.691
1205.380, 1203.418
1206.592, 497.895
1207.805, 542.090
1209.017, 1066.699
1210.229, 320.387
1211.440, 614.027
1212.652, 977.527
1213.863, 209.891
1215.074, 723.367
1216.285, 940.145
1217.496, 551.715
1218.707, 470.734
1219.917, 741.961
1221.127, 653.020
1222.337, 823.875
1223.547, 604.508
1224.756, 604.863
1225.966, 722.676
1227.175, 362.277
1228.384, 791.453
1229.592, 0.137
1230.801, 767.656
1232.009, 1145.801
1233.217, 100.742
1234.425, 677.082
1235.633, 425.195
1236.841, 754.277
1238.048, 630.375
1239.255, 242.078
1240.462, 923.863
1241.669, 565.621
1242.876, 57.418
1244.082, 789.504
1245.288, 483.660
1246.494, 344.219
1247.700, 509.836
1248.906, 400.379
1250.111, 56.129
1251.316, 740.266
1252.521, 158.340
1253.726, 307.320
1254.931, 446.391
1256.135, 203.527
1257.339, 309.859
1258.543, 1.758
1259.747, 0.000
##END=



