##NAMES=Montebrasite
##RRUFFID=R060890
##IDEAL CHEMISTRY=LiAlPO_4_(OH)
##LOCALITY=Mount Marie, Paris, Maine, USA
##OWNER=RRUFF
##SOURCE=Bob Jenkins
##DESCRIPTION=Colorless massive
##STATUS=The identification of this mineral is confirmed by single-crystal X-ray diffraction and chemical analysis.
##URL=rruff.info/R060890
##MEASURED CHEMISTRY=Li_1.00_Al_1.00_(P_1.00_O_4_)(OH)_0.63_F_0.37_)_Î£=1_ ; Li not measured but estimated by stoichiometry
##PIN_ID=M01846
##ORIENTATION=Laser parallel to (1 -1 0). Fiducial mark perpendicular to laser is parallel to c [0 0 1]
90.67800, 0.0000000E+00
91.91600, 41.53027
93.15500, 28.29004
94.39300, 116.3650
95.63100, 3.148193
96.86900, 61.16309
98.10600, 45.74805
99.34400, 79.71533
100.5810, 111.7349
101.8190, 144.3887
103.0560, 126.4233
104.2930, 247.6890
105.5290, 259.6033
106.7660, 289.6624
108.0020, 406.6157
109.2390, 471.7664
110.4750, 523.6829
111.7110, 644.2642
112.9460, 683.6626
114.1820, 817.8823
115.4170, 946.9355
116.6530, 1045.862
117.8880, 1322.735
119.1230, 1435.576
120.3580, 1715.037
121.5920, 1918.930
122.8270, 2316.023
124.0610, 2729.410
125.2950, 2949.091
126.5290, 3415.369
127.7630, 3931.740
128.9970, 4360.677
130.2300, 4636.183
131.4640, 4805.787
132.6970, 4650.487
133.9300, 4094.803
135.1630, 3350.696
136.3950, 2575.622
137.6280, 2036.633
138.8600, 1481.727
140.0920, 1142.901
141.3240, 647.1528
142.5560, 477.4802
143.7880, 346.8792
145.0190, 251.8262
146.2510, 115.3271
147.4820, 89.03931
148.7130, 39.33057
149.9440, 26.36401
151.1750, 14.12231
152.4050, 70.05615
153.6360, 26.17188
154.8660, 1.774414
156.0960, 14.78149
157.3260, 26.84912
158.5560, 3.020752
159.7850, 24.20239
161.0150, 33.49854
162.2440, 4.144043
163.4730, 31.26562
164.7020, 148.7231
165.9310, 14.79590
167.1590, 114.7070
168.3880, 81.23511
169.6160, 63.79346
170.8440, 55.38354
172.0720, 30.81104
173.3000, 21.26245
174.5280, 6.356934
175.7550, 4.914795
176.9820, 2.849609
178.2100, 10.35010
179.4370, 76.48657
180.6630, 13.35645
181.8900, 75.25928
183.1170, 62.19482
184.3430, 108.1628
185.5690, 14.16382
186.7950, 148.1978
188.0210, 120.2649
189.2470, 196.3655
190.4720, 134.4998
191.6970, 94.66772
192.9230, 6.869873
194.1480, 16.07617
195.3730, 40.29297
196.5970, 13.50098
197.8220, 16.25562
199.0460, 9.980957
200.2700, 17.30859
201.4940, 3.632324
202.7180, 4.015137
203.9420, 14.47607
205.1660, 77.79785
206.3890, 39.25879
207.6120, 71.75317
208.8350, 91.27881
210.0580, 196.8406
211.2810, 223.4377
212.5040, 300.0703
213.7260, 352.7378
214.9480, 438.4402
216.1700, 409.1775
217.3920, 420.9492
218.6140, 497.7505
219.8360, 537.5845
221.0570, 494.4517
222.2790, 546.3530
223.5000, 523.2886
224.7210, 452.2573
225.9410, 538.4543
227.1620, 573.1021
228.3820, 467.1038
229.6030, 473.1809
230.8230, 543.2913
232.0430, 422.4338
233.2630, 478.6089
234.4820, 444.8159
235.7020, 391.0542
236.9210, 393.3242
238.1400, 349.8623
239.3590, 401.3872
240.5780, 417.8833
241.7970, 321.4536
243.0150, 265.7646
244.2340, 300.4507
245.4520, 270.1863
246.6700, 233.9626
247.8880, 341.7883
249.1060, 237.6494
250.3230, 344.5605
251.5400, 337.5010
252.7580, 307.4912
253.9750, 327.5005
255.1920, 342.5508
256.4080, 422.6501
257.6250, 500.7852
258.8410, 584.9526
260.0580, 718.1406
261.2740, 840.0037
262.4900, 1004.600
263.7050, 1137.863
264.9210, 1334.159
266.1360, 1496.488
267.3520, 1657.793
268.5670, 1853.969
269.7820, 2067.306
270.9960, 2219.603
272.2110, 2313.924
273.4250, 2395.301
274.6400, 2408.585
275.8540, 2420.952
277.0680, 2389.349
278.2810, 2320.774
279.4950, 2261.228
280.7090, 2274.705
281.9220, 2404.204
283.1350, 2488.732
284.3480, 2595.286
285.5610, 2764.867
286.7730, 3212.474
287.9860, 3658.105
289.1980, 4323.763
290.4100, 5292.444
291.6220, 6411.144
292.8340, 7649.868
294.0460, 9470.614
295.2570, 11472.99
296.4690, 13913.79
297.6800, 16650.61
298.8910, 19481.48
300.1020, 21796.84
301.3120, 23590.57
302.5230, 23296.48
303.7330, 22275.41
304.9440, 19349.09
306.1540, 16576.06
307.3630, 13600.42
308.5730, 11145.17
309.7830, 9263.214
310.9920, 7897.277
312.2010, 6748.714
313.4100, 5770.820
314.6190, 5133.949
315.8280, 4558.098
317.0370, 4171.267
318.2450, 3552.458
319.4530, 3113.669
320.6610, 2602.902
321.8690, 2295.998
323.0770, 1949.272
324.2850, 1613.252
325.4920, 1529.566
326.6990, 1218.900
327.9060, 1139.254
329.1130, 973.6274
330.3200, 876.0212
331.5270, 817.4346
332.7330, 662.8674
333.9390, 627.3198
335.1450, 660.7915
336.3510, 525.2825
337.5570, 540.7925
338.7630, 469.3215
339.9680, 342.8696
341.1740, 337.4365
342.3790, 285.0227
343.5840, 258.2625
344.7890, 241.7007
345.9930, 157.3433
347.1980, 150.0049
348.4020, 118.6287
349.6060, 38.32715
350.8100, 19.04443
352.0140, 25.77954
353.2180, 33.53296
354.4210, 23.30444
355.6250, 75.09375
356.8280, 14.90112
358.0310, 16.27417
359.2340, 13.56689
360.4360, 35.57471
361.6390, 7.298340
362.8410, 14.81201
364.0430, 70.90649
365.2450, 34.00806
366.4470, 44.93945
367.6490, 34.88721
368.8510, 66.85083
370.0520, 30.83057
371.2530, 42.82544
372.4540, 134.8330
373.6550, 203.8469
374.8560, 206.8762
376.0560, 228.9211
377.2570, 194.9812
378.4570, 176.0566
379.6570, 218.1462
380.8570, 209.2512
382.0570, 259.3701
383.2560, 301.5076
384.4560, 249.6633
385.6550, 219.8372
386.8540, 222.0291
388.0530, 230.2639
389.2520, 246.8979
390.4510, 308.9111
391.6490, 322.1836
392.8470, 389.9192
394.0450, 454.6450
395.2430, 467.9551
396.4410, 578.5723
397.6390, 543.2100
398.8360, 525.0947
400.0340, 648.0288
401.2310, 707.6172
402.4280, 745.0574
403.6250, 807.6443
404.8210, 910.4233
406.0180, 985.8608
407.2140, 1085.505
408.4100, 1310.174
409.6060, 1495.143
410.8020, 1777.654
411.9980, 2294.969
413.1930, 2771.217
414.3890, 3480.764
415.5840, 4627.518
416.7790, 5930.194
417.9740, 7603.641
419.1680, 9664.512
420.3630, 12209.64
421.5570, 15728.23
422.7510, 20346.83
423.9450, 25125.45
425.1390, 28963.08
426.3330, 30479.93
427.5270, 28045.70
428.7200, 22884.36
429.9130, 16963.04
431.1060, 12176.72
432.2990, 8613.417
433.4920, 6048.123
434.6840, 4481.840
435.8770, 3310.568
437.0690, 2614.308
438.2610, 2104.059
439.4530, 1758.832
440.6450, 1347.614
441.8360, 1245.404
443.0280, 903.2202
444.2190, 877.0532
445.4100, 708.8965
446.6010, 658.7559
447.7920, 554.6255
448.9820, 481.5132
450.1730, 391.4172
451.3630, 428.3438
452.5530, 476.2986
453.7430, 507.2659
454.9330, 466.2471
456.1230, 442.2446
457.3120, 416.2588
458.5010, 446.1855
459.6910, 522.3181
460.8800, 520.3770
462.0680, 629.4443
463.2570, 652.5310
464.4460, 767.6289
465.6340, 884.7434
466.8220, 1064.865
468.0100, 1203.997
469.1980, 1368.134
470.3860, 1682.276
471.5730, 1939.426
472.7600, 2160.582
473.9480, 2456.747
475.1350, 2839.918
476.3210, 3385.094
477.5080, 3667.288
478.6950, 4117.491
479.8810, 4488.715
481.0670, 4842.944
482.2530, 5204.179
483.4390, 5147.433
484.6250, 5182.688
485.8100, 5372.956
486.9960, 5207.237
488.1810, 5229.522
489.3660, 5233.808
490.5510, 4979.109
491.7360, 4860.422
492.9200, 4692.755
494.1050, 4456.091
495.2890, 4184.436
496.4730, 4005.785
497.6570, 3680.144
498.8400, 3507.503
500.0240, 3094.862
501.2070, 2835.042
502.3910, 2582.402
503.5740, 2273.190
504.7570, 2023.552
505.9400, 1820.755
507.1220, 1527.447
508.3050, 1363.807
509.4870, 1208.166
510.6690, 1088.524
511.8510, 920.8892
513.0330, 755.2517
514.2140, 620.6125
515.3960, 590.9707
516.5770, 389.3262
517.7580, 375.6807
518.9390, 316.0317
520.1200, 202.3799
521.3010, 213.7312
522.4810, 169.0789
523.6610, 147.4229
524.8420, 129.7629
526.0220, 60.09888
527.2010, 55.43066
528.3810, 89.75757
529.5610, 45.08008
530.7400, 1.397217
531.9190, 4.706299
533.0980, 42.99194
534.2770, 1.722412
535.4560, 64.46460
536.6340, 24.74829
537.8120, 77.04468
538.9910, 3.110107
540.1690, 79.74658
541.3460, 111.6575
542.5240, 57.64062
543.7020, 38.66772
544.8790, 9.270752
546.0560, 26.80078
547.2330, 31.09863
548.4100, 10.99048
549.5870, 23.12085
550.7630, 27.25977
551.9400, 3.429443
553.1160, 15.60889
554.2920, 1.989990
555.4680, 34.03540
556.6440, 15.71362
557.8190, 20.45044
558.9950, 1.176514
560.1700, 14.94312
561.3450, 8.637695
562.5200, 72.31689
563.6950, 118.0378
564.8690, 84.24072
566.0440, 53.23291
567.2180, 24.04102
568.3920, 30.92285
569.5660, 139.3977
570.7400, 82.00024
571.9130, 96.76099
573.0870, 176.6145
574.2600, 150.8179
575.4330, 123.5664
576.6060, 218.1489
577.7790, 207.8499
578.9520, 224.3623
580.1240, 267.8445
581.2960, 231.4758
582.4690, 303.0588
583.6410, 291.6523
584.8120, 343.6562
585.9840, 311.3777
587.1560, 319.9189
588.3270, 364.8342
589.4980, 401.3936
590.6690, 441.0576
591.8400, 463.2124
593.0110, 559.1123
594.1810, 600.8467
595.3510, 700.9592
596.5220, 872.8145
597.6920, 993.5703
598.8610, 1000.503
600.0310, 1246.411
601.2010, 1452.750
602.3700, 1559.577
603.5390, 1547.116
604.7080, 1599.683
605.8770, 1405.221
607.0460, 1327.110
608.2140, 1236.984
609.3830, 1221.498
610.5510, 1241.758
611.7190, 1178.883
612.8870, 1228.213
614.0550, 1402.766
615.2220, 1366.272
616.3900, 1532.513
617.5570, 1650.031
618.7240, 1791.241
619.8910, 1862.568
621.0580, 2167.251
622.2240, 2259.825
623.3910, 2585.556
624.5570, 2803.602
625.7230, 3188.278
626.8890, 3669.720
628.0550, 4281.790
629.2200, 4930.635
630.3860, 5527.757
631.5510, 6486.045
632.7160, 7485.197
633.8810, 8811.054
635.0460, 10508.79
636.2100, 12749.50
637.3750, 15616.02
638.5390, 19280.78
639.7030, 23568.57
640.8670, 28871.38
642.0310, 35348.04
643.1950, 42239.05
644.3580, 49286.96
645.5210, 53280.53
646.6850, 53536.46
647.8480, 49033.96
649.0100, 41748.65
650.1730, 33264.12
651.3350, 25832.58
652.4980, 19560.98
653.6600, 15105.37
654.8220, 11770.73
655.9840, 9491.078
657.1450, 7675.680
658.3070, 6399.965
659.4680, 5367.225
660.6300, 4443.845
661.7910, 3796.057
662.9510, 3274.243
664.1120, 2922.406
665.2730, 2591.542
666.4330, 2273.654
667.5930, 1991.741
668.7530, 1701.802
669.9130, 1569.838
671.0730, 1377.686
672.2320, 1201.637
673.3920, 1055.587
674.5510, 1074.065
675.7100, 1060.543
676.8690, 796.4287
678.0280, 844.9971
679.1860, 689.5359
680.3450, 693.8179
681.5030, 621.0400
682.6610, 517.5981
683.8190, 466.2942
684.9770, 406.8337
686.1340, 348.1702
687.2920, 343.8376
688.4490, 314.3564
689.6060, 322.4075
690.7630, 284.5110
691.9200, 289.9675
693.0760, 254.7021
694.2330, 203.4924
695.3890, 179.2646
696.5450, 155.7957
697.7010, 157.8538
698.8570, 127.3992
700.0130, 158.5068
701.1680, 154.3499
702.3230, 127.7136
703.4780, 63.05396
704.6330, 78.36670
705.7880, 32.65283
706.9430, 110.7002
708.0970, 140.8193
709.2520, 145.0254
710.4060, 97.20825
711.5600, 84.36670
712.7140, 55.93115
713.8670, 94.03589
715.0210, 128.1157
716.1740, 31.17236
717.3270, 87.19580
718.4800, 49.52832
719.6330, 103.4976
720.7860, 111.4426
721.9380, 105.3640
723.0910, 58.26196
724.2430, 80.13184
725.3950, 4.976807
726.5470, 59.78052
727.6980, 4.584229
728.8500, 6.319092
730.0010, 7.489746
731.1530, 33.85620
732.3040, 22.12305
733.4550, 11.68091
734.6050, 17.20068
735.7560, 1.315430
736.9060, 48.12427
738.0560, 13.53613
739.2060, 28.08862
740.3560, 49.22900
741.5060, 16.48022
742.6560, 18.75928
743.8050, 0.6684570
744.9540, 41.49463
746.1030, 40.62939
747.2520, 59.73633
748.4010, 85.81836
749.5500, 26.87769
750.6980, 69.44189
751.8460, 14.21631
752.9950, 52.19385
754.1420, 73.65308
755.2900, 19.89014
756.4380, 20.98047
757.5850, 34.18018
758.7330, 35.86035
759.8800, 38.61353
761.0270, 26.53052
762.1730, 74.14258
763.3200, 6.202148
764.4670, 7.159180
765.6130, 61.62378
766.7590, 119.8418
767.9050, 19.51465
769.0510, 10.44873
770.1960, 53.10449
771.3420, 72.27637
772.4870, 0.3630370
773.6320, 18.95947
774.7770, 1.253662
775.9220, 66.51147
777.0670, 56.03320
778.2110, 49.49805
779.3560, 71.93506
780.5000, 32.11279
781.6440, 34.26807
782.7880, 73.28223
783.9320, 30.39648
785.0750, 95.48877
786.2180, 37.56348
787.3620, 89.61768
788.5050, 7.345703
789.6480, 166.6553
790.7900, 116.6392
791.9330, 81.60547
793.0750, 57.55469
794.2170, 24.48730
795.3590, 77.39990
796.5010, 84.43896
797.6430, 1.681152
798.7850, 97.16943
799.9260, 55.00391
801.0670, 91.82324
802.2080, 105.6270
803.3490, 59.41504
804.4900, 108.1880
805.6310, 83.94580
806.7710, 94.68896
807.9110, 93.41748
809.0510, 107.1333
810.1910, 102.6255
811.3310, 77.53662
812.4710, 112.2275
813.6100, 95.92383
814.7490, 134.6064
815.8880, 29.29932
817.0270, 81.98096
818.1660, 51.67334
819.3050, 132.3857
820.4430, 115.1045
821.5820, 81.82373
822.7200, 84.53271
823.8580, 69.24023
824.9950, 21.06445
826.1330, 6.604980
827.2710, 60.27295
828.4080, 27.06006
829.5450, 93.58398
830.6820, 102.2261
831.8190, 19.13916
832.9560, 9.486816
834.0920, 11.10449
835.2280, 27.71240
836.3650, 61.25781
837.5010, 77.85352
838.6360, 71.21045
839.7720, 20.97266
840.9080, 54.00146
842.0430, 23.22266
843.1780, 29.60889
844.3130, 23.04004
845.4480, 82.58252
846.5830, 31.11670
847.7170, 95.47559
848.8520, 8.277344
849.9860, 42.59961
851.1200, 24.91357
852.2540, 45.37549
853.3870, 40.70166
854.5210, 7.048828
855.6540, 16.70508
856.7880, 18.96094
857.9210, 70.41504
859.0540, 76.75732
860.1860, 70.67090
861.3190, 132.8501
862.4510, 115.1914
863.5840, 25.85840
864.7160, 24.42480
865.8480, 13.19092
866.9790, 70.23682
868.1110, 11.87500
869.2420, 56.15918
870.3740, 74.79834
871.5050, 57.67725
872.6360, 139.6392
873.7660, 42.40674
874.8970, 74.18213
876.0280, 65.51074
877.1580, 51.33350
878.2880, 36.83643
879.4180, 40.52246
880.5480, 8.532715
881.6770, 8.221191
882.8070, 64.90869
883.9360, 44.93945
885.0650, 9.208008
886.1940, 20.40430
887.3230, 27.43213
888.4520, 33.97852
889.5800, 20.37158
890.7090, 21.17773
891.8370, 24.72217
892.9650, 26.91357
894.0930, 13.02783
895.2200, 18.65918
896.3480, 7.561035
897.4750, 18.04590
898.6020, 48.67676
899.7290, 1.051270
900.8560, 12.20654
901.9830, 29.00488
903.1090, 7.597168
904.2360, 23.48096
905.3620, 61.45264
906.4880, 36.50684
907.6140, 38.84521
908.7400, 38.29248
909.8650, 31.75195
910.9900, 13.38232
912.1160, 27.23975
913.2410, 63.09766
914.3660, 15.59033
915.4900, 64.86719
916.6150, 82.95850
917.7390, 39.86621
918.8640, 80.63818
919.9880, 76.77832
921.1120, 8.336914
922.2350, 102.6904
923.3590, 90.27490
924.4820, 3.838867
925.6060, 79.44727
926.7290, 3.067871
927.8520, 195.6997
928.9740, 87.32520
930.0970, 124.6924
931.2190, 11.63721
932.3420, 122.0449
933.4640, 77.35693
934.5860, 49.06543
935.7080, 80.78760
936.8290, 174.5244
937.9510, 69.27539
939.0720, 117.0405
940.1930, 230.8198
941.3140, 169.6138
942.4350, 231.4229
943.5560, 253.2461
944.6760, 177.0854
945.7960, 281.9399
946.9170, 239.8096
948.0370, 285.6943
949.1560, 335.5947
950.2760, 205.5117
951.3960, 285.4438
952.5150, 434.3916
953.6340, 378.3555
954.7530, 334.3364
955.8720, 394.3330
956.9910, 435.3452
958.1090, 578.3838
959.2280, 465.4385
960.3460, 567.8613
961.4640, 554.9121
962.5820, 585.0420
963.6990, 601.2876
964.8170, 746.4727
965.9340, 685.6885
967.0510, 817.6479
968.1690, 841.9277
969.2850, 919.2441
970.4020, 953.5786
971.5190, 1004.932
972.6350, 958.3037
973.7510, 1147.693
974.8670, 1270.103
975.9830, 1355.536
977.0990, 1620.999
978.2150, 1578.496
979.3300, 1861.032
980.4450, 1920.588
981.5600, 2028.164
982.6750, 2247.775
983.7900, 2482.978
984.9050, 2800.636
986.0190, 3069.313
987.1340, 3419.012
988.2480, 4012.735
989.3620, 4310.146
990.4750, 4939.915
991.5890, 5625.705
992.7020, 6418.516
993.8160, 7447.350
994.9290, 8335.205
996.0420, 9663.087
997.1550, 10634.01
998.2670, 12164.92
999.3800, 13727.88
1000.492, 15532.41
1001.604, 17298.44
1002.716, 19136.13
1003.828, 21441.22
1004.940, 23613.37
1006.051, 26457.53
1007.163, 28320.73
1008.274, 30329.96
1009.385, 31194.21
1010.496, 31802.50
1011.606, 31660.82
1012.717, 30938.17
1013.827, 29436.19
1014.937, 27701.60
1016.047, 25330.04
1017.157, 23336.51
1018.267, 20998.00
1019.377, 19151.52
1020.486, 17129.53
1021.595, 15643.33
1022.704, 14210.93
1023.813, 13133.04
1024.922, 12301.17
1026.030, 11767.85
1027.139, 11434.58
1028.247, 11345.00
1029.355, 11395.90
1030.463, 11880.60
1031.571, 12441.48
1032.678, 13289.97
1033.786, 14182.88
1034.893, 15517.64
1036.000, 16764.96
1037.107, 18010.86
1038.214, 19255.97
1039.321, 20484.51
1040.427, 21605.09
1041.533, 22720.25
1042.639, 23709.45
1043.745, 24423.67
1044.851, 24809.92
1045.957, 24982.39
1047.062, 24714.98
1048.168, 24768.60
1049.273, 24219.96
1050.378, 23928.36
1051.482, 23070.89
1052.587, 22615.62
1053.692, 22353.08
1054.796, 22300.57
1055.900, 22540.87
1057.004, 22377.41
1058.108, 22979.99
1059.212, 23116.58
1060.315, 23374.20
1061.418, 23244.84
1062.522, 22620.51
1063.625, 21343.20
1064.728, 19530.77
1065.830, 17061.51
1066.933, 14976.28
1068.035, 12885.07
1069.137, 11075.89
1070.239, 9459.729
1071.341, 8261.589
1072.443, 7298.473
1073.545, 6281.379
1074.646, 5799.309
1075.747, 5119.260
1076.848, 4776.234
1077.949, 4240.232
1079.050, 3902.252
1080.150, 3498.295
1081.251, 3270.359
1082.351, 3000.448
1083.451, 2745.558
1084.551, 2665.691
1085.651, 2378.847
1086.750, 2241.025
1087.850, 2099.226
1088.949, 1890.447
1090.048, 1844.651
1091.147, 1644.917
1092.246, 1594.205
1093.345, 1514.160
1094.443, 1399.420
1095.541, 1385.958
1096.639, 1233.521
1097.737, 1236.153
1098.835, 1123.656
1099.933, 1160.173
1101.030, 1076.062
1102.128, 894.5728
1103.225, 961.1113
1104.322, 901.6694
1105.419, 939.2471
1106.515, 1022.844
1107.612, 966.0283
1108.708, 1022.799
1109.804, 978.4648
1110.900, 977.6226
1111.996, 1091.375
1113.092, 1045.085
1114.187, 1050.691
1115.283, 1042.440
1116.378, 1059.396
1117.473, 1075.184
1118.568, 1042.989
1119.662, 1083.812
1120.757, 1083.652
1121.851, 964.5991
1122.946, 958.4756
1124.040, 939.3687
1125.134, 918.3926
1126.227, 805.4834
1127.321, 849.4287
1128.414, 776.7695
1129.508, 781.7539
1130.601, 698.7598
1131.693, 669.7812
1132.786, 593.8213
1133.879, 550.8848
1134.971, 501.9683
1136.064, 415.6182
1137.156, 469.7363
1138.248, 382.9043
1139.339, 439.0527
1140.431, 278.2153
1141.522, 291.3940
1142.614, 308.5884
1143.705, 226.7964
1144.796, 133.0181
1145.887, 128.2632
1146.977, 92.20166
1148.068, 178.7930
1149.158, 82.09131
1150.248, 175.4019
1151.338, 157.0010
1152.428, 139.3433
1153.518, 137.7036
1154.607, 106.2539
1155.696, 82.47217
1156.785, 61.87793
1157.874, 33.07275
1158.963, 30.98877
1160.052, 30.80371
1161.141, 19.25732
1162.229, 49.72412
1163.317, 56.20117
1164.405, 49.69580
1165.493, 4.200684
1166.581, 14.71631
1167.668, 71.24512
1168.756, 5.784180
1169.843, 57.33545
1170.930, 17.33789
1172.017, 86.97021
1173.103, 101.5439
1174.190, 29.12646
1175.276, 25.71729
1176.363, 45.57520
1177.449, 35.98096
1178.535, 17.75342
1179.620, 70.83984
1180.706, 43.44043
1181.791, 47.04883
1182.877, 34.30566
1183.962, 16.30859
1185.047, 49.02148
1186.131, 22.35010
1187.216, 45.28027
1188.300, 107.9170
1189.385, 42.56006
1190.469, 46.54443
1191.553, 42.20068
1192.637, 128.8623
1193.720, 94.52930
1194.804, 68.20166
1195.887, 81.88330
1196.970, 57.57031
1198.053, 31.26221
1199.136, 1.958496
1200.219, 35.65869
1201.301, 20.36328
1202.383, 30.66309
1203.465, 43.05029
1204.547, 31.50244
1205.629, 68.22314
1206.711, 28.94775
1207.792, 52.67627
1208.874, 30.40820
1209.955, 63.14307
1211.036, 112.8813
1212.117, 55.62256
1213.198, 12.36621
1214.278, 54.29102
1215.359, 100.0400
1216.439, 59.79395
1217.519, 25.55029
1218.599, 61.30811
1219.678, 32.93018
1220.758, 11.81445
1221.837, 16.56152
1222.917, 77.68994
1223.996, 11.98145
1225.075, 16.28076
1226.153, 51.06445
1227.232, 51.38916
1228.310, 65.42090
1229.389, 29.90771
1230.467, 69.23389
1231.545, 55.32080
1232.622, 89.65869
1233.700, 48.21289
1234.777, 59.76660
1235.855, 70.31982
1236.932, 0.1225590
1238.009, 27.57227
1239.086, 25.04248
1240.162, 65.53076
1241.239, 14.93994
1242.315, 49.40820
1243.391, 54.33447
1244.467, 48.09668
1245.543, 11.78955
1246.619, 29.21533
1247.694, 116.6792
1248.769, 72.10107
1249.844, 86.52002
1250.919, 17.96680
1251.994, 107.4199
1253.069, 30.82959
1254.144, 18.51074
1255.218, 17.03271
1256.292, 93.42969
1257.366, 7.637695
1258.440, 84.79102
1259.514, 103.1646
1260.587, 74.69434
1261.661, 81.06055
1262.734, 40.33691
1263.807, 64.14795
1264.880, 7.704102
1265.952, 58.00439
1267.025, 31.33350
1268.097, 112.7124
1269.170, 58.03125
1270.242, 59.80664
